06/29/2022	23:13:36	Ver.	4.1	UNKNOWN
Optical Delay	630.002507	Delta X		0.078125	Sweeps	1	Scan Rate	0/0
Coordinates	Axis 1	NaN	Axis 2	NaN	Axis 3	NaN	Axis 4	NaN	Axis 5	NaN	Axis 6	0.000000
TX Power	0.000000	RX Power	0.000000

630.003	0.0160747
630.081	0.0161266
630.159	0.0159453
630.237	0.0160327
630.315	0.0160802
630.393	0.0159615
630.471	0.0160840
630.549	0.0160027
630.628	0.0161082
630.706	0.0159131
630.784	0.0160661
630.862	0.0160216
630.940	0.0160312
631.018	0.0159393
631.096	0.0159509
631.174	0.0159142
631.253	0.0159271
631.331	0.0159131
631.409	0.0160114
631.487	0.0158843
631.565	0.0159808
631.643	0.0159435
631.721	0.0160242
631.799	0.0158376
631.878	0.0158200
631.956	0.0160578
632.034	0.0159943
632.112	0.0158724
632.190	0.0160195
632.268	0.0159232
632.346	0.0160075
632.424	0.0159941
632.503	0.0159618
632.581	0.0160887
632.659	0.0160076
632.737	0.0160417
632.815	0.0160529
632.893	0.0159435
632.971	0.0160883
633.049	0.0160511
633.128	0.0159918
633.206	0.0161058
633.284	0.0160230
633.362	0.0161411
633.440	0.0161281
633.518	0.0159964
633.596	0.0161908
633.674	0.0159420
633.753	0.0160243
633.831	0.0161053
633.909	0.0161277
633.987	0.0161015
634.065	0.0161497
634.143	0.0160142
634.221	0.0160232
634.299	0.0160302
634.378	0.0160455
634.456	0.0160323
634.534	0.0161412
634.612	0.0160530
634.690	0.0159919
634.768	0.0159510
634.846	0.0160407
634.924	0.0159597
635.003	0.0159844
635.081	0.0159469
635.159	0.0160395
635.237	0.0159586
635.315	0.0160058
635.393	0.0161262
635.471	0.0158231
635.549	0.0159400
635.628	0.0161277
635.706	0.0159838
635.784	0.0159595
635.862	0.0158823
635.940	0.0159872
636.018	0.0159768
636.096	0.0159035
636.174	0.0160435
636.253	0.0160871
636.331	0.0161086
636.409	0.0159261
636.487	0.0159496
636.565	0.0160449
636.643	0.0160627
636.721	0.0160441
636.799	0.0160481
636.878	0.0160283
636.956	0.0160390
637.034	0.0160857
637.112	0.0159648
637.190	0.0161049
637.268	0.0161436
637.346	0.0160681
637.424	0.0160093
637.503	0.0160954
637.581	0.0160708
637.659	0.0159738
637.737	0.0160933
637.815	0.0160212
637.893	0.0161308
637.971	0.0160329
638.049	0.0159550
638.128	0.0160216
638.206	0.0160324
638.284	0.0160002
638.362	0.0161510
638.440	0.0161296
638.518	0.0160622
638.596	0.0160196
638.674	0.0161133
638.753	0.0161636
638.831	0.0160185
638.909	0.0160011
638.987	0.0160260
639.065	0.0159252
639.143	0.0160590
639.221	0.0158607
639.299	0.0159439
639.378	0.0159896
639.456	0.0159638
639.534	0.0160309
639.612	0.0160415
639.690	0.0158941
639.768	0.0160592
639.846	0.0158906
639.924	0.0158940
640.003	0.0159770
640.081	0.0160054
640.159	0.0160213
640.237	0.0159280
640.315	0.0159093
640.393	0.0160137
640.471	0.0160791
640.549	0.0159438
640.628	0.0159895
640.706	0.0160226
640.784	0.0160354
640.862	0.0159466
640.940	0.0159100
641.018	0.0159703
641.096	0.0160550
641.174	0.0159636
641.253	0.0159225
641.331	0.0160510
641.409	0.0160193
641.487	0.0159624
641.565	0.0159759
641.643	0.0158703
641.721	0.0158970
641.799	0.0160271
641.878	0.0160246
641.956	0.0160602
642.034	0.0158803
642.112	0.0159781
642.190	0.0157944
642.268	0.0159378
642.346	0.0159810
642.424	0.0160019
642.503	0.0157877
642.581	0.0159055
642.659	0.0160754
642.737	0.0158924
642.815	0.0158080
642.893	0.0158393
642.971	0.0159045
643.049	0.0158916
643.128	0.0159741
643.206	0.0158685
643.284	0.0159525
643.362	0.0158305
643.440	0.0158448
643.518	0.0157770
643.596	0.0159444
643.674	0.0158217
643.753	0.0159052
643.831	0.0158843
643.909	0.0159182
643.987	0.0158318
644.065	0.0159767
644.143	0.0158870
644.221	0.0159290
644.299	0.0158620
644.378	0.0159214
644.456	0.0158714
644.534	0.0158419
644.612	0.0158953
644.690	0.0159730
644.768	0.0157512
644.846	0.0158673
644.924	0.0159886
645.003	0.0159978
645.081	0.0156889
645.159	0.0158699
645.237	0.0160161
645.315	0.0159746
645.393	0.0158804
645.471	0.0160764
645.549	0.0159454
645.628	0.0158903
645.706	0.0159649
645.784	0.0159951
645.862	0.0159021
645.940	0.0160775
646.018	0.0160822
646.096	0.0159412
646.174	0.0160183
646.253	0.0158436
646.331	0.0159882
646.409	0.0160281
646.487	0.0161159
646.565	0.0160477
646.643	0.0160497
646.721	0.0160277
646.799	0.0159981
646.878	0.0159913
646.956	0.0159580
647.034	0.0159496
647.112	0.0159095
647.190	0.0160229
647.268	0.0160600
647.346	0.0159115
647.424	0.0158479
647.503	0.0157887
647.581	0.0160421
647.659	0.0158372
647.737	0.0158987
647.815	0.0158806
647.893	0.0160671
647.971	0.0158325
648.049	0.0158790
648.128	0.0159774
648.206	0.0159024
648.284	0.0159713
648.362	0.0160195
648.440	0.0161210
648.518	0.0160386
648.596	0.0158237
648.674	0.0160258
648.753	0.0158747
648.831	0.0157964
648.909	0.0157728
648.987	0.0159242
649.065	0.0160454
649.143	0.0158159
649.221	0.0158585
649.299	0.0159525
649.378	0.0159056
649.456	0.0160890
649.534	0.0158990
649.612	0.0160241
649.690	0.0159771
649.768	0.0160305
649.846	0.0160410
649.924	0.0158794
650.003	0.0159423
650.081	0.0160819
650.159	0.0158654
650.237	0.0159747
650.315	0.0158637
650.393	0.0158388
650.471	0.0158973
650.549	0.0159158
650.628	0.0158444
650.706	0.0159651
650.784	0.0159345
650.862	0.0158658
650.940	0.0157787
651.018	0.0158868
651.096	0.0159151
651.174	0.0160577
651.253	0.0159693
651.331	0.0159745
651.409	0.0159705
651.487	0.0159853
651.565	0.0159046
651.643	0.0159332
651.721	0.0159499
651.799	0.0160782
651.878	0.0159309
651.956	0.0158634
652.034	0.0158657
652.112	0.0159049
652.190	0.0159632
652.268	0.0159364
652.346	0.0160520
652.424	0.0159171
652.503	0.0159827
652.581	0.0159403
652.659	0.0160159
652.737	0.0159773
652.815	0.0158892
652.893	0.0159574
652.971	0.0159772
653.049	0.0159298
653.128	0.0158743
653.206	0.0159097
653.284	0.0159056
653.362	0.0159922
653.440	0.0159013
653.518	0.0159657
653.596	0.0160751
653.674	0.0158965
653.753	0.0158433
653.831	0.0158053
653.909	0.0158865
653.987	0.0158574
654.065	0.0158913
654.143	0.0160079
654.221	0.0159588
654.299	0.0160165
654.378	0.0159754
654.456	0.0159332
654.534	0.0159772
654.612	0.0159480
654.690	0.0158582
654.768	0.0159730
654.846	0.0159663
654.924	0.0159172
655.003	0.0159811
655.081	0.0160305
655.159	0.0159950
655.237	0.0158764
655.315	0.0158501
655.393	0.0159653
655.471	0.0159678
655.549	0.0160213
655.628	0.0158510
655.706	0.0159621
655.784	0.0160822
655.862	0.0159264
655.940	0.0159177
656.018	0.0159782
656.096	0.0160591
656.174	0.0160313
656.253	0.0159229
656.331	0.0158954
656.409	0.0159253
656.487	0.0159840
656.565	0.0160200
656.643	0.0159743
656.721	0.0160223
656.799	0.0160098
656.878	0.0158776
656.956	0.0158128
657.034	0.0160026
657.112	0.0160092
657.190	0.0158792
657.268	0.0158446
657.346	0.0160309
657.424	0.0160213
657.503	0.0159402
657.581	0.0158463
657.659	0.0159769
657.737	0.0159641
657.815	0.0160429
657.893	0.0158572
657.971	0.0158767
658.049	0.0160051
658.128	0.0159100
658.206	0.0159887
658.284	0.0158677
658.362	0.0159000
658.440	0.0158705
658.518	0.0158905
658.596	0.0159873
658.674	0.0158333
658.753	0.0158201
658.831	0.0160155
658.909	0.0158653
658.987	0.0159551
659.065	0.0159077
659.143	0.0158006
659.221	0.0159542
659.299	0.0159914
659.378	0.0159167
659.456	0.0159473
659.534	0.0159637
659.612	0.0158509
659.690	0.0160217
659.768	0.0159731
659.846	0.0160082
659.924	0.0158274
660.003	0.0158721
660.081	0.0160057
660.159	0.0159481
660.237	0.0158370
660.315	0.0159698
660.393	0.0159692
660.471	0.0159145
660.549	0.0159082
660.628	0.0160012
660.706	0.0160754
660.784	0.0160103
660.862	0.0159798
660.940	0.0159064
661.018	0.0160267
661.096	0.0160198
661.174	0.0160893
661.253	0.0160728
661.331	0.0160590
661.409	0.0161208
661.487	0.0160236
661.565	0.0161098
661.643	0.0160291
661.721	0.0161538
661.799	0.0160223
661.878	0.0160047
661.956	0.0158628
662.034	0.0159512
662.112	0.0160468
662.190	0.0160099
662.268	0.0161244
662.346	0.0160020
662.424	0.0159296
662.503	0.0160153
662.581	0.0158403
662.659	0.0158562
662.737	0.0160995
662.815	0.0159362
662.893	0.0159366
662.971	0.0159930
663.049	0.0159573
663.128	0.0159576
663.206	0.0159651
663.284	0.0159102
663.362	0.0160228
663.440	0.0159724
663.518	0.0159936
663.596	0.0159048
663.674	0.0160474
663.753	0.0161348
663.831	0.0160363
663.909	0.0159438
663.987	0.0158903
664.065	0.0159750
664.143	0.0159431
664.221	0.0159978
664.299	0.0159669
664.378	0.0158961
664.456	0.0159141
664.534	0.0159276
664.612	0.0159149
664.690	0.0158714
664.768	0.0160859
664.846	0.0159782
664.924	0.0160361
665.003	0.0159513
665.081	0.0159022
665.159	0.0160001
665.237	0.0158839
665.315	0.0160099
665.393	0.0160446
665.471	0.0158840
665.549	0.0159378
665.628	0.0159127
665.706	0.0159030
665.784	0.0160554
665.862	0.0158311
665.940	0.0158098
666.018	0.0159026
666.096	0.0160430
666.174	0.0159957
666.253	0.0160557
666.331	0.0161215
666.409	0.0160049
666.487	0.0158165
666.565	0.0159823
666.643	0.0158962
666.721	0.0159177
666.799	0.0159560
666.878	0.0159590
666.956	0.0159257
667.034	0.0158069
667.112	0.0160629
667.190	0.0158829
667.268	0.0158852
667.346	0.0158086
667.424	0.0158929
667.503	0.0158075
667.581	0.0158238
667.659	0.0160146
667.737	0.0159875
667.815	0.0157844
667.893	0.0158016
667.971	0.0159502
668.049	0.0159053
668.128	0.0158928
668.206	0.0159667
668.284	0.0160015
668.362	0.0159004
668.440	0.0160199
668.518	0.0157967
668.596	0.0159103
668.674	0.0159604
668.753	0.0159422
668.831	0.0160188
668.909	0.0159506
668.987	0.0157822
669.065	0.0158017
669.143	0.0158576
669.221	0.0160051
669.299	0.0159747
669.378	0.0160352
669.456	0.0159353
669.534	0.0159354
669.612	0.0160275
669.690	0.0159212
669.768	0.0160088
669.846	0.0159902
669.924	0.0158018
670.003	0.0158643
670.081	0.0158581
670.159	0.0160293
670.237	0.0160354
670.315	0.0159414
670.393	0.0160290
670.471	0.0158506
670.549	0.0159943
670.628	0.0160210
670.706	0.0159951
670.784	0.0159937
670.862	0.0159904
670.940	0.0159760
671.018	0.0160082
671.096	0.0159529
671.174	0.0159483
671.253	0.0160598
671.331	0.0159422
671.409	0.0160411
671.487	0.0158449
671.565	0.0161013
671.643	0.0159155
671.721	0.0159698
671.799	0.0160989
671.878	0.0158092
671.956	0.0159454
672.034	0.0160602
672.112	0.0159505
672.190	0.0159708
672.268	0.0160664
672.346	0.0159831
672.424	0.0159389
672.503	0.0161611
672.581	0.0159587
672.659	0.0159523
672.737	0.0159554
672.815	0.0159418
672.893	0.0159311
672.971	0.0158591
673.049	0.0159702
673.128	0.0160535
673.206	0.0160290
673.284	0.0159258
673.362	0.0159946
673.440	0.0160079
673.518	0.0158978
673.596	0.0159312
673.674	0.0159846
673.753	0.0159829
673.831	0.0159068
673.909	0.0159932
673.987	0.0160478
674.065	0.0160675
674.143	0.0159789
674.221	0.0158927
674.299	0.0159754
674.378	0.0160583
674.456	0.0160026
674.534	0.0159431
674.612	0.0158407
674.690	0.0158399
674.768	0.0160457
674.846	0.0160585
674.924	0.0159267
675.003	0.0158343
675.081	0.0159624
675.159	0.0159906
675.237	0.0160194
675.315	0.0160360
675.393	0.0159186
675.471	0.0160400
675.549	0.0160801
675.628	0.0158817
675.706	0.0160550
675.784	0.0160741
675.862	0.0158764
675.940	0.0159677
676.018	0.0160684
676.096	0.0159763
676.174	0.0159695
676.253	0.0160046
676.331	0.0161604
676.409	0.0160509
676.487	0.0158980
676.565	0.0159946
676.643	0.0159840
676.721	0.0160728
676.799	0.0159699
676.878	0.0158906
676.956	0.0159694
677.034	0.0159843
677.112	0.0160975
677.190	0.0159430
677.268	0.0159341
677.346	0.0160928
677.424	0.0160816
677.503	0.0159894
677.581	0.0159597
677.659	0.0159214
677.737	0.0160222
677.815	0.0159731
677.893	0.0159021
677.971	0.0159444
678.049	0.0159814
678.128	0.0159426
678.206	0.0160237
678.284	0.0159586
678.362	0.0160480
678.440	0.0160470
678.518	0.0158887
678.596	0.0158166
678.674	0.0159856
678.753	0.0160193
678.831	0.0159492
678.909	0.0159827
678.987	0.0159109
679.065	0.0160121
679.143	0.0160116
679.221	0.0158996
679.299	0.0160150
679.378	0.0158683
679.456	0.0159415
679.534	0.0159458
679.612	0.0159460
679.690	0.0161343
679.768	0.0159502
679.846	0.0159410
679.924	0.0159980
680.003	0.0159828
680.081	0.0160830
680.159	0.0160313
680.237	0.0159998
680.315	0.0159447
680.393	0.0160220
680.471	0.0160933
680.549	0.0160866
680.628	0.0158834
680.706	0.0160743
680.784	0.0161018
680.862	0.0160607
680.940	0.0159758
681.018	0.0158627
681.096	0.0160358
681.174	0.0160439
681.253	0.0159566
681.331	0.0159986
681.409	0.0160286
681.487	0.0159444
681.565	0.0159964
681.643	0.0159856
681.721	0.0160042
681.799	0.0160980
681.878	0.0160210
681.956	0.0158492
682.034	0.0160988
682.112	0.0160083
682.190	0.0159156
682.268	0.0160585
682.346	0.0160777
682.424	0.0160214
682.503	0.0159940
682.581	0.0160323
682.659	0.0160528
682.737	0.0160189
682.815	0.0160271
682.893	0.0160040
682.971	0.0161714
683.049	0.0161176
683.128	0.0160094
683.206	0.0160340
683.284	0.0161245
683.362	0.0161618
683.440	0.0159082
683.518	0.0158778
683.596	0.0161311
683.674	0.0160263
683.753	0.0160885
683.831	0.0160590
683.909	0.0161605
683.987	0.0160880
684.065	0.0161880
684.143	0.0159782
684.221	0.0159305
684.299	0.0160397
684.378	0.0160613
684.456	0.0161633
684.534	0.0160581
684.612	0.0159141
684.690	0.0160236
684.768	0.0161136
684.846	0.0161148
684.924	0.0160292
685.003	0.0160492
685.081	0.0159867
685.159	0.0160292
685.237	0.0160871
685.315	0.0161465
685.393	0.0161234
685.471	0.0159620
685.549	0.0160370
685.628	0.0161954
685.706	0.0160095
685.784	0.0161138
685.862	0.0161294
685.940	0.0160896
686.018	0.0158579
686.096	0.0161413
686.174	0.0161515
686.253	0.0160548
686.331	0.0161027
686.409	0.0160607
686.487	0.0160952
686.565	0.0160353
686.643	0.0161089
686.721	0.0160457
686.799	0.0160188
686.878	0.0161703
686.956	0.0160815
687.034	0.0160135
687.112	0.0159293
687.190	0.0159771
687.268	0.0160625
687.346	0.0161342
687.424	0.0159640
687.503	0.0161224
687.581	0.0161272
687.659	0.0162042
687.737	0.0159923
687.815	0.0160680
687.893	0.0159829
687.971	0.0160037
688.049	0.0160452
688.128	0.0160803
688.206	0.0161144
688.284	0.0160786
688.362	0.0161629
688.440	0.0159557
688.518	0.0160780
688.596	0.0160124
688.674	0.0162923
688.753	0.0160552
688.831	0.0159118
688.909	0.0161842
688.987	0.0162575
689.065	0.0160551
689.143	0.0159949
689.221	0.0160986
689.299	0.0162408
689.378	0.0162843
689.456	0.0161515
689.534	0.0160715
689.612	0.0161510
689.690	0.0160963
689.768	0.0161512
689.846	0.0160121
689.924	0.0159736
690.003	0.0160817
690.081	0.0161019
690.159	0.0162341
690.237	0.0161578
690.315	0.0160854
690.393	0.0160197
690.471	0.0160970
690.549	0.0160484
690.628	0.0160494
690.706	0.0160101
690.784	0.0161709
690.862	0.0160792
690.940	0.0161341
691.018	0.0160259
691.096	0.0159914
691.174	0.0160795
691.253	0.0159873
691.331	0.0160752
691.409	0.0160229
691.487	0.0160072
691.565	0.0160404
691.643	0.0160137
691.721	0.0160841
691.799	0.0160046
691.878	0.0160767
691.956	0.0161224
692.034	0.0160870
692.112	0.0161535
692.190	0.0161209
692.268	0.0159899
692.346	0.0159312
692.424	0.0161121
692.503	0.0161567
692.581	0.0161803
692.659	0.0161459
692.737	0.0159647
692.815	0.0160266
692.893	0.0160235
692.971	0.0159485
693.049	0.0160474
693.128	0.0160318
693.206	0.0160630
693.284	0.0159012
693.362	0.0160665
693.440	0.0160638
693.518	0.0159806
693.596	0.0159812
693.674	0.0160534
693.753	0.0159378
693.831	0.0159548
693.909	0.0159873
693.987	0.0159610
694.065	0.0160392
694.143	0.0159637
694.221	0.0161176
694.299	0.0160422
694.378	0.0159737
694.456	0.0161004
694.534	0.0161043
694.612	0.0159795
694.690	0.0161054
694.768	0.0160931
694.846	0.0160851
694.924	0.0159194
695.003	0.0161482
695.081	0.0161721
695.159	0.0161385
695.237	0.0160799
695.315	0.0160735
695.393	0.0160233
695.471	0.0161346
695.549	0.0160162
695.628	0.0159637
695.706	0.0160762
695.784	0.0159786
695.862	0.0160368
695.940	0.0159021
696.018	0.0158926
696.096	0.0159509
696.174	0.0158057
696.253	0.0159058
696.331	0.0160125
696.409	0.0160027
696.487	0.0160209
696.565	0.0160076
696.643	0.0159052
696.721	0.0158808
696.799	0.0158987
696.878	0.0160807
696.956	0.0160307
697.034	0.0161276
697.112	0.0161486
697.190	0.0160845
697.268	0.0160999
697.346	0.0160997
697.424	0.0160888
697.503	0.0160787
697.581	0.0161245
697.659	0.0161346
697.737	0.0161177
697.815	0.0160551
697.893	0.0160557
697.971	0.0160653
698.049	0.0160071
698.128	0.0160090
698.206	0.0158783
698.284	0.0159162
698.362	0.0159593
698.440	0.0159517
698.518	0.0159113
698.596	0.0159385
698.674	0.0158637
698.753	0.0159247
698.831	0.0159249
698.909	0.0160313
698.987	0.0160325
699.065	0.0159626
699.143	0.0159649
699.221	0.0160819
699.299	0.0160513
699.378	0.0160793
699.456	0.0160363
699.534	0.0161223
699.612	0.0160899
699.690	0.0161510
699.768	0.0161616
699.846	0.0161719
699.924	0.0162262
700.003	0.0162302
700.081	0.0160050
700.159	0.0162705
700.237	0.0161297
700.315	0.0160097
700.393	0.0161185
700.471	0.0160973
700.549	0.0160401
700.628	0.0160207
700.706	0.0159933
700.784	0.0159288
700.862	0.0159859
700.940	0.0160438
701.018	0.0160072
701.096	0.0160548
701.174	0.0159060
701.253	0.0159326
701.331	0.0159565
701.409	0.0160968
701.487	0.0161427
701.565	0.0159530
701.643	0.0158915
701.721	0.0160007
701.799	0.0160416
701.878	0.0161379
701.956	0.0161031
702.034	0.0161355
702.112	0.0161269
702.190	0.0160061
702.268	0.0161141
702.346	0.0161938
702.424	0.0159561
702.503	0.0160612
702.581	0.0162627
702.659	0.0161452
702.737	0.0160718
702.815	0.0160101
702.893	0.0161357
702.971	0.0160767
703.049	0.0161057
703.128	0.0160950
703.206	0.0159652
703.284	0.0161545
703.362	0.0162192
703.440	0.0159517
703.518	0.0159666
703.596	0.0159193
703.674	0.0160625
703.753	0.0160623
703.831	0.0159447
703.909	0.0159673
703.987	0.0159856
704.065	0.0159409
704.143	0.0161346
704.221	0.0159700
704.299	0.0159649
704.378	0.0160069
704.456	0.0160830
704.534	0.0161118
704.612	0.0160284
704.690	0.0160110
704.768	0.0160431
704.846	0.0161030
704.924	0.0161012
705.003	0.0161431
705.081	0.0161239
705.159	0.0162080
705.237	0.0161189
705.315	0.0162602
705.393	0.0163109
705.471	0.0161369
705.549	0.0162772
705.628	0.0161849
705.706	0.0161747
705.784	0.0161575
705.862	0.0162411
705.940	0.0162176
706.018	0.0161637
706.096	0.0161639
706.174	0.0161301
706.253	0.0161168
706.331	0.0160256
706.409	0.0160626
706.487	0.0161687
706.565	0.0160835
706.643	0.0161023
706.721	0.0161072
706.799	0.0160587
706.878	0.0160332
706.956	0.0161111
707.034	0.0160051
707.112	0.0159628
707.190	0.0161189
707.268	0.0160058
707.346	0.0160598
707.424	0.0160455
707.503	0.0161055
707.581	0.0160315
707.659	0.0160992
707.737	0.0162325
707.815	0.0160727
707.893	0.0161646
707.971	0.0162639
708.049	0.0162782
708.128	0.0162154
708.206	0.0161341
708.284	0.0161852
708.362	0.0163246
708.440	0.0162012
708.518	0.0162651
708.596	0.0162442
708.674	0.0161971
708.753	0.0161609
708.831	0.0161915
708.909	0.0160703
708.987	0.0161315
709.065	0.0161589
709.143	0.0160191
709.221	0.0160395
709.299	0.0161046
709.378	0.0160891
709.456	0.0162028
709.534	0.0162073
709.612	0.0161869
709.690	0.0161950
709.768	0.0161541
709.846	0.0161059
709.924	0.0161471
710.003	0.0160188
710.081	0.0163248
710.159	0.0161417
710.237	0.0161604
710.315	0.0160242
710.393	0.0162350
710.471	0.0160396
710.549	0.0160650
710.628	0.0160960
710.706	0.0160786
710.784	0.0161119
710.862	0.0161824
710.940	0.0161044
711.018	0.0160603
711.096	0.0159531
711.174	0.0160531
711.253	0.0160866
711.331	0.0158827
711.409	0.0159275
711.487	0.0159827
711.565	0.0160700
711.643	0.0161730
711.721	0.0159860
711.799	0.0158578
711.878	0.0161098
711.956	0.0161337
712.034	0.0161346
712.112	0.0160226
712.190	0.0159308
712.268	0.0160753
712.346	0.0161414
712.424	0.0161211
712.503	0.0161440
712.581	0.0159679
712.659	0.0160376
712.737	0.0160740
712.815	0.0159666
712.893	0.0161334
712.971	0.0160830
713.049	0.0160837
713.128	0.0160512
713.206	0.0160690
713.284	0.0162255
713.362	0.0161397
713.440	0.0162054
713.518	0.0162051
713.596	0.0161687
713.674	0.0163531
713.753	0.0165079
713.831	0.0162505
713.909	0.0162633
713.987	0.0162579
714.065	0.0162576
714.143	0.0163467
714.221	0.0162360
714.299	0.0162352
714.378	0.0162232
714.456	0.0161614
714.534	0.0161404
714.612	0.0162444
714.690	0.0160429
714.768	0.0161700
714.846	0.0160279
714.924	0.0159123
715.003	0.0159504
715.081	0.0156545
715.159	0.0156244
715.237	0.0158680
715.315	0.0157067
715.393	0.0158131
715.471	0.0158134
715.549	0.0157413
715.628	0.0156792
715.706	0.0158435
715.784	0.0158298
715.862	0.0157215
715.940	0.0156924
716.018	0.0158202
716.096	0.0158313
716.174	0.0159058
716.253	0.0160305
716.331	0.0159763
716.409	0.0159887
716.487	0.0159929
716.565	0.0160499
716.643	0.0161358
716.721	0.0160074
716.799	0.0160676
716.878	0.0161137
716.956	0.0161351
717.034	0.0160562
717.112	0.0160239
717.190	0.0160857
717.268	0.0161684
717.346	0.0160709
717.424	0.0158640
717.503	0.0158852
717.581	0.0159142
717.659	0.0157681
717.737	0.0157568
717.815	0.0157536
717.893	0.0156862
717.971	0.0157858
718.049	0.0159274
718.128	0.0158441
718.206	0.0157602
718.284	0.0158919
718.362	0.0159260
718.440	0.0158817
718.518	0.0159390
718.596	0.0159506
718.674	0.0159057
718.753	0.0161401
718.831	0.0159411
718.909	0.0162061
718.987	0.0161373
719.065	0.0160931
719.143	0.0161101
719.221	0.0161503
719.299	0.0160406
719.378	0.0162580
719.456	0.0161851
719.534	0.0162178
719.612	0.0162840
719.690	0.0163139
719.768	0.0161832
719.846	0.0161057
719.924	0.0161275
720.003	0.0161516
720.081	0.0160356
720.159	0.0158922
720.237	0.0159829
720.315	0.0159046
720.393	0.0157590
720.471	0.0157776
720.549	0.0157326
720.628	0.0155904
720.706	0.0154755
720.784	0.0154862
720.862	0.0154298
720.940	0.0154228
721.018	0.0154162
721.096	0.0151893
721.174	0.0152224
721.253	0.0152524
721.331	0.0153553
721.409	0.0153046
721.487	0.0154976
721.565	0.0155809
721.643	0.0155216
721.721	0.0155351
721.799	0.0157568
721.878	0.0156528
721.956	0.0160014
722.034	0.0160679
722.112	0.0160019
722.190	0.0162415
722.268	0.0162511
722.346	0.0162942
722.424	0.0165111
722.503	0.0164614
722.581	0.0165344
722.659	0.0164832
722.737	0.0167712
722.815	0.0165868
722.893	0.0165897
722.971	0.0167744
723.049	0.0166687
723.128	0.0165797
723.206	0.0166111
723.284	0.0164940
723.362	0.0165791
723.440	0.0164864
723.518	0.0165737
723.596	0.0161677
723.674	0.0161343
723.753	0.0161749
723.831	0.0160017
723.909	0.0160510
723.987	0.0159683
724.065	0.0156840
724.143	0.0156204
724.221	0.0157610
724.299	0.0155482
724.378	0.0154076
724.456	0.0154868
724.534	0.0154536
724.612	0.0154649
724.690	0.0154821
724.768	0.0154501
724.846	0.0154018
724.924	0.0155788
725.003	0.0154349
725.081	0.0155475
725.159	0.0153867
725.237	0.0155019
725.315	0.0156587
725.393	0.0157433
725.471	0.0157129
725.549	0.0157865
725.628	0.0157726
725.706	0.0157011
725.784	0.0158061
725.862	0.0159547
725.940	0.0160423
726.018	0.0159739
726.096	0.0161762
726.174	0.0161980
726.253	0.0161949
726.331	0.0163709
726.409	0.0163158
726.487	0.0162739
726.565	0.0163046
726.643	0.0162617
726.721	0.0163354
726.799	0.0163461
726.878	0.0164238
726.956	0.0162774
727.034	0.0163264
727.112	0.0162756
727.190	0.0160297
727.268	0.0161102
727.346	0.0162693
727.424	0.0162206
727.503	0.0163395
727.581	0.0161259
727.659	0.0161187
727.737	0.0161933
727.815	0.0160605
727.893	0.0161967
727.971	0.0162318
728.049	0.0162600
728.128	0.0162913
728.206	0.0163138
728.284	0.0162546
728.362	0.0159785
728.440	0.0161726
728.518	0.0161282
728.596	0.0160255
728.674	0.0159097
728.753	0.0160827
728.831	0.0160961
728.909	0.0158977
728.987	0.0157876
729.065	0.0156760
729.143	0.0156857
729.221	0.0156854
729.299	0.0154655
729.378	0.0155240
729.456	0.0154130
729.534	0.0155148
729.612	0.0155276
729.690	0.0153606
729.768	0.0152885
729.846	0.0152645
729.924	0.0153707
730.003	0.0153712
730.081	0.0154496
730.159	0.0155663
730.237	0.0156590
730.315	0.0157220
730.393	0.0158287
730.471	0.0159242
730.549	0.0160131
730.628	0.0160938
730.706	0.0162975
730.784	0.0164197
730.862	0.0166076
730.940	0.0167207
731.018	0.0167001
731.096	0.0165983
731.174	0.0167764
731.253	0.0168054
731.331	0.0168068
731.409	0.0168716
731.487	0.0169517
731.565	0.0169313
731.643	0.0168372
731.721	0.0167445
731.799	0.0167365
731.878	0.0166798
731.956	0.0165881
732.034	0.0164832
732.112	0.0163504
732.190	0.0162443
732.268	0.0160407
732.346	0.0160120
732.424	0.0159593
732.503	0.0157299
732.581	0.0156615
732.659	0.0157382
732.737	0.0155654
732.815	0.0156094
732.893	0.0155240
732.971	0.0155531
733.049	0.0155773
733.128	0.0153590
733.206	0.0153069
733.284	0.0152653
733.362	0.0153752
733.440	0.0151306
733.518	0.0153853
733.596	0.0152380
733.674	0.0152233
733.753	0.0151257
733.831	0.0152617
733.909	0.0152898
733.987	0.0153139
734.065	0.0153410
734.143	0.0153781
734.221	0.0152464
734.299	0.0153862
734.378	0.0155788
734.456	0.0156188
734.534	0.0156749
734.612	0.0158881
734.690	0.0159040
734.768	0.0160229
734.846	0.0163637
734.924	0.0164648
735.003	0.0164735
735.081	0.0165016
735.159	0.0167402
735.237	0.0169203
735.315	0.0168443
735.393	0.0168689
735.471	0.0169917
735.549	0.0168774
735.628	0.0170132
735.706	0.0170077
735.784	0.0170675
735.862	0.0169347
735.940	0.0168341
736.018	0.0168999
736.096	0.0167593
736.174	0.0164771
736.253	0.0164283
736.331	0.0165114
736.409	0.0163419
736.487	0.0162889
736.565	0.0161114
736.643	0.0159449
736.721	0.0160899
736.799	0.0158860
736.878	0.0157248
736.956	0.0157259
737.034	0.0155768
737.112	0.0154490
737.190	0.0154539
737.268	0.0153647
737.346	0.0154585
737.424	0.0151569
737.503	0.0152539
737.581	0.0150603
737.659	0.0151447
737.737	0.0150552
737.815	0.0149014
737.893	0.0150850
737.971	0.0151006
738.049	0.0149931
738.128	0.0149559
738.206	0.0150179
738.284	0.0149856
738.362	0.0150394
738.440	0.0152340
738.518	0.0151611
738.596	0.0152257
738.674	0.0153488
738.753	0.0154399
738.831	0.0155994
738.909	0.0156683
738.987	0.0156149
739.065	0.0158179
739.143	0.0158810
739.221	0.0160300
739.299	0.0160782
739.378	0.0161002
739.456	0.0162441
739.534	0.0163451
739.612	0.0163449
739.690	0.0165016
739.768	0.0164669
739.846	0.0167120
739.924	0.0168047
740.003	0.0168531
740.081	0.0170274
740.159	0.0170435
740.237	0.0169887
740.315	0.0170861
740.393	0.0170245
740.471	0.0171556
740.549	0.0170801
740.628	0.0169728
740.706	0.0169119
740.784	0.0169050
740.862	0.0166371
740.940	0.0164458
741.018	0.0164841
741.096	0.0162994
741.174	0.0162308
741.253	0.0160438
741.331	0.0159742
741.409	0.0159288
741.487	0.0156870
741.565	0.0155861
741.643	0.0155190
741.721	0.0153985
741.799	0.0153046
741.878	0.0153440
741.956	0.0152236
742.034	0.0153049
742.112	0.0151514
742.190	0.0150079
742.268	0.0153317
742.346	0.0153290
742.424	0.0152976
742.503	0.0152400
742.581	0.0153294
742.659	0.0152818
742.737	0.0153282
742.815	0.0155308
742.893	0.0155936
742.971	0.0156467
743.049	0.0156403
743.128	0.0157608
743.206	0.0158193
743.284	0.0158292
743.362	0.0157422
743.440	0.0158512
743.518	0.0158588
743.596	0.0157268
743.674	0.0156963
743.753	0.0156541
743.831	0.0156251
743.909	0.0156612
743.987	0.0157243
744.065	0.0156123
744.143	0.0155001
744.221	0.0157166
744.299	0.0156422
744.378	0.0155458
744.456	0.0157043
744.534	0.0156838
744.612	0.0158160
744.690	0.0157327
744.768	0.0159791
744.846	0.0159377
744.924	0.0160927
745.003	0.0161648
745.081	0.0161752
745.159	0.0162954
745.237	0.0163888
745.315	0.0162762
745.393	0.0164787
745.471	0.0163707
745.549	0.0164082
745.628	0.0166204
745.706	0.0165087
745.784	0.0165310
745.862	0.0165199
745.940	0.0164700
746.018	0.0166120
746.096	0.0165170
746.174	0.0163822
746.253	0.0163531
746.331	0.0163658
746.409	0.0160460
746.487	0.0161366
746.565	0.0161384
746.643	0.0159588
746.721	0.0158457
746.799	0.0159869
746.878	0.0157574
746.956	0.0156470
747.034	0.0156501
747.112	0.0157980
747.190	0.0157705
747.268	0.0156357
747.346	0.0155674
747.424	0.0155834
747.503	0.0154382
747.581	0.0156261
747.659	0.0156120
747.737	0.0155169
747.815	0.0155331
747.893	0.0154900
747.971	0.0153235
748.049	0.0153580
748.128	0.0154567
748.206	0.0155370
748.284	0.0154754
748.362	0.0154228
748.440	0.0153676
748.518	0.0153434
748.596	0.0154937
748.674	0.0153421
748.753	0.0152796
748.831	0.0155628
748.909	0.0154565
748.987	0.0154861
749.065	0.0156116
749.143	0.0156912
749.221	0.0156649
749.299	0.0157449
749.378	0.0157288
749.456	0.0161043
749.534	0.0159802
749.612	0.0162766
749.690	0.0163455
749.768	0.0162447
749.846	0.0164101
749.924	0.0164502
750.003	0.0165136
750.081	0.0165637
750.159	0.0165441
750.237	0.0167065
750.315	0.0165909
750.393	0.0166398
750.471	0.0166248
750.549	0.0166454
750.628	0.0166515
750.706	0.0166798
750.784	0.0167166
750.862	0.0164777
750.940	0.0165177
751.018	0.0165141
751.096	0.0163631
751.174	0.0162495
751.253	0.0162215
751.331	0.0160268
751.409	0.0161486
751.487	0.0159614
751.565	0.0159085
751.643	0.0158611
751.721	0.0158292
751.799	0.0158026
751.878	0.0157241
751.956	0.0156269
752.034	0.0155296
752.112	0.0154602
752.190	0.0157243
752.268	0.0156097
752.346	0.0154620
752.424	0.0155473
752.503	0.0154614
752.581	0.0157069
752.659	0.0157149
752.737	0.0157685
752.815	0.0159389
752.893	0.0158839
752.971	0.0158769
753.049	0.0159904
753.128	0.0160693
753.206	0.0161886
753.284	0.0162770
753.362	0.0163905
753.440	0.0162888
753.518	0.0162889
753.596	0.0163610
753.674	0.0163367
753.753	0.0163256
753.831	0.0162784
753.909	0.0162339
753.987	0.0163078
754.065	0.0161293
754.143	0.0160128
754.221	0.0159303
754.299	0.0160827
754.378	0.0160435
754.456	0.0158754
754.534	0.0159779
754.612	0.0158547
754.690	0.0158880
754.768	0.0157851
754.846	0.0159039
754.924	0.0157930
755.003	0.0156658
755.081	0.0157590
755.159	0.0157688
755.237	0.0156594
755.315	0.0156344
755.393	0.0157080
755.471	0.0156490
755.549	0.0157413
755.628	0.0159045
755.706	0.0158112
755.784	0.0158526
755.862	0.0157786
755.940	0.0158183
756.018	0.0157954
756.096	0.0158062
756.174	0.0160300
756.253	0.0159821
756.331	0.0160992
756.409	0.0160918
756.487	0.0163381
756.565	0.0163469
756.643	0.0163723
756.721	0.0163954
756.799	0.0165306
756.878	0.0164764
756.956	0.0165481
757.034	0.0164194
757.112	0.0166635
757.190	0.0165098
757.268	0.0165405
757.346	0.0164627
757.424	0.0164386
757.503	0.0163870
757.581	0.0161496
757.659	0.0162299
757.737	0.0161208
757.815	0.0160018
757.893	0.0159059
757.971	0.0159242
758.049	0.0158192
758.128	0.0157225
758.206	0.0158883
758.284	0.0158376
758.362	0.0156686
758.440	0.0157426
758.518	0.0157791
758.596	0.0157249
758.674	0.0156724
758.753	0.0156391
758.831	0.0157730
758.909	0.0158047
758.987	0.0158025
759.065	0.0157667
759.143	0.0156320
759.221	0.0156376
759.299	0.0157781
759.378	0.0155827
759.456	0.0157793
759.534	0.0156743
759.612	0.0156780
759.690	0.0154936
759.768	0.0155679
759.846	0.0157409
759.924	0.0155630
760.003	0.0153769
760.081	0.0154579
760.159	0.0155290
760.237	0.0157122
760.315	0.0155093
760.393	0.0156128
760.471	0.0156544
760.549	0.0158235
760.628	0.0158743
760.706	0.0158565
760.784	0.0159292
760.862	0.0159296
760.940	0.0159276
761.018	0.0160293
761.096	0.0160497
761.174	0.0160719
761.253	0.0161691
761.331	0.0160239
761.409	0.0160851
761.487	0.0160191
761.565	0.0159780
761.643	0.0160181
761.721	0.0159420
761.799	0.0161851
761.878	0.0160416
761.956	0.0159038
762.034	0.0161313
762.112	0.0159465
762.190	0.0160797
762.268	0.0160920
762.346	0.0160777
762.424	0.0160590
762.503	0.0161443
762.581	0.0162265
762.659	0.0162978
762.737	0.0161716
762.815	0.0161485
762.893	0.0163999
762.971	0.0163619
763.049	0.0161845
763.128	0.0162458
763.206	0.0162283
763.284	0.0161971
763.362	0.0161836
763.440	0.0160660
763.518	0.0161606
763.596	0.0162106
763.674	0.0160093
763.753	0.0159009
763.831	0.0159774
763.909	0.0159722
763.987	0.0158442
764.065	0.0158301
764.143	0.0160279
764.221	0.0159731
764.299	0.0159503
764.378	0.0159758
764.456	0.0159174
764.534	0.0158159
764.612	0.0158617
764.690	0.0158748
764.768	0.0158455
764.846	0.0158115
764.924	0.0158865
765.003	0.0160242
765.081	0.0159055
765.159	0.0157803
765.237	0.0156120
765.315	0.0158595
765.393	0.0159316
765.471	0.0160207
765.549	0.0160447
765.628	0.0161002
765.706	0.0160144
765.784	0.0161272
765.862	0.0161293
765.940	0.0161547
766.018	0.0160595
766.096	0.0161075
766.174	0.0160241
766.253	0.0160498
766.331	0.0160742
766.409	0.0161239
766.487	0.0161495
766.565	0.0161372
766.643	0.0161092
766.721	0.0162290
766.799	0.0161362
766.878	0.0160354
766.956	0.0160018
767.034	0.0160865
767.112	0.0160573
767.190	0.0160357
767.268	0.0159544
767.346	0.0160181
767.424	0.0159784
767.503	0.0159888
767.581	0.0159518
767.659	0.0160128
767.737	0.0159432
767.815	0.0159560
767.893	0.0161591
767.971	0.0162172
768.049	0.0161796
768.128	0.0162156
768.206	0.0163691
768.284	0.0164088
768.362	0.0165807
768.440	0.0165701
768.518	0.0166436
768.596	0.0165561
768.674	0.0166204
768.753	0.0166216
768.831	0.0166230
768.909	0.0164909
768.987	0.0164751
769.065	0.0165255
769.143	0.0163142
769.221	0.0162067
769.299	0.0160178
769.378	0.0159923
769.456	0.0159141
769.534	0.0159481
769.612	0.0158609
769.690	0.0157327
769.768	0.0157343
769.846	0.0156677
769.924	0.0155013
770.003	0.0155964
770.081	0.0155550
770.159	0.0154121
770.237	0.0153464
770.315	0.0155109
770.393	0.0154671
770.471	0.0154002
770.549	0.0155600
770.628	0.0155622
770.706	0.0154367
770.784	0.0155229
770.862	0.0157279
770.940	0.0157327
771.018	0.0156586
771.096	0.0159099
771.174	0.0159830
771.253	0.0160409
771.331	0.0159681
771.409	0.0160138
771.487	0.0161977
771.565	0.0164019
771.643	0.0162562
771.721	0.0163322
771.799	0.0165802
771.878	0.0164636
771.956	0.0163725
772.034	0.0163213
772.112	0.0164583
772.190	0.0164291
772.268	0.0164189
772.346	0.0162841
772.424	0.0160773
772.503	0.0161137
772.581	0.0160931
772.659	0.0160283
772.737	0.0159101
772.815	0.0159062
772.893	0.0159506
772.971	0.0159064
773.049	0.0158798
773.128	0.0158627
773.206	0.0158539
773.284	0.0159017
773.362	0.0159216
773.440	0.0158105
773.518	0.0159067
773.596	0.0158257
773.674	0.0159849
773.753	0.0160132
773.831	0.0161392
773.909	0.0160885
773.987	0.0162154
774.065	0.0162578
774.143	0.0161436
774.221	0.0162769
774.299	0.0164406
774.378	0.0164356
774.456	0.0164022
774.534	0.0164403
774.612	0.0164767
774.690	0.0164423
774.768	0.0164317
774.846	0.0163923
774.924	0.0164469
775.003	0.0163259
775.081	0.0164242
775.159	0.0161829
775.237	0.0160000
775.315	0.0160770
775.393	0.0158964
775.471	0.0158878
775.549	0.0159230
775.628	0.0157002
775.706	0.0156118
775.784	0.0155981
775.862	0.0155965
775.940	0.0155816
776.018	0.0154562
776.096	0.0154883
776.174	0.0156229
776.253	0.0157491
776.331	0.0157717
776.409	0.0158219
776.487	0.0157951
776.565	0.0157933
776.643	0.0159190
776.721	0.0159136
776.799	0.0160476
776.878	0.0160818
776.956	0.0161619
777.034	0.0161892
777.112	0.0161835
777.190	0.0162251
777.268	0.0163249
777.346	0.0163738
777.424	0.0163946
777.503	0.0163481
777.581	0.0163371
777.659	0.0164668
777.737	0.0163557
777.815	0.0161955
777.893	0.0162476
777.971	0.0162948
778.049	0.0162239
778.128	0.0161708
778.206	0.0163348
778.284	0.0162407
778.362	0.0160105
778.440	0.0161506
778.518	0.0161595
778.596	0.0161301
778.674	0.0162285
778.753	0.0159973
778.831	0.0159732
778.909	0.0160835
778.987	0.0159275
779.065	0.0160246
779.143	0.0159050
779.221	0.0159261
779.299	0.0159951
779.378	0.0158215
779.456	0.0157702
779.534	0.0160164
779.612	0.0158501
779.690	0.0158926
779.768	0.0160401
779.846	0.0160585
779.924	0.0160309
780.003	0.0160448
780.081	0.0161839
780.159	0.0162092
780.237	0.0161253
780.315	0.0162382
780.393	0.0162320
780.471	0.0162972
780.549	0.0163061
780.628	0.0162205
780.706	0.0162270
780.784	0.0163619
780.862	0.0163542
780.940	0.0163653
781.018	0.0161704
781.096	0.0160838
781.174	0.0161834
781.253	0.0160197
781.331	0.0158518
781.409	0.0158934
781.487	0.0158530
781.565	0.0157465
781.643	0.0155830
781.721	0.0157813
781.799	0.0155679
781.878	0.0154658
781.956	0.0153943
782.034	0.0155534
782.112	0.0155739
782.190	0.0153901
782.268	0.0154366
782.346	0.0155440
782.424	0.0155548
782.503	0.0155327
782.581	0.0155798
782.659	0.0157079
782.737	0.0156083
782.815	0.0157108
782.893	0.0157494
782.971	0.0159634
783.049	0.0158315
783.128	0.0159691
783.206	0.0160159
783.284	0.0158707
783.362	0.0161408
783.440	0.0162090
783.518	0.0162099
783.596	0.0163100
783.674	0.0162830
783.753	0.0162859
783.831	0.0162930
783.909	0.0163235
783.987	0.0163358
784.065	0.0162603
784.143	0.0162167
784.221	0.0160123
784.299	0.0162059
784.378	0.0163094
784.456	0.0161153
784.534	0.0159075
784.612	0.0160879
784.690	0.0160692
784.768	0.0160883
784.846	0.0159595
784.924	0.0160875
785.003	0.0160938
785.081	0.0160326
785.159	0.0159599
785.237	0.0159724
785.315	0.0160901
785.393	0.0160487
785.471	0.0157912
785.549	0.0159245
785.628	0.0159500
785.706	0.0159621
785.784	0.0159500
785.862	0.0157391
785.940	0.0159170
786.018	0.0158585
786.096	0.0160278
786.174	0.0158022
786.253	0.0160461
786.331	0.0159846
786.409	0.0160507
786.487	0.0161160
786.565	0.0160674
786.643	0.0162185
786.721	0.0162254
786.799	0.0162293
786.878	0.0162758
786.956	0.0162733
787.034	0.0163197
787.112	0.0162895
787.190	0.0162151
787.268	0.0161208
787.346	0.0162527
787.424	0.0163036
787.503	0.0161393
787.581	0.0162303
787.659	0.0160931
787.737	0.0159377
787.815	0.0158506
787.893	0.0158931
787.971	0.0159183
788.049	0.0157492
788.128	0.0157862
788.206	0.0157393
788.284	0.0158542
788.362	0.0158121
788.440	0.0157658
788.518	0.0158643
788.596	0.0158356
788.674	0.0160174
788.753	0.0161677
788.831	0.0161228
788.909	0.0161654
788.987	0.0160980
789.065	0.0161343
789.143	0.0161317
789.221	0.0159827
789.299	0.0161816
789.378	0.0162407
789.456	0.0161369
789.534	0.0161698
789.612	0.0161667
789.690	0.0162621
789.768	0.0161744
789.846	0.0160195
789.924	0.0162051
790.003	0.0161213
790.081	0.0160376
790.159	0.0161024
790.237	0.0161646
790.315	0.0160712
790.393	0.0160286
790.471	0.0161520
790.549	0.0161269
790.628	0.0161246
790.706	0.0158942
790.784	0.0161057
790.862	0.0158849
790.940	0.0160315
791.018	0.0161062
791.096	0.0160372
791.174	0.0159484
791.253	0.0159214
791.331	0.0159293
791.409	0.0159756
791.487	0.0160849
791.565	0.0161053
791.643	0.0159743
791.721	0.0160182
791.799	0.0160754
791.878	0.0161416
791.956	0.0160584
792.034	0.0160448
792.112	0.0162132
792.190	0.0162461
792.268	0.0160502
792.346	0.0161462
792.424	0.0163616
792.503	0.0161166
792.581	0.0162891
792.659	0.0163808
792.737	0.0161338
792.815	0.0161982
792.893	0.0162872
792.971	0.0161444
793.049	0.0162682
793.128	0.0162393
793.206	0.0164069
793.284	0.0162879
793.362	0.0161715
793.440	0.0162486
793.518	0.0161761
793.596	0.0160909
793.674	0.0161031
793.753	0.0159486
793.831	0.0160606
793.909	0.0159890
793.987	0.0158317
794.065	0.0159411
794.143	0.0159085
794.221	0.0158450
794.299	0.0157531
794.378	0.0157171
794.456	0.0157297
794.534	0.0157288
794.612	0.0158218
794.690	0.0158073
794.768	0.0158581
794.846	0.0159256
794.924	0.0159039
795.003	0.0158643
795.081	0.0158875
795.159	0.0160681
795.237	0.0161108
795.315	0.0160107
795.393	0.0162688
795.471	0.0162249
795.549	0.0160957
795.628	0.0162180
795.706	0.0162581
795.784	0.0162730
795.862	0.0161436
795.940	0.0162386
796.018	0.0164633
796.096	0.0162403
796.174	0.0162672
796.253	0.0161275
796.331	0.0161812
796.409	0.0162724
796.487	0.0162773
796.565	0.0162049
796.643	0.0162828
796.721	0.0161687
796.799	0.0161824
796.878	0.0161469
796.956	0.0161250
797.034	0.0160639
797.112	0.0160503
797.190	0.0160673
797.268	0.0160848
797.346	0.0159480
797.424	0.0159961
797.503	0.0160435
797.581	0.0160506
797.659	0.0160464
797.737	0.0159953
797.815	0.0160613
797.893	0.0161530
797.971	0.0160869
798.049	0.0160208
798.128	0.0160913
798.206	0.0160780
798.284	0.0161124
798.362	0.0160692
798.440	0.0160450
798.518	0.0161610
798.596	0.0160358
798.674	0.0160509
798.753	0.0160233
798.831	0.0160154
798.909	0.0160906
798.987	0.0160426
799.065	0.0160609
799.143	0.0160622
799.221	0.0160831
799.299	0.0161572
799.378	0.0160168
799.456	0.0160309
799.534	0.0160017
799.612	0.0160427
799.690	0.0160255
799.768	0.0160532
799.846	0.0159367
799.924	0.0157925
800.003	0.0158466
800.081	0.0158767
800.159	0.0156758
800.237	0.0158356
800.315	0.0156747
800.393	0.0157958
800.471	0.0158515
800.549	0.0157317
800.628	0.0158030
800.706	0.0157888
800.784	0.0156978
800.862	0.0157019
800.940	0.0157756
801.018	0.0157383
801.096	0.0157722
801.174	0.0158129
801.253	0.0158619
801.331	0.0157807
801.409	0.0159104
801.487	0.0160069
801.565	0.0159038
801.643	0.0159598
801.721	0.0159154
801.799	0.0159917
801.878	0.0159767
801.956	0.0160413
802.034	0.0159959
802.112	0.0159989
802.190	0.0159634
802.268	0.0160918
802.346	0.0161966
802.424	0.0161997
802.503	0.0160930
802.581	0.0160870
802.659	0.0162280
802.737	0.0161518
802.815	0.0161520
802.893	0.0161636
802.971	0.0161810
803.049	0.0160571
803.128	0.0160011
803.206	0.0161016
803.284	0.0158921
803.362	0.0159451
803.440	0.0160603
803.518	0.0160400
803.596	0.0158793
803.674	0.0159841
803.753	0.0159480
803.831	0.0158892
803.909	0.0158076
803.987	0.0158573
804.065	0.0158745
804.143	0.0157280
804.221	0.0159686
804.299	0.0157621
804.378	0.0157745
804.456	0.0158618
804.534	0.0159502
804.612	0.0160542
804.690	0.0159736
804.768	0.0158582
804.846	0.0159709
804.924	0.0160550
805.003	0.0159785
805.081	0.0160232
805.159	0.0160254
805.237	0.0159287
805.315	0.0161058
805.393	0.0159591
805.471	0.0160053
805.549	0.0159921
805.628	0.0160248
805.706	0.0160651
805.784	0.0159894
805.862	0.0161258
805.940	0.0160085
806.018	0.0159639
806.096	0.0159597
806.174	0.0160172
806.253	0.0159046
806.331	0.0159395
806.409	0.0159504
806.487	0.0158875
806.565	0.0158509
806.643	0.0158887
806.721	0.0158112
806.799	0.0158149
806.878	0.0159012
806.956	0.0158570
807.034	0.0158874
807.112	0.0158337
807.190	0.0158981
807.268	0.0159598
807.346	0.0159200
807.424	0.0160332
807.503	0.0159175
807.581	0.0158571
807.659	0.0159254
807.737	0.0159688
807.815	0.0158728
807.893	0.0159493
807.971	0.0159451
808.049	0.0158840
808.128	0.0158312
808.206	0.0158387
808.284	0.0159711
808.362	0.0160149
808.440	0.0159751
808.518	0.0158998
808.596	0.0159431
808.674	0.0160593
808.753	0.0161578
808.831	0.0160312
808.909	0.0157625
808.987	0.0160973
809.065	0.0160835
809.143	0.0159783
809.221	0.0160477
809.299	0.0160086
809.378	0.0160667
809.456	0.0160087
809.534	0.0158925
809.612	0.0159869
809.690	0.0160364
809.768	0.0158805
809.846	0.0159261
809.924	0.0158757
810.003	0.0159876
810.081	0.0159222
810.159	0.0159599
810.237	0.0160679
810.315	0.0158646
810.393	0.0159975
810.471	0.0159231
810.549	0.0158617
810.628	0.0160944
810.706	0.0159174
810.784	0.0158932
810.862	0.0159365
810.940	0.0160485
811.018	0.0158826
811.096	0.0159978
811.174	0.0161993
811.253	0.0159616
811.331	0.0159151
811.409	0.0159104
811.487	0.0158698
811.565	0.0160204
811.643	0.0160021
811.721	0.0159490
811.799	0.0159615
811.878	0.0158567
811.956	0.0159412
812.034	0.0159947
812.112	0.0158942
812.190	0.0159106
812.268	0.0158901
812.346	0.0158376
812.424	0.0159105
812.503	0.0158556
812.581	0.0159954
812.659	0.0158699
812.737	0.0159961
812.815	0.0159479
812.893	0.0159544
812.971	0.0159725
813.049	0.0159545
813.128	0.0160178
813.206	0.0159901
813.284	0.0161300
813.362	0.0157484
813.440	0.0161784
813.518	0.0161021
813.596	0.0159416
813.674	0.0159847
813.753	0.0159645
813.831	0.0159837
813.909	0.0159851
813.987	0.0160962
814.065	0.0160779
814.143	0.0159544
814.221	0.0161066
814.299	0.0161140
814.378	0.0160082
814.456	0.0159870
814.534	0.0160571
814.612	0.0161004
814.690	0.0160048
814.768	0.0160165
814.846	0.0160733
814.924	0.0160318
815.003	0.0160107
815.081	0.0160004
815.159	0.0160800
815.237	0.0160863
815.315	0.0161225
815.393	0.0159941
815.471	0.0163191
815.549	0.0161404
815.628	0.0160644
815.706	0.0159620
815.784	0.0160805
815.862	0.0159533
815.940	0.0160966
816.018	0.0161042
816.096	0.0160296
816.174	0.0160192
816.253	0.0160928
816.331	0.0161296
816.409	0.0160333
816.487	0.0160261
816.565	0.0160078
816.643	0.0161669
816.721	0.0160874
816.799	0.0160534
816.878	0.0159763
816.956	0.0160973
817.034	0.0159428
817.112	0.0158300
817.190	0.0158714
817.268	0.0158468
817.346	0.0158938
817.424	0.0157951
817.503	0.0158515
817.581	0.0158994
817.659	0.0157796
817.737	0.0159656
817.815	0.0159003
817.893	0.0159647
817.971	0.0158411
818.049	0.0158295
818.128	0.0158741
818.206	0.0159048
818.284	0.0158730
818.362	0.0157898
818.440	0.0159395
818.518	0.0161815
818.596	0.0159599
818.674	0.0161063
818.753	0.0160199
818.831	0.0160731
818.909	0.0160396
818.987	0.0160697
819.065	0.0161419
819.143	0.0160050
819.221	0.0161722
819.299	0.0161922
819.378	0.0161858
819.456	0.0162305
819.534	0.0162189
819.612	0.0162780
819.690	0.0161765
819.768	0.0160272
819.846	0.0161345
819.924	0.0160387
820.003	0.0161643
820.081	0.0161600
820.159	0.0160974
820.237	0.0160882
820.315	0.0159180
820.393	0.0160666
820.471	0.0160687
820.549	0.0158482
820.628	0.0158704
820.706	0.0159444
820.784	0.0158239
820.862	0.0158260
820.940	0.0158390
821.018	0.0156999
821.096	0.0157056
821.174	0.0156216
821.253	0.0157278
821.331	0.0157300
821.409	0.0158234
821.487	0.0157069
821.565	0.0157230
821.643	0.0158573
821.721	0.0156196
821.799	0.0158538
821.878	0.0159520
821.956	0.0158302
822.034	0.0159078
822.112	0.0158923
822.190	0.0158247
822.268	0.0158882
822.346	0.0160597
822.424	0.0160320
822.503	0.0160303
822.581	0.0160662
822.659	0.0158786
822.737	0.0160181
822.815	0.0159727
822.893	0.0159281
822.971	0.0159707
823.049	0.0159100
823.128	0.0159665
823.206	0.0159909
823.284	0.0160679
823.362	0.0160380
823.440	0.0159161
823.518	0.0160122
823.596	0.0159992
823.674	0.0160683
823.753	0.0159380
823.831	0.0159638
823.909	0.0160165
823.987	0.0159570
824.065	0.0159579
824.143	0.0160526
824.221	0.0160101
824.299	0.0158500
824.378	0.0161364
824.456	0.0159851
824.534	0.0160199
824.612	0.0160144
824.690	0.0159725
824.768	0.0160516
824.846	0.0159213
824.924	0.0158285
825.003	0.0158714
825.081	0.0159010
825.159	0.0157143
825.237	0.0158841
825.315	0.0159042
825.393	0.0159931
825.471	0.0158478
825.549	0.0156815
825.628	0.0157797
825.706	0.0157887
825.784	0.0157735
825.862	0.0159209
825.940	0.0159808
826.018	0.0158603
826.096	0.0158193
826.174	0.0158096
826.253	0.0159022
826.331	0.0157865
826.409	0.0158650
826.487	0.0158179
826.565	0.0158793
826.643	0.0157413
826.721	0.0160039
826.799	0.0159829
826.878	0.0158058
826.956	0.0158797
827.034	0.0158569
827.112	0.0158918
827.190	0.0159438
827.268	0.0160954
827.346	0.0158732
827.424	0.0159100
827.503	0.0157944
827.581	0.0159496
827.659	0.0160796
827.737	0.0158891
827.815	0.0161167
827.893	0.0159483
827.971	0.0159234
828.049	0.0161770
828.128	0.0160855
828.206	0.0160686
828.284	0.0161382
828.362	0.0160934
828.440	0.0160477
828.518	0.0160610
828.596	0.0159317
828.674	0.0159998
828.753	0.0159319
828.831	0.0159657
828.909	0.0159348
828.987	0.0159599
829.065	0.0160172
829.143	0.0159612
829.221	0.0158450
829.299	0.0159575
829.378	0.0158042
829.456	0.0157021
829.534	0.0158974
829.612	0.0158119
829.690	0.0159266
829.768	0.0158849
829.846	0.0158020
829.924	0.0157936
830.003	0.0158333
830.081	0.0157695
830.159	0.0157977
830.237	0.0158634
830.315	0.0157925
830.393	0.0158891
830.471	0.0158700
830.549	0.0159105
830.628	0.0158865
830.706	0.0159382
830.784	0.0159410
830.862	0.0158875
830.940	0.0159258
831.018	0.0158673
831.096	0.0159009
831.174	0.0159856
831.253	0.0158997
831.331	0.0159704
831.409	0.0159811
831.487	0.0163053
831.565	0.0161374
831.643	0.0160895
831.721	0.0163144
831.799	0.0161871
831.878	0.0162962
831.956	0.0164014
832.034	0.0163512
832.112	0.0163209
832.190	0.0163544
832.268	0.0163543
832.346	0.0162852
832.424	0.0163140
832.503	0.0162939
832.581	0.0162741
832.659	0.0163116
832.737	0.0161253
832.815	0.0161646
832.893	0.0161858
832.971	0.0162749
833.049	0.0161739
833.128	0.0161803
833.206	0.0160281
833.284	0.0159216
833.362	0.0160792
833.440	0.0160062
833.518	0.0160068
833.596	0.0158630
833.674	0.0158133
833.753	0.0159631
833.831	0.0158895
833.909	0.0157869
833.987	0.0157873
834.065	0.0159151
834.143	0.0159171
834.221	0.0158965
834.299	0.0157293
834.378	0.0158305
834.456	0.0157328
834.534	0.0156741
834.612	0.0158141
834.690	0.0157341
834.768	0.0159392
834.846	0.0160756
834.924	0.0159718
835.003	0.0158476
835.081	0.0159328
835.159	0.0159775
835.237	0.0161153
835.315	0.0158484
835.393	0.0160721
835.471	0.0161642
835.549	0.0160374
835.628	0.0160757
835.706	0.0161250
835.784	0.0160583
835.862	0.0162012
835.940	0.0160983
836.018	0.0161060
836.096	0.0162236
836.174	0.0161761
836.253	0.0162450
836.331	0.0160923
836.409	0.0161609
836.487	0.0162345
836.565	0.0163101
836.643	0.0162197
836.721	0.0162493
836.799	0.0161765
836.878	0.0161637
836.956	0.0162904
837.034	0.0162514
837.112	0.0160796
837.190	0.0162204
837.268	0.0163078
837.346	0.0159969
837.424	0.0161329
837.503	0.0160085
837.581	0.0161299
837.659	0.0161349
837.737	0.0160916
837.815	0.0160724
837.893	0.0159969
837.971	0.0159726
838.049	0.0159770
838.128	0.0159729
838.206	0.0160216
838.284	0.0160439
838.362	0.0158099
838.440	0.0159766
838.518	0.0159593
838.596	0.0158792
838.674	0.0158270
838.753	0.0158498
838.831	0.0157236
838.909	0.0159116
838.987	0.0158677
839.065	0.0159141
839.143	0.0157914
839.221	0.0158510
839.299	0.0159299
839.378	0.0157774
839.456	0.0157588
839.534	0.0157801
839.612	0.0159831
839.690	0.0158985
839.768	0.0158052
839.846	0.0160412
839.924	0.0158820
840.003	0.0158841
840.081	0.0158358
840.159	0.0157092
840.237	0.0158847
840.315	0.0159594
840.393	0.0159616
840.471	0.0158756
840.549	0.0159541
840.628	0.0159669
840.706	0.0158454
840.784	0.0158897
840.862	0.0160019
840.940	0.0159850
841.018	0.0160008
841.096	0.0159077
841.174	0.0158810
841.253	0.0160414
841.331	0.0159798
841.409	0.0159114
841.487	0.0161777
841.565	0.0160632
841.643	0.0161857
841.721	0.0162028
841.799	0.0161033
841.878	0.0161761
841.956	0.0161505
842.034	0.0161913
842.112	0.0161293
842.190	0.0162003
842.268	0.0162954
842.346	0.0162766
842.424	0.0162299
842.503	0.0163039
842.581	0.0162752
842.659	0.0161926
842.737	0.0162305
842.815	0.0161634
842.893	0.0162198
842.971	0.0160725
843.049	0.0160786
843.128	0.0161501
843.206	0.0160690
843.284	0.0160681
843.362	0.0160202
843.440	0.0160732
843.518	0.0161027
843.596	0.0160179
843.674	0.0160989
843.753	0.0158989
843.831	0.0159708
843.909	0.0159628
843.987	0.0160175
844.065	0.0159081
844.143	0.0160081
844.221	0.0158325
844.299	0.0159023
844.378	0.0159235
844.456	0.0160721
844.534	0.0158241
844.612	0.0158070
844.690	0.0158035
844.768	0.0158044
844.846	0.0158022
844.924	0.0157950
845.003	0.0158501
845.081	0.0157265
845.159	0.0158279
845.237	0.0159131
845.315	0.0157240
845.393	0.0159204
845.471	0.0159948
845.549	0.0160102
845.628	0.0158869
845.706	0.0159814
845.784	0.0160799
845.862	0.0159598
845.940	0.0159731
846.018	0.0159900
846.096	0.0160807
846.174	0.0161638
846.253	0.0160831
846.331	0.0161361
846.409	0.0160986
846.487	0.0161039
846.565	0.0162408
846.643	0.0162811
846.721	0.0161973
846.799	0.0160918
846.878	0.0162817
846.956	0.0162495
847.034	0.0161965
847.112	0.0160581
847.190	0.0162376
847.268	0.0161509
847.346	0.0162064
847.424	0.0162602
847.503	0.0161485
847.581	0.0161893
847.659	0.0163147
847.737	0.0162297
847.815	0.0160782
847.893	0.0161755
847.971	0.0161483
848.049	0.0160696
848.128	0.0160541
848.206	0.0161158
848.284	0.0161315
848.362	0.0161164
848.440	0.0160737
848.518	0.0161678
848.596	0.0158943
848.674	0.0160346
848.753	0.0160970
848.831	0.0159672
848.909	0.0160365
848.987	0.0159573
849.065	0.0160522
849.143	0.0159768
849.221	0.0159769
849.299	0.0160434
849.378	0.0159628
849.456	0.0159956
849.534	0.0159621
849.612	0.0159535
849.690	0.0160397
849.768	0.0159299
849.846	0.0159849
849.924	0.0162363
850.003	0.0160355
850.081	0.0158549
850.159	0.0159145
850.237	0.0159382
850.315	0.0160645
850.393	0.0159757
850.471	0.0159850
850.549	0.0160405
850.628	0.0158921
850.706	0.0159343
850.784	0.0159203
850.862	0.0160932
850.940	0.0159996
851.018	0.0159772
851.096	0.0159718
851.174	0.0159807
851.253	0.0159267
851.331	0.0161376
851.409	0.0159599
851.487	0.0160930
851.565	0.0159802
851.643	0.0160264
851.721	0.0159582
851.799	0.0160495
851.878	0.0160310
851.956	0.0159224
852.034	0.0160611
852.112	0.0160860
852.190	0.0160072
852.268	0.0160702
852.346	0.0159917
852.424	0.0160406
852.503	0.0161044
852.581	0.0161330
852.659	0.0161600
852.737	0.0161752
852.815	0.0161901
852.893	0.0161285
852.971	0.0160679
853.049	0.0161121
853.128	0.0160365
853.206	0.0161681
853.284	0.0162731
853.362	0.0162296
853.440	0.0162238
853.518	0.0162233
853.596	0.0161523
853.674	0.0161463
853.753	0.0162070
853.831	0.0159908
853.909	0.0162160
853.987	0.0161694
854.065	0.0161050
854.143	0.0162568
854.221	0.0161723
854.299	0.0162016
854.378	0.0161095
854.456	0.0160710
854.534	0.0161658
854.612	0.0161483
854.690	0.0161086
854.768	0.0161183
854.846	0.0160108
854.924	0.0159520
855.003	0.0161831
855.081	0.0160141
855.159	0.0159784
855.237	0.0161306
855.315	0.0159346
855.393	0.0160199
855.471	0.0160880
855.549	0.0160795
855.628	0.0160268
855.706	0.0161635
855.784	0.0159009
855.862	0.0160537
855.940	0.0160101
856.018	0.0160966
856.096	0.0160752
856.174	0.0159654
856.253	0.0160919
856.331	0.0160426
856.409	0.0160669
856.487	0.0159997
856.565	0.0159805
856.643	0.0160738
856.721	0.0159879
856.799	0.0160443
856.878	0.0159232
856.956	0.0160397
857.034	0.0159453
857.112	0.0160230
857.190	0.0159223
857.268	0.0159337
857.346	0.0159730
857.424	0.0159754
857.503	0.0160614
857.581	0.0161419
857.659	0.0160553
857.737	0.0159743
857.815	0.0159632
857.893	0.0159972
857.971	0.0160007
858.049	0.0160793
858.128	0.0160818
858.206	0.0160165
858.284	0.0160680
858.362	0.0160105
858.440	0.0159653
858.518	0.0161076
858.596	0.0161601
858.674	0.0161213
858.753	0.0161435
858.831	0.0160778
858.909	0.0161039
858.987	0.0160754
859.065	0.0159949
859.143	0.0160151
859.221	0.0160843
859.299	0.0160236
859.378	0.0160410
859.456	0.0160031
859.534	0.0160373
859.612	0.0159304
859.690	0.0159234
859.768	0.0158381
859.846	0.0159998
859.924	0.0160070
860.003	0.0159433
860.081	0.0160168
860.159	0.0158590
860.237	0.0159440
860.315	0.0157389
860.393	0.0158492
860.471	0.0157682
860.549	0.0157751
860.628	0.0158263
860.706	0.0157931
860.784	0.0158829
860.862	0.0158257
860.940	0.0158285
861.018	0.0158624
861.096	0.0158027
861.174	0.0157792
861.253	0.0158290
861.331	0.0157771
861.409	0.0157429
861.487	0.0158191
861.565	0.0159301
861.643	0.0160334
861.721	0.0158182
861.799	0.0158615
861.878	0.0160207
861.956	0.0160468
862.034	0.0160107
862.112	0.0159828
862.190	0.0160559
862.268	0.0160695
862.346	0.0159830
862.424	0.0160877
862.503	0.0161443
862.581	0.0160780
862.659	0.0160973
862.737	0.0161622
862.815	0.0160906
862.893	0.0161549
862.971	0.0161192
863.049	0.0162440
863.128	0.0161195
863.206	0.0160976
863.284	0.0161198
863.362	0.0160446
863.440	0.0160435
863.518	0.0160123
863.596	0.0161254
863.674	0.0163318
863.753	0.0161567
863.831	0.0161613
863.909	0.0161228
863.987	0.0161092
864.065	0.0161110
864.143	0.0160323
864.221	0.0160440
864.299	0.0160369
864.378	0.0161487
864.456	0.0161362
864.534	0.0161994
864.612	0.0161085
864.690	0.0159765
864.768	0.0162119
864.846	0.0162183
864.924	0.0161019
865.003	0.0161968
865.081	0.0162231
865.159	0.0161522
865.237	0.0162461
865.315	0.0162766
865.393	0.0162031
865.471	0.0161591
865.549	0.0161942
865.628	0.0161717
865.706	0.0161448
865.784	0.0161251
865.862	0.0161703
865.940	0.0162210
866.018	0.0160013
866.096	0.0161285
866.174	0.0159925
866.253	0.0163076
866.331	0.0161440
866.409	0.0160635
866.487	0.0161238
866.565	0.0161205
866.643	0.0159926
866.721	0.0159629
866.799	0.0160063
866.878	0.0161395
866.956	0.0160408
867.034	0.0159111
867.112	0.0160355
867.190	0.0159563
867.268	0.0159887
867.346	0.0160635
867.424	0.0161276
867.503	0.0158991
867.581	0.0160735
867.659	0.0161086
867.737	0.0159988
867.815	0.0159512
867.893	0.0160011
867.971	0.0159830
868.049	0.0161166
868.128	0.0161074
868.206	0.0160587
868.284	0.0160987
868.362	0.0161197
868.440	0.0159250
868.518	0.0161398
868.596	0.0162882
868.674	0.0160944
868.753	0.0160052
868.831	0.0160919
868.909	0.0160674
868.987	0.0162260
869.065	0.0161125
869.143	0.0161024
869.221	0.0160884
869.299	0.0159966
869.378	0.0160535
869.456	0.0161005
869.534	0.0160474
869.612	0.0161933
869.690	0.0161280
869.768	0.0160514
869.846	0.0161031
869.924	0.0160539
870.003	0.0160822
870.081	0.0160255
870.159	0.0159495
870.237	0.0158920
870.315	0.0160867
870.393	0.0158940
870.471	0.0160683
870.549	0.0159953
870.628	0.0159107
870.706	0.0158568
870.784	0.0159200
870.862	0.0159643
870.940	0.0158997
871.018	0.0158689
871.096	0.0159866
871.174	0.0159175
871.253	0.0160123
871.331	0.0159783
871.409	0.0159092
871.487	0.0159901
871.565	0.0161002
871.643	0.0159806
871.721	0.0159940
871.799	0.0159964
871.878	0.0159557
871.956	0.0158705
872.034	0.0159727
872.112	0.0157597
872.190	0.0161012
872.268	0.0160146
872.346	0.0160474
872.424	0.0160163
872.503	0.0159582
872.581	0.0160859
872.659	0.0159913
872.737	0.0160783
872.815	0.0158793
872.893	0.0160900
872.971	0.0161820
873.049	0.0160224
873.128	0.0160188
873.206	0.0160265
873.284	0.0161094
873.362	0.0161528
873.440	0.0160524
873.518	0.0159663
873.596	0.0160572
873.674	0.0160095
873.753	0.0160569
873.831	0.0161248
873.909	0.0160172
873.987	0.0160464
874.065	0.0161501
874.143	0.0160337
874.221	0.0160461
874.299	0.0161242
874.378	0.0161098
874.456	0.0159917
874.534	0.0161252
874.612	0.0159416
874.690	0.0160963
874.768	0.0161013
874.846	0.0160265
874.924	0.0160065
875.003	0.0160803
875.081	0.0160497
875.159	0.0160563
875.237	0.0161205
875.315	0.0161471
875.393	0.0160172
875.471	0.0161366
875.549	0.0162210
875.628	0.0161465
875.706	0.0161040
875.784	0.0161572
875.862	0.0160265
875.940	0.0160267
876.018	0.0161114
876.096	0.0159778
876.174	0.0160735
876.253	0.0161380
876.331	0.0161193
876.409	0.0159829
876.487	0.0161187
876.565	0.0160158
876.643	0.0159305
876.721	0.0158916
876.799	0.0160922
876.878	0.0161002
876.956	0.0160184
877.034	0.0160748
877.112	0.0159963
877.190	0.0161203
877.268	0.0158885
877.346	0.0159419
877.424	0.0160952
877.503	0.0161039
877.581	0.0161366
877.659	0.0159666
877.737	0.0159673
877.815	0.0159605
877.893	0.0160384
877.971	0.0161403
878.049	0.0161106
878.128	0.0160294
878.206	0.0159774
878.284	0.0159769
878.362	0.0161083
878.440	0.0160494
878.518	0.0160199
878.596	0.0159195
878.674	0.0159091
878.753	0.0158849
878.831	0.0160310
878.909	0.0157755
878.987	0.0159399
879.065	0.0159556
879.143	0.0159601
879.221	0.0160431
879.299	0.0159212
879.378	0.0159219
879.456	0.0159426
879.534	0.0159608
879.612	0.0158477
879.690	0.0161581
879.768	0.0159418
879.846	0.0160608
879.924	0.0160352
880.003	0.0160088
880.081	0.0161458
880.159	0.0158921
880.237	0.0159918
880.315	0.0159632
880.393	0.0159351
880.471	0.0160291
880.549	0.0160064
880.628	0.0159403
880.706	0.0158669
880.784	0.0160287
880.862	0.0158393
880.940	0.0158755
881.018	0.0158829
881.096	0.0159428
881.174	0.0158963
881.253	0.0158744
881.331	0.0160282
881.409	0.0159986
881.487	0.0160163
881.565	0.0158817
881.643	0.0158790
881.721	0.0159681
881.799	0.0158964
881.878	0.0159903
881.956	0.0158216
882.034	0.0159122
882.112	0.0160808
882.190	0.0159526
882.268	0.0159586
882.346	0.0160374
882.424	0.0159811
882.503	0.0159796
882.581	0.0159164
882.659	0.0158787
882.737	0.0160333
882.815	0.0159996
882.893	0.0159721
882.971	0.0159719
883.049	0.0160700
883.128	0.0159749
883.206	0.0158965
883.284	0.0159185
883.362	0.0159425
883.440	0.0161204
883.518	0.0160280
883.596	0.0159015
883.674	0.0159733
883.753	0.0159663
883.831	0.0159248
883.909	0.0159530
883.987	0.0158836
884.065	0.0159990
884.143	0.0159851
884.221	0.0159895
884.299	0.0160078
884.378	0.0158273
884.456	0.0157912
884.534	0.0159560
884.612	0.0159806
884.690	0.0157944
884.768	0.0158836
884.846	0.0159518
884.924	0.0158566
885.003	0.0157375
885.081	0.0158893
885.159	0.0157370
885.237	0.0159052
885.315	0.0160091
885.393	0.0160009
885.471	0.0160337
885.549	0.0159312
885.628	0.0160111
885.706	0.0158815
885.784	0.0160056
885.862	0.0159576
885.940	0.0160820
886.018	0.0160114
886.096	0.0161372
886.174	0.0160845
886.253	0.0160329
886.331	0.0162324
886.409	0.0160866
886.487	0.0158642
886.565	0.0160850
886.643	0.0160637
886.721	0.0160104
886.799	0.0160262
886.878	0.0159801
886.956	0.0162098
887.034	0.0161668
887.112	0.0160076
887.190	0.0159550
887.268	0.0162206
887.346	0.0160600
887.424	0.0158986
887.503	0.0158831
887.581	0.0159829
887.659	0.0160637
887.737	0.0160406
887.815	0.0159829
887.893	0.0160165
887.971	0.0159729
888.049	0.0160111
888.128	0.0160879
888.206	0.0160681
888.284	0.0160758
888.362	0.0159966
888.440	0.0161395
888.518	0.0161178
888.596	0.0161146
888.674	0.0162024
888.753	0.0159982
888.831	0.0161270
888.909	0.0160783
888.987	0.0160883
889.065	0.0160812
889.143	0.0162157
889.221	0.0161345
889.299	0.0160864
889.378	0.0160732
889.456	0.0161044
889.534	0.0162567
889.612	0.0161137
889.690	0.0161082
889.768	0.0160520
889.846	0.0160894
889.924	0.0161041
890.003	0.0159387
890.081	0.0160896
890.159	0.0161118
890.237	0.0160186
890.315	0.0161128
890.393	0.0160756
890.471	0.0159016
890.549	0.0160160
890.628	0.0160432
890.706	0.0161180
890.784	0.0159304
890.862	0.0159605
890.940	0.0160172
891.018	0.0159732
891.096	0.0160410
891.174	0.0160695
891.253	0.0161018
891.331	0.0162120
891.409	0.0160847
891.487	0.0160567
891.565	0.0159746
891.643	0.0160130
891.721	0.0160237
891.799	0.0159566
891.878	0.0159209
891.956	0.0159344
892.034	0.0160875
892.112	0.0159733
892.190	0.0160895
892.268	0.0160696
892.346	0.0160265
892.424	0.0159230
892.503	0.0158079
892.581	0.0160939
892.659	0.0159999
892.737	0.0160186
892.815	0.0160373
892.893	0.0160019
892.971	0.0160287
893.049	0.0160977
893.128	0.0161774
893.206	0.0160368
893.284	0.0161056
893.362	0.0161409
893.440	0.0159710
893.518	0.0160217
893.596	0.0160929
893.674	0.0160195
893.753	0.0161559
893.831	0.0161786
893.909	0.0161064
893.987	0.0161163
894.065	0.0160947
894.143	0.0159746
894.221	0.0160111
894.299	0.0160271
894.378	0.0159151
894.456	0.0160097
894.534	0.0159594
894.612	0.0159769
894.690	0.0159904
894.768	0.0160196
894.846	0.0158941
894.924	0.0159515
895.003	0.0159335
895.081	0.0159486
895.159	0.0159232
895.237	0.0159580
895.315	0.0159707
895.393	0.0160158
895.471	0.0159743
895.549	0.0160110
895.628	0.0158324
895.706	0.0158875
895.784	0.0160399
895.862	0.0159639
895.940	0.0158778
896.018	0.0159803
896.096	0.0160126
896.174	0.0159489
896.253	0.0160423
896.331	0.0160265
896.409	0.0159034
896.487	0.0159295
896.565	0.0159568
896.643	0.0159862
896.721	0.0160591
896.799	0.0159029
896.878	0.0159291
896.956	0.0160540
897.034	0.0160381
897.112	0.0159432
897.190	0.0160422
897.268	0.0160841
897.346	0.0161134
897.424	0.0159856
897.503	0.0158368
897.581	0.0159394
897.659	0.0160923
897.737	0.0161246
897.815	0.0160688
897.893	0.0160311
897.971	0.0160830
898.049	0.0160275
898.128	0.0159953
898.206	0.0160281
898.284	0.0161010
898.362	0.0161709
898.440	0.0160800
898.518	0.0158939
898.596	0.0160413
898.674	0.0160513
898.753	0.0160298
898.831	0.0159412
898.909	0.0159813
898.987	0.0160657
899.065	0.0160262
899.143	0.0159393
899.221	0.0161078
899.299	0.0161093
899.378	0.0160295
899.456	0.0160586
899.534	0.0160608
899.612	0.0159653
899.690	0.0160474
899.768	0.0161560
899.846	0.0163763
899.924	0.0162096
900.003	0.0160762
900.081	0.0159909
900.159	0.0162177
900.237	0.0160390
900.315	0.0159496
900.393	0.0162243
900.471	0.0160600
900.549	0.0159339
900.628	0.0160158
900.706	0.0159574
900.784	0.0159301
900.862	0.0159977
900.940	0.0159441
901.018	0.0159483
901.096	0.0160102
901.174	0.0159795
901.253	0.0159656
901.331	0.0157729
901.409	0.0158678
901.487	0.0159680
901.565	0.0160377
901.643	0.0158795
901.721	0.0159129
901.799	0.0160012
901.878	0.0158710
901.956	0.0159385
902.034	0.0158333
902.112	0.0158521
902.190	0.0159486
902.268	0.0159052
902.346	0.0161389
902.424	0.0159315
902.503	0.0160542
902.581	0.0162280
902.659	0.0160870
902.737	0.0160608
902.815	0.0159644
902.893	0.0158421
902.971	0.0159877
903.049	0.0160336
903.128	0.0159957
903.206	0.0160676
903.284	0.0159545
903.362	0.0158653
903.440	0.0159153
903.518	0.0160835
903.596	0.0160000
903.674	0.0159270
903.753	0.0159489
903.831	0.0160122
903.909	0.0160423
903.987	0.0160554
904.065	0.0159548
904.143	0.0160238
904.221	0.0160762
904.299	0.0160222
904.378	0.0160419
904.456	0.0160261
904.534	0.0160862
904.612	0.0161342
904.690	0.0159492
904.768	0.0159946
904.846	0.0160213
904.924	0.0160016
905.003	0.0160335
905.081	0.0160349
905.159	0.0160535
905.237	0.0160068
905.315	0.0160192
905.393	0.0160588
905.471	0.0160529
905.549	0.0160591
905.628	0.0159688
905.706	0.0160102
905.784	0.0160720
905.862	0.0160705
905.940	0.0160193
906.018	0.0160977
906.096	0.0159821
906.174	0.0160293
906.253	0.0160651
906.331	0.0160455
906.409	0.0160120
906.487	0.0160807
906.565	0.0160616
906.643	0.0160296
906.721	0.0161086
906.799	0.0161010
906.878	0.0160583
906.956	0.0158838
907.034	0.0160661
907.112	0.0159998
907.190	0.0159150
907.268	0.0159198
907.346	0.0158974
907.424	0.0160818
907.503	0.0160339
907.581	0.0160062
907.659	0.0160013
907.737	0.0159694
907.815	0.0159295
907.893	0.0160335
907.971	0.0160422
908.049	0.0159553
908.128	0.0159966
908.206	0.0159870
908.284	0.0159953
908.362	0.0160584
908.440	0.0158913
908.518	0.0159628
908.596	0.0160719
908.674	0.0160339
908.753	0.0158717
908.831	0.0160612
908.909	0.0160762
908.987	0.0161023
909.065	0.0160282
909.143	0.0160011
909.221	0.0159764
909.299	0.0159841
909.378	0.0159046
909.456	0.0160568
909.534	0.0159779
909.612	0.0159058
909.690	0.0160269
909.768	0.0160384
909.846	0.0159991
909.924	0.0159212
910.003	0.0160288
910.081	0.0158795
910.159	0.0159501
910.237	0.0161004
910.315	0.0160648
910.393	0.0160874
910.471	0.0159794
910.549	0.0159846
910.628	0.0161314
910.706	0.0161130
910.784	0.0160709
910.862	0.0161220
910.940	0.0161617
911.018	0.0160297
911.096	0.0159987
911.174	0.0160537
911.253	0.0160271
911.331	0.0161398
911.409	0.0159315
911.487	0.0158083
911.565	0.0159219
911.643	0.0160836
911.721	0.0159016
911.799	0.0158409
911.878	0.0160552
911.956	0.0159725
912.034	0.0159644
912.112	0.0159711
912.190	0.0159245
912.268	0.0158896
912.346	0.0159608
912.424	0.0160322
912.503	0.0160516
912.581	0.0158826
912.659	0.0160035
912.737	0.0160161
912.815	0.0159485
912.893	0.0159496
912.971	0.0159407
913.049	0.0159780
913.128	0.0160504
913.206	0.0160751
913.284	0.0160517
913.362	0.0161156
913.440	0.0161861
913.518	0.0160400
913.596	0.0160133
913.674	0.0162141
913.753	0.0161279
913.831	0.0161108
913.909	0.0160986
913.987	0.0162319
914.065	0.0161777
914.143	0.0160455
914.221	0.0161280
914.299	0.0162002
914.378	0.0160960
914.456	0.0161150
914.534	0.0160819
914.612	0.0162556
914.690	0.0160260
914.768	0.0160665
914.846	0.0161592
914.924	0.0161154
915.003	0.0159840
915.081	0.0160599
915.159	0.0159978
915.237	0.0160335
915.315	0.0159327
915.393	0.0159035
915.471	0.0159820
915.549	0.0159728
915.628	0.0160367
915.706	0.0159966
915.784	0.0160762
915.862	0.0160152
915.940	0.0160103
916.018	0.0159583
916.096	0.0160664
916.174	0.0160732
916.253	0.0160159
916.331	0.0158971
916.409	0.0159576
916.487	0.0160415
916.565	0.0159271
916.643	0.0161324
916.721	0.0160369
916.799	0.0159829
916.878	0.0160661
916.956	0.0160667
917.034	0.0159148
917.112	0.0160713
917.190	0.0160178
917.268	0.0160213
917.346	0.0159301
917.424	0.0159888
917.503	0.0158852
917.581	0.0159737
917.659	0.0159321
917.737	0.0158804
917.815	0.0159724
917.893	0.0159955
917.971	0.0160136
918.049	0.0159187
918.128	0.0159016
918.206	0.0159550
918.284	0.0159653
918.362	0.0160654
918.440	0.0159806
918.518	0.0159762
918.596	0.0160692
918.674	0.0159821
918.753	0.0159534
918.831	0.0158342
918.909	0.0159316
918.987	0.0159097
919.065	0.0159596
919.143	0.0159818
919.221	0.0159431
919.299	0.0159255
919.378	0.0158954
919.456	0.0158261
919.534	0.0159505
919.612	0.0158724
919.690	0.0159471
919.768	0.0159061
919.846	0.0158586
919.924	0.0159296
920.003	0.0159590
920.081	0.0158661
920.159	0.0159016
920.237	0.0159988
920.315	0.0159501
920.393	0.0158251
920.471	0.0158265
920.549	0.0158964
920.628	0.0158571
920.706	0.0159073
920.784	0.0159183
920.862	0.0158173
920.940	0.0159520
921.018	0.0159113
921.096	0.0159959
921.174	0.0158647
921.253	0.0158317
921.331	0.0159221
921.409	0.0160072
921.487	0.0159845
921.565	0.0160249
921.643	0.0159258
921.721	0.0159337
921.799	0.0159635
921.878	0.0160914
921.956	0.0158997
922.034	0.0159682
922.112	0.0159164
922.190	0.0159772
922.268	0.0158056
922.346	0.0159012
922.424	0.0160207
922.503	0.0158379
922.581	0.0159396
922.659	0.0160212
922.737	0.0159515
922.815	0.0158224
922.893	0.0160133
922.971	0.0160417
923.049	0.0158005
923.128	0.0158790
923.206	0.0159772
923.284	0.0158167
923.362	0.0157823
923.440	0.0158353
923.518	0.0158778
923.596	0.0158027
923.674	0.0158230
923.753	0.0159622
923.831	0.0157342
923.909	0.0158228
923.987	0.0158279
924.065	0.0160023
924.143	0.0158920
924.221	0.0158803
924.299	0.0159133
924.378	0.0159084
924.456	0.0158749
924.534	0.0157748
924.612	0.0158394
924.690	0.0158713
924.768	0.0160487
924.846	0.0158726
924.924	0.0159866
925.003	0.0158973
925.081	0.0160043
925.159	0.0158620
925.237	0.0158981
925.315	0.0159142
925.393	0.0160505
925.471	0.0160664
925.549	0.0159980
925.628	0.0159989
925.706	0.0158479
925.784	0.0159688
925.862	0.0160367
925.940	0.0158778
926.018	0.0159066
926.096	0.0159890
926.174	0.0160240
926.253	0.0160289
926.331	0.0160263
926.409	0.0158817
926.487	0.0159522
926.565	0.0159032
926.643	0.0158953
926.721	0.0159446
926.799	0.0160168
926.878	0.0159367
926.956	0.0159323
927.034	0.0160778
927.112	0.0160238
927.190	0.0159533
927.268	0.0158668
927.346	0.0159447
927.424	0.0160061
927.503	0.0161314
927.581	0.0161235
927.659	0.0160420
927.737	0.0159921
927.815	0.0161100
927.893	0.0160883
927.971	0.0160036
928.049	0.0158501
928.128	0.0160734
928.206	0.0159334
928.284	0.0160084
928.362	0.0159954
928.440	0.0159866
928.518	0.0160917
928.596	0.0159293
928.674	0.0160575
928.753	0.0159522
928.831	0.0160915
928.909	0.0160346
928.987	0.0162107
929.065	0.0161671
929.143	0.0160448
929.221	0.0161033
929.299	0.0160423
929.378	0.0161248
929.456	0.0160935
929.534	0.0161465
929.612	0.0160593
929.690	0.0162043
929.768	0.0159781
929.846	0.0160774
929.924	0.0159988
930.003	0.0161219
930.081	0.0161149
930.159	0.0160368
930.237	0.0161972
930.315	0.0161362
930.393	0.0161040
930.471	0.0160892
930.549	0.0161853
930.628	0.0161825
930.706	0.0160799
930.784	0.0159961
930.862	0.0161378
930.940	0.0160844
931.018	0.0160815
931.096	0.0160571
931.174	0.0161388
931.253	0.0160744
931.331	0.0160782
931.409	0.0160999
931.487	0.0161092
931.565	0.0162816
931.643	0.0161918
931.721	0.0161183
931.799	0.0161720
931.878	0.0160987
931.956	0.0160219
932.034	0.0160739
932.112	0.0161034
932.190	0.0162026
932.268	0.0161225
932.346	0.0161559
932.424	0.0159895
932.503	0.0160947
932.581	0.0161344
932.659	0.0162709
932.737	0.0160271
932.815	0.0160986
932.893	0.0160265
932.971	0.0160620
933.049	0.0162608
933.128	0.0160910
933.206	0.0160214
933.284	0.0160798
933.362	0.0160889
933.440	0.0160508
933.518	0.0160417
933.596	0.0161416
933.674	0.0159660
933.753	0.0160390
933.831	0.0161539
933.909	0.0161394
933.987	0.0161034
934.065	0.0160128
934.143	0.0160750
934.221	0.0161629
934.299	0.0160281
934.378	0.0161391
934.456	0.0161316
934.534	0.0160809
934.612	0.0160316
934.690	0.0160332
934.768	0.0161134
934.846	0.0161504
934.924	0.0160184
935.003	0.0162124
935.081	0.0161369
935.159	0.0161564
935.237	0.0160751
935.315	0.0161806
935.393	0.0160738
935.471	0.0160184
935.549	0.0160191
935.628	0.0158802
935.706	0.0160289
935.784	0.0160191
935.862	0.0161043
935.940	0.0160526
936.018	0.0160114
936.096	0.0159501
936.174	0.0159769
936.253	0.0160964
936.331	0.0161721
936.409	0.0160591
936.487	0.0159125
936.565	0.0160747
936.643	0.0159070
936.721	0.0160082
936.799	0.0159457
936.878	0.0161031
936.956	0.0161340
937.034	0.0161001
937.112	0.0161745
937.190	0.0160243
937.268	0.0160851
937.346	0.0161244
937.424	0.0161276
937.503	0.0159297
937.581	0.0162170
937.659	0.0162508
937.737	0.0160795
937.815	0.0161656
937.893	0.0161076
937.971	0.0161774
938.049	0.0162807
938.128	0.0162778
938.206	0.0162230
938.284	0.0162373
938.362	0.0162518
938.440	0.0161458
938.518	0.0161108
938.596	0.0161434
938.674	0.0161482
938.753	0.0160067
938.831	0.0159593
938.909	0.0161047
938.987	0.0160440
939.065	0.0160427
939.143	0.0160999
939.221	0.0158843
939.299	0.0159722
939.378	0.0160272
939.456	0.0160221
939.534	0.0160023
939.612	0.0160978
939.690	0.0160658
939.768	0.0160998
939.846	0.0159634
939.924	0.0159420
940.003	0.0161306
940.081	0.0162943
940.159	0.0161018
940.237	0.0161050
940.315	0.0160323
940.393	0.0160066
940.471	0.0161942
940.549	0.0160774
940.628	0.0161846
940.706	0.0162012
940.784	0.0161836
940.862	0.0161484
940.940	0.0162167
941.018	0.0161633
941.096	0.0161476
941.174	0.0160570
941.253	0.0161801
941.331	0.0160024
941.409	0.0161327
941.487	0.0160207
941.565	0.0160729
941.643	0.0161511
941.721	0.0160394
941.799	0.0159764
941.878	0.0159976
941.956	0.0160939
942.034	0.0161456
942.112	0.0160300
942.190	0.0159753
942.268	0.0160366
942.346	0.0161130
942.424	0.0159953
942.503	0.0161804
942.581	0.0160380
942.659	0.0159958
942.737	0.0159458
942.815	0.0161392
942.893	0.0160759
942.971	0.0160225
943.049	0.0161298
943.128	0.0159808
943.206	0.0159119
943.284	0.0159796
943.362	0.0159819
943.440	0.0160348
943.518	0.0158559
943.596	0.0160152
943.674	0.0160561
943.753	0.0160599
943.831	0.0160816
943.909	0.0159360
943.987	0.0160252
944.065	0.0161031
944.143	0.0158794
944.221	0.0158705
944.299	0.0160477
944.378	0.0160351
944.456	0.0160088
944.534	0.0160217
944.612	0.0160613
944.690	0.0160834
944.768	0.0160397
944.846	0.0159686
944.924	0.0160111
945.003	0.0160983
945.081	0.0159344
945.159	0.0160438
945.237	0.0159111
945.315	0.0160435
945.393	0.0159277
945.471	0.0159953
945.549	0.0160667
945.628	0.0160227
945.706	0.0160505
945.784	0.0159984
945.862	0.0160529
945.940	0.0160506
946.018	0.0160233
946.096	0.0160688
946.174	0.0159986
946.253	0.0158917
946.331	0.0159714
946.409	0.0160637
946.487	0.0158729
946.565	0.0159297
946.643	0.0159299
946.721	0.0159335
946.799	0.0161494
946.878	0.0160059
946.956	0.0161288
947.034	0.0160258
947.112	0.0160491
947.190	0.0159983
947.268	0.0160224
947.346	0.0160635
947.424	0.0160065
947.503	0.0159848
947.581	0.0161111
947.659	0.0159526
947.737	0.0160921
947.815	0.0161713
947.893	0.0160433
947.971	0.0161560
948.049	0.0161214
948.128	0.0161170
948.206	0.0160928
948.284	0.0161200
948.362	0.0160777
948.440	0.0161803
948.518	0.0161787
948.596	0.0160818
948.674	0.0162215
948.753	0.0161224
948.831	0.0161247
948.909	0.0160355
948.987	0.0161276
949.065	0.0161002
949.143	0.0161942
949.221	0.0161055
949.299	0.0159887
949.378	0.0160624
949.456	0.0160117
949.534	0.0158904
949.612	0.0159157
949.690	0.0160075
949.768	0.0158900
949.846	0.0159650
949.924	0.0159796
