06/29/2022	23:13:56	Ver.	4.1	UNKNOWN
Optical Delay	630.002507	Delta X		0.078125	Sweeps	1	Scan Rate	0/0
Coordinates	Axis 1	NaN	Axis 2	NaN	Axis 3	NaN	Axis 4	NaN	Axis 5	NaN	Axis 6	0.000000
TX Power	0.000000	RX Power	0.000000

630.003	0.0164358
630.081	0.0165079
630.159	0.0164657
630.237	0.0165015
630.315	0.0164176
630.393	0.0165722
630.471	0.0164321
630.549	0.0163828
630.628	0.0163228
630.706	0.0165323
630.784	0.0166363
630.862	0.0165469
630.940	0.0164668
631.018	0.0164291
631.096	0.0164319
631.174	0.0164687
631.253	0.0164533
631.331	0.0164059
631.409	0.0163567
631.487	0.0164212
631.565	0.0163599
631.643	0.0163836
631.721	0.0162328
631.799	0.0164474
631.878	0.0164565
631.956	0.0164826
632.034	0.0165331
632.112	0.0164639
632.190	0.0164726
632.268	0.0163046
632.346	0.0164761
632.424	0.0165906
632.503	0.0163550
632.581	0.0164114
632.659	0.0165004
632.737	0.0164662
632.815	0.0163882
632.893	0.0165139
632.971	0.0166508
633.049	0.0163764
633.128	0.0165330
633.206	0.0163207
633.284	0.0163260
633.362	0.0166269
633.440	0.0163113
633.518	0.0164661
633.596	0.0165035
633.674	0.0165338
633.753	0.0164952
633.831	0.0163831
633.909	0.0163939
633.987	0.0163988
634.065	0.0164883
634.143	0.0165653
634.221	0.0163542
634.299	0.0164679
634.378	0.0164460
634.456	0.0165095
634.534	0.0164421
634.612	0.0163734
634.690	0.0164151
634.768	0.0164487
634.846	0.0164183
634.924	0.0163663
635.003	0.0164464
635.081	0.0165337
635.159	0.0164396
635.237	0.0165156
635.315	0.0165504
635.393	0.0164716
635.471	0.0165725
635.549	0.0164655
635.628	0.0164837
635.706	0.0166401
635.784	0.0164631
635.862	0.0165585
635.940	0.0164756
636.018	0.0164050
636.096	0.0164960
636.174	0.0165416
636.253	0.0165247
636.331	0.0164165
636.409	0.0165838
636.487	0.0166047
636.565	0.0164396
636.643	0.0165836
636.721	0.0164947
636.799	0.0164408
636.878	0.0163323
636.956	0.0165239
637.034	0.0163490
637.112	0.0164185
637.190	0.0164378
637.268	0.0164610
637.346	0.0163093
637.424	0.0163795
637.503	0.0164848
637.581	0.0165115
637.659	0.0164652
637.737	0.0162885
637.815	0.0164488
637.893	0.0165225
637.971	0.0163121
638.049	0.0162823
638.128	0.0163277
638.206	0.0163536
638.284	0.0165359
638.362	0.0164926
638.440	0.0163686
638.518	0.0163433
638.596	0.0162875
638.674	0.0163814
638.753	0.0163964
638.831	0.0163667
638.909	0.0165232
638.987	0.0163223
639.065	0.0164167
639.143	0.0165166
639.221	0.0163396
639.299	0.0164119
639.378	0.0163785
639.456	0.0163464
639.534	0.0163857
639.612	0.0165096
639.690	0.0164872
639.768	0.0162745
639.846	0.0161828
639.924	0.0163528
640.003	0.0164307
640.081	0.0163008
640.159	0.0163640
640.237	0.0163480
640.315	0.0163158
640.393	0.0162957
640.471	0.0163557
640.549	0.0163293
640.628	0.0163499
640.706	0.0163192
640.784	0.0162668
640.862	0.0163953
640.940	0.0164253
641.018	0.0163848
641.096	0.0163068
641.174	0.0163531
641.253	0.0161803
641.331	0.0163596
641.409	0.0164240
641.487	0.0163579
641.565	0.0163147
641.643	0.0164762
641.721	0.0162930
641.799	0.0163152
641.878	0.0163621
641.956	0.0163031
642.034	0.0162119
642.112	0.0163452
642.190	0.0163077
642.268	0.0162957
642.346	0.0162656
642.424	0.0164108
642.503	0.0162856
642.581	0.0163132
642.659	0.0165082
642.737	0.0163338
642.815	0.0163603
642.893	0.0163383
642.971	0.0163636
643.049	0.0163809
643.128	0.0164011
643.206	0.0163894
643.284	0.0164861
643.362	0.0164333
643.440	0.0163217
643.518	0.0163571
643.596	0.0163998
643.674	0.0164103
643.753	0.0163168
643.831	0.0165157
643.909	0.0164329
643.987	0.0163597
644.065	0.0163737
644.143	0.0163554
644.221	0.0164421
644.299	0.0164984
644.378	0.0165338
644.456	0.0163731
644.534	0.0163062
644.612	0.0164484
644.690	0.0165153
644.768	0.0162891
644.846	0.0163354
644.924	0.0164671
645.003	0.0163516
645.081	0.0164023
645.159	0.0164705
645.237	0.0163142
645.315	0.0164230
645.393	0.0164440
645.471	0.0163078
645.549	0.0163617
645.628	0.0164807
645.706	0.0163966
645.784	0.0164559
645.862	0.0163898
645.940	0.0164198
646.018	0.0164288
646.096	0.0163880
646.174	0.0162720
646.253	0.0164146
646.331	0.0164797
646.409	0.0164117
646.487	0.0164075
646.565	0.0163557
646.643	0.0164075
646.721	0.0163728
646.799	0.0163555
646.878	0.0163921
646.956	0.0163590
647.034	0.0163898
647.112	0.0165448
647.190	0.0163633
647.268	0.0162656
647.346	0.0163383
647.424	0.0163471
647.503	0.0164408
647.581	0.0163365
647.659	0.0165018
647.737	0.0163953
647.815	0.0162754
647.893	0.0164913
647.971	0.0163826
648.049	0.0164118
648.128	0.0164897
648.206	0.0166025
648.284	0.0164213
648.362	0.0164519
648.440	0.0164652
648.518	0.0165031
648.596	0.0164217
648.674	0.0165214
648.753	0.0163335
648.831	0.0165123
648.909	0.0164001
648.987	0.0164095
649.065	0.0163699
649.143	0.0164279
649.221	0.0163801
649.299	0.0164214
649.378	0.0163638
649.456	0.0163948
649.534	0.0164418
649.612	0.0163306
649.690	0.0163314
649.768	0.0164146
649.846	0.0164563
649.924	0.0164593
650.003	0.0163712
650.081	0.0163148
650.159	0.0163108
650.237	0.0164149
650.315	0.0163771
650.393	0.0164520
650.471	0.0163679
650.549	0.0163165
650.628	0.0163854
650.706	0.0162950
650.784	0.0163595
650.862	0.0163474
650.940	0.0163255
651.018	0.0162585
651.096	0.0163750
651.174	0.0162099
651.253	0.0163472
651.331	0.0163497
651.409	0.0162303
651.487	0.0164442
651.565	0.0162968
651.643	0.0162227
651.721	0.0164321
651.799	0.0164494
651.878	0.0164185
651.956	0.0163517
652.034	0.0162612
652.112	0.0163655
652.190	0.0162860
652.268	0.0163053
652.346	0.0164517
652.424	0.0163720
652.503	0.0164046
652.581	0.0163637
652.659	0.0163158
652.737	0.0164825
652.815	0.0164194
652.893	0.0164137
652.971	0.0163943
653.049	0.0163417
653.128	0.0162477
653.206	0.0161843
653.284	0.0164610
653.362	0.0164847
653.440	0.0163249
653.518	0.0163586
653.596	0.0164138
653.674	0.0163866
653.753	0.0165498
653.831	0.0164269
653.909	0.0164375
653.987	0.0164037
654.065	0.0164005
654.143	0.0164516
654.221	0.0164001
654.299	0.0163832
654.378	0.0163935
654.456	0.0162923
654.534	0.0164514
654.612	0.0164809
654.690	0.0163840
654.768	0.0163715
654.846	0.0164419
654.924	0.0164734
655.003	0.0165018
655.081	0.0164172
655.159	0.0165100
655.237	0.0163705
655.315	0.0165115
655.393	0.0164747
655.471	0.0164128
655.549	0.0164462
655.628	0.0164563
655.706	0.0165794
655.784	0.0165038
655.862	0.0163632
655.940	0.0163876
656.018	0.0164297
656.096	0.0164629
656.174	0.0163251
656.253	0.0163889
656.331	0.0163951
656.409	0.0163821
656.487	0.0164337
656.565	0.0164528
656.643	0.0163810
656.721	0.0164287
656.799	0.0163717
656.878	0.0163857
656.956	0.0162343
657.034	0.0163049
657.112	0.0164872
657.190	0.0165027
657.268	0.0165804
657.346	0.0163917
657.424	0.0164524
657.503	0.0164004
657.581	0.0163718
657.659	0.0163086
657.737	0.0164090
657.815	0.0164404
657.893	0.0163077
657.971	0.0164916
658.049	0.0164969
658.128	0.0164391
658.206	0.0164079
658.284	0.0162660
658.362	0.0163678
658.440	0.0163685
658.518	0.0163010
658.596	0.0164710
658.674	0.0163077
658.753	0.0164051
658.831	0.0162986
658.909	0.0163216
658.987	0.0163401
659.065	0.0165237
659.143	0.0163335
659.221	0.0163828
659.299	0.0163882
659.378	0.0164539
659.456	0.0162692
659.534	0.0162916
659.612	0.0164521
659.690	0.0164348
659.768	0.0163425
659.846	0.0163953
659.924	0.0164951
660.003	0.0163239
660.081	0.0163818
660.159	0.0164014
660.237	0.0163358
660.315	0.0164784
660.393	0.0164165
660.471	0.0162925
660.549	0.0163802
660.628	0.0164696
660.706	0.0164137
660.784	0.0163747
660.862	0.0164154
660.940	0.0164458
661.018	0.0165151
661.096	0.0164013
661.174	0.0163709
661.253	0.0164903
661.331	0.0164485
661.409	0.0164175
661.487	0.0163445
661.565	0.0164220
661.643	0.0164339
661.721	0.0164849
661.799	0.0163719
661.878	0.0164537
661.956	0.0164611
662.034	0.0164408
662.112	0.0164264
662.190	0.0163720
662.268	0.0165577
662.346	0.0165180
662.424	0.0163515
662.503	0.0164339
662.581	0.0165463
662.659	0.0165057
662.737	0.0163674
662.815	0.0164327
662.893	0.0163680
662.971	0.0162919
663.049	0.0163937
663.128	0.0163995
663.206	0.0162554
663.284	0.0163799
663.362	0.0163830
663.440	0.0164343
663.518	0.0165504
663.596	0.0162949
663.674	0.0162146
663.753	0.0163544
663.831	0.0162395
663.909	0.0162903
663.987	0.0163725
664.065	0.0163723
664.143	0.0164066
664.221	0.0163099
664.299	0.0162975
664.378	0.0164448
664.456	0.0165121
664.534	0.0163663
664.612	0.0161323
664.690	0.0163200
664.768	0.0164151
664.846	0.0163710
664.924	0.0162735
665.003	0.0163718
665.081	0.0163332
665.159	0.0162943
665.237	0.0162405
665.315	0.0162924
665.393	0.0163686
665.471	0.0162431
665.549	0.0163479
665.628	0.0162380
665.706	0.0163148
665.784	0.0163500
665.862	0.0162831
665.940	0.0162922
666.018	0.0163277
666.096	0.0162957
666.174	0.0163200
666.253	0.0163305
666.331	0.0163710
666.409	0.0164022
666.487	0.0163046
666.565	0.0162273
666.643	0.0163843
666.721	0.0163718
666.799	0.0164027
666.878	0.0163134
666.956	0.0161769
667.034	0.0163893
667.112	0.0163911
667.190	0.0164201
667.268	0.0163768
667.346	0.0164162
667.424	0.0163952
667.503	0.0164157
667.581	0.0164067
667.659	0.0164974
667.737	0.0163495
667.815	0.0162480
667.893	0.0163329
667.971	0.0163165
668.049	0.0165405
668.128	0.0164934
668.206	0.0163378
668.284	0.0163406
668.362	0.0163651
668.440	0.0163396
668.518	0.0162901
668.596	0.0164313
668.674	0.0164403
668.753	0.0163949
668.831	0.0163844
668.909	0.0165319
668.987	0.0163863
669.065	0.0163706
669.143	0.0164430
669.221	0.0163195
669.299	0.0164056
669.378	0.0163690
669.456	0.0164640
669.534	0.0163752
669.612	0.0163718
669.690	0.0164809
669.768	0.0164722
669.846	0.0164409
669.924	0.0163734
670.003	0.0163842
670.081	0.0163570
670.159	0.0163840
670.237	0.0163010
670.315	0.0163235
670.393	0.0163963
670.471	0.0163224
670.549	0.0163148
670.628	0.0162880
670.706	0.0164167
670.784	0.0164572
670.862	0.0163892
670.940	0.0164104
671.018	0.0164519
671.096	0.0164722
671.174	0.0163651
671.253	0.0164878
671.331	0.0162959
671.409	0.0163688
671.487	0.0164584
671.565	0.0163326
671.643	0.0162880
671.721	0.0164965
671.799	0.0165930
671.878	0.0162985
671.956	0.0163502
672.034	0.0164492
672.112	0.0164931
672.190	0.0164314
672.268	0.0164603
672.346	0.0164281
672.424	0.0163559
672.503	0.0166164
672.581	0.0165174
672.659	0.0164655
672.737	0.0164063
672.815	0.0164137
672.893	0.0164015
672.971	0.0165014
673.049	0.0166647
673.128	0.0166039
673.206	0.0163868
673.284	0.0166319
673.362	0.0164156
673.440	0.0164352
673.518	0.0165249
673.596	0.0164620
673.674	0.0164983
673.753	0.0165837
673.831	0.0165791
673.909	0.0164491
673.987	0.0164307
674.065	0.0165974
674.143	0.0163257
674.221	0.0163882
674.299	0.0164004
674.378	0.0164571
674.456	0.0164901
674.534	0.0164628
674.612	0.0164147
674.690	0.0164292
674.768	0.0164302
674.846	0.0165463
674.924	0.0164954
675.003	0.0164158
675.081	0.0165090
675.159	0.0163445
675.237	0.0164018
675.315	0.0164376
675.393	0.0163970
675.471	0.0165250
675.549	0.0164179
675.628	0.0163362
675.706	0.0165062
675.784	0.0163641
675.862	0.0164767
675.940	0.0163423
676.018	0.0165127
676.096	0.0164836
676.174	0.0161967
676.253	0.0162975
676.331	0.0164878
676.409	0.0163795
676.487	0.0162860
676.565	0.0163047
676.643	0.0163855
676.721	0.0164169
676.799	0.0163404
676.878	0.0163198
676.956	0.0163393
677.034	0.0162888
677.112	0.0163847
677.190	0.0162056
677.268	0.0164359
677.346	0.0163633
677.424	0.0163373
677.503	0.0163737
677.581	0.0165117
677.659	0.0163537
677.737	0.0163783
677.815	0.0164319
677.893	0.0165146
677.971	0.0164770
678.049	0.0163816
678.128	0.0164194
678.206	0.0164230
678.284	0.0163796
678.362	0.0163438
678.440	0.0163403
678.518	0.0163725
678.596	0.0163737
678.674	0.0163009
678.753	0.0163662
678.831	0.0163084
678.909	0.0163445
678.987	0.0163739
679.065	0.0164276
679.143	0.0164794
679.221	0.0163991
679.299	0.0163926
679.378	0.0164894
679.456	0.0165280
679.534	0.0165910
679.612	0.0164399
679.690	0.0163362
679.768	0.0163756
679.846	0.0164745
679.924	0.0163460
680.003	0.0166197
680.081	0.0165165
680.159	0.0163262
680.237	0.0164974
680.315	0.0164745
680.393	0.0164469
680.471	0.0164145
680.549	0.0165665
680.628	0.0163903
680.706	0.0164974
680.784	0.0164484
680.862	0.0165788
680.940	0.0163200
681.018	0.0165440
681.096	0.0165370
681.174	0.0164674
681.253	0.0165061
681.331	0.0164518
681.409	0.0165097
681.487	0.0164660
681.565	0.0165120
681.643	0.0164871
681.721	0.0166057
681.799	0.0165322
681.878	0.0165647
681.956	0.0165503
682.034	0.0164276
682.112	0.0165894
682.190	0.0163873
682.268	0.0164807
682.346	0.0164973
682.424	0.0164762
682.503	0.0166106
682.581	0.0165773
682.659	0.0164105
682.737	0.0165046
682.815	0.0164234
682.893	0.0165201
682.971	0.0166001
683.049	0.0166271
683.128	0.0164435
683.206	0.0165398
683.284	0.0166471
683.362	0.0166273
683.440	0.0165259
683.518	0.0165308
683.596	0.0165469
683.674	0.0166030
683.753	0.0165797
683.831	0.0166766
683.909	0.0165923
683.987	0.0164634
684.065	0.0166906
684.143	0.0164995
684.221	0.0166323
684.299	0.0166758
684.378	0.0165927
684.456	0.0165352
684.534	0.0165298
684.612	0.0166299
684.690	0.0165292
684.768	0.0164156
684.846	0.0165627
684.924	0.0166088
685.003	0.0163720
685.081	0.0165311
685.159	0.0165757
685.237	0.0166040
685.315	0.0165652
685.393	0.0165170
685.471	0.0165044
685.549	0.0166274
685.628	0.0163605
685.706	0.0164275
685.784	0.0164021
685.862	0.0165541
685.940	0.0166129
686.018	0.0165980
686.096	0.0165565
686.174	0.0165609
686.253	0.0165350
686.331	0.0165279
686.409	0.0165855
686.487	0.0164196
686.565	0.0165211
686.643	0.0165308
686.721	0.0166975
686.799	0.0165079
686.878	0.0166290
686.956	0.0164932
687.034	0.0165356
687.112	0.0165172
687.190	0.0163998
687.268	0.0165822
687.346	0.0164406
687.424	0.0162913
687.503	0.0164996
687.581	0.0164661
687.659	0.0164128
687.737	0.0164617
687.815	0.0165150
687.893	0.0164812
687.971	0.0164513
688.049	0.0163274
688.128	0.0164923
688.206	0.0164771
688.284	0.0164917
688.362	0.0166035
688.440	0.0165743
688.518	0.0164909
688.596	0.0166096
688.674	0.0165875
688.753	0.0164135
688.831	0.0164951
688.909	0.0165323
688.987	0.0164333
689.065	0.0165475
689.143	0.0165376
689.221	0.0164318
689.299	0.0165186
689.378	0.0165764
689.456	0.0165665
689.534	0.0166174
689.612	0.0163820
689.690	0.0163611
689.768	0.0165952
689.846	0.0165240
689.924	0.0163047
690.003	0.0164868
690.081	0.0164866
690.159	0.0165781
690.237	0.0165721
690.315	0.0164172
690.393	0.0164798
690.471	0.0163676
690.549	0.0165210
690.628	0.0164029
690.706	0.0164783
690.784	0.0166179
690.862	0.0164736
690.940	0.0164080
691.018	0.0164564
691.096	0.0164106
691.174	0.0164133
691.253	0.0164739
691.331	0.0164155
691.409	0.0164021
691.487	0.0164600
691.565	0.0164686
691.643	0.0165282
691.721	0.0165281
691.799	0.0163184
691.878	0.0165688
691.956	0.0164187
692.034	0.0165102
692.112	0.0165926
692.190	0.0164609
692.268	0.0164854
692.346	0.0166196
692.424	0.0165372
692.503	0.0162547
692.581	0.0165504
692.659	0.0164894
692.737	0.0164944
692.815	0.0166125
692.893	0.0165437
692.971	0.0164683
693.049	0.0163166
693.128	0.0163682
693.206	0.0165366
693.284	0.0164610
693.362	0.0163194
693.440	0.0165390
693.518	0.0165107
693.596	0.0163395
693.674	0.0164622
693.753	0.0164349
693.831	0.0163914
693.909	0.0166087
693.987	0.0164600
694.065	0.0164261
694.143	0.0164963
694.221	0.0164199
694.299	0.0165705
694.378	0.0166100
694.456	0.0164472
694.534	0.0164966
694.612	0.0165492
694.690	0.0165815
694.768	0.0165881
694.846	0.0165160
694.924	0.0164712
695.003	0.0167274
695.081	0.0165700
695.159	0.0163574
695.237	0.0165512
695.315	0.0165178
695.393	0.0164843
695.471	0.0165189
695.549	0.0163981
695.628	0.0163532
695.706	0.0164741
695.784	0.0163144
695.862	0.0164826
695.940	0.0163377
696.018	0.0162560
696.096	0.0163178
696.174	0.0164394
696.253	0.0163828
696.331	0.0163702
696.409	0.0164157
696.487	0.0165294
696.565	0.0165917
696.643	0.0163405
696.721	0.0165256
696.799	0.0165715
696.878	0.0166078
696.956	0.0165923
697.034	0.0165742
697.112	0.0165916
697.190	0.0166254
697.268	0.0165977
697.346	0.0165684
697.424	0.0164588
697.503	0.0164729
697.581	0.0165637
697.659	0.0166021
697.737	0.0166008
697.815	0.0163645
697.893	0.0164096
697.971	0.0164070
698.049	0.0163519
698.128	0.0163618
698.206	0.0164441
698.284	0.0163940
698.362	0.0162851
698.440	0.0164206
698.518	0.0162870
698.596	0.0163178
698.674	0.0163261
698.753	0.0162334
698.831	0.0163014
698.909	0.0164399
698.987	0.0164410
699.065	0.0165924
699.143	0.0165546
699.221	0.0164887
699.299	0.0166197
699.378	0.0166364
699.456	0.0166382
699.534	0.0165740
699.612	0.0165706
699.690	0.0165364
699.768	0.0164436
699.846	0.0165031
699.924	0.0165598
700.003	0.0165397
700.081	0.0164569
700.159	0.0164179
700.237	0.0165919
700.315	0.0165036
700.393	0.0164634
700.471	0.0164904
700.549	0.0164427
700.628	0.0164853
700.706	0.0164278
700.784	0.0164452
700.862	0.0163856
700.940	0.0164598
701.018	0.0165473
701.096	0.0164683
701.174	0.0163651
701.253	0.0165340
701.331	0.0165835
701.409	0.0163945
701.487	0.0164555
701.565	0.0165290
701.643	0.0165684
701.721	0.0165112
701.799	0.0165217
701.878	0.0167357
701.956	0.0165639
702.034	0.0166113
702.112	0.0166697
702.190	0.0167072
702.268	0.0165203
702.346	0.0165933
702.424	0.0165485
702.503	0.0166924
702.581	0.0166994
702.659	0.0165429
702.737	0.0164977
702.815	0.0165371
702.893	0.0164581
702.971	0.0164222
703.049	0.0164509
703.128	0.0165297
703.206	0.0164687
703.284	0.0165851
703.362	0.0165503
703.440	0.0164271
703.518	0.0165421
703.596	0.0164521
703.674	0.0164919
703.753	0.0166011
703.831	0.0164108
703.909	0.0164338
703.987	0.0165672
704.065	0.0165069
704.143	0.0164299
704.221	0.0165918
704.299	0.0165253
704.378	0.0164602
704.456	0.0164590
704.534	0.0166946
704.612	0.0166030
704.690	0.0167052
704.768	0.0165523
704.846	0.0166466
704.924	0.0166614
705.003	0.0165114
705.081	0.0165637
705.159	0.0167800
705.237	0.0166516
705.315	0.0166372
705.393	0.0166939
705.471	0.0166892
705.549	0.0166869
705.628	0.0167180
705.706	0.0166928
705.784	0.0165573
705.862	0.0165784
705.940	0.0165610
706.018	0.0165282
706.096	0.0166613
706.174	0.0163759
706.253	0.0165436
706.331	0.0165154
706.409	0.0164919
706.487	0.0164674
706.565	0.0164846
706.643	0.0164886
706.721	0.0164732
706.799	0.0164577
706.878	0.0163595
706.956	0.0165188
707.034	0.0164685
707.112	0.0165381
707.190	0.0165596
707.268	0.0165147
707.346	0.0165628
707.424	0.0165439
707.503	0.0165391
707.581	0.0166506
707.659	0.0165002
707.737	0.0163382
707.815	0.0166479
707.893	0.0165976
707.971	0.0166813
708.049	0.0166982
708.128	0.0167077
708.206	0.0166839
708.284	0.0165126
708.362	0.0165120
708.440	0.0166767
708.518	0.0166235
708.596	0.0164851
708.674	0.0166795
708.753	0.0166237
708.831	0.0165166
708.909	0.0166084
708.987	0.0166248
709.065	0.0165115
709.143	0.0165879
709.221	0.0166390
709.299	0.0166023
709.378	0.0164939
709.456	0.0164703
709.534	0.0165558
709.612	0.0165819
709.690	0.0163896
709.768	0.0165514
709.846	0.0165555
709.924	0.0164983
710.003	0.0165131
710.081	0.0164622
710.159	0.0164249
710.237	0.0165327
710.315	0.0163194
710.393	0.0163096
710.471	0.0164411
710.549	0.0164330
710.628	0.0164432
710.706	0.0164471
710.784	0.0163783
710.862	0.0163101
710.940	0.0162308
711.018	0.0163110
711.096	0.0163329
711.174	0.0163797
711.253	0.0163987
711.331	0.0163841
711.409	0.0164168
711.487	0.0163484
711.565	0.0163780
711.643	0.0164841
711.721	0.0165568
711.799	0.0164533
711.878	0.0164563
711.956	0.0164513
712.034	0.0164319
712.112	0.0165337
712.190	0.0164536
712.268	0.0164164
712.346	0.0165400
712.424	0.0165065
712.503	0.0164177
712.581	0.0164384
712.659	0.0163368
712.737	0.0164653
712.815	0.0163190
712.893	0.0162755
712.971	0.0164361
713.049	0.0164605
713.128	0.0165640
713.206	0.0164579
713.284	0.0164052
713.362	0.0165983
713.440	0.0165655
713.518	0.0166441
713.596	0.0165054
713.674	0.0164507
713.753	0.0166898
713.831	0.0166173
713.909	0.0166124
713.987	0.0164939
714.065	0.0164679
714.143	0.0164906
714.221	0.0164117
714.299	0.0163569
714.378	0.0163419
714.456	0.0164358
714.534	0.0162463
714.612	0.0163820
714.690	0.0163829
714.768	0.0162820
714.846	0.0162313
714.924	0.0162193
715.003	0.0162743
715.081	0.0160104
715.159	0.0161952
715.237	0.0160511
715.315	0.0160793
715.393	0.0162179
715.471	0.0161393
715.549	0.0160733
715.628	0.0161315
715.706	0.0161292
715.784	0.0162968
715.862	0.0161583
715.940	0.0161705
716.018	0.0162547
716.096	0.0162658
716.174	0.0163247
716.253	0.0165246
716.331	0.0163609
716.409	0.0165598
716.487	0.0164400
716.565	0.0163910
716.643	0.0165225
716.721	0.0164948
716.799	0.0164639
716.878	0.0165619
716.956	0.0165471
717.034	0.0164577
717.112	0.0164664
717.190	0.0163901
717.268	0.0164830
717.346	0.0163528
717.424	0.0164112
717.503	0.0162911
717.581	0.0162811
717.659	0.0162904
717.737	0.0163241
717.815	0.0161245
717.893	0.0162769
717.971	0.0163525
718.049	0.0162812
718.128	0.0163304
718.206	0.0162764
718.284	0.0163621
718.362	0.0162575
718.440	0.0162778
718.518	0.0163191
718.596	0.0164617
718.674	0.0163873
718.753	0.0164539
718.831	0.0164488
718.909	0.0163988
718.987	0.0165106
719.065	0.0165442
719.143	0.0164426
719.221	0.0165688
719.299	0.0165231
719.378	0.0165478
719.456	0.0166511
719.534	0.0165818
719.612	0.0166033
719.690	0.0166315
719.768	0.0165445
719.846	0.0163572
719.924	0.0166287
720.003	0.0165179
720.081	0.0163729
720.159	0.0163676
720.237	0.0164409
720.315	0.0163527
720.393	0.0161432
720.471	0.0161410
720.549	0.0160797
720.628	0.0160236
720.706	0.0158862
720.784	0.0159623
720.862	0.0158305
720.940	0.0158463
721.018	0.0159433
721.096	0.0158702
721.174	0.0157091
721.253	0.0157710
721.331	0.0159164
721.409	0.0160392
721.487	0.0160120
721.565	0.0159953
721.643	0.0160435
721.721	0.0161915
721.799	0.0163171
721.878	0.0163022
721.956	0.0165025
722.034	0.0164840
722.112	0.0165747
722.190	0.0166478
722.268	0.0168261
722.346	0.0168817
722.424	0.0167773
722.503	0.0169267
722.581	0.0170010
722.659	0.0170306
722.737	0.0171130
722.815	0.0172136
722.893	0.0171577
722.971	0.0171976
723.049	0.0171827
723.128	0.0170421
723.206	0.0171638
723.284	0.0170451
723.362	0.0169876
723.440	0.0171326
723.518	0.0168814
723.596	0.0167882
723.674	0.0167081
723.753	0.0164771
723.831	0.0164107
723.909	0.0165004
723.987	0.0163047
724.065	0.0161052
724.143	0.0161201
724.221	0.0161595
724.299	0.0159811
724.378	0.0159155
724.456	0.0158143
724.534	0.0158540
724.612	0.0158385
724.690	0.0157353
724.768	0.0157925
724.846	0.0158521
724.924	0.0159176
725.003	0.0158474
725.081	0.0157619
725.159	0.0158840
725.237	0.0160280
725.315	0.0159846
725.393	0.0160497
725.471	0.0161144
725.549	0.0161484
725.628	0.0160584
725.706	0.0163962
725.784	0.0163776
725.862	0.0163960
725.940	0.0165624
726.018	0.0165518
726.096	0.0166216
726.174	0.0167650
726.253	0.0167361
726.331	0.0167908
726.409	0.0168614
726.487	0.0168685
726.565	0.0168781
726.643	0.0168859
726.721	0.0168349
726.799	0.0167188
726.878	0.0167358
726.956	0.0166779
727.034	0.0166896
727.112	0.0166335
727.190	0.0164958
727.268	0.0166299
727.346	0.0166679
727.424	0.0165340
727.503	0.0165661
727.581	0.0166539
727.659	0.0164094
727.737	0.0166748
727.815	0.0164933
727.893	0.0165078
727.971	0.0165998
728.049	0.0165645
728.128	0.0166303
728.206	0.0164668
728.284	0.0165341
728.362	0.0165236
728.440	0.0165139
728.518	0.0163625
728.596	0.0163420
728.674	0.0162111
728.753	0.0162016
728.831	0.0163190
728.909	0.0161720
728.987	0.0162007
729.065	0.0161285
729.143	0.0160127
729.221	0.0161426
729.299	0.0159888
729.378	0.0159708
729.456	0.0159718
729.534	0.0158331
729.612	0.0158585
729.690	0.0159985
729.768	0.0158259
729.846	0.0159456
729.924	0.0159310
730.003	0.0159570
730.081	0.0160803
730.159	0.0161227
730.237	0.0159634
730.315	0.0161169
730.393	0.0163332
730.471	0.0163391
730.549	0.0163979
730.628	0.0164157
730.706	0.0165722
730.784	0.0166653
730.862	0.0168139
730.940	0.0169622
731.018	0.0168233
731.096	0.0169564
731.174	0.0171278
731.253	0.0170829
731.331	0.0171147
731.409	0.0169048
731.487	0.0170256
731.565	0.0170326
731.643	0.0170512
731.721	0.0170982
731.799	0.0170085
731.878	0.0169669
731.956	0.0168863
732.034	0.0167179
732.112	0.0168548
732.190	0.0166526
732.268	0.0165733
732.346	0.0164485
732.424	0.0164098
732.503	0.0161340
732.581	0.0164138
732.659	0.0164567
732.737	0.0161678
732.815	0.0162417
732.893	0.0159371
732.971	0.0160353
733.049	0.0159876
733.128	0.0161265
733.206	0.0159838
733.284	0.0159157
733.362	0.0157579
733.440	0.0157829
733.518	0.0157098
733.596	0.0157404
733.674	0.0156548
733.753	0.0157263
733.831	0.0156526
733.909	0.0157232
733.987	0.0156041
734.065	0.0156805
734.143	0.0155562
734.221	0.0156752
734.299	0.0158036
734.378	0.0159435
734.456	0.0161015
734.534	0.0160957
734.612	0.0161660
734.690	0.0163922
734.768	0.0165089
734.846	0.0165971
734.924	0.0168217
735.003	0.0169374
735.081	0.0168917
735.159	0.0171604
735.237	0.0172142
735.315	0.0172700
735.393	0.0173001
735.471	0.0173736
735.549	0.0174200
735.628	0.0175296
735.706	0.0174735
735.784	0.0173281
735.862	0.0173793
735.940	0.0172185
736.018	0.0171095
736.096	0.0169687
736.174	0.0170631
736.253	0.0170458
736.331	0.0168618
736.409	0.0169208
736.487	0.0167723
736.565	0.0165773
736.643	0.0164896
736.721	0.0163372
736.799	0.0164229
736.878	0.0161472
736.956	0.0162885
737.034	0.0160775
737.112	0.0160928
737.190	0.0159236
737.268	0.0159236
737.346	0.0156324
737.424	0.0156832
737.503	0.0155704
737.581	0.0154818
737.659	0.0155235
737.737	0.0155267
737.815	0.0154357
737.893	0.0154422
737.971	0.0154773
738.049	0.0155174
738.128	0.0154237
738.206	0.0154193
738.284	0.0155281
738.362	0.0155620
738.440	0.0155594
738.518	0.0157774
738.596	0.0157174
738.674	0.0157986
738.753	0.0158744
738.831	0.0158376
738.909	0.0160457
738.987	0.0161183
739.065	0.0161218
739.143	0.0163985
739.221	0.0163529
739.299	0.0163932
739.378	0.0164560
739.456	0.0165060
739.534	0.0167507
739.612	0.0168923
739.690	0.0169890
739.768	0.0171266
739.846	0.0171300
739.924	0.0171855
740.003	0.0173167
740.081	0.0174070
740.159	0.0174958
740.237	0.0175018
740.315	0.0176547
740.393	0.0174448
740.471	0.0174798
740.549	0.0173511
740.628	0.0174138
740.706	0.0173551
740.784	0.0172375
740.862	0.0170628
740.940	0.0169376
741.018	0.0168191
741.096	0.0167502
741.174	0.0166591
741.253	0.0166180
741.331	0.0163528
741.409	0.0161097
741.487	0.0160344
741.565	0.0159129
741.643	0.0158691
741.721	0.0158338
741.799	0.0156279
741.878	0.0155527
741.956	0.0156219
742.034	0.0155236
742.112	0.0155418
742.190	0.0156102
742.268	0.0155148
742.346	0.0155984
742.424	0.0156024
742.503	0.0155453
742.581	0.0157264
742.659	0.0157007
742.737	0.0157916
742.815	0.0158008
742.893	0.0158058
742.971	0.0162236
743.049	0.0161247
743.128	0.0160709
743.206	0.0161304
743.284	0.0163300
743.362	0.0162974
743.440	0.0162275
743.518	0.0162537
743.596	0.0162235
743.674	0.0163349
743.753	0.0162494
743.831	0.0162386
743.909	0.0162515
743.987	0.0161985
744.065	0.0163103
744.143	0.0162400
744.221	0.0162639
744.299	0.0163432
744.378	0.0162610
744.456	0.0163754
744.534	0.0165070
744.612	0.0164550
744.690	0.0164807
744.768	0.0165202
744.846	0.0166585
744.924	0.0167570
745.003	0.0167117
745.081	0.0167274
745.159	0.0168773
745.237	0.0168697
745.315	0.0169844
745.393	0.0169499
745.471	0.0170632
745.549	0.0171202
745.628	0.0171512
745.706	0.0171237
745.784	0.0172045
745.862	0.0171125
745.940	0.0171913
746.018	0.0170951
746.096	0.0169994
746.174	0.0169797
746.253	0.0168681
746.331	0.0168433
746.409	0.0167455
746.487	0.0166978
746.565	0.0165978
746.643	0.0166100
746.721	0.0165089
746.799	0.0163931
746.878	0.0164211
746.956	0.0164049
747.034	0.0162935
747.112	0.0161987
747.190	0.0162019
747.268	0.0161814
747.346	0.0162338
747.424	0.0160447
747.503	0.0160554
747.581	0.0161225
747.659	0.0161239
747.737	0.0159894
747.815	0.0160555
747.893	0.0161002
747.971	0.0159832
748.049	0.0159613
748.128	0.0159574
748.206	0.0160863
748.284	0.0159349
748.362	0.0159277
748.440	0.0158352
748.518	0.0158186
748.596	0.0157735
748.674	0.0158038
748.753	0.0158793
748.831	0.0159744
748.909	0.0159332
748.987	0.0159475
749.065	0.0161182
749.143	0.0160839
749.221	0.0161474
749.299	0.0162421
749.378	0.0163258
749.456	0.0165025
749.534	0.0165199
749.612	0.0166768
749.690	0.0165737
749.768	0.0166792
749.846	0.0168731
749.924	0.0170186
750.003	0.0167959
750.081	0.0170406
750.159	0.0171082
750.237	0.0169802
750.315	0.0170994
750.393	0.0171690
750.471	0.0171030
750.549	0.0171904
750.628	0.0170890
750.706	0.0171051
750.784	0.0169541
750.862	0.0170155
750.940	0.0168643
751.018	0.0168909
751.096	0.0168166
751.174	0.0166353
751.253	0.0166614
751.331	0.0165804
751.409	0.0163909
751.487	0.0162829
751.565	0.0161855
751.643	0.0162812
751.721	0.0161904
751.799	0.0159882
751.878	0.0159935
751.956	0.0159042
752.034	0.0157283
752.112	0.0159775
752.190	0.0158768
752.268	0.0158926
752.346	0.0157599
752.424	0.0156850
752.503	0.0158194
752.581	0.0157845
752.659	0.0157565
752.737	0.0159608
752.815	0.0160354
752.893	0.0162731
752.971	0.0162223
753.049	0.0162162
753.128	0.0164069
753.206	0.0165190
753.284	0.0165681
753.362	0.0165900
753.440	0.0166727
753.518	0.0166729
753.596	0.0166598
753.674	0.0167204
753.753	0.0166492
753.831	0.0166484
753.909	0.0166470
753.987	0.0165736
754.065	0.0164839
754.143	0.0164906
754.221	0.0164472
754.299	0.0164935
754.378	0.0163870
754.456	0.0161853
754.534	0.0162354
754.612	0.0162023
754.690	0.0163465
754.768	0.0161762
754.846	0.0160748
754.924	0.0161671
755.003	0.0161624
755.081	0.0162164
755.159	0.0160560
755.237	0.0158585
755.315	0.0160966
755.393	0.0163034
755.471	0.0160704
755.549	0.0159675
755.628	0.0161330
755.706	0.0160705
755.784	0.0162418
755.862	0.0162572
755.940	0.0161317
756.018	0.0162391
756.096	0.0163700
756.174	0.0165639
756.253	0.0163820
756.331	0.0165152
756.409	0.0166542
756.487	0.0165664
756.565	0.0166414
756.643	0.0166490
756.721	0.0166240
756.799	0.0167680
756.878	0.0169465
756.956	0.0168914
757.034	0.0168219
757.112	0.0168772
757.190	0.0167642
757.268	0.0167446
757.346	0.0166946
757.424	0.0167644
757.503	0.0167407
757.581	0.0165371
757.659	0.0164052
757.737	0.0165194
757.815	0.0165362
757.893	0.0164216
757.971	0.0163690
758.049	0.0163091
758.128	0.0162363
758.206	0.0162706
758.284	0.0163162
758.362	0.0162577
758.440	0.0164065
758.518	0.0164491
758.596	0.0163548
758.674	0.0163736
758.753	0.0162757
758.831	0.0164482
758.909	0.0164484
758.987	0.0164857
759.065	0.0163868
759.143	0.0163148
759.221	0.0163960
759.299	0.0163110
759.378	0.0162286
759.456	0.0163285
759.534	0.0162310
759.612	0.0161935
759.690	0.0163068
759.768	0.0160855
759.846	0.0161723
759.924	0.0160600
760.003	0.0160349
760.081	0.0161371
760.159	0.0160954
760.237	0.0160061
760.315	0.0160264
760.393	0.0161045
760.471	0.0161120
760.549	0.0160852
760.628	0.0161621
760.706	0.0162212
760.784	0.0162854
760.862	0.0163283
760.940	0.0162877
761.018	0.0163818
761.096	0.0166277
761.174	0.0164804
761.253	0.0165143
761.331	0.0165866
761.409	0.0165662
761.487	0.0165553
761.565	0.0166683
761.643	0.0165863
761.721	0.0167583
761.799	0.0167245
761.878	0.0164618
761.956	0.0166403
762.034	0.0168172
762.112	0.0166087
762.190	0.0167024
762.268	0.0168815
762.346	0.0169130
762.424	0.0167846
762.503	0.0168132
762.581	0.0168211
762.659	0.0168661
762.737	0.0168279
762.815	0.0168955
762.893	0.0169204
762.971	0.0169019
763.049	0.0169095
763.128	0.0167227
763.206	0.0167293
763.284	0.0166486
763.362	0.0166076
763.440	0.0166230
763.518	0.0164547
763.596	0.0164463
763.674	0.0162811
763.753	0.0162789
763.831	0.0163330
763.909	0.0162953
763.987	0.0162424
764.065	0.0162310
764.143	0.0162872
764.221	0.0161957
764.299	0.0161224
764.378	0.0162725
764.456	0.0161773
764.534	0.0161486
764.612	0.0162954
764.690	0.0164515
764.768	0.0163641
764.846	0.0162465
764.924	0.0164397
765.003	0.0164796
765.081	0.0163770
765.159	0.0163382
765.237	0.0164059
765.315	0.0162751
765.393	0.0163863
765.471	0.0162722
765.549	0.0162685
765.628	0.0163564
765.706	0.0163216
765.784	0.0162298
765.862	0.0163801
765.940	0.0163591
766.018	0.0164895
766.096	0.0163450
766.174	0.0164166
766.253	0.0164731
766.331	0.0165755
766.409	0.0165380
766.487	0.0166743
766.565	0.0166200
766.643	0.0165398
766.721	0.0166101
766.799	0.0165761
766.878	0.0166674
766.956	0.0164670
767.034	0.0166258
767.112	0.0166231
767.190	0.0164092
767.268	0.0163919
767.346	0.0165199
767.424	0.0165063
767.503	0.0164896
767.581	0.0164575
767.659	0.0164491
767.737	0.0164796
767.815	0.0163636
767.893	0.0165199
767.971	0.0165788
768.049	0.0165514
768.128	0.0168018
768.206	0.0167648
768.284	0.0168938
768.362	0.0169149
768.440	0.0169434
768.518	0.0170515
768.596	0.0170737
768.674	0.0169727
768.753	0.0169743
768.831	0.0169559
768.909	0.0168980
768.987	0.0167431
769.065	0.0168395
769.143	0.0165450
769.221	0.0166978
769.299	0.0165128
769.378	0.0164393
769.456	0.0164092
769.534	0.0163792
769.612	0.0161916
769.690	0.0162084
769.768	0.0161230
769.846	0.0160371
769.924	0.0159365
770.003	0.0160554
770.081	0.0159111
770.159	0.0159885
770.237	0.0158051
770.315	0.0159210
770.393	0.0159166
770.471	0.0159068
770.549	0.0159769
770.628	0.0159078
770.706	0.0160093
770.784	0.0160647
770.862	0.0162281
770.940	0.0162851
771.018	0.0162711
771.096	0.0162747
771.174	0.0163831
771.253	0.0165689
771.331	0.0165947
771.409	0.0165931
771.487	0.0167324
771.565	0.0167767
771.643	0.0168633
771.721	0.0168973
771.799	0.0169901
771.878	0.0167616
771.956	0.0167950
772.034	0.0167464
772.112	0.0168868
772.190	0.0170502
772.268	0.0167361
772.346	0.0167538
772.424	0.0166859
772.503	0.0165829
772.581	0.0165993
772.659	0.0166098
772.737	0.0164039
772.815	0.0164417
772.893	0.0164727
772.971	0.0164195
773.049	0.0163879
773.128	0.0163845
773.206	0.0163917
773.284	0.0162102
773.362	0.0163052
773.440	0.0163234
773.518	0.0163165
773.596	0.0163377
773.674	0.0163810
773.753	0.0164231
773.831	0.0163907
773.909	0.0167521
773.987	0.0166495
774.065	0.0168329
774.143	0.0166966
774.221	0.0167617
774.299	0.0167506
774.378	0.0169408
774.456	0.0170248
774.534	0.0169562
774.612	0.0168485
774.690	0.0170634
774.768	0.0168437
774.846	0.0168430
774.924	0.0166828
775.003	0.0166969
775.081	0.0165241
775.159	0.0167078
775.237	0.0165459
775.315	0.0164729
775.393	0.0162825
775.471	0.0162313
775.549	0.0162476
775.628	0.0160638
775.706	0.0160365
775.784	0.0159763
775.862	0.0158728
775.940	0.0158884
776.018	0.0158719
776.096	0.0159777
776.174	0.0158967
776.253	0.0160379
776.331	0.0159921
776.409	0.0160299
776.487	0.0161348
776.565	0.0161105
776.643	0.0160589
776.721	0.0163281
776.799	0.0163614
776.878	0.0164040
776.956	0.0163718
777.034	0.0163941
777.112	0.0166241
777.190	0.0164827
777.268	0.0166212
777.346	0.0167297
777.424	0.0166990
777.503	0.0165265
777.581	0.0166098
777.659	0.0168166
777.737	0.0167010
777.815	0.0167442
777.893	0.0165782
777.971	0.0168217
778.049	0.0166233
778.128	0.0165372
778.206	0.0166744
778.284	0.0166486
778.362	0.0166797
778.440	0.0165839
778.518	0.0165212
778.596	0.0165384
778.674	0.0165168
778.753	0.0164126
778.831	0.0164404
778.909	0.0164983
778.987	0.0163791
779.065	0.0163618
779.143	0.0163268
779.221	0.0162368
779.299	0.0164960
779.378	0.0162877
779.456	0.0163255
779.534	0.0162640
779.612	0.0164166
779.690	0.0163669
779.768	0.0163509
779.846	0.0163413
779.924	0.0165144
780.003	0.0165559
780.081	0.0165650
780.159	0.0165577
780.237	0.0166321
780.315	0.0166218
780.393	0.0165823
780.471	0.0166763
780.549	0.0168152
780.628	0.0167437
780.706	0.0166811
780.784	0.0167421
780.862	0.0166541
780.940	0.0167032
781.018	0.0166340
781.096	0.0164798
781.174	0.0165286
781.253	0.0165115
781.331	0.0164354
781.409	0.0163125
781.487	0.0162482
781.565	0.0161507
781.643	0.0162238
781.721	0.0161761
781.799	0.0162035
781.878	0.0161470
781.956	0.0160592
782.034	0.0159116
782.112	0.0160018
782.190	0.0162069
782.268	0.0161338
782.346	0.0161901
782.424	0.0161576
782.503	0.0161471
782.581	0.0162712
782.659	0.0162830
782.737	0.0163036
782.815	0.0163516
782.893	0.0163955
782.971	0.0165874
783.049	0.0164799
783.128	0.0165171
783.206	0.0166339
783.284	0.0166709
783.362	0.0168652
783.440	0.0167794
783.518	0.0166575
783.596	0.0168468
783.674	0.0168525
783.753	0.0168259
783.831	0.0168467
783.909	0.0167902
783.987	0.0167171
784.065	0.0167642
784.143	0.0168702
784.221	0.0167310
784.299	0.0166109
784.378	0.0165784
784.456	0.0166978
784.534	0.0166118
784.612	0.0164764
784.690	0.0165481
784.768	0.0166140
784.846	0.0164991
784.924	0.0164562
785.003	0.0164216
785.081	0.0163387
785.159	0.0164684
785.237	0.0164306
785.315	0.0163532
785.393	0.0164995
785.471	0.0164880
785.549	0.0162573
785.628	0.0162250
785.706	0.0164328
785.784	0.0162389
785.862	0.0162061
785.940	0.0164323
786.018	0.0162921
786.096	0.0162887
786.174	0.0163982
786.253	0.0164674
786.331	0.0163555
786.409	0.0165177
786.487	0.0164758
786.565	0.0165657
786.643	0.0165749
786.721	0.0168044
786.799	0.0166934
786.878	0.0167239
786.956	0.0166163
787.034	0.0167025
787.112	0.0168347
787.190	0.0167787
787.268	0.0167901
787.346	0.0168271
787.424	0.0166575
787.503	0.0165048
787.581	0.0165696
787.659	0.0163927
787.737	0.0164439
787.815	0.0163963
787.893	0.0161815
787.971	0.0162396
788.049	0.0163177
788.128	0.0162113
788.206	0.0161505
788.284	0.0162536
788.362	0.0163223
788.440	0.0163267
788.518	0.0163499
788.596	0.0163206
788.674	0.0164507
788.753	0.0162733
788.831	0.0163443
788.909	0.0166214
788.987	0.0164611
789.065	0.0165472
789.143	0.0166138
789.221	0.0165536
789.299	0.0166064
789.378	0.0166625
789.456	0.0165688
789.534	0.0166245
789.612	0.0166295
789.690	0.0167867
789.768	0.0167377
789.846	0.0165861
789.924	0.0164119
790.003	0.0165765
790.081	0.0164547
790.159	0.0165704
790.237	0.0165273
790.315	0.0164556
790.393	0.0165028
790.471	0.0165624
790.549	0.0165367
790.628	0.0165292
790.706	0.0166202
790.784	0.0164730
790.862	0.0165163
790.940	0.0165749
791.018	0.0166126
791.096	0.0164252
791.174	0.0164767
791.253	0.0166348
791.331	0.0165141
791.409	0.0164083
791.487	0.0165055
791.565	0.0165359
791.643	0.0164819
791.721	0.0166022
791.799	0.0166195
791.878	0.0165736
791.956	0.0165556
792.034	0.0164853
792.112	0.0166137
792.190	0.0166887
792.268	0.0165685
792.346	0.0165917
792.424	0.0166625
792.503	0.0167554
792.581	0.0166159
792.659	0.0167101
792.737	0.0165617
792.815	0.0164568
792.893	0.0165833
792.971	0.0167737
793.049	0.0165995
793.128	0.0164613
793.206	0.0165446
793.284	0.0165722
793.362	0.0164389
793.440	0.0164560
793.518	0.0165715
793.596	0.0164008
793.674	0.0163403
793.753	0.0163674
793.831	0.0162776
793.909	0.0162343
793.987	0.0162437
794.065	0.0162230
794.143	0.0160515
794.221	0.0161295
794.299	0.0161607
794.378	0.0162009
794.456	0.0160780
794.534	0.0161044
794.612	0.0162191
794.690	0.0163630
794.768	0.0162608
794.846	0.0160860
794.924	0.0163843
795.003	0.0162601
795.081	0.0163537
795.159	0.0164972
795.237	0.0165271
795.315	0.0166772
795.393	0.0166156
795.471	0.0165433
795.549	0.0166322
795.628	0.0167332
795.706	0.0166859
795.784	0.0167669
795.862	0.0166132
795.940	0.0167493
796.018	0.0168258
796.096	0.0166443
796.174	0.0166922
796.253	0.0166604
796.331	0.0165228
796.409	0.0165693
796.487	0.0166172
796.565	0.0164984
796.643	0.0165571
796.721	0.0166210
796.799	0.0164839
796.878	0.0164176
796.956	0.0164906
797.034	0.0164421
797.112	0.0165208
797.190	0.0162327
797.268	0.0162914
797.346	0.0163261
797.424	0.0163889
797.503	0.0164518
797.581	0.0164433
797.659	0.0164059
797.737	0.0163493
797.815	0.0164416
797.893	0.0163539
797.971	0.0165156
798.049	0.0165201
798.128	0.0164976
798.206	0.0163588
798.284	0.0164809
798.362	0.0165167
798.440	0.0164061
798.518	0.0165399
798.596	0.0164845
798.674	0.0166094
798.753	0.0165139
798.831	0.0165561
798.909	0.0165086
798.987	0.0165574
799.065	0.0165535
799.143	0.0165010
799.221	0.0166160
799.299	0.0165655
799.378	0.0164596
799.456	0.0163476
799.534	0.0165382
799.612	0.0164906
799.690	0.0165269
799.768	0.0164013
799.846	0.0163800
799.924	0.0163040
800.003	0.0161385
800.081	0.0163326
800.159	0.0163117
800.237	0.0163535
800.315	0.0161500
800.393	0.0161615
800.471	0.0162437
800.549	0.0162601
800.628	0.0162790
800.706	0.0164500
800.784	0.0162203
800.862	0.0162382
800.940	0.0162812
801.018	0.0163001
801.096	0.0163729
801.174	0.0162566
801.253	0.0163271
801.331	0.0164491
801.409	0.0163791
801.487	0.0163323
801.565	0.0163844
801.643	0.0163936
801.721	0.0163303
801.799	0.0164607
801.878	0.0164534
801.956	0.0163639
802.034	0.0162643
802.112	0.0163647
802.190	0.0163740
802.268	0.0164404
802.346	0.0163926
802.424	0.0164717
802.503	0.0164734
802.581	0.0165557
802.659	0.0164427
802.737	0.0165866
802.815	0.0164976
802.893	0.0164372
802.971	0.0166083
803.049	0.0165513
803.128	0.0164768
803.206	0.0165542
803.284	0.0166891
803.362	0.0163789
803.440	0.0163046
803.518	0.0163824
803.596	0.0164070
803.674	0.0164391
803.753	0.0164306
803.831	0.0163724
803.909	0.0161559
803.987	0.0164685
804.065	0.0165180
804.143	0.0164780
804.221	0.0163773
804.299	0.0163310
804.378	0.0163049
804.456	0.0163102
804.534	0.0163730
804.612	0.0164549
804.690	0.0163831
804.768	0.0162807
804.846	0.0164851
804.924	0.0164017
805.003	0.0163509
805.081	0.0163499
805.159	0.0163304
805.237	0.0164882
805.315	0.0164529
805.393	0.0163712
805.471	0.0164687
805.549	0.0164242
805.628	0.0164215
805.706	0.0163877
805.784	0.0164294
805.862	0.0163181
805.940	0.0163737
806.018	0.0164503
806.096	0.0164272
806.174	0.0162586
806.253	0.0162263
806.331	0.0163593
806.409	0.0164006
806.487	0.0165221
806.565	0.0163727
806.643	0.0162188
806.721	0.0162865
806.799	0.0164986
806.878	0.0164138
806.956	0.0164224
807.034	0.0165202
807.112	0.0164233
807.190	0.0163377
807.268	0.0164544
807.346	0.0164483
807.424	0.0163836
807.503	0.0163678
807.581	0.0165007
807.659	0.0163581
807.737	0.0162793
807.815	0.0163181
807.893	0.0163017
807.971	0.0163127
808.049	0.0164053
808.128	0.0163372
808.206	0.0163023
808.284	0.0162800
808.362	0.0162217
808.440	0.0163504
808.518	0.0163471
808.596	0.0162416
808.674	0.0162992
808.753	0.0164192
808.831	0.0164735
808.909	0.0164525
808.987	0.0165746
809.065	0.0164545
809.143	0.0163705
809.221	0.0164598
809.299	0.0164726
809.378	0.0165743
809.456	0.0166134
809.534	0.0165508
809.612	0.0164751
809.690	0.0165173
809.768	0.0165013
809.846	0.0164802
809.924	0.0164544
810.003	0.0163793
810.081	0.0166042
810.159	0.0165119
810.237	0.0163651
810.315	0.0165275
810.393	0.0165246
810.471	0.0166939
810.549	0.0166427
810.628	0.0164645
810.706	0.0165398
810.784	0.0166473
810.862	0.0164634
810.940	0.0164041
811.018	0.0164117
811.096	0.0165725
811.174	0.0165380
811.253	0.0165781
811.331	0.0165926
811.409	0.0165298
811.487	0.0165608
811.565	0.0165182
811.643	0.0165346
811.721	0.0166177
811.799	0.0165135
811.878	0.0164165
811.956	0.0164516
812.034	0.0162531
812.112	0.0164462
812.190	0.0165107
812.268	0.0164816
812.346	0.0163652
812.424	0.0163631
812.503	0.0163683
812.581	0.0162954
812.659	0.0164904
812.737	0.0164234
812.815	0.0164251
812.893	0.0163517
812.971	0.0164699
813.049	0.0166659
813.128	0.0163885
813.206	0.0163908
813.284	0.0165067
813.362	0.0164209
813.440	0.0163699
813.518	0.0162791
813.596	0.0164333
813.674	0.0164168
813.753	0.0163496
813.831	0.0164706
813.909	0.0164098
813.987	0.0163521
814.065	0.0163927
814.143	0.0164027
814.221	0.0164278
814.299	0.0164429
814.378	0.0164447
814.456	0.0164859
814.534	0.0162999
814.612	0.0164235
814.690	0.0165578
814.768	0.0164315
814.846	0.0164722
814.924	0.0163979
815.003	0.0164548
815.081	0.0165018
815.159	0.0165852
815.237	0.0165492
815.315	0.0164901
815.393	0.0165942
815.471	0.0165803
815.549	0.0165386
815.628	0.0165539
815.706	0.0164427
815.784	0.0165118
815.862	0.0164540
815.940	0.0165883
816.018	0.0164939
816.096	0.0165012
816.174	0.0164346
816.253	0.0164854
816.331	0.0164556
816.409	0.0164433
816.487	0.0164915
816.565	0.0162758
816.643	0.0164631
816.721	0.0163387
816.799	0.0163608
816.878	0.0163595
816.956	0.0164141
817.034	0.0163361
817.112	0.0162775
817.190	0.0162761
817.268	0.0161983
817.346	0.0161274
817.424	0.0161283
817.503	0.0162258
817.581	0.0162388
817.659	0.0160850
817.737	0.0160808
817.815	0.0160819
817.893	0.0162762
817.971	0.0162038
818.049	0.0162363
818.128	0.0161869
818.206	0.0162798
818.284	0.0165166
818.362	0.0163419
818.440	0.0163108
818.518	0.0163705
818.596	0.0164659
818.674	0.0163590
818.753	0.0163456
818.831	0.0164244
818.909	0.0164883
818.987	0.0163615
819.065	0.0165273
819.143	0.0166139
819.221	0.0166753
819.299	0.0165021
819.378	0.0166648
819.456	0.0166780
819.534	0.0165131
819.612	0.0166800
819.690	0.0166574
819.768	0.0165946
819.846	0.0165749
819.924	0.0166091
820.003	0.0165099
820.081	0.0164024
820.159	0.0166029
820.237	0.0163640
820.315	0.0164365
820.393	0.0163861
820.471	0.0162760
820.549	0.0165103
820.628	0.0163600
820.706	0.0162825
820.784	0.0162562
820.862	0.0162475
820.940	0.0163065
821.018	0.0162608
821.096	0.0162670
821.174	0.0161888
821.253	0.0161737
821.331	0.0161819
821.409	0.0162292
821.487	0.0162032
821.565	0.0161952
821.643	0.0162676
821.721	0.0161417
821.799	0.0162647
821.878	0.0163199
821.956	0.0162736
822.034	0.0163486
822.112	0.0162897
822.190	0.0162984
822.268	0.0163184
822.346	0.0163992
822.424	0.0163770
822.503	0.0164445
822.581	0.0164246
822.659	0.0164061
822.737	0.0163808
822.815	0.0164824
822.893	0.0164204
822.971	0.0164606
823.049	0.0164298
823.128	0.0164672
823.206	0.0164816
823.284	0.0166303
823.362	0.0163998
823.440	0.0163972
823.518	0.0165501
823.596	0.0165275
823.674	0.0165079
823.753	0.0164497
823.831	0.0164707
823.909	0.0166361
823.987	0.0165163
824.065	0.0163796
824.143	0.0165769
824.221	0.0164680
824.299	0.0165861
824.378	0.0164612
824.456	0.0164133
824.534	0.0163760
824.612	0.0164185
824.690	0.0163926
824.768	0.0163383
824.846	0.0164576
824.924	0.0163358
825.003	0.0163744
825.081	0.0162916
825.159	0.0163210
825.237	0.0164046
825.315	0.0163119
825.393	0.0163255
825.471	0.0164515
825.549	0.0163129
825.628	0.0163900
825.706	0.0163844
825.784	0.0163511
825.862	0.0164073
825.940	0.0164253
826.018	0.0164159
826.096	0.0162706
826.174	0.0164150
826.253	0.0165790
826.331	0.0163931
826.409	0.0164765
826.487	0.0165147
826.565	0.0163367
826.643	0.0165268
826.721	0.0164845
826.799	0.0163663
826.878	0.0162862
826.956	0.0164754
827.034	0.0163651
827.112	0.0163677
827.190	0.0164306
827.268	0.0164008
827.346	0.0165344
827.424	0.0162740
827.503	0.0164400
827.581	0.0165265
827.659	0.0165601
827.737	0.0166190
827.815	0.0165587
827.893	0.0166291
827.971	0.0166376
828.049	0.0166190
828.128	0.0166134
828.206	0.0164462
828.284	0.0165188
828.362	0.0165474
828.440	0.0165416
828.518	0.0165914
828.596	0.0165487
828.674	0.0165270
828.753	0.0164820
828.831	0.0164664
828.909	0.0165302
828.987	0.0164438
829.065	0.0163013
829.143	0.0163542
829.221	0.0164317
829.299	0.0163834
829.378	0.0164454
829.456	0.0162877
829.534	0.0162189
829.612	0.0164485
829.690	0.0162544
829.768	0.0162993
829.846	0.0163262
829.924	0.0162607
830.003	0.0162727
830.081	0.0162180
830.159	0.0162078
830.237	0.0162502
830.315	0.0161419
830.393	0.0162946
830.471	0.0162254
830.549	0.0162702
830.628	0.0163299
830.706	0.0163602
830.784	0.0164013
830.862	0.0163313
830.940	0.0163557
831.018	0.0162672
831.096	0.0164048
831.174	0.0163784
831.253	0.0164663
831.331	0.0163643
831.409	0.0164927
831.487	0.0163937
831.565	0.0165212
831.643	0.0164337
831.721	0.0165945
831.799	0.0165321
831.878	0.0165994
831.956	0.0166697
832.034	0.0166708
832.112	0.0166220
832.190	0.0166784
832.268	0.0166283
832.346	0.0167013
832.424	0.0167635
832.503	0.0165516
832.581	0.0165980
832.659	0.0167007
832.737	0.0165649
832.815	0.0166778
832.893	0.0164732
832.971	0.0165812
833.049	0.0163776
833.128	0.0165456
833.206	0.0164684
833.284	0.0165401
833.362	0.0163271
833.440	0.0162852
833.518	0.0162446
833.596	0.0162855
833.674	0.0161734
833.753	0.0161936
833.831	0.0161304
833.909	0.0160534
833.987	0.0161128
834.065	0.0161720
834.143	0.0160069
834.221	0.0161237
834.299	0.0162612
834.378	0.0161187
834.456	0.0162337
834.534	0.0161758
834.612	0.0161642
834.690	0.0160818
834.768	0.0162616
834.846	0.0162775
834.924	0.0162169
835.003	0.0163598
835.081	0.0163728
835.159	0.0163976
835.237	0.0164262
835.315	0.0164629
835.393	0.0164577
835.471	0.0164380
835.549	0.0165212
835.628	0.0164513
835.706	0.0165368
835.784	0.0165283
835.862	0.0165794
835.940	0.0164432
836.018	0.0165633
836.096	0.0165838
836.174	0.0167358
836.253	0.0166238
836.331	0.0166254
836.409	0.0165916
836.487	0.0164523
836.565	0.0166769
836.643	0.0167885
836.721	0.0166238
836.799	0.0165353
836.878	0.0165569
836.956	0.0164757
837.034	0.0167332
837.112	0.0167833
837.190	0.0167491
837.268	0.0165809
837.346	0.0165890
837.424	0.0165674
837.503	0.0165284
837.581	0.0166055
837.659	0.0164571
837.737	0.0163779
837.815	0.0164907
837.893	0.0164428
837.971	0.0163205
838.049	0.0164311
838.128	0.0165292
838.206	0.0164281
838.284	0.0163131
838.362	0.0164804
838.440	0.0163438
838.518	0.0163866
838.596	0.0163304
838.674	0.0162918
838.753	0.0163285
838.831	0.0162813
838.909	0.0161990
838.987	0.0163365
839.065	0.0163146
839.143	0.0164252
839.221	0.0162650
839.299	0.0162431
839.378	0.0165228
839.456	0.0163573
839.534	0.0163484
839.612	0.0162982
839.690	0.0164564
839.768	0.0163539
839.846	0.0163142
839.924	0.0163739
840.003	0.0164023
840.081	0.0163497
840.159	0.0163232
840.237	0.0163171
840.315	0.0163332
840.393	0.0162933
840.471	0.0164325
840.549	0.0162726
840.628	0.0163097
840.706	0.0163403
840.784	0.0163725
840.862	0.0163196
840.940	0.0163389
841.018	0.0164639
841.096	0.0165245
841.174	0.0165054
841.253	0.0165475
841.331	0.0164971
841.409	0.0165314
841.487	0.0164896
841.565	0.0165854
841.643	0.0166255
841.721	0.0167470
841.799	0.0166798
841.878	0.0166790
841.956	0.0166726
842.034	0.0165935
842.112	0.0166834
842.190	0.0166733
842.268	0.0167241
842.346	0.0166482
842.424	0.0166401
842.503	0.0165870
842.581	0.0167237
842.659	0.0166205
842.737	0.0166888
842.815	0.0166537
842.893	0.0165946
842.971	0.0166087
843.049	0.0164919
843.128	0.0165589
843.206	0.0164882
843.284	0.0164578
843.362	0.0163161
843.440	0.0164872
843.518	0.0164623
843.596	0.0165430
843.674	0.0165470
843.753	0.0164723
843.831	0.0164106
843.909	0.0163593
843.987	0.0162208
844.065	0.0162053
844.143	0.0162478
844.221	0.0164708
844.299	0.0164019
844.378	0.0163425
844.456	0.0161948
844.534	0.0162383
844.612	0.0161948
844.690	0.0162386
844.768	0.0163030
844.846	0.0163337
844.924	0.0163057
845.003	0.0162804
845.081	0.0163660
845.159	0.0161990
845.237	0.0163700
845.315	0.0163448
845.393	0.0165916
845.471	0.0163654
845.549	0.0163467
845.628	0.0164299
845.706	0.0164185
845.784	0.0165139
845.862	0.0164881
845.940	0.0165442
846.018	0.0165971
846.096	0.0166478
846.174	0.0166698
846.253	0.0166486
846.331	0.0165995
846.409	0.0166387
846.487	0.0166530
846.565	0.0167371
846.643	0.0166428
846.721	0.0166349
846.799	0.0166286
846.878	0.0167133
846.956	0.0166534
847.034	0.0167047
847.112	0.0164877
847.190	0.0166090
847.268	0.0165879
847.346	0.0166507
847.424	0.0164705
847.503	0.0165319
847.581	0.0164717
847.659	0.0164806
847.737	0.0165858
847.815	0.0165059
847.893	0.0164336
847.971	0.0164485
848.049	0.0164168
848.128	0.0165345
848.206	0.0165596
848.284	0.0163038
848.362	0.0164120
848.440	0.0164700
848.518	0.0164772
848.596	0.0164474
848.674	0.0163367
848.753	0.0163593
848.831	0.0165211
848.909	0.0163426
848.987	0.0164095
849.065	0.0164403
849.143	0.0163268
849.221	0.0164013
849.299	0.0164016
849.378	0.0163757
849.456	0.0163383
849.534	0.0164471
849.612	0.0164422
849.690	0.0164777
849.768	0.0164365
849.846	0.0162785
849.924	0.0164489
850.003	0.0165018
850.081	0.0164777
850.159	0.0164204
850.237	0.0164304
850.315	0.0163663
850.393	0.0164516
850.471	0.0164502
850.549	0.0164376
850.628	0.0163183
850.706	0.0164565
850.784	0.0164079
850.862	0.0164762
850.940	0.0162656
851.018	0.0164103
851.096	0.0164319
851.174	0.0164134
851.253	0.0164781
851.331	0.0163935
851.409	0.0164066
851.487	0.0165009
851.565	0.0163944
851.643	0.0165069
851.721	0.0164270
851.799	0.0165693
851.878	0.0164738
851.956	0.0162952
852.034	0.0164285
852.112	0.0164757
852.190	0.0166006
852.268	0.0166041
852.346	0.0164175
852.424	0.0163868
852.503	0.0165496
852.581	0.0164263
852.659	0.0166102
852.737	0.0164942
852.815	0.0163895
852.893	0.0164728
852.971	0.0166261
853.049	0.0165627
853.128	0.0165957
853.206	0.0164415
853.284	0.0164491
853.362	0.0164976
853.440	0.0165249
853.518	0.0164655
853.596	0.0164971
853.674	0.0164671
853.753	0.0163664
853.831	0.0165395
853.909	0.0164574
853.987	0.0164069
854.065	0.0163428
854.143	0.0164810
854.221	0.0164806
854.299	0.0163482
854.378	0.0162763
854.456	0.0164222
854.534	0.0163768
854.612	0.0164367
854.690	0.0163155
854.768	0.0162672
854.846	0.0163712
854.924	0.0161873
855.003	0.0163346
855.081	0.0162975
855.159	0.0163264
855.237	0.0163410
855.315	0.0163977
855.393	0.0162313
855.471	0.0163963
855.549	0.0162400
855.628	0.0162544
855.706	0.0163748
855.784	0.0162875
855.862	0.0163869
855.940	0.0162990
856.018	0.0163358
856.096	0.0163779
856.174	0.0163599
856.253	0.0163846
856.331	0.0163552
856.409	0.0163777
856.487	0.0164156
856.565	0.0162891
856.643	0.0162531
856.721	0.0161897
856.799	0.0163769
856.878	0.0163150
856.956	0.0164170
857.034	0.0163510
857.112	0.0162247
857.190	0.0162846
857.268	0.0163579
857.346	0.0162881
857.424	0.0162427
857.503	0.0163063
857.581	0.0163126
857.659	0.0163898
857.737	0.0163273
857.815	0.0163944
857.893	0.0163400
857.971	0.0164423
858.049	0.0164006
858.128	0.0163683
858.206	0.0164713
858.284	0.0164861
858.362	0.0164203
858.440	0.0164303
858.518	0.0165088
858.596	0.0165186
858.674	0.0163421
858.753	0.0164942
858.831	0.0164588
858.909	0.0164720
858.987	0.0164844
859.065	0.0165831
859.143	0.0165819
859.221	0.0165175
859.299	0.0165953
859.378	0.0165848
859.456	0.0165730
859.534	0.0166171
859.612	0.0165707
859.690	0.0166679
859.768	0.0166376
859.846	0.0164773
859.924	0.0164321
860.003	0.0165140
860.081	0.0164950
860.159	0.0165770
860.237	0.0164301
860.315	0.0165401
860.393	0.0165115
860.471	0.0164562
860.549	0.0164299
860.628	0.0163675
860.706	0.0164124
860.784	0.0162828
860.862	0.0163200
860.940	0.0163612
861.018	0.0163484
861.096	0.0164494
861.174	0.0164529
861.253	0.0163211
861.331	0.0164563
861.409	0.0164321
861.487	0.0164207
861.565	0.0164730
861.643	0.0164812
861.721	0.0163142
861.799	0.0164715
861.878	0.0164531
861.956	0.0165569
862.034	0.0166696
862.112	0.0165414
862.190	0.0164624
862.268	0.0164285
862.346	0.0165372
862.424	0.0165401
862.503	0.0166553
862.581	0.0165804
862.659	0.0165701
862.737	0.0166121
862.815	0.0167386
862.893	0.0166653
862.971	0.0166086
863.049	0.0166467
863.128	0.0166406
863.206	0.0166840
863.284	0.0166006
863.362	0.0165284
863.440	0.0165689
863.518	0.0166218
863.596	0.0165816
863.674	0.0165797
863.753	0.0165450
863.831	0.0166784
863.909	0.0166534
863.987	0.0165728
864.065	0.0166699
864.143	0.0165820
864.221	0.0166303
864.299	0.0164781
864.378	0.0165526
864.456	0.0166524
864.534	0.0165923
864.612	0.0166210
864.690	0.0167355
864.768	0.0165419
864.846	0.0165134
864.924	0.0165383
865.003	0.0165125
865.081	0.0166190
865.159	0.0165685
865.237	0.0165840
865.315	0.0165319
865.393	0.0165686
865.471	0.0165192
865.549	0.0164101
865.628	0.0164855
865.706	0.0162828
865.784	0.0163425
865.862	0.0163264
865.940	0.0163998
866.018	0.0164284
866.096	0.0163273
866.174	0.0162760
866.253	0.0161634
866.331	0.0163190
866.409	0.0163795
866.487	0.0162397
866.565	0.0163387
866.643	0.0162155
866.721	0.0162071
866.799	0.0163152
866.878	0.0162826
866.956	0.0160645
867.034	0.0161938
867.112	0.0162663
867.190	0.0164163
867.268	0.0162988
867.346	0.0164159
867.424	0.0163191
867.503	0.0163630
867.581	0.0164245
867.659	0.0163245
867.737	0.0163393
867.815	0.0164238
867.893	0.0162411
867.971	0.0163412
868.049	0.0164425
868.128	0.0165083
868.206	0.0164605
868.284	0.0166586
868.362	0.0165621
868.440	0.0165731
868.518	0.0165408
868.596	0.0166720
868.674	0.0165931
868.753	0.0165657
868.831	0.0165911
868.909	0.0165173
868.987	0.0165922
869.065	0.0166748
869.143	0.0165366
869.221	0.0164872
869.299	0.0163899
869.378	0.0163051
869.456	0.0164693
869.534	0.0163934
869.612	0.0166114
869.690	0.0165276
869.768	0.0163678
869.846	0.0164545
869.924	0.0166093
870.003	0.0165893
870.081	0.0165672
870.159	0.0165643
870.237	0.0164946
870.315	0.0164163
870.393	0.0165607
870.471	0.0164973
870.549	0.0164279
870.628	0.0163819
870.706	0.0164425
870.784	0.0163867
870.862	0.0164764
870.940	0.0165103
871.018	0.0164704
871.096	0.0164600
871.174	0.0164937
871.253	0.0163645
871.331	0.0164249
871.409	0.0164495
871.487	0.0163886
871.565	0.0165485
871.643	0.0164125
871.721	0.0164199
871.799	0.0163774
871.878	0.0163795
871.956	0.0164064
872.034	0.0163557
872.112	0.0163433
872.190	0.0164546
872.268	0.0164291
872.346	0.0163412
872.424	0.0164642
872.503	0.0165253
872.581	0.0164114
872.659	0.0165035
872.737	0.0164617
872.815	0.0165342
872.893	0.0165533
872.971	0.0164752
873.049	0.0163972
873.128	0.0165993
873.206	0.0165589
873.284	0.0165343
873.362	0.0165801
873.440	0.0164547
873.518	0.0164317
873.596	0.0163956
873.674	0.0163755
873.753	0.0165090
873.831	0.0164693
873.909	0.0164315
873.987	0.0163506
874.065	0.0163452
874.143	0.0163724
874.221	0.0164180
874.299	0.0164536
874.378	0.0163880
874.456	0.0162463
874.534	0.0164292
874.612	0.0164368
874.690	0.0163756
874.768	0.0164012
874.846	0.0163726
874.924	0.0164548
875.003	0.0163557
875.081	0.0163842
875.159	0.0163575
875.237	0.0164429
875.315	0.0164429
875.393	0.0163180
875.471	0.0164304
875.549	0.0165037
875.628	0.0163523
875.706	0.0164223
875.784	0.0164189
875.862	0.0163283
875.940	0.0164278
876.018	0.0164154
876.096	0.0163279
876.174	0.0163916
876.253	0.0163927
876.331	0.0163435
876.409	0.0164153
876.487	0.0163509
876.565	0.0162968
876.643	0.0162989
876.721	0.0161755
876.799	0.0162573
876.878	0.0165327
876.956	0.0164200
877.034	0.0163204
877.112	0.0163562
877.190	0.0163705
877.268	0.0164304
877.346	0.0164325
877.424	0.0163171
877.503	0.0163193
877.581	0.0163094
877.659	0.0163094
877.737	0.0164278
877.815	0.0164403
877.893	0.0162563
877.971	0.0163987
878.049	0.0162567
878.128	0.0163468
878.206	0.0163667
878.284	0.0163457
878.362	0.0162701
878.440	0.0163248
878.518	0.0165649
878.596	0.0163433
878.674	0.0163441
878.753	0.0164655
878.831	0.0163770
878.909	0.0163047
878.987	0.0163143
879.065	0.0163321
879.143	0.0163729
879.221	0.0163609
879.299	0.0163088
879.378	0.0163108
879.456	0.0164817
879.534	0.0163000
879.612	0.0163475
879.690	0.0165077
879.768	0.0163506
879.846	0.0164011
879.924	0.0164068
880.003	0.0164301
880.081	0.0164422
880.159	0.0163891
880.237	0.0163520
880.315	0.0164053
880.393	0.0164425
880.471	0.0165125
880.549	0.0163771
880.628	0.0164079
880.706	0.0163287
880.784	0.0163339
880.862	0.0164275
880.940	0.0163580
881.018	0.0163235
881.096	0.0162476
881.174	0.0164088
881.253	0.0164499
881.331	0.0164575
881.409	0.0162402
881.487	0.0163397
881.565	0.0163715
881.643	0.0162646
881.721	0.0163688
881.799	0.0163598
881.878	0.0164108
881.956	0.0164442
882.034	0.0165092
882.112	0.0164763
882.190	0.0163590
882.268	0.0164907
882.346	0.0164040
882.424	0.0163603
882.503	0.0164177
882.581	0.0164825
882.659	0.0165567
882.737	0.0164012
882.815	0.0164103
882.893	0.0163235
882.971	0.0164159
883.049	0.0163665
883.128	0.0163731
883.206	0.0164301
883.284	0.0165048
883.362	0.0163983
883.440	0.0163795
883.518	0.0163475
883.596	0.0164054
883.674	0.0164609
883.753	0.0163715
883.831	0.0163853
883.909	0.0163769
883.987	0.0164229
884.065	0.0163678
884.143	0.0163783
884.221	0.0163033
884.299	0.0163354
884.378	0.0164056
884.456	0.0163589
884.534	0.0164127
884.612	0.0163435
884.690	0.0163525
884.768	0.0163023
884.846	0.0162714
884.924	0.0162767
885.003	0.0163581
885.081	0.0163414
885.159	0.0162858
885.237	0.0163966
885.315	0.0163546
885.393	0.0165047
885.471	0.0163548
885.549	0.0163978
885.628	0.0163652
885.706	0.0164005
885.784	0.0165020
885.862	0.0164857
885.940	0.0164202
886.018	0.0162976
886.096	0.0164716
886.174	0.0165086
886.253	0.0165106
886.331	0.0165944
886.409	0.0164271
886.487	0.0164648
886.565	0.0165350
886.643	0.0164538
886.721	0.0164308
886.799	0.0165385
886.878	0.0164289
886.956	0.0163486
887.034	0.0165027
887.112	0.0163974
887.190	0.0164133
887.268	0.0163866
887.346	0.0164314
887.424	0.0164732
887.503	0.0163450
887.581	0.0162534
887.659	0.0163683
887.737	0.0163785
887.815	0.0164510
887.893	0.0163973
887.971	0.0163757
888.049	0.0162978
888.128	0.0163985
888.206	0.0163924
888.284	0.0164543
888.362	0.0164674
888.440	0.0164731
888.518	0.0165682
888.596	0.0165175
888.674	0.0165977
888.753	0.0166476
888.831	0.0165611
888.909	0.0164610
888.987	0.0164554
889.065	0.0164756
889.143	0.0164745
889.221	0.0164888
889.299	0.0164901
889.378	0.0164233
889.456	0.0164677
889.534	0.0164588
889.612	0.0164541
889.690	0.0163938
889.768	0.0164021
889.846	0.0164155
889.924	0.0164345
890.003	0.0163612
890.081	0.0164652
890.159	0.0164133
890.237	0.0164175
890.315	0.0163860
890.393	0.0164536
890.471	0.0163548
890.549	0.0163552
890.628	0.0164534
890.706	0.0162885
890.784	0.0163052
890.862	0.0164351
890.940	0.0165276
891.018	0.0163762
891.096	0.0164000
891.174	0.0163728
891.253	0.0164843
891.331	0.0165282
891.409	0.0163978
891.487	0.0163340
891.565	0.0163998
891.643	0.0165380
891.721	0.0164764
891.799	0.0163589
891.878	0.0164527
891.956	0.0163036
892.034	0.0163992
892.112	0.0165367
892.190	0.0163216
892.268	0.0165041
892.346	0.0164233
892.424	0.0163480
892.503	0.0164512
892.581	0.0164997
892.659	0.0164493
892.737	0.0164845
892.815	0.0164320
892.893	0.0165565
892.971	0.0163739
893.049	0.0164635
893.128	0.0164388
893.206	0.0165299
893.284	0.0166145
893.362	0.0165434
893.440	0.0164134
893.518	0.0164848
893.596	0.0164375
893.674	0.0164073
893.753	0.0165605
893.831	0.0162806
893.909	0.0165731
893.987	0.0164474
894.065	0.0165467
894.143	0.0163806
894.221	0.0164177
894.299	0.0164283
894.378	0.0165150
894.456	0.0164320
894.534	0.0164491
894.612	0.0163092
894.690	0.0164551
894.768	0.0165110
894.846	0.0164507
894.924	0.0165319
895.003	0.0166300
895.081	0.0165388
895.159	0.0164015
895.237	0.0164017
895.315	0.0164321
895.393	0.0164554
895.471	0.0165415
895.549	0.0164061
895.628	0.0164507
895.706	0.0164224
895.784	0.0164145
895.862	0.0165251
895.940	0.0164029
896.018	0.0163247
896.096	0.0165330
896.174	0.0164821
896.253	0.0163593
896.331	0.0163765
896.409	0.0162947
896.487	0.0163268
896.565	0.0162450
896.643	0.0163681
896.721	0.0163921
896.799	0.0163747
896.878	0.0163882
896.956	0.0164391
897.034	0.0163550
897.112	0.0163968
897.190	0.0162275
897.268	0.0162402
897.346	0.0163332
897.424	0.0165884
897.503	0.0164482
897.581	0.0164303
897.659	0.0164747
897.737	0.0162496
897.815	0.0164573
897.893	0.0164568
897.971	0.0163757
898.049	0.0163217
898.128	0.0163355
898.206	0.0164149
898.284	0.0165605
898.362	0.0163356
898.440	0.0163544
898.518	0.0164470
898.596	0.0163122
898.674	0.0163239
898.753	0.0163868
898.831	0.0165225
898.909	0.0163741
898.987	0.0164437
899.065	0.0165159
899.143	0.0164680
899.221	0.0165121
899.299	0.0164532
899.378	0.0164355
899.456	0.0164007
899.534	0.0164965
899.612	0.0164823
899.690	0.0165646
899.768	0.0165307
899.846	0.0165802
899.924	0.0165529
900.003	0.0164547
900.081	0.0165003
900.159	0.0164899
900.237	0.0164334
900.315	0.0165074
900.393	0.0164143
900.471	0.0164629
900.549	0.0164780
900.628	0.0163308
900.706	0.0164688
900.784	0.0163476
900.862	0.0162737
900.940	0.0162158
901.018	0.0162952
901.096	0.0162844
901.174	0.0163924
901.253	0.0164553
901.331	0.0164268
901.409	0.0164002
901.487	0.0163493
901.565	0.0162865
901.643	0.0163243
901.721	0.0163634
901.799	0.0164418
901.878	0.0163385
901.956	0.0163306
902.034	0.0163352
902.112	0.0163885
902.190	0.0164677
902.268	0.0165434
902.346	0.0163629
902.424	0.0163589
902.503	0.0163465
902.581	0.0165090
902.659	0.0164055
902.737	0.0164629
902.815	0.0164023
902.893	0.0163580
902.971	0.0163793
903.049	0.0163961
903.128	0.0164355
903.206	0.0165188
903.284	0.0163094
903.362	0.0163342
903.440	0.0164764
903.518	0.0163069
903.596	0.0163108
903.674	0.0162104
903.753	0.0163161
903.831	0.0162386
903.909	0.0162946
903.987	0.0162850
904.065	0.0163223
904.143	0.0163033
904.221	0.0163580
904.299	0.0164523
904.378	0.0163702
904.456	0.0163532
904.534	0.0163745
904.612	0.0164609
904.690	0.0162280
904.768	0.0163063
904.846	0.0164011
904.924	0.0163014
905.003	0.0163409
905.081	0.0162356
905.159	0.0163636
905.237	0.0163847
905.315	0.0165028
905.393	0.0163632
905.471	0.0163239
905.549	0.0165381
905.628	0.0163606
905.706	0.0164448
905.784	0.0163721
905.862	0.0163456
905.940	0.0162968
906.018	0.0164005
906.096	0.0164918
906.174	0.0165131
906.253	0.0165259
906.331	0.0163974
906.409	0.0164261
906.487	0.0165145
906.565	0.0164943
906.643	0.0163026
906.721	0.0164431
906.799	0.0163699
906.878	0.0163429
906.956	0.0164406
907.034	0.0162768
907.112	0.0164471
907.190	0.0163520
907.268	0.0162798
907.346	0.0163698
907.424	0.0164472
907.503	0.0163097
907.581	0.0163024
907.659	0.0164244
907.737	0.0163863
907.815	0.0164318
907.893	0.0162229
907.971	0.0162603
908.049	0.0165194
908.128	0.0164451
908.206	0.0163477
908.284	0.0163797
908.362	0.0164105
908.440	0.0164987
908.518	0.0164975
908.596	0.0163483
908.674	0.0164331
908.753	0.0164394
908.831	0.0163305
908.909	0.0163490
908.987	0.0162868
909.065	0.0162576
909.143	0.0162711
909.221	0.0162647
909.299	0.0163189
909.378	0.0162984
909.456	0.0163042
909.534	0.0162667
909.612	0.0162601
909.690	0.0162467
909.768	0.0163226
909.846	0.0163390
909.924	0.0162841
910.003	0.0162436
910.081	0.0162190
910.159	0.0162009
910.237	0.0163264
910.315	0.0163486
910.393	0.0163595
910.471	0.0164165
910.549	0.0163828
910.628	0.0163773
910.706	0.0162652
910.784	0.0163425
910.862	0.0163468
910.940	0.0163398
911.018	0.0163192
911.096	0.0164499
911.174	0.0163613
911.253	0.0164708
911.331	0.0163617
911.409	0.0163622
911.487	0.0162725
911.565	0.0162286
911.643	0.0164580
911.721	0.0163915
911.799	0.0163644
911.878	0.0164912
911.956	0.0163356
912.034	0.0162613
912.112	0.0163768
912.190	0.0163115
912.268	0.0162166
912.346	0.0164159
912.424	0.0162777
912.503	0.0162899
912.581	0.0164943
912.659	0.0163205
912.737	0.0162549
912.815	0.0164162
912.893	0.0164076
912.971	0.0164079
913.049	0.0163421
913.128	0.0163397
913.206	0.0163734
913.284	0.0163780
913.362	0.0162438
913.440	0.0164944
913.518	0.0163646
913.596	0.0164474
913.674	0.0164236
913.753	0.0164857
913.831	0.0165112
913.909	0.0165215
913.987	0.0164866
914.065	0.0164978
914.143	0.0164241
914.221	0.0164059
914.299	0.0165775
914.378	0.0164651
914.456	0.0163260
914.534	0.0164471
914.612	0.0164061
914.690	0.0161654
914.768	0.0163802
914.846	0.0163548
914.924	0.0164207
915.003	0.0163770
915.081	0.0163958
915.159	0.0162846
915.237	0.0163665
915.315	0.0164043
915.393	0.0164767
915.471	0.0164255
915.549	0.0163361
915.628	0.0163597
915.706	0.0161031
915.784	0.0162952
915.862	0.0163710
915.940	0.0164334
916.018	0.0163502
916.096	0.0164383
916.174	0.0163330
916.253	0.0162890
916.331	0.0164220
916.409	0.0164340
916.487	0.0164584
916.565	0.0164201
916.643	0.0164099
916.721	0.0164505
916.799	0.0163792
916.878	0.0163897
916.956	0.0163563
917.034	0.0164536
917.112	0.0164109
917.190	0.0163831
917.268	0.0164103
917.346	0.0164697
917.424	0.0163126
917.503	0.0164596
917.581	0.0165054
917.659	0.0164165
917.737	0.0164848
917.815	0.0163519
917.893	0.0164754
917.971	0.0165073
918.049	0.0164425
918.128	0.0164436
918.206	0.0163599
918.284	0.0164014
918.362	0.0165063
918.440	0.0164204
918.518	0.0163005
918.596	0.0163399
918.674	0.0165072
918.753	0.0163211
918.831	0.0163492
918.909	0.0163746
918.987	0.0164308
919.065	0.0164610
919.143	0.0163532
919.221	0.0164204
919.299	0.0165223
919.378	0.0164287
919.456	0.0164510
919.534	0.0164297
919.612	0.0164449
919.690	0.0163939
919.768	0.0163869
919.846	0.0164568
919.924	0.0164499
920.003	0.0162204
920.081	0.0163391
920.159	0.0163975
920.237	0.0163561
920.315	0.0163852
920.393	0.0163962
920.471	0.0163052
920.549	0.0164854
920.628	0.0163560
920.706	0.0164790
920.784	0.0163499
920.862	0.0164640
920.940	0.0163811
921.018	0.0164735
921.096	0.0163786
921.174	0.0164114
921.253	0.0164871
921.331	0.0164388
921.409	0.0163358
921.487	0.0163373
921.565	0.0163821
921.643	0.0164095
921.721	0.0162586
921.799	0.0164154
921.878	0.0164598
921.956	0.0164116
922.034	0.0164774
922.112	0.0164542
922.190	0.0164912
922.268	0.0164223
922.346	0.0164734
922.424	0.0164610
922.503	0.0164688
922.581	0.0165324
922.659	0.0163440
922.737	0.0163687
922.815	0.0164632
922.893	0.0164881
922.971	0.0163626
923.049	0.0162165
923.128	0.0163299
923.206	0.0162726
923.284	0.0162201
923.362	0.0163312
923.440	0.0161462
923.518	0.0161958
923.596	0.0162353
923.674	0.0161856
923.753	0.0163400
923.831	0.0162924
923.909	0.0163275
923.987	0.0162194
924.065	0.0163254
924.143	0.0162616
924.221	0.0161864
924.299	0.0163724
924.378	0.0162179
924.456	0.0161594
924.534	0.0162917
924.612	0.0163623
924.690	0.0164622
924.768	0.0164003
924.846	0.0162727
924.924	0.0163184
925.003	0.0163673
925.081	0.0164650
925.159	0.0164137
925.237	0.0163255
925.315	0.0164256
925.393	0.0163765
925.471	0.0162169
925.549	0.0164323
925.628	0.0165409
925.706	0.0164126
925.784	0.0163211
925.862	0.0163789
925.940	0.0164177
926.018	0.0164299
926.096	0.0163900
926.174	0.0163634
926.253	0.0164906
926.331	0.0163724
926.409	0.0165209
926.487	0.0164188
926.565	0.0164585
926.643	0.0165036
926.721	0.0164103
926.799	0.0164678
926.878	0.0164105
926.956	0.0164560
927.034	0.0166067
927.112	0.0164498
927.190	0.0162907
927.268	0.0164920
927.346	0.0163382
927.424	0.0164169
927.503	0.0163214
927.581	0.0164112
927.659	0.0166287
927.737	0.0164623
927.815	0.0164027
927.893	0.0164531
927.971	0.0163544
928.049	0.0165246
928.128	0.0163370
928.206	0.0163409
928.284	0.0164362
928.362	0.0163901
928.440	0.0163882
928.518	0.0164027
928.596	0.0165197
928.674	0.0164346
928.753	0.0163227
928.831	0.0163206
928.909	0.0164030
928.987	0.0164330
929.065	0.0164526
929.143	0.0164848
929.221	0.0163697
929.299	0.0164334
929.378	0.0164727
929.456	0.0163947
929.534	0.0163116
929.612	0.0164566
929.690	0.0165534
929.768	0.0164561
929.846	0.0164267
929.924	0.0163983
930.003	0.0164358
930.081	0.0165057
930.159	0.0164365
930.237	0.0165075
930.315	0.0164297
930.393	0.0164366
930.471	0.0163313
930.549	0.0164819
930.628	0.0164142
930.706	0.0164663
930.784	0.0162666
930.862	0.0163731
930.940	0.0164421
931.018	0.0164548
931.096	0.0163460
931.174	0.0163906
931.253	0.0164020
931.331	0.0164834
931.409	0.0164516
931.487	0.0164796
931.565	0.0165044
931.643	0.0164601
931.721	0.0164798
931.799	0.0163519
931.878	0.0163272
931.956	0.0163615
932.034	0.0163594
932.112	0.0163277
932.190	0.0164291
932.268	0.0165308
932.346	0.0163968
932.424	0.0165324
932.503	0.0164629
932.581	0.0162942
932.659	0.0164695
932.737	0.0164653
932.815	0.0162734
932.893	0.0164023
932.971	0.0164347
933.049	0.0164456
933.128	0.0164110
933.206	0.0163875
933.284	0.0163123
933.362	0.0163897
933.440	0.0163987
933.518	0.0164317
933.596	0.0164930
933.674	0.0163821
933.753	0.0164368
933.831	0.0163320
933.909	0.0164035
933.987	0.0165032
934.065	0.0164352
934.143	0.0163940
934.221	0.0165871
934.299	0.0164683
934.378	0.0163461
934.456	0.0165545
934.534	0.0167159
934.612	0.0165099
934.690	0.0163350
934.768	0.0164254
934.846	0.0165102
934.924	0.0165703
935.003	0.0164691
935.081	0.0165688
935.159	0.0165874
935.237	0.0165990
935.315	0.0164619
935.393	0.0165839
935.471	0.0164226
935.549	0.0163823
935.628	0.0165726
935.706	0.0165333
935.784	0.0164362
935.862	0.0165058
935.940	0.0165510
936.018	0.0165966
936.096	0.0166077
936.174	0.0165778
936.253	0.0165363
936.331	0.0165602
936.409	0.0166189
936.487	0.0164506
936.565	0.0166260
936.643	0.0165907
936.721	0.0165110
936.799	0.0164816
936.878	0.0165718
936.956	0.0165240
937.034	0.0164922
937.112	0.0164899
937.190	0.0163529
937.268	0.0166438
937.346	0.0164531
937.424	0.0164193
937.503	0.0163937
937.581	0.0165558
937.659	0.0165639
937.737	0.0165051
937.815	0.0162425
937.893	0.0163982
937.971	0.0165208
938.049	0.0163711
938.128	0.0165239
938.206	0.0164352
938.284	0.0164256
938.362	0.0163781
938.440	0.0163199
938.518	0.0163242
938.596	0.0163693
938.674	0.0164229
938.753	0.0163942
938.831	0.0163721
938.909	0.0160989
938.987	0.0163795
939.065	0.0162118
939.143	0.0163030
939.221	0.0163445
939.299	0.0162938
939.378	0.0163625
939.456	0.0163876
939.534	0.0162939
939.612	0.0162474
939.690	0.0163826
939.768	0.0164133
939.846	0.0164242
939.924	0.0163912
940.003	0.0163674
940.081	0.0163256
940.159	0.0163500
940.237	0.0165020
940.315	0.0164332
940.393	0.0164913
940.471	0.0164974
940.549	0.0165046
940.628	0.0165083
940.706	0.0164790
940.784	0.0164839
940.862	0.0165118
940.940	0.0165704
941.018	0.0165670
941.096	0.0165408
941.174	0.0164914
941.253	0.0163785
941.331	0.0164240
941.409	0.0165424
941.487	0.0165471
941.565	0.0164014
941.643	0.0165624
941.721	0.0164285
941.799	0.0163692
941.878	0.0163512
941.956	0.0163010
942.034	0.0164655
942.112	0.0164443
942.190	0.0162519
942.268	0.0164008
942.346	0.0163242
942.424	0.0162290
942.503	0.0163688
942.581	0.0163752
942.659	0.0162215
942.737	0.0163405
942.815	0.0163557
942.893	0.0163696
942.971	0.0163255
943.049	0.0164154
943.128	0.0164003
943.206	0.0163020
943.284	0.0162599
943.362	0.0162854
943.440	0.0165098
943.518	0.0165099
943.596	0.0164280
943.674	0.0163415
943.753	0.0165945
943.831	0.0164627
943.909	0.0162817
943.987	0.0163851
944.065	0.0165047
944.143	0.0165768
944.221	0.0165028
944.299	0.0164938
944.378	0.0164363
944.456	0.0164758
944.534	0.0165313
944.612	0.0165364
944.690	0.0164165
944.768	0.0165086
944.846	0.0165957
944.924	0.0164457
945.003	0.0164529
945.081	0.0166190
945.159	0.0165006
945.237	0.0164104
945.315	0.0165377
945.393	0.0166186
945.471	0.0165980
945.549	0.0164668
945.628	0.0165287
945.706	0.0164092
945.784	0.0164145
945.862	0.0164577
945.940	0.0164827
946.018	0.0163633
946.096	0.0163696
946.174	0.0162674
946.253	0.0164092
946.331	0.0163963
946.409	0.0164294
946.487	0.0163529
946.565	0.0165031
946.643	0.0163294
946.721	0.0163898
946.799	0.0162670
946.878	0.0161494
946.956	0.0162725
947.034	0.0162838
947.112	0.0160977
947.190	0.0163641
947.268	0.0163478
947.346	0.0162548
947.424	0.0164160
947.503	0.0164716
947.581	0.0163385
947.659	0.0161425
947.737	0.0163046
947.815	0.0164413
947.893	0.0163112
947.971	0.0164178
948.049	0.0163608
948.128	0.0164326
948.206	0.0163887
948.284	0.0165018
948.362	0.0163964
948.440	0.0164495
948.518	0.0163681
948.596	0.0163045
948.674	0.0164520
948.753	0.0165548
948.831	0.0164048
948.909	0.0164619
948.987	0.0164558
949.065	0.0164361
949.143	0.0163634
949.221	0.0164546
949.299	0.0164191
949.378	0.0163487
949.456	0.0163471
949.534	0.0163152
949.612	0.0165022
949.690	0.0163329
949.768	0.0163729
949.846	0.0163992
949.924	0.0163706
