06/29/2022	23:14:16	Ver.	4.1	UNKNOWN
Optical Delay	629.995835	Delta X		0.078125	Sweeps	1	Scan Rate	0/0
Coordinates	Axis 1	NaN	Axis 2	NaN	Axis 3	NaN	Axis 4	NaN	Axis 5	NaN	Axis 6	0.000000
TX Power	0.000000	RX Power	0.000000

629.996	0.0160154
630.074	0.0160701
630.152	0.0161197
630.230	0.0161156
630.308	0.0160104
630.386	0.0160115
630.465	0.0160136
630.543	0.0159506
630.621	0.0158630
630.699	0.0160508
630.777	0.0160867
630.855	0.0160461
630.933	0.0159087
631.011	0.0159390
631.090	0.0161016
631.168	0.0160406
631.246	0.0159756
631.324	0.0161070
631.402	0.0160162
631.480	0.0160952
631.558	0.0160941
631.636	0.0161438
631.715	0.0162130
631.793	0.0161044
631.871	0.0160935
631.949	0.0161520
632.027	0.0161517
632.105	0.0161988
632.183	0.0160709
632.261	0.0162095
632.340	0.0161002
632.418	0.0160675
632.496	0.0161031
632.574	0.0160705
632.652	0.0162048
632.730	0.0162117
632.808	0.0160184
632.886	0.0161572
632.965	0.0161740
633.043	0.0161812
633.121	0.0161863
633.199	0.0160421
633.277	0.0161125
633.355	0.0161598
633.433	0.0161579
633.511	0.0160501
633.590	0.0160875
633.668	0.0159458
633.746	0.0161275
633.824	0.0161822
633.902	0.0158662
633.980	0.0161021
634.058	0.0161618
634.136	0.0160885
634.215	0.0159863
634.293	0.0161370
634.371	0.0161649
634.449	0.0160947
634.527	0.0159632
634.605	0.0159681
634.683	0.0161367
634.761	0.0161959
634.840	0.0160050
634.918	0.0160941
634.996	0.0159866
635.074	0.0160084
635.152	0.0161755
635.230	0.0160001
635.308	0.0159838
635.386	0.0159380
635.465	0.0160010
635.543	0.0158607
635.621	0.0158996
635.699	0.0159940
635.777	0.0160284
635.855	0.0160036
635.933	0.0161284
636.011	0.0159754
636.090	0.0159496
636.168	0.0160683
636.246	0.0161186
636.324	0.0159926
636.402	0.0160777
636.480	0.0159387
636.558	0.0159091
636.636	0.0159135
636.715	0.0158766
636.793	0.0160359
636.871	0.0159879
636.949	0.0160127
637.027	0.0158344
637.105	0.0159014
637.183	0.0159131
637.261	0.0160654
637.340	0.0159721
637.418	0.0159901
637.496	0.0158695
637.574	0.0159395
637.652	0.0159060
637.730	0.0159622
637.808	0.0160389
637.886	0.0159135
637.965	0.0159895
638.043	0.0158939
638.121	0.0158489
638.199	0.0159111
638.277	0.0159925
638.355	0.0159219
638.433	0.0160107
638.511	0.0160647
638.590	0.0160347
638.668	0.0159420
638.746	0.0158543
638.824	0.0160732
638.902	0.0160547
638.980	0.0159678
639.058	0.0159882
639.136	0.0160335
639.215	0.0159468
639.293	0.0159578
639.371	0.0159853
639.449	0.0159953
639.527	0.0160326
639.605	0.0160104
639.683	0.0160706
639.761	0.0159003
639.840	0.0159676
639.918	0.0160720
639.996	0.0159811
640.074	0.0159251
640.152	0.0159917
640.230	0.0160213
640.308	0.0161204
640.386	0.0160509
640.465	0.0159631
640.543	0.0160023
640.621	0.0161085
640.699	0.0160482
640.777	0.0160501
640.855	0.0160809
640.933	0.0160633
641.011	0.0159473
641.090	0.0159450
641.168	0.0160796
641.246	0.0161319
641.324	0.0159266
641.402	0.0161787
641.480	0.0160687
641.558	0.0159686
641.636	0.0161575
641.715	0.0159905
641.793	0.0159922
641.871	0.0160094
641.949	0.0159346
642.027	0.0160762
642.105	0.0159846
642.183	0.0158788
642.261	0.0160449
642.340	0.0161423
642.418	0.0160203
642.496	0.0160438
642.574	0.0159660
642.652	0.0159309
642.730	0.0159830
642.808	0.0159520
642.886	0.0160031
642.965	0.0160220
643.043	0.0159714
643.121	0.0160091
643.199	0.0160234
643.277	0.0161060
643.355	0.0158884
643.433	0.0159926
643.511	0.0160617
643.590	0.0159979
643.668	0.0160233
643.746	0.0159492
643.824	0.0159874
643.902	0.0159128
643.980	0.0159713
644.058	0.0160093
644.136	0.0160638
644.215	0.0160677
644.293	0.0160033
644.371	0.0160154
644.449	0.0161801
644.527	0.0159814
644.605	0.0160044
644.683	0.0160220
644.761	0.0160633
644.840	0.0159156
644.918	0.0160995
644.996	0.0159125
645.074	0.0158682
645.152	0.0159479
645.230	0.0159959
645.308	0.0159619
645.386	0.0159821
645.465	0.0159803
645.543	0.0161157
645.621	0.0160855
645.699	0.0161333
645.777	0.0160112
645.855	0.0159343
645.933	0.0158143
646.011	0.0159891
646.090	0.0158857
646.168	0.0159286
646.246	0.0159118
646.324	0.0159035
646.402	0.0159959
646.480	0.0158587
646.558	0.0159702
646.636	0.0159504
646.715	0.0158137
646.793	0.0159548
646.871	0.0159378
646.949	0.0159299
647.027	0.0159514
647.105	0.0159236
647.183	0.0160030
647.261	0.0159226
647.340	0.0158588
647.418	0.0160734
647.496	0.0158453
647.574	0.0160610
647.652	0.0159950
647.730	0.0159991
647.808	0.0158991
647.886	0.0160335
647.965	0.0159745
648.043	0.0159473
648.121	0.0159519
648.199	0.0159568
648.277	0.0159881
648.355	0.0160927
648.433	0.0159848
648.511	0.0161684
648.590	0.0160203
648.668	0.0160281
648.746	0.0159715
648.824	0.0159943
648.902	0.0160298
648.980	0.0160038
649.058	0.0158960
649.136	0.0161642
649.215	0.0159850
649.293	0.0160379
649.371	0.0160667
649.449	0.0158830
649.527	0.0159930
649.605	0.0158949
649.683	0.0158791
649.761	0.0159109
649.840	0.0159977
649.918	0.0160558
649.996	0.0160096
650.074	0.0159631
650.152	0.0159093
650.230	0.0159325
650.308	0.0158649
650.386	0.0160040
650.465	0.0160481
650.543	0.0159128
650.621	0.0159090
650.699	0.0158965
650.777	0.0161701
650.855	0.0160308
650.933	0.0160026
651.011	0.0159306
651.090	0.0160951
651.168	0.0160441
651.246	0.0159480
651.324	0.0159998
651.402	0.0160753
651.480	0.0160001
651.558	0.0160418
651.636	0.0159932
651.715	0.0160817
651.793	0.0158892
651.871	0.0160052
651.949	0.0161354
652.027	0.0159090
652.105	0.0160445
652.183	0.0161051
652.261	0.0159942
652.340	0.0160883
652.418	0.0160069
652.496	0.0159222
652.574	0.0161019
652.652	0.0160861
652.730	0.0159789
652.808	0.0159695
652.886	0.0159985
652.965	0.0158684
653.043	0.0159235
653.121	0.0160631
653.199	0.0160608
653.277	0.0159674
653.355	0.0159620
653.433	0.0159757
653.511	0.0159486
653.590	0.0159895
653.668	0.0159335
653.746	0.0158855
653.824	0.0158990
653.902	0.0160128
653.980	0.0159206
654.058	0.0160513
654.136	0.0159422
654.215	0.0160154
654.293	0.0160754
654.371	0.0160915
654.449	0.0158945
654.527	0.0159341
654.605	0.0160568
654.683	0.0160365
654.761	0.0160903
654.840	0.0160327
654.918	0.0158907
654.996	0.0160058
655.074	0.0160804
655.152	0.0160622
655.230	0.0161121
655.308	0.0161107
655.386	0.0162755
655.465	0.0160789
655.543	0.0159688
655.621	0.0160526
655.699	0.0160448
655.777	0.0161748
655.855	0.0161677
655.933	0.0161484
656.011	0.0159969
656.090	0.0159567
656.168	0.0162238
656.246	0.0161197
656.324	0.0159797
656.402	0.0161699
656.480	0.0161227
656.558	0.0161017
656.636	0.0161549
656.715	0.0161537
656.793	0.0161733
656.871	0.0161074
656.949	0.0160566
657.027	0.0161337
657.105	0.0160796
657.183	0.0162196
657.261	0.0162771
657.340	0.0161802
657.418	0.0160545
657.496	0.0160265
657.574	0.0160468
657.652	0.0160956
657.730	0.0161153
657.808	0.0161033
657.886	0.0160943
657.965	0.0160686
658.043	0.0160941
658.121	0.0160294
658.199	0.0159461
658.277	0.0160120
658.355	0.0159587
658.433	0.0161145
658.511	0.0162549
658.590	0.0159779
658.668	0.0160573
658.746	0.0159923
658.824	0.0159261
658.902	0.0160641
658.980	0.0161262
659.058	0.0159019
659.136	0.0161852
659.215	0.0160191
659.293	0.0160123
659.371	0.0160802
659.449	0.0161165
659.527	0.0160061
659.605	0.0160016
659.683	0.0159397
659.761	0.0160255
659.840	0.0161288
659.918	0.0160883
659.996	0.0160136
660.074	0.0159313
660.152	0.0159684
660.230	0.0159767
660.308	0.0160242
660.386	0.0160434
660.465	0.0159800
660.543	0.0160973
660.621	0.0159595
660.699	0.0159068
660.777	0.0161708
660.855	0.0161353
660.933	0.0160497
661.011	0.0158927
661.090	0.0159716
661.168	0.0160716
661.246	0.0159577
661.324	0.0159483
661.402	0.0160216
661.480	0.0160419
661.558	0.0160975
661.636	0.0159953
661.715	0.0159251
661.793	0.0160174
661.871	0.0158736
661.949	0.0158862
662.027	0.0160023
662.105	0.0159807
662.183	0.0161243
662.261	0.0159184
662.340	0.0159001
662.418	0.0159211
662.496	0.0161546
662.574	0.0158952
662.652	0.0158647
662.730	0.0159472
662.808	0.0159471
662.886	0.0160117
662.965	0.0160343
663.043	0.0160643
663.121	0.0159533
663.199	0.0159460
663.277	0.0161496
663.355	0.0160204
663.433	0.0158869
663.511	0.0159166
663.590	0.0159452
663.668	0.0159775
663.746	0.0161873
663.824	0.0159386
663.902	0.0158618
663.980	0.0159806
664.058	0.0160534
664.136	0.0159056
664.215	0.0159792
664.293	0.0159145
664.371	0.0161069
664.449	0.0159784
664.527	0.0158945
664.605	0.0159488
664.683	0.0159439
664.761	0.0159631
664.840	0.0161385
664.918	0.0160069
664.996	0.0160609
665.074	0.0159714
665.152	0.0159924
665.230	0.0160139
665.308	0.0160286
665.386	0.0160335
665.465	0.0159224
665.543	0.0160618
665.621	0.0160888
665.699	0.0160234
665.777	0.0160403
665.855	0.0160895
665.933	0.0160111
666.011	0.0157977
666.090	0.0159062
666.168	0.0160732
666.246	0.0160309
666.324	0.0161855
666.402	0.0159801
666.480	0.0158663
666.558	0.0160755
666.636	0.0159951
666.715	0.0159961
666.793	0.0161321
666.871	0.0161366
666.949	0.0160715
667.027	0.0161182
667.105	0.0159575
667.183	0.0161943
667.261	0.0161647
667.340	0.0159927
667.418	0.0160540
667.496	0.0160485
667.574	0.0159686
667.652	0.0161105
667.730	0.0162083
667.808	0.0160371
667.886	0.0160682
667.965	0.0161036
668.043	0.0161011
668.121	0.0160616
668.199	0.0160474
668.277	0.0161204
668.355	0.0160828
668.433	0.0160176
668.511	0.0160384
668.590	0.0160658
668.668	0.0160585
668.746	0.0161626
668.824	0.0159789
668.902	0.0159722
668.980	0.0161708
669.058	0.0160492
669.136	0.0159354
669.215	0.0160530
669.293	0.0159106
669.371	0.0159132
669.449	0.0160205
669.527	0.0161204
669.605	0.0160827
669.683	0.0159496
669.761	0.0160619
669.840	0.0160685
669.918	0.0160140
669.996	0.0159818
670.074	0.0160840
670.152	0.0159155
670.230	0.0160659
670.308	0.0159308
670.386	0.0158356
670.465	0.0159017
670.543	0.0160638
670.621	0.0159126
670.699	0.0160108
670.777	0.0161069
670.855	0.0160621
670.933	0.0159896
671.011	0.0158690
671.090	0.0161021
671.168	0.0159940
671.246	0.0160957
671.324	0.0159454
671.402	0.0159785
671.480	0.0158562
671.558	0.0160738
671.636	0.0159146
671.715	0.0158547
671.793	0.0159027
671.871	0.0159216
671.949	0.0158934
672.027	0.0159608
672.105	0.0160134
672.183	0.0159584
672.261	0.0159915
672.340	0.0159143
672.418	0.0159635
672.496	0.0160468
672.574	0.0158907
672.652	0.0159143
672.730	0.0159423
672.808	0.0158628
672.886	0.0160636
672.965	0.0160179
673.043	0.0159687
673.121	0.0160908
673.199	0.0159669
673.277	0.0160001
673.355	0.0159797
673.433	0.0160087
673.511	0.0158360
673.590	0.0159221
673.668	0.0160564
673.746	0.0160160
673.824	0.0160427
673.902	0.0160004
673.980	0.0159400
674.058	0.0160716
674.136	0.0158521
674.215	0.0158577
674.293	0.0159725
674.371	0.0159146
674.449	0.0159397
674.527	0.0160645
674.605	0.0159825
674.683	0.0159573
674.761	0.0159592
674.840	0.0159106
674.918	0.0159270
674.996	0.0160918
675.074	0.0159221
675.152	0.0159726
675.230	0.0160555
675.308	0.0159617
675.386	0.0160148
675.465	0.0158990
675.543	0.0159779
675.621	0.0159964
675.699	0.0158486
675.777	0.0159023
675.855	0.0160676
675.933	0.0159645
676.011	0.0159710
676.090	0.0159715
676.168	0.0159899
676.246	0.0158910
676.324	0.0161056
676.402	0.0160066
676.480	0.0160052
676.558	0.0160407
676.636	0.0161070
676.715	0.0160756
676.793	0.0160905
676.871	0.0159236
676.949	0.0160627
677.027	0.0161784
677.105	0.0161358
677.183	0.0160579
677.261	0.0160928
677.340	0.0161209
677.418	0.0160785
677.496	0.0160586
677.574	0.0161279
677.652	0.0161247
677.730	0.0161501
677.808	0.0161937
677.886	0.0162370
677.965	0.0161599
678.043	0.0162645
678.121	0.0161530
678.199	0.0161316
678.277	0.0161557
678.355	0.0161893
678.433	0.0161182
678.511	0.0160891
678.590	0.0159583
678.668	0.0162531
678.746	0.0161153
678.824	0.0161288
678.902	0.0161328
678.980	0.0162146
679.058	0.0161977
679.136	0.0161025
679.215	0.0161063
679.293	0.0160368
679.371	0.0161426
679.449	0.0161394
679.527	0.0161504
679.605	0.0161726
679.683	0.0161301
679.761	0.0160326
679.840	0.0161776
679.918	0.0161397
679.996	0.0160493
680.074	0.0161322
680.152	0.0160832
680.230	0.0161403
680.308	0.0162173
680.386	0.0160577
680.465	0.0160799
680.543	0.0161439
680.621	0.0160725
680.699	0.0160999
680.777	0.0160026
680.855	0.0160722
680.933	0.0162691
681.011	0.0161268
681.090	0.0161006
681.168	0.0159703
681.246	0.0160389
681.324	0.0160914
681.402	0.0161712
681.480	0.0160162
681.558	0.0161987
681.636	0.0161850
681.715	0.0161704
681.793	0.0161295
681.871	0.0161332
681.949	0.0160680
682.027	0.0161260
682.105	0.0160780
682.183	0.0161543
682.261	0.0162171
682.340	0.0160637
682.418	0.0160857
682.496	0.0160272
682.574	0.0160347
682.652	0.0161558
682.730	0.0160613
682.808	0.0159719
682.886	0.0159165
682.965	0.0160691
683.043	0.0160530
683.121	0.0161417
683.199	0.0159642
683.277	0.0160451
683.355	0.0160934
683.433	0.0160546
683.511	0.0160408
683.590	0.0161074
683.668	0.0160491
683.746	0.0161031
683.824	0.0161349
683.902	0.0159918
683.980	0.0160871
684.058	0.0161182
684.136	0.0160815
684.215	0.0160444
684.293	0.0159721
684.371	0.0160587
684.449	0.0161143
684.527	0.0160920
684.605	0.0158997
684.683	0.0159371
684.761	0.0161239
684.840	0.0160169
684.918	0.0160573
684.996	0.0160506
685.074	0.0161991
685.152	0.0160485
685.230	0.0161726
685.308	0.0159736
685.386	0.0160342
685.465	0.0160652
685.543	0.0161210
685.621	0.0160580
685.699	0.0159083
685.777	0.0160418
685.855	0.0160506
685.933	0.0160027
686.011	0.0158259
686.090	0.0160767
686.168	0.0159920
686.246	0.0160091
686.324	0.0160415
686.402	0.0160901
686.480	0.0159853
686.558	0.0160069
686.636	0.0160835
686.715	0.0159399
686.793	0.0159774
686.871	0.0160406
686.949	0.0159780
687.027	0.0161007
687.105	0.0163035
687.183	0.0160243
687.261	0.0161012
687.340	0.0160572
687.418	0.0159931
687.496	0.0159644
687.574	0.0160345
687.652	0.0161099
687.730	0.0160944
687.808	0.0160091
687.886	0.0160215
687.965	0.0160201
688.043	0.0160614
688.121	0.0160756
688.199	0.0160842
688.277	0.0160077
688.355	0.0161292
688.433	0.0160562
688.511	0.0160474
688.590	0.0160554
688.668	0.0160471
688.746	0.0161681
688.824	0.0160927
688.902	0.0160840
688.980	0.0161533
689.058	0.0159029
689.136	0.0160081
689.215	0.0160405
689.293	0.0162333
689.371	0.0160278
689.449	0.0160597
689.527	0.0159985
689.605	0.0159815
689.683	0.0161297
689.761	0.0160868
689.840	0.0160689
689.918	0.0159819
689.996	0.0159801
690.074	0.0160734
690.152	0.0159035
690.230	0.0161948
690.308	0.0158621
690.386	0.0159689
690.465	0.0160612
690.543	0.0159683
690.621	0.0160236
690.699	0.0160020
690.777	0.0159123
690.855	0.0159941
690.933	0.0160896
691.011	0.0160511
691.090	0.0159251
691.168	0.0160442
691.246	0.0161148
691.324	0.0160397
691.402	0.0159274
691.480	0.0160168
691.558	0.0160048
691.636	0.0159332
691.715	0.0160300
691.793	0.0160938
691.871	0.0159518
691.949	0.0161498
692.027	0.0161003
692.105	0.0160163
692.183	0.0160215
692.261	0.0160732
692.340	0.0160545
692.418	0.0159166
692.496	0.0159665
692.574	0.0160279
692.652	0.0161089
692.730	0.0159902
692.808	0.0160354
692.886	0.0159615
692.965	0.0160842
693.043	0.0159917
693.121	0.0159376
693.199	0.0159689
693.277	0.0160957
693.355	0.0161497
693.433	0.0160345
693.511	0.0160761
693.590	0.0160019
693.668	0.0160310
693.746	0.0159144
693.824	0.0162008
693.902	0.0161453
693.980	0.0159993
694.058	0.0159576
694.136	0.0161180
694.215	0.0159865
694.293	0.0161202
694.371	0.0160565
694.449	0.0161053
694.527	0.0162321
694.605	0.0160112
694.683	0.0160226
694.761	0.0160291
694.840	0.0160754
694.918	0.0161481
694.996	0.0160629
695.074	0.0160488
695.152	0.0161726
695.230	0.0160281
695.308	0.0160326
695.386	0.0160729
695.465	0.0161309
695.543	0.0159698
695.621	0.0159089
695.699	0.0160349
695.777	0.0160583
695.855	0.0160487
695.933	0.0159314
696.011	0.0160162
696.090	0.0158789
696.168	0.0159028
696.246	0.0160825
696.324	0.0160011
696.402	0.0160614
696.480	0.0161421
696.558	0.0161295
696.636	0.0161131
696.715	0.0161549
696.793	0.0162653
696.871	0.0161406
696.949	0.0161184
697.027	0.0161971
697.105	0.0162588
697.183	0.0162834
697.261	0.0161892
697.340	0.0161123
697.418	0.0160794
697.496	0.0160266
697.574	0.0161776
697.652	0.0161006
697.730	0.0160886
697.808	0.0160284
697.886	0.0158250
697.965	0.0159183
698.043	0.0159795
698.121	0.0159009
698.199	0.0159191
698.277	0.0159509
698.355	0.0160193
698.433	0.0159924
698.511	0.0158735
698.590	0.0159801
698.668	0.0161378
698.746	0.0160939
698.824	0.0161639
698.902	0.0161224
698.980	0.0162058
699.058	0.0161155
699.136	0.0161240
699.215	0.0163809
699.293	0.0162518
699.371	0.0161858
699.449	0.0161619
699.527	0.0161948
699.605	0.0162498
699.683	0.0160805
699.761	0.0163022
699.840	0.0161234
699.918	0.0159991
699.996	0.0160825
700.074	0.0161256
700.152	0.0161028
700.230	0.0159780
700.308	0.0159972
700.386	0.0160894
700.465	0.0161307
700.543	0.0161043
700.621	0.0159596
700.699	0.0159607
700.777	0.0161124
700.855	0.0158810
700.933	0.0160300
701.011	0.0161262
701.090	0.0160770
701.168	0.0160426
701.246	0.0161543
701.324	0.0161589
701.402	0.0161429
701.480	0.0161531
701.558	0.0162217
701.636	0.0161062
701.715	0.0161815
701.793	0.0161317
701.871	0.0162160
701.949	0.0161514
702.027	0.0160590
702.105	0.0162713
702.183	0.0160797
702.261	0.0161597
702.340	0.0162197
702.418	0.0162485
702.496	0.0161671
702.574	0.0162643
702.652	0.0160339
702.730	0.0159980
702.808	0.0161225
702.886	0.0161691
702.965	0.0161377
703.043	0.0161108
703.121	0.0160524
703.199	0.0160431
703.277	0.0161322
703.355	0.0159652
703.433	0.0160071
703.511	0.0162351
703.590	0.0160471
703.668	0.0161492
703.746	0.0160096
703.824	0.0159953
703.902	0.0160513
703.980	0.0160800
704.058	0.0162009
704.136	0.0160513
704.215	0.0160852
704.293	0.0160987
704.371	0.0161932
704.449	0.0162088
704.527	0.0162277
704.605	0.0162273
704.683	0.0161707
704.761	0.0162276
704.840	0.0162659
704.918	0.0163145
704.996	0.0163120
705.074	0.0161925
705.152	0.0162044
705.230	0.0162448
705.308	0.0162831
705.386	0.0161720
705.465	0.0163523
705.543	0.0161482
705.621	0.0161259
705.699	0.0161253
705.777	0.0161407
705.855	0.0161579
705.933	0.0161311
706.011	0.0161654
706.090	0.0160051
706.168	0.0160306
706.246	0.0160864
706.324	0.0160477
706.402	0.0159174
706.480	0.0158753
706.558	0.0160091
706.636	0.0160445
706.715	0.0158315
706.793	0.0161253
706.871	0.0160780
706.949	0.0159072
707.027	0.0159863
707.105	0.0160503
707.183	0.0159573
707.261	0.0158949
707.340	0.0159985
707.418	0.0159306
707.496	0.0161234
707.574	0.0161573
707.652	0.0160915
707.730	0.0161210
707.808	0.0161494
707.886	0.0161690
707.965	0.0160898
708.043	0.0160188
708.121	0.0161073
708.199	0.0161616
708.277	0.0161691
708.355	0.0162419
708.433	0.0162912
708.511	0.0162336
708.590	0.0161845
708.668	0.0162011
708.746	0.0160438
708.824	0.0160982
708.902	0.0161520
708.980	0.0161904
709.058	0.0160741
709.136	0.0160609
709.215	0.0162163
709.293	0.0161193
709.371	0.0160215
709.449	0.0160600
709.527	0.0160884
709.605	0.0161060
709.683	0.0160111
709.761	0.0159849
709.840	0.0159584
709.918	0.0160975
709.996	0.0159795
710.074	0.0159410
710.152	0.0159899
710.230	0.0159441
710.308	0.0158927
710.386	0.0157596
710.465	0.0158460
710.543	0.0159047
710.621	0.0157767
710.699	0.0158707
710.777	0.0158481
710.855	0.0157841
710.933	0.0158082
711.011	0.0158279
711.090	0.0157498
711.168	0.0159531
711.246	0.0158079
711.324	0.0159089
711.402	0.0159669
711.480	0.0158669
711.558	0.0159911
711.636	0.0159222
711.715	0.0160357
711.793	0.0159932
711.871	0.0157600
711.949	0.0158089
712.027	0.0159862
712.105	0.0159544
712.183	0.0158803
712.261	0.0159173
712.340	0.0160690
712.418	0.0159688
712.496	0.0159945
712.574	0.0159371
712.652	0.0158499
712.730	0.0158954
712.808	0.0161289
712.886	0.0159322
712.965	0.0160686
713.043	0.0159510
713.121	0.0159660
713.199	0.0159910
713.277	0.0160060
713.355	0.0160656
713.433	0.0161366
713.511	0.0162903
713.590	0.0161939
713.668	0.0160920
713.746	0.0162973
713.824	0.0161505
713.902	0.0161159
713.980	0.0161191
714.058	0.0161404
714.136	0.0160071
714.215	0.0160239
714.293	0.0161366
714.371	0.0160575
714.449	0.0159331
714.527	0.0159985
714.605	0.0158060
714.683	0.0159255
714.761	0.0157927
714.840	0.0156625
714.918	0.0157906
714.996	0.0158041
715.074	0.0156673
715.152	0.0156146
715.230	0.0156267
715.308	0.0157432
715.386	0.0157359
715.465	0.0156298
715.543	0.0157461
715.621	0.0159021
715.699	0.0159216
715.777	0.0158218
715.855	0.0157578
715.933	0.0158518
716.011	0.0160220
716.090	0.0160239
716.168	0.0161059
716.246	0.0161654
716.324	0.0159329
716.402	0.0160938
716.480	0.0161591
716.558	0.0160876
716.636	0.0161540
716.715	0.0161961
716.793	0.0161617
716.871	0.0162515
716.949	0.0163041
717.027	0.0162048
717.105	0.0162028
717.183	0.0160538
717.261	0.0161098
717.340	0.0161925
717.418	0.0161002
717.496	0.0160052
717.574	0.0160527
717.652	0.0159290
717.730	0.0160513
717.808	0.0160156
717.886	0.0158568
717.965	0.0158503
718.043	0.0159435
718.121	0.0159840
718.199	0.0159339
718.277	0.0160104
718.355	0.0157739
718.433	0.0158669
718.511	0.0159403
718.590	0.0158329
718.668	0.0159139
718.746	0.0161436
718.824	0.0159766
718.902	0.0161200
718.980	0.0158836
719.058	0.0160783
719.136	0.0162212
719.215	0.0160857
719.293	0.0161546
719.371	0.0161661
719.449	0.0161655
719.527	0.0163142
719.605	0.0162841
719.683	0.0162486
719.761	0.0163268
719.840	0.0162341
719.918	0.0164337
719.996	0.0161778
720.074	0.0162394
720.152	0.0163251
720.230	0.0161775
720.308	0.0160610
720.386	0.0160842
720.465	0.0158380
720.543	0.0159488
720.621	0.0158997
720.699	0.0157695
720.777	0.0156625
720.855	0.0156441
720.933	0.0156384
721.011	0.0156226
721.090	0.0156450
721.168	0.0155285
721.246	0.0156021
721.324	0.0155967
721.402	0.0155747
721.480	0.0157172
721.558	0.0157039
721.636	0.0159029
721.715	0.0158508
721.793	0.0158820
721.871	0.0159827
721.949	0.0160844
722.027	0.0161684
722.105	0.0161881
722.183	0.0162541
722.261	0.0163536
722.340	0.0164286
722.418	0.0164496
722.496	0.0163892
722.574	0.0167126
722.652	0.0167860
722.730	0.0167072
722.808	0.0166952
722.886	0.0167490
722.965	0.0167206
723.043	0.0166105
723.121	0.0166755
723.199	0.0167497
723.277	0.0166986
723.355	0.0167500
723.433	0.0164910
723.511	0.0163419
723.590	0.0163868
723.668	0.0161930
723.746	0.0161750
723.824	0.0159786
723.902	0.0159255
723.980	0.0158689
724.058	0.0158153
724.136	0.0155586
724.215	0.0156499
724.293	0.0156064
724.371	0.0155083
724.449	0.0153348
724.527	0.0153291
724.605	0.0152341
724.683	0.0152338
724.761	0.0153677
724.840	0.0152206
724.918	0.0151686
724.996	0.0153728
725.074	0.0154995
725.152	0.0154129
725.230	0.0153448
725.308	0.0154531
725.386	0.0157388
725.465	0.0156835
725.543	0.0157272
725.621	0.0158974
725.699	0.0159579
725.777	0.0160542
725.855	0.0160703
725.933	0.0161938
726.011	0.0162121
726.090	0.0163901
726.168	0.0164723
726.246	0.0165229
726.324	0.0163955
726.402	0.0164835
726.480	0.0164628
726.558	0.0164957
726.636	0.0165565
726.715	0.0164911
726.793	0.0165350
726.871	0.0164322
726.949	0.0164095
727.027	0.0162491
727.105	0.0163300
727.183	0.0162747
727.261	0.0162208
727.340	0.0161822
727.418	0.0162485
727.496	0.0161394
727.574	0.0160413
727.652	0.0160427
727.730	0.0161085
727.808	0.0160171
727.886	0.0161272
727.965	0.0162607
728.043	0.0160349
728.121	0.0160091
728.199	0.0159075
728.277	0.0159610
728.355	0.0159965
728.433	0.0161399
728.511	0.0160316
728.590	0.0159602
728.668	0.0158736
728.746	0.0159775
728.824	0.0157147
728.902	0.0159290
728.980	0.0158232
729.058	0.0157211
729.136	0.0157285
729.215	0.0156273
729.293	0.0154634
729.371	0.0156265
729.449	0.0155964
729.527	0.0156569
729.605	0.0155839
729.683	0.0155095
729.761	0.0155318
729.840	0.0155650
729.918	0.0154317
729.996	0.0156727
730.074	0.0155576
730.152	0.0156255
730.230	0.0157148
730.308	0.0158032
730.386	0.0156956
730.465	0.0158646
730.543	0.0159222
730.621	0.0160725
730.699	0.0160142
730.777	0.0160787
730.855	0.0162741
730.933	0.0164362
731.011	0.0166180
731.090	0.0164294
731.168	0.0165712
731.246	0.0166154
731.324	0.0165031
731.402	0.0167091
731.480	0.0167408
731.558	0.0164799
731.636	0.0166088
731.715	0.0166505
731.793	0.0165897
731.871	0.0166431
731.949	0.0165405
732.027	0.0164796
732.105	0.0163821
732.183	0.0163081
732.261	0.0162844
732.340	0.0162296
732.418	0.0160876
732.496	0.0160815
732.574	0.0160225
732.652	0.0160308
732.730	0.0160943
732.808	0.0158481
732.886	0.0158170
732.965	0.0156571
733.043	0.0158202
733.121	0.0156395
733.199	0.0156155
733.277	0.0154955
733.355	0.0153589
733.433	0.0154419
733.511	0.0154590
733.590	0.0153139
733.668	0.0153696
733.746	0.0152467
733.824	0.0152994
733.902	0.0151560
733.980	0.0151778
734.058	0.0151064
734.136	0.0151888
734.215	0.0150533
734.293	0.0152451
734.371	0.0152448
734.449	0.0153260
734.527	0.0154765
734.605	0.0156144
734.683	0.0156937
734.761	0.0158679
734.840	0.0158702
734.918	0.0160629
734.996	0.0162598
735.074	0.0163773
735.152	0.0166477
735.230	0.0166288
735.308	0.0166779
735.386	0.0167268
735.465	0.0168523
735.543	0.0168137
735.621	0.0168632
735.699	0.0170869
735.777	0.0170187
735.855	0.0168842
735.933	0.0167316
736.011	0.0168643
736.090	0.0168356
736.168	0.0168065
736.246	0.0166380
736.324	0.0166732
736.402	0.0166821
736.480	0.0164231
736.558	0.0164283
736.636	0.0163533
736.715	0.0162299
736.793	0.0161744
736.871	0.0160093
736.949	0.0158442
737.027	0.0157925
737.105	0.0156676
737.183	0.0156501
737.261	0.0154350
737.340	0.0154012
737.418	0.0153846
737.496	0.0153099
737.574	0.0152507
737.652	0.0152052
737.730	0.0151851
737.808	0.0149964
737.886	0.0152341
737.965	0.0151221
738.043	0.0151776
738.121	0.0151855
738.199	0.0150672
738.277	0.0151254
738.355	0.0151515
738.433	0.0152254
738.511	0.0151587
738.590	0.0153819
738.668	0.0152814
738.746	0.0154507
738.824	0.0154115
738.902	0.0154522
738.980	0.0155934
739.058	0.0155849
739.136	0.0157972
739.215	0.0159247
739.293	0.0160786
739.371	0.0160737
739.449	0.0162242
739.527	0.0164477
739.605	0.0164880
739.683	0.0165313
739.761	0.0166771
739.840	0.0168269
739.918	0.0170049
739.996	0.0169594
740.074	0.0169141
740.152	0.0171117
740.230	0.0171892
740.308	0.0172728
740.386	0.0172552
740.465	0.0173828
740.543	0.0172016
740.621	0.0171690
740.699	0.0171810
740.777	0.0169688
740.855	0.0169086
740.933	0.0168562
741.011	0.0168766
741.090	0.0164822
741.168	0.0162684
741.246	0.0162004
741.324	0.0162122
741.402	0.0160522
741.480	0.0158083
741.558	0.0156200
741.636	0.0155893
741.715	0.0154910
741.793	0.0152906
741.871	0.0153811
741.949	0.0153738
742.027	0.0151958
742.105	0.0151929
742.183	0.0152495
742.261	0.0152814
742.340	0.0152959
742.418	0.0152345
742.496	0.0152420
742.574	0.0154390
742.652	0.0154550
742.730	0.0154774
742.808	0.0156067
742.886	0.0156982
742.965	0.0156424
743.043	0.0158680
743.121	0.0157164
743.199	0.0158555
743.277	0.0157517
743.355	0.0158832
743.433	0.0159985
743.511	0.0159076
743.590	0.0160331
743.668	0.0159911
743.746	0.0161287
743.824	0.0159923
743.902	0.0158546
743.980	0.0159702
744.058	0.0161346
744.136	0.0160625
744.215	0.0160570
744.293	0.0160182
744.371	0.0160590
744.449	0.0161152
744.527	0.0161501
744.605	0.0160802
744.683	0.0160497
744.761	0.0162643
744.840	0.0162873
744.918	0.0163901
744.996	0.0163909
745.074	0.0164937
745.152	0.0164575
745.230	0.0164936
745.308	0.0166290
745.386	0.0166603
745.465	0.0167588
745.543	0.0167467
745.621	0.0167268
745.699	0.0167110
745.777	0.0166867
745.855	0.0166436
745.933	0.0164896
746.011	0.0164352
746.090	0.0164249
746.168	0.0164087
746.246	0.0164613
746.324	0.0163490
746.402	0.0161466
746.480	0.0161436
746.558	0.0160435
746.636	0.0160646
746.715	0.0159912
746.793	0.0158369
746.871	0.0158837
746.949	0.0158653
747.027	0.0157374
747.105	0.0156185
747.183	0.0156481
747.261	0.0158282
747.340	0.0156889
747.418	0.0156353
747.496	0.0155435
747.574	0.0156006
747.652	0.0156629
747.730	0.0155285
747.808	0.0155824
747.886	0.0157401
747.965	0.0154885
748.043	0.0154797
748.121	0.0155650
748.199	0.0154939
748.277	0.0154462
748.355	0.0153727
748.433	0.0155309
748.511	0.0154790
748.590	0.0154568
748.668	0.0154559
748.746	0.0153179
748.824	0.0153212
748.902	0.0154030
748.980	0.0154157
749.058	0.0154305
749.136	0.0155819
749.215	0.0156431
749.293	0.0157318
749.371	0.0158475
749.449	0.0157113
749.527	0.0158884
749.605	0.0160393
749.683	0.0162359
749.761	0.0162189
749.840	0.0162325
749.918	0.0163848
749.996	0.0164362
750.074	0.0164348
750.152	0.0166778
750.230	0.0166838
750.308	0.0165754
750.386	0.0166354
750.465	0.0167126
750.543	0.0167451
750.621	0.0166785
750.699	0.0167630
750.777	0.0165781
750.855	0.0168005
750.933	0.0165452
751.011	0.0165714
751.090	0.0163612
751.168	0.0163567
751.246	0.0162708
751.324	0.0161512
751.402	0.0162361
751.480	0.0160098
751.558	0.0158595
751.636	0.0158202
751.715	0.0157340
751.793	0.0157864
751.871	0.0155524
751.949	0.0154669
752.027	0.0154095
752.105	0.0154670
752.183	0.0154491
752.261	0.0154226
752.340	0.0153757
752.418	0.0153043
752.496	0.0153419
752.574	0.0153081
752.652	0.0154204
752.730	0.0154633
752.808	0.0155608
752.886	0.0157397
752.965	0.0157499
753.043	0.0157948
753.121	0.0158916
753.199	0.0159585
753.277	0.0162565
753.355	0.0162418
753.433	0.0162170
753.511	0.0162569
753.590	0.0162811
753.668	0.0163548
753.746	0.0164646
753.824	0.0162981
753.902	0.0163498
753.980	0.0164341
754.058	0.0163014
754.136	0.0162025
754.215	0.0160837
754.293	0.0159881
754.371	0.0160357
754.449	0.0161462
754.527	0.0161571
754.605	0.0160015
754.683	0.0159772
754.761	0.0158614
754.840	0.0157628
754.918	0.0157993
754.996	0.0158220
755.074	0.0158002
755.152	0.0157664
755.230	0.0158282
755.308	0.0158047
755.386	0.0159013
755.465	0.0157659
755.543	0.0158259
755.621	0.0158488
755.699	0.0158090
755.777	0.0158784
755.855	0.0158247
755.933	0.0159385
756.011	0.0159729
756.090	0.0160535
756.168	0.0159855
756.246	0.0160321
756.324	0.0162177
756.402	0.0162444
756.480	0.0162531
756.558	0.0162262
756.636	0.0163529
756.715	0.0164863
756.793	0.0165067
756.871	0.0164494
756.949	0.0164130
757.027	0.0163488
757.105	0.0164127
757.183	0.0163423
757.261	0.0163755
757.340	0.0164485
757.418	0.0162863
757.496	0.0162849
757.574	0.0161749
757.652	0.0162231
757.730	0.0161855
757.808	0.0162584
757.886	0.0161508
757.965	0.0160683
758.043	0.0161236
758.121	0.0160104
758.199	0.0159955
758.277	0.0161703
758.355	0.0160515
758.433	0.0161454
758.511	0.0160012
758.590	0.0162110
758.668	0.0161121
758.746	0.0160699
758.824	0.0160277
758.902	0.0160771
758.980	0.0159179
759.058	0.0161358
759.136	0.0161154
759.215	0.0159312
759.293	0.0158981
759.371	0.0158491
759.449	0.0158742
759.527	0.0158290
759.605	0.0158261
759.683	0.0157094
759.761	0.0158025
759.840	0.0159524
759.918	0.0158363
759.996	0.0157983
760.074	0.0157337
760.152	0.0156534
760.230	0.0157992
760.308	0.0157084
760.386	0.0158582
760.465	0.0158015
760.543	0.0158513
760.621	0.0158244
760.699	0.0158218
760.777	0.0158660
760.855	0.0159872
760.933	0.0159059
761.011	0.0160835
761.090	0.0160653
761.168	0.0159254
761.246	0.0161167
761.324	0.0160805
761.402	0.0161058
761.480	0.0161783
761.558	0.0162434
761.636	0.0161670
761.715	0.0160744
761.793	0.0161543
761.871	0.0162491
761.949	0.0163144
762.027	0.0164157
762.105	0.0164770
762.183	0.0164381
762.261	0.0163335
762.340	0.0164306
762.418	0.0163841
762.496	0.0164713
762.574	0.0164327
762.652	0.0165079
762.730	0.0165220
762.808	0.0165891
762.886	0.0164876
762.965	0.0164401
763.043	0.0163596
763.121	0.0163507
763.199	0.0162753
763.277	0.0161270
763.355	0.0161649
763.433	0.0159774
763.511	0.0159805
763.590	0.0160277
763.668	0.0158231
763.746	0.0158662
763.824	0.0158298
763.902	0.0157924
763.980	0.0158606
764.058	0.0158501
764.136	0.0157313
764.215	0.0159357
764.293	0.0158834
764.371	0.0159229
764.449	0.0158457
764.527	0.0157772
764.605	0.0157844
764.683	0.0158022
764.761	0.0158714
764.840	0.0158631
764.918	0.0160512
764.996	0.0158243
765.074	0.0158209
765.152	0.0159291
765.230	0.0159507
765.308	0.0159151
765.386	0.0159589
765.465	0.0158418
765.543	0.0159080
765.621	0.0160205
765.699	0.0159181
765.777	0.0159402
765.855	0.0158758
765.933	0.0159431
766.011	0.0160988
766.090	0.0160496
766.168	0.0160973
766.246	0.0160920
766.324	0.0160983
766.402	0.0162103
766.480	0.0163523
766.558	0.0161606
766.636	0.0162877
766.715	0.0163437
766.793	0.0163066
766.871	0.0162550
766.949	0.0163549
767.027	0.0162553
767.105	0.0162634
767.183	0.0162982
767.261	0.0163271
767.340	0.0162234
767.418	0.0162077
767.496	0.0162139
767.574	0.0161965
767.652	0.0160842
767.730	0.0161011
767.808	0.0159438
767.886	0.0160886
767.965	0.0161127
768.043	0.0162077
768.121	0.0163340
768.199	0.0162782
768.277	0.0165149
768.355	0.0164491
768.433	0.0164626
768.511	0.0166064
768.590	0.0165437
768.668	0.0165143
768.746	0.0166447
768.824	0.0166489
768.902	0.0166370
768.980	0.0164396
769.058	0.0164900
769.136	0.0164626
769.215	0.0161903
769.293	0.0161993
769.371	0.0159798
769.449	0.0161291
769.527	0.0159521
769.605	0.0158341
769.683	0.0157133
769.761	0.0157626
769.840	0.0156331
769.918	0.0155324
769.996	0.0156272
770.074	0.0156206
770.152	0.0155222
770.230	0.0154874
770.308	0.0155067
770.386	0.0155132
770.465	0.0156150
770.543	0.0155482
770.621	0.0155235
770.699	0.0156368
770.777	0.0154810
770.855	0.0157436
770.933	0.0158913
771.011	0.0158654
771.090	0.0158773
771.168	0.0158990
771.246	0.0160929
771.324	0.0160078
771.402	0.0160966
771.480	0.0161450
771.558	0.0164682
771.636	0.0164299
771.715	0.0164368
771.793	0.0166068
771.871	0.0165825
771.949	0.0165185
772.027	0.0165151
772.105	0.0165784
772.183	0.0165356
772.261	0.0165173
772.340	0.0163227
772.418	0.0164471
772.496	0.0163488
772.574	0.0162652
772.652	0.0162067
772.730	0.0161761
772.808	0.0160824
772.886	0.0160310
772.965	0.0160312
773.043	0.0159441
773.121	0.0158671
773.199	0.0160212
773.277	0.0159123
773.355	0.0158979
773.433	0.0156952
773.511	0.0159330
773.590	0.0159628
773.668	0.0157104
773.746	0.0159865
773.824	0.0160754
773.902	0.0160696
773.980	0.0161808
774.058	0.0161514
774.136	0.0163107
774.215	0.0162831
774.293	0.0164426
774.371	0.0165289
774.449	0.0163140
774.527	0.0164809
774.605	0.0166106
774.683	0.0164675
774.761	0.0165346
774.840	0.0164081
774.918	0.0162572
774.996	0.0164037
775.074	0.0163246
775.152	0.0164001
775.230	0.0162852
775.308	0.0161539
775.386	0.0160046
775.465	0.0159517
775.543	0.0158530
775.621	0.0157500
775.699	0.0157051
775.777	0.0155437
775.855	0.0156441
775.933	0.0156089
776.011	0.0155367
776.090	0.0154528
776.168	0.0155853
776.246	0.0156551
776.324	0.0155801
776.402	0.0157093
776.480	0.0156268
776.558	0.0156443
776.636	0.0156738
776.715	0.0158794
776.793	0.0158264
776.871	0.0157581
776.949	0.0159798
777.027	0.0158787
777.105	0.0160999
777.183	0.0161533
777.261	0.0161339
777.340	0.0162474
777.418	0.0162283
777.496	0.0162634
777.574	0.0163512
777.652	0.0163171
777.730	0.0164146
777.808	0.0163503
777.886	0.0162689
777.965	0.0162125
778.043	0.0162153
778.121	0.0162691
778.199	0.0162412
778.277	0.0161024
778.355	0.0162536
778.433	0.0161582
778.511	0.0162520
778.590	0.0160325
778.668	0.0161982
778.746	0.0160672
778.824	0.0159975
778.902	0.0160024
778.980	0.0160723
779.058	0.0159350
779.136	0.0159399
779.215	0.0159073
779.293	0.0160204
779.371	0.0158229
779.449	0.0159294
779.527	0.0159309
779.605	0.0158612
779.683	0.0157814
779.761	0.0158289
779.840	0.0158257
779.918	0.0158643
779.996	0.0159595
780.074	0.0159578
780.152	0.0160552
780.230	0.0160931
780.308	0.0161483
780.386	0.0161617
780.465	0.0162460
780.543	0.0162990
780.621	0.0161379
780.699	0.0162057
780.777	0.0162637
780.855	0.0162201
780.933	0.0163083
781.011	0.0162979
781.090	0.0162750
781.168	0.0160812
781.246	0.0160387
781.324	0.0161317
781.402	0.0160110
781.480	0.0158416
781.558	0.0158208
781.636	0.0156792
781.715	0.0156606
781.793	0.0157763
781.871	0.0156190
781.949	0.0156798
782.027	0.0154911
782.105	0.0156192
782.183	0.0156636
782.261	0.0156116
782.340	0.0158121
782.418	0.0157258
782.496	0.0157932
782.574	0.0158781
782.652	0.0158016
782.730	0.0159190
782.808	0.0159254
782.886	0.0161378
782.965	0.0160640
783.043	0.0162247
783.121	0.0163017
783.199	0.0162871
783.277	0.0162273
783.355	0.0161639
783.433	0.0162434
783.511	0.0163602
783.590	0.0164610
783.668	0.0162729
783.746	0.0164265
783.824	0.0164650
783.902	0.0164053
783.980	0.0164069
784.058	0.0163382
784.136	0.0163104
784.215	0.0162700
784.293	0.0162579
784.371	0.0163212
784.449	0.0162075
784.527	0.0162452
784.605	0.0161877
784.683	0.0161839
784.761	0.0161912
784.840	0.0162743
784.918	0.0162609
784.996	0.0160793
785.074	0.0161730
785.152	0.0160528
785.230	0.0160859
785.308	0.0161006
785.386	0.0161536
785.465	0.0161259
785.543	0.0159129
785.621	0.0159299
785.699	0.0159345
785.777	0.0159385
785.855	0.0161288
785.933	0.0159344
786.011	0.0160024
786.090	0.0160067
786.168	0.0158749
786.246	0.0160443
786.324	0.0159042
786.402	0.0160185
786.480	0.0159411
786.558	0.0161324
786.636	0.0161549
786.715	0.0160249
786.793	0.0162665
786.871	0.0162247
786.949	0.0163585
787.027	0.0162590
787.105	0.0163174
787.183	0.0161915
787.261	0.0161477
787.340	0.0163857
787.418	0.0163500
787.496	0.0161771
787.574	0.0160779
787.652	0.0159887
787.730	0.0160938
787.808	0.0158851
787.886	0.0159291
787.965	0.0158616
788.043	0.0158232
788.121	0.0158555
788.199	0.0157963
788.277	0.0159161
788.355	0.0160224
788.433	0.0159382
788.511	0.0157736
788.590	0.0159590
788.668	0.0159517
788.746	0.0159796
788.824	0.0161471
788.902	0.0161813
788.980	0.0161601
789.058	0.0162694
789.136	0.0162291
789.215	0.0161988
789.293	0.0163421
789.371	0.0161659
789.449	0.0161623
789.527	0.0162528
789.605	0.0163187
789.683	0.0161569
789.761	0.0161562
789.840	0.0160693
789.918	0.0161949
789.996	0.0162599
790.074	0.0161288
790.152	0.0160908
790.230	0.0161677
790.308	0.0161253
790.386	0.0160928
790.465	0.0160519
790.543	0.0161193
790.621	0.0160654
790.699	0.0162309
790.777	0.0159934
790.855	0.0160241
790.933	0.0161520
791.011	0.0160078
791.090	0.0159896
791.168	0.0159871
791.246	0.0160189
791.324	0.0160101
791.402	0.0160188
791.480	0.0160132
791.558	0.0159857
791.636	0.0159821
791.715	0.0159148
791.793	0.0160367
791.871	0.0160062
791.949	0.0160389
792.027	0.0160221
792.105	0.0160705
792.183	0.0159670
792.261	0.0159495
792.340	0.0160266
792.418	0.0161643
792.496	0.0159421
792.574	0.0160316
792.652	0.0161916
792.730	0.0162543
792.808	0.0162176
792.886	0.0160542
792.965	0.0161784
793.043	0.0162295
793.121	0.0163107
793.199	0.0161605
793.277	0.0161763
793.355	0.0163148
793.433	0.0161540
793.511	0.0161429
793.590	0.0161015
793.668	0.0162492
793.746	0.0161298
793.824	0.0160754
793.902	0.0159499
793.980	0.0160928
794.058	0.0159648
794.136	0.0157682
794.215	0.0156298
794.293	0.0158022
794.371	0.0158487
794.449	0.0157825
794.527	0.0158096
794.605	0.0158514
794.683	0.0157855
794.761	0.0158191
794.840	0.0158704
794.918	0.0159369
794.996	0.0158770
795.074	0.0160125
795.152	0.0161543
795.230	0.0160880
795.308	0.0160886
795.386	0.0162093
795.465	0.0162279
795.543	0.0161552
795.621	0.0160575
795.699	0.0161735
795.777	0.0163608
795.855	0.0162479
795.933	0.0161414
796.011	0.0161754
796.090	0.0162588
796.168	0.0161482
796.246	0.0161625
796.324	0.0161561
796.402	0.0160295
796.480	0.0161443
796.558	0.0160799
796.636	0.0161222
796.715	0.0159409
796.793	0.0160927
796.871	0.0161761
796.949	0.0160477
797.027	0.0159851
797.105	0.0160724
797.183	0.0160850
797.261	0.0159779
797.340	0.0159529
797.418	0.0160850
797.496	0.0161983
797.574	0.0158893
797.652	0.0159209
797.730	0.0160954
797.808	0.0158594
797.886	0.0160397
797.965	0.0160552
798.043	0.0160266
798.121	0.0159488
798.199	0.0159389
798.277	0.0160422
798.355	0.0161149
798.433	0.0160590
798.511	0.0161227
798.590	0.0160767
798.668	0.0159196
798.746	0.0161291
798.824	0.0160873
798.902	0.0161285
798.980	0.0160718
799.058	0.0161751
799.136	0.0160742
799.215	0.0160156
799.293	0.0161197
799.371	0.0159792
799.449	0.0159993
799.527	0.0161359
799.605	0.0161154
799.683	0.0159869
799.761	0.0158646
799.840	0.0159370
799.918	0.0158768
799.996	0.0159306
800.074	0.0159451
800.152	0.0158712
800.230	0.0158900
800.308	0.0159039
800.386	0.0158370
800.465	0.0159108
800.543	0.0158221
800.621	0.0157127
800.699	0.0159937
800.777	0.0158445
800.855	0.0158772
800.933	0.0158321
801.011	0.0159018
801.090	0.0156641
801.168	0.0157010
801.246	0.0157773
801.324	0.0159129
801.402	0.0157420
801.480	0.0157587
801.558	0.0157722
801.636	0.0158547
801.715	0.0158472
801.793	0.0158356
801.871	0.0158511
801.949	0.0158981
802.027	0.0158041
802.105	0.0158542
802.183	0.0158768
802.261	0.0159383
802.340	0.0158827
802.418	0.0159960
802.496	0.0159341
802.574	0.0160645
802.652	0.0158945
802.730	0.0159328
802.808	0.0160263
802.886	0.0160109
802.965	0.0161787
803.043	0.0161152
803.121	0.0160658
803.199	0.0160445
803.277	0.0161163
803.355	0.0161769
803.433	0.0160615
803.511	0.0160854
803.590	0.0159911
803.668	0.0161428
803.746	0.0161169
803.824	0.0160612
803.902	0.0161119
803.980	0.0160976
804.058	0.0160735
804.136	0.0160253
804.215	0.0159444
804.293	0.0160941
804.371	0.0159099
804.449	0.0159768
804.527	0.0160431
804.605	0.0159657
804.683	0.0160169
804.761	0.0159879
804.840	0.0159966
804.918	0.0159861
804.996	0.0160728
805.074	0.0160341
805.152	0.0159195
805.230	0.0159909
805.308	0.0158732
805.386	0.0160312
805.465	0.0158525
805.543	0.0160428
805.621	0.0161036
805.699	0.0160038
805.777	0.0158337
805.855	0.0160578
805.933	0.0158250
806.011	0.0158453
806.090	0.0158399
806.168	0.0159243
806.246	0.0158570
806.324	0.0157436
806.402	0.0159496
806.480	0.0159914
806.558	0.0159052
806.636	0.0159662
806.715	0.0158943
806.793	0.0159180
806.871	0.0160670
806.949	0.0158904
807.027	0.0159165
807.105	0.0160336
807.183	0.0160074
807.261	0.0157862
807.340	0.0158325
807.418	0.0157799
807.496	0.0159890
807.574	0.0159481
807.652	0.0161441
807.730	0.0160376
807.808	0.0160444
807.886	0.0159770
807.965	0.0159261
808.043	0.0158504
808.121	0.0160196
808.199	0.0159568
808.277	0.0159857
808.355	0.0160217
808.433	0.0160672
808.511	0.0160349
808.590	0.0160023
808.668	0.0160880
808.746	0.0159960
808.824	0.0160202
808.902	0.0161658
808.980	0.0161107
809.058	0.0160848
809.136	0.0161382
809.215	0.0161771
809.293	0.0160765
809.371	0.0161549
809.449	0.0160011
809.527	0.0161443
809.605	0.0162708
809.683	0.0162286
809.761	0.0160632
809.840	0.0162148
809.918	0.0159815
809.996	0.0159583
810.074	0.0161217
810.152	0.0161988
810.230	0.0160896
810.308	0.0159525
810.386	0.0159509
810.465	0.0159444
810.543	0.0158403
810.621	0.0160004
810.699	0.0161124
810.777	0.0159833
810.855	0.0160638
810.933	0.0160844
811.011	0.0161241
811.090	0.0160239
811.168	0.0158963
811.246	0.0159948
811.324	0.0160382
811.402	0.0160896
811.480	0.0160287
811.558	0.0158919
811.636	0.0159982
811.715	0.0159649
811.793	0.0160252
811.871	0.0159219
811.949	0.0160759
812.027	0.0160012
812.105	0.0160351
812.183	0.0160373
812.261	0.0159995
812.340	0.0160284
812.418	0.0159795
812.496	0.0161433
812.574	0.0159749
812.652	0.0158448
812.730	0.0158771
812.808	0.0159755
812.886	0.0158321
812.965	0.0159500
813.043	0.0160811
813.121	0.0159473
813.199	0.0158994
813.277	0.0160223
813.355	0.0158846
813.433	0.0159607
813.511	0.0159306
813.590	0.0158766
813.668	0.0158331
813.746	0.0159579
813.824	0.0158998
813.902	0.0157925
813.980	0.0159145
814.058	0.0158388
814.136	0.0158627
814.215	0.0158513
814.293	0.0157603
814.371	0.0159786
814.449	0.0158360
814.527	0.0158162
814.605	0.0159668
814.683	0.0158587
814.761	0.0158758
814.840	0.0159158
814.918	0.0159153
814.996	0.0160625
815.074	0.0159672
815.152	0.0160210
815.230	0.0160600
815.308	0.0161144
815.386	0.0161553
815.465	0.0159893
815.543	0.0161173
815.621	0.0162361
815.699	0.0161629
815.777	0.0161004
815.855	0.0160416
815.933	0.0160708
816.011	0.0160136
816.090	0.0160462
816.168	0.0160887
816.246	0.0160374
816.324	0.0161215
816.402	0.0161275
816.480	0.0161269
816.558	0.0160415
816.636	0.0160870
816.715	0.0159606
816.793	0.0160017
816.871	0.0159356
816.949	0.0159052
817.027	0.0159711
817.105	0.0157970
817.183	0.0158277
817.261	0.0158537
817.340	0.0159249
817.418	0.0159132
817.496	0.0159058
817.574	0.0158201
817.652	0.0158808
817.730	0.0158222
817.808	0.0158148
817.886	0.0158509
817.965	0.0158163
818.043	0.0158186
818.121	0.0158723
818.199	0.0158048
818.277	0.0158470
818.355	0.0159366
818.433	0.0160868
818.511	0.0159161
818.590	0.0160063
818.668	0.0160558
818.746	0.0161133
818.824	0.0162052
818.902	0.0161745
818.980	0.0160681
819.058	0.0162526
819.136	0.0162566
819.215	0.0162614
819.293	0.0163041
819.371	0.0162365
819.449	0.0162853
819.527	0.0163501
819.605	0.0163049
819.683	0.0161209
819.761	0.0162532
819.840	0.0161420
819.918	0.0162907
819.996	0.0161543
820.074	0.0161071
820.152	0.0160654
820.230	0.0161091
820.308	0.0160182
820.386	0.0161346
820.465	0.0160250
820.543	0.0158714
820.621	0.0159749
820.699	0.0160571
820.777	0.0158365
820.855	0.0158463
820.933	0.0159148
821.011	0.0158578
821.090	0.0159068
821.168	0.0157669
821.246	0.0157185
821.324	0.0157593
821.402	0.0157616
821.480	0.0157769
821.558	0.0158658
821.636	0.0158275
821.715	0.0158759
821.793	0.0158602
821.871	0.0158010
821.949	0.0159078
822.027	0.0159170
822.105	0.0159593
822.183	0.0159381
822.261	0.0160072
822.340	0.0159722
822.418	0.0159727
822.496	0.0159688
822.574	0.0160582
822.652	0.0159912
822.730	0.0160262
822.808	0.0161670
822.886	0.0161078
822.965	0.0162488
823.043	0.0161245
823.121	0.0161057
823.199	0.0161065
823.277	0.0162308
823.355	0.0161867
823.433	0.0162980
823.511	0.0161269
823.590	0.0162401
823.668	0.0162314
823.746	0.0161072
823.824	0.0160921
823.902	0.0161368
823.980	0.0161720
824.058	0.0159969
824.136	0.0160597
824.215	0.0159319
824.293	0.0159509
824.371	0.0162082
824.449	0.0161605
824.527	0.0158765
824.605	0.0160062
824.683	0.0159502
824.761	0.0160532
824.840	0.0159806
824.918	0.0159081
824.996	0.0159100
825.074	0.0158911
825.152	0.0159560
825.230	0.0158456
825.308	0.0159068
825.386	0.0158697
825.465	0.0159392
825.543	0.0157844
825.621	0.0158850
825.699	0.0158076
825.777	0.0160277
825.855	0.0158749
825.933	0.0159758
826.011	0.0158836
826.090	0.0158603
826.168	0.0159160
826.246	0.0158440
826.324	0.0158392
826.402	0.0160150
826.480	0.0158237
826.558	0.0159648
826.636	0.0157630
826.715	0.0157324
826.793	0.0158524
826.871	0.0158774
826.949	0.0159625
827.027	0.0159972
827.105	0.0158292
827.183	0.0158841
827.261	0.0159809
827.340	0.0159406
827.418	0.0159447
827.496	0.0159211
827.574	0.0160197
827.652	0.0161040
827.730	0.0159538
827.808	0.0158799
827.886	0.0159738
827.965	0.0159779
828.043	0.0161116
828.121	0.0161289
828.199	0.0160141
828.277	0.0159083
828.355	0.0160673
828.433	0.0160539
828.511	0.0161231
828.590	0.0161139
828.668	0.0160414
828.746	0.0161358
828.824	0.0161098
828.902	0.0160229
828.980	0.0159337
829.058	0.0159864
829.136	0.0159299
829.215	0.0159613
829.293	0.0158315
829.371	0.0160808
829.449	0.0158936
829.527	0.0158297
829.605	0.0159940
829.683	0.0159258
829.761	0.0160172
829.840	0.0158864
829.918	0.0159671
829.996	0.0159332
830.074	0.0160094
830.152	0.0158453
830.230	0.0158319
830.308	0.0158560
830.386	0.0159312
830.465	0.0158929
830.543	0.0160088
830.621	0.0158903
830.699	0.0159618
830.777	0.0158647
830.855	0.0158717
830.933	0.0159785
831.011	0.0160357
831.090	0.0159251
831.168	0.0160165
831.246	0.0160162
831.324	0.0161195
831.402	0.0159562
831.480	0.0161825
831.558	0.0160468
831.636	0.0160986
831.715	0.0161970
831.793	0.0160467
831.871	0.0161420
831.949	0.0162963
832.027	0.0162259
832.105	0.0162868
832.183	0.0160943
832.261	0.0163774
832.340	0.0163049
832.418	0.0162761
832.496	0.0162806
832.574	0.0161947
832.652	0.0163601
832.730	0.0163194
832.808	0.0161903
832.886	0.0161779
832.965	0.0161524
833.043	0.0162289
833.121	0.0162601
833.199	0.0163194
833.277	0.0161705
833.355	0.0159921
833.433	0.0159846
833.511	0.0160512
833.590	0.0160106
833.668	0.0159594
833.746	0.0159609
833.824	0.0157563
833.902	0.0157969
833.980	0.0158383
834.058	0.0158297
834.136	0.0159032
834.215	0.0158807
834.293	0.0159444
834.371	0.0156838
834.449	0.0158679
834.527	0.0158624
834.605	0.0159120
834.683	0.0158927
834.761	0.0159261
834.840	0.0159005
834.918	0.0159647
834.996	0.0160664
835.074	0.0159872
835.152	0.0158892
835.230	0.0160029
835.308	0.0160228
835.386	0.0159454
835.465	0.0160746
835.543	0.0161842
835.621	0.0162170
835.699	0.0161220
835.777	0.0162486
835.855	0.0162030
835.933	0.0162251
836.011	0.0162508
836.090	0.0161488
836.168	0.0162380
836.246	0.0162109
836.324	0.0163231
836.402	0.0162621
836.480	0.0164032
836.558	0.0161931
836.636	0.0162768
836.715	0.0162278
836.793	0.0162501
836.871	0.0162907
836.949	0.0162978
837.027	0.0162716
837.105	0.0163280
837.183	0.0162944
837.261	0.0160994
837.340	0.0161224
837.418	0.0161398
837.496	0.0160634
837.574	0.0160578
837.652	0.0160912
837.730	0.0160470
837.808	0.0159322
837.886	0.0160637
837.965	0.0158821
838.043	0.0161104
838.121	0.0159200
838.199	0.0158974
838.277	0.0157970
838.355	0.0159190
838.433	0.0159813
838.511	0.0160570
838.590	0.0158768
838.668	0.0159163
838.746	0.0159110
838.824	0.0159869
838.902	0.0160954
838.980	0.0159901
839.058	0.0159925
839.136	0.0159781
839.215	0.0161182
839.293	0.0160843
839.371	0.0160074
839.449	0.0159904
839.527	0.0158398
839.605	0.0159557
839.683	0.0160367
839.761	0.0161728
839.840	0.0160257
839.918	0.0159708
839.996	0.0160135
840.074	0.0160923
840.152	0.0160349
840.230	0.0159894
840.308	0.0160993
840.386	0.0161472
840.465	0.0159996
840.543	0.0159696
840.621	0.0159258
840.699	0.0160323
840.777	0.0160622
840.855	0.0159785
840.933	0.0161647
841.011	0.0161514
841.090	0.0160218
841.168	0.0161251
841.246	0.0162138
841.324	0.0160312
841.402	0.0159882
841.480	0.0160724
841.558	0.0162183
841.636	0.0162518
841.715	0.0161978
841.793	0.0162288
841.871	0.0162348
841.949	0.0162537
842.027	0.0161627
842.105	0.0162660
842.183	0.0162668
842.261	0.0161783
842.340	0.0162056
842.418	0.0161822
842.496	0.0161992
842.574	0.0161095
842.652	0.0160768
842.730	0.0162896
842.808	0.0160982
842.886	0.0162727
842.965	0.0163166
843.043	0.0162265
843.121	0.0160507
843.199	0.0162069
843.277	0.0162589
843.355	0.0160522
843.433	0.0161697
843.511	0.0161610
843.590	0.0160629
843.668	0.0160278
843.746	0.0161280
843.824	0.0161188
843.902	0.0161285
843.980	0.0159460
844.058	0.0158890
844.136	0.0159093
844.215	0.0159882
844.293	0.0158628
844.371	0.0158971
844.449	0.0160182
844.527	0.0160063
844.605	0.0159762
844.683	0.0159400
844.761	0.0160110
844.840	0.0159013
844.918	0.0158958
844.996	0.0158591
845.074	0.0159482
845.152	0.0160313
845.230	0.0159581
845.308	0.0159253
845.386	0.0160047
845.465	0.0160114
845.543	0.0159548
845.621	0.0160175
845.699	0.0159679
845.777	0.0160600
845.855	0.0160057
845.933	0.0160479
846.011	0.0161700
846.090	0.0162457
846.168	0.0161586
846.246	0.0160909
846.324	0.0161357
846.402	0.0161868
846.480	0.0163268
846.558	0.0161999
846.636	0.0161958
846.715	0.0162024
846.793	0.0163061
846.871	0.0161043
846.949	0.0161350
847.027	0.0161562
847.105	0.0162248
847.183	0.0160999
847.261	0.0160873
847.340	0.0161920
847.418	0.0159835
847.496	0.0161028
847.574	0.0161332
847.652	0.0160175
847.730	0.0160941
847.808	0.0160851
847.886	0.0159760
847.965	0.0159036
848.043	0.0159276
848.121	0.0159718
848.199	0.0160719
848.277	0.0160087
848.355	0.0157451
848.433	0.0157598
848.511	0.0159042
848.590	0.0159023
848.668	0.0158997
848.746	0.0158980
848.824	0.0159177
848.902	0.0160141
848.980	0.0158963
849.058	0.0159573
849.136	0.0160702
849.215	0.0160234
849.293	0.0159693
849.371	0.0158186
849.449	0.0158479
849.527	0.0161409
849.605	0.0160710
849.683	0.0159457
849.761	0.0159251
849.840	0.0159398
849.918	0.0159904
849.996	0.0159924
850.074	0.0160558
850.152	0.0159959
850.230	0.0158999
850.308	0.0160645
850.386	0.0159724
850.465	0.0159961
850.543	0.0160743
850.621	0.0160244
850.699	0.0160258
850.777	0.0159698
850.855	0.0160036
850.933	0.0159428
851.011	0.0160553
851.090	0.0160616
851.168	0.0161365
851.246	0.0160792
851.324	0.0158736
851.402	0.0161323
851.480	0.0160505
851.558	0.0159568
851.636	0.0158472
851.715	0.0158762
851.793	0.0159783
851.871	0.0161350
851.949	0.0160881
852.027	0.0159901
852.105	0.0160017
852.183	0.0161128
852.261	0.0161174
852.340	0.0161359
852.418	0.0160460
852.496	0.0160353
852.574	0.0159349
852.652	0.0161761
852.730	0.0162228
852.808	0.0161526
852.886	0.0161792
852.965	0.0160851
853.043	0.0160294
853.121	0.0162473
853.199	0.0160955
853.277	0.0159805
853.355	0.0161532
853.433	0.0162377
853.511	0.0161713
853.590	0.0161582
853.668	0.0160653
853.746	0.0162178
853.824	0.0162196
853.902	0.0160117
853.980	0.0159723
854.058	0.0159827
854.136	0.0160506
854.215	0.0158672
854.293	0.0160086
854.371	0.0160442
854.449	0.0160149
854.527	0.0159822
854.605	0.0160049
854.683	0.0160766
854.761	0.0160098
854.840	0.0159834
854.918	0.0160167
854.996	0.0159998
855.074	0.0159870
855.152	0.0160981
855.230	0.0160616
855.308	0.0160645
855.386	0.0160400
855.465	0.0159763
855.543	0.0160179
855.621	0.0160088
855.699	0.0159203
855.777	0.0160611
855.855	0.0161417
855.933	0.0160036
856.011	0.0160010
856.090	0.0160680
856.168	0.0159707
856.246	0.0161243
856.324	0.0159974
856.402	0.0160619
856.480	0.0159534
856.558	0.0158968
856.636	0.0159481
856.715	0.0160436
856.793	0.0159501
856.871	0.0159460
856.949	0.0160042
857.027	0.0159190
857.105	0.0159807
857.183	0.0159498
857.261	0.0160370
857.340	0.0160018
857.418	0.0159536
857.496	0.0161363
857.574	0.0160257
857.652	0.0159239
857.730	0.0161781
857.808	0.0161551
857.886	0.0160436
857.965	0.0160632
858.043	0.0160369
858.121	0.0161486
858.199	0.0162514
858.277	0.0162357
858.355	0.0161548
858.433	0.0162558
858.511	0.0162606
858.590	0.0162243
858.668	0.0163061
858.746	0.0162483
858.824	0.0163074
858.902	0.0164722
858.980	0.0163869
859.058	0.0163912
859.136	0.0162887
859.215	0.0163202
859.293	0.0163857
859.371	0.0163905
859.449	0.0163193
859.527	0.0163255
859.605	0.0162806
859.683	0.0161421
859.761	0.0162083
859.840	0.0162302
859.918	0.0161590
859.996	0.0160996
860.074	0.0161329
860.152	0.0160595
860.230	0.0159531
860.308	0.0160473
860.386	0.0161388
860.465	0.0159784
860.543	0.0159501
860.621	0.0159133
860.699	0.0159382
860.777	0.0158973
860.855	0.0157912
860.933	0.0159498
861.011	0.0159029
861.090	0.0160390
861.168	0.0158892
861.246	0.0159151
861.324	0.0158841
861.402	0.0157971
861.480	0.0159778
861.558	0.0160560
861.636	0.0158786
861.715	0.0159943
861.793	0.0159948
861.871	0.0160247
861.949	0.0160567
862.027	0.0161062
862.105	0.0162331
862.183	0.0161970
862.261	0.0160367
862.340	0.0161841
862.418	0.0161083
862.496	0.0160168
862.574	0.0161595
862.652	0.0161244
862.730	0.0159938
862.808	0.0160613
862.886	0.0163039
862.965	0.0160365
863.043	0.0159363
863.121	0.0159912
863.199	0.0160877
863.277	0.0160133
863.355	0.0161938
863.433	0.0160617
863.511	0.0160409
863.590	0.0160787
863.668	0.0160426
863.746	0.0159206
863.824	0.0160512
863.902	0.0160811
863.980	0.0160570
864.058	0.0160284
864.136	0.0159842
864.215	0.0160658
864.293	0.0160241
864.371	0.0159086
864.449	0.0161275
864.527	0.0160902
864.605	0.0160924
864.683	0.0160414
864.761	0.0160558
864.840	0.0159673
864.918	0.0162161
864.996	0.0161406
865.074	0.0160577
865.152	0.0160930
865.230	0.0161767
865.308	0.0161418
865.386	0.0161656
865.465	0.0161629
865.543	0.0161673
865.621	0.0161041
865.699	0.0161764
865.777	0.0159971
865.855	0.0159905
865.933	0.0160213
866.011	0.0160132
866.090	0.0160194
866.168	0.0162182
866.246	0.0161523
866.324	0.0159715
866.402	0.0159904
866.480	0.0159917
866.558	0.0160915
866.636	0.0159663
866.715	0.0159491
866.793	0.0159739
866.871	0.0160905
866.949	0.0159325
867.027	0.0159791
867.105	0.0159121
867.183	0.0159375
867.261	0.0160168
867.340	0.0160742
867.418	0.0160058
867.496	0.0160506
867.574	0.0162074
867.652	0.0160618
867.730	0.0159983
867.808	0.0160752
867.886	0.0161871
867.965	0.0161219
868.043	0.0160868
868.121	0.0160989
868.199	0.0160780
868.277	0.0160667
868.355	0.0161124
868.433	0.0162121
868.511	0.0161336
868.590	0.0162432
868.668	0.0161997
868.746	0.0161018
868.824	0.0162347
868.902	0.0162950
868.980	0.0161251
869.058	0.0161181
869.136	0.0160957
869.215	0.0162347
869.293	0.0161732
869.371	0.0161059
869.449	0.0161562
869.527	0.0160372
869.605	0.0160297
869.683	0.0160959
869.761	0.0161777
869.840	0.0161977
869.918	0.0160918
869.996	0.0161012
870.074	0.0160007
870.152	0.0160024
870.230	0.0160101
870.308	0.0160403
870.386	0.0160492
870.465	0.0160413
870.543	0.0160242
870.621	0.0160056
870.699	0.0160361
870.777	0.0160629
870.855	0.0160662
870.933	0.0160375
871.011	0.0160535
871.090	0.0158853
871.168	0.0159951
871.246	0.0160902
871.324	0.0160263
871.402	0.0158613
871.480	0.0160455
871.558	0.0160266
871.636	0.0160114
871.715	0.0160722
871.793	0.0159999
871.871	0.0160684
871.949	0.0160981
872.027	0.0160846
872.105	0.0160844
872.183	0.0160299
872.261	0.0161346
872.340	0.0161478
872.418	0.0159723
872.496	0.0161415
872.574	0.0161051
872.652	0.0160303
872.730	0.0160427
872.808	0.0160635
872.886	0.0161356
872.965	0.0159976
873.043	0.0161356
873.121	0.0162160
873.199	0.0160605
873.277	0.0160699
873.355	0.0161476
873.433	0.0161683
873.511	0.0160648
873.590	0.0160840
873.668	0.0159992
873.746	0.0159618
873.824	0.0160094
873.902	0.0160581
873.980	0.0160399
874.058	0.0160893
874.136	0.0160436
874.215	0.0160783
874.293	0.0160146
874.371	0.0160341
874.449	0.0161182
874.527	0.0158790
874.605	0.0159814
874.683	0.0159740
874.761	0.0161031
874.840	0.0160583
874.918	0.0159648
874.996	0.0160239
875.074	0.0159266
875.152	0.0159570
875.230	0.0159988
875.308	0.0160705
875.386	0.0159902
875.465	0.0159651
875.543	0.0159744
875.621	0.0160874
875.699	0.0161392
875.777	0.0159073
875.855	0.0158442
875.933	0.0159583
876.011	0.0159792
876.090	0.0159129
876.168	0.0159027
876.246	0.0159672
876.324	0.0158566
876.402	0.0158808
876.480	0.0160477
876.558	0.0159555
876.636	0.0158828
876.715	0.0159257
876.793	0.0158807
876.871	0.0159148
876.949	0.0160278
877.027	0.0159660
877.105	0.0159151
877.183	0.0159921
877.261	0.0159585
877.340	0.0161008
877.418	0.0161154
877.496	0.0160213
877.574	0.0160108
877.652	0.0160425
877.730	0.0161828
877.808	0.0159481
877.886	0.0161026
877.965	0.0161077
878.043	0.0161984
878.121	0.0159097
878.199	0.0160498
878.277	0.0159948
878.355	0.0160346
878.433	0.0159834
878.511	0.0160435
878.590	0.0159958
878.668	0.0159531
878.746	0.0161074
878.824	0.0160493
878.902	0.0160298
878.980	0.0158725
879.058	0.0159080
879.136	0.0159850
879.215	0.0160201
879.293	0.0159158
879.371	0.0159100
879.449	0.0159516
879.527	0.0159797
879.605	0.0161415
879.683	0.0159420
879.761	0.0159100
879.840	0.0160040
879.918	0.0158540
879.996	0.0159396
880.074	0.0158647
880.152	0.0159314
880.230	0.0158683
880.308	0.0158971
880.386	0.0159512
880.465	0.0158981
880.543	0.0158994
880.621	0.0158073
880.699	0.0158778
880.777	0.0158680
880.855	0.0159469
880.933	0.0159327
881.011	0.0157888
881.090	0.0157455
881.168	0.0161201
881.246	0.0159147
881.324	0.0158099
881.402	0.0158943
881.480	0.0160239
881.558	0.0160356
881.636	0.0158560
881.715	0.0160378
881.793	0.0159904
881.871	0.0159562
881.949	0.0160210
882.027	0.0160818
882.105	0.0160313
882.183	0.0160332
882.261	0.0160030
882.340	0.0161366
882.418	0.0160024
882.496	0.0161201
882.574	0.0160819
882.652	0.0160156
882.730	0.0160437
882.808	0.0161095
882.886	0.0162016
882.965	0.0161809
883.043	0.0160970
883.121	0.0160980
883.199	0.0161971
883.277	0.0160090
883.355	0.0161177
883.433	0.0160959
883.511	0.0160087
883.590	0.0161237
883.668	0.0159669
883.746	0.0160067
883.824	0.0161456
883.902	0.0160249
883.980	0.0159787
884.058	0.0160537
884.136	0.0160708
884.215	0.0160113
884.293	0.0160263
884.371	0.0160628
884.449	0.0160232
884.527	0.0159938
884.605	0.0160020
884.683	0.0160883
884.761	0.0160459
884.840	0.0159635
884.918	0.0160580
884.996	0.0159075
885.074	0.0159846
885.152	0.0160360
885.230	0.0161861
885.308	0.0160393
885.386	0.0159670
885.465	0.0160394
885.543	0.0159270
885.621	0.0160771
885.699	0.0160237
885.777	0.0159441
885.855	0.0159084
885.933	0.0159459
886.011	0.0160997
886.090	0.0160554
886.168	0.0160982
886.246	0.0161655
886.324	0.0161206
886.402	0.0161872
886.480	0.0160329
886.558	0.0162408
886.636	0.0161369
886.715	0.0160823
886.793	0.0161339
886.871	0.0162301
886.949	0.0161201
887.027	0.0160405
887.105	0.0160387
887.183	0.0159728
887.261	0.0161253
887.340	0.0161352
887.418	0.0160853
887.496	0.0160361
887.574	0.0160263
887.652	0.0161226
887.730	0.0159621
887.808	0.0160864
887.886	0.0160942
887.965	0.0159306
888.043	0.0160896
888.121	0.0160139
888.199	0.0160701
888.277	0.0161343
888.355	0.0158641
888.433	0.0160509
888.511	0.0160404
888.590	0.0161578
888.668	0.0161700
888.746	0.0161047
888.824	0.0160884
888.902	0.0161253
888.980	0.0160803
889.058	0.0160883
889.136	0.0161220
889.215	0.0160342
889.293	0.0160184
889.371	0.0160587
889.449	0.0160500
889.527	0.0161039
889.605	0.0161092
889.683	0.0160001
889.761	0.0160200
889.840	0.0162149
889.918	0.0161150
889.996	0.0160184
890.074	0.0161137
890.152	0.0158334
890.230	0.0158573
890.308	0.0160513
890.386	0.0159985
890.465	0.0159424
890.543	0.0160068
890.621	0.0158254
890.699	0.0159666
890.777	0.0160220
890.855	0.0160066
890.933	0.0159774
891.011	0.0160082
891.090	0.0160355
891.168	0.0160802
891.246	0.0160666
891.324	0.0159319
891.402	0.0159942
891.480	0.0161087
891.558	0.0160698
891.636	0.0159902
891.715	0.0160105
891.793	0.0160235
891.871	0.0161388
891.949	0.0160056
892.027	0.0160442
892.105	0.0160345
892.183	0.0159932
892.261	0.0161521
892.340	0.0160090
892.418	0.0161589
892.496	0.0162383
892.574	0.0160695
892.652	0.0162122
892.730	0.0160854
892.808	0.0161942
892.886	0.0161769
892.965	0.0161475
893.043	0.0160329
893.121	0.0160427
893.199	0.0161028
893.277	0.0162177
893.355	0.0160590
893.433	0.0161354
893.511	0.0162658
893.590	0.0162149
893.668	0.0161583
893.746	0.0161069
893.824	0.0160784
893.902	0.0161302
893.980	0.0162223
894.058	0.0161852
894.136	0.0160474
894.215	0.0160964
894.293	0.0159523
894.371	0.0161335
894.449	0.0160741
894.527	0.0160706
894.605	0.0160329
894.683	0.0160618
894.761	0.0161244
894.840	0.0161117
894.918	0.0161938
894.996	0.0160626
895.074	0.0160727
895.152	0.0161016
895.230	0.0162361
895.308	0.0162520
895.386	0.0160697
895.465	0.0161299
895.543	0.0161427
895.621	0.0161559
895.699	0.0161769
895.777	0.0160802
895.855	0.0160682
895.933	0.0161005
896.011	0.0161542
896.090	0.0161024
896.168	0.0160081
896.246	0.0160313
896.324	0.0160411
896.402	0.0160426
896.480	0.0159460
896.558	0.0161746
896.636	0.0159636
896.715	0.0158521
896.793	0.0159978
896.871	0.0158990
896.949	0.0158012
897.027	0.0157785
897.105	0.0158480
897.183	0.0158025
897.261	0.0157925
897.340	0.0158733
897.418	0.0159397
897.496	0.0160268
897.574	0.0159425
897.652	0.0159845
897.730	0.0158509
897.808	0.0158674
897.886	0.0160114
897.965	0.0161714
898.043	0.0158669
898.121	0.0158418
898.199	0.0160316
898.277	0.0159283
898.355	0.0159037
898.433	0.0159854
898.511	0.0159778
898.590	0.0159801
898.668	0.0159332
898.746	0.0159485
898.824	0.0159869
898.902	0.0161029
898.980	0.0159588
899.058	0.0160735
899.136	0.0161615
899.215	0.0161159
899.293	0.0160555
899.371	0.0159293
899.449	0.0160431
899.527	0.0160147
899.605	0.0160841
899.683	0.0160686
899.761	0.0161159
899.840	0.0161188
899.918	0.0160998
899.996	0.0160252
900.074	0.0159692
900.152	0.0160302
900.230	0.0160312
900.308	0.0160514
900.386	0.0159866
900.465	0.0160307
900.543	0.0159878
900.621	0.0159623
900.699	0.0161660
900.777	0.0159227
900.855	0.0158952
900.933	0.0160830
901.011	0.0160847
901.090	0.0158482
901.168	0.0157835
901.246	0.0159621
901.324	0.0160451
901.402	0.0160009
901.480	0.0159718
901.558	0.0158841
901.636	0.0159473
901.715	0.0159358
901.793	0.0158781
901.871	0.0159441
901.949	0.0159951
902.027	0.0160303
902.105	0.0159230
902.183	0.0159277
902.261	0.0159126
902.340	0.0158807
902.418	0.0158791
902.496	0.0159641
902.574	0.0160345
902.652	0.0159651
902.730	0.0158063
902.808	0.0159998
902.886	0.0159326
902.965	0.0159309
903.043	0.0158475
903.121	0.0158746
903.199	0.0159708
903.277	0.0159031
903.355	0.0159353
903.433	0.0158631
903.511	0.0158188
903.590	0.0159000
903.668	0.0159105
903.746	0.0160487
903.824	0.0159909
903.902	0.0158726
903.980	0.0159348
904.058	0.0158698
904.136	0.0158787
904.215	0.0158477
904.293	0.0158299
904.371	0.0158236
904.449	0.0159383
904.527	0.0159129
904.605	0.0158628
904.683	0.0159172
904.761	0.0159212
904.840	0.0160126
904.918	0.0158318
904.996	0.0159412
905.074	0.0158929
905.152	0.0159211
905.230	0.0158555
905.308	0.0158535
905.386	0.0159165
905.465	0.0159972
905.543	0.0159044
905.621	0.0158256
905.699	0.0158170
905.777	0.0158673
905.855	0.0158904
905.933	0.0159403
906.011	0.0159131
906.090	0.0158536
906.168	0.0157851
906.246	0.0159409
906.324	0.0159865
906.402	0.0160460
906.480	0.0161266
906.558	0.0159583
906.636	0.0159055
906.715	0.0160698
906.793	0.0158862
906.871	0.0159466
906.949	0.0160394
907.027	0.0159269
907.105	0.0160113
907.183	0.0159308
907.261	0.0158451
907.340	0.0160529
907.418	0.0158188
907.496	0.0158852
907.574	0.0159750
907.652	0.0159412
907.730	0.0158787
907.808	0.0159968
907.886	0.0158568
907.965	0.0157716
908.043	0.0158076
908.121	0.0159547
908.199	0.0159750
908.277	0.0159039
908.355	0.0158420
908.433	0.0160120
908.511	0.0158684
908.590	0.0159451
908.668	0.0159296
908.746	0.0159735
908.824	0.0160721
908.902	0.0159180
908.980	0.0159126
909.058	0.0158920
909.136	0.0158510
909.215	0.0159446
909.293	0.0158839
909.371	0.0160136
909.449	0.0159669
909.527	0.0158589
909.605	0.0160874
909.683	0.0159516
909.761	0.0159814
909.840	0.0158662
909.918	0.0158913
909.996	0.0160581
910.074	0.0160603
910.152	0.0160048
910.230	0.0159615
910.308	0.0160483
910.386	0.0159107
910.465	0.0158652
910.543	0.0159731
910.621	0.0159480
910.699	0.0160663
910.777	0.0159824
910.855	0.0159125
910.933	0.0160522
911.011	0.0160618
911.090	0.0159292
911.168	0.0160182
911.246	0.0160750
911.324	0.0161108
911.402	0.0160267
911.480	0.0160071
911.558	0.0161000
911.636	0.0159626
911.715	0.0160816
911.793	0.0160364
911.871	0.0159322
911.949	0.0160384
912.027	0.0161350
912.105	0.0160510
912.183	0.0160948
912.261	0.0160554
912.340	0.0160902
912.418	0.0160020
912.496	0.0161396
912.574	0.0160266
912.652	0.0160756
912.730	0.0161832
912.808	0.0162022
912.886	0.0161583
912.965	0.0160875
913.043	0.0161311
913.121	0.0161245
913.199	0.0161230
913.277	0.0162096
913.355	0.0161910
913.433	0.0161926
913.511	0.0160275
913.590	0.0160777
913.668	0.0160446
913.746	0.0162240
913.824	0.0162317
913.902	0.0161007
913.980	0.0160480
914.058	0.0161282
914.136	0.0161709
914.215	0.0160822
914.293	0.0161639
914.371	0.0160395
914.449	0.0160886
914.527	0.0160077
914.605	0.0161388
914.683	0.0161387
914.761	0.0160917
914.840	0.0159516
914.918	0.0161678
914.996	0.0160050
915.074	0.0161170
915.152	0.0160227
915.230	0.0160387
915.308	0.0159225
915.386	0.0161105
915.465	0.0160921
915.543	0.0160346
915.621	0.0159697
915.699	0.0160123
915.777	0.0161269
915.855	0.0161042
915.933	0.0160999
916.011	0.0159589
916.090	0.0159758
916.168	0.0160036
916.246	0.0161156
916.324	0.0160007
916.402	0.0161091
916.480	0.0161866
916.558	0.0161306
916.636	0.0160204
916.715	0.0160385
916.793	0.0159959
916.871	0.0160675
916.949	0.0160270
917.027	0.0160986
917.105	0.0161670
917.183	0.0160468
917.261	0.0160487
917.340	0.0161217
917.418	0.0160973
917.496	0.0160324
917.574	0.0159953
917.652	0.0160806
917.730	0.0159132
917.808	0.0159984
917.886	0.0162353
917.965	0.0160107
918.043	0.0161546
918.121	0.0160733
918.199	0.0161170
918.277	0.0160345
918.355	0.0159887
918.433	0.0159662
918.511	0.0159167
918.590	0.0159147
918.668	0.0159824
918.746	0.0158995
918.824	0.0160885
918.902	0.0159076
918.980	0.0160576
919.058	0.0161472
919.136	0.0160057
919.215	0.0159861
919.293	0.0160737
919.371	0.0160055
919.449	0.0160510
919.527	0.0160940
919.605	0.0160815
919.683	0.0160011
919.761	0.0159826
919.840	0.0158675
919.918	0.0160553
919.996	0.0159884
920.074	0.0160844
920.152	0.0159363
920.230	0.0159972
920.308	0.0158381
920.386	0.0159378
920.465	0.0159745
920.543	0.0160422
920.621	0.0159364
920.699	0.0159012
920.777	0.0159038
920.855	0.0159003
920.933	0.0158526
921.011	0.0159442
921.090	0.0159241
921.168	0.0158726
921.246	0.0158179
921.324	0.0158823
921.402	0.0157693
921.480	0.0158848
921.558	0.0158891
921.636	0.0159365
921.715	0.0159088
921.793	0.0157582
921.871	0.0158258
921.949	0.0160815
922.027	0.0159911
922.105	0.0159518
922.183	0.0159331
922.261	0.0158531
922.340	0.0161214
922.418	0.0160587
922.496	0.0160441
922.574	0.0159499
922.652	0.0159814
922.730	0.0161237
922.808	0.0160995
922.886	0.0159450
922.965	0.0159225
923.043	0.0158073
923.121	0.0158029
923.199	0.0160007
923.277	0.0159653
923.355	0.0160653
923.433	0.0158919
923.511	0.0160699
923.590	0.0159814
923.668	0.0159253
923.746	0.0159048
923.824	0.0160606
923.902	0.0159382
923.980	0.0158783
924.058	0.0158955
924.136	0.0159887
924.215	0.0159905
924.293	0.0159646
924.371	0.0161071
924.449	0.0160403
924.527	0.0161028
924.605	0.0160325
924.683	0.0160661
924.761	0.0160818
924.840	0.0161177
924.918	0.0160390
924.996	0.0159738
925.074	0.0159388
925.152	0.0161502
925.230	0.0162545
925.308	0.0160625
925.386	0.0160744
925.465	0.0162298
925.543	0.0161075
925.621	0.0160566
925.699	0.0159749
925.777	0.0161767
925.855	0.0161029
925.933	0.0159270
926.011	0.0159457
926.090	0.0160712
926.168	0.0161140
926.246	0.0160509
926.324	0.0161082
926.402	0.0160445
926.480	0.0160520
926.558	0.0160483
926.636	0.0160265
926.715	0.0161001
926.793	0.0161301
926.871	0.0161343
926.949	0.0160737
927.027	0.0160827
927.105	0.0161796
927.183	0.0160810
927.261	0.0160819
927.340	0.0161086
927.418	0.0160117
927.496	0.0160107
927.574	0.0161426
927.652	0.0162196
927.730	0.0160161
927.808	0.0160062
927.886	0.0160406
927.965	0.0159592
928.043	0.0159674
928.121	0.0160563
928.199	0.0159390
928.277	0.0160551
928.355	0.0159714
928.433	0.0160575
928.511	0.0159592
928.590	0.0158706
928.668	0.0160313
928.746	0.0160384
928.824	0.0161039
928.902	0.0159554
928.980	0.0159470
929.058	0.0159939
929.136	0.0159773
929.215	0.0159306
929.293	0.0158997
929.371	0.0160139
929.449	0.0160799
929.527	0.0159835
929.605	0.0160320
929.683	0.0161358
929.761	0.0160854
929.840	0.0160735
929.918	0.0160838
929.996	0.0160393
930.074	0.0161066
930.152	0.0160513
930.230	0.0158752
930.308	0.0160091
930.386	0.0160497
930.465	0.0160225
930.543	0.0161641
930.621	0.0160994
930.699	0.0161875
930.777	0.0160318
930.855	0.0160738
930.933	0.0160927
931.011	0.0160640
931.090	0.0160976
931.168	0.0159878
931.246	0.0160661
931.324	0.0160740
931.402	0.0161362
931.480	0.0160757
931.558	0.0160479
931.636	0.0161071
931.715	0.0158266
931.793	0.0160229
931.871	0.0161581
931.949	0.0161365
932.027	0.0160550
932.105	0.0160532
932.183	0.0160815
932.261	0.0159535
932.340	0.0159932
932.418	0.0161143
932.496	0.0161731
932.574	0.0162188
932.652	0.0160041
932.730	0.0161603
932.808	0.0161000
932.886	0.0160772
932.965	0.0159499
933.043	0.0160313
933.121	0.0160105
933.199	0.0159626
933.277	0.0160166
933.355	0.0161305
933.433	0.0161335
933.511	0.0161125
933.590	0.0161069
933.668	0.0160738
933.746	0.0162074
933.824	0.0161863
933.902	0.0161401
933.980	0.0161074
934.058	0.0163338
934.136	0.0162612
934.215	0.0161326
934.293	0.0161736
934.371	0.0162423
934.449	0.0161076
934.527	0.0160468
934.605	0.0161059
934.683	0.0162772
934.761	0.0161582
934.840	0.0161494
934.918	0.0161061
934.996	0.0160786
935.074	0.0161768
935.152	0.0161648
935.230	0.0161732
935.308	0.0161435
935.386	0.0160867
935.465	0.0161533
935.543	0.0161082
935.621	0.0161646
935.699	0.0160474
935.777	0.0160117
935.855	0.0159116
935.933	0.0160717
936.011	0.0159428
936.090	0.0159450
936.168	0.0160415
936.246	0.0160064
936.324	0.0159571
936.402	0.0159103
936.480	0.0159009
936.558	0.0158704
936.636	0.0160429
936.715	0.0159632
936.793	0.0160037
936.871	0.0158060
936.949	0.0161555
937.027	0.0158955
937.105	0.0160326
937.183	0.0159840
937.261	0.0158841
937.340	0.0159539
937.418	0.0160092
937.496	0.0161896
937.574	0.0160027
937.652	0.0160101
937.730	0.0160366
937.808	0.0160215
937.886	0.0160766
937.965	0.0159948
938.043	0.0160245
938.121	0.0160600
938.199	0.0161881
938.277	0.0161817
938.355	0.0159348
938.433	0.0160771
938.511	0.0161356
938.590	0.0159616
938.668	0.0160574
938.746	0.0161584
938.824	0.0160574
938.902	0.0160779
938.980	0.0161317
939.058	0.0161121
939.136	0.0160843
939.215	0.0160962
939.293	0.0160059
939.371	0.0159327
939.449	0.0160289
939.527	0.0159413
939.605	0.0160165
939.683	0.0160141
939.761	0.0160543
939.840	0.0159234
939.918	0.0158559
939.996	0.0159755
940.074	0.0159258
940.152	0.0159650
940.230	0.0158760
940.308	0.0160372
940.386	0.0159082
940.465	0.0161031
940.543	0.0161217
940.621	0.0160469
940.699	0.0159473
940.777	0.0160513
940.855	0.0160487
940.933	0.0160847
941.011	0.0162796
941.090	0.0160993
941.168	0.0161330
941.246	0.0161134
941.324	0.0162814
941.402	0.0160227
941.480	0.0161034
941.558	0.0161989
941.636	0.0161975
941.715	0.0160109
941.793	0.0161001
941.871	0.0162229
941.949	0.0160540
942.027	0.0160978
942.105	0.0161323
942.183	0.0160882
942.261	0.0162244
942.340	0.0161161
942.418	0.0160795
942.496	0.0160579
942.574	0.0161046
942.652	0.0160352
942.730	0.0160386
942.808	0.0159539
942.886	0.0162054
942.965	0.0161356
943.043	0.0161230
943.121	0.0160453
943.199	0.0161900
943.277	0.0161514
943.355	0.0161187
943.433	0.0161371
943.511	0.0160678
943.590	0.0160482
943.668	0.0160072
943.746	0.0160947
943.824	0.0160049
943.902	0.0159600
943.980	0.0161482
944.058	0.0160235
944.136	0.0160315
944.215	0.0160117
944.293	0.0159357
944.371	0.0160313
944.449	0.0161788
944.527	0.0160412
944.605	0.0162200
944.683	0.0160239
944.761	0.0161326
944.840	0.0160067
944.918	0.0159914
944.996	0.0159953
945.074	0.0160294
945.152	0.0159849
945.230	0.0161633
945.308	0.0160918
945.386	0.0159554
945.465	0.0160326
945.543	0.0160708
945.621	0.0160350
945.699	0.0160766
945.777	0.0161169
945.855	0.0159379
945.933	0.0160056
946.011	0.0159897
946.090	0.0159999
946.168	0.0160415
946.246	0.0159927
946.324	0.0159563
946.402	0.0160436
946.480	0.0158682
946.558	0.0158160
946.636	0.0158752
946.715	0.0159595
946.793	0.0160334
946.871	0.0159583
946.949	0.0161270
947.027	0.0160816
947.105	0.0158991
947.183	0.0158862
947.261	0.0159376
947.340	0.0159930
947.418	0.0161946
947.496	0.0160235
947.574	0.0160778
947.652	0.0159852
947.730	0.0160823
947.808	0.0161698
947.886	0.0159781
947.965	0.0161249
948.043	0.0161825
948.121	0.0160123
948.199	0.0160191
948.277	0.0161582
948.355	0.0161445
948.433	0.0160703
948.511	0.0160616
948.590	0.0159823
948.668	0.0160990
948.746	0.0162218
948.824	0.0160448
948.902	0.0160447
948.980	0.0160692
949.058	0.0160834
949.136	0.0160497
949.215	0.0160041
949.293	0.0161510
949.371	0.0160325
949.449	0.0160464
949.527	0.0160040
949.605	0.0159547
949.683	0.0160662
949.761	0.0160651
949.840	0.0160461
949.918	0.0160041
