06/29/2022	23:14:36	Ver.	4.1	UNKNOWN
Optical Delay	630.002507	Delta X		0.078125	Sweeps	1	Scan Rate	0/0
Coordinates	Axis 1	NaN	Axis 2	NaN	Axis 3	NaN	Axis 4	NaN	Axis 5	NaN	Axis 6	0.000000
TX Power	0.000000	RX Power	0.000000

630.003	0.0163593
630.081	0.0164227
630.159	0.0164813
630.237	0.0163786
630.315	0.0164491
630.393	0.0163960
630.471	0.0164020
630.549	0.0165413
630.628	0.0164766
630.706	0.0164468
630.784	0.0164651
630.862	0.0163376
630.940	0.0165528
631.018	0.0165641
631.096	0.0164082
631.174	0.0164241
631.253	0.0163686
631.331	0.0166266
631.409	0.0164127
631.487	0.0164944
631.565	0.0163673
631.643	0.0164725
631.721	0.0164713
631.799	0.0164571
631.878	0.0164520
631.956	0.0164523
632.034	0.0165193
632.112	0.0164346
632.190	0.0163776
632.268	0.0164462
632.346	0.0164413
632.424	0.0164240
632.503	0.0164368
632.581	0.0162890
632.659	0.0163408
632.737	0.0165937
632.815	0.0163580
632.893	0.0163932
632.971	0.0164080
633.049	0.0163450
633.128	0.0164130
633.206	0.0163887
633.284	0.0163389
633.362	0.0162806
633.440	0.0162288
633.518	0.0164031
633.596	0.0162814
633.674	0.0163239
633.753	0.0164360
633.831	0.0163429
633.909	0.0163150
633.987	0.0162659
634.065	0.0162717
634.143	0.0164306
634.221	0.0163109
634.299	0.0163440
634.378	0.0163696
634.456	0.0163139
634.534	0.0162041
634.612	0.0163271
634.690	0.0162652
634.768	0.0163763
634.846	0.0161490
634.924	0.0163005
635.003	0.0163064
635.081	0.0163354
635.159	0.0162992
635.237	0.0162386
635.315	0.0161718
635.393	0.0162645
635.471	0.0162865
635.549	0.0163824
635.628	0.0163465
635.706	0.0161977
635.784	0.0161827
635.862	0.0162723
635.940	0.0162234
636.018	0.0163972
636.096	0.0162956
636.174	0.0163026
636.253	0.0162842
636.331	0.0162540
636.409	0.0162529
636.487	0.0163690
636.565	0.0163176
636.643	0.0163196
636.721	0.0162740
636.799	0.0162252
636.878	0.0162315
636.956	0.0163268
637.034	0.0163964
637.112	0.0163350
637.190	0.0163221
637.268	0.0163847
637.346	0.0163033
637.424	0.0164043
637.503	0.0163593
637.581	0.0162366
637.659	0.0161404
637.737	0.0163016
637.815	0.0163505
637.893	0.0162069
637.971	0.0162153
638.049	0.0164445
638.128	0.0164748
638.206	0.0164820
638.284	0.0164835
638.362	0.0162916
638.440	0.0164153
638.518	0.0163677
638.596	0.0164347
638.674	0.0164145
638.753	0.0164204
638.831	0.0164920
638.909	0.0163168
638.987	0.0164410
639.065	0.0163567
639.143	0.0163731
639.221	0.0163779
639.299	0.0163216
639.378	0.0164130
639.456	0.0163422
639.534	0.0163757
639.612	0.0164260
639.690	0.0163786
639.768	0.0163776
639.846	0.0164253
639.924	0.0163830
640.003	0.0163302
640.081	0.0163065
640.159	0.0162279
640.237	0.0163420
640.315	0.0164803
640.393	0.0163978
640.471	0.0163006
640.549	0.0163361
640.628	0.0162492
640.706	0.0162129
640.784	0.0162222
640.862	0.0163613
640.940	0.0163548
641.018	0.0162619
641.096	0.0161969
641.174	0.0162448
641.253	0.0162269
641.331	0.0161927
641.409	0.0162212
641.487	0.0162791
641.565	0.0164734
641.643	0.0163655
641.721	0.0163276
641.799	0.0162774
641.878	0.0162718
641.956	0.0163641
642.034	0.0163294
642.112	0.0163259
642.190	0.0161792
642.268	0.0162166
642.346	0.0163794
642.424	0.0163049
642.503	0.0162419
642.581	0.0162769
642.659	0.0162250
642.737	0.0162286
642.815	0.0162344
642.893	0.0162245
642.971	0.0163094
643.049	0.0162720
643.128	0.0163710
643.206	0.0161407
643.284	0.0163556
643.362	0.0164327
643.440	0.0163790
643.518	0.0162653
643.596	0.0163220
643.674	0.0161401
643.753	0.0162254
643.831	0.0163371
643.909	0.0163435
643.987	0.0162432
644.065	0.0163574
644.143	0.0161586
644.221	0.0161987
644.299	0.0162659
644.378	0.0162138
644.456	0.0163967
644.534	0.0162143
644.612	0.0161510
644.690	0.0162281
644.768	0.0160757
644.846	0.0161398
644.924	0.0162281
645.003	0.0163008
645.081	0.0163242
645.159	0.0163197
645.237	0.0161238
645.315	0.0162908
645.393	0.0162718
645.471	0.0162424
645.549	0.0162679
645.628	0.0163060
645.706	0.0162653
645.784	0.0161401
645.862	0.0162003
645.940	0.0163004
646.018	0.0162143
646.096	0.0161003
646.174	0.0161304
646.253	0.0161306
646.331	0.0162629
646.409	0.0162971
646.487	0.0162293
646.565	0.0161768
646.643	0.0160546
646.721	0.0162908
646.799	0.0162770
646.878	0.0164343
646.956	0.0162052
647.034	0.0162542
647.112	0.0162044
647.190	0.0161669
647.268	0.0162534
647.346	0.0163054
647.424	0.0163282
647.503	0.0163191
647.581	0.0161489
647.659	0.0163574
647.737	0.0163213
647.815	0.0163022
647.893	0.0162155
647.971	0.0162432
648.049	0.0162447
648.128	0.0162581
648.206	0.0163323
648.284	0.0162289
648.362	0.0163145
648.440	0.0163750
648.518	0.0162646
648.596	0.0163575
648.674	0.0164458
648.753	0.0163504
648.831	0.0163586
648.909	0.0163080
648.987	0.0163457
649.065	0.0163345
649.143	0.0164365
649.221	0.0162817
649.299	0.0163719
649.378	0.0162910
649.456	0.0162782
649.534	0.0163311
649.612	0.0162061
649.690	0.0164209
649.768	0.0163229
649.846	0.0161853
649.924	0.0163049
650.003	0.0164233
650.081	0.0163077
650.159	0.0163126
650.237	0.0162503
650.315	0.0164203
650.393	0.0163678
650.471	0.0163849
650.549	0.0163380
650.628	0.0162837
650.706	0.0164239
650.784	0.0164162
650.862	0.0163690
650.940	0.0163898
651.018	0.0163125
651.096	0.0163820
651.174	0.0164307
651.253	0.0163622
651.331	0.0164246
651.409	0.0163526
651.487	0.0164486
651.565	0.0162659
651.643	0.0163899
651.721	0.0163654
651.799	0.0164095
651.878	0.0163038
651.956	0.0163294
652.034	0.0163692
652.112	0.0163454
652.190	0.0163440
652.268	0.0163254
652.346	0.0164842
652.424	0.0163357
652.503	0.0164644
652.581	0.0164053
652.659	0.0163577
652.737	0.0163915
652.815	0.0164449
652.893	0.0163776
652.971	0.0163233
653.049	0.0164371
653.128	0.0164028
653.206	0.0163622
653.284	0.0162930
653.362	0.0162183
653.440	0.0163873
653.518	0.0163736
653.596	0.0164122
653.674	0.0164414
653.753	0.0164971
653.831	0.0163488
653.909	0.0164583
653.987	0.0163671
654.065	0.0163474
654.143	0.0164436
654.221	0.0165141
654.299	0.0162593
654.378	0.0162313
654.456	0.0163418
654.534	0.0165511
654.612	0.0164337
654.690	0.0163808
654.768	0.0163554
654.846	0.0162894
654.924	0.0163892
655.003	0.0163043
655.081	0.0163163
655.159	0.0163555
655.237	0.0163681
655.315	0.0164198
655.393	0.0164042
655.471	0.0163592
655.549	0.0163445
655.628	0.0162617
655.706	0.0163390
655.784	0.0163993
655.862	0.0163673
655.940	0.0162788
656.018	0.0162218
656.096	0.0162202
656.174	0.0162942
656.253	0.0163107
656.331	0.0163327
656.409	0.0163698
656.487	0.0163723
656.565	0.0163366
656.643	0.0163571
656.721	0.0164643
656.799	0.0163206
656.878	0.0163920
656.956	0.0162659
657.034	0.0163130
657.112	0.0163012
657.190	0.0163763
657.268	0.0163095
657.346	0.0162840
657.424	0.0162848
657.503	0.0164536
657.581	0.0163295
657.659	0.0163037
657.737	0.0163043
657.815	0.0163612
657.893	0.0163194
657.971	0.0164109
658.049	0.0162675
658.128	0.0162435
658.206	0.0162766
658.284	0.0163826
658.362	0.0163799
658.440	0.0163884
658.518	0.0163409
658.596	0.0163406
658.674	0.0163180
658.753	0.0162983
658.831	0.0162430
658.909	0.0163341
658.987	0.0165330
659.065	0.0162926
659.143	0.0162965
659.221	0.0164439
659.299	0.0163902
659.378	0.0163569
659.456	0.0163468
659.534	0.0162651
659.612	0.0162315
659.690	0.0163049
659.768	0.0163229
659.846	0.0162134
659.924	0.0162787
660.003	0.0163177
660.081	0.0163869
660.159	0.0161771
660.237	0.0162723
660.315	0.0163462
660.393	0.0164378
660.471	0.0162350
660.549	0.0162124
660.628	0.0164344
660.706	0.0162591
660.784	0.0163625
660.862	0.0163206
660.940	0.0163020
661.018	0.0162881
661.096	0.0163271
661.174	0.0163493
661.253	0.0163864
661.331	0.0163561
661.409	0.0162808
661.487	0.0162558
661.565	0.0162833
661.643	0.0164319
661.721	0.0163976
661.799	0.0162868
661.878	0.0163259
661.956	0.0161610
662.034	0.0163789
662.112	0.0164068
662.190	0.0164000
662.268	0.0164524
662.346	0.0163737
662.424	0.0162047
662.503	0.0164112
662.581	0.0163853
662.659	0.0163641
662.737	0.0163015
662.815	0.0164211
662.893	0.0164912
662.971	0.0162915
663.049	0.0163594
663.128	0.0162626
663.206	0.0162152
663.284	0.0164870
663.362	0.0164951
663.440	0.0163033
663.518	0.0162578
663.596	0.0162901
663.674	0.0163186
663.753	0.0163383
663.831	0.0163197
663.909	0.0164029
663.987	0.0163360
664.065	0.0164732
664.143	0.0163584
664.221	0.0164056
664.299	0.0164362
664.378	0.0164153
664.456	0.0163662
664.534	0.0163560
664.612	0.0163766
664.690	0.0165646
664.768	0.0161874
664.846	0.0163649
664.924	0.0164684
665.003	0.0163968
665.081	0.0163900
665.159	0.0163842
665.237	0.0163606
665.315	0.0162914
665.393	0.0162126
665.471	0.0162990
665.549	0.0164072
665.628	0.0164166
665.706	0.0163319
665.784	0.0163218
665.862	0.0163184
665.940	0.0163066
666.018	0.0163878
666.096	0.0164101
666.174	0.0163778
666.253	0.0162531
666.331	0.0162316
666.409	0.0164833
666.487	0.0165572
666.565	0.0163253
666.643	0.0162624
666.721	0.0163598
666.799	0.0164007
666.878	0.0163470
666.956	0.0163254
667.034	0.0163100
667.112	0.0163070
667.190	0.0163632
667.268	0.0163290
667.346	0.0163152
667.424	0.0163219
667.503	0.0162876
667.581	0.0162077
667.659	0.0162692
667.737	0.0164121
667.815	0.0162838
667.893	0.0164232
667.971	0.0163985
668.049	0.0162683
668.128	0.0163148
668.206	0.0163120
668.284	0.0162477
668.362	0.0162691
668.440	0.0162116
668.518	0.0164685
668.596	0.0162835
668.674	0.0163544
668.753	0.0163231
668.831	0.0164108
668.909	0.0163205
668.987	0.0162509
669.065	0.0162074
669.143	0.0163431
669.221	0.0163076
669.299	0.0164552
669.378	0.0162337
669.456	0.0161794
669.534	0.0163512
669.612	0.0163144
669.690	0.0163785
669.768	0.0163068
669.846	0.0162917
669.924	0.0162733
670.003	0.0161732
670.081	0.0161044
670.159	0.0163880
670.237	0.0164366
670.315	0.0163048
670.393	0.0164192
670.471	0.0162846
670.549	0.0163316
670.628	0.0161630
670.706	0.0163281
670.784	0.0162276
670.862	0.0163486
670.940	0.0163277
671.018	0.0162697
671.096	0.0163284
671.174	0.0164626
671.253	0.0163219
671.331	0.0163034
671.409	0.0163116
671.487	0.0162962
671.565	0.0163136
671.643	0.0162502
671.721	0.0162447
671.799	0.0163326
671.878	0.0163243
671.956	0.0163132
672.034	0.0161049
672.112	0.0161983
672.190	0.0163773
672.268	0.0162841
672.346	0.0162884
672.424	0.0162855
672.503	0.0163048
672.581	0.0162309
672.659	0.0163189
672.737	0.0162923
672.815	0.0163189
672.893	0.0163247
672.971	0.0162881
673.049	0.0163100
673.128	0.0163954
673.206	0.0162531
673.284	0.0162653
673.362	0.0163551
673.440	0.0163535
673.518	0.0163393
673.596	0.0162812
673.674	0.0163755
673.753	0.0162574
673.831	0.0163515
673.909	0.0162043
673.987	0.0164411
674.065	0.0164518
674.143	0.0163468
674.221	0.0164424
674.299	0.0163157
674.378	0.0164388
674.456	0.0163908
674.534	0.0163454
674.612	0.0164893
674.690	0.0164193
674.768	0.0164178
674.846	0.0164182
674.924	0.0163246
675.003	0.0164046
675.081	0.0163356
675.159	0.0163816
675.237	0.0164677
675.315	0.0164504
675.393	0.0164251
675.471	0.0164680
675.549	0.0163998
675.628	0.0164985
675.706	0.0164247
675.784	0.0164433
675.862	0.0164402
675.940	0.0163268
676.018	0.0163737
676.096	0.0164135
676.174	0.0163924
676.253	0.0165473
676.331	0.0165065
676.409	0.0163523
676.487	0.0164191
676.565	0.0164702
676.643	0.0164101
676.721	0.0164131
676.799	0.0164568
676.878	0.0164564
676.956	0.0163817
677.034	0.0163535
677.112	0.0163540
677.190	0.0163041
677.268	0.0164433
677.346	0.0164312
677.424	0.0164190
677.503	0.0164013
677.581	0.0163113
677.659	0.0164120
677.737	0.0163737
677.815	0.0164755
677.893	0.0162656
677.971	0.0163583
678.049	0.0164368
678.128	0.0164579
678.206	0.0163176
678.284	0.0164867
678.362	0.0164632
678.440	0.0163724
678.518	0.0163748
678.596	0.0163630
678.674	0.0164893
678.753	0.0163981
678.831	0.0164169
678.909	0.0164766
678.987	0.0162378
679.065	0.0164610
679.143	0.0165730
679.221	0.0163980
679.299	0.0164044
679.378	0.0164835
679.456	0.0164648
679.534	0.0164680
679.612	0.0164870
679.690	0.0163924
679.768	0.0164185
679.846	0.0163181
679.924	0.0163121
680.003	0.0163525
680.081	0.0163351
680.159	0.0164838
680.237	0.0164109
680.315	0.0164296
680.393	0.0164043
680.471	0.0164000
680.549	0.0164318
680.628	0.0164627
680.706	0.0164021
680.784	0.0164056
680.862	0.0164188
680.940	0.0164066
681.018	0.0164817
681.096	0.0165057
681.174	0.0163345
681.253	0.0162740
681.331	0.0163398
681.409	0.0164330
681.487	0.0164941
681.565	0.0164329
681.643	0.0164188
681.721	0.0163859
681.799	0.0164784
681.878	0.0163622
681.956	0.0164841
682.034	0.0163560
682.112	0.0163612
682.190	0.0163634
682.268	0.0163344
682.346	0.0164796
682.424	0.0163579
682.503	0.0163139
682.581	0.0163782
682.659	0.0164320
682.737	0.0164814
682.815	0.0163468
682.893	0.0164944
682.971	0.0163211
683.049	0.0163690
683.128	0.0163915
683.206	0.0163496
683.284	0.0162800
683.362	0.0163889
683.440	0.0163229
683.518	0.0164139
683.596	0.0164741
683.674	0.0164896
683.753	0.0163490
683.831	0.0164361
683.909	0.0164017
683.987	0.0162865
684.065	0.0163763
684.143	0.0162624
684.221	0.0163086
684.299	0.0163421
684.378	0.0166590
684.456	0.0163022
684.534	0.0162941
684.612	0.0164359
684.690	0.0163560
684.768	0.0163963
684.846	0.0164564
684.924	0.0163064
685.003	0.0162944
685.081	0.0162132
685.159	0.0163448
685.237	0.0163998
685.315	0.0164333
685.393	0.0162573
685.471	0.0164021
685.549	0.0162389
685.628	0.0162628
685.706	0.0162120
685.784	0.0163414
685.862	0.0162936
685.940	0.0163665
686.018	0.0163026
686.096	0.0163844
686.174	0.0163805
686.253	0.0162570
686.331	0.0162571
686.409	0.0162541
686.487	0.0163120
686.565	0.0163549
686.643	0.0163522
686.721	0.0162577
686.799	0.0161745
686.878	0.0163528
686.956	0.0163735
687.034	0.0163486
687.112	0.0162462
687.190	0.0163399
687.268	0.0163426
687.346	0.0164269
687.424	0.0163102
687.503	0.0163064
687.581	0.0162506
687.659	0.0163047
687.737	0.0162399
687.815	0.0163172
687.893	0.0162305
687.971	0.0163087
688.049	0.0162985
688.128	0.0163739
688.206	0.0162672
688.284	0.0161543
688.362	0.0164112
688.440	0.0165328
688.518	0.0164362
688.596	0.0162965
688.674	0.0163445
688.753	0.0163976
688.831	0.0163040
688.909	0.0162940
688.987	0.0161997
689.065	0.0164640
689.143	0.0164600
689.221	0.0164090
689.299	0.0164025
689.378	0.0164468
689.456	0.0163999
689.534	0.0163238
689.612	0.0163253
689.690	0.0163158
689.768	0.0163823
689.846	0.0164061
689.924	0.0162738
690.003	0.0163908
690.081	0.0164458
690.159	0.0163307
690.237	0.0163998
690.315	0.0162647
690.393	0.0163401
690.471	0.0163735
690.549	0.0163223
690.628	0.0163957
690.706	0.0163397
690.784	0.0164043
690.862	0.0163435
690.940	0.0163388
691.018	0.0164181
691.096	0.0164700
691.174	0.0163109
691.253	0.0162423
691.331	0.0163225
691.409	0.0164864
691.487	0.0164912
691.565	0.0163750
691.643	0.0164864
691.721	0.0165079
691.799	0.0163029
691.878	0.0165106
691.956	0.0162643
692.034	0.0163284
692.112	0.0162704
692.190	0.0162861
692.268	0.0162158
692.346	0.0164030
692.424	0.0163837
692.503	0.0162425
692.581	0.0162322
692.659	0.0163829
692.737	0.0162653
692.815	0.0161872
692.893	0.0162538
692.971	0.0164354
693.049	0.0164729
693.128	0.0163792
693.206	0.0161129
693.284	0.0164136
693.362	0.0164418
693.440	0.0162706
693.518	0.0163728
693.596	0.0163873
693.674	0.0163931
693.753	0.0164567
693.831	0.0163669
693.909	0.0164399
693.987	0.0164294
694.065	0.0164290
694.143	0.0163969
694.221	0.0163863
694.299	0.0163244
694.378	0.0164899
694.456	0.0163872
694.534	0.0162943
694.612	0.0161648
694.690	0.0163747
694.768	0.0164360
694.846	0.0162846
694.924	0.0163225
695.003	0.0163484
695.081	0.0163365
695.159	0.0163159
695.237	0.0164117
695.315	0.0163393
695.393	0.0163121
695.471	0.0162133
695.549	0.0164020
695.628	0.0163558
695.706	0.0163264
695.784	0.0163586
695.862	0.0163436
695.940	0.0164426
696.018	0.0163944
696.096	0.0163787
696.174	0.0163965
696.253	0.0164565
696.331	0.0163847
696.409	0.0164354
696.487	0.0165485
696.565	0.0165428
696.643	0.0165068
696.721	0.0165308
696.799	0.0164887
696.878	0.0164564
696.956	0.0165210
697.034	0.0164132
697.112	0.0164162
697.190	0.0164802
697.268	0.0163906
697.346	0.0163237
697.424	0.0163654
697.503	0.0163372
697.581	0.0162918
697.659	0.0161534
697.737	0.0162328
697.815	0.0164349
697.893	0.0163700
697.971	0.0162617
698.049	0.0162755
698.128	0.0163385
698.206	0.0163060
698.284	0.0163357
698.362	0.0165079
698.440	0.0163216
698.518	0.0164141
698.596	0.0163290
698.674	0.0164941
698.753	0.0164970
698.831	0.0164510
698.909	0.0165694
698.987	0.0164629
699.065	0.0164920
699.143	0.0163602
699.221	0.0165687
699.299	0.0164503
699.378	0.0164499
699.456	0.0163531
699.534	0.0165514
699.612	0.0163879
699.690	0.0163329
699.768	0.0163614
699.846	0.0163295
699.924	0.0164214
700.003	0.0164581
700.081	0.0162418
700.159	0.0162241
700.237	0.0163460
700.315	0.0164012
700.393	0.0161698
700.471	0.0162366
700.549	0.0163280
700.628	0.0164480
700.706	0.0164041
700.784	0.0163138
700.862	0.0164415
700.940	0.0165746
701.018	0.0165016
701.096	0.0164338
701.174	0.0163634
701.253	0.0164567
701.331	0.0164886
701.409	0.0164470
701.487	0.0164658
701.565	0.0165612
701.643	0.0165412
701.721	0.0165673
701.799	0.0164194
701.878	0.0163673
701.956	0.0164555
702.034	0.0165051
702.112	0.0165226
702.190	0.0163432
702.268	0.0164794
702.346	0.0163451
702.424	0.0164835
702.503	0.0162440
702.581	0.0164223
702.659	0.0165015
702.737	0.0165304
702.815	0.0163185
702.893	0.0162506
702.971	0.0163729
703.049	0.0163940
703.128	0.0164388
703.206	0.0161855
703.284	0.0162530
703.362	0.0161876
703.440	0.0163179
703.518	0.0163789
703.596	0.0162580
703.674	0.0163354
703.753	0.0162595
703.831	0.0163641
703.909	0.0164745
703.987	0.0163258
704.065	0.0164407
704.143	0.0165965
704.221	0.0163291
704.299	0.0163431
704.378	0.0164447
704.456	0.0164993
704.534	0.0164523
704.612	0.0164536
704.690	0.0165022
704.768	0.0165795
704.846	0.0166164
704.924	0.0166350
705.003	0.0164247
705.081	0.0164858
705.159	0.0165461
705.237	0.0164888
705.315	0.0164788
705.393	0.0163731
705.471	0.0164823
705.549	0.0165002
705.628	0.0164855
705.706	0.0163692
705.784	0.0162644
705.862	0.0162719
705.940	0.0163876
706.018	0.0163975
706.096	0.0164011
706.174	0.0163152
706.253	0.0164026
706.331	0.0163446
706.409	0.0162390
706.487	0.0163512
706.565	0.0162927
706.643	0.0162101
706.721	0.0163495
706.799	0.0163184
706.878	0.0163718
706.956	0.0162637
707.034	0.0163034
707.112	0.0161746
707.190	0.0162718
707.268	0.0163918
707.346	0.0164622
707.424	0.0164098
707.503	0.0163719
707.581	0.0164530
707.659	0.0164761
707.737	0.0163991
707.815	0.0165337
707.893	0.0164648
707.971	0.0164306
708.049	0.0164753
708.128	0.0164684
708.206	0.0163544
708.284	0.0164301
708.362	0.0165199
708.440	0.0164276
708.518	0.0162890
708.596	0.0163764
708.674	0.0164080
708.753	0.0163660
708.831	0.0163586
708.909	0.0162952
708.987	0.0164408
709.065	0.0163156
709.143	0.0163917
709.221	0.0162608
709.299	0.0162550
709.378	0.0163847
709.456	0.0161737
709.534	0.0163186
709.612	0.0161918
709.690	0.0161430
709.768	0.0162210
709.846	0.0162433
709.924	0.0162298
710.003	0.0161842
710.081	0.0161310
710.159	0.0161727
710.237	0.0161271
710.315	0.0160956
710.393	0.0161744
710.471	0.0159989
710.549	0.0161351
710.628	0.0162813
710.706	0.0161574
710.784	0.0161375
710.862	0.0162384
710.940	0.0161296
711.018	0.0162330
711.096	0.0162984
711.174	0.0162189
711.253	0.0163191
711.331	0.0163740
711.409	0.0163249
711.487	0.0163229
711.565	0.0162762
711.643	0.0163890
711.721	0.0162151
711.799	0.0160800
711.878	0.0163079
711.956	0.0162670
712.034	0.0163662
712.112	0.0165030
712.190	0.0163465
712.268	0.0162399
712.346	0.0161967
712.424	0.0162269
712.503	0.0162518
712.581	0.0162353
712.659	0.0162637
712.737	0.0163311
712.815	0.0163396
712.893	0.0161351
712.971	0.0162196
713.049	0.0162589
713.128	0.0163580
713.206	0.0163023
713.284	0.0162057
713.362	0.0163191
713.440	0.0164838
713.518	0.0164959
713.596	0.0164082
713.674	0.0164590
713.753	0.0164539
713.831	0.0165147
713.909	0.0163683
713.987	0.0164004
714.065	0.0163364
714.143	0.0162475
714.221	0.0162961
714.299	0.0162112
714.378	0.0162260
714.456	0.0162006
714.534	0.0160953
714.612	0.0159769
714.690	0.0160739
714.768	0.0160517
714.846	0.0160324
714.924	0.0161091
715.003	0.0160328
715.081	0.0159882
715.159	0.0159819
715.237	0.0162458
715.315	0.0161189
715.393	0.0160593
715.471	0.0161864
715.549	0.0162102
715.628	0.0161940
715.706	0.0160986
715.784	0.0162621
715.862	0.0162293
715.940	0.0163972
716.018	0.0163171
716.096	0.0162387
716.174	0.0162850
716.253	0.0163605
716.331	0.0163302
716.409	0.0165002
716.487	0.0164090
716.565	0.0165208
716.643	0.0164323
716.721	0.0163787
716.799	0.0163837
716.878	0.0164861
716.956	0.0165740
717.034	0.0166228
717.112	0.0165907
717.190	0.0164671
717.268	0.0166457
717.346	0.0164948
717.424	0.0165389
717.503	0.0164115
717.581	0.0164304
717.659	0.0163927
717.737	0.0164053
717.815	0.0164332
717.893	0.0163725
717.971	0.0162753
718.049	0.0161607
718.128	0.0161996
718.206	0.0163569
718.284	0.0161942
718.362	0.0162241
718.440	0.0162325
718.518	0.0161143
718.596	0.0162047
718.674	0.0161921
718.753	0.0162743
718.831	0.0162318
718.909	0.0162385
718.987	0.0163014
719.065	0.0163731
719.143	0.0164330
719.221	0.0164003
719.299	0.0164313
719.378	0.0165395
719.456	0.0165910
719.534	0.0164895
719.612	0.0166162
719.690	0.0165611
719.768	0.0165131
719.846	0.0166360
719.924	0.0166217
720.003	0.0164445
720.081	0.0163792
720.159	0.0162642
720.237	0.0164062
720.315	0.0161450
720.393	0.0161076
720.471	0.0162344
720.549	0.0160783
720.628	0.0159323
720.706	0.0161137
720.784	0.0159927
720.862	0.0159272
720.940	0.0158532
721.018	0.0159563
721.096	0.0159789
721.174	0.0158623
721.253	0.0159047
721.331	0.0159431
721.409	0.0159518
721.487	0.0159737
721.565	0.0160176
721.643	0.0161459
721.721	0.0162112
721.799	0.0163280
721.878	0.0162859
721.956	0.0164050
722.034	0.0164032
722.112	0.0164709
722.190	0.0165215
722.268	0.0165811
722.346	0.0165813
722.424	0.0166846
722.503	0.0167051
722.581	0.0169584
722.659	0.0169353
722.737	0.0170093
722.815	0.0169915
722.893	0.0168539
722.971	0.0169167
723.049	0.0168237
723.128	0.0168639
723.206	0.0169903
723.284	0.0168726
723.362	0.0169065
723.440	0.0167142
723.518	0.0167262
723.596	0.0166616
723.674	0.0163449
723.753	0.0163187
723.831	0.0162122
723.909	0.0162667
723.987	0.0159679
724.065	0.0159361
724.143	0.0158499
724.221	0.0157693
724.299	0.0157104
724.378	0.0155496
724.456	0.0157903
724.534	0.0156454
724.612	0.0155820
724.690	0.0156040
724.768	0.0154651
724.846	0.0155673
724.924	0.0156974
725.003	0.0155793
725.081	0.0156992
725.159	0.0158897
725.237	0.0158221
725.315	0.0158894
725.393	0.0159026
725.471	0.0160382
725.549	0.0162598
725.628	0.0163078
725.706	0.0163910
725.784	0.0165744
725.862	0.0166848
725.940	0.0166698
726.018	0.0167567
726.096	0.0169051
726.174	0.0169521
726.253	0.0168148
726.331	0.0169014
726.409	0.0169922
726.487	0.0170042
726.565	0.0169299
726.643	0.0168987
726.721	0.0168244
726.799	0.0168829
726.878	0.0167772
726.956	0.0168630
727.034	0.0167163
727.112	0.0166375
727.190	0.0165067
727.268	0.0165700
727.346	0.0165234
727.424	0.0164143
727.503	0.0162144
727.581	0.0162453
727.659	0.0163197
727.737	0.0161760
727.815	0.0161532
727.893	0.0162605
727.971	0.0161605
728.049	0.0160652
728.128	0.0160480
728.206	0.0160680
728.284	0.0160343
728.362	0.0161584
728.440	0.0161997
728.518	0.0161800
728.596	0.0162697
728.674	0.0161922
728.753	0.0160578
728.831	0.0162753
728.909	0.0162818
728.987	0.0161478
729.065	0.0160393
729.143	0.0160598
729.221	0.0162080
729.299	0.0161975
729.378	0.0160490
729.456	0.0160431
729.534	0.0159992
729.612	0.0159935
729.690	0.0158920
729.768	0.0160650
729.846	0.0160703
729.924	0.0160276
730.003	0.0161682
730.081	0.0159996
730.159	0.0161115
730.237	0.0161106
730.315	0.0161222
730.393	0.0161559
730.471	0.0161951
730.549	0.0163207
730.628	0.0162748
730.706	0.0163631
730.784	0.0165258
730.862	0.0166750
730.940	0.0165791
731.018	0.0167146
731.096	0.0167205
731.174	0.0168082
731.253	0.0168666
731.331	0.0169245
731.409	0.0169130
731.487	0.0168644
731.565	0.0168219
731.643	0.0169209
731.721	0.0168640
731.799	0.0167366
731.878	0.0167689
731.956	0.0166711
732.034	0.0166487
732.112	0.0165947
732.190	0.0167379
732.268	0.0166465
732.346	0.0166860
732.424	0.0164968
732.503	0.0166100
732.581	0.0166445
732.659	0.0165169
732.737	0.0164541
732.815	0.0165527
732.893	0.0165231
732.971	0.0163913
733.049	0.0162251
733.128	0.0163007
733.206	0.0161346
733.284	0.0160045
733.362	0.0159263
733.440	0.0160046
733.518	0.0158714
733.596	0.0156791
733.674	0.0156541
733.753	0.0156684
733.831	0.0156635
733.909	0.0155375
733.987	0.0155356
734.065	0.0154240
734.143	0.0155389
734.221	0.0156263
734.299	0.0156291
734.378	0.0155515
734.456	0.0157375
734.534	0.0157751
734.612	0.0159716
734.690	0.0159741
734.768	0.0161110
734.846	0.0162697
734.924	0.0164397
735.003	0.0165651
735.081	0.0166695
735.159	0.0168089
735.237	0.0168348
735.315	0.0169392
735.393	0.0171530
735.471	0.0171448
735.549	0.0170969
735.628	0.0173384
735.706	0.0172308
735.784	0.0172056
735.862	0.0171387
735.940	0.0171474
736.018	0.0171375
736.096	0.0171914
736.174	0.0171651
736.253	0.0171447
736.331	0.0170499
736.409	0.0169364
736.487	0.0167751
736.565	0.0167601
736.643	0.0167245
736.721	0.0165285
736.799	0.0164960
736.878	0.0163833
736.956	0.0164294
737.034	0.0162273
737.112	0.0161355
737.190	0.0160652
737.268	0.0158828
737.346	0.0158738
737.424	0.0155685
737.503	0.0155082
737.581	0.0155573
737.659	0.0154803
737.737	0.0154236
737.815	0.0153201
737.893	0.0154218
737.971	0.0154828
738.049	0.0153767
738.128	0.0153250
738.206	0.0152939
738.284	0.0151663
738.362	0.0152927
738.440	0.0154203
738.518	0.0155050
738.596	0.0153036
738.674	0.0153136
738.753	0.0155579
738.831	0.0154117
738.909	0.0156352
738.987	0.0157681
739.065	0.0158619
739.143	0.0159009
739.221	0.0160156
739.299	0.0162254
739.378	0.0163731
739.456	0.0167001
739.534	0.0167012
739.612	0.0167723
739.690	0.0169364
739.768	0.0171152
739.846	0.0173038
739.924	0.0173523
740.003	0.0174055
740.081	0.0174715
740.159	0.0175279
740.237	0.0175785
740.315	0.0177470
740.393	0.0177435
740.471	0.0175979
740.549	0.0175336
740.628	0.0174290
740.706	0.0174720
740.784	0.0171991
740.862	0.0170982
740.940	0.0172341
741.018	0.0169135
741.096	0.0167700
741.174	0.0166965
741.253	0.0164056
741.331	0.0162003
741.409	0.0162129
741.487	0.0159778
741.565	0.0158850
741.643	0.0156274
741.721	0.0155701
741.799	0.0154694
741.878	0.0154193
741.956	0.0153676
742.034	0.0152913
742.112	0.0155161
742.190	0.0153842
742.268	0.0153450
742.346	0.0153901
742.424	0.0153173
742.503	0.0155031
742.581	0.0155330
742.659	0.0154638
742.737	0.0157502
742.815	0.0157232
742.893	0.0157686
742.971	0.0156882
743.049	0.0159936
743.128	0.0160034
743.206	0.0161024
743.284	0.0162299
743.362	0.0160819
743.440	0.0162323
743.518	0.0163016
743.596	0.0161685
743.674	0.0162930
743.753	0.0163173
743.831	0.0163427
743.909	0.0164491
743.987	0.0163696
744.065	0.0163612
744.143	0.0163026
744.221	0.0163243
744.299	0.0164493
744.378	0.0163408
744.456	0.0163740
744.534	0.0163544
744.612	0.0164442
744.690	0.0164388
744.768	0.0165854
744.846	0.0165765
744.924	0.0166894
745.003	0.0166381
745.081	0.0167156
745.159	0.0166976
745.237	0.0168110
745.315	0.0169286
745.393	0.0167914
745.471	0.0169042
745.549	0.0169431
745.628	0.0169126
745.706	0.0167429
745.784	0.0169032
745.862	0.0167360
745.940	0.0166828
746.018	0.0166854
746.096	0.0166776
746.174	0.0164809
746.253	0.0165501
746.331	0.0164304
746.409	0.0164053
746.487	0.0163427
746.565	0.0162350
746.643	0.0162234
746.721	0.0161705
746.799	0.0160859
746.878	0.0161550
746.956	0.0160760
747.034	0.0160270
747.112	0.0159999
747.190	0.0159594
747.268	0.0159393
747.346	0.0160188
747.424	0.0160674
747.503	0.0159394
747.581	0.0160135
747.659	0.0160564
747.737	0.0159989
747.815	0.0160242
747.893	0.0159481
747.971	0.0158900
748.049	0.0159753
748.128	0.0159445
748.206	0.0159795
748.284	0.0159457
748.362	0.0157600
748.440	0.0158961
748.518	0.0158566
748.596	0.0159712
748.674	0.0159518
748.753	0.0157574
748.831	0.0159399
748.909	0.0159420
748.987	0.0158052
749.065	0.0159390
749.143	0.0160271
749.221	0.0160688
749.299	0.0162181
749.378	0.0161510
749.456	0.0162459
749.534	0.0163983
749.612	0.0166135
749.690	0.0164518
749.768	0.0165550
749.846	0.0164893
749.924	0.0165750
750.003	0.0167578
750.081	0.0167596
750.159	0.0169358
750.237	0.0168862
750.315	0.0169279
750.393	0.0171615
750.471	0.0171323
750.549	0.0170577
750.628	0.0170341
750.706	0.0171152
750.784	0.0170970
750.862	0.0171638
750.940	0.0172196
751.018	0.0172407
751.096	0.0171516
751.174	0.0169344
751.253	0.0168305
751.331	0.0167294
751.409	0.0167727
751.487	0.0165176
751.565	0.0164570
751.643	0.0162019
751.721	0.0162280
751.799	0.0161730
751.878	0.0160697
751.956	0.0158801
752.034	0.0158540
752.112	0.0158312
752.190	0.0156106
752.268	0.0156006
752.346	0.0156583
752.424	0.0156372
752.503	0.0155443
752.581	0.0157625
752.659	0.0158682
752.737	0.0157423
752.815	0.0158204
752.893	0.0158741
752.971	0.0160101
753.049	0.0161276
753.128	0.0161031
753.206	0.0162224
753.284	0.0164159
753.362	0.0163861
753.440	0.0164789
753.518	0.0166067
753.596	0.0165889
753.674	0.0164980
753.753	0.0166243
753.831	0.0165559
753.909	0.0166508
753.987	0.0164854
754.065	0.0165708
754.143	0.0164535
754.221	0.0165192
754.299	0.0164761
754.378	0.0163985
754.456	0.0163099
754.534	0.0164259
754.612	0.0162944
754.690	0.0161895
754.768	0.0162790
754.846	0.0163081
754.924	0.0163287
755.003	0.0161858
755.081	0.0162053
755.159	0.0162955
755.237	0.0162659
755.315	0.0162923
755.393	0.0161551
755.471	0.0161117
755.549	0.0161790
755.628	0.0161369
755.706	0.0161674
755.784	0.0162035
755.862	0.0160569
755.940	0.0162065
756.018	0.0162604
756.096	0.0161771
756.174	0.0163333
756.253	0.0162859
756.331	0.0163243
756.409	0.0165546
756.487	0.0164479
756.565	0.0164967
756.643	0.0167086
756.721	0.0165862
756.799	0.0166616
756.878	0.0166923
756.956	0.0166741
757.034	0.0167148
757.112	0.0165755
757.190	0.0166051
757.268	0.0167559
757.346	0.0165254
757.424	0.0165820
757.503	0.0165620
757.581	0.0165359
757.659	0.0164504
757.737	0.0163065
757.815	0.0165740
757.893	0.0165446
757.971	0.0164024
758.049	0.0163977
758.128	0.0163814
758.206	0.0164307
758.284	0.0164183
758.362	0.0162901
758.440	0.0164480
758.518	0.0163744
758.596	0.0163137
758.674	0.0164665
758.753	0.0163362
758.831	0.0163944
758.909	0.0164182
758.987	0.0164584
759.065	0.0165128
759.143	0.0163512
759.221	0.0163071
759.299	0.0163307
759.378	0.0161535
759.456	0.0161125
759.534	0.0161150
759.612	0.0162213
759.690	0.0161638
759.768	0.0161301
759.846	0.0160260
759.924	0.0160811
760.003	0.0160397
760.081	0.0160653
760.159	0.0159120
760.237	0.0160271
760.315	0.0160741
760.393	0.0161158
760.471	0.0161880
760.549	0.0161539
760.628	0.0162364
760.706	0.0163371
760.784	0.0164550
760.862	0.0163668
760.940	0.0163249
761.018	0.0163316
761.096	0.0164365
761.174	0.0164557
761.253	0.0163659
761.331	0.0163359
761.409	0.0162966
761.487	0.0163760
761.565	0.0164152
761.643	0.0164137
761.721	0.0164919
761.799	0.0164999
761.878	0.0164893
761.956	0.0166134
762.034	0.0166954
762.112	0.0167871
762.190	0.0167157
762.268	0.0169127
762.346	0.0168139
762.424	0.0168272
762.503	0.0167902
762.581	0.0168843
762.659	0.0168880
762.737	0.0167574
762.815	0.0165759
762.893	0.0164944
762.971	0.0165666
763.049	0.0166148
763.128	0.0164776
763.206	0.0165359
763.284	0.0166766
763.362	0.0165093
763.440	0.0162444
763.518	0.0162266
763.596	0.0163588
763.674	0.0163162
763.753	0.0162401
763.831	0.0162005
763.909	0.0162312
763.987	0.0162202
764.065	0.0161108
764.143	0.0162501
764.221	0.0161101
764.299	0.0160111
764.378	0.0161773
764.456	0.0161884
764.534	0.0162153
764.612	0.0161447
764.690	0.0162048
764.768	0.0160770
764.846	0.0160169
764.924	0.0161909
765.003	0.0161542
765.081	0.0161220
765.159	0.0159387
765.237	0.0161238
765.315	0.0160995
765.393	0.0161620
765.471	0.0162286
765.549	0.0161161
765.628	0.0163114
765.706	0.0163152
765.784	0.0163985
765.862	0.0163521
765.940	0.0163236
766.018	0.0163191
766.096	0.0164120
766.174	0.0162846
766.253	0.0163713
766.331	0.0163854
766.409	0.0165722
766.487	0.0164458
766.565	0.0164668
766.643	0.0165345
766.721	0.0165022
766.799	0.0165298
766.878	0.0165380
766.956	0.0164672
767.034	0.0165803
767.112	0.0164145
767.190	0.0165754
767.268	0.0163379
767.346	0.0163357
767.424	0.0163025
767.503	0.0163791
767.581	0.0163548
767.659	0.0164380
767.737	0.0164964
767.815	0.0164610
767.893	0.0164479
767.971	0.0164793
768.049	0.0165511
768.128	0.0167223
768.206	0.0167630
768.284	0.0167026
768.362	0.0166911
768.440	0.0168719
768.518	0.0170311
768.596	0.0169849
768.674	0.0169781
768.753	0.0167223
768.831	0.0167955
768.909	0.0168888
768.987	0.0167905
769.065	0.0166823
769.143	0.0165243
769.221	0.0164777
769.299	0.0163551
769.378	0.0164739
769.456	0.0162650
769.534	0.0162715
769.612	0.0160967
769.690	0.0160447
769.768	0.0160712
769.846	0.0158492
769.924	0.0158234
770.003	0.0157341
770.081	0.0159162
770.159	0.0159582
770.237	0.0159253
770.315	0.0158788
770.393	0.0158228
770.471	0.0160831
770.549	0.0159634
770.628	0.0159824
770.706	0.0161813
770.784	0.0161406
770.862	0.0161990
770.940	0.0160477
771.018	0.0160850
771.096	0.0162661
771.174	0.0163375
771.253	0.0164127
771.331	0.0163336
771.409	0.0165240
771.487	0.0164967
771.565	0.0165980
771.643	0.0167422
771.721	0.0166074
771.799	0.0167193
771.878	0.0168413
771.956	0.0165726
772.034	0.0167188
772.112	0.0167821
772.190	0.0167491
772.268	0.0168201
772.346	0.0166031
772.424	0.0165588
772.503	0.0165705
772.581	0.0166061
772.659	0.0163987
772.737	0.0164402
772.815	0.0163461
772.893	0.0162781
772.971	0.0163141
773.049	0.0162035
773.128	0.0161238
773.206	0.0160332
773.284	0.0161108
773.362	0.0160430
773.440	0.0160438
773.518	0.0159923
773.596	0.0159538
773.674	0.0160552
773.753	0.0162132
773.831	0.0160702
773.909	0.0163012
773.987	0.0162855
774.065	0.0164435
774.143	0.0166290
774.221	0.0163773
774.299	0.0165873
774.378	0.0165548
774.456	0.0166971
774.534	0.0167010
774.612	0.0167774
774.690	0.0166609
774.768	0.0166339
774.846	0.0165672
774.924	0.0166947
775.003	0.0165211
775.081	0.0165139
775.159	0.0164750
775.237	0.0164223
775.315	0.0163208
775.393	0.0162155
775.471	0.0160860
775.549	0.0160731
775.628	0.0161922
775.706	0.0159814
775.784	0.0158878
775.862	0.0160390
775.940	0.0157586
776.018	0.0157458
776.096	0.0159274
776.174	0.0158581
776.253	0.0158005
776.331	0.0158810
776.409	0.0158799
776.487	0.0158669
776.565	0.0159381
776.643	0.0159470
776.721	0.0160973
776.799	0.0161854
776.878	0.0162422
776.956	0.0162449
777.034	0.0162749
777.112	0.0162959
777.190	0.0162550
777.268	0.0164561
777.346	0.0164311
777.424	0.0163885
777.503	0.0163840
777.581	0.0164233
777.659	0.0164338
777.737	0.0165443
777.815	0.0164133
777.893	0.0163607
777.971	0.0165015
778.049	0.0165624
778.128	0.0163550
778.206	0.0164238
778.284	0.0165350
778.362	0.0165321
778.440	0.0164135
778.518	0.0164434
778.596	0.0164427
778.674	0.0164131
778.753	0.0164024
778.831	0.0165025
778.909	0.0164767
778.987	0.0163689
779.065	0.0163232
779.143	0.0163744
779.221	0.0163538
779.299	0.0163440
779.378	0.0161765
779.456	0.0161886
779.534	0.0162894
779.612	0.0163268
779.690	0.0162134
779.768	0.0163235
779.846	0.0164230
779.924	0.0163604
780.003	0.0163724
780.081	0.0163918
780.159	0.0165195
780.237	0.0165254
780.315	0.0165542
780.393	0.0165816
780.471	0.0165518
780.549	0.0165591
780.628	0.0167134
780.706	0.0167290
780.784	0.0165449
780.862	0.0166998
780.940	0.0166663
781.018	0.0166192
781.096	0.0165484
781.174	0.0165588
781.253	0.0164233
781.331	0.0164299
781.409	0.0165298
781.487	0.0162827
781.565	0.0163158
781.643	0.0162658
781.721	0.0163142
781.799	0.0160329
781.878	0.0161042
781.956	0.0161055
782.034	0.0160417
782.112	0.0161198
782.190	0.0161681
782.268	0.0160491
782.346	0.0160706
782.424	0.0160915
782.503	0.0161829
782.581	0.0160130
782.659	0.0161901
782.737	0.0162223
782.815	0.0162154
782.893	0.0163751
782.971	0.0163301
783.049	0.0163941
783.128	0.0163943
783.206	0.0163667
783.284	0.0165382
783.362	0.0165851
783.440	0.0167387
783.518	0.0165692
783.596	0.0165704
783.674	0.0166092
783.753	0.0167915
783.831	0.0165900
783.909	0.0166034
783.987	0.0165302
784.065	0.0166219
784.143	0.0166595
784.221	0.0165343
784.299	0.0165527
784.378	0.0164262
784.456	0.0165823
784.534	0.0165314
784.612	0.0164330
784.690	0.0165400
784.768	0.0164095
784.846	0.0163375
784.924	0.0165534
785.003	0.0163763
785.081	0.0164240
785.159	0.0163455
785.237	0.0164247
785.315	0.0163189
785.393	0.0163404
785.471	0.0162726
785.549	0.0162141
785.628	0.0162350
785.706	0.0162489
785.784	0.0161812
785.862	0.0163306
785.940	0.0163418
786.018	0.0161358
786.096	0.0161860
786.174	0.0163299
786.253	0.0161734
786.331	0.0163319
786.409	0.0164086
786.487	0.0164941
786.565	0.0165621
786.643	0.0164944
786.721	0.0165493
786.799	0.0165041
786.878	0.0166069
786.956	0.0164928
787.034	0.0166217
787.112	0.0164578
787.190	0.0165240
787.268	0.0166048
787.346	0.0165569
787.424	0.0165132
787.503	0.0163533
787.581	0.0163334
787.659	0.0163580
787.737	0.0162525
787.815	0.0162902
787.893	0.0163425
787.971	0.0162378
788.049	0.0162511
788.128	0.0159705
788.206	0.0161140
788.284	0.0162103
788.362	0.0162440
788.440	0.0162675
788.518	0.0163138
788.596	0.0164080
788.674	0.0162811
788.753	0.0164133
788.831	0.0163572
788.909	0.0164337
788.987	0.0165866
789.065	0.0164576
789.143	0.0166848
789.221	0.0166497
789.299	0.0164880
789.378	0.0165277
789.456	0.0166483
789.534	0.0165643
789.612	0.0164431
789.690	0.0165878
789.768	0.0165497
789.846	0.0165707
789.924	0.0165830
790.003	0.0163877
790.081	0.0163716
790.159	0.0164034
790.237	0.0163145
790.315	0.0163316
790.393	0.0163882
790.471	0.0163715
790.549	0.0163309
790.628	0.0163199
790.706	0.0163387
790.784	0.0163228
790.862	0.0164027
790.940	0.0164398
791.018	0.0163136
791.096	0.0163519
791.174	0.0165294
791.253	0.0164817
791.331	0.0163950
791.409	0.0164129
791.487	0.0165553
791.565	0.0166328
791.643	0.0164571
791.721	0.0164359
791.799	0.0163829
791.878	0.0164374
791.956	0.0165304
792.034	0.0162827
792.112	0.0164124
792.190	0.0163647
792.268	0.0165486
792.346	0.0166170
792.424	0.0164026
792.503	0.0162720
792.581	0.0162955
792.659	0.0165051
792.737	0.0165865
792.815	0.0164848
792.893	0.0163603
792.971	0.0164257
793.049	0.0165504
793.128	0.0164257
793.206	0.0165187
793.284	0.0164773
793.362	0.0165276
793.440	0.0164500
793.518	0.0163118
793.596	0.0164030
793.674	0.0163782
793.753	0.0162164
793.831	0.0163363
793.909	0.0161643
793.987	0.0161850
794.065	0.0161790
794.143	0.0160288
794.221	0.0159855
794.299	0.0160183
794.378	0.0160438
794.456	0.0160408
794.534	0.0160143
794.612	0.0160368
794.690	0.0160878
794.768	0.0162389
794.846	0.0162047
794.924	0.0160875
795.003	0.0163454
795.081	0.0163828
795.159	0.0163957
795.237	0.0163583
795.315	0.0165039
795.393	0.0165139
795.471	0.0165792
795.549	0.0164614
795.628	0.0164589
795.706	0.0164481
795.784	0.0164775
795.862	0.0165927
795.940	0.0163956
796.018	0.0164756
796.096	0.0165229
796.174	0.0163399
796.253	0.0163428
796.331	0.0163820
796.409	0.0164017
796.487	0.0162563
796.565	0.0162679
796.643	0.0161395
796.721	0.0162672
796.799	0.0162339
796.878	0.0162978
796.956	0.0162151
797.034	0.0160905
797.112	0.0161855
797.190	0.0161788
797.268	0.0161630
797.346	0.0162210
797.424	0.0161449
797.503	0.0161775
797.581	0.0161026
797.659	0.0161703
797.737	0.0161823
797.815	0.0162283
797.893	0.0162095
797.971	0.0162376
798.049	0.0160874
798.128	0.0162156
798.206	0.0160867
798.284	0.0161943
798.362	0.0161488
798.440	0.0162308
798.518	0.0163769
798.596	0.0161840
798.674	0.0162101
798.753	0.0162698
798.831	0.0163327
798.909	0.0162742
798.987	0.0161761
799.065	0.0162459
799.143	0.0163544
799.221	0.0161477
799.299	0.0162733
799.378	0.0162035
799.456	0.0162901
799.534	0.0161866
799.612	0.0162090
799.690	0.0160871
799.768	0.0160699
799.846	0.0162164
799.924	0.0163081
800.003	0.0162469
800.081	0.0162600
800.159	0.0161647
800.237	0.0161513
800.315	0.0161736
800.393	0.0161227
800.471	0.0162547
800.549	0.0162817
800.628	0.0161659
800.706	0.0162594
800.784	0.0161515
800.862	0.0163866
800.940	0.0162453
801.018	0.0162417
801.096	0.0161848
801.174	0.0163938
801.253	0.0162515
801.331	0.0162183
801.409	0.0163152
801.487	0.0162218
801.565	0.0162094
801.643	0.0163600
801.721	0.0162703
801.799	0.0161597
801.878	0.0162588
801.956	0.0162382
802.034	0.0162502
802.112	0.0162758
802.190	0.0162060
802.268	0.0162387
802.346	0.0162531
802.424	0.0161069
802.503	0.0161973
802.581	0.0163404
802.659	0.0161168
802.737	0.0163261
802.815	0.0163111
802.893	0.0161176
802.971	0.0162189
803.049	0.0162041
803.128	0.0163719
803.206	0.0162180
803.284	0.0162696
803.362	0.0163702
803.440	0.0164272
803.518	0.0164354
803.596	0.0164189
803.674	0.0163514
803.753	0.0164141
803.831	0.0163568
803.909	0.0163818
803.987	0.0164317
804.065	0.0164222
804.143	0.0164626
804.221	0.0163405
804.299	0.0165334
804.378	0.0164680
804.456	0.0164227
804.534	0.0161993
804.612	0.0164273
804.690	0.0164178
804.768	0.0163233
804.846	0.0164291
804.924	0.0163698
805.003	0.0163410
805.081	0.0163697
805.159	0.0164568
805.237	0.0164482
805.315	0.0164016
805.393	0.0163785
805.471	0.0162588
805.549	0.0163831
805.628	0.0163153
805.706	0.0163265
805.784	0.0164720
805.862	0.0162798
805.940	0.0163559
806.018	0.0163651
806.096	0.0162379
806.174	0.0162942
806.253	0.0164396
806.331	0.0162653
806.409	0.0164747
806.487	0.0162226
806.565	0.0162350
806.643	0.0163591
806.721	0.0163068
806.799	0.0162000
806.878	0.0163691
806.956	0.0163796
807.034	0.0163848
807.112	0.0163012
807.190	0.0164014
807.268	0.0163857
807.346	0.0162600
807.424	0.0161485
807.503	0.0162074
807.581	0.0163884
807.659	0.0162854
807.737	0.0161751
807.815	0.0162532
807.893	0.0163245
807.971	0.0161856
808.049	0.0160821
808.128	0.0163219
808.206	0.0162082
808.284	0.0162293
808.362	0.0162628
808.440	0.0162296
808.518	0.0163531
808.596	0.0164021
808.674	0.0162714
808.753	0.0163947
808.831	0.0164511
808.909	0.0165673
808.987	0.0164942
809.065	0.0164520
809.143	0.0165001
809.221	0.0163720
809.299	0.0163698
809.378	0.0165014
809.456	0.0164223
809.534	0.0164705
809.612	0.0164758
809.690	0.0163657
809.768	0.0163864
809.846	0.0164459
809.924	0.0163350
810.003	0.0162616
810.081	0.0163105
810.159	0.0164407
810.237	0.0163129
810.315	0.0161942
810.393	0.0162020
810.471	0.0163377
810.549	0.0162992
810.628	0.0163757
810.706	0.0164024
810.784	0.0162592
810.862	0.0163226
810.940	0.0162105
811.018	0.0162675
811.096	0.0162434
811.174	0.0162945
811.253	0.0164819
811.331	0.0162582
811.409	0.0162909
811.487	0.0163917
811.565	0.0162614
811.643	0.0163062
811.721	0.0163005
811.799	0.0163377
811.878	0.0163055
811.956	0.0163178
812.034	0.0164046
812.112	0.0164793
812.190	0.0162334
812.268	0.0163210
812.346	0.0163512
812.424	0.0164410
812.503	0.0163715
812.581	0.0163222
812.659	0.0164113
812.737	0.0163604
812.815	0.0163056
812.893	0.0163809
812.971	0.0163474
813.049	0.0164709
813.128	0.0164246
813.206	0.0163069
813.284	0.0163824
813.362	0.0164955
813.440	0.0163087
813.518	0.0163172
813.596	0.0162505
813.674	0.0162341
813.753	0.0164503
813.831	0.0161785
813.909	0.0162337
813.987	0.0162156
814.065	0.0162408
814.143	0.0161810
814.221	0.0161613
814.299	0.0162070
814.378	0.0161668
814.456	0.0162148
814.534	0.0161794
814.612	0.0161906
814.690	0.0161989
814.768	0.0163773
814.846	0.0163391
814.924	0.0162670
815.003	0.0163481
815.081	0.0164258
815.159	0.0164851
815.237	0.0163885
815.315	0.0164920
815.393	0.0167210
815.471	0.0165653
815.549	0.0164713
815.628	0.0165090
815.706	0.0164799
815.784	0.0165649
815.862	0.0165021
815.940	0.0164756
816.018	0.0165079
816.096	0.0163963
816.174	0.0164587
816.253	0.0165730
816.331	0.0165717
816.409	0.0164680
816.487	0.0165034
816.565	0.0163456
816.643	0.0162519
816.721	0.0162896
816.799	0.0164675
816.878	0.0163937
816.956	0.0164645
817.034	0.0164414
817.112	0.0161921
817.190	0.0161316
817.268	0.0163204
817.346	0.0161951
817.424	0.0161192
817.503	0.0160580
817.581	0.0161964
817.659	0.0162897
817.737	0.0160453
817.815	0.0161227
817.893	0.0162421
817.971	0.0161211
818.049	0.0161893
818.128	0.0160606
818.206	0.0161475
818.284	0.0161341
818.362	0.0160646
818.440	0.0161301
818.518	0.0162275
818.596	0.0162851
818.674	0.0160825
818.753	0.0161869
818.831	0.0163493
818.909	0.0164906
818.987	0.0164011
819.065	0.0163753
819.143	0.0163999
819.221	0.0164843
819.299	0.0164961
819.378	0.0166440
819.456	0.0166216
819.534	0.0163277
819.612	0.0164079
819.690	0.0164284
819.768	0.0164282
819.846	0.0163880
819.924	0.0164959
820.003	0.0164066
820.081	0.0163466
820.159	0.0163210
820.237	0.0162492
820.315	0.0162083
820.393	0.0161062
820.471	0.0161239
820.549	0.0161613
820.628	0.0161495
820.706	0.0160582
820.784	0.0160857
820.862	0.0161123
820.940	0.0160683
821.018	0.0160669
821.096	0.0159644
821.174	0.0160532
821.253	0.0161341
821.331	0.0159467
821.409	0.0159644
821.487	0.0160403
821.565	0.0160842
821.643	0.0160151
821.721	0.0159594
821.799	0.0159705
821.878	0.0161250
821.956	0.0160957
822.034	0.0161478
822.112	0.0162066
822.190	0.0160944
822.268	0.0160899
822.346	0.0163028
822.424	0.0163279
822.503	0.0163106
822.581	0.0162433
822.659	0.0163043
822.737	0.0164501
822.815	0.0163277
822.893	0.0164561
822.971	0.0165188
823.049	0.0164207
823.128	0.0165211
823.206	0.0164162
823.284	0.0163857
823.362	0.0164917
823.440	0.0164733
823.518	0.0164502
823.596	0.0164933
823.674	0.0163619
823.753	0.0164788
823.831	0.0163901
823.909	0.0164418
823.987	0.0165719
824.065	0.0165360
824.143	0.0162705
824.221	0.0162591
824.299	0.0163595
824.378	0.0163361
824.456	0.0162149
824.534	0.0163842
824.612	0.0163879
824.690	0.0161703
824.768	0.0162801
824.846	0.0162749
824.924	0.0163018
825.003	0.0161829
825.081	0.0161932
825.159	0.0163321
825.237	0.0162917
825.315	0.0162402
825.393	0.0161872
825.471	0.0162569
825.549	0.0163726
825.628	0.0162376
825.706	0.0163490
825.784	0.0162822
825.862	0.0163577
825.940	0.0163020
826.018	0.0162800
826.096	0.0164056
826.174	0.0163370
826.253	0.0163131
826.331	0.0161127
826.409	0.0163903
826.487	0.0163189
826.565	0.0162099
826.643	0.0162158
826.721	0.0161572
826.799	0.0162841
826.878	0.0162671
826.956	0.0161912
827.034	0.0162910
827.112	0.0164166
827.190	0.0162930
827.268	0.0163899
827.346	0.0163553
827.424	0.0165066
827.503	0.0165807
827.581	0.0165285
827.659	0.0164638
827.737	0.0164615
827.815	0.0165824
827.893	0.0165686
827.971	0.0166081
828.049	0.0166962
828.128	0.0164059
828.206	0.0165884
828.284	0.0165671
828.362	0.0165482
828.440	0.0165567
828.518	0.0166411
828.596	0.0164929
828.674	0.0163911
828.753	0.0165681
828.831	0.0164840
828.909	0.0164928
828.987	0.0164301
829.065	0.0164302
829.143	0.0163315
829.221	0.0164670
829.299	0.0164536
829.378	0.0164561
829.456	0.0163998
829.534	0.0162256
829.612	0.0162605
829.690	0.0162272
829.768	0.0162939
829.846	0.0162868
829.924	0.0162811
830.003	0.0162415
830.081	0.0162224
830.159	0.0161835
830.237	0.0162236
830.315	0.0162037
830.393	0.0162485
830.471	0.0162400
830.549	0.0161066
830.628	0.0161476
830.706	0.0162415
830.784	0.0162030
830.862	0.0161543
830.940	0.0162036
831.018	0.0162077
831.096	0.0161825
831.174	0.0162378
831.253	0.0163385
831.331	0.0163724
831.409	0.0163249
831.487	0.0162511
831.565	0.0163183
831.643	0.0163937
831.721	0.0164090
831.799	0.0165391
831.878	0.0164814
831.956	0.0165427
832.034	0.0165861
832.112	0.0166222
832.190	0.0165682
832.268	0.0165358
832.346	0.0166328
832.424	0.0165868
832.503	0.0166634
832.581	0.0165372
832.659	0.0165737
832.737	0.0166271
832.815	0.0165527
832.893	0.0164614
832.971	0.0163928
833.049	0.0164889
833.128	0.0164148
833.206	0.0163986
833.284	0.0164977
833.362	0.0163602
833.440	0.0162307
833.518	0.0161918
833.596	0.0163180
833.674	0.0161728
833.753	0.0161530
833.831	0.0162241
833.909	0.0162159
833.987	0.0161673
834.065	0.0161829
834.143	0.0161854
834.221	0.0160793
834.299	0.0161400
834.378	0.0162873
834.456	0.0161592
834.534	0.0161808
834.612	0.0162029
834.690	0.0161359
834.768	0.0161863
834.846	0.0162686
834.924	0.0162806
835.003	0.0162621
835.081	0.0161391
835.159	0.0163166
835.237	0.0162818
835.315	0.0163805
835.393	0.0162553
835.471	0.0162859
835.549	0.0164549
835.628	0.0164224
835.706	0.0165479
835.784	0.0164464
835.862	0.0164818
835.940	0.0164188
836.018	0.0165421
836.096	0.0164708
836.174	0.0166404
836.253	0.0164939
836.331	0.0164558
836.409	0.0167187
836.487	0.0165604
836.565	0.0165491
836.643	0.0166146
836.721	0.0164482
836.799	0.0164619
836.878	0.0165945
836.956	0.0164867
837.034	0.0164274
837.112	0.0165779
837.190	0.0164475
837.268	0.0164437
837.346	0.0165999
837.424	0.0164314
837.503	0.0163893
837.581	0.0164476
837.659	0.0163790
837.737	0.0163602
837.815	0.0163774
837.893	0.0162453
837.971	0.0164145
838.049	0.0164386
838.128	0.0163906
838.206	0.0163057
838.284	0.0161295
838.362	0.0163403
838.440	0.0162452
838.518	0.0163077
838.596	0.0162549
838.674	0.0164428
838.753	0.0163010
838.831	0.0163501
838.909	0.0161754
838.987	0.0162560
839.065	0.0163511
839.143	0.0162730
839.221	0.0162978
839.299	0.0162260
839.378	0.0162737
839.456	0.0163650
839.534	0.0162438
839.612	0.0161652
839.690	0.0163312
839.768	0.0162211
839.846	0.0162762
839.924	0.0163210
840.003	0.0163010
840.081	0.0163145
840.159	0.0162826
840.237	0.0163537
840.315	0.0162743
840.393	0.0163483
840.471	0.0164034
840.549	0.0163184
840.628	0.0164579
840.706	0.0163326
840.784	0.0163867
840.862	0.0163741
840.940	0.0164064
841.018	0.0164606
841.096	0.0164073
841.174	0.0164191
841.253	0.0164182
841.331	0.0163377
841.409	0.0163749
841.487	0.0162626
841.565	0.0163085
841.643	0.0164606
841.721	0.0164779
841.799	0.0165274
841.878	0.0164030
841.956	0.0163770
842.034	0.0164285
842.112	0.0163566
842.190	0.0163165
842.268	0.0162919
842.346	0.0164108
842.424	0.0164426
842.503	0.0164420
842.581	0.0164945
842.659	0.0162491
842.737	0.0163414
842.815	0.0163785
842.893	0.0164059
842.971	0.0162212
843.049	0.0162416
843.128	0.0162657
843.206	0.0162140
843.284	0.0162322
843.362	0.0163931
843.440	0.0162972
843.518	0.0163401
843.596	0.0162868
843.674	0.0162215
843.753	0.0161959
843.831	0.0161224
843.909	0.0160711
843.987	0.0161128
844.065	0.0160806
844.143	0.0161883
844.221	0.0161292
844.299	0.0162415
844.378	0.0162465
844.456	0.0161668
844.534	0.0161407
844.612	0.0162624
844.690	0.0162069
844.768	0.0162710
844.846	0.0163522
844.924	0.0163599
845.003	0.0162921
845.081	0.0163112
845.159	0.0162933
845.237	0.0162351
845.315	0.0163390
845.393	0.0163058
845.471	0.0164601
845.549	0.0164082
845.628	0.0163453
845.706	0.0161794
845.784	0.0163384
845.862	0.0163024
845.940	0.0164051
846.018	0.0164110
846.096	0.0164444
846.174	0.0164462
846.253	0.0164439
846.331	0.0164764
846.409	0.0164991
846.487	0.0164673
846.565	0.0165510
846.643	0.0165286
846.721	0.0164979
846.799	0.0164393
846.878	0.0164805
846.956	0.0164466
847.034	0.0164670
847.112	0.0163860
847.190	0.0164186
847.268	0.0164186
847.346	0.0163571
847.424	0.0163907
847.503	0.0164272
847.581	0.0164632
847.659	0.0164845
847.737	0.0164894
847.815	0.0164178
847.893	0.0163641
847.971	0.0164751
848.049	0.0162823
848.128	0.0162489
848.206	0.0163000
848.284	0.0164002
848.362	0.0162473
848.440	0.0163387
848.518	0.0162091
848.596	0.0163368
848.674	0.0163020
848.753	0.0162318
848.831	0.0162147
848.909	0.0161998
848.987	0.0162779
849.065	0.0162162
849.143	0.0161946
849.221	0.0163145
849.299	0.0163414
849.378	0.0163533
849.456	0.0161712
849.534	0.0162761
849.612	0.0164156
849.690	0.0162233
849.768	0.0162572
849.846	0.0162286
849.924	0.0163565
850.003	0.0163525
850.081	0.0162551
850.159	0.0164314
850.237	0.0163082
850.315	0.0163749
850.393	0.0162620
850.471	0.0164069
850.549	0.0163462
850.628	0.0162840
850.706	0.0163219
850.784	0.0164011
850.862	0.0164343
850.940	0.0163700
851.018	0.0163806
851.096	0.0164668
851.174	0.0164448
851.253	0.0164148
851.331	0.0163240
851.409	0.0163688
851.487	0.0164061
851.565	0.0164579
851.643	0.0163599
851.721	0.0162746
851.799	0.0163226
851.878	0.0163432
851.956	0.0164471
852.034	0.0164209
852.112	0.0162702
852.190	0.0163717
852.268	0.0163790
852.346	0.0162344
852.424	0.0163033
852.503	0.0162680
852.581	0.0164656
852.659	0.0162592
852.737	0.0162654
852.815	0.0163354
852.893	0.0161897
852.971	0.0164120
853.049	0.0162806
853.128	0.0161705
853.206	0.0163365
853.284	0.0164069
853.362	0.0164429
853.440	0.0162082
853.518	0.0161861
853.596	0.0162978
853.674	0.0164054
853.753	0.0162721
853.831	0.0164616
853.909	0.0164137
853.987	0.0163365
854.065	0.0162711
854.143	0.0163051
854.221	0.0163002
854.299	0.0164164
854.378	0.0164005
854.456	0.0163667
854.534	0.0163454
854.612	0.0164031
854.690	0.0164008
854.768	0.0163257
854.846	0.0165395
854.924	0.0163715
855.003	0.0163524
855.081	0.0164257
855.159	0.0162163
855.237	0.0162129
855.315	0.0162897
855.393	0.0163962
855.471	0.0163577
855.549	0.0164207
855.628	0.0164697
855.706	0.0164429
855.784	0.0162587
855.862	0.0162535
855.940	0.0163789
856.018	0.0163072
856.096	0.0163278
856.174	0.0164145
856.253	0.0162437
856.331	0.0163763
856.409	0.0163251
856.487	0.0162307
856.565	0.0163737
856.643	0.0162839
856.721	0.0163405
856.799	0.0161876
856.878	0.0163036
856.956	0.0163086
857.034	0.0164355
857.112	0.0164354
857.190	0.0164038
857.268	0.0164741
857.346	0.0163796
857.424	0.0162984
857.503	0.0163832
857.581	0.0163394
857.659	0.0164104
857.737	0.0164160
857.815	0.0165514
857.893	0.0165580
857.971	0.0165285
858.049	0.0165104
858.128	0.0164030
858.206	0.0166053
858.284	0.0166398
858.362	0.0165284
858.440	0.0165917
858.518	0.0166480
858.596	0.0165673
858.674	0.0165054
858.753	0.0165501
858.831	0.0166263
858.909	0.0165233
858.987	0.0166589
859.065	0.0164928
859.143	0.0164742
859.221	0.0165755
859.299	0.0165796
859.378	0.0165771
859.456	0.0165528
859.534	0.0165976
859.612	0.0165296
859.690	0.0164465
859.768	0.0164934
859.846	0.0164638
859.924	0.0163060
860.003	0.0164165
860.081	0.0164660
860.159	0.0162782
860.237	0.0161008
860.315	0.0163834
860.393	0.0163104
860.471	0.0162132
860.549	0.0161909
860.628	0.0161351
860.706	0.0163401
860.784	0.0161586
860.862	0.0162622
860.940	0.0161777
861.018	0.0162136
861.096	0.0161994
861.174	0.0161243
861.253	0.0161020
861.331	0.0160374
861.409	0.0161671
861.487	0.0162337
861.565	0.0161536
861.643	0.0161793
861.721	0.0162142
861.799	0.0162589
861.878	0.0162731
861.956	0.0163485
862.034	0.0161619
862.112	0.0162038
862.190	0.0162003
862.268	0.0163617
862.346	0.0163733
862.424	0.0162870
862.503	0.0164410
862.581	0.0163374
862.659	0.0163535
862.737	0.0163495
862.815	0.0162658
862.893	0.0163697
862.971	0.0163638
863.049	0.0164043
863.128	0.0163464
863.206	0.0163903
863.284	0.0164732
863.362	0.0162653
863.440	0.0161952
863.518	0.0163226
863.596	0.0163581
863.674	0.0164254
863.753	0.0162080
863.831	0.0163118
863.909	0.0163291
863.987	0.0164240
864.065	0.0162466
864.143	0.0164298
864.221	0.0162963
864.299	0.0162741
864.378	0.0164203
864.456	0.0163409
864.534	0.0163841
864.612	0.0164581
864.690	0.0164083
864.768	0.0163847
864.846	0.0165596
864.924	0.0164264
865.003	0.0162937
865.081	0.0164839
865.159	0.0163889
865.237	0.0164089
865.315	0.0164124
865.393	0.0164041
865.471	0.0165192
865.549	0.0164236
865.628	0.0164261
865.706	0.0163998
865.784	0.0164628
865.862	0.0164593
865.940	0.0164814
866.018	0.0164509
866.096	0.0163824
866.174	0.0164344
866.253	0.0164327
866.331	0.0163094
866.409	0.0162463
866.487	0.0163524
866.565	0.0163525
866.643	0.0161887
866.721	0.0163104
866.799	0.0163962
866.878	0.0161929
866.956	0.0162061
867.034	0.0164407
867.112	0.0163140
867.190	0.0162480
867.268	0.0161366
867.346	0.0164260
867.424	0.0165024
867.503	0.0164861
867.581	0.0162628
867.659	0.0163900
867.737	0.0164222
867.815	0.0162144
867.893	0.0164981
867.971	0.0164444
868.049	0.0163916
868.128	0.0164629
868.206	0.0165308
868.284	0.0164381
868.362	0.0165349
868.440	0.0165192
868.518	0.0166215
868.596	0.0164395
868.674	0.0165710
868.753	0.0164807
868.831	0.0163467
868.909	0.0165006
868.987	0.0164608
869.065	0.0164927
869.143	0.0165002
869.221	0.0164321
869.299	0.0164534
869.378	0.0164711
869.456	0.0164223
869.534	0.0163850
869.612	0.0162565
869.690	0.0162374
869.768	0.0162768
869.846	0.0164030
869.924	0.0162032
870.003	0.0162136
870.081	0.0162785
870.159	0.0163905
870.237	0.0162634
870.315	0.0162782
870.393	0.0161418
870.471	0.0161852
870.549	0.0164810
870.628	0.0161445
870.706	0.0161402
870.784	0.0162355
870.862	0.0162466
870.940	0.0164162
871.018	0.0162763
871.096	0.0162160
871.174	0.0161613
871.253	0.0162149
871.331	0.0161536
871.409	0.0163162
871.487	0.0163280
871.565	0.0162168
871.643	0.0162830
871.721	0.0163473
871.799	0.0162315
871.878	0.0159686
871.956	0.0161459
872.034	0.0163493
872.112	0.0163464
872.190	0.0162349
872.268	0.0161868
872.346	0.0162934
872.424	0.0163781
872.503	0.0161874
872.581	0.0161987
872.659	0.0162601
872.737	0.0162949
872.815	0.0162812
872.893	0.0163208
872.971	0.0162517
873.049	0.0162579
873.128	0.0162587
873.206	0.0162364
873.284	0.0162858
873.362	0.0163266
873.440	0.0163147
873.518	0.0163503
873.596	0.0162205
873.674	0.0162680
873.753	0.0161176
873.831	0.0161723
873.909	0.0162444
873.987	0.0162127
874.065	0.0163421
874.143	0.0162118
874.221	0.0162177
874.299	0.0162040
874.378	0.0162794
874.456	0.0163475
874.534	0.0162943
874.612	0.0162415
874.690	0.0162148
874.768	0.0162906
874.846	0.0162923
874.924	0.0163686
875.003	0.0162754
875.081	0.0163378
875.159	0.0162570
875.237	0.0161781
875.315	0.0162960
875.393	0.0163248
875.471	0.0165240
875.549	0.0163129
875.628	0.0162210
875.706	0.0163825
875.784	0.0162888
875.862	0.0162813
875.940	0.0162204
876.018	0.0162733
876.096	0.0162341
876.174	0.0163638
876.253	0.0161779
876.331	0.0161607
876.409	0.0162802
876.487	0.0162265
876.565	0.0163189
876.643	0.0161649
876.721	0.0161846
876.799	0.0163366
876.878	0.0162146
876.956	0.0161044
877.034	0.0161453
877.112	0.0162908
877.190	0.0161812
877.268	0.0162315
877.346	0.0162301
877.424	0.0163372
877.503	0.0163535
877.581	0.0162535
877.659	0.0160848
877.737	0.0163037
877.815	0.0164200
877.893	0.0163302
877.971	0.0163177
878.049	0.0164471
878.128	0.0163148
878.206	0.0164212
878.284	0.0162578
878.362	0.0163029
878.440	0.0162821
878.518	0.0162085
878.596	0.0162693
878.674	0.0162560
878.753	0.0162990
878.831	0.0163587
878.909	0.0162988
878.987	0.0161329
879.065	0.0162894
879.143	0.0162622
879.221	0.0162952
879.299	0.0162697
879.378	0.0163343
879.456	0.0162822
879.534	0.0163074
879.612	0.0162932
879.690	0.0163680
879.768	0.0162125
879.846	0.0162128
879.924	0.0162952
880.003	0.0163795
880.081	0.0163444
880.159	0.0163091
880.237	0.0163246
880.315	0.0163648
880.393	0.0163875
880.471	0.0162781
880.549	0.0161828
880.628	0.0163495
880.706	0.0162703
880.784	0.0163506
880.862	0.0163013
880.940	0.0162998
881.018	0.0163359
881.096	0.0162974
881.174	0.0163100
881.253	0.0161604
881.331	0.0163316
881.409	0.0163705
881.487	0.0163509
881.565	0.0164496
881.643	0.0162550
881.721	0.0162341
881.799	0.0163213
881.878	0.0163950
881.956	0.0163168
882.034	0.0163992
882.112	0.0162708
882.190	0.0164299
882.268	0.0164675
882.346	0.0163768
882.424	0.0163694
882.503	0.0164351
882.581	0.0162270
882.659	0.0164330
882.737	0.0163644
882.815	0.0163120
882.893	0.0163694
882.971	0.0165125
883.049	0.0162761
883.128	0.0163879
883.206	0.0163328
883.284	0.0164169
883.362	0.0163448
883.440	0.0163019
883.518	0.0163156
883.596	0.0163688
883.674	0.0164654
883.753	0.0162508
883.831	0.0162510
883.909	0.0164505
883.987	0.0162425
884.065	0.0161870
884.143	0.0164600
884.221	0.0161838
884.299	0.0162819
884.378	0.0162872
884.456	0.0162793
884.534	0.0164629
884.612	0.0162795
884.690	0.0162893
884.768	0.0162729
884.846	0.0163506
884.924	0.0163783
885.003	0.0162585
885.081	0.0163694
885.159	0.0164574
885.237	0.0164091
885.315	0.0163829
885.393	0.0164385
885.471	0.0164880
885.549	0.0165578
885.628	0.0163148
885.706	0.0163046
885.784	0.0163889
885.862	0.0164308
885.940	0.0163293
886.018	0.0164374
886.096	0.0164087
886.174	0.0165044
886.253	0.0165618
886.331	0.0164098
886.409	0.0164082
886.487	0.0164066
886.565	0.0163154
886.643	0.0162365
886.721	0.0164191
886.799	0.0165193
886.878	0.0165280
886.956	0.0163448
887.034	0.0163192
887.112	0.0164665
887.190	0.0164693
887.268	0.0163249
887.346	0.0163712
887.424	0.0162947
887.503	0.0162834
887.581	0.0162831
887.659	0.0164363
887.737	0.0163245
887.815	0.0161954
887.893	0.0163267
887.971	0.0164060
888.049	0.0164148
888.128	0.0163647
888.206	0.0164656
888.284	0.0163425
888.362	0.0163448
888.440	0.0164583
888.518	0.0164359
888.596	0.0163702
888.674	0.0164674
888.753	0.0163716
888.831	0.0164034
888.909	0.0164272
888.987	0.0164021
889.065	0.0164606
889.143	0.0163898
889.221	0.0165369
889.299	0.0164029
889.378	0.0163074
889.456	0.0162964
889.534	0.0164871
889.612	0.0162835
889.690	0.0163496
889.768	0.0162977
889.846	0.0163048
889.924	0.0163068
890.003	0.0163683
890.081	0.0163068
890.159	0.0164288
890.237	0.0163401
890.315	0.0162688
890.393	0.0162985
890.471	0.0163107
890.549	0.0163480
890.628	0.0164818
890.706	0.0165006
890.784	0.0163922
890.862	0.0164200
890.940	0.0163263
891.018	0.0162953
891.096	0.0162801
891.174	0.0164382
891.253	0.0163959
891.331	0.0163116
891.409	0.0164842
891.487	0.0165284
891.565	0.0163398
891.643	0.0162418
891.721	0.0163857
891.799	0.0163025
891.878	0.0163973
891.956	0.0162502
892.034	0.0163921
892.112	0.0164156
892.190	0.0164581
892.268	0.0163139
892.346	0.0163381
892.424	0.0163059
892.503	0.0163461
892.581	0.0164233
892.659	0.0163785
892.737	0.0164185
892.815	0.0162389
892.893	0.0163371
892.971	0.0164178
893.049	0.0163860
893.128	0.0163168
893.206	0.0164414
893.284	0.0163323
893.362	0.0163599
893.440	0.0163105
893.518	0.0163711
893.596	0.0162164
893.674	0.0163467
893.753	0.0162569
893.831	0.0162540
893.909	0.0161833
893.987	0.0163342
894.065	0.0163788
894.143	0.0163734
894.221	0.0163911
894.299	0.0163655
894.378	0.0162856
894.456	0.0163909
894.534	0.0162797
894.612	0.0163299
894.690	0.0163670
894.768	0.0164297
894.846	0.0163158
894.924	0.0163699
895.003	0.0163469
895.081	0.0163812
895.159	0.0162733
895.237	0.0163304
895.315	0.0164257
895.393	0.0163109
895.471	0.0163441
895.549	0.0163114
895.628	0.0164057
895.706	0.0164046
895.784	0.0164521
895.862	0.0164757
895.940	0.0163047
896.018	0.0163339
896.096	0.0163277
896.174	0.0162403
896.253	0.0162760
896.331	0.0162103
896.409	0.0163602
896.487	0.0161832
896.565	0.0161577
896.643	0.0162434
896.721	0.0161407
896.799	0.0161197
896.878	0.0161629
896.956	0.0162747
897.034	0.0162827
897.112	0.0160267
897.190	0.0164301
897.268	0.0162274
897.346	0.0160188
897.424	0.0161994
897.503	0.0162823
897.581	0.0163900
897.659	0.0162315
897.737	0.0161926
897.815	0.0162729
897.893	0.0164252
897.971	0.0162059
898.049	0.0163062
898.128	0.0162614
898.206	0.0162963
898.284	0.0160125
898.362	0.0162465
898.440	0.0162457
898.518	0.0163289
898.596	0.0163339
898.674	0.0161899
898.753	0.0162222
898.831	0.0163498
898.909	0.0163278
898.987	0.0161622
899.065	0.0161900
899.143	0.0162847
899.221	0.0164295
899.299	0.0163328
899.378	0.0164144
899.456	0.0162854
899.534	0.0164229
899.612	0.0163519
899.690	0.0162970
899.768	0.0163290
899.846	0.0164678
899.924	0.0162544
900.003	0.0162276
900.081	0.0163004
900.159	0.0162865
900.237	0.0162916
900.315	0.0163736
900.393	0.0163648
900.471	0.0162542
900.549	0.0162867
900.628	0.0162178
900.706	0.0161646
900.784	0.0162958
900.862	0.0162955
900.940	0.0162955
901.018	0.0163267
901.096	0.0163279
901.174	0.0162468
901.253	0.0163188
901.331	0.0162690
901.409	0.0163012
901.487	0.0162523
901.565	0.0163193
901.643	0.0162997
901.721	0.0162870
901.799	0.0163139
901.878	0.0163404
901.956	0.0164314
902.034	0.0162791
902.112	0.0161763
902.190	0.0162810
902.268	0.0162406
902.346	0.0162442
902.424	0.0162360
902.503	0.0162406
902.581	0.0162583
902.659	0.0162588
902.737	0.0163184
902.815	0.0163348
902.893	0.0163308
902.971	0.0162451
903.049	0.0163670
903.128	0.0162913
903.206	0.0163302
903.284	0.0163628
903.362	0.0162910
903.440	0.0164784
903.518	0.0163274
903.596	0.0164109
903.674	0.0163641
903.753	0.0162691
903.831	0.0162104
903.909	0.0162753
903.987	0.0163412
904.065	0.0163374
904.143	0.0163615
904.221	0.0162561
904.299	0.0164181
904.378	0.0163216
904.456	0.0163608
904.534	0.0162770
904.612	0.0162178
904.690	0.0163395
904.768	0.0163234
904.846	0.0163264
904.924	0.0164290
905.003	0.0163069
905.081	0.0163684
905.159	0.0163754
905.237	0.0162943
905.315	0.0163433
905.393	0.0163905
905.471	0.0163618
905.549	0.0164181
905.628	0.0163618
905.706	0.0162480
905.784	0.0163454
905.862	0.0163656
905.940	0.0163975
906.018	0.0163845
906.096	0.0164888
906.174	0.0164394
906.253	0.0163959
906.331	0.0163649
906.409	0.0164935
906.487	0.0163795
906.565	0.0164392
906.643	0.0164178
906.721	0.0163404
906.799	0.0164053
906.878	0.0164688
906.956	0.0165197
907.034	0.0164742
907.112	0.0165373
907.190	0.0165691
907.268	0.0164193
907.346	0.0164709
907.424	0.0163953
907.503	0.0163464
907.581	0.0164469
907.659	0.0164384
907.737	0.0165034
907.815	0.0166004
907.893	0.0165581
907.971	0.0163978
908.049	0.0165434
908.128	0.0164455
908.206	0.0163877
908.284	0.0163451
908.362	0.0163815
908.440	0.0165228
908.518	0.0164072
908.596	0.0164570
908.674	0.0163844
908.753	0.0164954
908.831	0.0165285
908.909	0.0163943
908.987	0.0163908
909.065	0.0164809
909.143	0.0163329
909.221	0.0164333
909.299	0.0164624
909.378	0.0164644
909.456	0.0163599
909.534	0.0163944
909.612	0.0164568
909.690	0.0164520
909.768	0.0164050
909.846	0.0164293
909.924	0.0164588
910.003	0.0164159
910.081	0.0164991
910.159	0.0163705
910.237	0.0163706
910.315	0.0164012
910.393	0.0164970
910.471	0.0164309
910.549	0.0163677
910.628	0.0164636
910.706	0.0163854
910.784	0.0163745
910.862	0.0163635
910.940	0.0163136
911.018	0.0164050
911.096	0.0163391
911.174	0.0163675
911.253	0.0163118
911.331	0.0163787
911.409	0.0163519
911.487	0.0163886
911.565	0.0163832
911.643	0.0163433
911.721	0.0163403
911.799	0.0163878
911.878	0.0163422
911.956	0.0163004
912.034	0.0164034
912.112	0.0162552
912.190	0.0163303
912.268	0.0163196
912.346	0.0162816
912.424	0.0163077
912.503	0.0164263
912.581	0.0164063
912.659	0.0164359
912.737	0.0163680
912.815	0.0163937
912.893	0.0163057
912.971	0.0162834
913.049	0.0164080
913.128	0.0163910
913.206	0.0163013
913.284	0.0163927
913.362	0.0163619
913.440	0.0163138
913.518	0.0164581
913.596	0.0164874
913.674	0.0162377
913.753	0.0165267
913.831	0.0163371
913.909	0.0163808
913.987	0.0165288
914.065	0.0164513
914.143	0.0163345
914.221	0.0164238
914.299	0.0164552
914.378	0.0161487
914.456	0.0162704
914.534	0.0162466
914.612	0.0163224
914.690	0.0162946
914.768	0.0162725
914.846	0.0163163
914.924	0.0163085
915.003	0.0162073
915.081	0.0163245
915.159	0.0162832
915.237	0.0162173
915.315	0.0161816
915.393	0.0163523
915.471	0.0162778
915.549	0.0162854
915.628	0.0163203
915.706	0.0161759
915.784	0.0163134
915.862	0.0164077
915.940	0.0163651
916.018	0.0164667
916.096	0.0161509
916.174	0.0162555
916.253	0.0163356
916.331	0.0162592
916.409	0.0164371
916.487	0.0163143
916.565	0.0161997
916.643	0.0165254
916.721	0.0163017
916.799	0.0163129
916.878	0.0162529
916.956	0.0163373
917.034	0.0163831
917.112	0.0163474
917.190	0.0164075
917.268	0.0162682
917.346	0.0164176
917.424	0.0164301
917.503	0.0163580
917.581	0.0162367
917.659	0.0162802
917.737	0.0162480
917.815	0.0162557
917.893	0.0163048
917.971	0.0162357
918.049	0.0163349
918.128	0.0161830
918.206	0.0162281
918.284	0.0164078
918.362	0.0163361
918.440	0.0162358
918.518	0.0164003
918.596	0.0162724
918.674	0.0161838
918.753	0.0163489
918.831	0.0163470
918.909	0.0162129
918.987	0.0161813
919.065	0.0163254
919.143	0.0162368
919.221	0.0162404
919.299	0.0163347
919.378	0.0163223
919.456	0.0161286
919.534	0.0162282
919.612	0.0163709
919.690	0.0163095
919.768	0.0162279
919.846	0.0163495
919.924	0.0162344
920.003	0.0161697
920.081	0.0162701
920.159	0.0161837
920.237	0.0163144
920.315	0.0163108
920.393	0.0162857
920.471	0.0162663
920.549	0.0162170
920.628	0.0163133
920.706	0.0163059
920.784	0.0163268
920.862	0.0164132
920.940	0.0163385
921.018	0.0162406
921.096	0.0164398
921.174	0.0162543
921.253	0.0162264
921.331	0.0163898
921.409	0.0162354
921.487	0.0161970
921.565	0.0163216
921.643	0.0164203
921.721	0.0163170
921.799	0.0163775
921.878	0.0161832
921.956	0.0163446
922.034	0.0164360
922.112	0.0163995
922.190	0.0163467
922.268	0.0164301
922.346	0.0164312
922.424	0.0163629
922.503	0.0164072
922.581	0.0162913
922.659	0.0164977
922.737	0.0162727
922.815	0.0164750
922.893	0.0162935
922.971	0.0162586
923.049	0.0163577
923.128	0.0163428
923.206	0.0163058
923.284	0.0163798
923.362	0.0162603
923.440	0.0162840
923.518	0.0162599
923.596	0.0162689
923.674	0.0164133
923.753	0.0162870
923.831	0.0163988
923.909	0.0162718
923.987	0.0160574
924.065	0.0161561
924.143	0.0161985
924.221	0.0161902
924.299	0.0163121
924.378	0.0162456
924.456	0.0162289
924.534	0.0162799
924.612	0.0163390
924.690	0.0161805
924.768	0.0162656
924.846	0.0162585
924.924	0.0164201
925.003	0.0163734
925.081	0.0163390
925.159	0.0164710
925.237	0.0163811
925.315	0.0164496
925.393	0.0164719
925.471	0.0163326
925.549	0.0163970
925.628	0.0163956
925.706	0.0164003
925.784	0.0163554
925.862	0.0164737
925.940	0.0163058
926.018	0.0162658
926.096	0.0162770
926.174	0.0164604
926.253	0.0164216
926.331	0.0165508
926.409	0.0164495
926.487	0.0163876
926.565	0.0163669
926.643	0.0164753
926.721	0.0164702
926.799	0.0163843
926.878	0.0163762
926.956	0.0164030
927.034	0.0164062
927.112	0.0164393
927.190	0.0163386
927.268	0.0163400
927.346	0.0164311
927.424	0.0163443
927.503	0.0164606
927.581	0.0164263
927.659	0.0162701
927.737	0.0164289
927.815	0.0162917
927.893	0.0164243
927.971	0.0163893
928.049	0.0163917
928.128	0.0164014
928.206	0.0162381
928.284	0.0163612
928.362	0.0165226
928.440	0.0163818
928.518	0.0164500
928.596	0.0164571
928.674	0.0163651
928.753	0.0163757
928.831	0.0163093
928.909	0.0164394
928.987	0.0163213
929.065	0.0166551
929.143	0.0165042
929.221	0.0164267
929.299	0.0164229
929.378	0.0165034
929.456	0.0163976
929.534	0.0163305
929.612	0.0164070
929.690	0.0165204
929.768	0.0164465
929.846	0.0163637
929.924	0.0163118
930.003	0.0163894
930.081	0.0163451
930.159	0.0164937
930.237	0.0164052
930.315	0.0163117
930.393	0.0164942
930.471	0.0164821
930.549	0.0165209
930.628	0.0164706
930.706	0.0164657
930.784	0.0166587
930.862	0.0164007
930.940	0.0164635
931.018	0.0164889
931.096	0.0164314
931.174	0.0167122
931.253	0.0164693
931.331	0.0165002
931.409	0.0165897
931.487	0.0164735
931.565	0.0164447
931.643	0.0163552
931.721	0.0164291
931.799	0.0164426
931.878	0.0164628
931.956	0.0164223
932.034	0.0163699
932.112	0.0164355
932.190	0.0163292
932.268	0.0163533
932.346	0.0163785
932.424	0.0163667
932.503	0.0163007
932.581	0.0163514
932.659	0.0163348
932.737	0.0162358
932.815	0.0163280
932.893	0.0161511
932.971	0.0162635
933.049	0.0162458
933.128	0.0163033
933.206	0.0163880
933.284	0.0162816
933.362	0.0160996
933.440	0.0161581
933.518	0.0164005
933.596	0.0162740
933.674	0.0163716
933.753	0.0161783
933.831	0.0162595
933.909	0.0161835
933.987	0.0162650
934.065	0.0162223
934.143	0.0163367
934.221	0.0161767
934.299	0.0162325
934.378	0.0161948
934.456	0.0162378
934.534	0.0162876
934.612	0.0162859
934.690	0.0163213
934.768	0.0164137
934.846	0.0163516
934.924	0.0162766
935.003	0.0164447
935.081	0.0163630
935.159	0.0162466
935.237	0.0162408
935.315	0.0163908
935.393	0.0163434
935.471	0.0163543
935.549	0.0162326
935.628	0.0162782
935.706	0.0163680
935.784	0.0163971
935.862	0.0163113
935.940	0.0164851
936.018	0.0163748
936.096	0.0164564
936.174	0.0164736
936.253	0.0163670
936.331	0.0163758
936.409	0.0162962
936.487	0.0162848
936.565	0.0164684
936.643	0.0163946
936.721	0.0163842
936.799	0.0163522
936.878	0.0163441
936.956	0.0162211
937.034	0.0163355
937.112	0.0163812
937.190	0.0163885
937.268	0.0163496
937.346	0.0162804
937.424	0.0163200
937.503	0.0163762
937.581	0.0164152
937.659	0.0164845
937.737	0.0164211
937.815	0.0165354
937.893	0.0164931
937.971	0.0163716
938.049	0.0164634
938.128	0.0164437
938.206	0.0164362
938.284	0.0164108
938.362	0.0164017
938.440	0.0164487
938.518	0.0163862
938.596	0.0164730
938.674	0.0163848
938.753	0.0162718
938.831	0.0163431
938.909	0.0162610
938.987	0.0164314
939.065	0.0164489
939.143	0.0163167
939.221	0.0162881
939.299	0.0163853
939.378	0.0163259
939.456	0.0162950
939.534	0.0162372
939.612	0.0164003
939.690	0.0162862
939.768	0.0162054
939.846	0.0163155
939.924	0.0162815
940.003	0.0162385
940.081	0.0163349
940.159	0.0161697
940.237	0.0163309
940.315	0.0164078
940.393	0.0163303
940.471	0.0164149
940.549	0.0164130
940.628	0.0162288
940.706	0.0162366
940.784	0.0163066
940.862	0.0163103
940.940	0.0162665
941.018	0.0162323
941.096	0.0162326
941.174	0.0162901
941.253	0.0163265
941.331	0.0161234
941.409	0.0161272
941.487	0.0163254
941.565	0.0161262
941.643	0.0163169
941.721	0.0163369
941.799	0.0162250
941.878	0.0162717
941.956	0.0162532
942.034	0.0161688
942.112	0.0163602
942.190	0.0162888
942.268	0.0163003
942.346	0.0162487
942.424	0.0163831
942.503	0.0162068
942.581	0.0163696
942.659	0.0162606
942.737	0.0162228
942.815	0.0162092
942.893	0.0161798
942.971	0.0162469
943.049	0.0162994
943.128	0.0161724
943.206	0.0163807
943.284	0.0163206
943.362	0.0162105
943.440	0.0163255
943.518	0.0162646
943.596	0.0162403
943.674	0.0162240
943.753	0.0163712
943.831	0.0161757
943.909	0.0162183
943.987	0.0160962
944.065	0.0161744
944.143	0.0163165
944.221	0.0162817
944.299	0.0162460
944.378	0.0162524
944.456	0.0162338
944.534	0.0163551
944.612	0.0164426
944.690	0.0162587
944.768	0.0162999
944.846	0.0164259
944.924	0.0163815
945.003	0.0163682
945.081	0.0164017
945.159	0.0163951
945.237	0.0163420
945.315	0.0164091
945.393	0.0164777
945.471	0.0162999
945.549	0.0162630
945.628	0.0164465
945.706	0.0164532
945.784	0.0163462
945.862	0.0164133
945.940	0.0162856
946.018	0.0164152
946.096	0.0162984
946.174	0.0162678
946.253	0.0164372
946.331	0.0163216
946.409	0.0163982
946.487	0.0162061
946.565	0.0163959
946.643	0.0163660
946.721	0.0161711
946.799	0.0164166
946.878	0.0163248
946.956	0.0162667
947.034	0.0163649
947.112	0.0162910
947.190	0.0163401
947.268	0.0164439
947.346	0.0163059
947.424	0.0164409
947.503	0.0162694
947.581	0.0163397
947.659	0.0164030
947.737	0.0163299
947.815	0.0164831
947.893	0.0163723
947.971	0.0164161
948.049	0.0164189
948.128	0.0163951
948.206	0.0163573
948.284	0.0164297
948.362	0.0165347
948.440	0.0165422
948.518	0.0165215
948.596	0.0165027
948.674	0.0164603
948.753	0.0164297
948.831	0.0164621
948.909	0.0163190
948.987	0.0163761
949.065	0.0163546
949.143	0.0164016
949.221	0.0165273
949.299	0.0164774
949.378	0.0165193
949.456	0.0163061
949.534	0.0162956
949.612	0.0164227
949.690	0.0162988
949.768	0.0163682
949.846	0.0162826
949.924	0.0163247
