06/29/2022	23:17:26	Ver.	4.1	UNKNOWN
Optical Delay	630.002507	Delta X		0.078125	Sweeps	1	Scan Rate	0/0
Coordinates	Axis 1	NaN	Axis 2	NaN	Axis 3	NaN	Axis 4	NaN	Axis 5	NaN	Axis 6	0.000000
TX Power	0.000000	RX Power	0.000000

630.003	0.0161931
630.081	0.0162369
630.159	0.0162582
630.237	0.0160190
630.315	0.0162015
630.393	0.0162408
630.471	0.0160130
630.549	0.0161356
630.628	0.0160649
630.706	0.0161171
630.784	0.0161360
630.862	0.0161069
630.940	0.0161987
631.018	0.0162670
631.096	0.0162606
631.174	0.0161643
631.253	0.0161963
631.331	0.0163247
631.409	0.0162570
631.487	0.0163023
631.565	0.0161823
631.643	0.0161849
631.721	0.0160992
631.799	0.0161768
631.878	0.0162880
631.956	0.0161899
632.034	0.0160683
632.112	0.0162156
632.190	0.0162246
632.268	0.0163099
632.346	0.0161716
632.424	0.0161230
632.503	0.0161582
632.581	0.0162563
632.659	0.0160555
632.737	0.0161057
632.815	0.0161913
632.893	0.0162017
632.971	0.0160997
633.049	0.0161735
633.128	0.0161656
633.206	0.0162402
633.284	0.0162226
633.362	0.0162035
633.440	0.0161983
633.518	0.0162169
633.596	0.0162484
633.674	0.0161963
633.753	0.0162572
633.831	0.0162627
633.909	0.0162027
633.987	0.0162092
634.065	0.0161400
634.143	0.0162576
634.221	0.0163702
634.299	0.0161221
634.378	0.0161836
634.456	0.0161541
634.534	0.0161774
634.612	0.0162372
634.690	0.0160588
634.768	0.0162063
634.846	0.0161824
634.924	0.0162644
635.003	0.0162862
635.081	0.0161018
635.159	0.0160907
635.237	0.0160612
635.315	0.0161422
635.393	0.0160746
635.471	0.0162463
635.549	0.0162107
635.628	0.0162461
635.706	0.0162936
635.784	0.0161829
635.862	0.0160970
635.940	0.0162618
636.018	0.0162263
636.096	0.0161010
636.174	0.0160933
636.253	0.0162987
636.331	0.0161023
636.409	0.0161963
636.487	0.0162946
636.565	0.0161842
636.643	0.0162099
636.721	0.0161758
636.799	0.0162800
636.878	0.0163034
636.956	0.0160971
637.034	0.0161768
637.112	0.0160786
637.190	0.0161815
637.268	0.0162183
637.346	0.0161234
637.424	0.0162225
637.503	0.0163066
637.581	0.0161922
637.659	0.0161926
637.737	0.0161581
637.815	0.0162391
637.893	0.0163573
637.971	0.0162578
638.049	0.0162144
638.128	0.0161629
638.206	0.0162823
638.284	0.0162902
638.362	0.0162728
638.440	0.0162969
638.518	0.0163984
638.596	0.0162234
638.674	0.0162076
638.753	0.0161684
638.831	0.0162572
638.909	0.0162822
638.987	0.0162535
639.065	0.0161382
639.143	0.0161971
639.221	0.0161433
639.299	0.0163229
639.378	0.0161705
639.456	0.0160380
639.534	0.0160262
639.612	0.0162261
639.690	0.0162038
639.768	0.0161128
639.846	0.0161200
639.924	0.0161991
640.003	0.0161272
640.081	0.0162463
640.159	0.0162211
640.237	0.0162227
640.315	0.0161552
640.393	0.0161540
640.471	0.0161102
640.549	0.0160791
640.628	0.0162830
640.706	0.0160725
640.784	0.0161749
640.862	0.0160544
640.940	0.0161336
641.018	0.0162339
641.096	0.0162014
641.174	0.0161140
641.253	0.0161072
641.331	0.0162701
641.409	0.0160520
641.487	0.0161308
641.565	0.0161567
641.643	0.0161051
641.721	0.0161798
641.799	0.0161545
641.878	0.0161411
641.956	0.0161125
642.034	0.0161882
642.112	0.0161333
642.190	0.0162641
642.268	0.0161949
642.346	0.0160052
642.424	0.0159981
642.503	0.0162737
642.581	0.0161320
642.659	0.0162866
642.737	0.0162038
642.815	0.0162345
642.893	0.0160609
642.971	0.0162622
643.049	0.0161325
643.128	0.0161581
643.206	0.0161629
643.284	0.0161472
643.362	0.0162415
643.440	0.0161190
643.518	0.0162215
643.596	0.0162281
643.674	0.0162536
643.753	0.0162079
643.831	0.0161374
643.909	0.0161993
643.987	0.0161683
644.065	0.0161509
644.143	0.0161539
644.221	0.0161214
644.299	0.0161401
644.378	0.0161755
644.456	0.0160028
644.534	0.0163378
644.612	0.0161595
644.690	0.0161196
644.768	0.0161710
644.846	0.0162005
644.924	0.0162419
645.003	0.0162226
645.081	0.0162630
645.159	0.0161384
645.237	0.0161168
645.315	0.0163424
645.393	0.0162521
645.471	0.0163168
645.549	0.0161497
645.628	0.0162503
645.706	0.0163544
645.784	0.0162641
645.862	0.0162583
645.940	0.0161152
646.018	0.0162389
646.096	0.0163644
646.174	0.0162283
646.253	0.0162193
646.331	0.0162246
646.409	0.0162276
646.487	0.0162679
646.565	0.0163356
646.643	0.0163071
646.721	0.0161940
646.799	0.0164153
646.878	0.0162782
646.956	0.0162791
647.034	0.0162249
647.112	0.0161830
647.190	0.0162460
647.268	0.0162198
647.346	0.0163251
647.424	0.0161532
647.503	0.0161990
647.581	0.0162889
647.659	0.0163361
647.737	0.0162604
647.815	0.0160732
647.893	0.0162560
647.971	0.0162244
648.049	0.0161984
648.128	0.0162927
648.206	0.0161103
648.284	0.0162177
648.362	0.0164559
648.440	0.0161484
648.518	0.0162981
648.596	0.0163488
648.674	0.0162662
648.753	0.0161541
648.831	0.0163785
648.909	0.0162782
648.987	0.0161649
649.065	0.0163063
649.143	0.0161990
649.221	0.0161411
649.299	0.0162702
649.378	0.0162974
649.456	0.0162343
649.534	0.0163000
649.612	0.0162998
649.690	0.0162386
649.768	0.0161472
649.846	0.0162663
649.924	0.0161713
650.003	0.0161884
650.081	0.0161700
650.159	0.0162438
650.237	0.0163385
650.315	0.0162470
650.393	0.0160996
650.471	0.0161018
650.549	0.0162666
650.628	0.0161663
650.706	0.0162582
650.784	0.0161978
650.862	0.0161152
650.940	0.0162708
651.018	0.0162568
651.096	0.0162492
651.174	0.0162473
651.253	0.0161785
651.331	0.0161757
651.409	0.0162806
651.487	0.0161044
651.565	0.0162173
651.643	0.0162614
651.721	0.0161413
651.799	0.0161652
651.878	0.0162521
651.956	0.0161581
652.034	0.0162009
652.112	0.0161744
652.190	0.0161250
652.268	0.0161222
652.346	0.0161570
652.424	0.0161978
652.503	0.0159876
652.581	0.0161330
652.659	0.0161603
652.737	0.0160668
652.815	0.0160487
652.893	0.0161934
652.971	0.0161298
653.049	0.0161872
653.128	0.0161309
653.206	0.0160649
653.284	0.0162488
653.362	0.0161202
653.440	0.0161033
653.518	0.0160693
653.596	0.0162155
653.674	0.0161222
653.753	0.0161024
653.831	0.0161112
653.909	0.0161454
653.987	0.0161744
654.065	0.0159937
654.143	0.0160939
654.221	0.0161999
654.299	0.0161040
654.378	0.0161458
654.456	0.0161517
654.534	0.0161521
654.612	0.0161823
654.690	0.0162515
654.768	0.0162772
654.846	0.0162202
654.924	0.0161685
655.003	0.0163718
655.081	0.0160937
655.159	0.0162322
655.237	0.0161620
655.315	0.0162712
655.393	0.0162341
655.471	0.0162116
655.549	0.0162676
655.628	0.0160881
655.706	0.0162192
655.784	0.0162009
655.862	0.0160974
655.940	0.0161806
656.018	0.0161824
656.096	0.0162074
656.174	0.0162483
656.253	0.0162453
656.331	0.0161533
656.409	0.0162285
656.487	0.0162374
656.565	0.0161848
656.643	0.0162151
656.721	0.0163206
656.799	0.0160751
656.878	0.0162599
656.956	0.0163052
657.034	0.0160878
657.112	0.0162077
657.190	0.0162223
657.268	0.0162427
657.346	0.0162983
657.424	0.0161712
657.503	0.0162425
657.581	0.0162933
657.659	0.0162837
657.737	0.0162658
657.815	0.0162946
657.893	0.0161194
657.971	0.0161288
658.049	0.0162394
658.128	0.0161997
658.206	0.0161275
658.284	0.0163003
658.362	0.0162549
658.440	0.0161152
658.518	0.0160460
658.596	0.0162312
658.674	0.0160878
658.753	0.0161464
658.831	0.0162550
658.909	0.0161868
658.987	0.0161926
659.065	0.0160574
659.143	0.0161646
659.221	0.0162479
659.299	0.0160712
659.378	0.0161655
659.456	0.0162108
659.534	0.0162440
659.612	0.0161810
659.690	0.0162698
659.768	0.0160776
659.846	0.0160710
659.924	0.0162299
660.003	0.0162248
660.081	0.0162865
660.159	0.0161401
660.237	0.0162157
660.315	0.0161418
660.393	0.0161109
660.471	0.0162183
660.549	0.0163962
660.628	0.0161916
660.706	0.0162097
660.784	0.0161069
660.862	0.0161420
660.940	0.0161948
661.018	0.0162543
661.096	0.0161951
661.174	0.0163211
661.253	0.0162025
661.331	0.0161138
661.409	0.0161822
661.487	0.0162286
661.565	0.0163022
661.643	0.0162643
661.721	0.0163287
661.799	0.0162700
661.878	0.0162540
661.956	0.0162861
662.034	0.0162573
662.112	0.0161570
662.190	0.0162659
662.268	0.0162970
662.346	0.0162595
662.424	0.0162505
662.503	0.0161234
662.581	0.0162349
662.659	0.0163175
662.737	0.0162457
662.815	0.0163216
662.893	0.0162082
662.971	0.0162546
663.049	0.0163302
663.128	0.0163271
663.206	0.0162356
663.284	0.0162215
663.362	0.0161770
663.440	0.0162151
663.518	0.0161427
663.596	0.0163358
663.674	0.0162649
663.753	0.0161832
663.831	0.0162691
663.909	0.0162470
663.987	0.0161481
664.065	0.0162917
664.143	0.0163026
664.221	0.0162423
664.299	0.0161559
664.378	0.0161315
664.456	0.0161158
664.534	0.0161124
664.612	0.0161191
664.690	0.0161930
664.768	0.0161386
664.846	0.0162937
664.924	0.0161918
665.003	0.0161432
665.081	0.0162212
665.159	0.0161991
665.237	0.0162698
665.315	0.0163220
665.393	0.0162891
665.471	0.0162856
665.549	0.0162566
665.628	0.0162614
665.706	0.0163506
665.784	0.0160809
665.862	0.0162054
665.940	0.0162694
666.018	0.0161124
666.096	0.0163008
666.174	0.0162511
666.253	0.0161371
666.331	0.0161581
666.409	0.0161357
666.487	0.0161066
666.565	0.0162703
666.643	0.0162605
666.721	0.0160767
666.799	0.0162335
666.878	0.0162408
666.956	0.0160762
667.034	0.0161752
667.112	0.0160964
667.190	0.0161478
667.268	0.0160036
667.346	0.0161565
667.424	0.0160175
667.503	0.0160056
667.581	0.0161405
667.659	0.0162418
667.737	0.0161380
667.815	0.0161030
667.893	0.0159836
667.971	0.0161044
668.049	0.0161459
668.128	0.0159668
668.206	0.0160403
668.284	0.0160787
668.362	0.0161455
668.440	0.0160685
668.518	0.0160852
668.596	0.0160728
668.674	0.0160551
668.753	0.0160667
668.831	0.0161121
668.909	0.0161736
668.987	0.0160491
669.065	0.0161289
669.143	0.0161514
669.221	0.0162531
669.299	0.0161043
669.378	0.0160191
669.456	0.0160767
669.534	0.0159633
669.612	0.0161253
669.690	0.0162241
669.768	0.0161640
669.846	0.0160772
669.924	0.0160993
670.003	0.0161678
670.081	0.0162653
670.159	0.0158774
670.237	0.0160873
670.315	0.0160392
670.393	0.0161800
670.471	0.0160576
670.549	0.0160522
670.628	0.0161546
670.706	0.0161742
670.784	0.0161462
670.862	0.0161584
670.940	0.0161331
671.018	0.0160926
671.096	0.0162091
671.174	0.0161407
671.253	0.0161932
671.331	0.0162126
671.409	0.0160875
671.487	0.0161449
671.565	0.0162475
671.643	0.0162900
671.721	0.0161947
671.799	0.0161796
671.878	0.0162280
671.956	0.0162626
672.034	0.0163181
672.112	0.0161984
672.190	0.0162597
672.268	0.0163589
672.346	0.0163335
672.424	0.0163302
672.503	0.0162658
672.581	0.0162933
672.659	0.0162247
672.737	0.0162650
672.815	0.0163439
672.893	0.0162016
672.971	0.0162412
673.049	0.0163760
673.128	0.0162090
673.206	0.0161933
673.284	0.0163918
673.362	0.0163111
673.440	0.0162692
673.518	0.0161676
673.596	0.0162963
673.674	0.0162532
673.753	0.0162714
673.831	0.0163083
673.909	0.0162330
673.987	0.0161704
674.065	0.0163123
674.143	0.0162486
674.221	0.0162312
674.299	0.0161960
674.378	0.0162835
674.456	0.0163274
674.534	0.0163246
674.612	0.0163922
674.690	0.0162904
674.768	0.0162472
674.846	0.0162769
674.924	0.0161980
675.003	0.0163114
675.081	0.0163764
675.159	0.0163786
675.237	0.0164046
675.315	0.0161584
675.393	0.0162466
675.471	0.0163106
675.549	0.0161581
675.628	0.0162347
675.706	0.0161569
675.784	0.0162302
675.862	0.0160856
675.940	0.0161641
676.018	0.0164479
676.096	0.0162711
676.174	0.0163247
676.253	0.0163149
676.331	0.0162406
676.409	0.0162952
676.487	0.0162697
676.565	0.0163145
676.643	0.0162331
676.721	0.0162688
676.799	0.0162756
676.878	0.0161866
676.956	0.0163591
677.034	0.0162853
677.112	0.0161859
677.190	0.0162052
677.268	0.0162334
677.346	0.0161005
677.424	0.0162494
677.503	0.0162525
677.581	0.0162247
677.659	0.0160580
677.737	0.0160597
677.815	0.0162193
677.893	0.0162543
677.971	0.0162725
678.049	0.0162354
678.128	0.0162617
678.206	0.0161854
678.284	0.0162616
678.362	0.0161590
678.440	0.0162783
678.518	0.0161429
678.596	0.0161092
678.674	0.0161585
678.753	0.0161749
678.831	0.0163689
678.909	0.0162589
678.987	0.0162206
679.065	0.0163011
679.143	0.0162993
679.221	0.0163272
679.299	0.0162550
679.378	0.0161013
679.456	0.0161668
679.534	0.0164349
679.612	0.0163349
679.690	0.0162706
679.768	0.0162324
679.846	0.0161349
679.924	0.0161922
680.003	0.0164567
680.081	0.0162681
680.159	0.0161665
680.237	0.0162224
680.315	0.0163098
680.393	0.0162451
680.471	0.0162183
680.549	0.0162381
680.628	0.0163139
680.706	0.0163472
680.784	0.0161781
680.862	0.0163147
680.940	0.0164236
681.018	0.0161183
681.096	0.0163725
681.174	0.0163526
681.253	0.0163368
681.331	0.0164027
681.409	0.0163357
681.487	0.0163538
681.565	0.0162715
681.643	0.0164335
681.721	0.0162619
681.799	0.0163248
681.878	0.0162298
681.956	0.0162375
682.034	0.0162569
682.112	0.0163256
682.190	0.0162747
682.268	0.0163348
682.346	0.0164050
682.424	0.0162382
682.503	0.0162263
682.581	0.0163762
682.659	0.0163837
682.737	0.0162666
682.815	0.0162431
682.893	0.0163117
682.971	0.0163020
683.049	0.0164074
683.128	0.0162177
683.206	0.0161214
683.284	0.0161543
683.362	0.0162510
683.440	0.0162421
683.518	0.0162279
683.596	0.0162811
683.674	0.0162518
683.753	0.0162682
683.831	0.0161893
683.909	0.0161393
683.987	0.0163204
684.065	0.0162730
684.143	0.0163028
684.221	0.0161526
684.299	0.0163641
684.378	0.0163433
684.456	0.0162811
684.534	0.0162087
684.612	0.0162498
684.690	0.0162376
684.768	0.0163129
684.846	0.0162314
684.924	0.0163596
685.003	0.0162358
685.081	0.0163685
685.159	0.0163838
685.237	0.0161452
685.315	0.0162406
685.393	0.0161890
685.471	0.0164040
685.549	0.0163525
685.628	0.0162070
685.706	0.0164096
685.784	0.0163125
685.862	0.0162292
685.940	0.0162273
686.018	0.0163354
686.096	0.0162325
686.174	0.0163787
686.253	0.0162204
686.331	0.0162526
686.409	0.0162810
686.487	0.0161807
686.565	0.0162197
686.643	0.0162029
686.721	0.0163461
686.799	0.0162738
686.878	0.0161803
686.956	0.0161539
687.034	0.0162669
687.112	0.0161108
687.190	0.0161591
687.268	0.0163282
687.346	0.0162048
687.424	0.0162234
687.503	0.0161801
687.581	0.0162392
687.659	0.0162251
687.737	0.0161671
687.815	0.0161572
687.893	0.0162564
687.971	0.0162653
688.049	0.0161496
688.128	0.0161980
688.206	0.0161436
688.284	0.0162055
688.362	0.0161832
688.440	0.0162344
688.518	0.0161813
688.596	0.0162143
688.674	0.0162340
688.753	0.0161712
688.831	0.0162645
688.909	0.0162801
688.987	0.0160946
689.065	0.0161253
689.143	0.0161211
689.221	0.0163103
689.299	0.0161718
689.378	0.0162273
689.456	0.0160962
689.534	0.0162560
689.612	0.0161739
689.690	0.0161306
689.768	0.0161423
689.846	0.0162645
689.924	0.0160853
690.003	0.0160960
690.081	0.0161456
690.159	0.0162621
690.237	0.0161056
690.315	0.0160098
690.393	0.0160844
690.471	0.0161826
690.549	0.0160331
690.628	0.0161454
690.706	0.0161077
690.784	0.0160892
690.862	0.0161352
690.940	0.0161664
691.018	0.0161259
691.096	0.0160795
691.174	0.0160281
691.253	0.0161909
691.331	0.0161702
691.409	0.0161505
691.487	0.0161819
691.565	0.0161430
691.643	0.0162617
691.721	0.0160551
691.799	0.0160947
691.878	0.0161879
691.956	0.0160999
692.034	0.0160731
692.112	0.0162102
692.190	0.0162229
692.268	0.0160239
692.346	0.0159689
692.424	0.0160851
692.503	0.0160256
692.581	0.0160445
692.659	0.0160791
692.737	0.0159988
692.815	0.0160220
692.893	0.0160107
692.971	0.0159637
693.049	0.0159235
693.128	0.0159934
693.206	0.0159624
693.284	0.0160329
693.362	0.0159531
693.440	0.0159602
693.518	0.0160207
693.596	0.0161758
693.674	0.0161585
693.753	0.0159988
693.831	0.0159264
693.909	0.0160584
693.987	0.0161840
694.065	0.0161156
694.143	0.0161715
694.221	0.0162218
694.299	0.0162053
694.378	0.0161666
694.456	0.0162716
694.534	0.0161005
694.612	0.0162502
694.690	0.0162238
694.768	0.0161584
694.846	0.0163084
694.924	0.0162160
695.003	0.0160970
695.081	0.0160397
695.159	0.0160934
695.237	0.0160160
695.315	0.0160393
695.393	0.0160380
695.471	0.0159615
695.549	0.0161009
695.628	0.0160887
695.706	0.0158755
695.784	0.0160149
695.862	0.0160065
695.940	0.0160675
696.018	0.0159912
696.096	0.0160973
696.174	0.0160935
696.253	0.0160752
696.331	0.0160792
696.409	0.0162702
696.487	0.0163694
696.565	0.0163947
696.643	0.0163618
696.721	0.0162939
696.799	0.0164423
696.878	0.0162113
696.956	0.0162237
697.034	0.0164024
697.112	0.0163836
697.190	0.0163798
697.268	0.0162624
697.346	0.0164128
697.424	0.0162543
697.503	0.0161612
697.581	0.0164350
697.659	0.0161980
697.737	0.0162574
697.815	0.0161533
697.893	0.0162621
697.971	0.0162388
698.049	0.0161622
698.128	0.0162408
698.206	0.0162159
698.284	0.0162337
698.362	0.0162698
698.440	0.0164011
698.518	0.0163515
698.596	0.0162377
698.674	0.0162478
698.753	0.0162614
698.831	0.0162191
698.909	0.0163719
698.987	0.0164146
699.065	0.0162379
699.143	0.0163950
699.221	0.0163139
699.299	0.0163237
699.378	0.0163750
699.456	0.0164008
699.534	0.0164767
699.612	0.0162386
699.690	0.0163301
699.768	0.0164037
699.846	0.0163233
699.924	0.0163871
700.003	0.0163465
700.081	0.0164232
700.159	0.0161722
700.237	0.0163292
700.315	0.0161617
700.393	0.0162975
700.471	0.0162772
700.549	0.0162212
700.628	0.0161219
700.706	0.0161562
700.784	0.0162927
700.862	0.0161701
700.940	0.0161290
701.018	0.0160970
701.096	0.0163538
701.174	0.0162577
701.253	0.0161466
701.331	0.0162317
701.409	0.0163710
701.487	0.0162395
701.565	0.0162440
701.643	0.0162659
701.721	0.0163219
701.799	0.0162827
701.878	0.0161237
701.956	0.0162405
702.034	0.0162070
702.112	0.0161460
702.190	0.0163085
702.268	0.0163445
702.346	0.0162306
702.424	0.0163348
702.503	0.0164204
702.581	0.0164131
702.659	0.0163723
702.737	0.0164626
702.815	0.0163438
702.893	0.0163764
702.971	0.0163736
703.049	0.0162495
703.128	0.0164122
703.206	0.0163741
703.284	0.0163782
703.362	0.0163166
703.440	0.0161123
703.518	0.0161938
703.596	0.0162223
703.674	0.0162747
703.753	0.0162301
703.831	0.0162355
703.909	0.0160835
703.987	0.0163085
704.065	0.0160670
704.143	0.0160518
704.221	0.0161095
704.299	0.0160055
704.378	0.0161104
704.456	0.0163335
704.534	0.0161172
704.612	0.0160567
704.690	0.0160894
704.768	0.0162922
704.846	0.0163706
704.924	0.0163077
705.003	0.0162644
705.081	0.0162408
705.159	0.0161705
705.237	0.0160574
705.315	0.0163611
705.393	0.0162720
705.471	0.0162782
705.549	0.0162238
705.628	0.0161440
705.706	0.0162196
705.784	0.0161694
705.862	0.0163200
705.940	0.0163781
706.018	0.0161477
706.096	0.0161671
706.174	0.0162624
706.253	0.0162195
706.331	0.0162963
706.409	0.0163865
706.487	0.0163264
706.565	0.0163363
706.643	0.0164671
706.721	0.0164291
706.799	0.0164762
706.878	0.0164587
706.956	0.0164658
707.034	0.0165699
707.112	0.0166162
707.190	0.0165231
707.268	0.0165348
707.346	0.0164605
707.424	0.0164173
707.503	0.0166109
707.581	0.0164582
707.659	0.0163726
707.737	0.0163744
707.815	0.0161951
707.893	0.0162714
707.971	0.0162439
708.049	0.0161732
708.128	0.0161150
708.206	0.0159541
708.284	0.0160349
708.362	0.0160222
708.440	0.0161215
708.518	0.0160201
708.596	0.0160120
708.674	0.0160209
708.753	0.0160233
708.831	0.0161625
708.909	0.0159859
708.987	0.0161480
709.065	0.0162639
709.143	0.0161663
709.221	0.0161990
709.299	0.0162189
709.378	0.0161922
709.456	0.0162819
709.534	0.0162532
709.612	0.0162488
709.690	0.0161459
709.768	0.0161689
709.846	0.0163227
709.924	0.0164151
710.003	0.0163292
710.081	0.0162865
710.159	0.0162733
710.237	0.0161250
710.315	0.0161979
710.393	0.0163327
710.471	0.0163076
710.549	0.0163882
710.628	0.0164503
710.706	0.0164172
710.784	0.0164144
710.862	0.0162634
710.940	0.0163404
711.018	0.0163680
711.096	0.0163228
711.174	0.0163465
711.253	0.0162012
711.331	0.0162293
711.409	0.0162998
711.487	0.0162708
711.565	0.0161697
711.643	0.0161367
711.721	0.0162202
711.799	0.0161245
711.878	0.0160280
711.956	0.0160880
712.034	0.0159837
712.112	0.0160033
712.190	0.0160823
712.268	0.0160065
712.346	0.0160607
712.424	0.0160841
712.503	0.0160063
712.581	0.0162095
712.659	0.0161354
712.737	0.0162110
712.815	0.0161432
712.893	0.0161835
712.971	0.0162641
713.049	0.0163504
713.128	0.0161332
713.206	0.0161945
713.284	0.0162318
713.362	0.0163716
713.440	0.0163611
713.518	0.0163064
713.596	0.0161660
713.674	0.0162553
713.753	0.0163016
713.831	0.0161329
713.909	0.0160999
713.987	0.0161424
714.065	0.0161341
714.143	0.0162083
714.221	0.0161649
714.299	0.0160846
714.378	0.0160609
714.456	0.0161661
714.534	0.0160638
714.612	0.0161044
714.690	0.0161056
714.768	0.0160992
714.846	0.0161235
714.924	0.0161351
715.003	0.0161413
715.081	0.0160630
715.159	0.0160532
715.237	0.0160324
715.315	0.0161858
715.393	0.0159818
715.471	0.0161229
715.549	0.0161572
715.628	0.0160361
715.706	0.0161661
715.784	0.0162097
715.862	0.0164285
715.940	0.0162406
716.018	0.0162910
716.096	0.0163144
716.174	0.0165392
716.253	0.0163766
716.331	0.0164222
716.409	0.0164363
716.487	0.0164839
716.565	0.0164568
716.643	0.0164719
716.721	0.0162473
716.799	0.0162886
716.878	0.0162478
716.956	0.0161956
717.034	0.0161233
717.112	0.0160659
717.190	0.0159731
717.268	0.0160883
717.346	0.0160548
717.424	0.0159837
717.503	0.0158873
717.581	0.0157941
717.659	0.0158843
717.737	0.0156037
717.815	0.0156608
717.893	0.0156814
717.971	0.0157623
718.049	0.0156574
718.128	0.0156673
718.206	0.0156747
718.284	0.0158942
718.362	0.0157753
718.440	0.0157602
718.518	0.0158630
718.596	0.0158945
718.674	0.0158651
718.753	0.0159197
718.831	0.0159751
718.909	0.0160290
718.987	0.0161205
719.065	0.0162457
719.143	0.0162435
719.221	0.0163681
719.299	0.0164243
719.378	0.0164711
719.456	0.0163966
719.534	0.0165723
719.612	0.0165164
719.690	0.0165263
719.768	0.0164948
719.846	0.0164568
719.924	0.0164459
720.003	0.0163158
720.081	0.0163469
720.159	0.0163718
720.237	0.0163378
720.315	0.0163382
720.393	0.0163954
720.471	0.0161423
720.549	0.0160492
720.628	0.0161510
720.706	0.0162119
720.784	0.0161076
720.862	0.0161138
720.940	0.0160905
721.018	0.0161047
721.096	0.0160629
721.174	0.0160109
721.253	0.0160362
721.331	0.0160337
721.409	0.0160622
721.487	0.0160239
721.565	0.0160100
721.643	0.0160866
721.721	0.0161545
721.799	0.0160743
721.878	0.0160010
721.956	0.0160566
722.034	0.0161459
722.112	0.0161567
722.190	0.0161443
722.268	0.0163113
722.346	0.0161984
722.424	0.0162299
722.503	0.0162615
722.581	0.0162946
722.659	0.0164132
722.737	0.0163268
722.815	0.0164060
722.893	0.0164172
722.971	0.0165266
723.049	0.0166611
723.128	0.0166088
723.206	0.0164294
723.284	0.0164064
723.362	0.0165519
723.440	0.0166167
723.518	0.0166148
723.596	0.0166070
723.674	0.0164355
723.753	0.0164586
723.831	0.0163812
723.909	0.0160929
723.987	0.0162534
724.065	0.0160085
724.143	0.0158665
724.221	0.0158977
724.299	0.0157591
724.378	0.0157391
724.456	0.0157204
724.534	0.0156506
724.612	0.0157272
724.690	0.0155711
724.768	0.0156508
724.846	0.0156114
724.924	0.0156487
725.003	0.0158197
725.081	0.0157792
725.159	0.0158146
725.237	0.0159186
725.315	0.0160982
725.393	0.0161282
725.471	0.0160818
725.549	0.0162547
725.628	0.0164640
725.706	0.0165165
725.784	0.0166108
725.862	0.0166287
725.940	0.0167316
726.018	0.0168629
726.096	0.0169331
726.174	0.0170284
726.253	0.0170168
726.331	0.0169779
726.409	0.0171217
726.487	0.0170715
726.565	0.0170762
726.643	0.0168961
726.721	0.0170145
726.799	0.0169843
726.878	0.0168176
726.956	0.0167403
727.034	0.0167718
727.112	0.0165646
727.190	0.0165647
727.268	0.0165043
727.346	0.0164408
727.424	0.0163131
727.503	0.0161263
727.581	0.0161023
727.659	0.0159367
727.737	0.0158916
727.815	0.0156816
727.893	0.0158028
727.971	0.0156236
728.049	0.0154844
728.128	0.0157063
728.206	0.0154343
728.284	0.0154384
728.362	0.0152920
728.440	0.0154044
728.518	0.0153643
728.596	0.0153929
728.674	0.0152751
728.753	0.0154185
728.831	0.0155791
728.909	0.0155322
728.987	0.0157071
729.065	0.0158009
729.143	0.0158604
729.221	0.0159610
729.299	0.0161372
729.378	0.0162289
729.456	0.0164597
729.534	0.0165977
729.612	0.0166272
729.690	0.0166644
729.768	0.0168427
729.846	0.0169103
729.924	0.0168924
730.003	0.0168890
730.081	0.0170489
730.159	0.0170934
730.237	0.0169594
730.315	0.0169463
730.393	0.0169972
730.471	0.0169507
730.549	0.0168774
730.628	0.0166154
730.706	0.0166528
730.784	0.0166264
730.862	0.0165314
730.940	0.0165189
731.018	0.0163781
731.096	0.0162825
731.174	0.0161576
731.253	0.0162287
731.331	0.0160881
731.409	0.0158332
731.487	0.0160349
731.565	0.0160098
731.643	0.0159743
731.721	0.0159666
731.799	0.0159164
731.878	0.0157362
731.956	0.0160698
732.034	0.0160531
732.112	0.0159903
732.190	0.0160038
732.268	0.0161143
732.346	0.0161177
732.424	0.0161976
732.503	0.0162893
732.581	0.0162758
732.659	0.0163083
732.737	0.0163659
732.815	0.0163740
732.893	0.0163844
732.971	0.0163258
733.049	0.0165541
733.128	0.0164428
733.206	0.0164191
733.284	0.0163432
733.362	0.0162504
733.440	0.0160382
733.518	0.0161102
733.596	0.0161391
733.674	0.0160806
733.753	0.0160017
733.831	0.0158029
733.909	0.0157331
733.987	0.0156503
734.065	0.0156924
734.143	0.0157191
734.221	0.0155991
734.299	0.0154882
734.378	0.0156385
734.456	0.0156095
734.534	0.0157654
734.612	0.0156327
734.690	0.0155238
734.768	0.0157394
734.846	0.0158817
734.924	0.0157326
735.003	0.0157767
735.081	0.0159586
735.159	0.0159829
735.237	0.0159499
735.315	0.0161349
735.393	0.0161837
735.471	0.0162936
735.549	0.0164368
735.628	0.0165028
735.706	0.0165642
735.784	0.0165343
735.862	0.0168231
735.940	0.0167101
736.018	0.0169324
736.096	0.0168317
736.174	0.0168521
736.253	0.0169827
736.331	0.0170277
736.409	0.0168924
736.487	0.0169859
736.565	0.0171001
736.643	0.0170046
736.721	0.0169703
736.799	0.0168480
736.878	0.0169852
736.956	0.0169137
737.034	0.0166188
737.112	0.0166161
737.190	0.0164552
737.268	0.0164446
737.346	0.0164386
737.424	0.0162109
737.503	0.0161142
737.581	0.0159807
737.659	0.0158668
737.737	0.0158022
737.815	0.0156879
737.893	0.0155878
737.971	0.0155589
738.049	0.0154564
738.128	0.0153755
738.206	0.0152826
738.284	0.0151553
738.362	0.0151849
738.440	0.0151764
738.518	0.0151525
738.596	0.0150594
738.674	0.0150547
738.753	0.0151164
738.831	0.0153516
738.909	0.0153837
738.987	0.0154072
739.065	0.0154182
739.143	0.0156078
739.221	0.0158537
739.299	0.0159289
739.378	0.0160423
739.456	0.0162476
739.534	0.0164646
739.612	0.0166337
739.690	0.0168252
739.768	0.0169037
739.846	0.0170016
739.924	0.0171230
740.003	0.0173664
740.081	0.0174031
740.159	0.0174254
740.237	0.0175332
740.315	0.0174968
740.393	0.0174862
740.471	0.0175668
740.549	0.0175958
740.628	0.0173694
740.706	0.0172321
740.784	0.0172157
740.862	0.0172278
740.940	0.0168931
741.018	0.0169121
741.096	0.0166921
741.174	0.0165810
741.253	0.0162801
741.331	0.0163029
741.409	0.0161558
741.487	0.0159799
741.565	0.0158479
741.643	0.0157068
741.721	0.0155293
741.799	0.0154307
741.878	0.0154239
741.956	0.0155531
742.034	0.0153293
742.112	0.0153040
742.190	0.0154765
742.268	0.0154865
742.346	0.0154348
742.424	0.0155106
742.503	0.0154200
742.581	0.0155340
742.659	0.0155473
742.737	0.0155974
742.815	0.0155294
742.893	0.0156395
742.971	0.0157555
743.049	0.0157614
743.128	0.0157195
743.206	0.0157436
743.284	0.0158192
743.362	0.0158918
743.440	0.0160242
743.518	0.0159268
743.596	0.0157695
743.674	0.0160618
743.753	0.0159869
743.831	0.0161011
743.909	0.0161442
743.987	0.0164081
744.065	0.0163602
744.143	0.0164212
744.221	0.0165380
744.299	0.0164320
744.378	0.0166280
744.456	0.0168668
744.534	0.0168426
744.612	0.0168302
744.690	0.0168116
744.768	0.0169473
744.846	0.0168779
744.924	0.0168311
745.003	0.0168304
745.081	0.0168777
745.159	0.0168189
745.237	0.0168082
745.315	0.0166266
745.393	0.0165784
745.471	0.0164967
745.549	0.0164485
745.628	0.0163541
745.706	0.0162606
745.784	0.0162667
745.862	0.0163848
745.940	0.0161510
746.018	0.0162030
746.096	0.0159973
746.174	0.0160777
746.253	0.0159496
746.331	0.0160454
746.409	0.0159106
746.487	0.0160029
746.565	0.0160226
746.643	0.0160606
746.721	0.0160759
746.799	0.0160818
746.878	0.0159476
746.956	0.0159383
747.034	0.0160206
747.112	0.0161575
747.190	0.0160335
747.268	0.0162392
747.346	0.0162430
747.424	0.0162011
747.503	0.0160770
747.581	0.0160994
747.659	0.0160938
747.737	0.0160921
747.815	0.0161581
747.893	0.0161304
747.971	0.0161068
748.049	0.0162416
748.128	0.0161443
748.206	0.0162971
748.284	0.0162337
748.362	0.0163928
748.440	0.0162612
748.518	0.0161975
748.596	0.0161949
748.674	0.0163905
748.753	0.0163257
748.831	0.0162360
748.909	0.0164147
748.987	0.0163515
749.065	0.0163568
749.143	0.0162556
749.221	0.0162424
749.299	0.0162935
749.378	0.0161250
749.456	0.0161593
749.534	0.0162798
749.612	0.0161597
749.690	0.0161921
749.768	0.0161369
749.846	0.0163249
749.924	0.0161922
750.003	0.0162607
750.081	0.0164207
750.159	0.0164150
750.237	0.0165989
750.315	0.0164493
750.393	0.0165338
750.471	0.0167126
750.549	0.0167159
750.628	0.0167258
750.706	0.0167035
750.784	0.0168398
750.862	0.0168987
750.940	0.0167972
751.018	0.0168584
751.096	0.0168167
751.174	0.0167486
751.253	0.0166998
751.331	0.0166402
751.409	0.0166680
751.487	0.0166238
751.565	0.0165205
751.643	0.0165451
751.721	0.0163731
751.799	0.0162434
751.878	0.0162187
751.956	0.0162234
752.034	0.0161507
752.112	0.0161354
752.190	0.0160788
752.268	0.0159711
752.346	0.0159267
752.424	0.0157967
752.503	0.0157061
752.581	0.0157498
752.659	0.0157475
752.737	0.0155112
752.815	0.0156682
752.893	0.0157408
752.971	0.0157274
753.049	0.0155817
753.128	0.0156458
753.206	0.0156387
753.284	0.0156249
753.362	0.0157277
753.440	0.0158601
753.518	0.0158065
753.596	0.0159147
753.674	0.0159840
753.753	0.0158506
753.831	0.0160744
753.909	0.0160679
753.987	0.0160204
754.065	0.0159858
754.143	0.0160712
754.221	0.0159723
754.299	0.0159402
754.378	0.0161537
754.456	0.0160065
754.534	0.0160767
754.612	0.0162102
754.690	0.0160069
754.768	0.0160420
754.846	0.0159220
754.924	0.0160208
755.003	0.0160143
755.081	0.0160204
755.159	0.0160909
755.237	0.0162465
755.315	0.0162515
755.393	0.0162710
755.471	0.0162051
755.549	0.0164006
755.628	0.0163460
755.706	0.0164163
755.784	0.0166012
755.862	0.0164925
755.940	0.0165854
756.018	0.0167020
756.096	0.0165793
756.174	0.0166312
756.253	0.0167604
756.331	0.0168768
756.409	0.0166294
756.487	0.0167067
756.565	0.0166241
756.643	0.0165981
756.721	0.0166055
756.799	0.0164577
756.878	0.0163567
756.956	0.0162990
757.034	0.0162278
757.112	0.0160397
757.190	0.0159458
757.268	0.0158264
757.346	0.0158228
757.424	0.0157288
757.503	0.0156100
757.581	0.0156558
757.659	0.0154629
757.737	0.0154728
757.815	0.0154778
757.893	0.0153777
757.971	0.0155770
758.049	0.0154044
758.128	0.0155460
758.206	0.0156396
758.284	0.0157819
758.362	0.0157612
758.440	0.0158568
758.518	0.0157394
758.596	0.0158772
758.674	0.0160663
758.753	0.0160732
758.831	0.0161206
758.909	0.0162508
758.987	0.0162662
759.065	0.0163270
759.143	0.0163073
759.221	0.0163850
759.299	0.0163271
759.378	0.0162260
759.456	0.0162167
759.534	0.0161664
759.612	0.0161867
759.690	0.0162492
759.768	0.0161011
759.846	0.0162221
759.924	0.0160690
760.003	0.0161713
760.081	0.0162715
760.159	0.0160790
760.237	0.0161164
760.315	0.0162488
760.393	0.0161690
760.471	0.0161693
760.549	0.0162530
760.628	0.0162651
760.706	0.0163992
760.784	0.0162687
760.862	0.0163826
760.940	0.0162902
761.018	0.0162780
761.096	0.0163345
761.174	0.0163039
761.253	0.0163509
761.331	0.0163106
761.409	0.0163033
761.487	0.0163436
761.565	0.0163165
761.643	0.0163476
761.721	0.0164186
761.799	0.0163770
761.878	0.0163351
761.956	0.0162730
762.034	0.0163406
762.112	0.0163378
762.190	0.0163604
762.268	0.0162811
762.346	0.0162874
762.424	0.0163071
762.503	0.0163601
762.581	0.0162669
762.659	0.0162752
762.737	0.0162252
762.815	0.0162082
762.893	0.0160845
762.971	0.0160091
763.049	0.0161060
763.128	0.0161613
763.206	0.0161529
763.284	0.0161295
763.362	0.0161637
763.440	0.0160030
763.518	0.0158780
763.596	0.0161195
763.674	0.0160542
763.753	0.0159679
763.831	0.0159328
763.909	0.0161019
763.987	0.0161044
764.065	0.0159820
764.143	0.0161547
764.221	0.0160808
764.299	0.0162080
764.378	0.0161691
764.456	0.0162556
764.534	0.0161777
764.612	0.0162455
764.690	0.0160115
764.768	0.0162316
764.846	0.0162475
764.924	0.0162132
765.003	0.0161514
765.081	0.0162390
765.159	0.0162272
765.237	0.0161126
765.315	0.0160563
765.393	0.0162526
765.471	0.0162653
765.549	0.0161674
765.628	0.0161980
765.706	0.0161695
765.784	0.0162587
765.862	0.0161902
765.940	0.0162095
766.018	0.0162348
766.096	0.0163464
766.174	0.0162494
766.253	0.0162935
766.331	0.0163051
766.409	0.0164473
766.487	0.0163848
766.565	0.0162618
766.643	0.0165833
766.721	0.0164205
766.799	0.0163087
766.878	0.0163767
766.956	0.0165118
767.034	0.0164445
767.112	0.0164291
767.190	0.0164392
767.268	0.0164441
767.346	0.0164668
767.424	0.0164534
767.503	0.0163577
767.581	0.0164130
767.659	0.0162360
767.737	0.0163281
767.815	0.0163357
767.893	0.0162436
767.971	0.0162779
768.049	0.0162869
768.128	0.0162290
768.206	0.0161438
768.284	0.0161919
768.362	0.0162877
768.440	0.0162186
768.518	0.0161787
768.596	0.0161327
768.674	0.0162055
768.753	0.0162473
768.831	0.0163628
768.909	0.0162799
768.987	0.0163006
769.065	0.0161853
769.143	0.0162321
769.221	0.0162920
769.299	0.0162382
769.378	0.0163869
769.456	0.0162711
769.534	0.0161580
769.612	0.0163692
769.690	0.0163797
769.768	0.0162755
769.846	0.0161648
769.924	0.0161913
770.003	0.0162951
770.081	0.0163716
770.159	0.0162769
770.237	0.0162140
770.315	0.0163674
770.393	0.0163054
770.471	0.0163619
770.549	0.0163821
770.628	0.0162600
770.706	0.0162416
770.784	0.0164211
770.862	0.0162494
770.940	0.0161777
771.018	0.0163345
771.096	0.0162375
771.174	0.0162648
771.253	0.0162398
771.331	0.0160864
771.409	0.0162565
771.487	0.0161212
771.565	0.0162239
771.643	0.0161616
771.721	0.0160771
771.799	0.0160178
771.878	0.0159413
771.956	0.0160201
772.034	0.0160213
772.112	0.0161523
772.190	0.0160428
772.268	0.0160786
772.346	0.0161546
772.424	0.0160642
772.503	0.0162307
772.581	0.0161877
772.659	0.0162475
772.737	0.0160188
772.815	0.0161047
772.893	0.0161423
772.971	0.0162025
773.049	0.0163264
773.128	0.0161989
773.206	0.0161039
773.284	0.0162634
773.362	0.0161878
773.440	0.0162376
773.518	0.0160603
773.596	0.0161954
773.674	0.0163621
773.753	0.0163260
773.831	0.0163169
773.909	0.0164830
773.987	0.0165260
774.065	0.0164159
774.143	0.0163901
774.221	0.0163953
774.299	0.0165955
774.378	0.0165646
774.456	0.0164030
774.534	0.0165640
774.612	0.0164049
774.690	0.0163284
774.768	0.0164683
774.846	0.0163595
774.924	0.0163011
775.003	0.0162014
775.081	0.0161395
775.159	0.0160294
775.237	0.0159269
775.315	0.0161256
775.393	0.0160689
775.471	0.0161120
775.549	0.0160277
775.628	0.0159707
775.706	0.0160629
775.784	0.0159696
775.862	0.0159164
775.940	0.0159620
776.018	0.0159715
776.096	0.0159086
776.174	0.0159537
776.253	0.0161313
776.331	0.0162486
776.409	0.0159567
776.487	0.0161095
776.565	0.0161228
776.643	0.0160868
776.721	0.0162214
776.799	0.0162090
776.878	0.0162849
776.956	0.0163002
777.034	0.0163702
777.112	0.0163091
777.190	0.0164072
777.268	0.0162875
777.346	0.0163948
777.424	0.0165025
777.503	0.0164296
777.581	0.0163966
777.659	0.0162967
777.737	0.0163542
777.815	0.0162619
777.893	0.0162251
777.971	0.0162857
778.049	0.0163219
778.128	0.0163119
778.206	0.0161681
778.284	0.0162511
778.362	0.0161715
778.440	0.0161095
778.518	0.0162132
778.596	0.0162072
778.674	0.0160423
778.753	0.0160795
778.831	0.0160080
778.909	0.0161818
778.987	0.0159380
779.065	0.0159992
779.143	0.0160161
779.221	0.0160152
779.299	0.0159413
779.378	0.0161538
779.456	0.0160362
779.534	0.0159294
779.612	0.0158929
779.690	0.0160078
779.768	0.0160066
779.846	0.0160478
779.924	0.0159508
780.003	0.0158531
780.081	0.0159899
780.159	0.0160982
780.237	0.0161303
780.315	0.0161494
780.393	0.0160240
780.471	0.0158971
780.549	0.0160767
780.628	0.0161087
780.706	0.0159918
780.784	0.0160590
780.862	0.0159702
780.940	0.0161173
781.018	0.0161156
781.096	0.0162018
781.174	0.0161043
781.253	0.0163189
781.331	0.0161229
781.409	0.0162790
781.487	0.0162558
781.565	0.0163017
781.643	0.0162228
781.721	0.0161652
781.799	0.0162752
781.878	0.0163578
781.956	0.0162539
782.034	0.0163040
782.112	0.0162206
782.190	0.0161794
782.268	0.0160690
782.346	0.0161410
782.424	0.0162397
782.503	0.0161847
782.581	0.0161586
782.659	0.0160793
782.737	0.0159939
782.815	0.0162859
782.893	0.0160381
782.971	0.0160751
783.049	0.0160279
783.128	0.0161596
783.206	0.0161198
783.284	0.0160238
783.362	0.0158971
783.440	0.0161482
783.518	0.0161075
783.596	0.0159637
783.674	0.0160609
783.753	0.0162773
783.831	0.0161041
783.909	0.0160185
783.987	0.0161140
784.065	0.0161205
784.143	0.0160172
784.221	0.0160282
784.299	0.0161604
784.378	0.0161727
784.456	0.0161654
784.534	0.0162180
784.612	0.0160873
784.690	0.0162740
784.768	0.0162521
784.846	0.0160908
784.924	0.0162741
785.003	0.0161636
785.081	0.0162350
785.159	0.0164180
785.237	0.0161205
785.315	0.0161760
785.393	0.0160262
785.471	0.0161524
785.549	0.0162302
785.628	0.0162154
785.706	0.0161719
785.784	0.0160999
785.862	0.0162162
785.940	0.0161865
786.018	0.0160819
786.096	0.0161376
786.174	0.0161874
786.253	0.0161382
786.331	0.0162029
786.409	0.0162119
786.487	0.0162395
786.565	0.0163145
786.643	0.0163248
786.721	0.0161929
786.799	0.0162951
786.878	0.0162350
786.956	0.0162483
787.034	0.0162627
787.112	0.0164551
787.190	0.0163165
787.268	0.0162182
787.346	0.0162735
787.424	0.0163769
787.503	0.0162783
787.581	0.0162727
787.659	0.0161327
787.737	0.0161562
787.815	0.0162945
787.893	0.0160635
787.971	0.0162560
788.049	0.0161117
788.128	0.0161764
788.206	0.0161291
788.284	0.0161236
788.362	0.0161358
788.440	0.0160715
788.518	0.0161095
788.596	0.0160410
788.674	0.0160351
788.753	0.0162438
788.831	0.0161062
788.909	0.0162022
788.987	0.0162263
789.065	0.0162002
789.143	0.0163510
789.221	0.0162700
789.299	0.0163344
789.378	0.0163249
789.456	0.0163248
789.534	0.0164677
789.612	0.0164402
789.690	0.0164152
789.768	0.0163992
789.846	0.0163358
789.924	0.0164492
790.003	0.0163719
790.081	0.0163155
790.159	0.0163155
790.237	0.0163071
790.315	0.0163869
790.393	0.0162166
790.471	0.0162186
790.549	0.0163145
790.628	0.0162351
790.706	0.0161235
790.784	0.0161980
790.862	0.0160900
790.940	0.0160590
791.018	0.0161629
791.096	0.0161787
791.174	0.0161199
791.253	0.0160905
791.331	0.0160254
791.409	0.0160328
791.487	0.0160326
791.565	0.0161330
791.643	0.0161155
791.721	0.0160287
791.799	0.0160851
791.878	0.0161636
791.956	0.0162031
792.034	0.0161478
792.112	0.0162347
792.190	0.0161088
792.268	0.0162580
792.346	0.0163000
792.424	0.0163393
792.503	0.0162720
792.581	0.0163313
792.659	0.0165210
792.737	0.0163341
792.815	0.0163380
792.893	0.0162747
792.971	0.0165523
793.049	0.0165541
793.128	0.0163206
793.206	0.0165114
793.284	0.0164796
793.362	0.0166266
793.440	0.0165587
793.518	0.0164190
793.596	0.0163235
793.674	0.0163355
793.753	0.0163556
793.831	0.0162258
793.909	0.0162286
793.987	0.0161528
794.065	0.0160992
794.143	0.0161752
794.221	0.0159388
794.299	0.0159665
794.378	0.0160323
794.456	0.0160491
794.534	0.0161340
794.612	0.0160507
794.690	0.0160223
794.768	0.0160235
794.846	0.0160241
794.924	0.0161347
795.003	0.0162082
795.081	0.0161102
795.159	0.0162819
795.237	0.0162083
795.315	0.0162180
795.393	0.0163152
795.471	0.0162657
795.549	0.0163480
795.628	0.0161686
795.706	0.0164078
795.784	0.0162776
795.862	0.0162983
795.940	0.0162752
796.018	0.0163088
796.096	0.0163383
796.174	0.0163250
796.253	0.0161015
796.331	0.0162424
796.409	0.0161102
796.487	0.0162436
796.565	0.0160943
796.643	0.0160644
796.721	0.0161344
796.799	0.0161905
796.878	0.0162659
796.956	0.0161301
797.034	0.0162159
797.112	0.0161374
797.190	0.0161489
797.268	0.0163082
797.346	0.0163874
797.424	0.0163026
797.503	0.0162754
797.581	0.0162928
797.659	0.0162057
797.737	0.0161384
797.815	0.0162368
797.893	0.0162582
797.971	0.0163817
798.049	0.0161906
798.128	0.0160981
798.206	0.0161665
798.284	0.0162734
798.362	0.0162939
798.440	0.0160615
798.518	0.0161664
798.596	0.0161805
798.674	0.0162032
798.753	0.0162337
798.831	0.0161639
798.909	0.0162939
798.987	0.0162690
799.065	0.0160826
799.143	0.0162339
799.221	0.0164406
799.299	0.0162858
799.378	0.0162838
799.456	0.0161491
799.534	0.0161931
799.612	0.0160797
799.690	0.0161824
799.768	0.0162809
799.846	0.0162115
799.924	0.0161137
800.003	0.0163609
800.081	0.0162608
800.159	0.0162473
800.237	0.0161784
800.315	0.0163437
800.393	0.0162312
800.471	0.0162257
800.549	0.0163199
800.628	0.0162854
800.706	0.0163564
800.784	0.0162634
800.862	0.0163081
800.940	0.0161887
801.018	0.0161759
801.096	0.0162436
801.174	0.0163595
801.253	0.0161057
801.331	0.0160246
801.409	0.0162048
801.487	0.0161332
801.565	0.0161711
801.643	0.0160249
801.721	0.0161462
801.799	0.0162038
801.878	0.0162403
801.956	0.0160960
802.034	0.0161909
802.112	0.0161131
802.190	0.0161964
802.268	0.0160670
802.346	0.0161110
802.424	0.0161777
802.503	0.0162286
802.581	0.0163457
802.659	0.0161566
802.737	0.0161963
802.815	0.0163384
802.893	0.0161286
802.971	0.0162372
803.049	0.0162624
803.128	0.0161759
803.206	0.0162972
803.284	0.0163874
803.362	0.0163187
803.440	0.0163503
803.518	0.0161642
803.596	0.0162875
803.674	0.0162101
803.753	0.0162939
803.831	0.0164346
803.909	0.0161980
803.987	0.0161702
804.065	0.0162156
804.143	0.0163315
804.221	0.0162215
804.299	0.0160773
804.378	0.0160982
804.456	0.0161330
804.534	0.0161732
804.612	0.0162160
804.690	0.0162082
804.768	0.0162520
804.846	0.0162301
804.924	0.0162138
805.003	0.0162552
805.081	0.0162166
805.159	0.0162466
805.237	0.0161228
805.315	0.0163407
805.393	0.0162974
805.471	0.0162004
805.549	0.0162243
805.628	0.0162968
805.706	0.0162640
805.784	0.0164593
805.862	0.0162594
805.940	0.0162286
806.018	0.0161742
806.096	0.0162651
806.174	0.0161719
806.253	0.0162037
806.331	0.0163024
806.409	0.0162923
806.487	0.0161443
806.565	0.0160796
806.643	0.0162031
806.721	0.0160454
806.799	0.0160022
806.878	0.0161166
806.956	0.0159872
807.034	0.0158782
807.112	0.0158645
807.190	0.0159344
807.268	0.0160200
807.346	0.0158640
807.424	0.0160822
807.503	0.0161249
807.581	0.0161692
807.659	0.0160625
807.737	0.0160540
807.815	0.0161205
807.893	0.0161811
807.971	0.0162511
808.049	0.0162134
808.128	0.0161691
808.206	0.0162556
808.284	0.0162474
808.362	0.0162164
808.440	0.0163702
808.518	0.0163281
808.596	0.0163302
808.674	0.0163409
808.753	0.0163694
808.831	0.0163765
808.909	0.0164822
808.987	0.0163132
809.065	0.0162711
809.143	0.0163376
809.221	0.0162254
809.299	0.0162563
809.378	0.0164007
809.456	0.0163132
809.534	0.0162383
809.612	0.0162206
809.690	0.0161555
809.768	0.0162269
809.846	0.0161685
809.924	0.0161244
810.003	0.0161300
810.081	0.0160786
810.159	0.0161117
810.237	0.0161308
810.315	0.0161366
810.393	0.0161555
810.471	0.0161330
810.549	0.0160507
810.628	0.0160219
810.706	0.0161459
810.784	0.0160684
810.862	0.0159853
810.940	0.0161681
811.018	0.0160333
811.096	0.0161822
811.174	0.0159975
811.253	0.0161443
811.331	0.0161172
811.409	0.0160573
811.487	0.0160511
811.565	0.0161000
811.643	0.0160903
811.721	0.0160951
811.799	0.0161775
811.878	0.0161982
811.956	0.0162152
812.034	0.0164188
812.112	0.0163767
812.190	0.0163352
812.268	0.0161739
812.346	0.0163570
812.424	0.0163417
812.503	0.0163837
812.581	0.0163104
812.659	0.0163607
812.737	0.0162827
812.815	0.0164176
812.893	0.0163786
812.971	0.0163967
813.049	0.0164855
813.128	0.0163087
813.206	0.0163309
813.284	0.0161701
813.362	0.0162097
813.440	0.0163046
813.518	0.0161907
813.596	0.0160979
813.674	0.0160963
813.753	0.0162550
813.831	0.0162088
813.909	0.0162495
813.987	0.0161871
814.065	0.0161848
814.143	0.0161037
814.221	0.0161018
814.299	0.0162299
814.378	0.0161515
814.456	0.0160709
814.534	0.0161340
814.612	0.0161600
814.690	0.0161292
814.768	0.0162119
814.846	0.0162384
814.924	0.0161469
815.003	0.0162017
815.081	0.0162242
815.159	0.0162327
815.237	0.0162035
815.315	0.0161681
815.393	0.0162642
815.471	0.0163160
815.549	0.0162845
815.628	0.0164239
815.706	0.0163663
815.784	0.0162465
815.862	0.0164093
815.940	0.0164472
816.018	0.0162298
816.096	0.0162517
816.174	0.0164618
816.253	0.0162173
816.331	0.0163264
816.409	0.0164404
816.487	0.0162600
816.565	0.0164072
816.643	0.0163718
816.721	0.0162528
816.799	0.0162904
816.878	0.0162688
816.956	0.0162269
817.034	0.0161177
817.112	0.0161760
817.190	0.0160346
817.268	0.0161452
817.346	0.0161008
817.424	0.0161214
817.503	0.0162139
817.581	0.0162272
817.659	0.0160055
817.737	0.0160503
817.815	0.0161461
817.893	0.0161123
817.971	0.0161942
818.049	0.0162931
818.128	0.0160629
818.206	0.0161571
818.284	0.0161304
818.362	0.0161870
818.440	0.0162794
818.518	0.0161902
818.596	0.0162489
818.674	0.0162375
818.753	0.0161871
818.831	0.0161640
818.909	0.0162059
818.987	0.0162810
819.065	0.0162112
819.143	0.0163015
819.221	0.0162040
819.299	0.0162480
819.378	0.0162419
819.456	0.0162173
819.534	0.0163596
819.612	0.0164891
819.690	0.0161988
819.768	0.0163049
819.846	0.0164887
819.924	0.0161662
820.003	0.0161598
820.081	0.0162034
820.159	0.0163040
820.237	0.0162560
820.315	0.0161445
820.393	0.0161891
820.471	0.0162012
820.549	0.0161559
820.628	0.0160739
820.706	0.0160383
820.784	0.0161628
820.862	0.0161907
820.940	0.0160816
821.018	0.0161678
821.096	0.0160712
821.174	0.0160025
821.253	0.0160657
821.331	0.0161813
821.409	0.0161077
821.487	0.0160473
821.565	0.0159747
821.643	0.0162108
821.721	0.0161081
821.799	0.0161134
821.878	0.0160909
821.956	0.0162016
822.034	0.0161197
822.112	0.0162111
822.190	0.0161756
822.268	0.0162622
822.346	0.0162901
822.424	0.0163012
822.503	0.0162708
822.581	0.0164488
822.659	0.0162357
822.737	0.0163800
822.815	0.0162589
822.893	0.0164643
822.971	0.0163400
823.049	0.0162820
823.128	0.0163425
823.206	0.0163898
823.284	0.0164533
823.362	0.0162557
823.440	0.0162701
823.518	0.0161784
823.596	0.0163576
823.674	0.0163356
823.753	0.0162312
823.831	0.0163336
823.909	0.0162372
823.987	0.0160985
824.065	0.0161335
824.143	0.0161263
824.221	0.0161707
824.299	0.0162190
824.378	0.0160762
824.456	0.0160207
824.534	0.0162198
824.612	0.0160368
824.690	0.0161073
824.768	0.0161031
824.846	0.0159969
824.924	0.0161750
825.003	0.0161726
825.081	0.0161512
825.159	0.0161820
825.237	0.0162080
825.315	0.0161121
825.393	0.0161267
825.471	0.0162621
825.549	0.0162029
825.628	0.0161539
825.706	0.0162115
825.784	0.0162743
825.862	0.0162295
825.940	0.0160255
826.018	0.0161607
826.096	0.0162513
826.174	0.0163103
826.253	0.0161677
826.331	0.0162422
826.409	0.0161743
826.487	0.0162781
826.565	0.0162309
826.643	0.0162144
826.721	0.0161338
826.799	0.0162292
826.878	0.0163448
826.956	0.0162827
827.034	0.0161761
827.112	0.0163205
827.190	0.0162649
827.268	0.0160558
827.346	0.0162504
827.424	0.0163001
827.503	0.0161216
827.581	0.0162337
827.659	0.0162711
827.737	0.0162672
827.815	0.0163129
827.893	0.0163133
827.971	0.0162098
828.049	0.0162746
828.128	0.0161991
828.206	0.0160979
828.284	0.0161815
828.362	0.0161119
828.440	0.0161674
828.518	0.0160904
828.596	0.0162611
828.674	0.0161021
828.753	0.0161512
828.831	0.0160323
828.909	0.0161016
828.987	0.0162379
829.065	0.0160826
829.143	0.0162105
829.221	0.0162060
829.299	0.0162081
829.378	0.0162095
829.456	0.0162930
829.534	0.0161344
829.612	0.0161552
829.690	0.0161379
829.768	0.0162093
829.846	0.0161868
829.924	0.0162086
830.003	0.0161877
830.081	0.0162146
830.159	0.0161839
830.237	0.0162521
830.315	0.0160925
830.393	0.0160826
830.471	0.0162462
830.549	0.0160644
830.628	0.0159833
830.706	0.0159859
830.784	0.0160775
830.862	0.0160648
830.940	0.0161038
831.018	0.0162170
831.096	0.0161794
831.174	0.0161156
831.253	0.0161727
831.331	0.0160205
831.409	0.0161450
831.487	0.0162182
831.565	0.0160960
831.643	0.0161120
831.721	0.0161099
831.799	0.0161913
831.878	0.0161831
831.956	0.0161845
832.034	0.0160229
832.112	0.0161430
832.190	0.0162418
832.268	0.0163142
832.346	0.0162833
832.424	0.0162605
832.503	0.0162351
832.581	0.0161246
832.659	0.0160730
832.737	0.0162946
832.815	0.0162135
832.893	0.0162514
832.971	0.0162037
833.049	0.0161571
833.128	0.0161047
833.206	0.0161627
833.284	0.0161266
833.362	0.0161396
833.440	0.0162006
833.518	0.0161489
833.596	0.0161098
833.674	0.0161669
833.753	0.0161483
833.831	0.0161307
833.909	0.0160548
833.987	0.0161543
834.065	0.0162189
834.143	0.0161443
834.221	0.0160312
834.299	0.0160791
834.378	0.0160877
834.456	0.0160499
834.534	0.0161347
834.612	0.0160479
834.690	0.0160390
834.768	0.0160724
834.846	0.0159451
834.924	0.0158512
835.003	0.0160638
835.081	0.0160296
835.159	0.0159938
835.237	0.0159985
835.315	0.0160444
835.393	0.0160396
835.471	0.0160973
835.549	0.0159673
835.628	0.0160361
835.706	0.0160310
835.784	0.0159594
835.862	0.0160265
835.940	0.0162024
836.018	0.0161697
836.096	0.0161931
836.174	0.0163459
836.253	0.0162449
836.331	0.0162853
836.409	0.0163826
836.487	0.0164979
836.565	0.0163241
836.643	0.0163966
836.721	0.0165842
836.799	0.0164078
836.878	0.0163708
836.956	0.0166813
837.034	0.0165997
837.112	0.0165137
837.190	0.0166301
837.268	0.0166091
837.346	0.0164859
837.424	0.0164089
837.503	0.0164426
837.581	0.0164271
837.659	0.0164291
837.737	0.0164306
837.815	0.0163615
837.893	0.0162769
837.971	0.0164468
838.049	0.0162888
838.128	0.0163638
838.206	0.0163691
838.284	0.0163300
838.362	0.0162455
838.440	0.0161331
838.518	0.0162181
838.596	0.0162243
838.674	0.0163539
838.753	0.0163057
838.831	0.0161674
838.909	0.0160921
838.987	0.0162505
839.065	0.0162339
839.143	0.0161417
839.221	0.0161356
839.299	0.0161636
839.378	0.0161776
839.456	0.0161225
839.534	0.0160245
839.612	0.0161380
839.690	0.0161447
839.768	0.0160505
839.846	0.0161564
839.924	0.0159553
840.003	0.0162007
840.081	0.0161219
840.159	0.0161963
840.237	0.0161288
840.315	0.0162038
840.393	0.0163763
840.471	0.0162563
840.549	0.0161906
840.628	0.0162502
840.706	0.0162801
840.784	0.0163196
840.862	0.0162856
840.940	0.0163290
841.018	0.0164025
841.096	0.0162151
841.174	0.0163136
841.253	0.0163771
841.331	0.0163811
841.409	0.0162016
841.487	0.0162671
841.565	0.0161962
841.643	0.0162849
841.721	0.0163608
841.799	0.0161866
841.878	0.0161804
841.956	0.0162546
842.034	0.0161889
842.112	0.0163558
842.190	0.0162296
842.268	0.0162251
842.346	0.0163425
842.424	0.0162004
842.503	0.0161140
842.581	0.0161311
842.659	0.0161147
842.737	0.0161868
842.815	0.0162049
842.893	0.0160578
842.971	0.0162650
843.049	0.0162436
843.128	0.0162000
843.206	0.0161755
843.284	0.0161893
843.362	0.0162345
843.440	0.0160680
843.518	0.0160353
843.596	0.0161134
843.674	0.0160654
843.753	0.0161683
843.831	0.0161439
843.909	0.0161098
843.987	0.0161241
844.065	0.0161980
844.143	0.0160380
844.221	0.0162000
844.299	0.0161591
844.378	0.0160687
844.456	0.0161761
844.534	0.0161274
844.612	0.0159897
844.690	0.0160747
844.768	0.0161241
844.846	0.0161550
844.924	0.0160944
845.003	0.0160947
845.081	0.0160486
845.159	0.0160449
845.237	0.0161391
845.315	0.0161530
845.393	0.0161089
845.471	0.0160830
845.549	0.0160825
845.628	0.0161882
845.706	0.0161623
845.784	0.0160247
845.862	0.0161317
845.940	0.0161553
846.018	0.0161118
846.096	0.0160790
846.174	0.0160603
846.253	0.0162086
846.331	0.0161033
846.409	0.0162019
846.487	0.0161922
846.565	0.0161875
846.643	0.0162386
846.721	0.0163608
846.799	0.0161505
846.878	0.0162338
846.956	0.0161566
847.034	0.0162457
847.112	0.0161526
847.190	0.0161499
847.268	0.0163435
847.346	0.0162595
847.424	0.0162604
847.503	0.0162185
847.581	0.0161946
847.659	0.0163875
847.737	0.0162625
847.815	0.0162441
847.893	0.0162657
847.971	0.0163799
848.049	0.0161535
848.128	0.0160951
848.206	0.0162001
848.284	0.0161758
848.362	0.0161887
848.440	0.0163107
848.518	0.0161337
848.596	0.0162076
848.674	0.0162434
848.753	0.0160832
848.831	0.0161438
848.909	0.0162296
848.987	0.0161957
849.065	0.0161639
849.143	0.0160928
849.221	0.0161583
849.299	0.0161760
849.378	0.0162253
849.456	0.0161646
849.534	0.0160650
849.612	0.0161292
849.690	0.0161423
849.768	0.0161291
849.846	0.0160983
849.924	0.0161454
850.003	0.0162259
850.081	0.0161770
850.159	0.0160904
850.237	0.0160210
850.315	0.0160433
850.393	0.0161057
850.471	0.0160147
850.549	0.0160299
850.628	0.0161654
850.706	0.0160749
850.784	0.0161580
850.862	0.0161468
850.940	0.0162669
851.018	0.0161862
851.096	0.0163418
851.174	0.0163811
851.253	0.0162663
851.331	0.0163385
851.409	0.0162404
851.487	0.0162200
851.565	0.0164294
851.643	0.0163013
851.721	0.0164188
851.799	0.0163837
851.878	0.0162696
851.956	0.0163547
852.034	0.0163398
852.112	0.0162809
852.190	0.0162883
852.268	0.0163108
852.346	0.0163619
852.424	0.0162338
852.503	0.0162675
852.581	0.0162168
852.659	0.0162524
852.737	0.0161228
852.815	0.0162691
852.893	0.0162029
852.971	0.0161961
853.049	0.0161671
853.128	0.0161917
853.206	0.0161891
853.284	0.0160925
853.362	0.0160654
853.440	0.0161368
853.518	0.0161327
853.596	0.0159732
853.674	0.0162572
853.753	0.0160665
853.831	0.0160999
853.909	0.0161416
853.987	0.0160927
854.065	0.0160601
854.143	0.0160400
854.221	0.0161183
854.299	0.0161463
854.378	0.0161080
854.456	0.0162069
854.534	0.0161565
854.612	0.0161670
854.690	0.0161291
854.768	0.0160960
854.846	0.0162439
854.924	0.0161539
855.003	0.0161163
855.081	0.0162263
855.159	0.0160256
855.237	0.0161726
855.315	0.0162126
855.393	0.0162262
855.471	0.0161823
855.549	0.0162444
855.628	0.0162416
855.706	0.0161752
855.784	0.0161922
855.862	0.0162840
855.940	0.0162363
856.018	0.0161012
856.096	0.0162193
856.174	0.0161755
856.253	0.0161802
856.331	0.0162683
856.409	0.0161544
856.487	0.0160774
856.565	0.0160448
856.643	0.0162269
856.721	0.0161946
856.799	0.0161472
856.878	0.0158932
856.956	0.0160923
857.034	0.0161682
857.112	0.0162008
857.190	0.0162585
857.268	0.0163088
857.346	0.0161874
857.424	0.0161876
857.503	0.0161987
857.581	0.0161191
857.659	0.0162800
857.737	0.0162447
857.815	0.0162345
857.893	0.0162019
857.971	0.0162328
858.049	0.0161625
858.128	0.0162398
858.206	0.0161827
858.284	0.0162253
858.362	0.0161851
858.440	0.0161890
858.518	0.0161411
858.596	0.0161388
858.674	0.0160252
858.753	0.0160191
858.831	0.0162148
858.909	0.0161507
858.987	0.0160445
859.065	0.0160688
859.143	0.0159521
859.221	0.0159705
859.299	0.0160173
859.378	0.0159701
859.456	0.0159822
859.534	0.0160275
859.612	0.0161813
859.690	0.0161000
859.768	0.0160632
859.846	0.0159723
859.924	0.0159746
860.003	0.0160017
860.081	0.0161492
860.159	0.0160992
860.237	0.0160593
860.315	0.0160707
860.393	0.0160326
860.471	0.0160493
860.549	0.0161117
860.628	0.0161418
860.706	0.0161247
860.784	0.0160598
860.862	0.0160732
860.940	0.0160874
861.018	0.0162872
861.096	0.0162018
861.174	0.0159613
861.253	0.0160356
861.331	0.0160497
861.409	0.0161331
861.487	0.0160811
861.565	0.0162283
861.643	0.0160293
861.721	0.0160052
861.799	0.0161748
861.878	0.0161092
861.956	0.0160854
862.034	0.0160353
862.112	0.0161668
862.190	0.0161848
862.268	0.0162389
862.346	0.0162784
862.424	0.0162396
862.503	0.0162474
862.581	0.0162380
862.659	0.0162041
862.737	0.0161697
862.815	0.0162428
862.893	0.0163502
862.971	0.0162133
863.049	0.0163422
863.128	0.0162766
863.206	0.0163572
863.284	0.0162863
863.362	0.0162764
863.440	0.0162153
863.518	0.0163036
863.596	0.0164773
863.674	0.0162716
863.753	0.0161702
863.831	0.0163090
863.909	0.0162453
863.987	0.0162263
864.065	0.0162960
864.143	0.0162067
864.221	0.0161604
864.299	0.0162388
864.378	0.0162016
864.456	0.0161161
864.534	0.0161446
864.612	0.0162094
864.690	0.0162840
864.768	0.0162344
864.846	0.0161752
864.924	0.0162351
865.003	0.0161161
865.081	0.0163080
865.159	0.0160634
865.237	0.0160859
865.315	0.0162599
865.393	0.0161159
865.471	0.0160250
865.549	0.0161351
865.628	0.0160955
865.706	0.0161527
865.784	0.0160577
865.862	0.0160125
865.940	0.0161480
866.018	0.0161706
866.096	0.0161472
866.174	0.0161264
866.253	0.0161395
866.331	0.0162224
866.409	0.0161889
866.487	0.0162038
866.565	0.0161022
866.643	0.0162151
866.721	0.0161911
866.799	0.0162691
866.878	0.0162725
866.956	0.0162414
867.034	0.0163219
867.112	0.0162323
867.190	0.0163028
867.268	0.0163123
867.346	0.0162939
867.424	0.0162811
867.503	0.0163341
867.581	0.0164034
867.659	0.0163648
867.737	0.0163999
867.815	0.0163432
867.893	0.0162302
867.971	0.0163685
868.049	0.0164346
868.128	0.0162688
868.206	0.0161879
868.284	0.0163365
868.362	0.0163481
868.440	0.0163335
868.518	0.0164246
868.596	0.0163195
868.674	0.0163190
868.753	0.0164018
868.831	0.0162063
868.909	0.0164093
868.987	0.0163222
869.065	0.0163225
869.143	0.0162882
869.221	0.0162823
869.299	0.0162897
869.378	0.0162434
869.456	0.0163836
869.534	0.0162750
869.612	0.0162738
869.690	0.0162321
869.768	0.0162660
869.846	0.0162007
869.924	0.0162733
870.003	0.0162379
870.081	0.0162242
870.159	0.0161893
870.237	0.0162711
870.315	0.0162483
870.393	0.0162613
870.471	0.0163365
870.549	0.0162502
870.628	0.0162365
870.706	0.0162157
870.784	0.0162309
870.862	0.0160652
870.940	0.0161336
871.018	0.0161133
871.096	0.0163700
871.174	0.0161480
871.253	0.0162469
871.331	0.0162427
871.409	0.0162046
871.487	0.0161677
871.565	0.0161689
871.643	0.0162099
871.721	0.0162216
871.799	0.0161917
871.878	0.0162997
871.956	0.0160998
872.034	0.0160340
872.112	0.0161490
872.190	0.0162023
872.268	0.0162334
872.346	0.0162014
872.424	0.0162416
872.503	0.0162254
872.581	0.0162994
872.659	0.0163417
872.737	0.0162336
872.815	0.0162088
872.893	0.0162141
872.971	0.0162336
873.049	0.0162486
873.128	0.0162045
873.206	0.0161446
873.284	0.0161742
873.362	0.0162766
873.440	0.0163206
873.518	0.0162023
873.596	0.0161575
873.674	0.0162000
873.753	0.0162218
873.831	0.0162297
873.909	0.0161393
873.987	0.0160435
874.065	0.0162201
874.143	0.0162955
874.221	0.0162517
874.299	0.0161061
874.378	0.0161302
874.456	0.0162508
874.534	0.0160775
874.612	0.0160519
874.690	0.0163181
874.768	0.0161819
874.846	0.0161063
874.924	0.0161860
875.003	0.0161516
875.081	0.0161769
875.159	0.0160160
875.237	0.0162542
875.315	0.0161997
875.393	0.0162418
875.471	0.0160558
875.549	0.0160195
875.628	0.0162563
875.706	0.0162940
875.784	0.0161631
875.862	0.0161139
875.940	0.0160578
876.018	0.0161353
876.096	0.0162025
876.174	0.0161540
876.253	0.0162013
876.331	0.0160404
876.409	0.0160991
876.487	0.0161344
876.565	0.0161746
876.643	0.0162813
876.721	0.0161604
876.799	0.0160841
876.878	0.0161620
876.956	0.0161739
877.034	0.0161718
877.112	0.0162270
877.190	0.0163213
877.268	0.0161486
877.346	0.0161245
877.424	0.0162349
877.503	0.0161638
877.581	0.0161482
877.659	0.0161226
877.737	0.0162365
877.815	0.0162244
877.893	0.0161282
877.971	0.0163337
878.049	0.0162392
878.128	0.0162608
878.206	0.0161884
878.284	0.0161580
878.362	0.0161108
878.440	0.0162439
878.518	0.0161762
878.596	0.0162907
878.674	0.0161631
878.753	0.0162920
878.831	0.0163079
878.909	0.0162811
878.987	0.0161456
879.065	0.0161591
879.143	0.0161955
879.221	0.0162076
879.299	0.0161634
879.378	0.0160924
879.456	0.0161411
879.534	0.0162180
879.612	0.0162859
879.690	0.0161333
879.768	0.0160430
879.846	0.0161582
879.924	0.0160305
880.003	0.0161645
880.081	0.0161788
880.159	0.0161871
880.237	0.0160269
880.315	0.0161473
880.393	0.0160828
880.471	0.0161296
880.549	0.0161090
880.628	0.0161282
880.706	0.0160912
880.784	0.0160426
880.862	0.0160684
880.940	0.0160158
881.018	0.0160181
881.096	0.0159770
881.174	0.0159364
881.253	0.0161227
881.331	0.0159888
881.409	0.0160030
881.487	0.0161219
881.565	0.0161620
881.643	0.0160610
881.721	0.0160505
881.799	0.0160605
881.878	0.0160606
881.956	0.0161051
882.034	0.0161930
882.112	0.0161419
882.190	0.0161406
882.268	0.0160860
882.346	0.0160533
882.424	0.0160585
882.503	0.0161533
882.581	0.0161172
882.659	0.0161288
882.737	0.0161034
882.815	0.0161868
882.893	0.0161510
882.971	0.0161270
883.049	0.0161819
883.128	0.0160514
883.206	0.0161573
883.284	0.0161597
883.362	0.0161417
883.440	0.0160815
883.518	0.0161931
883.596	0.0161215
883.674	0.0161890
883.753	0.0162188
883.831	0.0160812
883.909	0.0160496
883.987	0.0160394
884.065	0.0160143
884.143	0.0161439
884.221	0.0160959
884.299	0.0160954
884.378	0.0159215
884.456	0.0159951
884.534	0.0160242
884.612	0.0160621
884.690	0.0160651
884.768	0.0159374
884.846	0.0159881
884.924	0.0161877
885.003	0.0160619
885.081	0.0160640
885.159	0.0160573
885.237	0.0162182
885.315	0.0161331
885.393	0.0159748
885.471	0.0161221
885.549	0.0161712
885.628	0.0160450
885.706	0.0162440
885.784	0.0161893
885.862	0.0162600
885.940	0.0163194
886.018	0.0162965
886.096	0.0162623
886.174	0.0164735
886.253	0.0162128
886.331	0.0162677
886.409	0.0163189
886.487	0.0162870
886.565	0.0162825
886.643	0.0163490
886.721	0.0162556
886.799	0.0161997
886.878	0.0162784
886.956	0.0162722
887.034	0.0160714
887.112	0.0162079
887.190	0.0162593
887.268	0.0161652
887.346	0.0160557
887.424	0.0160510
887.503	0.0162666
887.581	0.0160554
887.659	0.0162065
887.737	0.0160266
887.815	0.0161151
887.893	0.0161952
887.971	0.0163266
888.049	0.0162809
888.128	0.0160578
888.206	0.0162869
888.284	0.0161720
888.362	0.0162241
888.440	0.0162424
888.518	0.0162929
888.596	0.0162124
888.674	0.0161759
888.753	0.0162358
888.831	0.0163253
888.909	0.0162004
888.987	0.0163657
889.065	0.0164314
889.143	0.0162461
889.221	0.0163123
889.299	0.0163882
889.378	0.0163947
889.456	0.0164845
889.534	0.0164446
889.612	0.0162630
889.690	0.0164825
889.768	0.0164196
889.846	0.0163224
889.924	0.0163623
890.003	0.0162901
890.081	0.0163628
890.159	0.0163260
890.237	0.0163524
890.315	0.0162718
890.393	0.0162206
890.471	0.0163316
890.549	0.0160346
890.628	0.0163163
890.706	0.0163015
890.784	0.0162242
890.862	0.0161346
890.940	0.0162098
891.018	0.0161449
891.096	0.0162129
891.174	0.0160803
891.253	0.0161015
891.331	0.0163338
891.409	0.0161906
891.487	0.0161663
891.565	0.0161742
891.643	0.0160732
891.721	0.0161441
891.799	0.0161488
891.878	0.0161479
891.956	0.0161330
892.034	0.0161862
892.112	0.0162228
892.190	0.0162067
892.268	0.0162519
892.346	0.0163003
892.424	0.0162809
892.503	0.0163062
892.581	0.0162260
892.659	0.0162067
892.737	0.0162475
892.815	0.0162754
892.893	0.0162016
892.971	0.0164005
893.049	0.0162942
893.128	0.0162381
893.206	0.0160683
893.284	0.0162034
893.362	0.0162138
893.440	0.0162036
893.518	0.0162144
893.596	0.0161542
893.674	0.0161639
893.753	0.0161946
893.831	0.0162024
893.909	0.0163218
893.987	0.0161767
894.065	0.0161040
894.143	0.0161765
894.221	0.0161651
894.299	0.0160922
894.378	0.0161809
894.456	0.0162493
894.534	0.0161987
894.612	0.0161876
894.690	0.0162846
894.768	0.0161401
894.846	0.0161575
894.924	0.0161679
895.003	0.0160975
895.081	0.0161599
895.159	0.0160619
895.237	0.0160783
895.315	0.0162624
895.393	0.0162341
895.471	0.0162904
895.549	0.0160802
895.628	0.0161672
895.706	0.0161866
895.784	0.0160529
895.862	0.0163436
895.940	0.0161328
896.018	0.0161314
896.096	0.0161363
896.174	0.0161044
896.253	0.0162283
896.331	0.0161428
896.409	0.0160859
896.487	0.0161015
896.565	0.0161816
896.643	0.0160576
896.721	0.0161367
896.799	0.0162054
896.878	0.0162054
896.956	0.0161667
897.034	0.0161036
897.112	0.0160071
897.190	0.0162083
897.268	0.0159386
897.346	0.0161202
897.424	0.0161619
897.503	0.0161794
897.581	0.0162207
897.659	0.0160957
897.737	0.0161194
897.815	0.0160292
897.893	0.0161245
897.971	0.0160935
898.049	0.0161365
898.128	0.0161191
898.206	0.0160982
898.284	0.0161950
898.362	0.0159092
898.440	0.0160779
898.518	0.0162403
898.596	0.0160354
898.674	0.0161041
898.753	0.0160830
898.831	0.0160773
898.909	0.0162382
898.987	0.0161590
899.065	0.0161211
899.143	0.0159554
899.221	0.0160899
899.299	0.0160043
899.378	0.0161661
899.456	0.0161351
899.534	0.0160789
899.612	0.0162219
899.690	0.0160506
899.768	0.0159954
899.846	0.0159519
899.924	0.0161479
900.003	0.0159246
900.081	0.0160814
900.159	0.0161462
900.237	0.0161005
900.315	0.0161405
900.393	0.0161555
900.471	0.0160766
900.549	0.0161295
900.628	0.0160700
900.706	0.0160603
900.784	0.0162499
900.862	0.0161395
900.940	0.0161595
901.018	0.0160606
901.096	0.0162234
901.174	0.0162295
901.253	0.0160152
901.331	0.0161912
901.409	0.0160860
901.487	0.0160350
901.565	0.0159731
901.643	0.0160997
901.721	0.0160973
901.799	0.0160736
901.878	0.0160008
901.956	0.0161018
902.034	0.0161503
902.112	0.0160085
902.190	0.0160555
902.268	0.0160919
902.346	0.0160110
902.424	0.0159522
902.503	0.0161200
902.581	0.0161607
902.659	0.0161433
902.737	0.0160604
902.815	0.0161256
902.893	0.0161229
902.971	0.0160372
903.049	0.0161480
903.128	0.0161511
903.206	0.0159850
903.284	0.0160397
903.362	0.0161384
903.440	0.0161965
903.518	0.0161364
903.596	0.0161343
903.674	0.0160237
903.753	0.0161842
903.831	0.0161924
903.909	0.0161287
903.987	0.0161888
904.065	0.0161151
904.143	0.0161457
904.221	0.0162505
904.299	0.0162704
904.378	0.0162653
904.456	0.0161737
904.534	0.0160920
904.612	0.0160986
904.690	0.0162796
904.768	0.0160310
904.846	0.0162064
904.924	0.0161668
905.003	0.0161219
905.081	0.0161153
905.159	0.0162679
905.237	0.0161710
905.315	0.0162061
905.393	0.0162134
905.471	0.0161889
905.549	0.0161433
905.628	0.0162080
905.706	0.0162493
905.784	0.0162598
905.862	0.0162526
905.940	0.0162991
906.018	0.0162239
906.096	0.0162746
906.174	0.0161700
906.253	0.0162457
906.331	0.0163107
906.409	0.0162848
906.487	0.0162220
906.565	0.0161687
906.643	0.0163274
906.721	0.0163047
906.799	0.0161584
906.878	0.0161642
906.956	0.0164140
907.034	0.0162803
907.112	0.0161697
907.190	0.0162814
907.268	0.0163331
907.346	0.0162935
907.424	0.0161844
907.503	0.0163904
907.581	0.0164194
907.659	0.0162598
907.737	0.0163162
907.815	0.0163538
907.893	0.0163738
907.971	0.0163577
908.049	0.0163527
908.128	0.0164273
908.206	0.0162872
908.284	0.0162929
908.362	0.0162850
908.440	0.0161886
908.518	0.0161674
908.596	0.0163062
908.674	0.0163270
908.753	0.0162654
908.831	0.0161585
908.909	0.0162658
908.987	0.0162856
909.065	0.0161472
909.143	0.0161387
909.221	0.0162579
909.299	0.0161755
909.378	0.0161336
909.456	0.0162062
909.534	0.0162992
909.612	0.0163111
909.690	0.0163329
909.768	0.0162171
909.846	0.0162246
909.924	0.0162992
910.003	0.0162984
910.081	0.0163632
910.159	0.0163262
910.237	0.0162653
910.315	0.0162946
910.393	0.0163054
910.471	0.0164407
910.549	0.0163540
910.628	0.0163247
910.706	0.0165221
910.784	0.0163925
910.862	0.0163317
910.940	0.0164123
911.018	0.0164364
911.096	0.0162393
911.174	0.0163027
911.253	0.0162506
911.331	0.0162306
911.409	0.0162143
911.487	0.0162199
911.565	0.0162196
911.643	0.0162350
911.721	0.0162159
911.799	0.0163348
911.878	0.0163775
911.956	0.0161475
912.034	0.0162072
912.112	0.0163052
912.190	0.0161879
912.268	0.0161919
912.346	0.0162474
912.424	0.0161275
912.503	0.0160983
912.581	0.0161592
912.659	0.0162395
912.737	0.0162434
912.815	0.0164420
912.893	0.0161987
912.971	0.0160680
913.049	0.0161669
913.128	0.0161824
913.206	0.0162579
913.284	0.0161972
913.362	0.0162749
913.440	0.0161874
913.518	0.0161700
913.596	0.0162066
913.674	0.0161620
913.753	0.0163778
913.831	0.0162982
913.909	0.0160851
913.987	0.0161161
914.065	0.0161562
914.143	0.0162270
914.221	0.0162195
914.299	0.0162427
914.378	0.0162012
914.456	0.0161256
914.534	0.0161399
914.612	0.0161053
914.690	0.0160694
914.768	0.0162263
914.846	0.0161700
914.924	0.0161543
915.003	0.0160995
915.081	0.0161127
915.159	0.0160765
915.237	0.0160776
915.315	0.0161150
915.393	0.0160506
915.471	0.0161907
915.549	0.0163258
915.628	0.0161884
915.706	0.0161324
915.784	0.0162124
915.862	0.0161610
915.940	0.0161825
916.018	0.0161330
916.096	0.0161245
916.174	0.0161561
916.253	0.0161458
916.331	0.0161850
916.409	0.0163283
916.487	0.0163196
916.565	0.0162632
916.643	0.0161654
916.721	0.0160738
916.799	0.0161253
916.878	0.0162716
916.956	0.0161834
917.034	0.0161470
917.112	0.0162234
917.190	0.0161861
917.268	0.0162807
917.346	0.0162724
917.424	0.0162024
917.503	0.0160998
917.581	0.0162019
917.659	0.0161614
917.737	0.0160818
917.815	0.0162444
917.893	0.0161862
917.971	0.0161365
918.049	0.0162396
918.128	0.0162688
918.206	0.0161298
918.284	0.0163367
918.362	0.0162344
918.440	0.0162775
918.518	0.0161819
918.596	0.0161596
918.674	0.0164271
918.753	0.0160906
918.831	0.0161198
918.909	0.0162442
918.987	0.0162301
919.065	0.0163515
919.143	0.0162991
919.221	0.0162936
919.299	0.0162118
919.378	0.0159911
919.456	0.0161961
919.534	0.0161887
919.612	0.0162415
919.690	0.0162669
919.768	0.0162138
919.846	0.0164154
919.924	0.0162467
920.003	0.0163805
920.081	0.0163538
920.159	0.0162377
920.237	0.0161438
920.315	0.0163303
920.393	0.0163265
920.471	0.0162758
920.549	0.0161709
920.628	0.0161966
920.706	0.0162312
920.784	0.0162687
920.862	0.0162428
920.940	0.0162936
921.018	0.0161884
921.096	0.0161684
921.174	0.0163124
921.253	0.0162578
921.331	0.0163493
921.409	0.0163379
921.487	0.0161409
921.565	0.0163009
921.643	0.0160582
921.721	0.0161092
921.799	0.0162157
921.878	0.0162204
921.956	0.0160729
922.034	0.0162604
922.112	0.0160186
922.190	0.0160026
922.268	0.0161060
922.346	0.0160812
922.424	0.0159293
922.503	0.0159146
922.581	0.0160886
922.659	0.0160166
922.737	0.0158103
922.815	0.0160275
922.893	0.0160592
922.971	0.0158714
923.049	0.0158704
923.128	0.0159191
923.206	0.0159169
923.284	0.0160252
923.362	0.0160001
923.440	0.0158821
923.518	0.0159061
923.596	0.0161306
923.674	0.0161481
923.753	0.0159965
923.831	0.0162328
923.909	0.0160346
923.987	0.0160204
924.065	0.0160986
924.143	0.0161880
924.221	0.0161766
924.299	0.0161001
924.378	0.0160773
924.456	0.0159534
924.534	0.0160045
924.612	0.0162464
924.690	0.0162222
924.768	0.0161874
924.846	0.0161256
924.924	0.0162174
925.003	0.0161471
925.081	0.0161156
925.159	0.0161900
925.237	0.0161195
925.315	0.0160847
925.393	0.0161379
925.471	0.0162093
925.549	0.0160848
925.628	0.0160849
925.706	0.0161868
925.784	0.0162249
925.862	0.0161021
925.940	0.0160564
926.018	0.0161066
926.096	0.0161246
926.174	0.0162283
926.253	0.0160004
926.331	0.0161182
926.409	0.0162491
926.487	0.0162083
926.565	0.0161272
926.643	0.0161691
926.721	0.0162753
926.799	0.0161551
926.878	0.0161862
926.956	0.0161282
927.034	0.0162637
927.112	0.0162166
927.190	0.0162698
927.268	0.0162286
927.346	0.0161768
927.424	0.0163323
927.503	0.0162446
927.581	0.0160838
927.659	0.0162954
927.737	0.0162660
927.815	0.0162200
927.893	0.0162481
927.971	0.0162299
928.049	0.0162089
928.128	0.0161597
928.206	0.0161172
928.284	0.0161883
928.362	0.0163120
928.440	0.0162029
928.518	0.0161614
928.596	0.0163535
928.674	0.0161942
928.753	0.0161768
928.831	0.0163063
928.909	0.0161852
928.987	0.0162500
929.065	0.0162951
929.143	0.0161324
929.221	0.0162375
929.299	0.0161696
929.378	0.0162756
929.456	0.0162911
929.534	0.0162376
929.612	0.0162801
929.690	0.0162563
929.768	0.0162004
929.846	0.0163049
929.924	0.0163110
930.003	0.0162933
930.081	0.0162754
930.159	0.0163710
930.237	0.0163159
930.315	0.0163666
930.393	0.0162957
930.471	0.0162156
930.549	0.0163918
930.628	0.0164288
930.706	0.0163372
930.784	0.0164082
930.862	0.0163869
930.940	0.0162811
931.018	0.0161911
931.096	0.0162144
931.174	0.0163166
931.253	0.0164243
931.331	0.0164379
931.409	0.0163828
931.487	0.0164226
931.565	0.0162578
931.643	0.0163564
931.721	0.0163755
931.799	0.0164251
931.878	0.0162617
931.956	0.0163290
932.034	0.0163644
932.112	0.0164839
932.190	0.0163712
932.268	0.0162806
932.346	0.0161868
932.424	0.0164002
932.503	0.0162561
932.581	0.0163441
932.659	0.0163144
932.737	0.0163735
932.815	0.0162894
932.893	0.0163590
932.971	0.0162563
933.049	0.0162032
933.128	0.0161617
933.206	0.0163849
933.284	0.0162196
933.362	0.0162405
933.440	0.0163724
933.518	0.0163493
933.596	0.0163199
933.674	0.0164877
933.753	0.0164090
933.831	0.0165479
933.909	0.0163815
933.987	0.0163760
934.065	0.0163213
934.143	0.0164339
934.221	0.0164394
934.299	0.0163073
934.378	0.0164339
934.456	0.0163719
934.534	0.0163122
934.612	0.0163568
934.690	0.0164613
934.768	0.0163620
934.846	0.0164005
934.924	0.0163715
935.003	0.0163636
935.081	0.0163501
935.159	0.0164552
935.237	0.0163326
935.315	0.0162782
935.393	0.0163932
935.471	0.0163468
935.549	0.0164080
935.628	0.0162988
935.706	0.0163235
935.784	0.0163245
935.862	0.0162878
935.940	0.0162286
936.018	0.0163029
936.096	0.0164439
936.174	0.0163731
936.253	0.0162834
936.331	0.0162845
936.409	0.0163866
936.487	0.0162142
936.565	0.0161507
936.643	0.0162934
936.721	0.0163448
936.799	0.0161945
936.878	0.0162255
936.956	0.0162259
937.034	0.0162737
937.112	0.0162688
937.190	0.0160886
937.268	0.0162566
937.346	0.0165122
937.424	0.0162416
937.503	0.0162959
937.581	0.0162370
937.659	0.0163393
937.737	0.0163549
937.815	0.0162509
937.893	0.0163245
937.971	0.0163515
938.049	0.0162931
938.128	0.0163641
938.206	0.0163737
938.284	0.0162839
938.362	0.0165585
938.440	0.0163773
938.518	0.0162961
938.596	0.0164225
938.674	0.0163876
938.753	0.0163703
938.831	0.0162762
938.909	0.0162927
938.987	0.0163847
939.065	0.0163623
939.143	0.0162160
939.221	0.0162801
939.299	0.0163921
939.378	0.0160809
939.456	0.0163821
939.534	0.0163156
939.612	0.0163759
939.690	0.0161933
939.768	0.0161671
939.846	0.0162206
939.924	0.0160877
940.003	0.0161920
940.081	0.0162318
940.159	0.0161618
940.237	0.0160266
940.315	0.0162279
940.393	0.0160818
940.471	0.0161649
940.549	0.0161464
940.628	0.0162615
940.706	0.0162283
940.784	0.0162132
940.862	0.0161861
940.940	0.0161938
941.018	0.0162803
941.096	0.0163284
941.174	0.0162786
941.253	0.0162811
941.331	0.0163395
941.409	0.0163072
941.487	0.0162660
941.565	0.0162330
941.643	0.0162132
941.721	0.0164552
941.799	0.0163623
941.878	0.0163346
941.956	0.0162917
942.034	0.0162360
942.112	0.0163228
942.190	0.0162585
942.268	0.0162721
942.346	0.0163275
942.424	0.0163103
942.503	0.0162627
942.581	0.0161949
942.659	0.0162187
942.737	0.0163158
942.815	0.0163490
942.893	0.0162441
942.971	0.0162685
943.049	0.0162525
943.128	0.0162144
943.206	0.0161903
943.284	0.0161957
943.362	0.0162673
943.440	0.0161742
943.518	0.0161974
943.596	0.0162539
943.674	0.0163533
943.753	0.0162537
943.831	0.0163217
943.909	0.0163379
943.987	0.0162023
944.065	0.0161858
944.143	0.0161855
944.221	0.0162370
944.299	0.0162476
944.378	0.0163799
944.456	0.0163065
944.534	0.0162401
944.612	0.0161741
944.690	0.0162699
944.768	0.0162729
944.846	0.0162989
944.924	0.0162323
945.003	0.0161729
945.081	0.0162881
945.159	0.0162249
945.237	0.0161803
945.315	0.0162388
945.393	0.0162640
945.471	0.0162814
945.549	0.0161811
945.628	0.0161780
945.706	0.0162301
945.784	0.0162147
945.862	0.0161607
945.940	0.0161437
946.018	0.0161848
946.096	0.0162850
946.174	0.0161548
946.253	0.0161720
946.331	0.0160866
946.409	0.0160094
946.487	0.0161581
946.565	0.0161033
946.643	0.0159840
946.721	0.0161523
946.799	0.0161005
946.878	0.0160088
946.956	0.0160002
947.034	0.0161826
947.112	0.0161885
947.190	0.0160525
947.268	0.0159499
947.346	0.0161316
947.424	0.0161836
947.503	0.0161988
947.581	0.0162347
947.659	0.0161102
947.737	0.0160957
947.815	0.0162167
947.893	0.0161945
947.971	0.0162279
948.049	0.0161146
948.128	0.0162259
948.206	0.0162813
948.284	0.0163720
948.362	0.0163476
948.440	0.0163201
948.518	0.0162448
948.596	0.0163017
948.674	0.0162718
948.753	0.0163187
948.831	0.0161977
948.909	0.0163321
948.987	0.0163461
949.065	0.0163857
949.143	0.0163422
949.221	0.0162913
949.299	0.0161867
949.378	0.0161166
949.456	0.0162925
949.534	0.0162289
949.612	0.0162618
949.690	0.0162757
949.768	0.0163835
949.846	0.0162260
949.924	0.0162487
