06/29/2022	22:44:25	Ver.	4.1	UNKNOWN
Optical Delay	630.002507	Delta X		0.078125	Sweeps	1	Scan Rate	0/0
Coordinates	Axis 1	NaN	Axis 2	NaN	Axis 3	NaN	Axis 4	NaN	Axis 5	NaN	Axis 6	0.000000
TX Power	0.000000	RX Power	0.000000

630.003	0.0157964
630.081	0.0158184
630.159	0.0157146
630.237	0.0156151
630.315	0.0158162
630.393	0.0158487
630.471	0.0158127
630.549	0.0159258
630.628	0.0157031
630.706	0.0158622
630.784	0.0159078
630.862	0.0158824
630.940	0.0157593
631.018	0.0157512
631.096	0.0157493
631.174	0.0158096
631.253	0.0158561
631.331	0.0157094
631.409	0.0158098
631.487	0.0158705
631.565	0.0157941
631.643	0.0156725
631.721	0.0158165
631.799	0.0158441
631.878	0.0157703
631.956	0.0157525
632.034	0.0157435
632.112	0.0158784
632.190	0.0159428
632.268	0.0156847
632.346	0.0159227
632.424	0.0158232
632.503	0.0157333
632.581	0.0157080
632.659	0.0158319
632.737	0.0157442
632.815	0.0157300
632.893	0.0158008
632.971	0.0157965
633.049	0.0158012
633.128	0.0158643
633.206	0.0158303
633.284	0.0157878
633.362	0.0158226
633.440	0.0159639
633.518	0.0158102
633.596	0.0157619
633.674	0.0156987
633.753	0.0157063
633.831	0.0157092
633.909	0.0157796
633.987	0.0157847
634.065	0.0157296
634.143	0.0157478
634.221	0.0158278
634.299	0.0157623
634.378	0.0157939
634.456	0.0157844
634.534	0.0157554
634.612	0.0158147
634.690	0.0158361
634.768	0.0158035
634.846	0.0157794
634.924	0.0159218
635.003	0.0158366
635.081	0.0158126
635.159	0.0157751
635.237	0.0157854
635.315	0.0157211
635.393	0.0158782
635.471	0.0158450
635.549	0.0157099
635.628	0.0158041
635.706	0.0158333
635.784	0.0157111
635.862	0.0158470
635.940	0.0157922
636.018	0.0156996
636.096	0.0157973
636.174	0.0158169
636.253	0.0157459
636.331	0.0158037
636.409	0.0157613
636.487	0.0157155
636.565	0.0158427
636.643	0.0158379
636.721	0.0158206
636.799	0.0158772
636.878	0.0158361
636.956	0.0156784
637.034	0.0157451
637.112	0.0158099
637.190	0.0158174
637.268	0.0158154
637.346	0.0159924
637.424	0.0157571
637.503	0.0156686
637.581	0.0157976
637.659	0.0158656
637.737	0.0157711
637.815	0.0157872
637.893	0.0157190
637.971	0.0158097
638.049	0.0157674
638.128	0.0157530
638.206	0.0157906
638.284	0.0159071
638.362	0.0157213
638.440	0.0157093
638.518	0.0157991
638.596	0.0157807
638.674	0.0158722
638.753	0.0158884
638.831	0.0157817
638.909	0.0159169
638.987	0.0158533
639.065	0.0157165
639.143	0.0157924
639.221	0.0157140
639.299	0.0157805
639.378	0.0158371
639.456	0.0158777
639.534	0.0159116
639.612	0.0159075
639.690	0.0158001
639.768	0.0158704
639.846	0.0157549
639.924	0.0157245
640.003	0.0157481
640.081	0.0157029
640.159	0.0157979
640.237	0.0157117
640.315	0.0156967
640.393	0.0157927
640.471	0.0158067
640.549	0.0159106
640.628	0.0159438
640.706	0.0157433
640.784	0.0158430
640.862	0.0158648
640.940	0.0158569
641.018	0.0157491
641.096	0.0157891
641.174	0.0157924
641.253	0.0157600
641.331	0.0158224
641.409	0.0159075
641.487	0.0158261
641.565	0.0157507
641.643	0.0157195
641.721	0.0157606
641.799	0.0158363
641.878	0.0158819
641.956	0.0156616
642.034	0.0158632
642.112	0.0156957
642.190	0.0156567
642.268	0.0157918
642.346	0.0157228
642.424	0.0158128
642.503	0.0158497
642.581	0.0158538
642.659	0.0158105
642.737	0.0158649
642.815	0.0158874
642.893	0.0157391
642.971	0.0157857
643.049	0.0156540
643.128	0.0158096
643.206	0.0157267
643.284	0.0157411
643.362	0.0158382
643.440	0.0159106
643.518	0.0158478
643.596	0.0157648
643.674	0.0158723
643.753	0.0158362
643.831	0.0157800
643.909	0.0157652
643.987	0.0157532
644.065	0.0159039
644.143	0.0157442
644.221	0.0157433
644.299	0.0158343
644.378	0.0158127
644.456	0.0158128
644.534	0.0158190
644.612	0.0157490
644.690	0.0158287
644.768	0.0156648
644.846	0.0159263
644.924	0.0157791
645.003	0.0158680
645.081	0.0158449
645.159	0.0157717
645.237	0.0158841
645.315	0.0159727
645.393	0.0158041
645.471	0.0159469
645.549	0.0158482
645.628	0.0158466
645.706	0.0157798
645.784	0.0158135
645.862	0.0158264
645.940	0.0156638
646.018	0.0159066
646.096	0.0158186
646.174	0.0158138
646.253	0.0158162
646.331	0.0157550
646.409	0.0156925
646.487	0.0157687
646.565	0.0158907
646.643	0.0157857
646.721	0.0157830
646.799	0.0160109
646.878	0.0157872
646.956	0.0156530
647.034	0.0157565
647.112	0.0158633
647.190	0.0157709
647.268	0.0158571
647.346	0.0158369
647.424	0.0159525
647.503	0.0158975
647.581	0.0156576
647.659	0.0157917
647.737	0.0158560
647.815	0.0157325
647.893	0.0158683
647.971	0.0159601
648.049	0.0158460
648.128	0.0157889
648.206	0.0156931
648.284	0.0158113
648.362	0.0157790
648.440	0.0159801
648.518	0.0159416
648.596	0.0157196
648.674	0.0159084
648.753	0.0159055
648.831	0.0158452
648.909	0.0159492
648.987	0.0159045
649.065	0.0158681
649.143	0.0158595
649.221	0.0157261
649.299	0.0158106
649.378	0.0158482
649.456	0.0158394
649.534	0.0158200
649.612	0.0157755
649.690	0.0158126
649.768	0.0157941
649.846	0.0156717
649.924	0.0157898
650.003	0.0159691
650.081	0.0157439
650.159	0.0157974
650.237	0.0158018
650.315	0.0158224
650.393	0.0158052
650.471	0.0157476
650.549	0.0156415
650.628	0.0158704
650.706	0.0159724
650.784	0.0159388
650.862	0.0158430
650.940	0.0159235
651.018	0.0158438
651.096	0.0157492
651.174	0.0158246
651.253	0.0158893
651.331	0.0157031
651.409	0.0157970
651.487	0.0158154
651.565	0.0159100
651.643	0.0158775
651.721	0.0158315
651.799	0.0157999
651.878	0.0158179
651.956	0.0157858
652.034	0.0157949
652.112	0.0157555
652.190	0.0157718
652.268	0.0158873
652.346	0.0159095
652.424	0.0158179
652.503	0.0157348
652.581	0.0156538
652.659	0.0159268
652.737	0.0158748
652.815	0.0159354
652.893	0.0158451
652.971	0.0157862
653.049	0.0159164
653.128	0.0156916
653.206	0.0156437
653.284	0.0157657
653.362	0.0158430
653.440	0.0158040
653.518	0.0159914
653.596	0.0159039
653.674	0.0159200
653.753	0.0158017
653.831	0.0157704
653.909	0.0159119
653.987	0.0158002
654.065	0.0158566
654.143	0.0159425
654.221	0.0158353
654.299	0.0159599
654.378	0.0157996
654.456	0.0158833
654.534	0.0158176
654.612	0.0158497
654.690	0.0157916
654.768	0.0158498
654.846	0.0157713
654.924	0.0159496
655.003	0.0159632
655.081	0.0158649
655.159	0.0158333
655.237	0.0157231
655.315	0.0159669
655.393	0.0158392
655.471	0.0158962
655.549	0.0158305
655.628	0.0158907
655.706	0.0158015
655.784	0.0158335
655.862	0.0157677
655.940	0.0158681
656.018	0.0157542
656.096	0.0158512
656.174	0.0159775
656.253	0.0159128
656.331	0.0157105
656.409	0.0158788
656.487	0.0156828
656.565	0.0158224
656.643	0.0158511
656.721	0.0159042
656.799	0.0158339
656.878	0.0157388
656.956	0.0157231
657.034	0.0158599
657.112	0.0159341
657.190	0.0157430
657.268	0.0157512
657.346	0.0157833
657.424	0.0158184
657.503	0.0158054
657.581	0.0158036
657.659	0.0159390
657.737	0.0157107
657.815	0.0158104
657.893	0.0158759
657.971	0.0157956
658.049	0.0157728
658.128	0.0158630
658.206	0.0158286
658.284	0.0157176
658.362	0.0158144
658.440	0.0158099
658.518	0.0158397
658.596	0.0157279
658.674	0.0157898
658.753	0.0158952
658.831	0.0158617
658.909	0.0156727
658.987	0.0157990
659.065	0.0157500
659.143	0.0158308
659.221	0.0159000
659.299	0.0158270
659.378	0.0159092
659.456	0.0157953
659.534	0.0158839
659.612	0.0157513
659.690	0.0157123
659.768	0.0157428
659.846	0.0158157
659.924	0.0157674
660.003	0.0157957
660.081	0.0158208
660.159	0.0156811
660.237	0.0157189
660.315	0.0160522
660.393	0.0158119
660.471	0.0157665
660.549	0.0157589
660.628	0.0157351
660.706	0.0157099
660.784	0.0156299
660.862	0.0156449
660.940	0.0159426
661.018	0.0158935
661.096	0.0156800
661.174	0.0156467
661.253	0.0158670
661.331	0.0158759
661.409	0.0157735
661.487	0.0157300
661.565	0.0157359
661.643	0.0157557
661.721	0.0157784
661.799	0.0157053
661.878	0.0156678
661.956	0.0157851
662.034	0.0157148
662.112	0.0158852
662.190	0.0158118
662.268	0.0157578
662.346	0.0158003
662.424	0.0158352
662.503	0.0158310
662.581	0.0157171
662.659	0.0158141
662.737	0.0157743
662.815	0.0156964
662.893	0.0156614
662.971	0.0157928
663.049	0.0157961
663.128	0.0158838
663.206	0.0156898
663.284	0.0158372
663.362	0.0158682
663.440	0.0156753
663.518	0.0158218
663.596	0.0158849
663.674	0.0158102
663.753	0.0158411
663.831	0.0156524
663.909	0.0158649
663.987	0.0156889
664.065	0.0158582
664.143	0.0158552
664.221	0.0157297
664.299	0.0157336
664.378	0.0157589
664.456	0.0158073
664.534	0.0158203
664.612	0.0157948
664.690	0.0158149
664.768	0.0158279
664.846	0.0157919
664.924	0.0158649
665.003	0.0158813
665.081	0.0156992
665.159	0.0158933
665.237	0.0159189
665.315	0.0158617
665.393	0.0156777
665.471	0.0157092
665.549	0.0158537
665.628	0.0159428
665.706	0.0158778
665.784	0.0158669
665.862	0.0158093
665.940	0.0157076
666.018	0.0159269
666.096	0.0158433
666.174	0.0157720
666.253	0.0157441
666.331	0.0158279
666.409	0.0158042
666.487	0.0158630
666.565	0.0158170
666.643	0.0157033
666.721	0.0157516
666.799	0.0158349
666.878	0.0158049
666.956	0.0157391
667.034	0.0158263
667.112	0.0158550
667.190	0.0157917
667.268	0.0157217
667.346	0.0158038
667.424	0.0159024
667.503	0.0158321
667.581	0.0157446
667.659	0.0157436
667.737	0.0157916
667.815	0.0157903
667.893	0.0157980
667.971	0.0156188
668.049	0.0157404
668.128	0.0158987
668.206	0.0159442
668.284	0.0158727
668.362	0.0158762
668.440	0.0157776
668.518	0.0158472
668.596	0.0158842
668.674	0.0158524
668.753	0.0158566
668.831	0.0157919
668.909	0.0158381
668.987	0.0159206
669.065	0.0158672
669.143	0.0157545
669.221	0.0158036
669.299	0.0157983
669.378	0.0157955
669.456	0.0157629
669.534	0.0158900
669.612	0.0158405
669.690	0.0158600
669.768	0.0158084
669.846	0.0159373
669.924	0.0157878
670.003	0.0158487
670.081	0.0157571
670.159	0.0158277
670.237	0.0158237
670.315	0.0158678
670.393	0.0158071
670.471	0.0158588
670.549	0.0157546
670.628	0.0158467
670.706	0.0158466
670.784	0.0158891
670.862	0.0158585
670.940	0.0157578
671.018	0.0157497
671.096	0.0158641
671.174	0.0159740
671.253	0.0159461
671.331	0.0158010
671.409	0.0158840
671.487	0.0159293
671.565	0.0158607
671.643	0.0157523
671.721	0.0157013
671.799	0.0158852
671.878	0.0158983
671.956	0.0157785
672.034	0.0158296
672.112	0.0157813
672.190	0.0156829
672.268	0.0157363
672.346	0.0157890
672.424	0.0158575
672.503	0.0158492
672.581	0.0158681
672.659	0.0156537
672.737	0.0157344
672.815	0.0159203
672.893	0.0157880
672.971	0.0157740
673.049	0.0157161
673.128	0.0158466
673.206	0.0158854
673.284	0.0158651
673.362	0.0156783
673.440	0.0157085
673.518	0.0156750
673.596	0.0157063
673.674	0.0157745
673.753	0.0158379
673.831	0.0157635
673.909	0.0157633
673.987	0.0158250
674.065	0.0158286
674.143	0.0159225
674.221	0.0157455
674.299	0.0157756
674.378	0.0158608
674.456	0.0158472
674.534	0.0157130
674.612	0.0157869
674.690	0.0158573
674.768	0.0157932
674.846	0.0158806
674.924	0.0158199
675.003	0.0156466
675.081	0.0157015
675.159	0.0157895
675.237	0.0158366
675.315	0.0158652
675.393	0.0156841
675.471	0.0156540
675.549	0.0159274
675.628	0.0158753
675.706	0.0158386
675.784	0.0157854
675.862	0.0157713
675.940	0.0159545
676.018	0.0158781
676.096	0.0157994
676.174	0.0157563
676.253	0.0158067
676.331	0.0158219
676.409	0.0156393
676.487	0.0157285
676.565	0.0158630
676.643	0.0157560
676.721	0.0157654
676.799	0.0158830
676.878	0.0158006
676.956	0.0157522
677.034	0.0157957
677.112	0.0157899
677.190	0.0157925
677.268	0.0159101
677.346	0.0158600
677.424	0.0157504
677.503	0.0157126
677.581	0.0158089
677.659	0.0158478
677.737	0.0157328
677.815	0.0157218
677.893	0.0156578
677.971	0.0157257
678.049	0.0158310
678.128	0.0158896
678.206	0.0158092
678.284	0.0157928
678.362	0.0159209
678.440	0.0158659
678.518	0.0157845
678.596	0.0158884
678.674	0.0158926
678.753	0.0158880
678.831	0.0157435
678.909	0.0158566
678.987	0.0157382
679.065	0.0156939
679.143	0.0158321
679.221	0.0157957
679.299	0.0158967
679.378	0.0158160
679.456	0.0159034
679.534	0.0157771
679.612	0.0156993
679.690	0.0157016
679.768	0.0157902
679.846	0.0158344
679.924	0.0156982
680.003	0.0158577
680.081	0.0157319
680.159	0.0158031
680.237	0.0158216
680.315	0.0158457
680.393	0.0157486
680.471	0.0157240
680.549	0.0158210
680.628	0.0158691
680.706	0.0157821
680.784	0.0157619
680.862	0.0157497
680.940	0.0157883
681.018	0.0157970
681.096	0.0157188
681.174	0.0158373
681.253	0.0159082
681.331	0.0157281
681.409	0.0158585
681.487	0.0158232
681.565	0.0159085
681.643	0.0158295
681.721	0.0158562
681.799	0.0156959
681.878	0.0157101
681.956	0.0159804
682.034	0.0157445
682.112	0.0157877
682.190	0.0157624
682.268	0.0157143
682.346	0.0157667
682.424	0.0157494
682.503	0.0157069
682.581	0.0158488
682.659	0.0158704
682.737	0.0156918
682.815	0.0158354
682.893	0.0157872
682.971	0.0158553
683.049	0.0157702
683.128	0.0157974
683.206	0.0158404
683.284	0.0156667
683.362	0.0157652
683.440	0.0158846
683.518	0.0159137
683.596	0.0157768
683.674	0.0156686
683.753	0.0158810
683.831	0.0159542
683.909	0.0158889
683.987	0.0157002
684.065	0.0159489
684.143	0.0158147
684.221	0.0157475
684.299	0.0157061
684.378	0.0157592
684.456	0.0159505
684.534	0.0158981
684.612	0.0156504
684.690	0.0157522
684.768	0.0157878
684.846	0.0157269
684.924	0.0157574
685.003	0.0157244
685.081	0.0158393
685.159	0.0157241
685.237	0.0158667
685.315	0.0158321
685.393	0.0157851
685.471	0.0158311
685.549	0.0157728
685.628	0.0157780
685.706	0.0157533
685.784	0.0158337
685.862	0.0158975
685.940	0.0157959
686.018	0.0158342
686.096	0.0157512
686.174	0.0157543
686.253	0.0159278
686.331	0.0158974
686.409	0.0157655
686.487	0.0157474
686.565	0.0157516
686.643	0.0158234
686.721	0.0157105
686.799	0.0157736
686.878	0.0158969
686.956	0.0157077
687.034	0.0157881
687.112	0.0157994
687.190	0.0157355
687.268	0.0158244
687.346	0.0156938
687.424	0.0156355
687.503	0.0158414
687.581	0.0159510
687.659	0.0157739
687.737	0.0157214
687.815	0.0156307
687.893	0.0158654
687.971	0.0157034
688.049	0.0158241
688.128	0.0157448
688.206	0.0159085
688.284	0.0158038
688.362	0.0156529
688.440	0.0156927
688.518	0.0158273
688.596	0.0157655
688.674	0.0157911
688.753	0.0157867
688.831	0.0158377
688.909	0.0157340
688.987	0.0157912
689.065	0.0158401
689.143	0.0157623
689.221	0.0156844
689.299	0.0158215
689.378	0.0157654
689.456	0.0158945
689.534	0.0158690
689.612	0.0157679
689.690	0.0157566
689.768	0.0158538
689.846	0.0157702
689.924	0.0157567
690.003	0.0158130
690.081	0.0158607
690.159	0.0157934
690.237	0.0156824
690.315	0.0158105
690.393	0.0158368
690.471	0.0158844
690.549	0.0157213
690.628	0.0157985
690.706	0.0158436
690.784	0.0159430
690.862	0.0159013
690.940	0.0158325
691.018	0.0158562
691.096	0.0158556
691.174	0.0158456
691.253	0.0157681
691.331	0.0158232
691.409	0.0158044
691.487	0.0159072
691.565	0.0157565
691.643	0.0159019
691.721	0.0158156
691.799	0.0158971
691.878	0.0158479
691.956	0.0157099
692.034	0.0157835
692.112	0.0158009
692.190	0.0157515
692.268	0.0159502
692.346	0.0157576
692.424	0.0158524
692.503	0.0158210
692.581	0.0157890
692.659	0.0158890
692.737	0.0158411
692.815	0.0158283
692.893	0.0158223
692.971	0.0158555
693.049	0.0157494
693.128	0.0157628
693.206	0.0158504
693.284	0.0158456
693.362	0.0157571
693.440	0.0158247
693.518	0.0158115
693.596	0.0158532
693.674	0.0157109
693.753	0.0157563
693.831	0.0158389
693.909	0.0158397
693.987	0.0158284
694.065	0.0157573
694.143	0.0156932
694.221	0.0157208
694.299	0.0157870
694.378	0.0158311
694.456	0.0157370
694.534	0.0158009
694.612	0.0158919
694.690	0.0157428
694.768	0.0157430
694.846	0.0158374
694.924	0.0158711
695.003	0.0157102
695.081	0.0158013
695.159	0.0156701
695.237	0.0157843
695.315	0.0157461
695.393	0.0156966
695.471	0.0159409
695.549	0.0158384
695.628	0.0157644
695.706	0.0158255
695.784	0.0158576
695.862	0.0157286
695.940	0.0158229
696.018	0.0157742
696.096	0.0158938
696.174	0.0157552
696.253	0.0157016
696.331	0.0159189
696.409	0.0158647
696.487	0.0157660
696.565	0.0158125
696.643	0.0158277
696.721	0.0157584
696.799	0.0157145
696.878	0.0157435
696.956	0.0157448
697.034	0.0157229
697.112	0.0159285
697.190	0.0158167
697.268	0.0157719
697.346	0.0158269
697.424	0.0156618
697.503	0.0157484
697.581	0.0157801
697.659	0.0157950
697.737	0.0159660
697.815	0.0158650
697.893	0.0158308
697.971	0.0157608
698.049	0.0159566
698.128	0.0158073
698.206	0.0157355
698.284	0.0158490
698.362	0.0158518
698.440	0.0157656
698.518	0.0159005
698.596	0.0158244
698.674	0.0157555
698.753	0.0158243
698.831	0.0159060
698.909	0.0159425
698.987	0.0158636
699.065	0.0157185
699.143	0.0158530
699.221	0.0158717
699.299	0.0157596
699.378	0.0156931
699.456	0.0158268
699.534	0.0158166
699.612	0.0157475
699.690	0.0158154
699.768	0.0158743
699.846	0.0158679
699.924	0.0158886
700.003	0.0158004
700.081	0.0157194
700.159	0.0156464
700.237	0.0158911
700.315	0.0158677
700.393	0.0158258
700.471	0.0158465
700.549	0.0157413
700.628	0.0158398
700.706	0.0157813
700.784	0.0157823
700.862	0.0157568
700.940	0.0157945
701.018	0.0157635
701.096	0.0158250
701.174	0.0158949
701.253	0.0158249
701.331	0.0157764
701.409	0.0157550
701.487	0.0156593
701.565	0.0158003
701.643	0.0159424
701.721	0.0157544
701.799	0.0157993
701.878	0.0158934
701.956	0.0158179
702.034	0.0159270
702.112	0.0157944
702.190	0.0157372
702.268	0.0158890
702.346	0.0158120
702.424	0.0157808
702.503	0.0158228
702.581	0.0157646
702.659	0.0158160
702.737	0.0157389
702.815	0.0159293
702.893	0.0158883
702.971	0.0157887
703.049	0.0158889
703.128	0.0158356
703.206	0.0156876
703.284	0.0157918
703.362	0.0157460
703.440	0.0157563
703.518	0.0159496
703.596	0.0157868
703.674	0.0157026
703.753	0.0156258
703.831	0.0158379
703.909	0.0159492
703.987	0.0158190
704.065	0.0158291
704.143	0.0158212
704.221	0.0156367
704.299	0.0157694
704.378	0.0158587
704.456	0.0157639
704.534	0.0157833
704.612	0.0157786
704.690	0.0158439
704.768	0.0157256
704.846	0.0158215
704.924	0.0158107
705.003	0.0158355
705.081	0.0158123
705.159	0.0157476
705.237	0.0156154
705.315	0.0158656
705.393	0.0158373
705.471	0.0157182
705.549	0.0158634
705.628	0.0158368
705.706	0.0157301
705.784	0.0158047
705.862	0.0158219
705.940	0.0159423
706.018	0.0157127
706.096	0.0157840
706.174	0.0156920
706.253	0.0156623
706.331	0.0157117
706.409	0.0156802
706.487	0.0158178
706.565	0.0157930
706.643	0.0155737
706.721	0.0159160
706.799	0.0158009
706.878	0.0156590
706.956	0.0156860
707.034	0.0157401
707.112	0.0157851
707.190	0.0158116
707.268	0.0157523
707.346	0.0157520
707.424	0.0158354
707.503	0.0157365
707.581	0.0157964
707.659	0.0157366
707.737	0.0158390
707.815	0.0157922
707.893	0.0157442
707.971	0.0158591
708.049	0.0157751
708.128	0.0158075
708.206	0.0158383
708.284	0.0157957
708.362	0.0157372
708.440	0.0157978
708.518	0.0158324
708.596	0.0158938
708.674	0.0157600
708.753	0.0156745
708.831	0.0158501
708.909	0.0157353
708.987	0.0158051
709.065	0.0157582
709.143	0.0157553
709.221	0.0158143
709.299	0.0157094
709.378	0.0157301
709.456	0.0158109
709.534	0.0157603
709.612	0.0157587
709.690	0.0156300
709.768	0.0158849
709.846	0.0158266
709.924	0.0156763
710.003	0.0157307
710.081	0.0156980
710.159	0.0157282
710.237	0.0157046
710.315	0.0158396
710.393	0.0157800
710.471	0.0157220
710.549	0.0157338
710.628	0.0158121
710.706	0.0157376
710.784	0.0157858
710.862	0.0157681
710.940	0.0157714
711.018	0.0156174
711.096	0.0157793
711.174	0.0158589
711.253	0.0157439
711.331	0.0156946
711.409	0.0156995
711.487	0.0157424
711.565	0.0158168
711.643	0.0159480
711.721	0.0157088
711.799	0.0156287
711.878	0.0156606
711.956	0.0159151
712.034	0.0157854
712.112	0.0158653
712.190	0.0160874
712.268	0.0159171
712.346	0.0157837
712.424	0.0158801
712.503	0.0158356
712.581	0.0158951
712.659	0.0158617
712.737	0.0159832
712.815	0.0158853
712.893	0.0158707
712.971	0.0158424
713.049	0.0157856
713.128	0.0157986
713.206	0.0159662
713.284	0.0158941
713.362	0.0158606
713.440	0.0159212
713.518	0.0158453
713.596	0.0158572
713.674	0.0158739
713.753	0.0160023
713.831	0.0159169
713.909	0.0158924
713.987	0.0159120
714.065	0.0159176
714.143	0.0160078
714.221	0.0159075
714.299	0.0157754
714.378	0.0159615
714.456	0.0159041
714.534	0.0157854
714.612	0.0158478
714.690	0.0158291
714.768	0.0157526
714.846	0.0157925
714.924	0.0157751
715.003	0.0156788
715.081	0.0156187
715.159	0.0157702
715.237	0.0156847
715.315	0.0156915
715.393	0.0157055
715.471	0.0155134
715.549	0.0156234
715.628	0.0156561
715.706	0.0154777
715.784	0.0156046
715.862	0.0155248
715.940	0.0155391
716.018	0.0156378
716.096	0.0156980
716.174	0.0155921
716.253	0.0156553
716.331	0.0158983
716.409	0.0159946
716.487	0.0159133
716.565	0.0161166
716.643	0.0162202
716.721	0.0160616
716.799	0.0162471
716.878	0.0161680
716.956	0.0160342
717.034	0.0163336
717.112	0.0162157
717.190	0.0161490
717.268	0.0159855
717.346	0.0159829
717.424	0.0156920
717.503	0.0157465
717.581	0.0156318
717.659	0.0153124
717.737	0.0154884
717.815	0.0153533
717.893	0.0153114
717.971	0.0155118
718.049	0.0153659
718.128	0.0154919
718.206	0.0155875
718.284	0.0156949
718.362	0.0158101
718.440	0.0159070
718.518	0.0161018
718.596	0.0162086
718.674	0.0164845
718.753	0.0165496
718.831	0.0164079
718.909	0.0165088
718.987	0.0165650
719.065	0.0165002
719.143	0.0163147
719.221	0.0160680
719.299	0.0159834
719.378	0.0157996
719.456	0.0154488
719.534	0.0151937
719.612	0.0149837
719.690	0.0147951
719.768	0.0147582
719.846	0.0146975
719.924	0.0146809
720.003	0.0146960
720.081	0.0146927
720.159	0.0149881
720.237	0.0151299
720.315	0.0153185
720.393	0.0156325
720.471	0.0159356
720.549	0.0162380
720.628	0.0163988
720.706	0.0165510
720.784	0.0167907
720.862	0.0169057
720.940	0.0171333
721.018	0.0172424
721.096	0.0170995
721.174	0.0169160
721.253	0.0166093
721.331	0.0165563
721.409	0.0163721
721.487	0.0160450
721.565	0.0156564
721.643	0.0154442
721.721	0.0151717
721.799	0.0149187
721.878	0.0147597
721.956	0.0146870
722.034	0.0146649
722.112	0.0146272
722.190	0.0146245
722.268	0.0146677
722.346	0.0149235
722.424	0.0149623
722.503	0.0152285
722.581	0.0154289
722.659	0.0157122
722.737	0.0158553
722.815	0.0161388
722.893	0.0162689
722.971	0.0163669
723.049	0.0166942
723.128	0.0168670
723.206	0.0167747
723.284	0.0167800
723.362	0.0168353
723.440	0.0167348
723.518	0.0167371
723.596	0.0165347
723.674	0.0163963
723.753	0.0163623
723.831	0.0162207
723.909	0.0160543
723.987	0.0159320
724.065	0.0158298
724.143	0.0157253
724.221	0.0156954
724.299	0.0156336
724.378	0.0154352
724.456	0.0153658
724.534	0.0151673
724.612	0.0151765
724.690	0.0151514
724.768	0.0149514
724.846	0.0150267
724.924	0.0149809
725.003	0.0149916
725.081	0.0151925
725.159	0.0152637
725.237	0.0152043
725.315	0.0153384
725.393	0.0154694
725.471	0.0156129
725.549	0.0158267
725.628	0.0160335
725.706	0.0162471
725.784	0.0163125
725.862	0.0164431
725.940	0.0166112
726.018	0.0166268
726.096	0.0167590
726.174	0.0166064
726.253	0.0166891
726.331	0.0165285
726.409	0.0164688
726.487	0.0162738
726.565	0.0160851
726.643	0.0159035
726.721	0.0157690
726.799	0.0156280
726.878	0.0154937
726.956	0.0154717
727.034	0.0153686
727.112	0.0155261
727.190	0.0153249
727.268	0.0153837
727.346	0.0154352
727.424	0.0154217
727.503	0.0156012
727.581	0.0156882
727.659	0.0156185
727.737	0.0156775
727.815	0.0158305
727.893	0.0156707
727.971	0.0156596
728.049	0.0157800
728.128	0.0157679
728.206	0.0157266
728.284	0.0157528
728.362	0.0156887
728.440	0.0155654
728.518	0.0154482
728.596	0.0156190
728.674	0.0155883
728.753	0.0154485
728.831	0.0154504
728.909	0.0155209
728.987	0.0154973
729.065	0.0155312
729.143	0.0156993
729.221	0.0155721
729.299	0.0158083
729.378	0.0157880
729.456	0.0157461
729.534	0.0157790
729.612	0.0158791
729.690	0.0159914
729.768	0.0159969
729.846	0.0161739
729.924	0.0159853
730.003	0.0159402
730.081	0.0159373
730.159	0.0160246
730.237	0.0160266
730.315	0.0159991
730.393	0.0160358
730.471	0.0160848
730.549	0.0159879
730.628	0.0159634
730.706	0.0159600
730.784	0.0160409
730.862	0.0159477
730.940	0.0160071
731.018	0.0160161
731.096	0.0159859
731.174	0.0159553
731.253	0.0159045
731.331	0.0160081
731.409	0.0160380
731.487	0.0159487
731.565	0.0157452
731.643	0.0157726
731.721	0.0157142
731.799	0.0156522
731.878	0.0157129
731.956	0.0155582
732.034	0.0155962
732.112	0.0154820
732.190	0.0154224
732.268	0.0153658
732.346	0.0153727
732.424	0.0152892
732.503	0.0153287
732.581	0.0153547
732.659	0.0152995
732.737	0.0154479
732.815	0.0154821
732.893	0.0154557
732.971	0.0156750
733.049	0.0156728
733.128	0.0156284
733.206	0.0156973
733.284	0.0157615
733.362	0.0159555
733.440	0.0159492
733.518	0.0159474
733.596	0.0160295
733.674	0.0159661
733.753	0.0158195
733.831	0.0157607
733.909	0.0158291
733.987	0.0157732
734.065	0.0157020
734.143	0.0155096
734.221	0.0155968
734.299	0.0156204
734.378	0.0154912
734.456	0.0155441
734.534	0.0155594
734.612	0.0155692
734.690	0.0155893
734.768	0.0157222
734.846	0.0157680
734.924	0.0160009
735.003	0.0160473
735.081	0.0160897
735.159	0.0163319
735.237	0.0165445
735.315	0.0165324
735.393	0.0167091
735.471	0.0165671
735.549	0.0165823
735.628	0.0165449
735.706	0.0164922
735.784	0.0162925
735.862	0.0161188
735.940	0.0159605
736.018	0.0157827
736.096	0.0155647
736.174	0.0153114
736.253	0.0152586
736.331	0.0151735
736.409	0.0149625
736.487	0.0149040
736.565	0.0150591
736.643	0.0151883
736.721	0.0149853
736.799	0.0151740
736.878	0.0153392
736.956	0.0154671
737.034	0.0155758
737.112	0.0157642
737.190	0.0159256
737.268	0.0161946
737.346	0.0162318
737.424	0.0161546
737.503	0.0162575
737.581	0.0162877
737.659	0.0161314
737.737	0.0162086
737.815	0.0162155
737.893	0.0158910
737.971	0.0156812
738.049	0.0156019
738.128	0.0157035
738.206	0.0155126
738.284	0.0154995
738.362	0.0155085
738.440	0.0153301
738.518	0.0155106
738.596	0.0155006
738.674	0.0156408
738.753	0.0156554
738.831	0.0157520
738.909	0.0158112
738.987	0.0159078
739.065	0.0160484
739.143	0.0160873
739.221	0.0160056
739.299	0.0162038
739.378	0.0162824
739.456	0.0163543
739.534	0.0161213
739.612	0.0162448
739.690	0.0163173
739.768	0.0162444
739.846	0.0161770
739.924	0.0162316
740.003	0.0161404
740.081	0.0160689
740.159	0.0159584
740.237	0.0159885
740.315	0.0159122
740.393	0.0158318
740.471	0.0155523
740.549	0.0156117
740.628	0.0155083
740.706	0.0154288
740.784	0.0154644
740.862	0.0154259
740.940	0.0154498
741.018	0.0155602
741.096	0.0154429
741.174	0.0155009
741.253	0.0154155
741.331	0.0155499
741.409	0.0156707
741.487	0.0157710
741.565	0.0158254
741.643	0.0159718
741.721	0.0159878
741.799	0.0161271
741.878	0.0161301
741.956	0.0160538
742.034	0.0160929
742.112	0.0160303
742.190	0.0159005
742.268	0.0157313
742.346	0.0158549
742.424	0.0157484
742.503	0.0154371
742.581	0.0154888
742.659	0.0153356
742.737	0.0153464
742.815	0.0153136
742.893	0.0151230
742.971	0.0151989
743.049	0.0153287
743.128	0.0153366
743.206	0.0153957
743.284	0.0156239
743.362	0.0155908
743.440	0.0157202
743.518	0.0156630
743.596	0.0158105
743.674	0.0160275
743.753	0.0161692
743.831	0.0162524
743.909	0.0161960
743.987	0.0161915
744.065	0.0162653
744.143	0.0162070
744.221	0.0161915
744.299	0.0161806
744.378	0.0160391
744.456	0.0158821
744.534	0.0158501
744.612	0.0157499
744.690	0.0156000
744.768	0.0154977
744.846	0.0156010
744.924	0.0154441
745.003	0.0153453
745.081	0.0152438
745.159	0.0153489
745.237	0.0153876
745.315	0.0156290
745.393	0.0157589
745.471	0.0158356
745.549	0.0158479
745.628	0.0160989
745.706	0.0161581
745.784	0.0161320
745.862	0.0162769
745.940	0.0162784
746.018	0.0162125
746.096	0.0165186
746.174	0.0163091
746.253	0.0162212
746.331	0.0161215
746.409	0.0160596
746.487	0.0159206
746.565	0.0157742
746.643	0.0157793
746.721	0.0156811
746.799	0.0157041
746.878	0.0156879
746.956	0.0155353
747.034	0.0156954
747.112	0.0155374
747.190	0.0155739
747.268	0.0157291
747.346	0.0156038
747.424	0.0157513
747.503	0.0157633
747.581	0.0157152
747.659	0.0157781
747.737	0.0158652
747.815	0.0156636
747.893	0.0158031
747.971	0.0157801
748.049	0.0159071
748.128	0.0158052
748.206	0.0158192
748.284	0.0157552
748.362	0.0157047
748.440	0.0157426
748.518	0.0156946
748.596	0.0157360
748.674	0.0158543
748.753	0.0157410
748.831	0.0157227
748.909	0.0159864
748.987	0.0157548
749.065	0.0157150
749.143	0.0156709
749.221	0.0157911
749.299	0.0158549
749.378	0.0157253
749.456	0.0158298
749.534	0.0158111
749.612	0.0158618
749.690	0.0159322
749.768	0.0159312
749.846	0.0157289
749.924	0.0158208
750.003	0.0157852
750.081	0.0158595
750.159	0.0158841
750.237	0.0157885
750.315	0.0160886
750.393	0.0158254
750.471	0.0157678
750.549	0.0158830
750.628	0.0157937
750.706	0.0156045
750.784	0.0155492
750.862	0.0155649
750.940	0.0155323
751.018	0.0155972
751.096	0.0153129
751.174	0.0152676
751.253	0.0153354
751.331	0.0155328
751.409	0.0155385
751.487	0.0156662
751.565	0.0156973
751.643	0.0158727
751.721	0.0158371
751.799	0.0159381
751.878	0.0160513
751.956	0.0161423
752.034	0.0161076
752.112	0.0160893
752.190	0.0161729
752.268	0.0161079
752.346	0.0160384
752.424	0.0160982
752.503	0.0161522
752.581	0.0160418
752.659	0.0159035
752.737	0.0159752
752.815	0.0159479
752.893	0.0158839
752.971	0.0157812
753.049	0.0157249
753.128	0.0156847
753.206	0.0155988
753.284	0.0156484
753.362	0.0153870
753.440	0.0155598
753.518	0.0155762
753.596	0.0155877
753.674	0.0155881
753.753	0.0155360
753.831	0.0155828
753.909	0.0157631
753.987	0.0156927
754.065	0.0157843
754.143	0.0157870
754.221	0.0159315
754.299	0.0159404
754.378	0.0158607
754.456	0.0160176
754.534	0.0159686
754.612	0.0159592
754.690	0.0160441
754.768	0.0161061
754.846	0.0160284
754.924	0.0159090
755.003	0.0160050
755.081	0.0158611
755.159	0.0157932
755.237	0.0156655
755.315	0.0155827
755.393	0.0155213
755.471	0.0155875
755.549	0.0155560
755.628	0.0155736
755.706	0.0157446
755.784	0.0158475
755.862	0.0158410
755.940	0.0157309
756.018	0.0156486
756.096	0.0157665
756.174	0.0157873
756.253	0.0157328
756.331	0.0157605
756.409	0.0159216
756.487	0.0158672
756.565	0.0157846
756.643	0.0158839
756.721	0.0158423
756.799	0.0155932
756.878	0.0157384
756.956	0.0158188
757.034	0.0156392
757.112	0.0157262
757.190	0.0157271
757.268	0.0156631
757.346	0.0157469
757.424	0.0156278
757.503	0.0157133
757.581	0.0158007
757.659	0.0156985
757.737	0.0158131
757.815	0.0157864
757.893	0.0158485
757.971	0.0157761
758.049	0.0159049
758.128	0.0158473
758.206	0.0156463
758.284	0.0158477
758.362	0.0156919
758.440	0.0156609
758.518	0.0157363
758.596	0.0158140
758.674	0.0156946
758.753	0.0156839
758.831	0.0156297
758.909	0.0157266
758.987	0.0157386
759.065	0.0156559
759.143	0.0157307
759.221	0.0156519
759.299	0.0156267
759.378	0.0157526
759.456	0.0157393
759.534	0.0157718
759.612	0.0158433
759.690	0.0157283
759.768	0.0157547
759.846	0.0158269
759.924	0.0156415
760.003	0.0158246
760.081	0.0158669
760.159	0.0159011
760.237	0.0159733
760.315	0.0159787
760.393	0.0160589
760.471	0.0159251
760.549	0.0158966
760.628	0.0159130
760.706	0.0158286
760.784	0.0159901
760.862	0.0158653
760.940	0.0158549
761.018	0.0158175
761.096	0.0158202
761.174	0.0155311
761.253	0.0156326
761.331	0.0156629
761.409	0.0155159
761.487	0.0154880
761.565	0.0154066
761.643	0.0153807
761.721	0.0157067
761.799	0.0155343
761.878	0.0155882
761.956	0.0155551
762.034	0.0155940
762.112	0.0156313
762.190	0.0156726
762.268	0.0157224
762.346	0.0159118
762.424	0.0157066
762.503	0.0159700
762.581	0.0160493
762.659	0.0159266
762.737	0.0160191
762.815	0.0160101
762.893	0.0161765
762.971	0.0158817
763.049	0.0162250
763.128	0.0161655
763.206	0.0160962
763.284	0.0159643
763.362	0.0159238
763.440	0.0158587
763.518	0.0158360
763.596	0.0158752
763.674	0.0158720
763.753	0.0158139
763.831	0.0159336
763.909	0.0157967
763.987	0.0157484
764.065	0.0156689
764.143	0.0157549
764.221	0.0158211
764.299	0.0156609
764.378	0.0157095
764.456	0.0156741
764.534	0.0158833
764.612	0.0159552
764.690	0.0157204
764.768	0.0158408
764.846	0.0157080
764.924	0.0156734
765.003	0.0158031
765.081	0.0156702
765.159	0.0156104
765.237	0.0157140
765.315	0.0157748
765.393	0.0155587
765.471	0.0156104
765.549	0.0156496
765.628	0.0156859
765.706	0.0157024
765.784	0.0156615
765.862	0.0156904
765.940	0.0156930
766.018	0.0158447
766.096	0.0159146
766.174	0.0158193
766.253	0.0158024
766.331	0.0160085
766.409	0.0160084
766.487	0.0159632
766.565	0.0160532
766.643	0.0159892
766.721	0.0159930
766.799	0.0159947
766.878	0.0157852
766.956	0.0159965
767.034	0.0159522
767.112	0.0158629
767.190	0.0157858
767.268	0.0157338
767.346	0.0156773
767.424	0.0157111
767.503	0.0156002
767.581	0.0157558
767.659	0.0158460
767.737	0.0157142
767.815	0.0154891
767.893	0.0156464
767.971	0.0156809
768.049	0.0155313
768.128	0.0156130
768.206	0.0157423
768.284	0.0155598
768.362	0.0158106
768.440	0.0157240
768.518	0.0156821
768.596	0.0157408
768.674	0.0157168
768.753	0.0156953
768.831	0.0156807
768.909	0.0156612
768.987	0.0156644
769.065	0.0156322
769.143	0.0155905
769.221	0.0156728
769.299	0.0156610
769.378	0.0157024
769.456	0.0155489
769.534	0.0156815
769.612	0.0157015
769.690	0.0158030
769.768	0.0156752
769.846	0.0158628
769.924	0.0159004
770.003	0.0158659
770.081	0.0159692
770.159	0.0158747
770.237	0.0158341
770.315	0.0158787
770.393	0.0158527
770.471	0.0157777
770.549	0.0156171
770.628	0.0157935
770.706	0.0157407
770.784	0.0156408
770.862	0.0156063
770.940	0.0156552
771.018	0.0156886
771.096	0.0156396
771.174	0.0157156
771.253	0.0155984
771.331	0.0157510
771.409	0.0159756
771.487	0.0158944
771.565	0.0158887
771.643	0.0158154
771.721	0.0158463
771.799	0.0159437
771.878	0.0158652
771.956	0.0159769
772.034	0.0159052
772.112	0.0158401
772.190	0.0157903
772.268	0.0158408
772.346	0.0157417
772.424	0.0157454
772.503	0.0156831
772.581	0.0155516
772.659	0.0155289
772.737	0.0154461
772.815	0.0154819
772.893	0.0154472
772.971	0.0153165
773.049	0.0152915
773.128	0.0155030
773.206	0.0156842
773.284	0.0155077
773.362	0.0156122
773.440	0.0156621
773.518	0.0156681
773.596	0.0156995
773.674	0.0156252
773.753	0.0157145
773.831	0.0159084
773.909	0.0159384
773.987	0.0158465
774.065	0.0159518
774.143	0.0160478
774.221	0.0159827
774.299	0.0159776
774.378	0.0159213
774.456	0.0159734
774.534	0.0158904
774.612	0.0159084
774.690	0.0159358
774.768	0.0158679
774.846	0.0158801
774.924	0.0159268
775.003	0.0159115
775.081	0.0158710
775.159	0.0159192
775.237	0.0159267
775.315	0.0158826
775.393	0.0158920
775.471	0.0159267
775.549	0.0158094
775.628	0.0159064
775.706	0.0158907
775.784	0.0157568
775.862	0.0158057
775.940	0.0157034
776.018	0.0157442
776.096	0.0156236
776.174	0.0156513
776.253	0.0156503
776.331	0.0157244
776.409	0.0156084
776.487	0.0155099
776.565	0.0155818
776.643	0.0155794
776.721	0.0155613
776.799	0.0154203
776.878	0.0157069
776.956	0.0155859
777.034	0.0156716
777.112	0.0156148
777.190	0.0157409
777.268	0.0157707
777.346	0.0157558
777.424	0.0157848
777.503	0.0158553
777.581	0.0158530
777.659	0.0157985
777.737	0.0158243
777.815	0.0158472
777.893	0.0158470
777.971	0.0159343
778.049	0.0157739
778.128	0.0157755
778.206	0.0158831
778.284	0.0158915
778.362	0.0158256
778.440	0.0156908
778.518	0.0157404
778.596	0.0158916
778.674	0.0158916
778.753	0.0158820
778.831	0.0159426
778.909	0.0158375
778.987	0.0159287
779.065	0.0159695
779.143	0.0159892
779.221	0.0160284
779.299	0.0160389
779.378	0.0160983
779.456	0.0161298
779.534	0.0162467
779.612	0.0162219
779.690	0.0160320
779.768	0.0161132
779.846	0.0161115
779.924	0.0161404
780.003	0.0159418
780.081	0.0160452
780.159	0.0160401
780.237	0.0160483
780.315	0.0159962
780.393	0.0159559
780.471	0.0157545
780.549	0.0158794
780.628	0.0157552
780.706	0.0158759
780.784	0.0155271
780.862	0.0155972
780.940	0.0155433
781.018	0.0156528
781.096	0.0155224
781.174	0.0154019
781.253	0.0154040
781.331	0.0154243
781.409	0.0154930
781.487	0.0155643
781.565	0.0154634
781.643	0.0155717
781.721	0.0154981
781.799	0.0155169
781.878	0.0156828
781.956	0.0157363
782.034	0.0156440
782.112	0.0157590
782.190	0.0159151
782.268	0.0160353
782.346	0.0159669
782.424	0.0158952
782.503	0.0160480
782.581	0.0158813
782.659	0.0159280
782.737	0.0160809
782.815	0.0158512
782.893	0.0158951
782.971	0.0159106
783.049	0.0159272
783.128	0.0158075
783.206	0.0158439
783.284	0.0157908
783.362	0.0158120
783.440	0.0158437
783.518	0.0159225
783.596	0.0157841
783.674	0.0159065
783.753	0.0159161
783.831	0.0159211
783.909	0.0159914
783.987	0.0159750
784.065	0.0160082
784.143	0.0161119
784.221	0.0160094
784.299	0.0160092
784.378	0.0159078
784.456	0.0157257
784.534	0.0159645
784.612	0.0159228
784.690	0.0157655
784.768	0.0156830
784.846	0.0156204
784.924	0.0156931
785.003	0.0156817
785.081	0.0157417
785.159	0.0155459
785.237	0.0154755
785.315	0.0153731
785.393	0.0155186
785.471	0.0154722
785.549	0.0155215
785.628	0.0156182
785.706	0.0154932
785.784	0.0156623
785.862	0.0156099
785.940	0.0156707
786.018	0.0158572
786.096	0.0159060
786.174	0.0157876
786.253	0.0158958
786.331	0.0159278
786.409	0.0159123
786.487	0.0157206
786.565	0.0158339
786.643	0.0158491
786.721	0.0159212
786.799	0.0157850
786.878	0.0158219
786.956	0.0159286
787.034	0.0158038
787.112	0.0156364
787.190	0.0157435
787.268	0.0157552
787.346	0.0155676
787.424	0.0156638
787.503	0.0156699
787.581	0.0159547
787.659	0.0157368
787.737	0.0157768
787.815	0.0157242
787.893	0.0157671
787.971	0.0157235
788.049	0.0158288
788.128	0.0159377
788.206	0.0158460
788.284	0.0159274
788.362	0.0159319
788.440	0.0160347
788.518	0.0159748
788.596	0.0158573
788.674	0.0159162
788.753	0.0158704
788.831	0.0159010
788.909	0.0158988
788.987	0.0159005
789.065	0.0157409
789.143	0.0156805
789.221	0.0156147
789.299	0.0157932
789.378	0.0158734
789.456	0.0156633
789.534	0.0157753
789.612	0.0156384
789.690	0.0158752
789.768	0.0158648
789.846	0.0156750
789.924	0.0157732
790.003	0.0156487
790.081	0.0158023
790.159	0.0157463
790.237	0.0157681
790.315	0.0158385
790.393	0.0156441
790.471	0.0158669
790.549	0.0157948
790.628	0.0158379
790.706	0.0157407
790.784	0.0157088
790.862	0.0157614
790.940	0.0158636
791.018	0.0156490
791.096	0.0156313
791.174	0.0157922
791.253	0.0159435
791.331	0.0158116
791.409	0.0156920
791.487	0.0158942
791.565	0.0157896
791.643	0.0158537
791.721	0.0157701
791.799	0.0158832
791.878	0.0158624
791.956	0.0159354
792.034	0.0158504
792.112	0.0159348
792.190	0.0159361
792.268	0.0158282
792.346	0.0157599
792.424	0.0158379
792.503	0.0158217
792.581	0.0159147
792.659	0.0160158
792.737	0.0158871
792.815	0.0160025
792.893	0.0159288
792.971	0.0157893
793.049	0.0158247
793.128	0.0158253
793.206	0.0158462
793.284	0.0157098
793.362	0.0158401
793.440	0.0158400
793.518	0.0157563
793.596	0.0157879
793.674	0.0157274
793.753	0.0157159
793.831	0.0157548
793.909	0.0155719
793.987	0.0156691
794.065	0.0155506
794.143	0.0155979
794.221	0.0156520
794.299	0.0156297
794.378	0.0155379
794.456	0.0156046
794.534	0.0158817
794.612	0.0157616
794.690	0.0156368
794.768	0.0156569
794.846	0.0157507
794.924	0.0157796
795.003	0.0156529
795.081	0.0158046
795.159	0.0158974
795.237	0.0157616
795.315	0.0158237
795.393	0.0158124
795.471	0.0158059
795.549	0.0158447
795.628	0.0157448
795.706	0.0158779
795.784	0.0158459
795.862	0.0158981
795.940	0.0159200
796.018	0.0157631
796.096	0.0156896
796.174	0.0158141
796.253	0.0157584
796.331	0.0157754
796.409	0.0158361
796.487	0.0158795
796.565	0.0157719
796.643	0.0157557
796.721	0.0158498
796.799	0.0158275
796.878	0.0159528
796.956	0.0158646
797.034	0.0158278
797.112	0.0159775
797.190	0.0159130
797.268	0.0158201
797.346	0.0160380
797.424	0.0159480
797.503	0.0158055
797.581	0.0158160
797.659	0.0158989
797.737	0.0158034
797.815	0.0158526
797.893	0.0158381
797.971	0.0157662
798.049	0.0157945
798.128	0.0157273
798.206	0.0156561
798.284	0.0156268
798.362	0.0158151
798.440	0.0157273
798.518	0.0156630
798.596	0.0157300
798.674	0.0156705
798.753	0.0156284
798.831	0.0157056
798.909	0.0156238
798.987	0.0158054
799.065	0.0157335
799.143	0.0157350
799.221	0.0158833
799.299	0.0158392
799.378	0.0159311
799.456	0.0158278
799.534	0.0157533
799.612	0.0157946
799.690	0.0158018
799.768	0.0157734
799.846	0.0156778
799.924	0.0156930
800.003	0.0157352
800.081	0.0158197
800.159	0.0157841
800.237	0.0157208
800.315	0.0158007
800.393	0.0158125
800.471	0.0158102
800.549	0.0157347
800.628	0.0157969
800.706	0.0158553
800.784	0.0159348
800.862	0.0159032
800.940	0.0159423
801.018	0.0159084
801.096	0.0157965
801.174	0.0156792
801.253	0.0157968
801.331	0.0158064
801.409	0.0158605
801.487	0.0158807
801.565	0.0157439
801.643	0.0157770
801.721	0.0157789
801.799	0.0158032
801.878	0.0158961
801.956	0.0158128
802.034	0.0158047
802.112	0.0158205
802.190	0.0157265
802.268	0.0158447
802.346	0.0157356
802.424	0.0158181
802.503	0.0159603
802.581	0.0158282
802.659	0.0157803
802.737	0.0158868
802.815	0.0157620
802.893	0.0158844
802.971	0.0158890
803.049	0.0158552
803.128	0.0159032
803.206	0.0158858
803.284	0.0157732
803.362	0.0160389
803.440	0.0159270
803.518	0.0157599
803.596	0.0157652
803.674	0.0157980
803.753	0.0157938
803.831	0.0157750
803.909	0.0158414
803.987	0.0157877
804.065	0.0158310
804.143	0.0157538
804.221	0.0157442
804.299	0.0156712
804.378	0.0156821
804.456	0.0158661
804.534	0.0158030
804.612	0.0157868
804.690	0.0157728
804.768	0.0158980
804.846	0.0158146
804.924	0.0157884
805.003	0.0158107
805.081	0.0157703
805.159	0.0158289
805.237	0.0158554
805.315	0.0158379
805.393	0.0158928
805.471	0.0159797
805.549	0.0158340
805.628	0.0158575
805.706	0.0157430
805.784	0.0157288
805.862	0.0157883
805.940	0.0159357
806.018	0.0159169
806.096	0.0158855
806.174	0.0158103
806.253	0.0158926
806.331	0.0158344
806.409	0.0158935
806.487	0.0159212
806.565	0.0157536
806.643	0.0157147
806.721	0.0157195
806.799	0.0158880
806.878	0.0159409
806.956	0.0159229
807.034	0.0159431
807.112	0.0158630
807.190	0.0158573
807.268	0.0157481
807.346	0.0157809
807.424	0.0157670
807.503	0.0158363
807.581	0.0158492
807.659	0.0158623
807.737	0.0158792
807.815	0.0156542
807.893	0.0157520
807.971	0.0157954
808.049	0.0157464
808.128	0.0157809
808.206	0.0158580
808.284	0.0158356
808.362	0.0158590
808.440	0.0159827
808.518	0.0159317
808.596	0.0158353
808.674	0.0159381
808.753	0.0159975
808.831	0.0159161
808.909	0.0159270
808.987	0.0157585
809.065	0.0159281
809.143	0.0158595
809.221	0.0157852
809.299	0.0157260
809.378	0.0157796
809.456	0.0158253
809.534	0.0157993
809.612	0.0156438
809.690	0.0156169
809.768	0.0156753
809.846	0.0157763
809.924	0.0155781
810.003	0.0156329
810.081	0.0157209
810.159	0.0155533
810.237	0.0155886
810.315	0.0155492
810.393	0.0156170
810.471	0.0155756
810.549	0.0154891
810.628	0.0155096
810.706	0.0156554
810.784	0.0157387
810.862	0.0157234
810.940	0.0157196
811.018	0.0158585
811.096	0.0157986
811.174	0.0157558
811.253	0.0158803
811.331	0.0160161
811.409	0.0159597
811.487	0.0158529
811.565	0.0159564
811.643	0.0158645
811.721	0.0159538
811.799	0.0158640
811.878	0.0158883
811.956	0.0156223
812.034	0.0158467
812.112	0.0159692
812.190	0.0157500
812.268	0.0157613
812.346	0.0158233
812.424	0.0156873
812.503	0.0158788
812.581	0.0158887
812.659	0.0158067
812.737	0.0158109
812.815	0.0159350
812.893	0.0157790
812.971	0.0158939
813.049	0.0157727
813.128	0.0158799
813.206	0.0158270
813.284	0.0158052
813.362	0.0158066
813.440	0.0159036
813.518	0.0157341
813.596	0.0156662
813.674	0.0158325
813.753	0.0156352
813.831	0.0155989
813.909	0.0155883
813.987	0.0154806
814.065	0.0156007
814.143	0.0157187
814.221	0.0155663
814.299	0.0156133
814.378	0.0155542
814.456	0.0156264
814.534	0.0156252
814.612	0.0158108
814.690	0.0158324
814.768	0.0159288
814.846	0.0156909
814.924	0.0159042
815.003	0.0157892
815.081	0.0158794
815.159	0.0160318
815.237	0.0159762
815.315	0.0158721
815.393	0.0158963
815.471	0.0159726
815.549	0.0159673
815.628	0.0157575
815.706	0.0158892
815.784	0.0158302
815.862	0.0157484
815.940	0.0155910
816.018	0.0157510
816.096	0.0157635
816.174	0.0155757
816.253	0.0155625
816.331	0.0155965
816.409	0.0156812
816.487	0.0157346
816.565	0.0156900
816.643	0.0158064
816.721	0.0158083
816.799	0.0157373
816.878	0.0157359
816.956	0.0158041
817.034	0.0158498
817.112	0.0157832
817.190	0.0157565
817.268	0.0157869
817.346	0.0158739
817.424	0.0158549
817.503	0.0159194
817.581	0.0157848
817.659	0.0158437
817.737	0.0157057
817.815	0.0158640
817.893	0.0156637
817.971	0.0157822
818.049	0.0158762
818.128	0.0158700
818.206	0.0156847
818.284	0.0156193
818.362	0.0157510
818.440	0.0157233
818.518	0.0156950
818.596	0.0157658
818.674	0.0157390
818.753	0.0156793
818.831	0.0158502
818.909	0.0158337
818.987	0.0157729
819.065	0.0157723
819.143	0.0158713
819.221	0.0158589
819.299	0.0158418
819.378	0.0157362
819.456	0.0158861
819.534	0.0159205
819.612	0.0158883
819.690	0.0158086
819.768	0.0159017
819.846	0.0157739
819.924	0.0159126
820.003	0.0159033
820.081	0.0159037
820.159	0.0158037
820.237	0.0157215
820.315	0.0157475
820.393	0.0158430
820.471	0.0158655
820.549	0.0158022
820.628	0.0155900
820.706	0.0157565
820.784	0.0157016
820.862	0.0157929
820.940	0.0156251
821.018	0.0156111
821.096	0.0157280
821.174	0.0156782
821.253	0.0156972
821.331	0.0156502
821.409	0.0156557
821.487	0.0157302
821.565	0.0157497
821.643	0.0156399
821.721	0.0157784
821.799	0.0158082
821.878	0.0156689
821.956	0.0155187
822.034	0.0156768
822.112	0.0157170
822.190	0.0157689
822.268	0.0156294
822.346	0.0156904
822.424	0.0158125
822.503	0.0158617
822.581	0.0158312
822.659	0.0158610
822.737	0.0158535
822.815	0.0157882
822.893	0.0158789
822.971	0.0159528
823.049	0.0157850
823.128	0.0159541
823.206	0.0159217
823.284	0.0159353
823.362	0.0159096
823.440	0.0158155
823.518	0.0159342
823.596	0.0157818
823.674	0.0158337
823.753	0.0159062
823.831	0.0157542
823.909	0.0158624
823.987	0.0158266
824.065	0.0159235
824.143	0.0157581
824.221	0.0156393
824.299	0.0157928
824.378	0.0158868
824.456	0.0158947
824.534	0.0157621
824.612	0.0156813
824.690	0.0157314
824.768	0.0157327
824.846	0.0155880
824.924	0.0156337
825.003	0.0157919
825.081	0.0155688
825.159	0.0156627
825.237	0.0157892
825.315	0.0157087
825.393	0.0156926
825.471	0.0158147
825.549	0.0155579
825.628	0.0156235
825.706	0.0158102
825.784	0.0157741
825.862	0.0156489
825.940	0.0157331
826.018	0.0157712
826.096	0.0158185
826.174	0.0157366
826.253	0.0157568
826.331	0.0157020
826.409	0.0158693
826.487	0.0157634
826.565	0.0158138
826.643	0.0156689
826.721	0.0156441
826.799	0.0158600
826.878	0.0158512
826.956	0.0158410
827.034	0.0158501
827.112	0.0158152
827.190	0.0158288
827.268	0.0157938
827.346	0.0157842
827.424	0.0158356
827.503	0.0157495
827.581	0.0157811
827.659	0.0158242
827.737	0.0158086
827.815	0.0158107
827.893	0.0157179
827.971	0.0157722
828.049	0.0158971
828.128	0.0158067
828.206	0.0157310
828.284	0.0156579
828.362	0.0157397
828.440	0.0157735
828.518	0.0156378
828.596	0.0157628
828.674	0.0157150
828.753	0.0156808
828.831	0.0159058
828.909	0.0158673
828.987	0.0157558
829.065	0.0156876
829.143	0.0157340
829.221	0.0157697
829.299	0.0156757
829.378	0.0156995
829.456	0.0158170
829.534	0.0157700
829.612	0.0157173
829.690	0.0158472
829.768	0.0157116
829.846	0.0157513
829.924	0.0158125
830.003	0.0157511
830.081	0.0158157
830.159	0.0157855
830.237	0.0157600
830.315	0.0158294
830.393	0.0158702
830.471	0.0156159
830.549	0.0158477
830.628	0.0157347
830.706	0.0157487
830.784	0.0157873
830.862	0.0157667
830.940	0.0157214
831.018	0.0158301
831.096	0.0159808
831.174	0.0158619
831.253	0.0157646
831.331	0.0157867
831.409	0.0157312
831.487	0.0157813
831.565	0.0158406
831.643	0.0159061
831.721	0.0158804
831.799	0.0159387
831.878	0.0158648
831.956	0.0157697
832.034	0.0159176
832.112	0.0158478
832.190	0.0158848
832.268	0.0157556
832.346	0.0157994
832.424	0.0157957
832.503	0.0157369
832.581	0.0158134
832.659	0.0157140
832.737	0.0156646
832.815	0.0156577
832.893	0.0156686
832.971	0.0156172
833.049	0.0157186
833.128	0.0157114
833.206	0.0157607
833.284	0.0157272
833.362	0.0157423
833.440	0.0157847
833.518	0.0156631
833.596	0.0157541
833.674	0.0157464
833.753	0.0157115
833.831	0.0158131
833.909	0.0158913
833.987	0.0157989
834.065	0.0157796
834.143	0.0158480
834.221	0.0158782
834.299	0.0157930
834.378	0.0157179
834.456	0.0158160
834.534	0.0158629
834.612	0.0159340
834.690	0.0158411
834.768	0.0159515
834.846	0.0158749
834.924	0.0158502
835.003	0.0158319
835.081	0.0158987
835.159	0.0157404
835.237	0.0158349
835.315	0.0159837
835.393	0.0159183
835.471	0.0157655
835.549	0.0158367
835.628	0.0157534
835.706	0.0158825
835.784	0.0156757
835.862	0.0157323
835.940	0.0157293
836.018	0.0157111
836.096	0.0157127
836.174	0.0156699
836.253	0.0157018
836.331	0.0157030
836.409	0.0156477
836.487	0.0156111
836.565	0.0155231
836.643	0.0156196
836.721	0.0157536
836.799	0.0156520
836.878	0.0155896
836.956	0.0157304
837.034	0.0155820
837.112	0.0157498
837.190	0.0157574
837.268	0.0158407
837.346	0.0158442
837.424	0.0158768
837.503	0.0159212
837.581	0.0160585
837.659	0.0159082
837.737	0.0158967
837.815	0.0159656
837.893	0.0158727
837.971	0.0158385
838.049	0.0160765
838.128	0.0160300
838.206	0.0158806
838.284	0.0157867
838.362	0.0158347
838.440	0.0159060
838.518	0.0159181
838.596	0.0156692
838.674	0.0156465
838.753	0.0159709
838.831	0.0158951
838.909	0.0157436
838.987	0.0156449
839.065	0.0156638
839.143	0.0156577
839.221	0.0158409
839.299	0.0157264
839.378	0.0157405
839.456	0.0155939
839.534	0.0157914
839.612	0.0157423
839.690	0.0157238
839.768	0.0157185
839.846	0.0156516
839.924	0.0157522
840.003	0.0158337
840.081	0.0158506
840.159	0.0158337
840.237	0.0159855
840.315	0.0158327
840.393	0.0157294
840.471	0.0158234
840.549	0.0158128
840.628	0.0158886
840.706	0.0157632
840.784	0.0158364
840.862	0.0158239
840.940	0.0157337
841.018	0.0157849
841.096	0.0157795
841.174	0.0157620
841.253	0.0156898
841.331	0.0157742
841.409	0.0156365
841.487	0.0156297
841.565	0.0156651
841.643	0.0159882
841.721	0.0158773
841.799	0.0159351
841.878	0.0159319
841.956	0.0157978
842.034	0.0157850
842.112	0.0160193
842.190	0.0159881
842.268	0.0160505
842.346	0.0159146
842.424	0.0160125
842.503	0.0160382
842.581	0.0160627
842.659	0.0159635
842.737	0.0160208
842.815	0.0160632
842.893	0.0159417
842.971	0.0159111
843.049	0.0158131
843.128	0.0158479
843.206	0.0159615
843.284	0.0158593
843.362	0.0157731
843.440	0.0156588
843.518	0.0157922
843.596	0.0156123
843.674	0.0157515
843.753	0.0158916
843.831	0.0157205
843.909	0.0157241
843.987	0.0155795
844.065	0.0157850
844.143	0.0157555
844.221	0.0155994
844.299	0.0156848
844.378	0.0157651
844.456	0.0157312
844.534	0.0156683
844.612	0.0157191
844.690	0.0156288
844.768	0.0156628
844.846	0.0157648
844.924	0.0157120
845.003	0.0156539
845.081	0.0157408
845.159	0.0159161
845.237	0.0158641
845.315	0.0159006
845.393	0.0158184
845.471	0.0157784
845.549	0.0158077
845.628	0.0159897
845.706	0.0158784
845.784	0.0158516
845.862	0.0159304
845.940	0.0159786
846.018	0.0159884
846.096	0.0159416
846.174	0.0160369
846.253	0.0159509
846.331	0.0158955
846.409	0.0158658
846.487	0.0160069
846.565	0.0159107
846.643	0.0158513
846.721	0.0157517
846.799	0.0158467
846.878	0.0157404
846.956	0.0158493
847.034	0.0158133
847.112	0.0158086
847.190	0.0158362
847.268	0.0158842
847.346	0.0157135
847.424	0.0157435
847.503	0.0157491
847.581	0.0157990
847.659	0.0159160
847.737	0.0158112
847.815	0.0157452
847.893	0.0158909
847.971	0.0158434
848.049	0.0157117
848.128	0.0158604
848.206	0.0158809
848.284	0.0158054
848.362	0.0158911
848.440	0.0159075
848.518	0.0158199
848.596	0.0157534
848.674	0.0157830
848.753	0.0157775
848.831	0.0159782
848.909	0.0158742
848.987	0.0157668
849.065	0.0157590
849.143	0.0157574
849.221	0.0158342
849.299	0.0157269
849.378	0.0157682
849.456	0.0158850
849.534	0.0158463
849.612	0.0157997
849.690	0.0157671
849.768	0.0157805
849.846	0.0158189
849.924	0.0158669
850.003	0.0159058
850.081	0.0157233
850.159	0.0157715
850.237	0.0159127
850.315	0.0159964
850.393	0.0157966
850.471	0.0158208
850.549	0.0159764
850.628	0.0159803
850.706	0.0158460
850.784	0.0158786
850.862	0.0159090
850.940	0.0159143
851.018	0.0159453
851.096	0.0157564
851.174	0.0157188
851.253	0.0158596
851.331	0.0157621
851.409	0.0157722
851.487	0.0159225
851.565	0.0158175
851.643	0.0158745
851.721	0.0157440
851.799	0.0157433
851.878	0.0158273
851.956	0.0158522
852.034	0.0158201
852.112	0.0156506
852.190	0.0157779
852.268	0.0158386
852.346	0.0158686
852.424	0.0158872
852.503	0.0159072
852.581	0.0159264
852.659	0.0158057
852.737	0.0157677
852.815	0.0158319
852.893	0.0160192
852.971	0.0157124
853.049	0.0157068
853.128	0.0156142
853.206	0.0156802
853.284	0.0159097
853.362	0.0157896
853.440	0.0157162
853.518	0.0156892
853.596	0.0156617
853.674	0.0156115
853.753	0.0156087
853.831	0.0157439
853.909	0.0156342
853.987	0.0155511
854.065	0.0157695
854.143	0.0157560
854.221	0.0157637
854.299	0.0157207
854.378	0.0157509
854.456	0.0158482
854.534	0.0157285
854.612	0.0157522
854.690	0.0156554
854.768	0.0157025
854.846	0.0157507
854.924	0.0157996
855.003	0.0157998
855.081	0.0157624
855.159	0.0158244
855.237	0.0158092
855.315	0.0157335
855.393	0.0158271
855.471	0.0158874
855.549	0.0158721
855.628	0.0158546
855.706	0.0157991
855.784	0.0157430
855.862	0.0156399
855.940	0.0160163
856.018	0.0158935
856.096	0.0158238
856.174	0.0158772
856.253	0.0157442
856.331	0.0157317
856.409	0.0157578
856.487	0.0157448
856.565	0.0157830
856.643	0.0158084
856.721	0.0158945
856.799	0.0156580
856.878	0.0157520
856.956	0.0158332
857.034	0.0159036
857.112	0.0158052
857.190	0.0157401
857.268	0.0158736
857.346	0.0159085
857.424	0.0158974
857.503	0.0158096
857.581	0.0158244
857.659	0.0157700
857.737	0.0157241
857.815	0.0157052
857.893	0.0157773
857.971	0.0157351
858.049	0.0156906
858.128	0.0157462
858.206	0.0156254
858.284	0.0157919
858.362	0.0157632
858.440	0.0156699
858.518	0.0156890
858.596	0.0156772
858.674	0.0156821
858.753	0.0157438
858.831	0.0157913
858.909	0.0157362
858.987	0.0157378
859.065	0.0157897
859.143	0.0158819
859.221	0.0158112
859.299	0.0159938
859.378	0.0158115
859.456	0.0158668
859.534	0.0159595
859.612	0.0158772
859.690	0.0159094
859.768	0.0157585
859.846	0.0157846
859.924	0.0158289
860.003	0.0157592
860.081	0.0158093
860.159	0.0158977
860.237	0.0156548
860.315	0.0157575
860.393	0.0158025
860.471	0.0158266
860.549	0.0156191
860.628	0.0157281
860.706	0.0157402
860.784	0.0156961
860.862	0.0158041
860.940	0.0157471
861.018	0.0156570
861.096	0.0156992
861.174	0.0157938
861.253	0.0158334
861.331	0.0155843
861.409	0.0157354
861.487	0.0157490
861.565	0.0157390
861.643	0.0156998
861.721	0.0158160
861.799	0.0157289
861.878	0.0157318
861.956	0.0156096
862.034	0.0158102
862.112	0.0158052
862.190	0.0157704
862.268	0.0156871
862.346	0.0157703
862.424	0.0157857
862.503	0.0157976
862.581	0.0157931
862.659	0.0158527
862.737	0.0158434
862.815	0.0158781
862.893	0.0158514
862.971	0.0158091
863.049	0.0158692
863.128	0.0159164
863.206	0.0158047
863.284	0.0158592
863.362	0.0160051
863.440	0.0159013
863.518	0.0157690
863.596	0.0158013
863.674	0.0158720
863.753	0.0158450
863.831	0.0158729
863.909	0.0158922
863.987	0.0157761
864.065	0.0158464
864.143	0.0157829
864.221	0.0157565
864.299	0.0157523
864.378	0.0157320
864.456	0.0157195
864.534	0.0156552
864.612	0.0155869
864.690	0.0157194
864.768	0.0156187
864.846	0.0156796
864.924	0.0156516
865.003	0.0156612
865.081	0.0155891
865.159	0.0156068
865.237	0.0156692
865.315	0.0155291
865.393	0.0157874
865.471	0.0156583
865.549	0.0156936
865.628	0.0157697
865.706	0.0156844
865.784	0.0158446
865.862	0.0158860
865.940	0.0158135
866.018	0.0157846
866.096	0.0157328
866.174	0.0156808
866.253	0.0157944
866.331	0.0158058
866.409	0.0159067
866.487	0.0158681
866.565	0.0157809
866.643	0.0159092
866.721	0.0160589
866.799	0.0159795
866.878	0.0158985
866.956	0.0158308
867.034	0.0159437
867.112	0.0158701
867.190	0.0160153
867.268	0.0158368
867.346	0.0158534
867.424	0.0158184
867.503	0.0157934
867.581	0.0158788
867.659	0.0158438
867.737	0.0158099
867.815	0.0158043
867.893	0.0157972
867.971	0.0157842
868.049	0.0158620
868.128	0.0157752
868.206	0.0157572
868.284	0.0157683
868.362	0.0157526
868.440	0.0157131
868.518	0.0158700
868.596	0.0157529
868.674	0.0158342
868.753	0.0158490
868.831	0.0156710
868.909	0.0157192
868.987	0.0157272
869.065	0.0157471
869.143	0.0157621
869.221	0.0156961
869.299	0.0156985
869.378	0.0157240
869.456	0.0156592
869.534	0.0155486
869.612	0.0156399
869.690	0.0156913
869.768	0.0158327
869.846	0.0156762
869.924	0.0157352
870.003	0.0158966
870.081	0.0157684
870.159	0.0157616
870.237	0.0156467
870.315	0.0158065
870.393	0.0157755
870.471	0.0157729
870.549	0.0158850
870.628	0.0159210
870.706	0.0158495
870.784	0.0157384
870.862	0.0157227
870.940	0.0159505
871.018	0.0158866
871.096	0.0158582
871.174	0.0158072
871.253	0.0158195
871.331	0.0159818
871.409	0.0157633
871.487	0.0160433
871.565	0.0159026
871.643	0.0158319
871.721	0.0160117
871.799	0.0159197
871.878	0.0158602
871.956	0.0159118
872.034	0.0159119
872.112	0.0158102
872.190	0.0157784
872.268	0.0157557
872.346	0.0158379
872.424	0.0157887
872.503	0.0156332
872.581	0.0157368
872.659	0.0157864
872.737	0.0157401
872.815	0.0158105
872.893	0.0156547
872.971	0.0156747
873.049	0.0157533
873.128	0.0157275
873.206	0.0157947
873.284	0.0157910
873.362	0.0156961
873.440	0.0155699
873.518	0.0157949
873.596	0.0157620
873.674	0.0157317
873.753	0.0157840
873.831	0.0158062
873.909	0.0157999
873.987	0.0157349
874.065	0.0157688
874.143	0.0156623
874.221	0.0157126
874.299	0.0157438
874.378	0.0158271
874.456	0.0158437
874.534	0.0158380
874.612	0.0158086
874.690	0.0158041
874.768	0.0158115
874.846	0.0158160
874.924	0.0159064
875.003	0.0158498
875.081	0.0157129
875.159	0.0156887
875.237	0.0157224
875.315	0.0157774
875.393	0.0158556
875.471	0.0158687
875.549	0.0157925
875.628	0.0158186
875.706	0.0157248
875.784	0.0157471
875.862	0.0158060
875.940	0.0157698
876.018	0.0157423
876.096	0.0156435
876.174	0.0158906
876.253	0.0156744
876.331	0.0156461
876.409	0.0158340
876.487	0.0157964
876.565	0.0158325
876.643	0.0157246
876.721	0.0156953
876.799	0.0156920
876.878	0.0157175
876.956	0.0157219
877.034	0.0157589
877.112	0.0158322
877.190	0.0156839
877.268	0.0157411
877.346	0.0157740
877.424	0.0158163
877.503	0.0156903
877.581	0.0156670
877.659	0.0157660
877.737	0.0157407
877.815	0.0157697
877.893	0.0155865
877.971	0.0157825
878.049	0.0157589
878.128	0.0158453
878.206	0.0158369
878.284	0.0158514
878.362	0.0156670
878.440	0.0157413
878.518	0.0156992
878.596	0.0156387
878.674	0.0157587
878.753	0.0157806
878.831	0.0158070
878.909	0.0157780
878.987	0.0157739
879.065	0.0158177
879.143	0.0158031
879.221	0.0158916
879.299	0.0158315
879.378	0.0157932
879.456	0.0158028
879.534	0.0158522
879.612	0.0157799
879.690	0.0159500
879.768	0.0158611
879.846	0.0157826
879.924	0.0158743
880.003	0.0157353
880.081	0.0158887
880.159	0.0158546
880.237	0.0158334
880.315	0.0159366
880.393	0.0158392
880.471	0.0158192
880.549	0.0157538
880.628	0.0159107
880.706	0.0159298
880.784	0.0158309
880.862	0.0157767
880.940	0.0158018
881.018	0.0159144
881.096	0.0159823
881.174	0.0158353
881.253	0.0158154
881.331	0.0157307
881.409	0.0158322
881.487	0.0158360
881.565	0.0158329
881.643	0.0157344
881.721	0.0159641
881.799	0.0157905
881.878	0.0157870
881.956	0.0158866
882.034	0.0158135
882.112	0.0156036
882.190	0.0156646
882.268	0.0156359
882.346	0.0157616
882.424	0.0159274
882.503	0.0157244
882.581	0.0156495
882.659	0.0156573
882.737	0.0157370
882.815	0.0156843
882.893	0.0156818
882.971	0.0156621
883.049	0.0155599
883.128	0.0158190
883.206	0.0157448
883.284	0.0158524
883.362	0.0157642
883.440	0.0158504
883.518	0.0159131
883.596	0.0157605
883.674	0.0157810
883.753	0.0157410
883.831	0.0157168
883.909	0.0157710
883.987	0.0158486
884.065	0.0159942
884.143	0.0157690
884.221	0.0157471
884.299	0.0157436
884.378	0.0157619
884.456	0.0158431
884.534	0.0157660
884.612	0.0157994
884.690	0.0157533
884.768	0.0157616
884.846	0.0157085
884.924	0.0158035
885.003	0.0157487
885.081	0.0155956
885.159	0.0157042
885.237	0.0157732
885.315	0.0157632
885.393	0.0157632
885.471	0.0156757
885.549	0.0157420
885.628	0.0157573
885.706	0.0157493
885.784	0.0157486
885.862	0.0158088
885.940	0.0158188
886.018	0.0159062
886.096	0.0157629
886.174	0.0158228
886.253	0.0158190
886.331	0.0158448
886.409	0.0159053
886.487	0.0156818
886.565	0.0157725
886.643	0.0158644
886.721	0.0157832
886.799	0.0157990
886.878	0.0157387
886.956	0.0157834
887.034	0.0158712
887.112	0.0159071
887.190	0.0158638
887.268	0.0158006
887.346	0.0158911
887.424	0.0158067
887.503	0.0157017
887.581	0.0156962
887.659	0.0158041
887.737	0.0158488
887.815	0.0157362
887.893	0.0157549
887.971	0.0158070
888.049	0.0157812
888.128	0.0157822
888.206	0.0157895
888.284	0.0157784
888.362	0.0155845
888.440	0.0158643
888.518	0.0159393
888.596	0.0156693
888.674	0.0157920
888.753	0.0158141
888.831	0.0158434
888.909	0.0157449
888.987	0.0157446
889.065	0.0158031
889.143	0.0158984
889.221	0.0158278
889.299	0.0158540
889.378	0.0157679
889.456	0.0156641
889.534	0.0157822
889.612	0.0158366
889.690	0.0157990
889.768	0.0157016
889.846	0.0157202
889.924	0.0158228
890.003	0.0158572
890.081	0.0158824
890.159	0.0158836
890.237	0.0158290
890.315	0.0158675
890.393	0.0158365
890.471	0.0157344
890.549	0.0158389
890.628	0.0157804
890.706	0.0157560
890.784	0.0158956
890.862	0.0158445
890.940	0.0157903
891.018	0.0159234
891.096	0.0158701
891.174	0.0158546
891.253	0.0157669
891.331	0.0158106
891.409	0.0159745
891.487	0.0159394
891.565	0.0158192
891.643	0.0158407
891.721	0.0159348
891.799	0.0158788
891.878	0.0157837
891.956	0.0158371
892.034	0.0157899
892.112	0.0159194
892.190	0.0159016
892.268	0.0158736
892.346	0.0156795
892.424	0.0158100
892.503	0.0157411
892.581	0.0157098
892.659	0.0156736
892.737	0.0157140
892.815	0.0157861
892.893	0.0157617
892.971	0.0156815
893.049	0.0158108
893.128	0.0158641
893.206	0.0156540
893.284	0.0157832
893.362	0.0156676
893.440	0.0158353
893.518	0.0157772
893.596	0.0157079
893.674	0.0158105
893.753	0.0157658
893.831	0.0157655
893.909	0.0158106
893.987	0.0158441
894.065	0.0158920
894.143	0.0158001
894.221	0.0158298
894.299	0.0158482
894.378	0.0159158
894.456	0.0157584
894.534	0.0157748
894.612	0.0157555
894.690	0.0157105
894.768	0.0158464
894.846	0.0158710
894.924	0.0157948
895.003	0.0157628
895.081	0.0158546
895.159	0.0157989
895.237	0.0157824
895.315	0.0158183
895.393	0.0156905
895.471	0.0157180
895.549	0.0158064
895.628	0.0158926
895.706	0.0156402
895.784	0.0157422
895.862	0.0157739
895.940	0.0158141
896.018	0.0158199
896.096	0.0157533
896.174	0.0157395
896.253	0.0157867
896.331	0.0157253
896.409	0.0157131
896.487	0.0158495
896.565	0.0157186
896.643	0.0158051
896.721	0.0157182
896.799	0.0158239
896.878	0.0158687
896.956	0.0157752
897.034	0.0158967
897.112	0.0158201
897.190	0.0159141
897.268	0.0158031
897.346	0.0158681
897.424	0.0157870
897.503	0.0158637
897.581	0.0159058
897.659	0.0156879
897.737	0.0158164
897.815	0.0158322
897.893	0.0156832
897.971	0.0158305
898.049	0.0157739
898.128	0.0158298
898.206	0.0158780
898.284	0.0158449
898.362	0.0157476
898.440	0.0157720
898.518	0.0158824
898.596	0.0156572
898.674	0.0158450
898.753	0.0157263
898.831	0.0158343
898.909	0.0157896
898.987	0.0156302
899.065	0.0155975
899.143	0.0158265
899.221	0.0156953
899.299	0.0157567
899.378	0.0158231
899.456	0.0156536
899.534	0.0157347
899.612	0.0158514
899.690	0.0158353
899.768	0.0157990
899.846	0.0158085
899.924	0.0158260
900.003	0.0158596
900.081	0.0156937
900.159	0.0159080
900.237	0.0158370
900.315	0.0158829
900.393	0.0157487
900.471	0.0158395
900.549	0.0158005
900.628	0.0158099
900.706	0.0158292
900.784	0.0158190
900.862	0.0158318
900.940	0.0156753
901.018	0.0157477
901.096	0.0157148
901.174	0.0156738
901.253	0.0157980
901.331	0.0157380
901.409	0.0157269
901.487	0.0157663
901.565	0.0158173
901.643	0.0158569
901.721	0.0156676
901.799	0.0157008
901.878	0.0157832
901.956	0.0157920
902.034	0.0155617
902.112	0.0157227
902.190	0.0157475
902.268	0.0157179
902.346	0.0157294
902.424	0.0157508
902.503	0.0158428
902.581	0.0158644
902.659	0.0158080
902.737	0.0158746
902.815	0.0156865
902.893	0.0157619
902.971	0.0156624
903.049	0.0158244
903.128	0.0158003
903.206	0.0158187
903.284	0.0157955
903.362	0.0157125
903.440	0.0158997
903.518	0.0157669
903.596	0.0158441
903.674	0.0157110
903.753	0.0157268
903.831	0.0156825
903.909	0.0157442
903.987	0.0157956
904.065	0.0158348
904.143	0.0158079
904.221	0.0157301
904.299	0.0157309
904.378	0.0158726
904.456	0.0158327
904.534	0.0157952
904.612	0.0158833
904.690	0.0157246
904.768	0.0158842
904.846	0.0159100
904.924	0.0158167
905.003	0.0158156
905.081	0.0157922
905.159	0.0158096
905.237	0.0157410
905.315	0.0156804
905.393	0.0159105
905.471	0.0157592
905.549	0.0156901
905.628	0.0157538
905.706	0.0157517
905.784	0.0156623
905.862	0.0158289
905.940	0.0157978
906.018	0.0157050
906.096	0.0157349
906.174	0.0157436
906.253	0.0157243
906.331	0.0157346
906.409	0.0158511
906.487	0.0156393
906.565	0.0156562
906.643	0.0158449
906.721	0.0158710
906.799	0.0156676
906.878	0.0157130
906.956	0.0157869
907.034	0.0158485
907.112	0.0157690
907.190	0.0156927
907.268	0.0158675
907.346	0.0158006
907.424	0.0157867
907.503	0.0157549
907.581	0.0159492
907.659	0.0157208
907.737	0.0159128
907.815	0.0157433
907.893	0.0158474
907.971	0.0158004
908.049	0.0159251
908.128	0.0157572
908.206	0.0157164
908.284	0.0158298
908.362	0.0158879
908.440	0.0157742
908.518	0.0158107
908.596	0.0159544
908.674	0.0158623
908.753	0.0159064
908.831	0.0157433
908.909	0.0158710
908.987	0.0159317
909.065	0.0158935
909.143	0.0158041
909.221	0.0159122
909.299	0.0157669
909.378	0.0157464
909.456	0.0158000
909.534	0.0156494
909.612	0.0157915
909.690	0.0158341
909.768	0.0157070
909.846	0.0157609
909.924	0.0158487
910.003	0.0157817
910.081	0.0157895
910.159	0.0158211
910.237	0.0158851
910.315	0.0158784
910.393	0.0158928
910.471	0.0159010
910.549	0.0158521
910.628	0.0158906
910.706	0.0157623
910.784	0.0157666
910.862	0.0157204
910.940	0.0157104
911.018	0.0155959
911.096	0.0156799
911.174	0.0155744
911.253	0.0155733
911.331	0.0157291
911.409	0.0157135
911.487	0.0157594
911.565	0.0156623
911.643	0.0156285
911.721	0.0156866
911.799	0.0158479
911.878	0.0157967
911.956	0.0157981
912.034	0.0158482
912.112	0.0158122
912.190	0.0159155
912.268	0.0158809
912.346	0.0159113
912.424	0.0158956
912.503	0.0158687
912.581	0.0159583
912.659	0.0159184
912.737	0.0157049
912.815	0.0158961
912.893	0.0157571
912.971	0.0157153
913.049	0.0158034
913.128	0.0156772
913.206	0.0155827
913.284	0.0156608
913.362	0.0156397
913.440	0.0157549
913.518	0.0156597
913.596	0.0157972
913.674	0.0156096
913.753	0.0154906
913.831	0.0157719
913.909	0.0157991
913.987	0.0157216
914.065	0.0158208
914.143	0.0158161
914.221	0.0157614
914.299	0.0159314
914.378	0.0158874
914.456	0.0158716
914.534	0.0158607
914.612	0.0160119
914.690	0.0159513
914.768	0.0159164
914.846	0.0159055
914.924	0.0158849
915.003	0.0158798
915.081	0.0157527
915.159	0.0157320
915.237	0.0157740
915.315	0.0156915
915.393	0.0157195
915.471	0.0158064
915.549	0.0156179
915.628	0.0156960
915.706	0.0156467
915.784	0.0156888
915.862	0.0157670
915.940	0.0156506
916.018	0.0156960
916.096	0.0157369
916.174	0.0157659
916.253	0.0158279
916.331	0.0158706
916.409	0.0157733
916.487	0.0157030
916.565	0.0155838
916.643	0.0157480
916.721	0.0155865
916.799	0.0157438
916.878	0.0157619
916.956	0.0157928
917.034	0.0157977
917.112	0.0157921
917.190	0.0157185
917.268	0.0157443
917.346	0.0157519
917.424	0.0157835
917.503	0.0158968
917.581	0.0157869
917.659	0.0158332
917.737	0.0158060
917.815	0.0157584
917.893	0.0157605
917.971	0.0158276
918.049	0.0158062
918.128	0.0156884
918.206	0.0156776
918.284	0.0156725
918.362	0.0156088
918.440	0.0157074
918.518	0.0157116
918.596	0.0158649
918.674	0.0158419
918.753	0.0158782
918.831	0.0157577
918.909	0.0157627
918.987	0.0158288
919.065	0.0157751
919.143	0.0158096
919.221	0.0158284
919.299	0.0158763
919.378	0.0158380
919.456	0.0159156
919.534	0.0157696
919.612	0.0159975
919.690	0.0159640
919.768	0.0158588
919.846	0.0158363
919.924	0.0158034
920.003	0.0157990
920.081	0.0159009
920.159	0.0156600
920.237	0.0157156
920.315	0.0157772
920.393	0.0158697
920.471	0.0156515
920.549	0.0158438
920.628	0.0158247
920.706	0.0157675
920.784	0.0158570
920.862	0.0157771
920.940	0.0159211
921.018	0.0159412
921.096	0.0158762
921.174	0.0158007
921.253	0.0158544
921.331	0.0158770
921.409	0.0158789
921.487	0.0158213
921.565	0.0157845
921.643	0.0158723
921.721	0.0159406
921.799	0.0158107
921.878	0.0157716
921.956	0.0157717
922.034	0.0156860
922.112	0.0155451
922.190	0.0157495
922.268	0.0157048
922.346	0.0157156
922.424	0.0157030
922.503	0.0157831
922.581	0.0156496
922.659	0.0156560
922.737	0.0155941
922.815	0.0156619
922.893	0.0156487
922.971	0.0158502
923.049	0.0157150
923.128	0.0156480
923.206	0.0156885
923.284	0.0156562
923.362	0.0156830
923.440	0.0157928
923.518	0.0156358
923.596	0.0157898
923.674	0.0156157
923.753	0.0156836
923.831	0.0158970
923.909	0.0156093
923.987	0.0156783
924.065	0.0156753
924.143	0.0156682
924.221	0.0157503
924.299	0.0157771
924.378	0.0157444
924.456	0.0157776
924.534	0.0158336
924.612	0.0156591
924.690	0.0157269
924.768	0.0157598
924.846	0.0158901
924.924	0.0157180
925.003	0.0157271
925.081	0.0157657
925.159	0.0158246
925.237	0.0157870
925.315	0.0157653
925.393	0.0158001
925.471	0.0156393
925.549	0.0159293
925.628	0.0158154
925.706	0.0157780
925.784	0.0157220
925.862	0.0158494
925.940	0.0159161
926.018	0.0157511
926.096	0.0158951
926.174	0.0158577
926.253	0.0158372
926.331	0.0158096
926.409	0.0158589
926.487	0.0157400
926.565	0.0159630
926.643	0.0157812
926.721	0.0158021
926.799	0.0157328
926.878	0.0159003
926.956	0.0158204
927.034	0.0158425
927.112	0.0158897
927.190	0.0158164
927.268	0.0159433
927.346	0.0158298
927.424	0.0157243
927.503	0.0157357
927.581	0.0158116
927.659	0.0156450
927.737	0.0157214
927.815	0.0158021
927.893	0.0156037
927.971	0.0156299
928.049	0.0156480
928.128	0.0156210
928.206	0.0155486
928.284	0.0157047
928.362	0.0156064
928.440	0.0158785
928.518	0.0156780
928.596	0.0157659
928.674	0.0158057
928.753	0.0158342
928.831	0.0158183
928.909	0.0159389
928.987	0.0158913
929.065	0.0160072
929.143	0.0159544
929.221	0.0158318
929.299	0.0159846
929.378	0.0159481
929.456	0.0157771
929.534	0.0158508
929.612	0.0158370
929.690	0.0158574
929.768	0.0157815
929.846	0.0157677
929.924	0.0157905
930.003	0.0157019
930.081	0.0158318
930.159	0.0157796
930.237	0.0156358
930.315	0.0157786
930.393	0.0157780
930.471	0.0156721
930.549	0.0157385
930.628	0.0157281
930.706	0.0158208
930.784	0.0158413
930.862	0.0157691
930.940	0.0157812
931.018	0.0158901
931.096	0.0157763
931.174	0.0157730
931.253	0.0158217
931.331	0.0157289
931.409	0.0158232
931.487	0.0157671
931.565	0.0159730
931.643	0.0158846
931.721	0.0157629
931.799	0.0158176
931.878	0.0158253
931.956	0.0158158
932.034	0.0156972
932.112	0.0158353
932.190	0.0158076
932.268	0.0158105
932.346	0.0158776
932.424	0.0159071
932.503	0.0157716
932.581	0.0158113
932.659	0.0157632
932.737	0.0157040
932.815	0.0157736
932.893	0.0157109
932.971	0.0157940
933.049	0.0158162
933.128	0.0159282
933.206	0.0159438
933.284	0.0158876
933.362	0.0158793
933.440	0.0158523
933.518	0.0160843
933.596	0.0159052
933.674	0.0158557
933.753	0.0158347
933.831	0.0158579
933.909	0.0159633
933.987	0.0160382
934.065	0.0158495
934.143	0.0158719
934.221	0.0157751
934.299	0.0158277
934.378	0.0157526
934.456	0.0157705
934.534	0.0157113
934.612	0.0157217
934.690	0.0158393
934.768	0.0157494
934.846	0.0158134
934.924	0.0157133
935.003	0.0155981
935.081	0.0156652
935.159	0.0157639
935.237	0.0156658
935.315	0.0159420
935.393	0.0157977
935.471	0.0158768
935.549	0.0157620
935.628	0.0157424
935.706	0.0157745
935.784	0.0158556
935.862	0.0158993
935.940	0.0156915
936.018	0.0156870
936.096	0.0157835
936.174	0.0158266
936.253	0.0157729
936.331	0.0156953
936.409	0.0156877
936.487	0.0157267
936.565	0.0158173
936.643	0.0156260
936.721	0.0157584
936.799	0.0157643
936.878	0.0157838
936.956	0.0158139
937.034	0.0159487
937.112	0.0158403
937.190	0.0157983
937.268	0.0157999
937.346	0.0157572
937.424	0.0157582
937.503	0.0158784
937.581	0.0157108
937.659	0.0158517
937.737	0.0159800
937.815	0.0157680
937.893	0.0156718
937.971	0.0157406
938.049	0.0158271
938.128	0.0157131
938.206	0.0158704
938.284	0.0157929
938.362	0.0158845
938.440	0.0157893
938.518	0.0158247
938.596	0.0157424
938.674	0.0155975
938.753	0.0157628
938.831	0.0156741
938.909	0.0157170
938.987	0.0157736
939.065	0.0159509
939.143	0.0156886
939.221	0.0158022
939.299	0.0158900
939.378	0.0158530
939.456	0.0158003
939.534	0.0158389
939.612	0.0158355
939.690	0.0157198
939.768	0.0157664
939.846	0.0157919
939.924	0.0157269
940.003	0.0157278
940.081	0.0156286
940.159	0.0158886
940.237	0.0158071
940.315	0.0155970
940.393	0.0158366
940.471	0.0157861
940.549	0.0157366
940.628	0.0157375
940.706	0.0157861
940.784	0.0158701
940.862	0.0158228
940.940	0.0158189
941.018	0.0157887
941.096	0.0158731
941.174	0.0158916
941.253	0.0157256
941.331	0.0157475
941.409	0.0157462
941.487	0.0158214
941.565	0.0157758
941.643	0.0157738
941.721	0.0158237
941.799	0.0159562
941.878	0.0157741
941.956	0.0158688
942.034	0.0159277
942.112	0.0157291
942.190	0.0157528
942.268	0.0158519
942.346	0.0158043
942.424	0.0158846
942.503	0.0159314
942.581	0.0159791
942.659	0.0158377
942.737	0.0158252
942.815	0.0157816
942.893	0.0158894
942.971	0.0156990
943.049	0.0156667
943.128	0.0157585
943.206	0.0158292
943.284	0.0157712
943.362	0.0159568
943.440	0.0158670
943.518	0.0158617
943.596	0.0159059
943.674	0.0157595
943.753	0.0157319
943.831	0.0157333
943.909	0.0157510
943.987	0.0159258
944.065	0.0157835
944.143	0.0156834
944.221	0.0156195
944.299	0.0156634
944.378	0.0157162
944.456	0.0158707
944.534	0.0158261
944.612	0.0157253
944.690	0.0157240
944.768	0.0157470
944.846	0.0159007
944.924	0.0158116
945.003	0.0158732
945.081	0.0158028
945.159	0.0158479
945.237	0.0156912
945.315	0.0157043
945.393	0.0156940
945.471	0.0158588
945.549	0.0157923
945.628	0.0156778
945.706	0.0158955
945.784	0.0157575
945.862	0.0159178
945.940	0.0159441
946.018	0.0158332
946.096	0.0157360
946.174	0.0158769
946.253	0.0158109
946.331	0.0159697
946.409	0.0158300
946.487	0.0156636
946.565	0.0158678
946.643	0.0158839
946.721	0.0160206
946.799	0.0159100
946.878	0.0158266
946.956	0.0157647
947.034	0.0159739
947.112	0.0158453
947.190	0.0159042
947.268	0.0157510
947.346	0.0157511
947.424	0.0159212
947.503	0.0158069
947.581	0.0158299
947.659	0.0158077
947.737	0.0158313
947.815	0.0157003
947.893	0.0156980
947.971	0.0158028
948.049	0.0158423
948.128	0.0156747
948.206	0.0157375
948.284	0.0157613
948.362	0.0155019
948.440	0.0157435
948.518	0.0158038
948.596	0.0157698
948.674	0.0157191
948.753	0.0156822
948.831	0.0156832
948.909	0.0157623
948.987	0.0156944
949.065	0.0157288
949.143	0.0157729
949.221	0.0158002
949.299	0.0158190
949.378	0.0155808
949.456	0.0157936
949.534	0.0157515
949.612	0.0158986
949.690	0.0158578
949.768	0.0158901
949.846	0.0158258
949.924	0.0158076
