06/29/2022	23:19:46	Ver.	4.1	UNKNOWN
Optical Delay	630.002507	Delta X		0.078125	Sweeps	1	Scan Rate	0/0
Coordinates	Axis 1	NaN	Axis 2	NaN	Axis 3	NaN	Axis 4	NaN	Axis 5	NaN	Axis 6	0.000000
TX Power	0.000000	RX Power	0.000000

630.003	0.0158069
630.081	0.0158749
630.159	0.0158447
630.237	0.0158990
630.315	0.0158396
630.393	0.0158875
630.471	0.0159131
630.549	0.0159801
630.628	0.0157913
630.706	0.0158265
630.784	0.0158510
630.862	0.0158295
630.940	0.0159650
631.018	0.0159653
631.096	0.0158539
631.174	0.0158507
631.253	0.0159691
631.331	0.0159420
631.409	0.0158705
631.487	0.0158427
631.565	0.0158067
631.643	0.0159689
631.721	0.0158746
631.799	0.0159465
631.878	0.0157504
631.956	0.0158437
632.034	0.0159957
632.112	0.0159911
632.190	0.0159098
632.268	0.0157542
632.346	0.0158813
632.424	0.0159401
632.503	0.0159764
632.581	0.0159400
632.659	0.0158680
632.737	0.0159187
632.815	0.0160873
632.893	0.0158985
632.971	0.0157965
633.049	0.0159279
633.128	0.0158723
633.206	0.0158124
633.284	0.0158722
633.362	0.0158262
633.440	0.0158510
633.518	0.0159993
633.596	0.0158519
633.674	0.0157481
633.753	0.0158611
633.831	0.0158733
633.909	0.0159453
633.987	0.0158485
634.065	0.0157964
634.143	0.0158801
634.221	0.0159105
634.299	0.0158957
634.378	0.0159341
634.456	0.0159396
634.534	0.0159906
634.612	0.0159470
634.690	0.0160190
634.768	0.0158974
634.846	0.0158170
634.924	0.0159543
635.003	0.0158739
635.081	0.0159304
635.159	0.0160265
635.237	0.0158625
635.315	0.0159045
635.393	0.0159824
635.471	0.0159745
635.549	0.0158392
635.628	0.0158683
635.706	0.0159758
635.784	0.0157757
635.862	0.0159633
635.940	0.0159402
636.018	0.0158107
636.096	0.0157825
636.174	0.0157723
636.253	0.0158993
636.331	0.0158561
636.409	0.0158024
636.487	0.0159270
636.565	0.0158945
636.643	0.0158714
636.721	0.0159399
636.799	0.0159023
636.878	0.0158363
636.956	0.0159888
637.034	0.0159042
637.112	0.0158352
637.190	0.0158408
637.268	0.0159303
637.346	0.0158443
637.424	0.0158651
637.503	0.0158228
637.581	0.0158898
637.659	0.0159895
637.737	0.0157780
637.815	0.0159041
637.893	0.0158405
637.971	0.0158877
638.049	0.0158875
638.128	0.0159579
638.206	0.0158345
638.284	0.0158986
638.362	0.0157484
638.440	0.0157635
638.518	0.0157780
638.596	0.0157701
638.674	0.0157634
638.753	0.0158594
638.831	0.0157790
638.909	0.0158651
638.987	0.0158457
639.065	0.0158876
639.143	0.0158932
639.221	0.0157949
639.299	0.0159697
639.378	0.0158340
639.456	0.0159080
639.534	0.0158260
639.612	0.0158091
639.690	0.0159326
639.768	0.0158019
639.846	0.0158389
639.924	0.0159522
640.003	0.0159035
640.081	0.0157530
640.159	0.0158407
640.237	0.0159389
640.315	0.0157257
640.393	0.0159880
640.471	0.0158636
640.549	0.0159272
640.628	0.0158720
640.706	0.0157509
640.784	0.0157297
640.862	0.0158112
640.940	0.0159473
641.018	0.0160580
641.096	0.0160111
641.174	0.0160815
641.253	0.0159919
641.331	0.0159727
641.409	0.0160100
641.487	0.0158676
641.565	0.0160295
641.643	0.0159901
641.721	0.0159344
641.799	0.0160556
641.878	0.0159223
641.956	0.0159656
642.034	0.0160557
642.112	0.0160130
642.190	0.0160564
642.268	0.0160217
642.346	0.0159704
642.424	0.0160752
642.503	0.0159792
642.581	0.0160429
642.659	0.0160172
642.737	0.0159776
642.815	0.0160941
642.893	0.0160239
642.971	0.0160262
643.049	0.0160275
643.128	0.0159597
643.206	0.0160141
643.284	0.0160345
643.362	0.0159686
643.440	0.0160905
643.518	0.0159931
643.596	0.0160725
643.674	0.0161581
643.753	0.0160398
643.831	0.0159885
643.909	0.0160233
643.987	0.0160247
644.065	0.0159902
644.143	0.0160802
644.221	0.0160111
644.299	0.0159637
644.378	0.0160359
644.456	0.0159802
644.534	0.0159480
644.612	0.0158765
644.690	0.0160504
644.768	0.0160329
644.846	0.0159654
644.924	0.0159682
645.003	0.0159213
645.081	0.0159400
645.159	0.0159058
645.237	0.0160285
645.315	0.0158806
645.393	0.0159978
645.471	0.0161399
645.549	0.0160448
645.628	0.0159256
645.706	0.0158812
645.784	0.0159872
645.862	0.0159513
645.940	0.0160046
646.018	0.0158112
646.096	0.0158920
646.174	0.0159961
646.253	0.0160482
646.331	0.0159323
646.409	0.0158897
646.487	0.0158976
646.565	0.0158413
646.643	0.0159708
646.721	0.0158749
646.799	0.0159576
646.878	0.0160085
646.956	0.0159020
647.034	0.0159470
647.112	0.0159801
647.190	0.0159216
647.268	0.0159001
647.346	0.0158379
647.424	0.0160634
647.503	0.0159103
647.581	0.0158270
647.659	0.0158031
647.737	0.0159825
647.815	0.0159215
647.893	0.0158565
647.971	0.0160001
648.049	0.0158012
648.128	0.0157555
648.206	0.0159194
648.284	0.0159652
648.362	0.0158755
648.440	0.0156966
648.518	0.0156963
648.596	0.0158951
648.674	0.0159039
648.753	0.0159866
648.831	0.0157934
648.909	0.0158295
648.987	0.0158612
649.065	0.0158239
649.143	0.0158564
649.221	0.0158248
649.299	0.0157903
649.378	0.0158859
649.456	0.0158513
649.534	0.0158331
649.612	0.0158453
649.690	0.0158370
649.768	0.0158150
649.846	0.0158119
649.924	0.0158799
650.003	0.0157790
650.081	0.0157941
650.159	0.0158614
650.237	0.0159420
650.315	0.0158188
650.393	0.0157179
650.471	0.0158987
650.549	0.0157423
650.628	0.0158447
650.706	0.0158365
650.784	0.0157522
650.862	0.0158969
650.940	0.0159116
651.018	0.0159252
651.096	0.0159086
651.174	0.0157104
651.253	0.0156926
651.331	0.0158495
651.409	0.0157326
651.487	0.0157148
651.565	0.0159140
651.643	0.0158138
651.721	0.0157759
651.799	0.0157332
651.878	0.0158234
651.956	0.0158112
652.034	0.0159144
652.112	0.0156622
652.190	0.0158052
652.268	0.0158213
652.346	0.0157571
652.424	0.0157941
652.503	0.0158051
652.581	0.0157722
652.659	0.0158019
652.737	0.0158935
652.815	0.0159113
652.893	0.0159607
652.971	0.0158266
653.049	0.0157525
653.128	0.0158215
653.206	0.0158517
653.284	0.0159017
653.362	0.0160280
653.440	0.0159321
653.518	0.0159073
653.596	0.0160151
653.674	0.0159294
653.753	0.0158967
653.831	0.0159447
653.909	0.0158858
653.987	0.0160170
654.065	0.0159002
654.143	0.0159206
654.221	0.0161152
654.299	0.0160136
654.378	0.0160140
654.456	0.0161259
654.534	0.0160948
654.612	0.0160633
654.690	0.0159476
654.768	0.0161462
654.846	0.0160001
654.924	0.0158403
655.003	0.0159158
655.081	0.0161433
655.159	0.0160079
655.237	0.0160303
655.315	0.0160587
655.393	0.0161259
655.471	0.0160013
655.549	0.0159866
655.628	0.0159899
655.706	0.0161764
655.784	0.0161007
655.862	0.0160316
655.940	0.0160525
656.018	0.0159123
656.096	0.0159996
656.174	0.0159614
656.253	0.0160294
656.331	0.0158876
656.409	0.0160278
656.487	0.0158595
656.565	0.0160609
656.643	0.0160503
656.721	0.0159029
656.799	0.0160368
656.878	0.0160471
656.956	0.0160236
657.034	0.0159428
657.112	0.0159301
657.190	0.0160487
657.268	0.0159748
657.346	0.0159576
657.424	0.0159917
657.503	0.0160080
657.581	0.0158835
657.659	0.0160233
657.737	0.0159933
657.815	0.0161716
657.893	0.0159415
657.971	0.0159226
658.049	0.0159997
658.128	0.0159893
658.206	0.0160179
658.284	0.0159997
658.362	0.0159006
658.440	0.0159145
658.518	0.0158949
658.596	0.0158980
658.674	0.0159289
658.753	0.0159555
658.831	0.0159184
658.909	0.0159941
658.987	0.0159274
659.065	0.0159451
659.143	0.0159003
659.221	0.0159986
659.299	0.0158589
659.378	0.0158801
659.456	0.0159372
659.534	0.0158755
659.612	0.0160271
659.690	0.0159433
659.768	0.0159362
659.846	0.0160230
659.924	0.0158394
660.003	0.0157704
660.081	0.0157449
660.159	0.0159009
660.237	0.0159055
660.315	0.0159300
660.393	0.0160056
660.471	0.0157735
660.549	0.0158774
660.628	0.0158770
660.706	0.0159303
660.784	0.0158966
660.862	0.0156933
660.940	0.0159579
661.018	0.0157892
661.096	0.0157909
661.174	0.0157541
661.253	0.0157689
661.331	0.0159592
661.409	0.0158421
661.487	0.0157478
661.565	0.0157404
661.643	0.0159502
661.721	0.0156705
661.799	0.0157111
661.878	0.0158801
661.956	0.0158546
662.034	0.0158441
662.112	0.0157975
662.190	0.0157408
662.268	0.0158929
662.346	0.0157521
662.424	0.0157692
662.503	0.0158554
662.581	0.0158247
662.659	0.0158935
662.737	0.0158929
662.815	0.0158511
662.893	0.0159400
662.971	0.0159899
663.049	0.0158860
663.128	0.0157727
663.206	0.0159445
663.284	0.0158863
663.362	0.0159615
663.440	0.0158979
663.518	0.0158484
663.596	0.0158401
663.674	0.0159035
663.753	0.0159486
663.831	0.0159000
663.909	0.0160599
663.987	0.0159486
664.065	0.0160264
664.143	0.0159744
664.221	0.0160923
664.299	0.0159653
664.378	0.0160368
664.456	0.0160033
664.534	0.0159019
664.612	0.0159377
664.690	0.0159794
664.768	0.0159412
664.846	0.0160476
664.924	0.0160457
665.003	0.0159423
665.081	0.0159296
665.159	0.0160755
665.237	0.0160695
665.315	0.0159628
665.393	0.0159859
665.471	0.0159391
665.549	0.0160431
665.628	0.0159791
665.706	0.0160014
665.784	0.0161192
665.862	0.0161530
665.940	0.0158839
666.018	0.0160517
666.096	0.0159286
666.174	0.0158365
666.253	0.0158316
666.331	0.0159882
666.409	0.0160212
666.487	0.0157759
666.565	0.0158183
666.643	0.0160057
666.721	0.0160983
666.799	0.0160173
666.878	0.0159924
666.956	0.0159859
667.034	0.0159756
667.112	0.0160221
667.190	0.0160148
667.268	0.0158954
667.346	0.0159521
667.424	0.0159139
667.503	0.0158199
667.581	0.0159385
667.659	0.0158555
667.737	0.0157974
667.815	0.0158910
667.893	0.0159943
667.971	0.0159059
668.049	0.0157905
668.128	0.0159333
668.206	0.0159634
668.284	0.0157484
668.362	0.0159301
668.440	0.0158949
668.518	0.0159249
668.596	0.0159122
668.674	0.0159062
668.753	0.0157439
668.831	0.0159520
668.909	0.0158640
668.987	0.0158498
669.065	0.0158559
669.143	0.0158848
669.221	0.0157718
669.299	0.0157453
669.378	0.0158008
669.456	0.0158216
669.534	0.0158070
669.612	0.0159324
669.690	0.0158669
669.768	0.0157203
669.846	0.0157346
669.924	0.0159132
670.003	0.0158131
670.081	0.0157611
670.159	0.0157080
670.237	0.0157851
670.315	0.0158833
670.393	0.0158498
670.471	0.0157600
670.549	0.0157655
670.628	0.0158121
670.706	0.0157401
670.784	0.0156915
670.862	0.0156493
670.940	0.0157967
671.018	0.0157303
671.096	0.0157442
671.174	0.0157949
671.253	0.0157019
671.331	0.0159174
671.409	0.0156712
671.487	0.0157835
671.565	0.0157432
671.643	0.0156807
671.721	0.0157812
671.799	0.0157047
671.878	0.0156939
671.956	0.0158179
672.034	0.0159136
672.112	0.0157060
672.190	0.0157529
672.268	0.0156384
672.346	0.0157683
672.424	0.0158417
672.503	0.0158195
672.581	0.0157081
672.659	0.0157858
672.737	0.0157230
672.815	0.0157980
672.893	0.0156621
672.971	0.0158541
673.049	0.0157811
673.128	0.0157213
673.206	0.0156813
673.284	0.0158049
673.362	0.0156693
673.440	0.0157446
673.518	0.0158143
673.596	0.0158482
673.674	0.0157271
673.753	0.0157790
673.831	0.0156554
673.909	0.0157303
673.987	0.0157648
674.065	0.0158050
674.143	0.0159280
674.221	0.0157241
674.299	0.0158061
674.378	0.0159155
674.456	0.0158710
674.534	0.0156698
674.612	0.0157680
674.690	0.0159074
674.768	0.0157651
674.846	0.0158440
674.924	0.0157417
675.003	0.0158347
675.081	0.0159566
675.159	0.0159476
675.237	0.0158704
675.315	0.0158200
675.393	0.0158192
675.471	0.0159090
675.549	0.0158338
675.628	0.0159039
675.706	0.0159702
675.784	0.0158240
675.862	0.0159457
675.940	0.0159996
676.018	0.0158871
676.096	0.0159691
676.174	0.0158765
676.253	0.0158985
676.331	0.0158280
676.409	0.0159528
676.487	0.0158351
676.565	0.0157937
676.643	0.0158577
676.721	0.0158961
676.799	0.0159193
676.878	0.0159928
676.956	0.0158832
677.034	0.0157849
677.112	0.0159014
677.190	0.0160109
677.268	0.0159047
677.346	0.0158627
677.424	0.0159414
677.503	0.0158618
677.581	0.0156912
677.659	0.0158299
677.737	0.0158096
677.815	0.0159226
677.893	0.0159721
677.971	0.0158797
678.049	0.0156226
678.128	0.0159605
678.206	0.0158173
678.284	0.0159834
678.362	0.0158876
678.440	0.0157509
678.518	0.0158719
678.596	0.0159413
678.674	0.0158088
678.753	0.0158748
678.831	0.0157773
678.909	0.0158491
678.987	0.0159856
679.065	0.0159869
679.143	0.0159716
679.221	0.0160387
679.299	0.0159277
679.378	0.0158881
679.456	0.0159737
679.534	0.0159925
679.612	0.0160483
679.690	0.0159859
679.768	0.0159392
679.846	0.0159208
679.924	0.0158602
680.003	0.0157517
680.081	0.0158356
680.159	0.0160119
680.237	0.0159224
680.315	0.0158643
680.393	0.0158657
680.471	0.0158319
680.549	0.0159919
680.628	0.0159431
680.706	0.0160433
680.784	0.0159266
680.862	0.0158373
680.940	0.0158911
681.018	0.0159003
681.096	0.0159332
681.174	0.0160078
681.253	0.0159725
681.331	0.0160476
681.409	0.0158475
681.487	0.0158912
681.565	0.0159902
681.643	0.0159064
681.721	0.0158877
681.799	0.0160050
681.878	0.0159740
681.956	0.0159020
682.034	0.0159883
682.112	0.0159563
682.190	0.0159178
682.268	0.0158397
682.346	0.0158248
682.424	0.0158311
682.503	0.0159166
682.581	0.0157528
682.659	0.0158503
682.737	0.0157568
682.815	0.0159676
682.893	0.0157578
682.971	0.0158926
683.049	0.0159926
683.128	0.0158923
683.206	0.0160398
683.284	0.0158823
683.362	0.0158894
683.440	0.0157594
683.518	0.0159909
683.596	0.0159759
683.674	0.0157506
683.753	0.0157719
683.831	0.0157587
683.909	0.0158914
683.987	0.0157289
684.065	0.0158723
684.143	0.0158684
684.221	0.0159174
684.299	0.0158597
684.378	0.0159296
684.456	0.0157873
684.534	0.0159241
684.612	0.0158591
684.690	0.0158733
684.768	0.0159259
684.846	0.0158718
684.924	0.0158722
685.003	0.0161289
685.081	0.0159378
685.159	0.0159908
685.237	0.0158711
685.315	0.0157970
685.393	0.0158986
685.471	0.0158797
685.549	0.0157883
685.628	0.0158516
685.706	0.0159663
685.784	0.0160122
685.862	0.0159091
685.940	0.0157728
686.018	0.0158663
686.096	0.0159918
686.174	0.0158563
686.253	0.0158989
686.331	0.0158277
686.409	0.0160190
686.487	0.0159270
686.565	0.0158797
686.643	0.0157980
686.721	0.0158247
686.799	0.0159128
686.878	0.0158482
686.956	0.0158479
687.034	0.0158208
687.112	0.0158772
687.190	0.0159254
687.268	0.0158379
687.346	0.0159755
687.424	0.0157472
687.503	0.0158519
687.581	0.0159232
687.659	0.0157883
687.737	0.0157904
687.815	0.0159354
687.893	0.0157983
687.971	0.0158261
688.049	0.0158824
688.128	0.0158148
688.206	0.0158786
688.284	0.0158401
688.362	0.0159082
688.440	0.0158703
688.518	0.0158586
688.596	0.0158022
688.674	0.0159119
688.753	0.0159126
688.831	0.0158209
688.909	0.0158752
688.987	0.0158330
689.065	0.0158203
689.143	0.0158984
689.221	0.0158569
689.299	0.0159698
689.378	0.0157648
689.456	0.0158634
689.534	0.0159786
689.612	0.0159318
689.690	0.0159191
689.768	0.0158720
689.846	0.0159851
689.924	0.0158008
690.003	0.0158892
690.081	0.0159579
690.159	0.0159196
690.237	0.0159253
690.315	0.0158039
690.393	0.0158120
690.471	0.0159445
690.549	0.0160377
690.628	0.0158321
690.706	0.0158075
690.784	0.0159558
690.862	0.0157844
690.940	0.0157504
691.018	0.0159078
691.096	0.0157829
691.174	0.0157090
691.253	0.0157301
691.331	0.0158460
691.409	0.0159256
691.487	0.0158543
691.565	0.0158517
691.643	0.0158716
691.721	0.0157581
691.799	0.0157067
691.878	0.0158229
691.956	0.0158391
692.034	0.0158875
692.112	0.0159226
692.190	0.0159135
692.268	0.0158827
692.346	0.0158814
692.424	0.0158257
692.503	0.0158366
692.581	0.0158488
692.659	0.0157772
692.737	0.0157832
692.815	0.0158058
692.893	0.0157728
692.971	0.0159259
693.049	0.0157895
693.128	0.0157861
693.206	0.0157873
693.284	0.0157581
693.362	0.0158279
693.440	0.0158425
693.518	0.0159190
693.596	0.0158504
693.674	0.0156988
693.753	0.0158287
693.831	0.0158063
693.909	0.0158407
693.987	0.0157542
694.065	0.0157873
694.143	0.0158420
694.221	0.0159161
694.299	0.0159930
694.378	0.0159517
694.456	0.0161259
694.534	0.0159369
694.612	0.0158544
694.690	0.0159256
694.768	0.0158424
694.846	0.0158752
694.924	0.0159870
695.003	0.0159578
695.081	0.0159387
695.159	0.0158421
695.237	0.0159073
695.315	0.0158842
695.393	0.0158269
695.471	0.0159187
695.549	0.0157156
695.628	0.0158572
695.706	0.0158115
695.784	0.0157098
695.862	0.0157015
695.940	0.0156854
696.018	0.0157330
696.096	0.0157510
696.174	0.0157970
696.253	0.0156908
696.331	0.0157876
696.409	0.0156774
696.487	0.0155670
696.565	0.0157273
696.643	0.0157987
696.721	0.0158963
696.799	0.0159026
696.878	0.0158097
696.956	0.0158603
697.034	0.0157301
697.112	0.0158964
697.190	0.0158504
697.268	0.0159081
697.346	0.0157376
697.424	0.0158109
697.503	0.0159055
697.581	0.0158154
697.659	0.0158566
697.737	0.0159016
697.815	0.0157021
697.893	0.0157798
697.971	0.0157254
698.049	0.0156982
698.128	0.0157353
698.206	0.0157798
698.284	0.0156741
698.362	0.0157285
698.440	0.0157317
698.518	0.0157426
698.596	0.0156695
698.674	0.0157322
698.753	0.0158759
698.831	0.0157339
698.909	0.0157011
698.987	0.0157565
699.065	0.0158115
699.143	0.0158211
699.221	0.0157597
699.299	0.0158283
699.378	0.0158461
699.456	0.0158566
699.534	0.0157896
699.612	0.0158390
699.690	0.0158651
699.768	0.0157777
699.846	0.0158498
699.924	0.0156989
700.003	0.0156062
700.081	0.0156522
700.159	0.0158440
700.237	0.0159283
700.315	0.0158663
700.393	0.0158627
700.471	0.0157902
700.549	0.0158160
700.628	0.0158478
700.706	0.0159514
700.784	0.0158758
700.862	0.0159188
700.940	0.0159508
701.018	0.0159814
701.096	0.0160432
701.174	0.0160054
701.253	0.0158670
701.331	0.0159575
701.409	0.0160008
701.487	0.0161702
701.565	0.0157938
701.643	0.0158899
701.721	0.0160852
701.799	0.0160377
701.878	0.0161353
701.956	0.0157613
702.034	0.0158153
702.112	0.0159125
702.190	0.0157606
702.268	0.0157465
702.346	0.0157589
702.424	0.0159378
702.503	0.0159697
702.581	0.0158797
702.659	0.0158086
702.737	0.0159497
702.815	0.0160219
702.893	0.0159618
702.971	0.0159728
703.049	0.0158889
703.128	0.0160366
703.206	0.0158741
703.284	0.0159625
703.362	0.0160007
703.440	0.0160845
703.518	0.0159405
703.596	0.0158773
703.674	0.0160580
703.753	0.0159552
703.831	0.0158946
703.909	0.0158935
703.987	0.0159923
704.065	0.0159614
704.143	0.0159811
704.221	0.0159789
704.299	0.0159114
704.378	0.0158502
704.456	0.0160953
704.534	0.0159653
704.612	0.0159409
704.690	0.0162246
704.768	0.0160468
704.846	0.0161729
704.924	0.0161516
705.003	0.0161325
705.081	0.0161950
705.159	0.0159525
705.237	0.0161520
705.315	0.0161707
705.393	0.0160258
705.471	0.0160491
705.549	0.0161359
705.628	0.0160226
705.706	0.0159665
705.784	0.0160194
705.862	0.0159782
705.940	0.0160716
706.018	0.0160123
706.096	0.0159161
706.174	0.0158507
706.253	0.0159927
706.331	0.0158655
706.409	0.0159463
706.487	0.0159971
706.565	0.0159930
706.643	0.0159297
706.721	0.0159273
706.799	0.0160298
706.878	0.0160872
706.956	0.0159023
707.034	0.0159579
707.112	0.0159509
707.190	0.0159550
707.268	0.0159265
707.346	0.0159086
707.424	0.0158778
707.503	0.0158751
707.581	0.0159579
707.659	0.0157858
707.737	0.0158409
707.815	0.0158292
707.893	0.0159229
707.971	0.0158308
708.049	0.0158121
708.128	0.0159274
708.206	0.0157761
708.284	0.0158437
708.362	0.0158684
708.440	0.0160500
708.518	0.0159214
708.596	0.0159675
708.674	0.0159864
708.753	0.0160791
708.831	0.0163123
708.909	0.0161340
708.987	0.0162704
709.065	0.0162180
709.143	0.0161788
709.221	0.0161980
709.299	0.0162651
709.378	0.0163427
709.456	0.0162820
709.534	0.0163061
709.612	0.0161811
709.690	0.0161011
709.768	0.0160991
709.846	0.0160300
709.924	0.0160341
710.003	0.0160936
710.081	0.0159283
710.159	0.0159221
710.237	0.0158798
710.315	0.0158095
710.393	0.0158704
710.471	0.0157802
710.549	0.0157378
710.628	0.0155266
710.706	0.0157076
710.784	0.0155760
710.862	0.0156366
710.940	0.0156221
711.018	0.0156323
711.096	0.0155366
711.174	0.0156539
711.253	0.0155801
711.331	0.0156300
711.409	0.0157651
711.487	0.0155919
711.565	0.0156573
711.643	0.0157406
711.721	0.0158191
711.799	0.0158071
711.878	0.0157884
711.956	0.0158418
712.034	0.0159360
712.112	0.0160152
712.190	0.0159291
712.268	0.0159530
712.346	0.0160283
712.424	0.0160215
712.503	0.0161221
712.581	0.0160039
712.659	0.0161095
712.737	0.0160683
712.815	0.0160707
712.893	0.0158887
712.971	0.0159338
713.049	0.0159084
713.128	0.0158948
713.206	0.0159753
713.284	0.0159262
713.362	0.0159842
713.440	0.0158468
713.518	0.0159441
713.596	0.0158984
713.674	0.0157829
713.753	0.0159378
713.831	0.0159267
713.909	0.0159669
713.987	0.0160060
714.065	0.0159888
714.143	0.0159200
714.221	0.0158241
714.299	0.0157571
714.378	0.0158291
714.456	0.0158138
714.534	0.0158351
714.612	0.0156859
714.690	0.0157229
714.768	0.0158044
714.846	0.0156181
714.924	0.0155901
715.003	0.0156094
715.081	0.0155853
715.159	0.0155742
715.237	0.0156409
715.315	0.0156930
715.393	0.0156330
715.471	0.0156738
715.549	0.0157422
715.628	0.0159400
715.706	0.0158116
715.784	0.0158963
715.862	0.0160632
715.940	0.0159677
716.018	0.0158848
716.096	0.0159421
716.174	0.0160294
716.253	0.0160590
716.331	0.0158971
716.409	0.0159501
716.487	0.0160431
716.565	0.0158789
716.643	0.0159046
716.721	0.0158168
716.799	0.0157933
716.878	0.0157999
716.956	0.0157863
717.034	0.0157397
717.112	0.0156624
717.190	0.0157828
717.268	0.0156590
717.346	0.0155922
717.424	0.0156931
717.503	0.0157500
717.581	0.0157491
717.659	0.0156446
717.737	0.0156897
717.815	0.0156823
717.893	0.0156979
717.971	0.0157430
718.049	0.0157119
718.128	0.0157073
718.206	0.0156368
718.284	0.0158061
718.362	0.0157621
718.440	0.0157819
718.518	0.0158488
718.596	0.0160006
718.674	0.0159686
718.753	0.0161468
718.831	0.0160683
718.909	0.0161097
718.987	0.0162380
719.065	0.0162352
719.143	0.0162513
719.221	0.0163226
719.299	0.0163939
719.378	0.0164212
719.456	0.0162880
719.534	0.0163811
719.612	0.0163355
719.690	0.0164101
719.768	0.0164044
719.846	0.0161395
719.924	0.0159708
720.003	0.0160236
720.081	0.0159976
720.159	0.0157538
720.237	0.0158189
720.315	0.0158272
720.393	0.0156662
720.471	0.0155474
720.549	0.0155659
720.628	0.0156355
720.706	0.0153403
720.784	0.0155894
720.862	0.0155093
720.940	0.0154192
721.018	0.0154066
721.096	0.0154736
721.174	0.0154752
721.253	0.0155923
721.331	0.0155643
721.409	0.0156662
721.487	0.0157343
721.565	0.0158594
721.643	0.0157910
721.721	0.0157607
721.799	0.0158097
721.878	0.0158558
721.956	0.0159623
722.034	0.0159665
722.112	0.0159740
722.190	0.0161037
722.268	0.0161727
722.346	0.0161366
722.424	0.0163220
722.503	0.0162437
722.581	0.0161889
722.659	0.0161965
722.737	0.0161838
722.815	0.0164246
722.893	0.0163013
722.971	0.0163083
723.049	0.0162975
723.128	0.0163152
723.206	0.0164411
723.284	0.0164484
723.362	0.0162001
723.440	0.0163395
723.518	0.0163127
723.596	0.0161872
723.674	0.0160977
723.753	0.0160689
723.831	0.0160104
723.909	0.0159805
723.987	0.0158170
724.065	0.0159439
724.143	0.0158453
724.221	0.0156705
724.299	0.0155181
724.378	0.0155025
724.456	0.0154965
724.534	0.0154230
724.612	0.0153567
724.690	0.0154998
724.768	0.0153060
724.846	0.0153586
724.924	0.0152573
725.003	0.0154414
725.081	0.0154887
725.159	0.0154596
725.237	0.0156966
725.315	0.0157903
725.393	0.0156665
725.471	0.0157728
725.549	0.0158190
725.628	0.0159887
725.706	0.0160814
725.784	0.0161122
725.862	0.0162691
725.940	0.0161645
726.018	0.0165000
726.096	0.0165674
726.174	0.0165349
726.253	0.0165117
726.331	0.0166290
726.409	0.0165020
726.487	0.0166357
726.565	0.0166602
726.643	0.0165205
726.721	0.0166341
726.799	0.0167387
726.878	0.0166025
726.956	0.0165783
727.034	0.0165387
727.112	0.0165416
727.190	0.0165048
727.268	0.0163258
727.346	0.0162788
727.424	0.0161034
727.503	0.0159371
727.581	0.0159158
727.659	0.0158811
727.737	0.0158430
727.815	0.0155791
727.893	0.0155247
727.971	0.0153864
728.049	0.0152800
728.128	0.0153754
728.206	0.0152720
728.284	0.0150724
728.362	0.0153521
728.440	0.0152746
728.518	0.0152861
728.596	0.0153560
728.674	0.0154005
728.753	0.0156730
728.831	0.0155179
728.909	0.0157132
728.987	0.0158729
729.065	0.0160270
729.143	0.0161065
729.221	0.0162577
729.299	0.0163302
729.378	0.0162993
729.456	0.0166299
729.534	0.0166474
729.612	0.0168231
729.690	0.0168472
729.768	0.0167088
729.846	0.0169622
729.924	0.0170685
730.003	0.0170471
730.081	0.0169675
730.159	0.0170196
730.237	0.0168956
730.315	0.0169985
730.393	0.0168918
730.471	0.0168506
730.549	0.0167270
730.628	0.0168835
730.706	0.0166503
730.784	0.0164140
730.862	0.0163117
730.940	0.0161420
731.018	0.0160656
731.096	0.0159293
731.174	0.0157889
731.253	0.0157311
731.331	0.0154716
731.409	0.0153664
731.487	0.0153519
731.565	0.0152489
731.643	0.0150997
731.721	0.0149898
731.799	0.0148679
731.878	0.0150378
731.956	0.0150034
732.034	0.0148492
732.112	0.0149646
732.190	0.0151517
732.268	0.0151787
732.346	0.0152200
732.424	0.0152271
732.503	0.0154220
732.581	0.0154570
732.659	0.0155742
732.737	0.0157417
732.815	0.0159415
732.893	0.0160238
732.971	0.0160895
733.049	0.0162308
733.128	0.0162119
733.206	0.0162928
733.284	0.0161541
733.362	0.0163557
733.440	0.0163769
733.518	0.0165513
733.596	0.0164222
733.674	0.0163882
733.753	0.0163747
733.831	0.0162922
733.909	0.0161766
733.987	0.0160951
734.065	0.0159652
734.143	0.0158887
734.221	0.0158296
734.299	0.0156911
734.378	0.0157382
734.456	0.0157230
734.534	0.0154665
734.612	0.0153713
734.690	0.0154579
734.768	0.0153555
734.846	0.0153481
734.924	0.0153459
735.003	0.0152072
735.081	0.0153321
735.159	0.0152233
735.237	0.0152203
735.315	0.0152352
735.393	0.0152740
735.471	0.0153002
735.549	0.0154376
735.628	0.0154674
735.706	0.0154298
735.784	0.0155346
735.862	0.0155186
735.940	0.0157232
736.018	0.0158362
736.096	0.0158995
736.174	0.0159621
736.253	0.0160696
736.331	0.0161663
736.409	0.0162157
736.487	0.0161978
736.565	0.0161723
736.643	0.0162683
736.721	0.0162988
736.799	0.0164112
736.878	0.0165082
736.956	0.0164165
737.034	0.0163925
737.112	0.0165446
737.190	0.0165318
737.268	0.0164457
737.346	0.0163393
737.424	0.0160824
737.503	0.0162829
737.581	0.0161765
737.659	0.0160097
737.737	0.0157719
737.815	0.0156819
737.893	0.0156664
737.971	0.0154304
738.049	0.0154154
738.128	0.0153563
738.206	0.0151191
738.284	0.0150025
738.362	0.0150291
738.440	0.0148029
738.518	0.0148207
738.596	0.0148574
738.674	0.0147566
738.753	0.0146918
738.831	0.0147838
738.909	0.0149293
738.987	0.0149165
739.065	0.0148782
739.143	0.0151571
739.221	0.0151572
739.299	0.0152527
739.378	0.0154294
739.456	0.0156127
739.534	0.0157384
739.612	0.0158545
739.690	0.0159532
739.768	0.0161964
739.846	0.0163036
739.924	0.0164912
740.003	0.0165137
740.081	0.0165207
740.159	0.0168055
740.237	0.0168050
740.315	0.0166969
740.393	0.0168494
740.471	0.0168422
740.549	0.0167039
740.628	0.0167316
740.706	0.0166830
740.784	0.0167060
740.862	0.0166469
740.940	0.0165829
741.018	0.0163851
741.096	0.0164330
741.174	0.0163692
741.253	0.0161160
741.331	0.0159687
741.409	0.0160394
741.487	0.0158873
741.565	0.0157498
741.643	0.0157796
741.721	0.0158218
741.799	0.0156551
741.878	0.0156789
741.956	0.0156531
742.034	0.0154377
742.112	0.0154166
742.190	0.0154526
742.268	0.0154919
742.346	0.0153049
742.424	0.0152232
742.503	0.0153402
742.581	0.0152407
742.659	0.0153096
742.737	0.0152285
742.815	0.0151996
742.893	0.0151751
742.971	0.0152649
743.049	0.0152004
743.128	0.0151869
743.206	0.0152339
743.284	0.0151630
743.362	0.0154264
743.440	0.0154401
743.518	0.0155341
743.596	0.0155704
743.674	0.0155972
743.753	0.0158770
743.831	0.0158455
743.909	0.0160087
743.987	0.0159118
744.065	0.0159034
744.143	0.0160818
744.221	0.0160619
744.299	0.0163449
744.378	0.0163617
744.456	0.0162749
744.534	0.0162965
744.612	0.0164915
744.690	0.0163678
744.768	0.0164188
744.846	0.0165028
744.924	0.0165141
745.003	0.0163173
745.081	0.0164267
745.159	0.0164034
745.237	0.0161676
745.315	0.0162552
745.393	0.0162431
745.471	0.0162170
745.549	0.0161567
745.628	0.0161513
745.706	0.0160116
745.784	0.0159499
745.862	0.0160132
745.940	0.0160159
746.018	0.0159359
746.096	0.0158791
746.174	0.0158641
746.253	0.0158694
746.331	0.0157719
746.409	0.0157165
746.487	0.0156394
746.565	0.0156556
746.643	0.0158156
746.721	0.0156681
746.799	0.0156121
746.878	0.0157813
746.956	0.0157578
747.034	0.0158359
747.112	0.0158458
747.190	0.0158421
747.268	0.0158685
747.346	0.0158929
747.424	0.0157883
747.503	0.0157992
747.581	0.0159294
747.659	0.0159254
747.737	0.0158495
747.815	0.0158100
747.893	0.0158096
747.971	0.0158662
748.049	0.0158253
748.128	0.0157436
748.206	0.0157093
748.284	0.0156666
748.362	0.0156181
748.440	0.0155574
748.518	0.0155703
748.596	0.0155803
748.674	0.0155196
748.753	0.0155562
748.831	0.0156924
748.909	0.0157011
748.987	0.0156838
749.065	0.0155683
749.143	0.0157002
749.221	0.0156971
749.299	0.0157923
749.378	0.0158382
749.456	0.0158440
749.534	0.0158648
749.612	0.0159865
749.690	0.0160077
749.768	0.0159917
749.846	0.0161027
749.924	0.0161728
750.003	0.0161761
750.081	0.0162222
750.159	0.0163792
750.237	0.0164178
750.315	0.0163047
750.393	0.0163024
750.471	0.0164934
750.549	0.0164352
750.628	0.0164408
750.706	0.0164890
750.784	0.0164824
750.862	0.0164266
750.940	0.0163290
751.018	0.0163404
751.096	0.0162989
751.174	0.0162733
751.253	0.0162704
751.331	0.0164030
751.409	0.0163171
751.487	0.0163123
751.565	0.0161422
751.643	0.0161187
751.721	0.0160000
751.799	0.0160915
751.878	0.0160059
751.956	0.0159457
752.034	0.0159082
752.112	0.0158356
752.190	0.0158920
752.268	0.0158156
752.346	0.0158928
752.424	0.0156824
752.503	0.0156102
752.581	0.0157608
752.659	0.0155949
752.737	0.0155656
752.815	0.0155934
752.893	0.0156057
752.971	0.0154729
753.049	0.0154818
753.128	0.0155627
753.206	0.0155883
753.284	0.0155110
753.362	0.0155287
753.440	0.0156452
753.518	0.0156886
753.596	0.0157589
753.674	0.0156870
753.753	0.0157798
753.831	0.0157829
753.909	0.0157610
753.987	0.0158731
754.065	0.0158707
754.143	0.0159031
754.221	0.0157963
754.299	0.0158203
754.378	0.0157761
754.456	0.0157432
754.534	0.0156626
754.612	0.0157433
754.690	0.0157713
754.768	0.0156889
754.846	0.0156386
754.924	0.0157682
755.003	0.0158391
755.081	0.0158720
755.159	0.0158607
755.237	0.0158148
755.315	0.0158282
755.393	0.0158817
755.471	0.0158291
755.549	0.0160976
755.628	0.0160854
755.706	0.0160256
755.784	0.0159786
755.862	0.0160327
755.940	0.0159762
756.018	0.0160976
756.096	0.0159780
756.174	0.0159398
756.253	0.0161124
756.331	0.0159885
756.409	0.0160925
756.487	0.0159206
756.565	0.0158098
756.643	0.0160211
756.721	0.0159233
756.799	0.0158476
756.878	0.0158340
756.956	0.0158460
757.034	0.0157474
757.112	0.0157218
757.190	0.0157925
757.268	0.0157437
757.346	0.0157197
757.424	0.0156487
757.503	0.0156407
757.581	0.0157791
757.659	0.0156979
757.737	0.0157578
757.815	0.0154636
757.893	0.0155548
757.971	0.0156171
758.049	0.0154783
758.128	0.0155975
758.206	0.0154944
758.284	0.0155592
758.362	0.0156489
758.440	0.0157018
758.518	0.0155426
758.596	0.0155371
758.674	0.0156366
758.753	0.0156036
758.831	0.0156296
758.909	0.0157027
758.987	0.0156086
759.065	0.0157560
759.143	0.0158225
759.221	0.0157385
759.299	0.0158423
759.378	0.0157668
759.456	0.0159148
759.534	0.0156879
759.612	0.0156947
759.690	0.0158458
759.768	0.0156982
759.846	0.0156377
759.924	0.0157682
760.003	0.0155979
760.081	0.0155751
760.159	0.0154768
760.237	0.0154887
760.315	0.0154417
760.393	0.0153049
760.471	0.0155064
760.549	0.0153846
760.628	0.0152830
760.706	0.0154224
760.784	0.0152988
760.862	0.0154422
760.940	0.0154941
761.018	0.0153912
761.096	0.0155255
761.174	0.0156406
761.253	0.0157122
761.331	0.0156953
761.409	0.0158511
761.487	0.0159785
761.565	0.0160976
761.643	0.0160936
761.721	0.0161529
761.799	0.0162737
761.878	0.0163873
761.956	0.0162666
762.034	0.0163000
762.112	0.0163329
762.190	0.0164072
762.268	0.0163045
762.346	0.0162466
762.424	0.0162707
762.503	0.0162131
762.581	0.0161612
762.659	0.0161291
762.737	0.0159198
762.815	0.0160327
762.893	0.0157817
762.971	0.0158322
763.049	0.0159835
763.128	0.0157566
763.206	0.0158105
763.284	0.0157386
763.362	0.0157211
763.440	0.0156630
763.518	0.0155920
763.596	0.0156769
763.674	0.0157056
763.753	0.0158709
763.831	0.0157928
763.909	0.0157663
763.987	0.0157693
764.065	0.0157254
764.143	0.0158906
764.221	0.0157482
764.299	0.0157325
764.378	0.0157713
764.456	0.0158161
764.534	0.0158393
764.612	0.0158118
764.690	0.0157703
764.768	0.0159165
764.846	0.0157747
764.924	0.0158245
765.003	0.0157852
765.081	0.0158144
765.159	0.0157876
765.237	0.0158229
765.315	0.0159976
765.393	0.0159031
765.471	0.0159413
765.549	0.0159270
765.628	0.0158383
765.706	0.0158012
765.784	0.0159065
765.862	0.0158485
765.940	0.0159578
766.018	0.0158509
766.096	0.0156218
766.174	0.0155829
766.253	0.0157179
766.331	0.0157307
766.409	0.0157237
766.487	0.0156326
766.565	0.0156660
766.643	0.0156422
766.721	0.0157248
766.799	0.0157164
766.878	0.0156284
766.956	0.0156314
767.034	0.0157623
767.112	0.0158920
767.190	0.0159229
767.268	0.0160042
767.346	0.0161608
767.424	0.0161981
767.503	0.0161870
767.581	0.0161205
767.659	0.0162974
767.737	0.0163513
767.815	0.0163852
767.893	0.0163657
767.971	0.0163591
768.049	0.0164565
768.128	0.0162804
768.206	0.0162117
768.284	0.0162260
768.362	0.0162864
768.440	0.0163010
768.518	0.0161813
768.596	0.0159833
768.674	0.0161296
768.753	0.0160332
768.831	0.0158752
768.909	0.0158436
768.987	0.0158757
769.065	0.0157030
769.143	0.0155674
769.221	0.0156522
769.299	0.0157858
769.378	0.0157587
769.456	0.0155417
769.534	0.0155298
769.612	0.0154839
769.690	0.0155645
769.768	0.0156285
769.846	0.0156628
769.924	0.0156143
770.003	0.0155846
770.081	0.0157018
770.159	0.0158208
770.237	0.0158058
770.315	0.0158327
770.393	0.0158002
770.471	0.0159491
770.549	0.0161061
770.628	0.0159927
770.706	0.0161835
770.784	0.0159941
770.862	0.0160973
770.940	0.0160915
771.018	0.0159448
771.096	0.0161797
771.174	0.0161861
771.253	0.0161295
771.331	0.0159925
771.409	0.0159405
771.487	0.0159270
771.565	0.0158540
771.643	0.0157172
771.721	0.0157629
771.799	0.0156660
771.878	0.0155864
771.956	0.0156501
772.034	0.0155154
772.112	0.0154671
772.190	0.0155370
772.268	0.0154646
772.346	0.0155473
772.424	0.0154396
772.503	0.0154740
772.581	0.0155840
772.659	0.0155739
772.737	0.0155528
772.815	0.0157902
772.893	0.0157975
772.971	0.0157208
773.049	0.0158144
773.128	0.0159666
773.206	0.0160127
773.284	0.0160036
773.362	0.0160320
773.440	0.0162076
773.518	0.0162128
773.596	0.0164128
773.674	0.0164730
773.753	0.0164037
773.831	0.0164394
773.909	0.0165874
773.987	0.0165359
774.065	0.0164801
774.143	0.0164178
774.221	0.0164294
774.299	0.0164063
774.378	0.0163745
774.456	0.0162515
774.534	0.0161726
774.612	0.0160384
774.690	0.0158130
774.768	0.0160695
774.846	0.0160482
774.924	0.0156570
775.003	0.0158051
775.081	0.0156560
775.159	0.0157311
775.237	0.0154840
775.315	0.0153645
775.393	0.0155956
775.471	0.0155840
775.549	0.0155539
775.628	0.0155376
775.706	0.0155905
775.784	0.0156268
775.862	0.0155094
775.940	0.0156022
776.018	0.0156634
776.096	0.0156133
776.174	0.0156879
776.253	0.0155260
776.331	0.0156956
776.409	0.0157381
776.487	0.0157415
776.565	0.0157030
776.643	0.0157653
776.721	0.0157538
776.799	0.0156863
776.878	0.0158810
776.956	0.0157808
777.034	0.0155923
777.112	0.0158195
777.190	0.0157925
777.268	0.0157224
777.346	0.0156474
777.424	0.0156732
777.503	0.0155312
777.581	0.0155492
777.659	0.0155568
777.737	0.0154971
777.815	0.0155016
777.893	0.0156779
777.971	0.0155267
778.049	0.0155787
778.128	0.0156969
778.206	0.0154956
778.284	0.0155441
778.362	0.0156403
778.440	0.0156911
778.518	0.0157361
778.596	0.0157870
778.674	0.0157053
778.753	0.0158208
778.831	0.0157948
778.909	0.0159177
778.987	0.0159769
779.065	0.0159811
779.143	0.0158660
779.221	0.0161109
779.299	0.0161563
779.378	0.0160321
779.456	0.0160168
779.534	0.0160858
779.612	0.0161298
779.690	0.0161166
779.768	0.0160398
779.846	0.0159331
779.924	0.0160541
780.003	0.0161544
780.081	0.0161199
780.159	0.0159842
780.237	0.0159953
780.315	0.0158985
780.393	0.0159827
780.471	0.0159867
780.549	0.0157549
780.628	0.0158750
780.706	0.0158197
780.784	0.0158086
780.862	0.0159159
780.940	0.0156111
781.018	0.0156892
781.096	0.0155635
781.174	0.0155329
781.253	0.0156298
781.331	0.0155708
781.409	0.0156021
781.487	0.0156049
781.565	0.0155118
781.643	0.0155032
781.721	0.0156535
781.799	0.0157401
781.878	0.0157285
781.956	0.0157910
782.034	0.0158617
782.112	0.0157755
782.190	0.0160989
782.268	0.0161401
782.346	0.0160837
782.424	0.0162262
782.503	0.0161301
782.581	0.0162655
782.659	0.0162872
782.737	0.0163598
782.815	0.0161483
782.893	0.0162505
782.971	0.0162316
783.049	0.0161348
783.128	0.0160600
783.206	0.0159447
783.284	0.0160654
783.362	0.0159744
783.440	0.0159938
783.518	0.0158542
783.596	0.0157483
783.674	0.0158451
783.753	0.0157608
783.831	0.0158514
783.909	0.0157957
783.987	0.0156210
784.065	0.0158224
784.143	0.0158578
784.221	0.0157600
784.299	0.0158847
784.378	0.0157810
784.456	0.0157393
784.534	0.0158871
784.612	0.0158968
784.690	0.0158471
784.768	0.0158847
784.846	0.0160078
784.924	0.0160165
785.003	0.0160286
785.081	0.0159193
785.159	0.0160104
785.237	0.0159940
785.315	0.0159596
785.393	0.0160642
785.471	0.0160567
785.549	0.0160507
785.628	0.0160910
785.706	0.0161495
785.784	0.0161038
785.862	0.0162281
785.940	0.0160558
786.018	0.0160869
786.096	0.0162697
786.174	0.0162233
786.253	0.0160905
786.331	0.0161254
786.409	0.0161227
786.487	0.0161225
786.565	0.0160549
786.643	0.0161535
786.721	0.0159729
786.799	0.0160842
786.878	0.0160912
786.956	0.0159982
787.034	0.0160104
787.112	0.0160576
787.190	0.0159608
787.268	0.0159312
787.346	0.0160013
787.424	0.0159599
787.503	0.0159647
787.581	0.0157710
787.659	0.0157742
787.737	0.0158433
787.815	0.0158764
787.893	0.0157412
787.971	0.0156956
788.049	0.0159068
788.128	0.0157432
788.206	0.0157701
788.284	0.0157554
788.362	0.0157772
788.440	0.0157495
788.518	0.0157962
788.596	0.0157526
788.674	0.0158247
788.753	0.0159446
788.831	0.0158414
788.909	0.0159038
788.987	0.0158892
789.065	0.0158597
789.143	0.0158974
789.221	0.0159412
789.299	0.0159114
789.378	0.0158009
789.456	0.0158202
789.534	0.0159217
789.612	0.0158958
789.690	0.0159003
789.768	0.0158715
789.846	0.0159572
789.924	0.0159184
790.003	0.0159666
790.081	0.0158615
790.159	0.0158245
790.237	0.0159779
790.315	0.0159139
790.393	0.0158970
790.471	0.0159002
790.549	0.0159899
790.628	0.0160849
790.706	0.0162100
790.784	0.0160432
790.862	0.0160245
790.940	0.0161558
791.018	0.0161137
791.096	0.0162226
791.174	0.0160577
791.253	0.0161228
791.331	0.0160234
791.409	0.0162296
791.487	0.0159750
791.565	0.0159881
791.643	0.0161115
791.721	0.0160721
791.799	0.0160286
791.878	0.0159127
791.956	0.0159389
792.034	0.0160092
792.112	0.0159094
792.190	0.0159221
792.268	0.0159958
792.346	0.0157683
792.424	0.0159213
792.503	0.0159650
792.581	0.0159357
792.659	0.0159407
792.737	0.0157803
792.815	0.0160428
792.893	0.0159798
792.971	0.0161438
793.049	0.0159924
793.128	0.0158766
793.206	0.0159023
793.284	0.0159755
793.362	0.0161302
793.440	0.0159013
793.518	0.0160110
793.596	0.0160690
793.674	0.0160252
793.753	0.0160086
793.831	0.0161728
793.909	0.0160418
793.987	0.0161570
794.065	0.0161009
794.143	0.0161125
794.221	0.0160385
794.299	0.0160678
794.378	0.0159937
794.456	0.0160962
794.534	0.0159576
794.612	0.0160363
794.690	0.0160577
794.768	0.0158204
794.846	0.0159578
794.924	0.0160439
795.003	0.0160228
795.081	0.0160231
795.159	0.0159883
795.237	0.0159199
795.315	0.0159637
795.393	0.0158330
795.471	0.0158097
795.549	0.0160081
795.628	0.0159740
795.706	0.0159551
795.784	0.0160780
795.862	0.0159625
795.940	0.0157373
796.018	0.0157253
796.096	0.0158165
796.174	0.0158769
796.253	0.0157421
796.331	0.0158101
796.409	0.0157471
796.487	0.0157011
796.565	0.0157124
796.643	0.0156988
796.721	0.0157970
796.799	0.0157964
796.878	0.0158751
796.956	0.0159409
797.034	0.0157986
797.112	0.0159034
797.190	0.0159409
797.268	0.0158887
797.346	0.0159218
797.424	0.0158372
797.503	0.0158456
797.581	0.0158462
797.659	0.0160306
797.737	0.0159102
797.815	0.0159214
797.893	0.0159408
797.971	0.0158324
798.049	0.0157597
798.128	0.0157847
798.206	0.0157020
798.284	0.0158596
798.362	0.0158408
798.440	0.0158421
798.518	0.0158524
798.596	0.0159100
798.674	0.0158142
798.753	0.0159061
798.831	0.0159633
798.909	0.0158672
798.987	0.0157355
799.065	0.0157425
799.143	0.0159743
799.221	0.0160117
799.299	0.0157814
799.378	0.0158468
799.456	0.0157685
799.534	0.0159314
799.612	0.0158914
799.690	0.0159679
799.768	0.0160172
799.846	0.0158900
799.924	0.0158579
800.003	0.0158575
800.081	0.0158881
800.159	0.0157610
800.237	0.0159694
800.315	0.0158292
800.393	0.0157983
800.471	0.0158447
800.549	0.0158428
800.628	0.0156998
800.706	0.0158197
800.784	0.0159108
800.862	0.0156660
800.940	0.0157902
801.018	0.0158434
801.096	0.0157593
801.174	0.0157926
801.253	0.0158920
801.331	0.0157607
801.409	0.0156763
801.487	0.0157961
801.565	0.0157674
801.643	0.0159225
801.721	0.0157545
801.799	0.0158871
801.878	0.0157390
801.956	0.0157886
802.034	0.0158218
802.112	0.0157382
802.190	0.0158566
802.268	0.0158523
802.346	0.0159614
802.424	0.0158795
802.503	0.0158761
802.581	0.0157224
802.659	0.0158355
802.737	0.0160666
802.815	0.0158572
802.893	0.0159488
802.971	0.0159110
803.049	0.0159175
803.128	0.0159930
803.206	0.0160826
803.284	0.0160985
803.362	0.0160803
803.440	0.0160237
803.518	0.0161505
803.596	0.0162137
803.674	0.0159496
803.753	0.0161108
803.831	0.0160886
803.909	0.0160941
803.987	0.0161327
804.065	0.0159608
804.143	0.0160090
804.221	0.0160271
804.299	0.0161391
804.378	0.0160229
804.456	0.0160879
804.534	0.0161176
804.612	0.0160596
804.690	0.0161205
804.768	0.0161208
804.846	0.0161752
804.924	0.0161200
805.003	0.0161192
805.081	0.0161667
805.159	0.0161243
805.237	0.0160461
805.315	0.0160394
805.393	0.0162482
805.471	0.0160648
805.549	0.0160544
805.628	0.0162483
805.706	0.0161304
805.784	0.0160967
805.862	0.0161504
805.940	0.0161636
806.018	0.0161402
806.096	0.0161605
806.174	0.0161336
806.253	0.0161286
806.331	0.0162952
806.409	0.0162726
806.487	0.0160722
806.565	0.0161868
806.643	0.0160989
806.721	0.0160521
806.799	0.0160213
806.878	0.0160665
806.956	0.0159538
807.034	0.0159279
807.112	0.0159695
807.190	0.0159179
807.268	0.0158331
807.346	0.0159473
807.424	0.0158728
807.503	0.0158239
807.581	0.0157967
807.659	0.0156522
807.737	0.0158084
807.815	0.0158196
807.893	0.0157592
807.971	0.0157630
808.049	0.0157812
808.128	0.0156805
808.206	0.0157923
808.284	0.0157971
808.362	0.0158588
808.440	0.0158150
808.518	0.0158264
808.596	0.0157089
808.674	0.0157489
808.753	0.0158482
808.831	0.0159259
808.909	0.0158810
808.987	0.0159280
809.065	0.0158505
809.143	0.0159554
809.221	0.0158732
809.299	0.0159076
809.378	0.0158975
809.456	0.0157813
809.534	0.0158204
809.612	0.0159731
809.690	0.0158543
809.768	0.0159055
809.846	0.0159004
809.924	0.0159117
810.003	0.0157290
810.081	0.0159348
810.159	0.0160069
810.237	0.0158966
810.315	0.0159270
810.393	0.0158387
810.471	0.0157404
810.549	0.0158884
810.628	0.0159211
810.706	0.0157765
810.784	0.0157713
810.862	0.0157481
810.940	0.0156897
811.018	0.0157694
811.096	0.0158716
811.174	0.0157199
811.253	0.0157377
811.331	0.0156843
811.409	0.0157563
811.487	0.0157922
811.565	0.0158350
811.643	0.0157297
811.721	0.0156863
811.799	0.0156582
811.878	0.0157292
811.956	0.0157804
812.034	0.0155765
812.112	0.0158225
812.190	0.0157214
812.268	0.0158977
812.346	0.0158435
812.424	0.0157639
812.503	0.0158442
812.581	0.0158217
812.659	0.0157590
812.737	0.0158128
812.815	0.0158497
812.893	0.0158444
812.971	0.0156513
813.049	0.0157372
813.128	0.0159405
813.206	0.0157501
813.284	0.0157630
813.362	0.0157619
813.440	0.0156082
813.518	0.0157612
813.596	0.0159296
813.674	0.0157416
813.753	0.0158073
813.831	0.0158453
813.909	0.0159205
813.987	0.0157581
814.065	0.0157724
814.143	0.0157750
814.221	0.0157219
814.299	0.0158909
814.378	0.0157983
814.456	0.0157205
814.534	0.0158362
814.612	0.0159129
814.690	0.0158170
814.768	0.0157968
814.846	0.0159062
814.924	0.0157288
815.003	0.0158277
815.081	0.0158888
815.159	0.0159180
815.237	0.0159849
815.315	0.0159840
815.393	0.0158559
815.471	0.0159563
815.549	0.0159042
815.628	0.0159456
815.706	0.0159241
815.784	0.0158744
815.862	0.0159836
815.940	0.0160146
816.018	0.0160298
816.096	0.0161701
816.174	0.0160433
816.253	0.0158664
816.331	0.0159729
816.409	0.0160640
816.487	0.0159525
816.565	0.0159716
816.643	0.0159558
816.721	0.0159642
816.799	0.0158844
816.878	0.0159869
816.956	0.0159165
817.034	0.0159224
817.112	0.0158181
817.190	0.0158440
817.268	0.0158955
817.346	0.0159061
817.424	0.0158906
817.503	0.0160853
817.581	0.0159856
817.659	0.0159318
817.737	0.0158495
817.815	0.0158594
817.893	0.0158831
817.971	0.0158770
818.049	0.0158195
818.128	0.0159051
818.206	0.0158386
818.284	0.0159060
818.362	0.0160075
818.440	0.0159470
818.518	0.0159679
818.596	0.0160472
818.674	0.0160319
818.753	0.0160196
818.831	0.0161880
818.909	0.0161708
818.987	0.0160426
819.065	0.0160055
819.143	0.0161594
819.221	0.0160810
819.299	0.0162051
819.378	0.0160925
819.456	0.0160880
819.534	0.0160895
819.612	0.0160147
819.690	0.0160056
819.768	0.0160213
819.846	0.0160164
819.924	0.0159623
820.003	0.0158480
820.081	0.0157049
820.159	0.0158380
820.237	0.0158865
820.315	0.0158061
820.393	0.0159328
820.471	0.0158080
820.549	0.0159216
820.628	0.0157155
820.706	0.0157935
820.784	0.0156764
820.862	0.0156044
820.940	0.0156868
821.018	0.0157639
821.096	0.0157504
821.174	0.0155337
821.253	0.0157360
821.331	0.0157541
821.409	0.0156844
821.487	0.0157718
821.565	0.0156788
821.643	0.0156999
821.721	0.0157484
821.799	0.0159015
821.878	0.0158215
821.956	0.0157751
822.034	0.0158687
822.112	0.0158912
822.190	0.0158367
822.268	0.0158971
822.346	0.0159209
822.424	0.0159745
822.503	0.0160149
822.581	0.0159211
822.659	0.0159435
822.737	0.0161532
822.815	0.0160190
822.893	0.0160638
822.971	0.0161389
823.049	0.0160909
823.128	0.0160484
823.206	0.0161897
823.284	0.0161533
823.362	0.0160630
823.440	0.0162267
823.518	0.0161122
823.596	0.0160900
823.674	0.0160957
823.753	0.0160205
823.831	0.0160874
823.909	0.0161050
823.987	0.0160256
824.065	0.0159209
824.143	0.0158742
824.221	0.0159417
824.299	0.0159142
824.378	0.0158820
824.456	0.0159216
824.534	0.0158492
824.612	0.0160079
824.690	0.0158445
824.768	0.0158998
824.846	0.0158328
824.924	0.0158939
825.003	0.0159673
825.081	0.0158994
825.159	0.0159331
825.237	0.0159101
825.315	0.0159404
825.393	0.0159891
825.471	0.0159021
825.549	0.0158501
825.628	0.0159962
825.706	0.0161665
825.784	0.0161076
825.862	0.0159225
825.940	0.0158973
826.018	0.0159559
826.096	0.0161086
826.174	0.0160786
826.253	0.0160663
826.331	0.0161810
826.409	0.0160663
826.487	0.0159869
826.565	0.0161064
826.643	0.0160494
826.721	0.0159480
826.799	0.0160474
826.878	0.0159729
826.956	0.0159301
827.034	0.0161101
827.112	0.0160763
827.190	0.0159971
827.268	0.0158980
827.346	0.0157615
827.424	0.0158027
827.503	0.0159966
827.581	0.0159193
827.659	0.0158023
827.737	0.0157664
827.815	0.0157337
827.893	0.0157316
827.971	0.0157565
828.049	0.0156514
828.128	0.0156052
828.206	0.0155972
828.284	0.0157212
828.362	0.0156409
828.440	0.0155753
828.518	0.0156625
828.596	0.0156605
828.674	0.0155740
828.753	0.0155752
828.831	0.0156467
828.909	0.0156614
828.987	0.0157923
829.065	0.0157665
829.143	0.0157875
829.221	0.0157092
829.299	0.0157530
829.378	0.0157531
829.456	0.0157605
829.534	0.0159441
829.612	0.0157013
829.690	0.0158749
829.768	0.0158720
829.846	0.0159062
829.924	0.0158664
830.003	0.0159906
830.081	0.0159145
830.159	0.0159130
830.237	0.0157879
830.315	0.0159446
830.393	0.0157965
830.471	0.0157631
830.549	0.0158014
830.628	0.0159840
830.706	0.0159190
830.784	0.0158617
830.862	0.0157159
830.940	0.0158173
831.018	0.0158507
831.096	0.0157783
831.174	0.0158940
831.253	0.0158607
831.331	0.0158327
831.409	0.0159826
831.487	0.0157982
831.565	0.0158505
831.643	0.0157943
831.721	0.0157335
831.799	0.0158784
831.878	0.0157453
831.956	0.0159066
832.034	0.0157654
832.112	0.0158060
832.190	0.0158685
832.268	0.0157582
832.346	0.0159895
832.424	0.0159261
832.503	0.0157609
832.581	0.0157748
832.659	0.0159056
832.737	0.0158408
832.815	0.0159157
832.893	0.0157776
832.971	0.0158830
833.049	0.0160133
833.128	0.0158321
833.206	0.0159988
833.284	0.0159227
833.362	0.0157761
833.440	0.0158270
833.518	0.0160350
833.596	0.0159821
833.674	0.0158382
833.753	0.0158495
833.831	0.0158644
833.909	0.0157808
833.987	0.0157603
834.065	0.0158318
834.143	0.0158299
834.221	0.0157979
834.299	0.0156414
834.378	0.0157799
834.456	0.0157085
834.534	0.0157111
834.612	0.0157528
834.690	0.0156776
834.768	0.0156031
834.846	0.0155177
834.924	0.0155682
835.003	0.0156372
835.081	0.0154479
835.159	0.0155601
835.237	0.0155342
835.315	0.0156451
835.393	0.0155775
835.471	0.0155624
835.549	0.0154870
835.628	0.0155432
835.706	0.0156001
835.784	0.0156615
835.862	0.0155811
835.940	0.0156842
836.018	0.0156838
836.096	0.0156554
836.174	0.0157233
836.253	0.0157536
836.331	0.0157301
836.409	0.0156483
836.487	0.0156009
836.565	0.0158418
836.643	0.0157907
836.721	0.0157696
836.799	0.0157796
836.878	0.0157422
836.956	0.0157419
837.034	0.0159283
837.112	0.0159323
837.190	0.0159287
837.268	0.0159435
837.346	0.0158810
837.424	0.0159788
837.503	0.0159407
837.581	0.0159708
837.659	0.0159877
837.737	0.0159639
837.815	0.0158144
837.893	0.0159374
837.971	0.0161298
838.049	0.0158408
838.128	0.0159241
838.206	0.0159130
838.284	0.0157953
838.362	0.0158737
838.440	0.0157480
838.518	0.0158913
838.596	0.0157558
838.674	0.0157154
838.753	0.0156844
838.831	0.0157980
838.909	0.0156297
838.987	0.0156894
839.065	0.0155849
839.143	0.0156184
839.221	0.0156770
839.299	0.0155346
839.378	0.0154983
839.456	0.0154993
839.534	0.0155998
839.612	0.0156007
839.690	0.0155684
839.768	0.0155632
839.846	0.0154784
839.924	0.0154728
840.003	0.0155743
840.081	0.0157555
840.159	0.0156971
840.237	0.0157744
840.315	0.0156706
840.393	0.0156360
840.471	0.0158110
840.549	0.0157397
840.628	0.0158835
840.706	0.0158938
840.784	0.0160023
840.862	0.0157754
840.940	0.0158444
841.018	0.0161155
841.096	0.0159406
841.174	0.0160878
841.253	0.0159446
841.331	0.0159779
841.409	0.0160098
841.487	0.0160875
841.565	0.0161530
841.643	0.0159888
841.721	0.0161649
841.799	0.0160634
841.878	0.0160680
841.956	0.0160612
842.034	0.0160561
842.112	0.0159238
842.190	0.0159890
842.268	0.0159370
842.346	0.0159506
842.424	0.0158955
842.503	0.0158393
842.581	0.0157375
842.659	0.0158601
842.737	0.0158545
842.815	0.0156895
842.893	0.0158353
842.971	0.0158584
843.049	0.0158292
843.128	0.0157246
843.206	0.0157861
843.284	0.0158374
843.362	0.0157676
843.440	0.0157977
843.518	0.0158637
843.596	0.0158156
843.674	0.0157893
843.753	0.0158656
843.831	0.0159701
843.909	0.0159361
843.987	0.0159071
844.065	0.0160436
844.143	0.0159551
844.221	0.0159807
844.299	0.0161037
844.378	0.0158705
844.456	0.0159933
844.534	0.0157690
844.612	0.0159053
844.690	0.0159592
844.768	0.0159905
844.846	0.0159159
844.924	0.0157830
845.003	0.0159274
845.081	0.0159292
845.159	0.0158246
845.237	0.0158701
845.315	0.0159072
845.393	0.0158987
845.471	0.0158213
845.549	0.0160042
845.628	0.0157747
845.706	0.0159364
845.784	0.0158868
845.862	0.0159987
845.940	0.0160434
846.018	0.0159731
846.096	0.0158600
846.174	0.0159731
846.253	0.0160642
846.331	0.0158955
846.409	0.0159819
846.487	0.0159539
846.565	0.0160679
846.643	0.0161675
846.721	0.0161939
846.799	0.0161562
846.878	0.0159878
846.956	0.0160910
847.034	0.0161327
847.112	0.0161314
847.190	0.0161250
847.268	0.0160976
847.346	0.0161739
847.424	0.0160906
847.503	0.0161893
847.581	0.0161538
847.659	0.0162220
847.737	0.0160065
847.815	0.0160187
847.893	0.0162383
847.971	0.0159966
848.049	0.0160364
848.128	0.0159559
848.206	0.0161194
848.284	0.0161161
848.362	0.0159472
848.440	0.0158589
848.518	0.0159917
848.596	0.0159563
848.674	0.0159185
848.753	0.0160333
848.831	0.0159097
848.909	0.0158817
848.987	0.0158769
849.065	0.0159966
849.143	0.0159535
849.221	0.0160088
849.299	0.0159279
849.378	0.0158759
849.456	0.0159338
849.534	0.0159280
849.612	0.0157768
849.690	0.0157985
849.768	0.0160168
849.846	0.0159011
849.924	0.0160220
850.003	0.0159577
850.081	0.0158375
850.159	0.0159789
850.237	0.0158822
850.315	0.0159677
850.393	0.0159026
850.471	0.0159800
850.549	0.0158695
850.628	0.0159443
850.706	0.0160059
850.784	0.0159853
850.862	0.0158897
850.940	0.0158949
851.018	0.0158570
851.096	0.0159302
851.174	0.0158760
851.253	0.0157934
851.331	0.0159312
851.409	0.0158185
851.487	0.0159425
851.565	0.0158298
851.643	0.0160344
851.721	0.0159343
851.799	0.0158440
851.878	0.0158551
851.956	0.0158934
852.034	0.0159461
852.112	0.0159570
852.190	0.0159464
852.268	0.0159462
852.346	0.0159013
852.424	0.0160131
852.503	0.0161642
852.581	0.0159023
852.659	0.0159991
852.737	0.0160487
852.815	0.0158748
852.893	0.0158566
852.971	0.0159568
853.049	0.0159115
853.128	0.0158932
853.206	0.0158877
853.284	0.0159599
853.362	0.0158930
853.440	0.0159519
853.518	0.0159859
853.596	0.0159821
853.674	0.0159123
853.753	0.0158868
853.831	0.0159013
853.909	0.0159253
853.987	0.0158780
854.065	0.0157935
854.143	0.0158303
854.221	0.0159049
854.299	0.0158937
854.378	0.0159374
854.456	0.0158318
854.534	0.0158668
854.612	0.0159341
854.690	0.0158841
854.768	0.0158171
854.846	0.0157224
854.924	0.0157751
855.003	0.0157475
855.081	0.0157499
855.159	0.0158049
855.237	0.0156545
855.315	0.0157391
855.393	0.0156796
855.471	0.0156254
855.549	0.0157564
855.628	0.0157959
855.706	0.0157729
855.784	0.0158456
855.862	0.0157475
855.940	0.0157507
856.018	0.0158600
856.096	0.0159291
856.174	0.0158640
856.253	0.0160430
856.331	0.0158056
856.409	0.0158522
856.487	0.0159109
856.565	0.0159229
856.643	0.0159105
856.721	0.0157796
856.799	0.0159798
856.878	0.0158167
856.956	0.0159528
857.034	0.0158765
857.112	0.0159069
857.190	0.0158016
857.268	0.0158559
857.346	0.0159161
857.424	0.0160165
857.503	0.0159669
857.581	0.0157092
857.659	0.0158995
857.737	0.0158880
857.815	0.0158450
857.893	0.0159258
857.971	0.0157528
858.049	0.0158734
858.128	0.0158549
858.206	0.0158704
858.284	0.0158868
858.362	0.0158051
858.440	0.0157890
858.518	0.0159076
858.596	0.0157658
858.674	0.0158241
858.753	0.0159668
858.831	0.0157236
858.909	0.0158903
858.987	0.0157655
859.065	0.0158577
859.143	0.0158826
859.221	0.0158213
859.299	0.0157418
859.378	0.0157160
859.456	0.0158779
859.534	0.0156969
859.612	0.0158299
859.690	0.0158627
859.768	0.0157228
859.846	0.0156867
859.924	0.0157135
860.003	0.0158335
860.081	0.0158208
860.159	0.0158990
860.237	0.0157348
860.315	0.0157632
860.393	0.0157414
860.471	0.0157630
860.549	0.0159160
860.628	0.0158203
860.706	0.0156820
860.784	0.0157348
860.862	0.0157815
860.940	0.0157856
861.018	0.0156447
861.096	0.0157757
861.174	0.0157623
861.253	0.0156173
861.331	0.0157520
861.409	0.0156802
861.487	0.0157772
861.565	0.0156217
861.643	0.0155700
861.721	0.0156155
861.799	0.0157817
861.878	0.0156718
861.956	0.0156432
862.034	0.0157903
862.112	0.0156906
862.190	0.0156119
862.268	0.0156862
862.346	0.0156559
862.424	0.0155698
862.503	0.0158447
862.581	0.0157662
862.659	0.0158453
862.737	0.0159461
862.815	0.0158677
862.893	0.0156677
862.971	0.0157957
863.049	0.0159552
863.128	0.0158733
863.206	0.0158600
863.284	0.0157787
863.362	0.0158481
863.440	0.0159488
863.518	0.0158916
863.596	0.0158870
863.674	0.0158596
863.753	0.0159993
863.831	0.0158112
863.909	0.0159389
863.987	0.0160247
864.065	0.0159996
864.143	0.0159293
864.221	0.0158066
864.299	0.0157838
864.378	0.0158880
864.456	0.0159904
864.534	0.0157984
864.612	0.0158187
864.690	0.0158925
864.768	0.0158427
864.846	0.0158563
864.924	0.0157915
865.003	0.0158306
865.081	0.0157478
865.159	0.0159737
865.237	0.0159065
865.315	0.0157207
865.393	0.0158466
865.471	0.0157968
865.549	0.0158805
865.628	0.0159245
865.706	0.0158019
865.784	0.0158191
865.862	0.0159653
865.940	0.0158516
866.018	0.0158031
866.096	0.0158495
866.174	0.0158762
866.253	0.0157674
866.331	0.0158823
866.409	0.0157198
866.487	0.0156729
866.565	0.0158807
866.643	0.0159282
866.721	0.0158745
866.799	0.0157983
866.878	0.0157685
866.956	0.0158456
867.034	0.0157915
867.112	0.0159003
867.190	0.0157125
867.268	0.0158920
867.346	0.0158128
867.424	0.0158513
867.503	0.0159756
867.581	0.0160387
867.659	0.0159464
867.737	0.0160902
867.815	0.0158693
867.893	0.0158881
867.971	0.0158733
868.049	0.0160915
868.128	0.0160133
868.206	0.0159283
868.284	0.0158882
868.362	0.0159846
868.440	0.0158990
868.518	0.0161177
868.596	0.0160654
868.674	0.0159586
868.753	0.0159129
868.831	0.0159757
868.909	0.0160892
868.987	0.0159115
869.065	0.0159469
869.143	0.0159962
869.221	0.0160542
869.299	0.0160003
869.378	0.0161108
869.456	0.0161146
869.534	0.0161120
869.612	0.0159037
869.690	0.0159461
869.768	0.0160384
869.846	0.0160918
869.924	0.0161060
870.003	0.0158910
870.081	0.0159769
870.159	0.0160077
870.237	0.0159769
870.315	0.0161703
870.393	0.0160017
870.471	0.0160321
870.549	0.0160140
870.628	0.0159257
870.706	0.0159918
870.784	0.0159116
870.862	0.0160165
870.940	0.0159126
871.018	0.0158944
871.096	0.0159444
871.174	0.0159656
871.253	0.0159243
871.331	0.0159413
871.409	0.0157428
871.487	0.0158241
871.565	0.0158683
871.643	0.0159778
871.721	0.0158485
871.799	0.0157723
871.878	0.0159769
871.956	0.0158529
872.034	0.0157786
872.112	0.0159483
872.190	0.0158813
872.268	0.0157935
872.346	0.0159013
872.424	0.0157780
872.503	0.0159178
872.581	0.0158965
872.659	0.0158660
872.737	0.0160157
872.815	0.0159523
872.893	0.0157433
872.971	0.0159471
873.049	0.0157760
873.128	0.0158704
873.206	0.0158318
873.284	0.0158195
873.362	0.0157611
873.440	0.0158401
873.518	0.0158994
873.596	0.0158550
873.674	0.0158757
873.753	0.0158818
873.831	0.0158293
873.909	0.0158461
873.987	0.0157598
874.065	0.0158136
874.143	0.0158664
874.221	0.0156483
874.299	0.0157237
874.378	0.0157572
874.456	0.0158482
874.534	0.0158244
874.612	0.0157802
874.690	0.0158743
874.768	0.0157567
874.846	0.0158755
874.924	0.0158817
875.003	0.0157971
875.081	0.0156937
875.159	0.0158942
875.237	0.0157392
875.315	0.0159736
875.393	0.0159218
875.471	0.0158395
875.549	0.0158281
875.628	0.0159558
875.706	0.0158163
875.784	0.0157481
875.862	0.0160191
875.940	0.0159454
876.018	0.0159002
876.096	0.0159346
876.174	0.0158717
876.253	0.0158553
876.331	0.0159018
876.409	0.0159757
876.487	0.0159698
876.565	0.0157530
876.643	0.0158192
876.721	0.0158983
876.799	0.0157777
876.878	0.0159229
876.956	0.0159370
877.034	0.0160036
877.112	0.0156642
877.190	0.0159186
877.268	0.0157877
877.346	0.0158385
877.424	0.0156857
877.503	0.0158147
877.581	0.0157043
877.659	0.0156790
877.737	0.0158431
877.815	0.0157639
877.893	0.0157158
877.971	0.0156833
878.049	0.0158044
878.128	0.0158312
878.206	0.0157109
878.284	0.0157381
878.362	0.0157362
878.440	0.0157785
878.518	0.0156830
878.596	0.0156808
878.674	0.0156389
878.753	0.0158399
878.831	0.0157930
878.909	0.0156717
878.987	0.0157171
879.065	0.0157890
879.143	0.0157338
879.221	0.0157845
879.299	0.0158741
879.378	0.0157235
879.456	0.0157497
879.534	0.0158538
879.612	0.0158228
879.690	0.0157960
879.768	0.0156895
879.846	0.0158257
879.924	0.0158640
880.003	0.0157880
880.081	0.0158067
880.159	0.0157035
880.237	0.0156648
880.315	0.0157899
880.393	0.0158385
880.471	0.0159143
880.549	0.0157718
880.628	0.0159216
880.706	0.0157647
880.784	0.0158142
880.862	0.0158270
880.940	0.0157120
881.018	0.0158861
881.096	0.0158266
881.174	0.0157499
881.253	0.0157496
881.331	0.0158811
881.409	0.0159456
881.487	0.0158731
881.565	0.0159255
881.643	0.0158820
881.721	0.0158756
881.799	0.0158573
881.878	0.0157947
881.956	0.0158283
882.034	0.0158309
882.112	0.0158050
882.190	0.0157835
882.268	0.0157695
882.346	0.0157187
882.424	0.0157235
882.503	0.0157879
882.581	0.0158333
882.659	0.0158881
882.737	0.0158488
882.815	0.0157785
882.893	0.0158884
882.971	0.0158736
883.049	0.0158460
883.128	0.0158229
883.206	0.0157884
883.284	0.0159131
883.362	0.0159245
883.440	0.0159315
883.518	0.0160468
883.596	0.0159222
883.674	0.0160289
883.753	0.0160064
883.831	0.0158663
883.909	0.0159119
883.987	0.0160278
884.065	0.0159466
884.143	0.0160511
884.221	0.0159454
884.299	0.0158363
884.378	0.0159551
884.456	0.0159641
884.534	0.0159225
884.612	0.0159566
884.690	0.0159850
884.768	0.0160406
884.846	0.0160539
884.924	0.0159433
885.003	0.0159473
885.081	0.0159871
885.159	0.0159155
885.237	0.0159130
885.315	0.0159317
885.393	0.0158831
885.471	0.0159273
885.549	0.0159052
885.628	0.0159207
885.706	0.0160609
885.784	0.0159478
885.862	0.0159486
885.940	0.0159419
886.018	0.0160066
886.096	0.0158762
886.174	0.0158338
886.253	0.0157932
886.331	0.0158852
886.409	0.0159171
886.487	0.0159380
886.565	0.0158464
886.643	0.0157856
886.721	0.0159916
886.799	0.0158952
886.878	0.0160271
886.956	0.0159230
887.034	0.0158764
887.112	0.0159824
887.190	0.0159367
887.268	0.0159314
887.346	0.0159456
887.424	0.0160254
887.503	0.0159453
887.581	0.0161118
887.659	0.0159999
887.737	0.0159238
887.815	0.0162489
887.893	0.0160719
887.971	0.0159985
888.049	0.0160654
888.128	0.0161873
888.206	0.0160070
888.284	0.0159701
888.362	0.0161063
888.440	0.0161010
888.518	0.0160392
888.596	0.0160683
888.674	0.0161220
888.753	0.0162408
888.831	0.0161029
888.909	0.0160536
888.987	0.0161237
889.065	0.0161861
889.143	0.0160844
889.221	0.0160955
889.299	0.0160279
889.378	0.0160790
889.456	0.0160284
889.534	0.0161903
889.612	0.0161033
889.690	0.0161579
889.768	0.0160235
889.846	0.0160716
889.924	0.0161915
890.003	0.0160694
890.081	0.0160907
890.159	0.0160781
890.237	0.0159817
890.315	0.0159349
890.393	0.0160102
890.471	0.0160655
890.549	0.0159151
890.628	0.0159482
890.706	0.0160902
890.784	0.0158875
890.862	0.0159061
890.940	0.0158608
891.018	0.0159562
891.096	0.0158395
891.174	0.0158811
891.253	0.0160489
891.331	0.0159550
891.409	0.0158852
891.487	0.0159489
891.565	0.0160005
891.643	0.0159612
891.721	0.0159457
891.799	0.0161031
891.878	0.0159665
891.956	0.0157954
892.034	0.0159251
892.112	0.0159428
892.190	0.0158553
892.268	0.0157596
892.346	0.0158206
892.424	0.0158595
892.503	0.0159180
892.581	0.0159793
892.659	0.0160647
892.737	0.0158927
892.815	0.0159129
892.893	0.0160529
892.971	0.0160038
893.049	0.0159866
893.128	0.0160413
893.206	0.0158405
893.284	0.0159546
893.362	0.0159313
893.440	0.0160400
893.518	0.0159706
893.596	0.0159945
893.674	0.0158921
893.753	0.0160216
893.831	0.0158818
893.909	0.0159711
893.987	0.0159145
894.065	0.0161473
894.143	0.0158973
894.221	0.0160981
894.299	0.0159569
894.378	0.0159675
894.456	0.0160348
894.534	0.0161347
894.612	0.0160709
894.690	0.0159891
894.768	0.0160523
894.846	0.0160149
894.924	0.0158972
895.003	0.0159764
895.081	0.0159795
895.159	0.0159867
895.237	0.0160191
895.315	0.0159151
895.393	0.0161143
895.471	0.0159789
895.549	0.0160948
895.628	0.0160089
895.706	0.0161180
895.784	0.0159233
895.862	0.0160876
895.940	0.0159943
896.018	0.0160068
896.096	0.0160316
896.174	0.0160468
896.253	0.0159910
896.331	0.0160035
896.409	0.0160436
896.487	0.0160757
896.565	0.0162251
896.643	0.0158873
896.721	0.0160001
896.799	0.0160361
896.878	0.0160715
896.956	0.0161005
897.034	0.0161166
897.112	0.0159698
897.190	0.0160294
897.268	0.0161735
897.346	0.0160526
897.424	0.0159485
897.503	0.0159277
897.581	0.0159139
897.659	0.0161459
897.737	0.0160114
897.815	0.0159529
897.893	0.0158849
897.971	0.0159378
898.049	0.0158627
898.128	0.0159262
898.206	0.0158471
898.284	0.0157665
898.362	0.0158059
898.440	0.0157511
898.518	0.0158267
898.596	0.0159489
898.674	0.0157920
898.753	0.0159758
898.831	0.0158739
898.909	0.0158324
898.987	0.0158754
899.065	0.0158321
899.143	0.0158753
899.221	0.0158994
899.299	0.0158257
899.378	0.0158867
899.456	0.0158124
899.534	0.0158815
899.612	0.0158044
899.690	0.0158533
899.768	0.0159254
899.846	0.0157474
899.924	0.0157819
900.003	0.0157968
900.081	0.0157676
900.159	0.0158363
900.237	0.0158466
900.315	0.0157053
900.393	0.0157007
900.471	0.0158600
900.549	0.0159061
900.628	0.0158267
900.706	0.0159158
900.784	0.0159019
900.862	0.0157284
900.940	0.0158421
901.018	0.0158487
901.096	0.0157510
901.174	0.0157072
901.253	0.0157343
901.331	0.0157064
901.409	0.0155752
901.487	0.0157392
901.565	0.0156541
901.643	0.0155966
901.721	0.0158118
901.799	0.0157392
901.878	0.0155475
901.956	0.0155798
902.034	0.0156676
902.112	0.0157214
902.190	0.0156559
902.268	0.0155727
902.346	0.0156187
902.424	0.0155461
902.503	0.0156190
902.581	0.0156696
902.659	0.0155652
902.737	0.0156744
902.815	0.0157446
902.893	0.0157796
902.971	0.0158611
903.049	0.0157977
903.128	0.0156004
903.206	0.0155919
903.284	0.0156168
903.362	0.0157635
903.440	0.0157561
903.518	0.0157173
903.596	0.0157795
903.674	0.0157308
903.753	0.0158840
903.831	0.0155943
903.909	0.0157122
903.987	0.0158301
904.065	0.0158032
904.143	0.0156766
904.221	0.0156717
904.299	0.0158571
904.378	0.0159029
904.456	0.0156501
904.534	0.0157442
904.612	0.0158738
904.690	0.0158076
904.768	0.0158097
904.846	0.0157463
904.924	0.0157304
905.003	0.0156980
905.081	0.0156862
905.159	0.0157686
905.237	0.0159284
905.315	0.0157891
905.393	0.0157648
905.471	0.0158111
905.549	0.0158350
905.628	0.0157874
905.706	0.0158011
905.784	0.0157942
905.862	0.0157709
905.940	0.0159663
906.018	0.0158474
906.096	0.0159468
906.174	0.0158768
906.253	0.0159785
906.331	0.0158076
906.409	0.0159393
906.487	0.0161008
906.565	0.0158459
906.643	0.0158025
906.721	0.0160439
906.799	0.0161890
906.878	0.0159904
906.956	0.0159303
907.034	0.0160094
907.112	0.0160962
907.190	0.0160217
907.268	0.0159967
907.346	0.0160023
907.424	0.0161047
907.503	0.0159746
907.581	0.0159782
907.659	0.0161617
907.737	0.0159657
907.815	0.0159956
907.893	0.0160136
907.971	0.0160551
908.049	0.0159477
908.128	0.0159776
908.206	0.0161298
908.284	0.0159017
908.362	0.0160147
908.440	0.0160831
908.518	0.0159677
908.596	0.0160169
908.674	0.0160081
908.753	0.0160870
908.831	0.0161261
908.909	0.0160011
908.987	0.0159998
909.065	0.0159795
909.143	0.0160683
909.221	0.0160120
909.299	0.0160507
909.378	0.0159926
909.456	0.0160765
909.534	0.0161028
909.612	0.0160220
909.690	0.0158215
909.768	0.0160170
909.846	0.0159576
909.924	0.0160945
910.003	0.0160404
910.081	0.0161076
910.159	0.0160268
910.237	0.0159814
910.315	0.0159412
910.393	0.0158705
910.471	0.0160744
910.549	0.0160799
910.628	0.0160120
910.706	0.0159598
910.784	0.0160348
910.862	0.0160804
910.940	0.0159311
911.018	0.0160898
911.096	0.0160032
911.174	0.0160777
911.253	0.0160715
911.331	0.0158853
911.409	0.0158776
911.487	0.0160967
911.565	0.0159785
911.643	0.0161036
911.721	0.0160192
911.799	0.0159841
911.878	0.0160368
911.956	0.0159418
912.034	0.0160805
912.112	0.0159432
912.190	0.0159822
912.268	0.0160979
912.346	0.0159271
912.424	0.0158737
912.503	0.0160444
912.581	0.0158973
912.659	0.0160024
912.737	0.0160860
912.815	0.0161213
912.893	0.0160252
912.971	0.0160105
913.049	0.0159821
913.128	0.0159901
913.206	0.0160416
913.284	0.0160886
913.362	0.0159988
913.440	0.0160454
913.518	0.0159332
913.596	0.0160320
913.674	0.0159938
913.753	0.0159464
913.831	0.0160874
913.909	0.0160173
913.987	0.0160245
914.065	0.0159978
914.143	0.0159727
914.221	0.0158753
914.299	0.0159216
914.378	0.0158639
914.456	0.0159419
914.534	0.0159617
914.612	0.0161349
914.690	0.0161820
914.768	0.0161504
914.846	0.0161033
914.924	0.0160992
915.003	0.0160043
915.081	0.0161308
915.159	0.0160061
915.237	0.0161308
915.315	0.0160933
915.393	0.0160865
915.471	0.0162116
915.549	0.0161584
915.628	0.0161765
915.706	0.0160158
915.784	0.0160869
915.862	0.0162313
915.940	0.0159936
916.018	0.0162107
916.096	0.0161676
916.174	0.0160060
916.253	0.0159867
916.331	0.0161273
916.409	0.0160998
916.487	0.0161280
916.565	0.0162287
916.643	0.0161466
916.721	0.0159786
916.799	0.0160019
916.878	0.0160703
916.956	0.0161188
917.034	0.0160734
917.112	0.0161286
917.190	0.0161203
917.268	0.0161572
917.346	0.0161987
917.424	0.0161893
917.503	0.0160735
917.581	0.0161997
917.659	0.0162965
917.737	0.0162166
917.815	0.0160169
917.893	0.0159917
917.971	0.0160704
918.049	0.0160618
918.128	0.0161651
918.206	0.0160954
918.284	0.0160776
918.362	0.0160287
918.440	0.0161092
918.518	0.0160126
918.596	0.0160075
918.674	0.0160849
918.753	0.0160163
918.831	0.0159113
918.909	0.0159765
918.987	0.0159435
919.065	0.0160724
919.143	0.0159730
919.221	0.0160423
919.299	0.0160110
919.378	0.0160428
919.456	0.0160931
919.534	0.0159922
919.612	0.0160302
919.690	0.0159635
919.768	0.0160312
919.846	0.0159422
919.924	0.0160103
920.003	0.0159447
920.081	0.0160712
920.159	0.0159859
920.237	0.0159250
920.315	0.0160144
920.393	0.0160323
920.471	0.0159840
920.549	0.0160756
920.628	0.0160123
920.706	0.0160265
920.784	0.0159286
920.862	0.0159764
920.940	0.0160043
921.018	0.0158446
921.096	0.0159152
921.174	0.0159801
921.253	0.0159113
921.331	0.0158887
921.409	0.0159206
921.487	0.0158340
921.565	0.0157685
921.643	0.0157348
921.721	0.0157536
921.799	0.0159165
921.878	0.0158338
921.956	0.0158013
922.034	0.0159013
922.112	0.0157253
922.190	0.0156479
922.268	0.0157146
922.346	0.0156995
922.424	0.0156847
922.503	0.0156641
922.581	0.0156287
922.659	0.0157764
922.737	0.0157919
922.815	0.0156921
922.893	0.0155431
922.971	0.0157030
923.049	0.0155872
923.128	0.0157516
923.206	0.0157193
923.284	0.0156210
923.362	0.0156584
923.440	0.0156385
923.518	0.0156157
923.596	0.0157699
923.674	0.0156320
923.753	0.0155649
923.831	0.0156660
923.909	0.0157691
923.987	0.0156768
924.065	0.0156306
924.143	0.0156126
924.221	0.0156583
924.299	0.0157931
924.378	0.0157134
924.456	0.0156889
924.534	0.0156372
924.612	0.0157335
924.690	0.0157665
924.768	0.0157215
924.846	0.0157747
924.924	0.0157361
925.003	0.0157623
925.081	0.0156792
925.159	0.0156728
925.237	0.0155962
925.315	0.0156834
925.393	0.0156656
925.471	0.0155170
925.549	0.0156177
925.628	0.0157275
925.706	0.0156480
925.784	0.0156366
925.862	0.0155917
925.940	0.0158041
926.018	0.0157018
926.096	0.0156514
926.174	0.0157525
926.253	0.0156072
926.331	0.0157081
926.409	0.0156654
926.487	0.0156281
926.565	0.0157600
926.643	0.0158178
926.721	0.0157704
926.799	0.0158199
926.878	0.0157792
926.956	0.0158954
927.034	0.0156590
927.112	0.0159317
927.190	0.0158949
927.268	0.0160603
927.346	0.0158813
927.424	0.0158896
927.503	0.0159694
927.581	0.0159814
927.659	0.0160246
927.737	0.0159015
927.815	0.0158305
927.893	0.0159173
927.971	0.0160104
928.049	0.0159439
928.128	0.0157992
928.206	0.0160015
928.284	0.0159312
928.362	0.0159397
928.440	0.0160718
928.518	0.0159547
928.596	0.0158076
928.674	0.0159743
928.753	0.0158897
928.831	0.0158459
928.909	0.0158656
928.987	0.0159750
929.065	0.0158644
929.143	0.0158437
929.221	0.0158124
929.299	0.0158048
929.378	0.0159710
929.456	0.0158044
929.534	0.0157780
929.612	0.0158346
929.690	0.0158314
929.768	0.0159200
929.846	0.0158488
929.924	0.0157470
930.003	0.0158623
930.081	0.0158282
930.159	0.0157761
930.237	0.0159696
930.315	0.0157931
930.393	0.0158051
930.471	0.0159746
930.549	0.0159301
930.628	0.0159338
930.706	0.0159797
930.784	0.0159163
930.862	0.0158829
930.940	0.0158847
931.018	0.0159459
931.096	0.0160375
931.174	0.0158964
931.253	0.0159252
931.331	0.0159453
931.409	0.0159842
931.487	0.0160054
931.565	0.0159772
931.643	0.0161051
931.721	0.0159060
931.799	0.0161273
931.878	0.0161539
931.956	0.0159470
932.034	0.0157777
932.112	0.0159433
932.190	0.0158079
932.268	0.0160464
932.346	0.0159284
932.424	0.0158092
932.503	0.0159161
932.581	0.0158743
932.659	0.0158621
932.737	0.0158165
932.815	0.0158540
932.893	0.0158578
932.971	0.0158621
933.049	0.0157642
933.128	0.0158128
933.206	0.0158321
933.284	0.0158096
933.362	0.0158632
933.440	0.0157187
933.518	0.0158981
933.596	0.0157796
933.674	0.0156933
933.753	0.0158700
933.831	0.0159400
933.909	0.0159308
933.987	0.0157363
934.065	0.0158289
934.143	0.0157961
934.221	0.0158559
934.299	0.0158866
934.378	0.0159362
934.456	0.0158839
934.534	0.0159379
934.612	0.0159409
934.690	0.0158099
934.768	0.0158795
934.846	0.0160293
934.924	0.0160046
935.003	0.0160122
935.081	0.0159804
935.159	0.0158460
935.237	0.0158572
935.315	0.0159196
935.393	0.0156502
935.471	0.0158725
935.549	0.0159888
935.628	0.0159019
935.706	0.0159223
935.784	0.0158522
935.862	0.0157914
935.940	0.0157818
936.018	0.0158536
936.096	0.0158549
936.174	0.0159526
936.253	0.0158649
936.331	0.0159765
936.409	0.0157250
936.487	0.0158801
936.565	0.0160446
936.643	0.0157524
936.721	0.0156558
936.799	0.0158529
936.878	0.0158169
936.956	0.0157908
937.034	0.0157183
937.112	0.0158292
937.190	0.0156896
937.268	0.0157692
937.346	0.0159849
937.424	0.0157788
937.503	0.0156750
937.581	0.0159432
937.659	0.0159055
937.737	0.0159832
937.815	0.0158853
937.893	0.0158489
937.971	0.0160049
938.049	0.0158370
938.128	0.0159078
938.206	0.0159386
938.284	0.0159750
938.362	0.0159108
938.440	0.0159440
938.518	0.0158801
938.596	0.0159689
938.674	0.0159204
938.753	0.0159863
938.831	0.0160534
938.909	0.0159801
938.987	0.0159097
939.065	0.0158369
939.143	0.0158688
939.221	0.0159985
939.299	0.0159788
939.378	0.0157841
939.456	0.0157317
939.534	0.0159567
939.612	0.0158257
939.690	0.0159129
939.768	0.0159303
939.846	0.0157460
939.924	0.0158450
940.003	0.0157914
940.081	0.0157604
940.159	0.0158141
940.237	0.0157700
940.315	0.0158814
940.393	0.0158198
940.471	0.0158357
940.549	0.0158164
940.628	0.0157510
940.706	0.0157944
940.784	0.0157568
940.862	0.0158871
940.940	0.0159263
941.018	0.0158409
941.096	0.0159158
941.174	0.0158051
941.253	0.0157268
941.331	0.0159900
941.409	0.0160540
941.487	0.0159586
941.565	0.0158068
941.643	0.0160249
941.721	0.0159294
941.799	0.0159185
941.878	0.0157436
941.956	0.0159296
942.034	0.0160081
942.112	0.0158754
942.190	0.0158468
942.268	0.0159084
942.346	0.0158746
942.424	0.0159053
942.503	0.0159240
942.581	0.0158487
942.659	0.0159876
942.737	0.0159055
942.815	0.0158520
942.893	0.0158676
942.971	0.0157544
943.049	0.0158459
943.128	0.0158165
943.206	0.0157534
943.284	0.0158736
943.362	0.0158029
943.440	0.0157723
943.518	0.0157361
943.596	0.0158083
943.674	0.0157670
943.753	0.0158096
943.831	0.0157752
943.909	0.0156738
943.987	0.0158189
944.065	0.0157020
944.143	0.0156820
944.221	0.0157639
944.299	0.0157301
944.378	0.0158392
944.456	0.0157459
944.534	0.0157437
944.612	0.0157854
944.690	0.0158112
944.768	0.0157120
944.846	0.0158427
944.924	0.0157711
945.003	0.0157580
945.081	0.0157537
945.159	0.0157982
945.237	0.0158134
945.315	0.0158073
945.393	0.0156950
945.471	0.0158208
945.549	0.0156973
945.628	0.0158135
945.706	0.0157696
945.784	0.0157143
945.862	0.0157954
945.940	0.0157936
946.018	0.0156524
946.096	0.0156866
946.174	0.0155598
946.253	0.0156283
946.331	0.0155587
946.409	0.0156691
946.487	0.0156638
946.565	0.0156754
946.643	0.0155484
946.721	0.0156773
946.799	0.0155552
946.878	0.0156663
946.956	0.0156871
947.034	0.0155633
947.112	0.0155832
947.190	0.0156550
947.268	0.0156839
947.346	0.0155879
947.424	0.0155862
947.503	0.0156705
947.581	0.0157433
947.659	0.0157487
947.737	0.0156034
947.815	0.0155798
947.893	0.0157027
947.971	0.0156882
948.049	0.0157040
948.128	0.0156816
948.206	0.0155864
948.284	0.0157586
948.362	0.0157705
948.440	0.0156637
948.518	0.0157172
948.596	0.0157681
948.674	0.0157222
948.753	0.0158419
948.831	0.0158143
948.909	0.0158061
948.987	0.0158569
949.065	0.0156682
949.143	0.0159628
949.221	0.0158931
949.299	0.0158270
949.378	0.0159275
949.456	0.0159171
949.534	0.0158496
949.612	0.0159309
949.690	0.0158002
949.768	0.0157890
949.846	0.0158372
949.924	0.0160229
