06/29/2022	23:20:56	Ver.	4.1	UNKNOWN
Optical Delay	630.002507	Delta X		0.078125	Sweeps	1	Scan Rate	0/0
Coordinates	Axis 1	NaN	Axis 2	NaN	Axis 3	NaN	Axis 4	NaN	Axis 5	NaN	Axis 6	0.000000
TX Power	0.000000	RX Power	0.000000

630.003	0.0158688
630.081	0.0159601
630.159	0.0159693
630.237	0.0158285
630.315	0.0158888
630.393	0.0160201
630.471	0.0160001
630.549	0.0158559
630.628	0.0157962
630.706	0.0159273
630.784	0.0159409
630.862	0.0158092
630.940	0.0157521
631.018	0.0158521
631.096	0.0158833
631.174	0.0159415
631.253	0.0158907
631.331	0.0158765
631.409	0.0158575
631.487	0.0157457
631.565	0.0158208
631.643	0.0158595
631.721	0.0158688
631.799	0.0157116
631.878	0.0157086
631.956	0.0156429
632.034	0.0157177
632.112	0.0158540
632.190	0.0158367
632.268	0.0157265
632.346	0.0157227
632.424	0.0158492
632.503	0.0157973
632.581	0.0158664
632.659	0.0158308
632.737	0.0156908
632.815	0.0158443
632.893	0.0157619
632.971	0.0157022
633.049	0.0157381
633.128	0.0158727
633.206	0.0158011
633.284	0.0159538
633.362	0.0158973
633.440	0.0158031
633.518	0.0156917
633.596	0.0158604
633.674	0.0159077
633.753	0.0158163
633.831	0.0157948
633.909	0.0157933
633.987	0.0158807
634.065	0.0159230
634.143	0.0159085
634.221	0.0158982
634.299	0.0158347
634.378	0.0158041
634.456	0.0156263
634.534	0.0157891
634.612	0.0158565
634.690	0.0158698
634.768	0.0157870
634.846	0.0159733
634.924	0.0159115
635.003	0.0158208
635.081	0.0157967
635.159	0.0157447
635.237	0.0160255
635.315	0.0159846
635.393	0.0158351
635.471	0.0158607
635.549	0.0158486
635.628	0.0158852
635.706	0.0160590
635.784	0.0158562
635.862	0.0159399
635.940	0.0159007
636.018	0.0159696
636.096	0.0159976
636.174	0.0159879
636.253	0.0159719
636.331	0.0159053
636.409	0.0159751
636.487	0.0160052
636.565	0.0160728
636.643	0.0159143
636.721	0.0160288
636.799	0.0160420
636.878	0.0161076
636.956	0.0160110
637.034	0.0159731
637.112	0.0159368
637.190	0.0160176
637.268	0.0159647
637.346	0.0159342
637.424	0.0160437
637.503	0.0161232
637.581	0.0160122
637.659	0.0159054
637.737	0.0160225
637.815	0.0160962
637.893	0.0158794
637.971	0.0159376
638.049	0.0159731
638.128	0.0158949
638.206	0.0157521
638.284	0.0160794
638.362	0.0158820
638.440	0.0160445
638.518	0.0158970
638.596	0.0159184
638.674	0.0159444
638.753	0.0159219
638.831	0.0160075
638.909	0.0161138
638.987	0.0160960
639.065	0.0159892
639.143	0.0159716
639.221	0.0160320
639.299	0.0161122
639.378	0.0160110
639.456	0.0161255
639.534	0.0159898
639.612	0.0160544
639.690	0.0161668
639.768	0.0160349
639.846	0.0159835
639.924	0.0161562
640.003	0.0161591
640.081	0.0160374
640.159	0.0161148
640.237	0.0162016
640.315	0.0160693
640.393	0.0160178
640.471	0.0160121
640.549	0.0159218
640.628	0.0159469
640.706	0.0160772
640.784	0.0159937
640.862	0.0159933
640.940	0.0161049
641.018	0.0160671
641.096	0.0159926
641.174	0.0159237
641.253	0.0158665
641.331	0.0160743
641.409	0.0159148
641.487	0.0158890
641.565	0.0160447
641.643	0.0160093
641.721	0.0159549
641.799	0.0158171
641.878	0.0159449
641.956	0.0160066
642.034	0.0158488
642.112	0.0159170
642.190	0.0159328
642.268	0.0158715
642.346	0.0157714
642.424	0.0158295
642.503	0.0159122
642.581	0.0157002
642.659	0.0157718
642.737	0.0157996
642.815	0.0158247
642.893	0.0157964
642.971	0.0159607
643.049	0.0159071
643.128	0.0158304
643.206	0.0160136
643.284	0.0159863
643.362	0.0158719
643.440	0.0158930
643.518	0.0160458
643.596	0.0160361
643.674	0.0157654
643.753	0.0159743
643.831	0.0159688
643.909	0.0159956
643.987	0.0158032
644.065	0.0159637
644.143	0.0159216
644.221	0.0158954
644.299	0.0159071
644.378	0.0159457
644.456	0.0159556
644.534	0.0158439
644.612	0.0158629
644.690	0.0158779
644.768	0.0158969
644.846	0.0158645
644.924	0.0157632
645.003	0.0158513
645.081	0.0159335
645.159	0.0158158
645.237	0.0159210
645.315	0.0159447
645.393	0.0158852
645.471	0.0157397
645.549	0.0159751
645.628	0.0159278
645.706	0.0158296
645.784	0.0159058
645.862	0.0159184
645.940	0.0159148
646.018	0.0160364
646.096	0.0158080
646.174	0.0159081
646.253	0.0159049
646.331	0.0159637
646.409	0.0159572
646.487	0.0160323
646.565	0.0158259
646.643	0.0158270
646.721	0.0159593
646.799	0.0160220
646.878	0.0159269
646.956	0.0159721
647.034	0.0159769
647.112	0.0160840
647.190	0.0159142
647.268	0.0159685
647.346	0.0160262
647.424	0.0160911
647.503	0.0159508
647.581	0.0160504
647.659	0.0160507
647.737	0.0159769
647.815	0.0161151
647.893	0.0160136
647.971	0.0160975
648.049	0.0160624
648.128	0.0159250
648.206	0.0159484
648.284	0.0159179
648.362	0.0160848
648.440	0.0161394
648.518	0.0160708
648.596	0.0161409
648.674	0.0161483
648.753	0.0160622
648.831	0.0159852
648.909	0.0161465
648.987	0.0161194
649.065	0.0160489
649.143	0.0160282
649.221	0.0161250
649.299	0.0161913
649.378	0.0161391
649.456	0.0160086
649.534	0.0161368
649.612	0.0162058
649.690	0.0160680
649.768	0.0160822
649.846	0.0159448
649.924	0.0160039
650.003	0.0163097
650.081	0.0159368
650.159	0.0160358
650.237	0.0160760
650.315	0.0159773
650.393	0.0159988
650.471	0.0160248
650.549	0.0159927
650.628	0.0159542
650.706	0.0160880
650.784	0.0159150
650.862	0.0159687
650.940	0.0160429
651.018	0.0159813
651.096	0.0159315
651.174	0.0160166
651.253	0.0159100
651.331	0.0159097
651.409	0.0159186
651.487	0.0158652
651.565	0.0158469
651.643	0.0158611
651.721	0.0159020
651.799	0.0158464
651.878	0.0157538
651.956	0.0157664
652.034	0.0158321
652.112	0.0159183
652.190	0.0158884
652.268	0.0158856
652.346	0.0157912
652.424	0.0158215
652.503	0.0158321
652.581	0.0157610
652.659	0.0158257
652.737	0.0158931
652.815	0.0158744
652.893	0.0159428
652.971	0.0157926
653.049	0.0155786
653.128	0.0157627
653.206	0.0158401
653.284	0.0157200
653.362	0.0158189
653.440	0.0157448
653.518	0.0158009
653.596	0.0157098
653.674	0.0158962
653.753	0.0158028
653.831	0.0158298
653.909	0.0158182
653.987	0.0157133
654.065	0.0156783
654.143	0.0159044
654.221	0.0158698
654.299	0.0157635
654.378	0.0157274
654.456	0.0158070
654.534	0.0159352
654.612	0.0157088
654.690	0.0157432
654.768	0.0157381
654.846	0.0156477
654.924	0.0156921
655.003	0.0156746
655.081	0.0155962
655.159	0.0157063
655.237	0.0157965
655.315	0.0157338
655.393	0.0156843
655.471	0.0156882
655.549	0.0157290
655.628	0.0156889
655.706	0.0156936
655.784	0.0157193
655.862	0.0157633
655.940	0.0156913
656.018	0.0157024
656.096	0.0157895
656.174	0.0158909
656.253	0.0158273
656.331	0.0157179
656.409	0.0158319
656.487	0.0158569
656.565	0.0157119
656.643	0.0157126
656.721	0.0158957
656.799	0.0157291
656.878	0.0157442
656.956	0.0158655
657.034	0.0157612
657.112	0.0156577
657.190	0.0157283
657.268	0.0159964
657.346	0.0159336
657.424	0.0156677
657.503	0.0158272
657.581	0.0157859
657.659	0.0157912
657.737	0.0159132
657.815	0.0158622
657.893	0.0157553
657.971	0.0159007
658.049	0.0158426
658.128	0.0158548
658.206	0.0158797
658.284	0.0157688
658.362	0.0158395
658.440	0.0157835
658.518	0.0158887
658.596	0.0160134
658.674	0.0159134
658.753	0.0158927
658.831	0.0158855
658.909	0.0159305
658.987	0.0159082
659.065	0.0157485
659.143	0.0158694
659.221	0.0160022
659.299	0.0157825
659.378	0.0157111
659.456	0.0158681
659.534	0.0158448
659.612	0.0159351
659.690	0.0158681
659.768	0.0157819
659.846	0.0159061
659.924	0.0157159
660.003	0.0159463
660.081	0.0159863
660.159	0.0159390
660.237	0.0158795
660.315	0.0159131
660.393	0.0158470
660.471	0.0159722
660.549	0.0159052
660.628	0.0158616
660.706	0.0159096
660.784	0.0159221
660.862	0.0159141
660.940	0.0158975
661.018	0.0158019
661.096	0.0157995
661.174	0.0157896
661.253	0.0159045
661.331	0.0157535
661.409	0.0158252
661.487	0.0158891
661.565	0.0157038
661.643	0.0156424
661.721	0.0157639
661.799	0.0157854
661.878	0.0159540
661.956	0.0157384
662.034	0.0157919
662.112	0.0157758
662.190	0.0157898
662.268	0.0158103
662.346	0.0158862
662.424	0.0157413
662.503	0.0157407
662.581	0.0159302
662.659	0.0157813
662.737	0.0156474
662.815	0.0157144
662.893	0.0158112
662.971	0.0157430
663.049	0.0158234
663.128	0.0158350
663.206	0.0157779
663.284	0.0157364
663.362	0.0156951
663.440	0.0158759
663.518	0.0156495
663.596	0.0156694
663.674	0.0158675
663.753	0.0159010
663.831	0.0157960
663.909	0.0157693
663.987	0.0157610
664.065	0.0158455
664.143	0.0159179
664.221	0.0157433
664.299	0.0159776
664.378	0.0159724
664.456	0.0159014
664.534	0.0158363
664.612	0.0159020
664.690	0.0160142
664.768	0.0160814
664.846	0.0160773
664.924	0.0159473
665.003	0.0158696
665.081	0.0160326
665.159	0.0161182
665.237	0.0160552
665.315	0.0160773
665.393	0.0159962
665.471	0.0161155
665.549	0.0160355
665.628	0.0161108
665.706	0.0160170
665.784	0.0159046
665.862	0.0159980
665.940	0.0161530
666.018	0.0160609
666.096	0.0160413
666.174	0.0161330
666.253	0.0162339
666.331	0.0158884
666.409	0.0160852
666.487	0.0161116
666.565	0.0160475
666.643	0.0160493
666.721	0.0161037
666.799	0.0160981
666.878	0.0160396
666.956	0.0161433
667.034	0.0159840
667.112	0.0160777
667.190	0.0160420
667.268	0.0160247
667.346	0.0159145
667.424	0.0160310
667.503	0.0159763
667.581	0.0159203
667.659	0.0159600
667.737	0.0160123
667.815	0.0159760
667.893	0.0159333
667.971	0.0158386
668.049	0.0158112
668.128	0.0159306
668.206	0.0159995
668.284	0.0159663
668.362	0.0160902
668.440	0.0158225
668.518	0.0159468
668.596	0.0159238
668.674	0.0161108
668.753	0.0159019
668.831	0.0158039
668.909	0.0159892
668.987	0.0159338
669.065	0.0159731
669.143	0.0159461
669.221	0.0159555
669.299	0.0160156
669.378	0.0160155
669.456	0.0159630
669.534	0.0160183
669.612	0.0159367
669.690	0.0158871
669.768	0.0158943
669.846	0.0159540
669.924	0.0159010
670.003	0.0160471
670.081	0.0160303
670.159	0.0160320
670.237	0.0160602
670.315	0.0159519
670.393	0.0157173
670.471	0.0158874
670.549	0.0159077
670.628	0.0157731
670.706	0.0158074
670.784	0.0159504
670.862	0.0159487
670.940	0.0158734
671.018	0.0158289
671.096	0.0158678
671.174	0.0158234
671.253	0.0157027
671.331	0.0158640
671.409	0.0158319
671.487	0.0158409
671.565	0.0158815
671.643	0.0157933
671.721	0.0157933
671.799	0.0159047
671.878	0.0158246
671.956	0.0158094
672.034	0.0158603
672.112	0.0160252
672.190	0.0158463
672.268	0.0157785
672.346	0.0157824
672.424	0.0157114
672.503	0.0158804
672.581	0.0157883
672.659	0.0157428
672.737	0.0156731
672.815	0.0158673
672.893	0.0157796
672.971	0.0158386
673.049	0.0157574
673.128	0.0156730
673.206	0.0157957
673.284	0.0156953
673.362	0.0157211
673.440	0.0158076
673.518	0.0159420
673.596	0.0159294
673.674	0.0158337
673.753	0.0157245
673.831	0.0157597
673.909	0.0157752
673.987	0.0158434
674.065	0.0157442
674.143	0.0158440
674.221	0.0158377
674.299	0.0157103
674.378	0.0158676
674.456	0.0159094
674.534	0.0158419
674.612	0.0158463
674.690	0.0158067
674.768	0.0158401
674.846	0.0158280
674.924	0.0157941
675.003	0.0159003
675.081	0.0158395
675.159	0.0159155
675.237	0.0158968
675.315	0.0157742
675.393	0.0157361
675.471	0.0158404
675.549	0.0157997
675.628	0.0157932
675.706	0.0158069
675.784	0.0158163
675.862	0.0158731
675.940	0.0158611
676.018	0.0159090
676.096	0.0158076
676.174	0.0159511
676.253	0.0158128
676.331	0.0157813
676.409	0.0159703
676.487	0.0157983
676.565	0.0158592
676.643	0.0158773
676.721	0.0158333
676.799	0.0159429
676.878	0.0158252
676.956	0.0157488
677.034	0.0156068
677.112	0.0157984
677.190	0.0158355
677.268	0.0158633
677.346	0.0159610
677.424	0.0158209
677.503	0.0158797
677.581	0.0157108
677.659	0.0157291
677.737	0.0157608
677.815	0.0158949
677.893	0.0158200
677.971	0.0157710
678.049	0.0158636
678.128	0.0158206
678.206	0.0156387
678.284	0.0157251
678.362	0.0159312
678.440	0.0159359
678.518	0.0157178
678.596	0.0157307
678.674	0.0157394
678.753	0.0156584
678.831	0.0157495
678.909	0.0158336
678.987	0.0156490
679.065	0.0157589
679.143	0.0159286
679.221	0.0156861
679.299	0.0157050
679.378	0.0157935
679.456	0.0157372
679.534	0.0157734
679.612	0.0157887
679.690	0.0156717
679.768	0.0158354
679.846	0.0156943
679.924	0.0156846
680.003	0.0158394
680.081	0.0158092
680.159	0.0157653
680.237	0.0157235
680.315	0.0158009
680.393	0.0158362
680.471	0.0157381
680.549	0.0158163
680.628	0.0158846
680.706	0.0159367
680.784	0.0156851
680.862	0.0157935
680.940	0.0158226
681.018	0.0157423
681.096	0.0157614
681.174	0.0157281
681.253	0.0157455
681.331	0.0158509
681.409	0.0159441
681.487	0.0157429
681.565	0.0157127
681.643	0.0156528
681.721	0.0158871
681.799	0.0158102
681.878	0.0157752
681.956	0.0157959
682.034	0.0158813
682.112	0.0158381
682.190	0.0157928
682.268	0.0157806
682.346	0.0157708
682.424	0.0158868
682.503	0.0158224
682.581	0.0158782
682.659	0.0159162
682.737	0.0159435
682.815	0.0159653
682.893	0.0160590
682.971	0.0158220
683.049	0.0159031
683.128	0.0159510
683.206	0.0158459
683.284	0.0159890
683.362	0.0160465
683.440	0.0158537
683.518	0.0157910
683.596	0.0159645
683.674	0.0159518
683.753	0.0161118
683.831	0.0158815
683.909	0.0158331
683.987	0.0159026
684.065	0.0159902
684.143	0.0160120
684.221	0.0159480
684.299	0.0158468
684.378	0.0158283
684.456	0.0159351
684.534	0.0159634
684.612	0.0158936
684.690	0.0158965
684.768	0.0158376
684.846	0.0159866
684.924	0.0158253
685.003	0.0158235
685.081	0.0158722
685.159	0.0158711
685.237	0.0158176
685.315	0.0157238
685.393	0.0157476
685.471	0.0158136
685.549	0.0158198
685.628	0.0158036
685.706	0.0157144
685.784	0.0158701
685.862	0.0158589
685.940	0.0158356
686.018	0.0158132
686.096	0.0159035
686.174	0.0157307
686.253	0.0158846
686.331	0.0157682
686.409	0.0159211
686.487	0.0158047
686.565	0.0158461
686.643	0.0159904
686.721	0.0160034
686.799	0.0158725
686.878	0.0158222
686.956	0.0158430
687.034	0.0158628
687.112	0.0158759
687.190	0.0158739
687.268	0.0159522
687.346	0.0159068
687.424	0.0158970
687.503	0.0160139
687.581	0.0159495
687.659	0.0159206
687.737	0.0158772
687.815	0.0159110
687.893	0.0160287
687.971	0.0159128
688.049	0.0160561
688.128	0.0160605
688.206	0.0159802
688.284	0.0158453
688.362	0.0159754
688.440	0.0161357
688.518	0.0158914
688.596	0.0159770
688.674	0.0159283
688.753	0.0159560
688.831	0.0159671
688.909	0.0159048
688.987	0.0159164
689.065	0.0159950
689.143	0.0160632
689.221	0.0158617
689.299	0.0159978
689.378	0.0158969
689.456	0.0157606
689.534	0.0159001
689.612	0.0158591
689.690	0.0160036
689.768	0.0159467
689.846	0.0157279
689.924	0.0159018
690.003	0.0159447
690.081	0.0158234
690.159	0.0157127
690.237	0.0156702
690.315	0.0159256
690.393	0.0159840
690.471	0.0158669
690.549	0.0158379
690.628	0.0159843
690.706	0.0157572
690.784	0.0158568
690.862	0.0160304
690.940	0.0160393
691.018	0.0159275
691.096	0.0160168
691.174	0.0160026
691.253	0.0159274
691.331	0.0159006
691.409	0.0160612
691.487	0.0160010
691.565	0.0159813
691.643	0.0160383
691.721	0.0159441
691.799	0.0159364
691.878	0.0159447
691.956	0.0158522
692.034	0.0158752
692.112	0.0158858
692.190	0.0159404
692.268	0.0159129
692.346	0.0159276
692.424	0.0158710
692.503	0.0157540
692.581	0.0158279
692.659	0.0158473
692.737	0.0157605
692.815	0.0158501
692.893	0.0157481
692.971	0.0157792
693.049	0.0157238
693.128	0.0160052
693.206	0.0158193
693.284	0.0159170
693.362	0.0158415
693.440	0.0158541
693.518	0.0157818
693.596	0.0157313
693.674	0.0158248
693.753	0.0157837
693.831	0.0157829
693.909	0.0158900
693.987	0.0158161
694.065	0.0157473
694.143	0.0157366
694.221	0.0156785
694.299	0.0159138
694.378	0.0157491
694.456	0.0159268
694.534	0.0156815
694.612	0.0157790
694.690	0.0158537
694.768	0.0156991
694.846	0.0158048
694.924	0.0156477
695.003	0.0157784
695.081	0.0157167
695.159	0.0157530
695.237	0.0157828
695.315	0.0159071
695.393	0.0159232
695.471	0.0157832
695.549	0.0158960
695.628	0.0158747
695.706	0.0159821
695.784	0.0159182
695.862	0.0160216
695.940	0.0159320
696.018	0.0160758
696.096	0.0160418
696.174	0.0159957
696.253	0.0161780
696.331	0.0160840
696.409	0.0160683
696.487	0.0161053
696.565	0.0161725
696.643	0.0160462
696.721	0.0161100
696.799	0.0161037
696.878	0.0161105
696.956	0.0160864
697.034	0.0159379
697.112	0.0160791
697.190	0.0161760
697.268	0.0159903
697.346	0.0160261
697.424	0.0160382
697.503	0.0159446
697.581	0.0160543
697.659	0.0160264
697.737	0.0161236
697.815	0.0158479
697.893	0.0159288
697.971	0.0160168
698.049	0.0160329
698.128	0.0161638
698.206	0.0159817
698.284	0.0160247
698.362	0.0161082
698.440	0.0160063
698.518	0.0161192
698.596	0.0161237
698.674	0.0160088
698.753	0.0159903
698.831	0.0160295
698.909	0.0160794
698.987	0.0159889
699.065	0.0159895
699.143	0.0159019
699.221	0.0159960
699.299	0.0159835
699.378	0.0160067
699.456	0.0160207
699.534	0.0159995
699.612	0.0159850
699.690	0.0159047
699.768	0.0160371
699.846	0.0160985
699.924	0.0161610
700.003	0.0161625
700.081	0.0160637
700.159	0.0161932
700.237	0.0161160
700.315	0.0160949
700.393	0.0160946
700.471	0.0160291
700.549	0.0162611
700.628	0.0161877
700.706	0.0161780
700.784	0.0160905
700.862	0.0161111
700.940	0.0160484
701.018	0.0159505
701.096	0.0160677
701.174	0.0158888
701.253	0.0158484
701.331	0.0158795
701.409	0.0160043
701.487	0.0158144
701.565	0.0158871
701.643	0.0159964
701.721	0.0158508
701.799	0.0159219
701.878	0.0158169
701.956	0.0159080
702.034	0.0158714
702.112	0.0158379
702.190	0.0158902
702.268	0.0157997
702.346	0.0157931
702.424	0.0159634
702.503	0.0158264
702.581	0.0158124
702.659	0.0159087
702.737	0.0158267
702.815	0.0157670
702.893	0.0158061
702.971	0.0159364
703.049	0.0157624
703.128	0.0158070
703.206	0.0156422
703.284	0.0157867
703.362	0.0159827
703.440	0.0156601
703.518	0.0159282
703.596	0.0158833
703.674	0.0158193
703.753	0.0158532
703.831	0.0158867
703.909	0.0157919
703.987	0.0159232
704.065	0.0159431
704.143	0.0159648
704.221	0.0158648
704.299	0.0158043
704.378	0.0157924
704.456	0.0158009
704.534	0.0159297
704.612	0.0159589
704.690	0.0157685
704.768	0.0158041
704.846	0.0159816
704.924	0.0159695
705.003	0.0159210
705.081	0.0158621
705.159	0.0158779
705.237	0.0158363
705.315	0.0158295
705.393	0.0158809
705.471	0.0158739
705.549	0.0157681
705.628	0.0158024
705.706	0.0157794
705.784	0.0158414
705.862	0.0158438
705.940	0.0159157
706.018	0.0159193
706.096	0.0157879
706.174	0.0158367
706.253	0.0158161
706.331	0.0158631
706.409	0.0158907
706.487	0.0158532
706.565	0.0158573
706.643	0.0159244
706.721	0.0158106
706.799	0.0157338
706.878	0.0157808
706.956	0.0157364
707.034	0.0157067
707.112	0.0157048
707.190	0.0157021
707.268	0.0157901
707.346	0.0157018
707.424	0.0156537
707.503	0.0155392
707.581	0.0157810
707.659	0.0157784
707.737	0.0159070
707.815	0.0158831
707.893	0.0159386
707.971	0.0157621
708.049	0.0160166
708.128	0.0161136
708.206	0.0161040
708.284	0.0161774
708.362	0.0162571
708.440	0.0162868
708.518	0.0161431
708.596	0.0161693
708.674	0.0161592
708.753	0.0161532
708.831	0.0162720
708.909	0.0162261
708.987	0.0161510
709.065	0.0161282
709.143	0.0160873
709.221	0.0160938
709.299	0.0160395
709.378	0.0159363
709.456	0.0158833
709.534	0.0159039
709.612	0.0161498
709.690	0.0159904
709.768	0.0157126
709.846	0.0158843
709.924	0.0159151
710.003	0.0158525
710.081	0.0158872
710.159	0.0157019
710.237	0.0158003
710.315	0.0158625
710.393	0.0157227
710.471	0.0157887
710.549	0.0158606
710.628	0.0158150
710.706	0.0157213
710.784	0.0158466
710.862	0.0158540
710.940	0.0157856
711.018	0.0158178
711.096	0.0159061
711.174	0.0157587
711.253	0.0158843
711.331	0.0158733
711.409	0.0160054
711.487	0.0159858
711.565	0.0160273
711.643	0.0160145
711.721	0.0160403
711.799	0.0162056
711.878	0.0162132
711.956	0.0163030
712.034	0.0162319
712.112	0.0164310
712.190	0.0161597
712.268	0.0163194
712.346	0.0162398
712.424	0.0162965
712.503	0.0162603
712.581	0.0162360
712.659	0.0160943
712.737	0.0161807
712.815	0.0161832
712.893	0.0160445
712.971	0.0159254
713.049	0.0159995
713.128	0.0159441
713.206	0.0158366
713.284	0.0157873
713.362	0.0159082
713.440	0.0158725
713.518	0.0157114
713.596	0.0158087
713.674	0.0157630
713.753	0.0157322
713.831	0.0157513
713.909	0.0157397
713.987	0.0156973
714.065	0.0157695
714.143	0.0157623
714.221	0.0157059
714.299	0.0156938
714.378	0.0158131
714.456	0.0157716
714.534	0.0157543
714.612	0.0157660
714.690	0.0157982
714.768	0.0157735
714.846	0.0156606
714.924	0.0157070
715.003	0.0156918
715.081	0.0159746
715.159	0.0158782
715.237	0.0158497
715.315	0.0158707
715.393	0.0159785
715.471	0.0159661
715.549	0.0160462
715.628	0.0159853
715.706	0.0159964
715.784	0.0160191
715.862	0.0160589
715.940	0.0159481
716.018	0.0159502
716.096	0.0160204
716.174	0.0159846
716.253	0.0160721
716.331	0.0159314
716.409	0.0158936
716.487	0.0158757
716.565	0.0159924
716.643	0.0159467
716.721	0.0157384
716.799	0.0158168
716.878	0.0157602
716.956	0.0157793
717.034	0.0158109
717.112	0.0157097
717.190	0.0156668
717.268	0.0155198
717.346	0.0157019
717.424	0.0155917
717.503	0.0156487
717.581	0.0155802
717.659	0.0155328
717.737	0.0156819
717.815	0.0156761
717.893	0.0156313
717.971	0.0156259
718.049	0.0156568
718.128	0.0159765
718.206	0.0158155
718.284	0.0160298
718.362	0.0160174
718.440	0.0161250
718.518	0.0162559
718.596	0.0162569
718.674	0.0163760
718.753	0.0165956
718.831	0.0166747
718.909	0.0166393
718.987	0.0166576
719.065	0.0167317
719.143	0.0166534
719.221	0.0165166
719.299	0.0165642
719.378	0.0165244
719.456	0.0165436
719.534	0.0162648
719.612	0.0161522
719.690	0.0160372
719.768	0.0160011
719.846	0.0159639
719.924	0.0158129
720.003	0.0157495
720.081	0.0157291
720.159	0.0157007
720.237	0.0155846
720.315	0.0156026
720.393	0.0154726
720.471	0.0155087
720.549	0.0154662
720.628	0.0155006
720.706	0.0155981
720.784	0.0155302
720.862	0.0154819
720.940	0.0156514
721.018	0.0156918
721.096	0.0158520
721.174	0.0156826
721.253	0.0159086
721.331	0.0158987
721.409	0.0158784
721.487	0.0159786
721.565	0.0161108
721.643	0.0161194
721.721	0.0161485
721.799	0.0162089
721.878	0.0162665
721.956	0.0163602
722.034	0.0163256
722.112	0.0164613
722.190	0.0164032
722.268	0.0164890
722.346	0.0164853
722.424	0.0164854
722.503	0.0164622
722.581	0.0163785
722.659	0.0165662
722.737	0.0165359
722.815	0.0164713
722.893	0.0165042
722.971	0.0164725
723.049	0.0163917
723.128	0.0163741
723.206	0.0163374
723.284	0.0163003
723.362	0.0160671
723.440	0.0159135
723.518	0.0159773
723.596	0.0159186
723.674	0.0156966
723.753	0.0156526
723.831	0.0155717
723.909	0.0154503
723.987	0.0153686
724.065	0.0152191
724.143	0.0151643
724.221	0.0151569
724.299	0.0151927
724.378	0.0150337
724.456	0.0151299
724.534	0.0149808
724.612	0.0151249
724.690	0.0151241
724.768	0.0151324
724.846	0.0152453
724.924	0.0153202
725.003	0.0152269
725.081	0.0153577
725.159	0.0155282
725.237	0.0155959
725.315	0.0156456
725.393	0.0156320
725.471	0.0156993
725.549	0.0159174
725.628	0.0157853
725.706	0.0160332
725.784	0.0161039
725.862	0.0161931
725.940	0.0162101
726.018	0.0164168
726.096	0.0163255
726.174	0.0163692
726.253	0.0165491
726.331	0.0164347
726.409	0.0162917
726.487	0.0164658
726.565	0.0165330
726.643	0.0163209
726.721	0.0163604
726.799	0.0161943
726.878	0.0161403
726.956	0.0162069
727.034	0.0160255
727.112	0.0158728
727.190	0.0158102
727.268	0.0155714
727.346	0.0155014
727.424	0.0154398
727.503	0.0151080
727.581	0.0150980
727.659	0.0151340
727.737	0.0149049
727.815	0.0148827
727.893	0.0147570
727.971	0.0146223
728.049	0.0146337
728.128	0.0146676
728.206	0.0146327
728.284	0.0147694
728.362	0.0148650
728.440	0.0148566
728.518	0.0149508
728.596	0.0149187
728.674	0.0150764
728.753	0.0150761
728.831	0.0153356
728.909	0.0154017
728.987	0.0154458
729.065	0.0158058
729.143	0.0157253
729.221	0.0159718
729.299	0.0160836
729.378	0.0161996
729.456	0.0164702
729.534	0.0164262
729.612	0.0165478
729.690	0.0167805
729.768	0.0168555
729.846	0.0168531
729.924	0.0169595
730.003	0.0170659
730.081	0.0169014
730.159	0.0169019
730.237	0.0170689
730.315	0.0170027
730.393	0.0169385
730.471	0.0168485
730.549	0.0167343
730.628	0.0164750
730.706	0.0164420
730.784	0.0161458
730.862	0.0160854
730.940	0.0159724
731.018	0.0158734
731.096	0.0156261
731.174	0.0154840
731.253	0.0154401
731.331	0.0151659
731.409	0.0150491
731.487	0.0149592
731.565	0.0148782
731.643	0.0147691
731.721	0.0146973
731.799	0.0147745
731.878	0.0146649
731.956	0.0146857
732.034	0.0147559
732.112	0.0148917
732.190	0.0147610
732.268	0.0148260
732.346	0.0149800
732.424	0.0150935
732.503	0.0151851
732.581	0.0153411
732.659	0.0153386
732.737	0.0156860
732.815	0.0157645
732.893	0.0157929
732.971	0.0160364
733.049	0.0161940
733.128	0.0163449
733.206	0.0165004
733.284	0.0166280
733.362	0.0166359
733.440	0.0166663
733.518	0.0168972
733.596	0.0168578
733.674	0.0169313
733.753	0.0169282
733.831	0.0167784
733.909	0.0167506
733.987	0.0166662
734.065	0.0166108
734.143	0.0165223
734.221	0.0162708
734.299	0.0162284
734.378	0.0161686
734.456	0.0160518
734.534	0.0157928
734.612	0.0157107
734.690	0.0156428
734.768	0.0156714
734.846	0.0154932
734.924	0.0153298
735.003	0.0153360
735.081	0.0153062
735.159	0.0152760
735.237	0.0152504
735.315	0.0151793
735.393	0.0151434
735.471	0.0151647
735.549	0.0151888
735.628	0.0152360
735.706	0.0153211
735.784	0.0152793
735.862	0.0154066
735.940	0.0154114
736.018	0.0155022
736.096	0.0156403
736.174	0.0157508
736.253	0.0159032
736.331	0.0159199
736.409	0.0157455
736.487	0.0159477
736.565	0.0162235
736.643	0.0161058
736.721	0.0162475
736.799	0.0163052
736.878	0.0163324
736.956	0.0163432
737.034	0.0164102
737.112	0.0164651
737.190	0.0164133
737.268	0.0164769
737.346	0.0164567
737.424	0.0164148
737.503	0.0164065
737.581	0.0163806
737.659	0.0162413
737.737	0.0161738
737.815	0.0160387
737.893	0.0161628
737.971	0.0158997
738.049	0.0158536
738.128	0.0156932
738.206	0.0155197
738.284	0.0154243
738.362	0.0153422
738.440	0.0151685
738.518	0.0151900
738.596	0.0152180
738.674	0.0151476
738.753	0.0150560
738.831	0.0150730
738.909	0.0152288
738.987	0.0152290
739.065	0.0152324
739.143	0.0154785
739.221	0.0156297
739.299	0.0156123
739.378	0.0156707
739.456	0.0158724
739.534	0.0159189
739.612	0.0160469
739.690	0.0161095
739.768	0.0161983
739.846	0.0162584
739.924	0.0164210
740.003	0.0164809
740.081	0.0164260
740.159	0.0164622
740.237	0.0164069
740.315	0.0165967
740.393	0.0164561
740.471	0.0164436
740.549	0.0163439
740.628	0.0163452
740.706	0.0164459
740.784	0.0163342
740.862	0.0163622
740.940	0.0161514
741.018	0.0160921
741.096	0.0161175
741.174	0.0161297
741.253	0.0160544
741.331	0.0160817
741.409	0.0159959
741.487	0.0160630
741.565	0.0159339
741.643	0.0158880
741.721	0.0157741
741.799	0.0158047
741.878	0.0158346
741.956	0.0155685
742.034	0.0154675
742.112	0.0157501
742.190	0.0155938
742.268	0.0155985
742.346	0.0156245
742.424	0.0153836
742.503	0.0153274
742.581	0.0154011
742.659	0.0153653
742.737	0.0153363
742.815	0.0153039
742.893	0.0153588
742.971	0.0152482
743.049	0.0151423
743.128	0.0152362
743.206	0.0152905
743.284	0.0154321
743.362	0.0154272
743.440	0.0154134
743.518	0.0154699
743.596	0.0155799
743.674	0.0157511
743.753	0.0157188
743.831	0.0157577
743.909	0.0158408
743.987	0.0160178
744.065	0.0159542
744.143	0.0160253
744.221	0.0162721
744.299	0.0162561
744.378	0.0163229
744.456	0.0163078
744.534	0.0162397
744.612	0.0163565
744.690	0.0163690
744.768	0.0162924
744.846	0.0164644
744.924	0.0162722
745.003	0.0163666
745.081	0.0165173
745.159	0.0163343
745.237	0.0163845
745.315	0.0162539
745.393	0.0163863
745.471	0.0162660
745.549	0.0161208
745.628	0.0160291
745.706	0.0160946
745.784	0.0159174
745.862	0.0159319
745.940	0.0159219
746.018	0.0158127
746.096	0.0157980
746.174	0.0157520
746.253	0.0156891
746.331	0.0156409
746.409	0.0156998
746.487	0.0155616
746.565	0.0156199
746.643	0.0155563
746.721	0.0155328
746.799	0.0156962
746.878	0.0157007
746.956	0.0156747
747.034	0.0156633
747.112	0.0156357
747.190	0.0157340
747.268	0.0157758
747.346	0.0157663
747.424	0.0157622
747.503	0.0157314
747.581	0.0158923
747.659	0.0159409
747.737	0.0159051
747.815	0.0158308
747.893	0.0158563
747.971	0.0159193
748.049	0.0157524
748.128	0.0159410
748.206	0.0157288
748.284	0.0156226
748.362	0.0156035
748.440	0.0156155
748.518	0.0155083
748.596	0.0154558
748.674	0.0155643
748.753	0.0154158
748.831	0.0154659
748.909	0.0154494
748.987	0.0152693
749.065	0.0152776
749.143	0.0150752
749.221	0.0150333
749.299	0.0151157
749.378	0.0151202
749.456	0.0150638
749.534	0.0151275
749.612	0.0151381
749.690	0.0151620
749.768	0.0152516
749.846	0.0153714
749.924	0.0153986
750.003	0.0154723
750.081	0.0156641
750.159	0.0158080
750.237	0.0158071
750.315	0.0157835
750.393	0.0159789
750.471	0.0160312
750.549	0.0161157
750.628	0.0161665
750.706	0.0163278
750.784	0.0163571
750.862	0.0163498
750.940	0.0163943
751.018	0.0164049
751.096	0.0162926
751.174	0.0164002
751.253	0.0161279
751.331	0.0161530
751.409	0.0163156
751.487	0.0161008
751.565	0.0160822
751.643	0.0159638
751.721	0.0159637
751.799	0.0159007
751.878	0.0159337
751.956	0.0156721
752.034	0.0156877
752.112	0.0157169
752.190	0.0157494
752.268	0.0155991
752.346	0.0155235
752.424	0.0155339
752.503	0.0153721
752.581	0.0152845
752.659	0.0152554
752.737	0.0153070
752.815	0.0152177
752.893	0.0151150
752.971	0.0152880
753.049	0.0151896
753.128	0.0151866
753.206	0.0151632
753.284	0.0151843
753.362	0.0151906
753.440	0.0151723
753.518	0.0152203
753.596	0.0153326
753.674	0.0153098
753.753	0.0155050
753.831	0.0155578
753.909	0.0156171
753.987	0.0155301
754.065	0.0156197
754.143	0.0157102
754.221	0.0156384
754.299	0.0157081
754.378	0.0157620
754.456	0.0159227
754.534	0.0157893
754.612	0.0158093
754.690	0.0159556
754.768	0.0158698
754.846	0.0159589
754.924	0.0158858
755.003	0.0160703
755.081	0.0160376
755.159	0.0159549
755.237	0.0159070
755.315	0.0159924
755.393	0.0159824
755.471	0.0158920
755.549	0.0161048
755.628	0.0160391
755.706	0.0159873
755.784	0.0160542
755.862	0.0160236
755.940	0.0160583
756.018	0.0161102
756.096	0.0160754
756.174	0.0161514
756.253	0.0161372
756.331	0.0162688
756.409	0.0160484
756.487	0.0161192
756.565	0.0162717
756.643	0.0161666
756.721	0.0161107
756.799	0.0162704
756.878	0.0162055
756.956	0.0161026
757.034	0.0160838
757.112	0.0160860
757.190	0.0159514
757.268	0.0159994
757.346	0.0159609
757.424	0.0159869
757.503	0.0158008
757.581	0.0157883
757.659	0.0157858
757.737	0.0157329
757.815	0.0156831
757.893	0.0154534
757.971	0.0155896
758.049	0.0157487
758.128	0.0156965
758.206	0.0155547
758.284	0.0155627
758.362	0.0155092
758.440	0.0156413
758.518	0.0155346
758.596	0.0157104
758.674	0.0156846
758.753	0.0158752
758.831	0.0158056
758.909	0.0158196
758.987	0.0157379
759.065	0.0159531
759.143	0.0159843
759.221	0.0161052
759.299	0.0159781
759.378	0.0159191
759.456	0.0161297
759.534	0.0160350
759.612	0.0161368
759.690	0.0160281
759.768	0.0159987
759.846	0.0159543
759.924	0.0159641
760.003	0.0158775
760.081	0.0158018
760.159	0.0157153
760.237	0.0156492
760.315	0.0155676
760.393	0.0155264
760.471	0.0156505
760.549	0.0155550
760.628	0.0156795
760.706	0.0155928
760.784	0.0155399
760.862	0.0157491
760.940	0.0156390
761.018	0.0157107
761.096	0.0157877
761.174	0.0157634
761.253	0.0157938
761.331	0.0160989
761.409	0.0161253
761.487	0.0162134
761.565	0.0163678
761.643	0.0163288
761.721	0.0164938
761.799	0.0163630
761.878	0.0166482
761.956	0.0166221
762.034	0.0165771
762.112	0.0165717
762.190	0.0166396
762.268	0.0166708
762.346	0.0165673
762.424	0.0164771
762.503	0.0165532
762.581	0.0165190
762.659	0.0165786
762.737	0.0164207
762.815	0.0162983
762.893	0.0163339
762.971	0.0163802
763.049	0.0162667
763.128	0.0161416
763.206	0.0159805
763.284	0.0160213
763.362	0.0160366
763.440	0.0158132
763.518	0.0157413
763.596	0.0157394
763.674	0.0154878
763.753	0.0154829
763.831	0.0155215
763.909	0.0154864
763.987	0.0153442
764.065	0.0153361
764.143	0.0154027
764.221	0.0152866
764.299	0.0152520
764.378	0.0153517
764.456	0.0153545
764.534	0.0153923
764.612	0.0154412
764.690	0.0155000
764.768	0.0155900
764.846	0.0155949
764.924	0.0156210
765.003	0.0156866
765.081	0.0158089
765.159	0.0158544
765.237	0.0158976
765.315	0.0158949
765.393	0.0159173
765.471	0.0160607
765.549	0.0160860
765.628	0.0160223
765.706	0.0158967
765.784	0.0160223
765.862	0.0160222
765.940	0.0159421
766.018	0.0157835
766.096	0.0157037
766.174	0.0159259
766.253	0.0157791
766.331	0.0156282
766.409	0.0156532
766.487	0.0155824
766.565	0.0155769
766.643	0.0158066
766.721	0.0157085
766.799	0.0157748
766.878	0.0157902
766.956	0.0158848
767.034	0.0158929
767.112	0.0159114
767.190	0.0160997
767.268	0.0159212
767.346	0.0162247
767.424	0.0161031
767.503	0.0161800
767.581	0.0162738
767.659	0.0162743
767.737	0.0162551
767.815	0.0163823
767.893	0.0161841
767.971	0.0162706
768.049	0.0163164
768.128	0.0161735
768.206	0.0161880
768.284	0.0160607
768.362	0.0160536
768.440	0.0160308
768.518	0.0160936
768.596	0.0159769
768.674	0.0158923
768.753	0.0157584
768.831	0.0156575
768.909	0.0155445
768.987	0.0155299
769.065	0.0154776
769.143	0.0154961
769.221	0.0152534
769.299	0.0152443
769.378	0.0153825
769.456	0.0151875
769.534	0.0153620
769.612	0.0151441
769.690	0.0150832
769.768	0.0152172
769.846	0.0152821
769.924	0.0152720
770.003	0.0153104
770.081	0.0153124
770.159	0.0153338
770.237	0.0154453
770.315	0.0154794
770.393	0.0155500
770.471	0.0156290
770.549	0.0155924
770.628	0.0158752
770.706	0.0159108
770.784	0.0159442
770.862	0.0158989
770.940	0.0160183
771.018	0.0161166
771.096	0.0161406
771.174	0.0159364
771.253	0.0161225
771.331	0.0161118
771.409	0.0162233
771.487	0.0158915
771.565	0.0160374
771.643	0.0158453
771.721	0.0157818
771.799	0.0158144
771.878	0.0157716
771.956	0.0156736
772.034	0.0156527
772.112	0.0156005
772.190	0.0155395
772.268	0.0155511
772.346	0.0156709
772.424	0.0154991
772.503	0.0155772
772.581	0.0156701
772.659	0.0156649
772.737	0.0156705
772.815	0.0156355
772.893	0.0158226
772.971	0.0157441
773.049	0.0158463
773.128	0.0159447
773.206	0.0160101
773.284	0.0161014
773.362	0.0162193
773.440	0.0160773
773.518	0.0160349
773.596	0.0163755
773.674	0.0164192
773.753	0.0162942
773.831	0.0163519
773.909	0.0163160
773.987	0.0164098
774.065	0.0162759
774.143	0.0163316
774.221	0.0162744
774.299	0.0162779
774.378	0.0163893
774.456	0.0161839
774.534	0.0161533
774.612	0.0160581
774.690	0.0160153
774.768	0.0160162
774.846	0.0157693
774.924	0.0159277
775.003	0.0158648
775.081	0.0159445
775.159	0.0160161
775.237	0.0158765
775.315	0.0157814
775.393	0.0157565
775.471	0.0157240
775.549	0.0157470
775.628	0.0155923
775.706	0.0157034
775.784	0.0158799
775.862	0.0156811
775.940	0.0155458
776.018	0.0157022
776.096	0.0157091
776.174	0.0156134
776.253	0.0156329
776.331	0.0156598
776.409	0.0156989
776.487	0.0157953
776.565	0.0156981
776.643	0.0158397
776.721	0.0159397
776.799	0.0158048
776.878	0.0158190
776.956	0.0157612
777.034	0.0158371
777.112	0.0158437
777.190	0.0157736
777.268	0.0158669
777.346	0.0157798
777.424	0.0158563
777.503	0.0158155
777.581	0.0159580
777.659	0.0158168
777.737	0.0159273
777.815	0.0157902
777.893	0.0158158
777.971	0.0159217
778.049	0.0158443
778.128	0.0158787
778.206	0.0159405
778.284	0.0160773
778.362	0.0159657
778.440	0.0158997
778.518	0.0159750
778.596	0.0160965
778.674	0.0160235
778.753	0.0161501
778.831	0.0162362
778.909	0.0161928
778.987	0.0163005
779.065	0.0162530
779.143	0.0162963
779.221	0.0163477
779.299	0.0163151
779.378	0.0164190
779.456	0.0164033
779.534	0.0163793
779.612	0.0162798
779.690	0.0163316
779.768	0.0164261
779.846	0.0163593
779.924	0.0161802
780.003	0.0162457
780.081	0.0163412
780.159	0.0160411
780.237	0.0160903
780.315	0.0161796
780.393	0.0160347
780.471	0.0159566
780.549	0.0157536
780.628	0.0158295
780.706	0.0159070
780.784	0.0158027
780.862	0.0156212
780.940	0.0155296
781.018	0.0155029
781.096	0.0154085
781.174	0.0154807
781.253	0.0154060
781.331	0.0152965
781.409	0.0153750
781.487	0.0154025
781.565	0.0153500
781.643	0.0153545
781.721	0.0155363
781.799	0.0156170
781.878	0.0155006
781.956	0.0155861
782.034	0.0158942
782.112	0.0157143
782.190	0.0158801
782.268	0.0158839
782.346	0.0159454
782.424	0.0161064
782.503	0.0161561
782.581	0.0161840
782.659	0.0162495
782.737	0.0161657
782.815	0.0162112
782.893	0.0162222
782.971	0.0162819
783.049	0.0162866
783.128	0.0161121
783.206	0.0160789
783.284	0.0161674
783.362	0.0161428
783.440	0.0161381
783.518	0.0161877
783.596	0.0161629
783.674	0.0160410
783.753	0.0159854
783.831	0.0159908
783.909	0.0161026
783.987	0.0160659
784.065	0.0160326
784.143	0.0159824
784.221	0.0159222
784.299	0.0161179
784.378	0.0159309
784.456	0.0159021
784.534	0.0159167
784.612	0.0160137
784.690	0.0159974
784.768	0.0158321
784.846	0.0159994
784.924	0.0160288
785.003	0.0159354
785.081	0.0158309
785.159	0.0160098
785.237	0.0160597
785.315	0.0160117
785.393	0.0159441
785.471	0.0159648
785.549	0.0159281
785.628	0.0160212
785.706	0.0160563
785.784	0.0161388
785.862	0.0159769
785.940	0.0160881
786.018	0.0160350
786.096	0.0161977
786.174	0.0161328
786.253	0.0160712
786.331	0.0162019
786.409	0.0162231
786.487	0.0161457
786.565	0.0160805
786.643	0.0160963
786.721	0.0159957
786.799	0.0160106
786.878	0.0159591
786.956	0.0159633
787.034	0.0158137
787.112	0.0159274
787.190	0.0159354
787.268	0.0159555
787.346	0.0158876
787.424	0.0157317
787.503	0.0157764
787.581	0.0158431
787.659	0.0158067
787.737	0.0156664
787.815	0.0156547
787.893	0.0157366
787.971	0.0157934
788.049	0.0157669
788.128	0.0158189
788.206	0.0156733
788.284	0.0159140
788.362	0.0158810
788.440	0.0158715
788.518	0.0158107
788.596	0.0158915
788.674	0.0159238
788.753	0.0158913
788.831	0.0158791
788.909	0.0157497
788.987	0.0158930
789.065	0.0158935
789.143	0.0159854
789.221	0.0160017
789.299	0.0158912
789.378	0.0157722
789.456	0.0159077
789.534	0.0158311
789.612	0.0159692
789.690	0.0159768
789.768	0.0158879
789.846	0.0159933
789.924	0.0158292
790.003	0.0159153
790.081	0.0159810
790.159	0.0159839
790.237	0.0159785
790.315	0.0160455
790.393	0.0159351
790.471	0.0160635
790.549	0.0158806
790.628	0.0159134
790.706	0.0160092
790.784	0.0160895
790.862	0.0160842
790.940	0.0160509
791.018	0.0160551
791.096	0.0160157
791.174	0.0160861
791.253	0.0159382
791.331	0.0158820
791.409	0.0158844
791.487	0.0158929
791.565	0.0158147
791.643	0.0158569
791.721	0.0157383
791.799	0.0157214
791.878	0.0157786
791.956	0.0157525
792.034	0.0156711
792.112	0.0156816
792.190	0.0156142
792.268	0.0157627
792.346	0.0158009
792.424	0.0157147
792.503	0.0157455
792.581	0.0158100
792.659	0.0158348
792.737	0.0158271
792.815	0.0159091
792.893	0.0158435
792.971	0.0158453
793.049	0.0157689
793.128	0.0158274
793.206	0.0157240
793.284	0.0157504
793.362	0.0158071
793.440	0.0156821
793.518	0.0157084
793.596	0.0157798
793.674	0.0156881
793.753	0.0158043
793.831	0.0159772
793.909	0.0159179
793.987	0.0158875
794.065	0.0157690
794.143	0.0157890
794.221	0.0158994
794.299	0.0158348
794.378	0.0160261
794.456	0.0159185
794.534	0.0158366
794.612	0.0158353
794.690	0.0160220
794.768	0.0159406
794.846	0.0158383
794.924	0.0158837
795.003	0.0160289
795.081	0.0159557
795.159	0.0159242
795.237	0.0158615
795.315	0.0159934
795.393	0.0160686
795.471	0.0159283
795.549	0.0158410
795.628	0.0159482
795.706	0.0159174
795.784	0.0159590
795.862	0.0159385
795.940	0.0159578
796.018	0.0158389
796.096	0.0158123
796.174	0.0157104
796.253	0.0157531
796.331	0.0159266
796.409	0.0158948
796.487	0.0158661
796.565	0.0159434
796.643	0.0158981
796.721	0.0159525
796.799	0.0160200
796.878	0.0159730
796.956	0.0159887
797.034	0.0159531
797.112	0.0160011
797.190	0.0160793
797.268	0.0161736
797.346	0.0160581
797.424	0.0160649
797.503	0.0161035
797.581	0.0160369
797.659	0.0161562
797.737	0.0160658
797.815	0.0159465
797.893	0.0159678
797.971	0.0159396
798.049	0.0158971
798.128	0.0160097
798.206	0.0158768
798.284	0.0159200
798.362	0.0160368
798.440	0.0158690
798.518	0.0158817
798.596	0.0159154
798.674	0.0158962
798.753	0.0160142
798.831	0.0157211
798.909	0.0159085
798.987	0.0158349
799.065	0.0158073
799.143	0.0159481
799.221	0.0158436
799.299	0.0158593
799.378	0.0159464
799.456	0.0160243
799.534	0.0158034
799.612	0.0158709
799.690	0.0158794
799.768	0.0157291
799.846	0.0157740
799.924	0.0159236
800.003	0.0157761
800.081	0.0157755
800.159	0.0157179
800.237	0.0157128
800.315	0.0156779
800.393	0.0156595
800.471	0.0156758
800.549	0.0157359
800.628	0.0157021
800.706	0.0155751
800.784	0.0157779
800.862	0.0157595
800.940	0.0157890
801.018	0.0158492
801.096	0.0157548
801.174	0.0159351
801.253	0.0158702
801.331	0.0158801
801.409	0.0160929
801.487	0.0159258
801.565	0.0159244
801.643	0.0159797
801.721	0.0159980
801.799	0.0160608
801.878	0.0160374
801.956	0.0159747
802.034	0.0160275
802.112	0.0158937
802.190	0.0160734
802.268	0.0160025
802.346	0.0160391
802.424	0.0159282
802.503	0.0158993
802.581	0.0158440
802.659	0.0159157
802.737	0.0159338
802.815	0.0157924
802.893	0.0157774
802.971	0.0157879
803.049	0.0159296
803.128	0.0159706
803.206	0.0157482
803.284	0.0158122
803.362	0.0157803
803.440	0.0157996
803.518	0.0158098
803.596	0.0157780
803.674	0.0157487
803.753	0.0157181
803.831	0.0157791
803.909	0.0157057
803.987	0.0157864
804.065	0.0158213
804.143	0.0157815
804.221	0.0157575
804.299	0.0158137
804.378	0.0158398
804.456	0.0157930
804.534	0.0156178
804.612	0.0157874
804.690	0.0160430
804.768	0.0160793
804.846	0.0157094
804.924	0.0160050
805.003	0.0158868
805.081	0.0157371
805.159	0.0158636
805.237	0.0160679
805.315	0.0160316
805.393	0.0158018
805.471	0.0158848
805.549	0.0160261
805.628	0.0159829
805.706	0.0160826
805.784	0.0161025
805.862	0.0160460
805.940	0.0159407
806.018	0.0159930
806.096	0.0159423
806.174	0.0160635
806.253	0.0159367
806.331	0.0160374
806.409	0.0159526
806.487	0.0159179
806.565	0.0158968
806.643	0.0158983
806.721	0.0157948
806.799	0.0156839
806.878	0.0156949
806.956	0.0157953
807.034	0.0158260
807.112	0.0157403
807.190	0.0157084
807.268	0.0157047
807.346	0.0156265
807.424	0.0157854
807.503	0.0156286
807.581	0.0156859
807.659	0.0155531
807.737	0.0156980
807.815	0.0156747
807.893	0.0157043
807.971	0.0156516
808.049	0.0156436
808.128	0.0156803
808.206	0.0157401
808.284	0.0158303
808.362	0.0157182
808.440	0.0157098
808.518	0.0156435
808.596	0.0157208
808.674	0.0159381
808.753	0.0158851
808.831	0.0158142
808.909	0.0158584
808.987	0.0157601
809.065	0.0160240
809.143	0.0159544
809.221	0.0158717
809.299	0.0159467
809.378	0.0160407
809.456	0.0160486
809.534	0.0159608
809.612	0.0158844
809.690	0.0159160
809.768	0.0159401
809.846	0.0159415
809.924	0.0159564
810.003	0.0160487
810.081	0.0159798
810.159	0.0158282
810.237	0.0158589
810.315	0.0157121
810.393	0.0159219
810.471	0.0157863
810.549	0.0158742
810.628	0.0156616
810.706	0.0158099
810.784	0.0159723
810.862	0.0157715
810.940	0.0159457
811.018	0.0157796
811.096	0.0157764
811.174	0.0157167
811.253	0.0157735
811.331	0.0157417
811.409	0.0157790
811.487	0.0157623
811.565	0.0157876
811.643	0.0159899
811.721	0.0159185
811.799	0.0159296
811.878	0.0160267
811.956	0.0159372
812.034	0.0159400
812.112	0.0160402
812.190	0.0158807
812.268	0.0159863
812.346	0.0159569
812.424	0.0160646
812.503	0.0160444
812.581	0.0158780
812.659	0.0160448
812.737	0.0161452
812.815	0.0159968
812.893	0.0159486
812.971	0.0160898
813.049	0.0161163
813.128	0.0160371
813.206	0.0160223
813.284	0.0158252
813.362	0.0157649
813.440	0.0157333
813.518	0.0156797
813.596	0.0159744
813.674	0.0158914
813.753	0.0156656
813.831	0.0156348
813.909	0.0157927
813.987	0.0157504
814.065	0.0157028
814.143	0.0157186
814.221	0.0158196
814.299	0.0158754
814.378	0.0157165
814.456	0.0157010
814.534	0.0158516
814.612	0.0157899
814.690	0.0156925
814.768	0.0158624
814.846	0.0158106
814.924	0.0159830
815.003	0.0159340
815.081	0.0158126
815.159	0.0159357
815.237	0.0160353
815.315	0.0160176
815.393	0.0159715
815.471	0.0158167
815.549	0.0159512
815.628	0.0158950
815.706	0.0158040
815.784	0.0158418
815.862	0.0159350
815.940	0.0159213
816.018	0.0158418
816.096	0.0158954
816.174	0.0159814
816.253	0.0158522
816.331	0.0157941
816.409	0.0157324
816.487	0.0157966
816.565	0.0157089
816.643	0.0157856
816.721	0.0159349
816.799	0.0156982
816.878	0.0156482
816.956	0.0158137
817.034	0.0157804
817.112	0.0158491
817.190	0.0158601
817.268	0.0157256
817.346	0.0158131
817.424	0.0157822
817.503	0.0158497
817.581	0.0157677
817.659	0.0157790
817.737	0.0158675
817.815	0.0158474
817.893	0.0157338
817.971	0.0156106
818.049	0.0157788
818.128	0.0158790
818.206	0.0158880
818.284	0.0158671
818.362	0.0160027
818.440	0.0159635
818.518	0.0158624
818.596	0.0158227
818.674	0.0161118
818.753	0.0161104
818.831	0.0160275
818.909	0.0159456
818.987	0.0159740
819.065	0.0159283
819.143	0.0159483
819.221	0.0160313
819.299	0.0159940
819.378	0.0158494
819.456	0.0159251
819.534	0.0160150
819.612	0.0159705
819.690	0.0160339
819.768	0.0158401
819.846	0.0158743
819.924	0.0159289
820.003	0.0157049
820.081	0.0157408
820.159	0.0155930
820.237	0.0157416
820.315	0.0157854
820.393	0.0156214
820.471	0.0155087
820.549	0.0154054
820.628	0.0155917
820.706	0.0156582
820.784	0.0156003
820.862	0.0155768
820.940	0.0155150
821.018	0.0156754
821.096	0.0156316
821.174	0.0156709
821.253	0.0157952
821.331	0.0156030
821.409	0.0157291
821.487	0.0157196
821.565	0.0159818
821.643	0.0157791
821.721	0.0158223
821.799	0.0158861
821.878	0.0158228
821.956	0.0158486
822.034	0.0158132
822.112	0.0158549
822.190	0.0158652
822.268	0.0157933
822.346	0.0158528
822.424	0.0158887
822.503	0.0157307
822.581	0.0160260
822.659	0.0159542
822.737	0.0159167
822.815	0.0159139
822.893	0.0158414
822.971	0.0158991
823.049	0.0158636
823.128	0.0158452
823.206	0.0158157
823.284	0.0157797
823.362	0.0158472
823.440	0.0158627
823.518	0.0158633
823.596	0.0158546
823.674	0.0157573
823.753	0.0156572
823.831	0.0157145
823.909	0.0156954
823.987	0.0157101
824.065	0.0156931
824.143	0.0156593
824.221	0.0157965
824.299	0.0157598
824.378	0.0156037
824.456	0.0157258
824.534	0.0157377
824.612	0.0157432
824.690	0.0157611
824.768	0.0156884
824.846	0.0157782
824.924	0.0157618
825.003	0.0157520
825.081	0.0157190
825.159	0.0157319
825.237	0.0157078
825.315	0.0158247
825.393	0.0157741
825.471	0.0157641
825.549	0.0158253
825.628	0.0160482
825.706	0.0159992
825.784	0.0158754
825.862	0.0159473
825.940	0.0159898
826.018	0.0159846
826.096	0.0158623
826.174	0.0161514
826.253	0.0160381
826.331	0.0159021
826.409	0.0159373
826.487	0.0160445
826.565	0.0160285
826.643	0.0159586
826.721	0.0160457
826.799	0.0159019
826.878	0.0158582
826.956	0.0158305
827.034	0.0158335
827.112	0.0158263
827.190	0.0157848
827.268	0.0158222
827.346	0.0157397
827.424	0.0157057
827.503	0.0157677
827.581	0.0157294
827.659	0.0155447
827.737	0.0155333
827.815	0.0155666
827.893	0.0156187
827.971	0.0155828
828.049	0.0156710
828.128	0.0155166
828.206	0.0153943
828.284	0.0155061
828.362	0.0153485
828.440	0.0155422
828.518	0.0155196
828.596	0.0154736
828.674	0.0154174
828.753	0.0155379
828.831	0.0156534
828.909	0.0155762
828.987	0.0157076
829.065	0.0156445
829.143	0.0156579
829.221	0.0157608
829.299	0.0159045
829.378	0.0158762
829.456	0.0159486
829.534	0.0158892
829.612	0.0160831
829.690	0.0159599
829.768	0.0160492
829.846	0.0160635
829.924	0.0160073
830.003	0.0159892
830.081	0.0160287
830.159	0.0160326
830.237	0.0160484
830.315	0.0160663
830.393	0.0160720
830.471	0.0159955
830.549	0.0160509
830.628	0.0159465
830.706	0.0159157
830.784	0.0160698
830.862	0.0158752
830.940	0.0159182
831.018	0.0159621
831.096	0.0159230
831.174	0.0158985
831.253	0.0156923
831.331	0.0158552
831.409	0.0157288
831.487	0.0156940
831.565	0.0158116
831.643	0.0156331
831.721	0.0156326
831.799	0.0156948
831.878	0.0157752
831.956	0.0157338
832.034	0.0154743
832.112	0.0156796
832.190	0.0156430
832.268	0.0155514
832.346	0.0157280
832.424	0.0157143
832.503	0.0156644
832.581	0.0156444
832.659	0.0156905
832.737	0.0157793
832.815	0.0157742
832.893	0.0157220
832.971	0.0158237
833.049	0.0157647
833.128	0.0159183
833.206	0.0159001
833.284	0.0156367
833.362	0.0158126
833.440	0.0159272
833.518	0.0158813
833.596	0.0158068
833.674	0.0156904
833.753	0.0158145
833.831	0.0158488
833.909	0.0158765
833.987	0.0159576
834.065	0.0158318
834.143	0.0158999
834.221	0.0158582
834.299	0.0158279
834.378	0.0158000
834.456	0.0157998
834.534	0.0158444
834.612	0.0158294
834.690	0.0158638
834.768	0.0158165
834.846	0.0157436
834.924	0.0156944
835.003	0.0156743
835.081	0.0157861
835.159	0.0157034
835.237	0.0156162
835.315	0.0157832
835.393	0.0156844
835.471	0.0156722
835.549	0.0157510
835.628	0.0155988
835.706	0.0156988
835.784	0.0157516
835.862	0.0157265
835.940	0.0158627
836.018	0.0159453
836.096	0.0157835
836.174	0.0159562
836.253	0.0156927
836.331	0.0159454
836.409	0.0158764
836.487	0.0162244
836.565	0.0160109
836.643	0.0160462
836.721	0.0159630
836.799	0.0159534
836.878	0.0160548
836.956	0.0159282
837.034	0.0161021
837.112	0.0161181
837.190	0.0160905
837.268	0.0159649
837.346	0.0160295
837.424	0.0160496
837.503	0.0160667
837.581	0.0159941
837.659	0.0159662
837.737	0.0159875
837.815	0.0160113
837.893	0.0161765
837.971	0.0161053
838.049	0.0160442
838.128	0.0161623
838.206	0.0161471
838.284	0.0160638
838.362	0.0160580
838.440	0.0160349
838.518	0.0160142
838.596	0.0161047
838.674	0.0160886
838.753	0.0160136
838.831	0.0159531
838.909	0.0159027
838.987	0.0160000
839.065	0.0160110
839.143	0.0159618
839.221	0.0159768
839.299	0.0159200
839.378	0.0157446
839.456	0.0159389
839.534	0.0159389
839.612	0.0158184
839.690	0.0156461
839.768	0.0158862
839.846	0.0157938
839.924	0.0157946
840.003	0.0158270
840.081	0.0156879
840.159	0.0157409
840.237	0.0156481
840.315	0.0157572
840.393	0.0159986
840.471	0.0158535
840.549	0.0156593
840.628	0.0159024
840.706	0.0158737
840.784	0.0158913
840.862	0.0159731
840.940	0.0159316
841.018	0.0159126
841.096	0.0158344
841.174	0.0160206
841.253	0.0159569
841.331	0.0159681
841.409	0.0158910
841.487	0.0158904
841.565	0.0160553
841.643	0.0160825
841.721	0.0159598
841.799	0.0160067
841.878	0.0160858
841.956	0.0160725
842.034	0.0159241
842.112	0.0159193
842.190	0.0161177
842.268	0.0160947
842.346	0.0161084
842.424	0.0158723
842.503	0.0160085
842.581	0.0161411
842.659	0.0161362
842.737	0.0159772
842.815	0.0159988
842.893	0.0158649
842.971	0.0157330
843.049	0.0157188
843.128	0.0159089
843.206	0.0157079
843.284	0.0156938
843.362	0.0157313
843.440	0.0157138
843.518	0.0158143
843.596	0.0157689
843.674	0.0157339
843.753	0.0157065
843.831	0.0157652
843.909	0.0157872
843.987	0.0157535
844.065	0.0158009
844.143	0.0156841
844.221	0.0158196
844.299	0.0159494
844.378	0.0159207
844.456	0.0157755
844.534	0.0158664
844.612	0.0159882
844.690	0.0157997
844.768	0.0158396
844.846	0.0158880
844.924	0.0157927
845.003	0.0158718
845.081	0.0159966
845.159	0.0158738
845.237	0.0158893
845.315	0.0158291
845.393	0.0158207
845.471	0.0157583
845.549	0.0157113
845.628	0.0157113
845.706	0.0157082
845.784	0.0158041
845.862	0.0156826
845.940	0.0156841
846.018	0.0157060
846.096	0.0157421
846.174	0.0157545
846.253	0.0156104
846.331	0.0156423
846.409	0.0157473
846.487	0.0156607
846.565	0.0156500
846.643	0.0157002
846.721	0.0158608
846.799	0.0159000
846.878	0.0157156
846.956	0.0157874
847.034	0.0157693
847.112	0.0157892
847.190	0.0159629
847.268	0.0159251
847.346	0.0158005
847.424	0.0157092
847.503	0.0157578
847.581	0.0158842
847.659	0.0158543
847.737	0.0158614
847.815	0.0158270
847.893	0.0157191
847.971	0.0156122
848.049	0.0157555
848.128	0.0158144
848.206	0.0157677
848.284	0.0158659
848.362	0.0158439
848.440	0.0156793
848.518	0.0157555
848.596	0.0158244
848.674	0.0157280
848.753	0.0157535
848.831	0.0158382
848.909	0.0156888
848.987	0.0156506
849.065	0.0156160
849.143	0.0158224
849.221	0.0157742
849.299	0.0156005
849.378	0.0156830
849.456	0.0155219
849.534	0.0155761
849.612	0.0156604
849.690	0.0155460
849.768	0.0155950
849.846	0.0156812
849.924	0.0156760
850.003	0.0155016
850.081	0.0155997
850.159	0.0157131
850.237	0.0156104
850.315	0.0156066
850.393	0.0157938
850.471	0.0158077
850.549	0.0156919
850.628	0.0158236
850.706	0.0158331
850.784	0.0157220
850.862	0.0157671
850.940	0.0156188
851.018	0.0158583
851.096	0.0158218
851.174	0.0157804
851.253	0.0156910
851.331	0.0156880
851.409	0.0158447
851.487	0.0157909
851.565	0.0158586
851.643	0.0157938
851.721	0.0158379
851.799	0.0158102
851.878	0.0158347
851.956	0.0159239
852.034	0.0158500
852.112	0.0157893
852.190	0.0156770
852.268	0.0157298
852.346	0.0156049
852.424	0.0155740
852.503	0.0156657
852.581	0.0157684
852.659	0.0157560
852.737	0.0158910
852.815	0.0157038
852.893	0.0158691
852.971	0.0158572
853.049	0.0159167
853.128	0.0159209
853.206	0.0157633
853.284	0.0159820
853.362	0.0158950
853.440	0.0159043
853.518	0.0160304
853.596	0.0161259
853.674	0.0158105
853.753	0.0159103
853.831	0.0160326
853.909	0.0159351
853.987	0.0159789
854.065	0.0158300
854.143	0.0158331
854.221	0.0159463
854.299	0.0159578
854.378	0.0157690
854.456	0.0158033
854.534	0.0158466
854.612	0.0157961
854.690	0.0158764
854.768	0.0156968
854.846	0.0157262
854.924	0.0158195
855.003	0.0159133
855.081	0.0158730
855.159	0.0158646
855.237	0.0159196
855.315	0.0159268
855.393	0.0158442
855.471	0.0158253
855.549	0.0157075
855.628	0.0159857
855.706	0.0159012
855.784	0.0158868
855.862	0.0158157
855.940	0.0159393
856.018	0.0157767
856.096	0.0159538
856.174	0.0159191
856.253	0.0158165
856.331	0.0158870
856.409	0.0158045
856.487	0.0157924
856.565	0.0159481
856.643	0.0159126
856.721	0.0158108
856.799	0.0159514
856.878	0.0159317
856.956	0.0159526
857.034	0.0160231
857.112	0.0159673
857.190	0.0160725
857.268	0.0159859
857.346	0.0159328
857.424	0.0158496
857.503	0.0160264
857.581	0.0160732
857.659	0.0160363
857.737	0.0159976
857.815	0.0159708
857.893	0.0160396
857.971	0.0161678
858.049	0.0160876
858.128	0.0159538
858.206	0.0158939
858.284	0.0161095
858.362	0.0159707
858.440	0.0159953
858.518	0.0160509
858.596	0.0161869
858.674	0.0162097
858.753	0.0159975
858.831	0.0159254
858.909	0.0160711
858.987	0.0159869
859.065	0.0158544
859.143	0.0159987
859.221	0.0158470
859.299	0.0159537
859.378	0.0159554
859.456	0.0159948
859.534	0.0159395
859.612	0.0158852
859.690	0.0159230
859.768	0.0160340
859.846	0.0158665
859.924	0.0158405
860.003	0.0158720
860.081	0.0159319
860.159	0.0157918
860.237	0.0157198
860.315	0.0157324
860.393	0.0157752
860.471	0.0158379
860.549	0.0158772
860.628	0.0158273
860.706	0.0157108
860.784	0.0157375
860.862	0.0157835
860.940	0.0157718
861.018	0.0156944
861.096	0.0157957
861.174	0.0158625
861.253	0.0158015
861.331	0.0157706
861.409	0.0158798
861.487	0.0159836
861.565	0.0158834
861.643	0.0158656
861.721	0.0159432
861.799	0.0158715
861.878	0.0160104
861.956	0.0156928
862.034	0.0159594
862.112	0.0158873
862.190	0.0160730
862.268	0.0159460
862.346	0.0158633
862.424	0.0159689
862.503	0.0160445
862.581	0.0161546
862.659	0.0159315
862.737	0.0159988
862.815	0.0160181
862.893	0.0160322
862.971	0.0160064
863.049	0.0160844
863.128	0.0160920
863.206	0.0160234
863.284	0.0161378
863.362	0.0159796
863.440	0.0161134
863.518	0.0160393
863.596	0.0160899
863.674	0.0161898
863.753	0.0160368
863.831	0.0160654
863.909	0.0161057
863.987	0.0159399
864.065	0.0159377
864.143	0.0161469
864.221	0.0160767
864.299	0.0160708
864.378	0.0160519
864.456	0.0159502
864.534	0.0159861
864.612	0.0161989
864.690	0.0159615
864.768	0.0160766
864.846	0.0160971
864.924	0.0158980
865.003	0.0158652
865.081	0.0159666
865.159	0.0158464
865.237	0.0157813
865.315	0.0158171
865.393	0.0159290
865.471	0.0158009
865.549	0.0157712
865.628	0.0158379
865.706	0.0157872
865.784	0.0157002
865.862	0.0157189
865.940	0.0155731
866.018	0.0156477
866.096	0.0156327
866.174	0.0155586
866.253	0.0156074
866.331	0.0155830
866.409	0.0155688
866.487	0.0156545
866.565	0.0155333
866.643	0.0156792
866.721	0.0156727
866.799	0.0156596
866.878	0.0156142
866.956	0.0156844
867.034	0.0157323
867.112	0.0156435
867.190	0.0158489
867.268	0.0157953
867.346	0.0158594
867.424	0.0157351
867.503	0.0158032
867.581	0.0159383
867.659	0.0159164
867.737	0.0157793
867.815	0.0158351
867.893	0.0156721
867.971	0.0157266
868.049	0.0157465
868.128	0.0157793
868.206	0.0157112
868.284	0.0159034
868.362	0.0158050
868.440	0.0158469
868.518	0.0157842
868.596	0.0157217
868.674	0.0158433
868.753	0.0158886
868.831	0.0157216
868.909	0.0157980
868.987	0.0157529
869.065	0.0157757
869.143	0.0158308
869.221	0.0159068
869.299	0.0158450
869.378	0.0158994
869.456	0.0157342
869.534	0.0158540
869.612	0.0159354
869.690	0.0157780
869.768	0.0158026
869.846	0.0158813
869.924	0.0158246
870.003	0.0159336
870.081	0.0157945
870.159	0.0159241
870.237	0.0157287
870.315	0.0159161
870.393	0.0160265
870.471	0.0158589
870.549	0.0157145
870.628	0.0157458
870.706	0.0158139
870.784	0.0157598
870.862	0.0157458
870.940	0.0157736
871.018	0.0158192
871.096	0.0156843
871.174	0.0158102
871.253	0.0155550
871.331	0.0156705
871.409	0.0155672
871.487	0.0157090
871.565	0.0157843
871.643	0.0156557
871.721	0.0158467
871.799	0.0155405
871.878	0.0155550
871.956	0.0155602
872.034	0.0157114
872.112	0.0156783
872.190	0.0156634
872.268	0.0156730
872.346	0.0155428
872.424	0.0157521
872.503	0.0155711
872.581	0.0156209
872.659	0.0156512
872.737	0.0156430
872.815	0.0156329
872.893	0.0156803
872.971	0.0157761
873.049	0.0155727
873.128	0.0156372
873.206	0.0156270
873.284	0.0155711
873.362	0.0156433
873.440	0.0156458
873.518	0.0156799
873.596	0.0157835
873.674	0.0158121
873.753	0.0156912
873.831	0.0157394
873.909	0.0157838
873.987	0.0158727
874.065	0.0159161
874.143	0.0157846
874.221	0.0158317
874.299	0.0156576
874.378	0.0157903
874.456	0.0157391
874.534	0.0158442
874.612	0.0158778
874.690	0.0158270
874.768	0.0158095
874.846	0.0157076
874.924	0.0157888
875.003	0.0157475
875.081	0.0158137
875.159	0.0158691
875.237	0.0158562
875.315	0.0158340
875.393	0.0158067
875.471	0.0157983
875.549	0.0159297
875.628	0.0158483
875.706	0.0158829
875.784	0.0157442
875.862	0.0159357
875.940	0.0158711
876.018	0.0158092
876.096	0.0158194
876.174	0.0159022
876.253	0.0158987
876.331	0.0158906
876.409	0.0159770
876.487	0.0160776
876.565	0.0159118
876.643	0.0159004
876.721	0.0159754
876.799	0.0158564
876.878	0.0158427
876.956	0.0160049
877.034	0.0159470
877.112	0.0160999
877.190	0.0159206
877.268	0.0160466
877.346	0.0160020
877.424	0.0160313
877.503	0.0159451
877.581	0.0159573
877.659	0.0161831
877.737	0.0161442
877.815	0.0160628
877.893	0.0159943
877.971	0.0159782
878.049	0.0160023
878.128	0.0160266
878.206	0.0160148
878.284	0.0159815
878.362	0.0159071
878.440	0.0158825
878.518	0.0159723
878.596	0.0160117
878.674	0.0159972
878.753	0.0160194
878.831	0.0159943
878.909	0.0159575
878.987	0.0159891
879.065	0.0160790
879.143	0.0160363
879.221	0.0159049
879.299	0.0161185
879.378	0.0159100
879.456	0.0160107
879.534	0.0159957
879.612	0.0159317
879.690	0.0160791
879.768	0.0161533
879.846	0.0161851
879.924	0.0161335
880.003	0.0160423
880.081	0.0160959
880.159	0.0160551
880.237	0.0159905
880.315	0.0160807
880.393	0.0159487
880.471	0.0162057
880.549	0.0160214
880.628	0.0160799
880.706	0.0161407
880.784	0.0160734
880.862	0.0160759
880.940	0.0160738
881.018	0.0160322
881.096	0.0160119
881.174	0.0161192
881.253	0.0159869
881.331	0.0160797
881.409	0.0160118
881.487	0.0161078
881.565	0.0161073
881.643	0.0160104
881.721	0.0159098
881.799	0.0160538
881.878	0.0159706
881.956	0.0160678
882.034	0.0161343
882.112	0.0159509
882.190	0.0158133
882.268	0.0159378
882.346	0.0160020
882.424	0.0160678
882.503	0.0160326
882.581	0.0160640
882.659	0.0161094
882.737	0.0159586
882.815	0.0159997
882.893	0.0161612
882.971	0.0161184
883.049	0.0160501
883.128	0.0160823
883.206	0.0161150
883.284	0.0161282
883.362	0.0159841
883.440	0.0160761
883.518	0.0160327
883.596	0.0159819
883.674	0.0160646
883.753	0.0158696
883.831	0.0160457
883.909	0.0161012
883.987	0.0159597
884.065	0.0159317
884.143	0.0159933
884.221	0.0159448
884.299	0.0161807
884.378	0.0159782
884.456	0.0159728
884.534	0.0159660
884.612	0.0158408
884.690	0.0159163
884.768	0.0158498
884.846	0.0158363
884.924	0.0158161
885.003	0.0158899
885.081	0.0159095
885.159	0.0158611
885.237	0.0158089
885.315	0.0158833
885.393	0.0159434
885.471	0.0159494
885.549	0.0157895
885.628	0.0159863
885.706	0.0158777
885.784	0.0158453
885.862	0.0160030
885.940	0.0159447
886.018	0.0158971
886.096	0.0158907
886.174	0.0158170
886.253	0.0159381
886.331	0.0158879
886.409	0.0159440
886.487	0.0160918
886.565	0.0158605
886.643	0.0160555
886.721	0.0160012
886.799	0.0159389
886.878	0.0159885
886.956	0.0160863
887.034	0.0160312
887.112	0.0159834
887.190	0.0160256
887.268	0.0160218
887.346	0.0160957
887.424	0.0160382
887.503	0.0160193
887.581	0.0159834
887.659	0.0157640
887.737	0.0159595
887.815	0.0159796
887.893	0.0159812
887.971	0.0158681
888.049	0.0159483
888.128	0.0159016
888.206	0.0160447
888.284	0.0159668
888.362	0.0159345
888.440	0.0159907
888.518	0.0158982
888.596	0.0160846
888.674	0.0159904
888.753	0.0157816
888.831	0.0161925
888.909	0.0159258
888.987	0.0161229
889.065	0.0161549
889.143	0.0161667
889.221	0.0159271
889.299	0.0159543
889.378	0.0160291
889.456	0.0161958
889.534	0.0160316
889.612	0.0160886
889.690	0.0161522
889.768	0.0160567
889.846	0.0160905
889.924	0.0159934
890.003	0.0159731
890.081	0.0160921
890.159	0.0158916
890.237	0.0158744
890.315	0.0159470
890.393	0.0159219
890.471	0.0158199
890.549	0.0156960
890.628	0.0157331
890.706	0.0157738
890.784	0.0157066
890.862	0.0158139
890.940	0.0157010
891.018	0.0156917
891.096	0.0156468
891.174	0.0156403
891.253	0.0155800
891.331	0.0156934
891.409	0.0156092
891.487	0.0155834
891.565	0.0155924
891.643	0.0155862
891.721	0.0156964
891.799	0.0156213
891.878	0.0155322
891.956	0.0157096
892.034	0.0155880
892.112	0.0156464
892.190	0.0154892
892.268	0.0154839
892.346	0.0154793
892.424	0.0153323
892.503	0.0154508
892.581	0.0156580
892.659	0.0157072
892.737	0.0154214
892.815	0.0154926
892.893	0.0154581
892.971	0.0155595
893.049	0.0154423
893.128	0.0155180
893.206	0.0155508
893.284	0.0154788
893.362	0.0155428
893.440	0.0155594
893.518	0.0155030
893.596	0.0155760
893.674	0.0155000
893.753	0.0156048
893.831	0.0156279
893.909	0.0155341
893.987	0.0155388
894.065	0.0156825
894.143	0.0156982
894.221	0.0155637
894.299	0.0156657
894.378	0.0156198
894.456	0.0157520
894.534	0.0156458
894.612	0.0157576
894.690	0.0156528
894.768	0.0154917
894.846	0.0156680
894.924	0.0156696
895.003	0.0156941
895.081	0.0156767
895.159	0.0156477
895.237	0.0156081
895.315	0.0155859
895.393	0.0155370
895.471	0.0155081
895.549	0.0157014
895.628	0.0156973
895.706	0.0156274
895.784	0.0157095
895.862	0.0156773
895.940	0.0156064
896.018	0.0155569
896.096	0.0155916
896.174	0.0156553
896.253	0.0156821
896.331	0.0156166
896.409	0.0157220
896.487	0.0156863
896.565	0.0156834
896.643	0.0157294
896.721	0.0157066
896.799	0.0156618
896.878	0.0156235
896.956	0.0158318
897.034	0.0157457
897.112	0.0158335
897.190	0.0158395
897.268	0.0157587
897.346	0.0157932
897.424	0.0158107
897.503	0.0158189
897.581	0.0158517
897.659	0.0158708
897.737	0.0159460
897.815	0.0159634
897.893	0.0158606
897.971	0.0158198
898.049	0.0159637
898.128	0.0159772
898.206	0.0159013
898.284	0.0159216
898.362	0.0158519
898.440	0.0159755
898.518	0.0159800
898.596	0.0159034
898.674	0.0159527
898.753	0.0159499
898.831	0.0160467
898.909	0.0158271
898.987	0.0158741
899.065	0.0160560
899.143	0.0159303
899.221	0.0160059
899.299	0.0161076
899.378	0.0160819
899.456	0.0161851
899.534	0.0160446
899.612	0.0162050
899.690	0.0161766
899.768	0.0162144
899.846	0.0161065
899.924	0.0161184
900.003	0.0162680
900.081	0.0162754
900.159	0.0162083
900.237	0.0162720
900.315	0.0160918
900.393	0.0162809
900.471	0.0161859
900.549	0.0160475
900.628	0.0162007
900.706	0.0160776
900.784	0.0161129
900.862	0.0161927
900.940	0.0161752
901.018	0.0160250
901.096	0.0159658
901.174	0.0161284
901.253	0.0160102
901.331	0.0160923
901.409	0.0161279
901.487	0.0161512
901.565	0.0160820
901.643	0.0161234
901.721	0.0160789
901.799	0.0160115
901.878	0.0159356
901.956	0.0160886
902.034	0.0159127
902.112	0.0160238
902.190	0.0159664
902.268	0.0159592
902.346	0.0159271
902.424	0.0159381
902.503	0.0158347
902.581	0.0160131
902.659	0.0158944
902.737	0.0159097
902.815	0.0158887
902.893	0.0159013
902.971	0.0159218
903.049	0.0159750
903.128	0.0160583
903.206	0.0159202
903.284	0.0159969
903.362	0.0161233
903.440	0.0159324
903.518	0.0159481
903.596	0.0159895
903.674	0.0161253
903.753	0.0159133
903.831	0.0160651
903.909	0.0160461
903.987	0.0158366
904.065	0.0160503
904.143	0.0159708
904.221	0.0159937
904.299	0.0159666
904.378	0.0159300
904.456	0.0159428
904.534	0.0159444
904.612	0.0159758
904.690	0.0160430
904.768	0.0159518
904.846	0.0158119
904.924	0.0158001
905.003	0.0159264
905.081	0.0159005
905.159	0.0158966
905.237	0.0159028
905.315	0.0160172
905.393	0.0159389
905.471	0.0158965
905.549	0.0159806
905.628	0.0159721
905.706	0.0159348
905.784	0.0159532
905.862	0.0159148
905.940	0.0158780
906.018	0.0159708
906.096	0.0160255
906.174	0.0158292
906.253	0.0159464
906.331	0.0160280
906.409	0.0160023
906.487	0.0158969
906.565	0.0159071
906.643	0.0159281
906.721	0.0160147
906.799	0.0160081
906.878	0.0159206
906.956	0.0160457
907.034	0.0161512
907.112	0.0159586
907.190	0.0160583
907.268	0.0160251
907.346	0.0159315
907.424	0.0160443
907.503	0.0159210
907.581	0.0159201
907.659	0.0160281
907.737	0.0160850
907.815	0.0161771
907.893	0.0160013
907.971	0.0160056
908.049	0.0161429
908.128	0.0160025
908.206	0.0161063
908.284	0.0160227
908.362	0.0160107
908.440	0.0161928
908.518	0.0162116
908.596	0.0160918
908.674	0.0162090
908.753	0.0161996
908.831	0.0160119
908.909	0.0160883
908.987	0.0160965
909.065	0.0162421
909.143	0.0162634
909.221	0.0161246
909.299	0.0161951
909.378	0.0161657
909.456	0.0160166
909.534	0.0161907
909.612	0.0162062
909.690	0.0161777
909.768	0.0161948
909.846	0.0161115
909.924	0.0162073
910.003	0.0161844
910.081	0.0162343
910.159	0.0161571
910.237	0.0161307
910.315	0.0160548
910.393	0.0162216
910.471	0.0162779
910.549	0.0161140
910.628	0.0160840
910.706	0.0160619
910.784	0.0161758
910.862	0.0161539
910.940	0.0161948
911.018	0.0159707
911.096	0.0160767
911.174	0.0161594
911.253	0.0161449
911.331	0.0159539
911.409	0.0158752
911.487	0.0158262
911.565	0.0161263
911.643	0.0159851
911.721	0.0159290
911.799	0.0158274
911.878	0.0157645
911.956	0.0158741
912.034	0.0158598
912.112	0.0160033
912.190	0.0159602
912.268	0.0158047
912.346	0.0156441
912.424	0.0158935
912.503	0.0158083
912.581	0.0156948
912.659	0.0158982
912.737	0.0157046
912.815	0.0157425
912.893	0.0157950
912.971	0.0157357
913.049	0.0157101
913.128	0.0157420
913.206	0.0157951
913.284	0.0157770
913.362	0.0156427
913.440	0.0156006
913.518	0.0157304
913.596	0.0155985
913.674	0.0157065
913.753	0.0156692
913.831	0.0156581
913.909	0.0155606
913.987	0.0155802
914.065	0.0156854
914.143	0.0156574
914.221	0.0155547
914.299	0.0154646
914.378	0.0154535
914.456	0.0155395
914.534	0.0154821
914.612	0.0154414
914.690	0.0154329
914.768	0.0154726
914.846	0.0154997
914.924	0.0154806
915.003	0.0154595
915.081	0.0154165
915.159	0.0153703
915.237	0.0154926
915.315	0.0154671
915.393	0.0155387
915.471	0.0153985
915.549	0.0154166
915.628	0.0154263
915.706	0.0154167
915.784	0.0154482
915.862	0.0155046
915.940	0.0155064
916.018	0.0156292
916.096	0.0155988
916.174	0.0155790
916.253	0.0155913
916.331	0.0157343
916.409	0.0156032
916.487	0.0154572
916.565	0.0157050
916.643	0.0156439
916.721	0.0156463
916.799	0.0157076
916.878	0.0155604
916.956	0.0154508
917.034	0.0156670
917.112	0.0156744
917.190	0.0156738
917.268	0.0157154
917.346	0.0157962
917.424	0.0158236
917.503	0.0156996
917.581	0.0156991
917.659	0.0156344
917.737	0.0155582
917.815	0.0156364
917.893	0.0156317
917.971	0.0156912
918.049	0.0157326
918.128	0.0157452
918.206	0.0158108
918.284	0.0158743
918.362	0.0156567
918.440	0.0156841
918.518	0.0156358
918.596	0.0158427
918.674	0.0156653
918.753	0.0156952
918.831	0.0157060
918.909	0.0157132
918.987	0.0157473
919.065	0.0157690
919.143	0.0159016
919.221	0.0156786
919.299	0.0157093
919.378	0.0157826
919.456	0.0158128
919.534	0.0157688
919.612	0.0156804
919.690	0.0158459
919.768	0.0159341
919.846	0.0159554
919.924	0.0160258
920.003	0.0160429
920.081	0.0159317
920.159	0.0159173
920.237	0.0160730
920.315	0.0161010
920.393	0.0159560
920.471	0.0158600
920.549	0.0161095
920.628	0.0160418
920.706	0.0160892
920.784	0.0160909
920.862	0.0160594
920.940	0.0161160
921.018	0.0161439
921.096	0.0159465
921.174	0.0160632
921.253	0.0161111
921.331	0.0159789
921.409	0.0159908
921.487	0.0161900
921.565	0.0159300
921.643	0.0158868
921.721	0.0160743
921.799	0.0158942
921.878	0.0158614
921.956	0.0160274
922.034	0.0159585
922.112	0.0159700
922.190	0.0159776
922.268	0.0159274
922.346	0.0156952
922.424	0.0158495
922.503	0.0158476
922.581	0.0158125
922.659	0.0158512
922.737	0.0159409
922.815	0.0158759
922.893	0.0157233
922.971	0.0158337
923.049	0.0159037
923.128	0.0159052
923.206	0.0158910
923.284	0.0159512
923.362	0.0159556
923.440	0.0158285
923.518	0.0158573
923.596	0.0160040
923.674	0.0160235
923.753	0.0159721
923.831	0.0161140
923.909	0.0160319
923.987	0.0160365
924.065	0.0161067
924.143	0.0159327
924.221	0.0159889
924.299	0.0161011
924.378	0.0160819
924.456	0.0160669
924.534	0.0160271
924.612	0.0161054
924.690	0.0160087
924.768	0.0159642
924.846	0.0159107
924.924	0.0159967
925.003	0.0160598
925.081	0.0161519
925.159	0.0160995
925.237	0.0158730
925.315	0.0158554
925.393	0.0159260
925.471	0.0158773
925.549	0.0159055
925.628	0.0158488
925.706	0.0158431
925.784	0.0157748
925.862	0.0158424
925.940	0.0157404
926.018	0.0159003
926.096	0.0160043
926.174	0.0156525
926.253	0.0157257
926.331	0.0157584
926.409	0.0157910
926.487	0.0158481
926.565	0.0157455
926.643	0.0159802
926.721	0.0158585
926.799	0.0157320
926.878	0.0158092
926.956	0.0158770
927.034	0.0157558
927.112	0.0159734
927.190	0.0159251
927.268	0.0158686
927.346	0.0159057
927.424	0.0158429
927.503	0.0160548
927.581	0.0159357
927.659	0.0160309
927.737	0.0159258
927.815	0.0160183
927.893	0.0159501
927.971	0.0160176
928.049	0.0159018
928.128	0.0159164
928.206	0.0160612
928.284	0.0160226
928.362	0.0159373
928.440	0.0160767
928.518	0.0160857
928.596	0.0159497
928.674	0.0159490
928.753	0.0159143
928.831	0.0158908
928.909	0.0159460
928.987	0.0160059
929.065	0.0160704
929.143	0.0160278
929.221	0.0158154
929.299	0.0160460
929.378	0.0159337
929.456	0.0158295
929.534	0.0158829
929.612	0.0158886
929.690	0.0157640
929.768	0.0158878
929.846	0.0158274
929.924	0.0159219
930.003	0.0158733
930.081	0.0159307
930.159	0.0158064
930.237	0.0157542
930.315	0.0158944
930.393	0.0159103
930.471	0.0158192
930.549	0.0159402
930.628	0.0158952
930.706	0.0156889
930.784	0.0158684
930.862	0.0158912
930.940	0.0159101
931.018	0.0159364
931.096	0.0158799
931.174	0.0158425
931.253	0.0159097
931.331	0.0158780
931.409	0.0158918
931.487	0.0157330
931.565	0.0158368
931.643	0.0158672
931.721	0.0159396
931.799	0.0159812
931.878	0.0158521
931.956	0.0157880
932.034	0.0157317
932.112	0.0157520
932.190	0.0158073
932.268	0.0158582
932.346	0.0158436
932.424	0.0157991
932.503	0.0158168
932.581	0.0158942
932.659	0.0158477
932.737	0.0158299
932.815	0.0158369
932.893	0.0158505
932.971	0.0158935
933.049	0.0158508
933.128	0.0158086
933.206	0.0158956
933.284	0.0157391
933.362	0.0158846
933.440	0.0159456
933.518	0.0157886
933.596	0.0158068
933.674	0.0157877
933.753	0.0158129
933.831	0.0158133
933.909	0.0158971
933.987	0.0159607
934.065	0.0158020
934.143	0.0157804
934.221	0.0156657
934.299	0.0157155
934.378	0.0158531
934.456	0.0157941
934.534	0.0156731
934.612	0.0158392
934.690	0.0158331
934.768	0.0157996
934.846	0.0158028
934.924	0.0157458
935.003	0.0157044
935.081	0.0157525
935.159	0.0157117
935.237	0.0157751
935.315	0.0156369
935.393	0.0156967
935.471	0.0155965
935.549	0.0157243
935.628	0.0156786
935.706	0.0156244
935.784	0.0156915
935.862	0.0156394
935.940	0.0156673
936.018	0.0155567
936.096	0.0155981
936.174	0.0156676
936.253	0.0156842
936.331	0.0155281
936.409	0.0154420
936.487	0.0154646
936.565	0.0155552
936.643	0.0155119
936.721	0.0155046
936.799	0.0156614
936.878	0.0155761
936.956	0.0154091
937.034	0.0154960
937.112	0.0154531
937.190	0.0154135
937.268	0.0154686
937.346	0.0154436
937.424	0.0154839
937.503	0.0155097
937.581	0.0154821
937.659	0.0155682
937.737	0.0154304
937.815	0.0155340
937.893	0.0155602
937.971	0.0155124
938.049	0.0155341
938.128	0.0156668
938.206	0.0154716
938.284	0.0155441
938.362	0.0156909
938.440	0.0155840
938.518	0.0156459
938.596	0.0155882
938.674	0.0156646
938.753	0.0156154
938.831	0.0155607
938.909	0.0156521
938.987	0.0157001
939.065	0.0156479
939.143	0.0156200
939.221	0.0156738
939.299	0.0155981
939.378	0.0155830
939.456	0.0156633
939.534	0.0155938
939.612	0.0157076
939.690	0.0156168
939.768	0.0156821
939.846	0.0155634
939.924	0.0156214
940.003	0.0157105
940.081	0.0156720
940.159	0.0157224
940.237	0.0156596
940.315	0.0156920
940.393	0.0158537
940.471	0.0158734
940.549	0.0157893
940.628	0.0155444
940.706	0.0157547
940.784	0.0159447
940.862	0.0157993
940.940	0.0156506
941.018	0.0157720
941.096	0.0156482
941.174	0.0157795
941.253	0.0158875
941.331	0.0157465
941.409	0.0157748
941.487	0.0158349
941.565	0.0157967
941.643	0.0157704
941.721	0.0160364
941.799	0.0157927
941.878	0.0157713
941.956	0.0157468
942.034	0.0157940
942.112	0.0159678
942.190	0.0158914
942.268	0.0159235
942.346	0.0160312
942.424	0.0158942
942.503	0.0159985
942.581	0.0160151
942.659	0.0159445
942.737	0.0158626
942.815	0.0158985
942.893	0.0158708
942.971	0.0159348
943.049	0.0158797
943.128	0.0159328
943.206	0.0157806
943.284	0.0157526
943.362	0.0158265
943.440	0.0159509
943.518	0.0159303
943.596	0.0158661
943.674	0.0159483
943.753	0.0159206
943.831	0.0158790
943.909	0.0158292
943.987	0.0159334
944.065	0.0159404
944.143	0.0159095
944.221	0.0159245
944.299	0.0160484
944.378	0.0159331
944.456	0.0159218
944.534	0.0160246
944.612	0.0160254
944.690	0.0159364
944.768	0.0159094
944.846	0.0160487
944.924	0.0159788
945.003	0.0159232
945.081	0.0159923
945.159	0.0159367
945.237	0.0160300
945.315	0.0159727
945.393	0.0159153
945.471	0.0160950
945.549	0.0161302
945.628	0.0159187
945.706	0.0159387
945.784	0.0159853
945.862	0.0157988
945.940	0.0159135
946.018	0.0159985
946.096	0.0159117
946.174	0.0159606
946.253	0.0156847
946.331	0.0158380
946.409	0.0159570
946.487	0.0156929
946.565	0.0158125
946.643	0.0157010
946.721	0.0158077
946.799	0.0158883
946.878	0.0158901
946.956	0.0156609
947.034	0.0157846
947.112	0.0157984
947.190	0.0159441
947.268	0.0158381
947.346	0.0158265
947.424	0.0158270
947.503	0.0159088
947.581	0.0157716
947.659	0.0157485
947.737	0.0159381
947.815	0.0159808
947.893	0.0158469
947.971	0.0159792
948.049	0.0159713
948.128	0.0160204
948.206	0.0160842
948.284	0.0160064
948.362	0.0160422
948.440	0.0161534
948.518	0.0160312
948.596	0.0160582
948.674	0.0161095
948.753	0.0161629
948.831	0.0162823
948.909	0.0162213
948.987	0.0161919
949.065	0.0161655
949.143	0.0160963
949.221	0.0160724
949.299	0.0162186
949.378	0.0161645
949.456	0.0161665
949.534	0.0159319
949.612	0.0160392
949.690	0.0161174
949.768	0.0161206
949.846	0.0160836
949.924	0.0158634
