06/29/2022	23:21:16	Ver.	4.1	UNKNOWN
Optical Delay	630.002507	Delta X		0.078125	Sweeps	1	Scan Rate	0/0
Coordinates	Axis 1	NaN	Axis 2	NaN	Axis 3	NaN	Axis 4	NaN	Axis 5	NaN	Axis 6	0.000000
TX Power	0.000000	RX Power	0.000000

630.003	0.0157125
630.081	0.0155776
630.159	0.0157835
630.237	0.0156060
630.315	0.0156159
630.393	0.0157244
630.471	0.0155777
630.549	0.0155157
630.628	0.0157011
630.706	0.0156171
630.784	0.0156993
630.862	0.0157039
630.940	0.0156593
631.018	0.0156609
631.096	0.0155932
631.174	0.0155267
631.253	0.0156976
631.331	0.0156977
631.409	0.0157334
631.487	0.0157064
631.565	0.0156572
631.643	0.0155975
631.721	0.0155625
631.799	0.0155333
631.878	0.0155729
631.956	0.0155212
632.034	0.0156080
632.112	0.0156535
632.190	0.0155678
632.268	0.0156026
632.346	0.0154955
632.424	0.0156281
632.503	0.0156269
632.581	0.0156870
632.659	0.0155858
632.737	0.0156297
632.815	0.0157487
632.893	0.0156924
632.971	0.0156535
633.049	0.0157038
633.128	0.0157394
633.206	0.0157910
633.284	0.0158566
633.362	0.0158231
633.440	0.0157210
633.518	0.0158018
633.596	0.0158177
633.674	0.0157939
633.753	0.0158943
633.831	0.0157648
633.909	0.0157142
633.987	0.0159049
634.065	0.0158689
634.143	0.0157529
634.221	0.0159140
634.299	0.0157066
634.378	0.0158360
634.456	0.0158321
634.534	0.0158745
634.612	0.0157504
634.690	0.0158813
634.768	0.0156362
634.846	0.0156679
634.924	0.0157890
635.003	0.0158099
635.081	0.0157542
635.159	0.0158266
635.237	0.0157730
635.315	0.0158746
635.393	0.0158469
635.471	0.0157542
635.549	0.0158637
635.628	0.0158769
635.706	0.0159572
635.784	0.0159308
635.862	0.0159264
635.940	0.0158514
636.018	0.0158097
636.096	0.0159171
636.174	0.0159990
636.253	0.0159438
636.331	0.0159031
636.409	0.0159550
636.487	0.0159115
636.565	0.0158045
636.643	0.0159015
636.721	0.0158610
636.799	0.0160004
636.878	0.0159968
636.956	0.0157888
637.034	0.0158039
637.112	0.0158979
637.190	0.0159882
637.268	0.0158232
637.346	0.0158504
637.424	0.0159210
637.503	0.0157876
637.581	0.0158858
637.659	0.0158771
637.737	0.0159363
637.815	0.0159496
637.893	0.0158950
637.971	0.0159296
638.049	0.0158778
638.128	0.0159069
638.206	0.0157124
638.284	0.0158464
638.362	0.0158829
638.440	0.0159125
638.518	0.0157729
638.596	0.0158624
638.674	0.0159270
638.753	0.0160436
638.831	0.0159086
638.909	0.0158836
638.987	0.0159691
639.065	0.0158733
639.143	0.0158739
639.221	0.0157966
639.299	0.0159293
639.378	0.0160032
639.456	0.0159864
639.534	0.0160253
639.612	0.0160054
639.690	0.0159418
639.768	0.0161239
639.846	0.0159505
639.924	0.0159548
640.003	0.0158106
640.081	0.0159007
640.159	0.0157553
640.237	0.0158527
640.315	0.0157312
640.393	0.0156574
640.471	0.0158109
640.549	0.0157140
640.628	0.0157779
640.706	0.0158552
640.784	0.0158869
640.862	0.0156859
640.940	0.0157552
641.018	0.0157659
641.096	0.0157785
641.174	0.0156760
641.253	0.0157677
641.331	0.0158076
641.409	0.0156787
641.487	0.0157770
641.565	0.0156516
641.643	0.0156091
641.721	0.0157301
641.799	0.0156332
641.878	0.0156015
641.956	0.0155343
642.034	0.0158303
642.112	0.0157534
642.190	0.0157056
642.268	0.0157674
642.346	0.0157634
642.424	0.0156798
642.503	0.0157848
642.581	0.0158205
642.659	0.0157104
642.737	0.0157388
642.815	0.0157360
642.893	0.0157471
642.971	0.0156425
643.049	0.0158260
643.128	0.0156790
643.206	0.0158002
643.284	0.0156699
643.362	0.0156995
643.440	0.0158068
643.518	0.0157567
643.596	0.0157118
643.674	0.0158104
643.753	0.0156516
643.831	0.0156419
643.909	0.0157318
643.987	0.0157046
644.065	0.0156854
644.143	0.0156864
644.221	0.0156254
644.299	0.0157014
644.378	0.0156973
644.456	0.0157778
644.534	0.0156966
644.612	0.0156136
644.690	0.0158418
644.768	0.0156647
644.846	0.0156401
644.924	0.0158739
645.003	0.0157130
645.081	0.0156197
645.159	0.0157813
645.237	0.0157814
645.315	0.0156736
645.393	0.0155352
645.471	0.0157760
645.549	0.0158995
645.628	0.0157623
645.706	0.0157894
645.784	0.0158371
645.862	0.0158220
645.940	0.0158327
646.018	0.0158435
646.096	0.0158546
646.174	0.0158697
646.253	0.0158362
646.331	0.0158289
646.409	0.0160342
646.487	0.0157831
646.565	0.0158747
646.643	0.0158256
646.721	0.0158438
646.799	0.0157928
646.878	0.0158563
646.956	0.0158292
647.034	0.0158476
647.112	0.0159075
647.190	0.0159334
647.268	0.0158765
647.346	0.0159035
647.424	0.0158186
647.503	0.0157731
647.581	0.0158555
647.659	0.0158611
647.737	0.0159077
647.815	0.0158289
647.893	0.0158156
647.971	0.0159298
648.049	0.0159499
648.128	0.0157972
648.206	0.0159417
648.284	0.0159407
648.362	0.0158679
648.440	0.0159135
648.518	0.0159062
648.596	0.0158331
648.674	0.0159032
648.753	0.0159544
648.831	0.0158366
648.909	0.0158585
648.987	0.0156616
649.065	0.0157307
649.143	0.0158812
649.221	0.0157552
649.299	0.0158612
649.378	0.0158476
649.456	0.0156921
649.534	0.0157883
649.612	0.0158539
649.690	0.0157233
649.768	0.0158261
649.846	0.0157357
649.924	0.0157133
650.003	0.0156626
650.081	0.0155816
650.159	0.0157054
650.237	0.0157851
650.315	0.0156938
650.393	0.0156937
650.471	0.0155525
650.549	0.0156859
650.628	0.0157657
650.706	0.0155966
650.784	0.0157121
650.862	0.0156189
650.940	0.0156816
651.018	0.0155139
651.096	0.0157080
651.174	0.0156557
651.253	0.0156027
651.331	0.0156841
651.409	0.0157748
651.487	0.0157407
651.565	0.0155739
651.643	0.0156597
651.721	0.0157103
651.799	0.0156660
651.878	0.0155299
651.956	0.0156971
652.034	0.0156663
652.112	0.0156577
652.190	0.0156087
652.268	0.0155659
652.346	0.0156599
652.424	0.0156564
652.503	0.0157189
652.581	0.0156789
652.659	0.0154700
652.737	0.0155925
652.815	0.0154583
652.893	0.0155787
652.971	0.0154374
653.049	0.0155597
653.128	0.0154536
653.206	0.0155270
653.284	0.0154613
653.362	0.0155470
653.440	0.0156239
653.518	0.0156551
653.596	0.0155191
653.674	0.0155833
653.753	0.0155149
653.831	0.0154881
653.909	0.0154532
653.987	0.0155586
654.065	0.0155675
654.143	0.0155148
654.221	0.0155548
654.299	0.0155058
654.378	0.0154890
654.456	0.0154610
654.534	0.0153894
654.612	0.0154252
654.690	0.0155114
654.768	0.0154762
654.846	0.0155872
654.924	0.0155950
655.003	0.0154892
655.081	0.0154977
655.159	0.0155006
655.237	0.0155926
655.315	0.0155724
655.393	0.0156814
655.471	0.0155981
655.549	0.0156013
655.628	0.0156201
655.706	0.0156357
655.784	0.0154933
655.862	0.0154997
655.940	0.0156210
656.018	0.0156673
656.096	0.0155899
656.174	0.0156509
656.253	0.0156690
656.331	0.0155895
656.409	0.0156346
656.487	0.0155540
656.565	0.0156187
656.643	0.0157903
656.721	0.0157391
656.799	0.0156898
656.878	0.0156386
656.956	0.0157056
657.034	0.0158395
657.112	0.0156230
657.190	0.0156753
657.268	0.0158185
657.346	0.0157069
657.424	0.0157101
657.503	0.0156625
657.581	0.0157301
657.659	0.0156200
657.737	0.0156210
657.815	0.0156832
657.893	0.0157337
657.971	0.0156735
658.049	0.0157937
658.128	0.0157409
658.206	0.0156759
658.284	0.0156931
658.362	0.0156205
658.440	0.0157959
658.518	0.0159242
658.596	0.0158314
658.674	0.0158046
658.753	0.0155527
658.831	0.0157029
658.909	0.0157008
658.987	0.0157444
659.065	0.0157245
659.143	0.0158356
659.221	0.0157507
659.299	0.0156168
659.378	0.0157616
659.456	0.0158180
659.534	0.0158598
659.612	0.0158899
659.690	0.0156216
659.768	0.0157178
659.846	0.0157301
659.924	0.0159086
660.003	0.0158401
660.081	0.0157095
660.159	0.0157669
660.237	0.0158018
660.315	0.0157275
660.393	0.0157495
660.471	0.0155964
660.549	0.0157552
660.628	0.0156988
660.706	0.0156637
660.784	0.0156002
660.862	0.0157305
660.940	0.0157183
661.018	0.0156851
661.096	0.0157359
661.174	0.0156605
661.253	0.0156793
661.331	0.0156594
661.409	0.0157731
661.487	0.0157101
661.565	0.0156637
661.643	0.0156911
661.721	0.0156438
661.799	0.0156047
661.878	0.0157668
661.956	0.0157186
662.034	0.0158411
662.112	0.0157803
662.190	0.0156783
662.268	0.0156039
662.346	0.0157353
662.424	0.0158164
662.503	0.0157043
662.581	0.0158134
662.659	0.0157140
662.737	0.0156324
662.815	0.0156620
662.893	0.0157665
662.971	0.0157099
663.049	0.0155996
663.128	0.0158041
663.206	0.0157767
663.284	0.0157535
663.362	0.0159289
663.440	0.0158567
663.518	0.0158352
663.596	0.0159037
663.674	0.0159475
663.753	0.0157879
663.831	0.0159502
663.909	0.0158332
663.987	0.0157900
664.065	0.0159313
664.143	0.0158715
664.221	0.0159338
664.299	0.0160210
664.378	0.0159412
664.456	0.0158202
664.534	0.0158377
664.612	0.0159459
664.690	0.0159084
664.768	0.0158420
664.846	0.0158459
664.924	0.0159984
665.003	0.0159279
665.081	0.0158245
665.159	0.0159168
665.237	0.0157606
665.315	0.0158630
665.393	0.0159061
665.471	0.0159465
665.549	0.0157534
665.628	0.0158488
665.706	0.0159249
665.784	0.0157883
665.862	0.0159325
665.940	0.0158511
666.018	0.0157077
666.096	0.0158289
666.174	0.0158022
666.253	0.0158080
666.331	0.0158744
666.409	0.0157739
666.487	0.0156727
666.565	0.0158570
666.643	0.0158759
666.721	0.0157709
666.799	0.0157073
666.878	0.0158051
666.956	0.0158008
667.034	0.0158035
667.112	0.0156586
667.190	0.0157205
667.268	0.0157472
667.346	0.0157214
667.424	0.0155785
667.503	0.0158597
667.581	0.0157205
667.659	0.0156496
667.737	0.0156734
667.815	0.0158063
667.893	0.0155939
667.971	0.0157845
668.049	0.0156557
668.128	0.0156817
668.206	0.0158953
668.284	0.0156434
668.362	0.0158018
668.440	0.0158630
668.518	0.0156421
668.596	0.0157219
668.674	0.0156881
668.753	0.0156781
668.831	0.0158292
668.909	0.0156404
668.987	0.0157295
669.065	0.0158089
669.143	0.0155360
669.221	0.0155733
669.299	0.0157020
669.378	0.0157159
669.456	0.0156187
669.534	0.0155260
669.612	0.0157525
669.690	0.0158178
669.768	0.0157429
669.846	0.0156776
669.924	0.0155367
670.003	0.0156299
670.081	0.0157983
670.159	0.0156959
670.237	0.0157266
670.315	0.0156807
670.393	0.0157156
670.471	0.0156985
670.549	0.0157349
670.628	0.0157591
670.706	0.0156004
670.784	0.0157056
670.862	0.0158414
670.940	0.0156664
671.018	0.0156815
671.096	0.0155817
671.174	0.0156403
671.253	0.0156559
671.331	0.0156782
671.409	0.0157558
671.487	0.0156861
671.565	0.0158526
671.643	0.0157632
671.721	0.0155617
671.799	0.0157343
671.878	0.0157287
671.956	0.0156004
672.034	0.0157370
672.112	0.0159296
672.190	0.0156495
672.268	0.0157781
672.346	0.0156713
672.424	0.0157835
672.503	0.0157792
672.581	0.0155994
672.659	0.0157416
672.737	0.0157497
672.815	0.0157085
672.893	0.0156370
672.971	0.0156593
673.049	0.0156601
673.128	0.0155733
673.206	0.0155387
673.284	0.0157819
673.362	0.0156359
673.440	0.0157656
673.518	0.0155575
673.596	0.0158569
673.674	0.0156382
673.753	0.0156264
673.831	0.0156396
673.909	0.0155513
673.987	0.0156658
674.065	0.0155959
674.143	0.0155867
674.221	0.0154981
674.299	0.0155742
674.378	0.0156998
674.456	0.0157259
674.534	0.0156633
674.612	0.0156200
674.690	0.0155540
674.768	0.0156583
674.846	0.0158804
674.924	0.0156658
675.003	0.0156017
675.081	0.0156302
675.159	0.0156952
675.237	0.0155125
675.315	0.0155473
675.393	0.0154752
675.471	0.0156087
675.549	0.0156429
675.628	0.0157578
675.706	0.0154928
675.784	0.0155487
675.862	0.0157300
675.940	0.0156069
676.018	0.0156464
676.096	0.0156727
676.174	0.0157060
676.253	0.0156361
676.331	0.0156653
676.409	0.0155759
676.487	0.0155915
676.565	0.0157795
676.643	0.0156025
676.721	0.0157377
676.799	0.0155828
676.878	0.0156306
676.956	0.0156498
677.034	0.0156405
677.112	0.0158083
677.190	0.0156736
677.268	0.0156189
677.346	0.0155764
677.424	0.0157722
677.503	0.0157074
677.581	0.0157342
677.659	0.0156535
677.737	0.0157412
677.815	0.0158270
677.893	0.0157755
677.971	0.0157351
678.049	0.0157861
678.128	0.0158063
678.206	0.0156052
678.284	0.0156948
678.362	0.0156297
678.440	0.0156473
678.518	0.0157433
678.596	0.0158064
678.674	0.0157565
678.753	0.0157007
678.831	0.0156605
678.909	0.0158812
678.987	0.0157605
679.065	0.0158072
679.143	0.0157684
679.221	0.0156641
679.299	0.0156982
679.378	0.0156013
679.456	0.0157620
679.534	0.0156950
679.612	0.0157507
679.690	0.0157022
679.768	0.0157198
679.846	0.0158321
679.924	0.0158581
680.003	0.0156169
680.081	0.0157862
680.159	0.0156962
680.237	0.0157948
680.315	0.0156219
680.393	0.0155536
680.471	0.0156065
680.549	0.0157031
680.628	0.0157636
680.706	0.0156642
680.784	0.0156023
680.862	0.0157714
680.940	0.0157841
681.018	0.0156921
681.096	0.0156674
681.174	0.0157784
681.253	0.0155450
681.331	0.0156989
681.409	0.0158179
681.487	0.0156919
681.565	0.0156210
681.643	0.0155225
681.721	0.0156754
681.799	0.0157292
681.878	0.0156348
681.956	0.0156375
682.034	0.0156945
682.112	0.0156790
682.190	0.0155540
682.268	0.0156059
682.346	0.0155377
682.424	0.0157896
682.503	0.0156605
682.581	0.0156066
682.659	0.0156602
682.737	0.0154472
682.815	0.0156121
682.893	0.0156857
682.971	0.0156760
683.049	0.0156750
683.128	0.0156088
683.206	0.0156323
683.284	0.0154932
683.362	0.0156158
683.440	0.0155099
683.518	0.0156343
683.596	0.0155053
683.674	0.0157153
683.753	0.0156736
683.831	0.0156717
683.909	0.0155953
683.987	0.0157143
684.065	0.0154406
684.143	0.0157794
684.221	0.0155338
684.299	0.0156564
684.378	0.0157195
684.456	0.0156777
684.534	0.0156857
684.612	0.0155815
684.690	0.0156271
684.768	0.0156660
684.846	0.0155357
684.924	0.0156416
685.003	0.0157193
685.081	0.0157591
685.159	0.0156740
685.237	0.0158815
685.315	0.0157782
685.393	0.0157146
685.471	0.0157938
685.549	0.0157819
685.628	0.0157029
685.706	0.0159110
685.784	0.0159291
685.862	0.0157979
685.940	0.0158127
686.018	0.0159117
686.096	0.0158638
686.174	0.0158799
686.253	0.0159518
686.331	0.0159727
686.409	0.0160095
686.487	0.0158620
686.565	0.0159023
686.643	0.0158783
686.721	0.0159069
686.799	0.0159322
686.878	0.0159643
686.956	0.0159233
687.034	0.0158770
687.112	0.0159217
687.190	0.0159961
687.268	0.0158723
687.346	0.0159999
687.424	0.0160255
687.503	0.0159182
687.581	0.0158807
687.659	0.0159091
687.737	0.0159563
687.815	0.0157463
687.893	0.0160690
687.971	0.0159771
688.049	0.0158353
688.128	0.0158743
688.206	0.0158611
688.284	0.0159553
688.362	0.0158960
688.440	0.0157704
688.518	0.0158680
688.596	0.0159863
688.674	0.0158841
688.753	0.0157406
688.831	0.0157697
688.909	0.0159467
688.987	0.0157230
689.065	0.0157909
689.143	0.0157747
689.221	0.0157628
689.299	0.0158032
689.378	0.0157916
689.456	0.0159076
689.534	0.0158463
689.612	0.0155035
689.690	0.0156511
689.768	0.0157925
689.846	0.0158375
689.924	0.0157934
690.003	0.0157304
690.081	0.0156035
690.159	0.0158027
690.237	0.0158783
690.315	0.0157951
690.393	0.0157549
690.471	0.0157592
690.549	0.0157221
690.628	0.0157201
690.706	0.0157342
690.784	0.0158213
690.862	0.0156333
690.940	0.0157197
691.018	0.0157553
691.096	0.0157327
691.174	0.0157971
691.253	0.0156091
691.331	0.0156886
691.409	0.0155620
691.487	0.0155949
691.565	0.0157187
691.643	0.0155952
691.721	0.0156406
691.799	0.0155927
691.878	0.0154456
691.956	0.0155247
692.034	0.0155000
692.112	0.0155787
692.190	0.0155990
692.268	0.0155273
692.346	0.0155353
692.424	0.0154663
692.503	0.0155267
692.581	0.0154410
692.659	0.0154557
692.737	0.0154547
692.815	0.0155465
692.893	0.0155057
692.971	0.0155099
693.049	0.0155183
693.128	0.0157021
693.206	0.0155589
693.284	0.0156523
693.362	0.0157471
693.440	0.0157475
693.518	0.0156216
693.596	0.0156530
693.674	0.0158540
693.753	0.0158468
693.831	0.0157517
693.909	0.0156628
693.987	0.0157151
694.065	0.0158088
694.143	0.0158007
694.221	0.0158730
694.299	0.0157207
694.378	0.0158858
694.456	0.0158710
694.534	0.0157995
694.612	0.0158241
694.690	0.0158107
694.768	0.0158306
694.846	0.0158776
694.924	0.0158365
695.003	0.0156985
695.081	0.0158677
695.159	0.0158510
695.237	0.0159598
695.315	0.0157178
695.393	0.0158340
695.471	0.0158068
695.549	0.0159208
695.628	0.0160222
695.706	0.0160494
695.784	0.0159663
695.862	0.0160125
695.940	0.0159378
696.018	0.0159441
696.096	0.0159518
696.174	0.0159798
696.253	0.0160696
696.331	0.0160545
696.409	0.0161521
696.487	0.0160822
696.565	0.0159850
696.643	0.0160956
696.721	0.0159890
696.799	0.0159216
696.878	0.0158711
696.956	0.0159549
697.034	0.0158320
697.112	0.0158807
697.190	0.0160150
697.268	0.0159175
697.346	0.0158960
697.424	0.0159420
697.503	0.0158493
697.581	0.0159342
697.659	0.0158491
697.737	0.0159958
697.815	0.0159293
697.893	0.0159966
697.971	0.0159566
698.049	0.0159470
698.128	0.0160164
698.206	0.0159958
698.284	0.0159663
698.362	0.0160957
698.440	0.0159038
698.518	0.0159268
698.596	0.0158821
698.674	0.0159196
698.753	0.0160596
698.831	0.0159650
698.909	0.0158694
698.987	0.0157329
699.065	0.0158355
699.143	0.0160082
699.221	0.0158624
699.299	0.0158064
699.378	0.0157093
699.456	0.0158260
699.534	0.0157948
699.612	0.0158661
699.690	0.0158112
699.768	0.0158001
699.846	0.0158694
699.924	0.0157685
700.003	0.0158361
700.081	0.0158463
700.159	0.0157504
700.237	0.0158959
700.315	0.0158131
700.393	0.0157343
700.471	0.0157550
700.549	0.0158471
700.628	0.0157832
700.706	0.0157346
700.784	0.0158492
700.862	0.0157008
700.940	0.0156970
701.018	0.0157013
701.096	0.0156420
701.174	0.0156902
701.253	0.0158311
701.331	0.0155696
701.409	0.0156107
701.487	0.0156887
701.565	0.0157466
701.643	0.0157415
701.721	0.0157082
701.799	0.0156870
701.878	0.0156125
701.956	0.0156049
702.034	0.0157424
702.112	0.0156953
702.190	0.0156038
702.268	0.0156667
702.346	0.0156600
702.424	0.0157198
702.503	0.0157189
702.581	0.0156116
702.659	0.0156245
702.737	0.0156206
702.815	0.0156451
702.893	0.0156470
702.971	0.0157607
703.049	0.0157028
703.128	0.0155050
703.206	0.0156025
703.284	0.0157025
703.362	0.0157906
703.440	0.0157200
703.518	0.0156794
703.596	0.0158417
703.674	0.0157021
703.753	0.0158828
703.831	0.0157439
703.909	0.0158344
703.987	0.0158439
704.065	0.0158131
704.143	0.0158281
704.221	0.0158588
704.299	0.0159510
704.378	0.0158620
704.456	0.0158138
704.534	0.0158077
704.612	0.0160389
704.690	0.0158501
704.768	0.0158636
704.846	0.0157889
704.924	0.0157472
705.003	0.0156852
705.081	0.0157888
705.159	0.0157695
705.237	0.0158292
705.315	0.0157937
705.393	0.0157364
705.471	0.0157983
705.549	0.0156904
705.628	0.0157201
705.706	0.0158128
705.784	0.0156858
705.862	0.0158451
705.940	0.0157256
706.018	0.0158556
706.096	0.0158433
706.174	0.0158698
706.253	0.0158370
706.331	0.0157837
706.409	0.0158894
706.487	0.0157529
706.565	0.0155833
706.643	0.0157642
706.721	0.0157347
706.799	0.0156635
706.878	0.0155785
706.956	0.0156547
707.034	0.0156190
707.112	0.0155286
707.190	0.0156353
707.268	0.0155187
707.346	0.0154169
707.424	0.0156808
707.503	0.0157146
707.581	0.0156295
707.659	0.0156124
707.737	0.0157700
707.815	0.0157743
707.893	0.0157661
707.971	0.0158629
708.049	0.0157871
708.128	0.0159567
708.206	0.0158978
708.284	0.0158707
708.362	0.0159511
708.440	0.0159724
708.518	0.0159132
708.596	0.0159525
708.674	0.0159632
708.753	0.0158866
708.831	0.0157912
708.909	0.0158676
708.987	0.0158698
709.065	0.0157291
709.143	0.0157887
709.221	0.0157507
709.299	0.0158285
709.378	0.0157020
709.456	0.0156303
709.534	0.0156815
709.612	0.0157248
709.690	0.0156986
709.768	0.0157169
709.846	0.0156917
709.924	0.0156407
710.003	0.0157623
710.081	0.0156487
710.159	0.0155872
710.237	0.0157014
710.315	0.0156815
710.393	0.0156863
710.471	0.0156600
710.549	0.0156110
710.628	0.0155570
710.706	0.0156483
710.784	0.0157270
710.862	0.0155914
710.940	0.0156239
711.018	0.0155114
711.096	0.0156604
711.174	0.0156189
711.253	0.0157784
711.331	0.0156020
711.409	0.0157195
711.487	0.0157254
711.565	0.0158615
711.643	0.0158871
711.721	0.0159826
711.799	0.0159657
711.878	0.0160889
711.956	0.0160817
712.034	0.0160469
712.112	0.0159576
712.190	0.0159755
712.268	0.0160354
712.346	0.0162018
712.424	0.0160640
712.503	0.0160764
712.581	0.0160446
712.659	0.0159287
712.737	0.0160305
712.815	0.0160484
712.893	0.0159533
712.971	0.0158846
713.049	0.0158743
713.128	0.0157606
713.206	0.0158745
713.284	0.0156828
713.362	0.0155995
713.440	0.0156767
713.518	0.0156208
713.596	0.0155657
713.674	0.0155462
713.753	0.0156206
713.831	0.0156671
713.909	0.0156113
713.987	0.0155930
714.065	0.0154591
714.143	0.0154160
714.221	0.0155740
714.299	0.0155271
714.378	0.0155296
714.456	0.0156764
714.534	0.0155056
714.612	0.0155858
714.690	0.0156523
714.768	0.0155965
714.846	0.0156411
714.924	0.0156104
715.003	0.0156230
715.081	0.0155743
715.159	0.0157446
715.237	0.0157333
715.315	0.0157933
715.393	0.0157937
715.471	0.0156729
715.549	0.0158737
715.628	0.0157725
715.706	0.0158623
715.784	0.0159111
715.862	0.0159007
715.940	0.0160452
716.018	0.0158392
716.096	0.0159242
716.174	0.0158875
716.253	0.0158335
716.331	0.0158215
716.409	0.0159679
716.487	0.0159791
716.565	0.0159155
716.643	0.0157563
716.721	0.0158822
716.799	0.0157185
716.878	0.0159249
716.956	0.0158107
717.034	0.0157201
717.112	0.0157338
717.190	0.0155886
717.268	0.0154492
717.346	0.0156371
717.424	0.0156005
717.503	0.0155545
717.581	0.0155714
717.659	0.0155165
717.737	0.0153817
717.815	0.0155376
717.893	0.0156777
717.971	0.0156796
718.049	0.0157345
718.128	0.0157526
718.206	0.0159449
718.284	0.0159426
718.362	0.0160108
718.440	0.0160835
718.518	0.0161020
718.596	0.0160770
718.674	0.0162721
718.753	0.0164276
718.831	0.0164255
718.909	0.0164299
718.987	0.0164165
719.065	0.0165180
719.143	0.0163782
719.221	0.0164532
719.299	0.0163972
719.378	0.0162772
719.456	0.0160503
719.534	0.0159493
719.612	0.0159206
719.690	0.0158712
719.768	0.0157875
719.846	0.0156560
719.924	0.0156394
720.003	0.0155106
720.081	0.0154600
720.159	0.0154118
720.237	0.0154807
720.315	0.0152992
720.393	0.0154110
720.471	0.0152580
720.549	0.0151927
720.628	0.0153138
720.706	0.0153336
720.784	0.0153449
720.862	0.0154666
720.940	0.0155000
721.018	0.0154020
721.096	0.0154855
721.174	0.0155801
721.253	0.0156099
721.331	0.0157273
721.409	0.0156772
721.487	0.0157404
721.565	0.0157860
721.643	0.0158807
721.721	0.0159963
721.799	0.0160220
721.878	0.0159970
721.956	0.0160933
722.034	0.0161649
722.112	0.0161714
722.190	0.0161151
722.268	0.0163734
722.346	0.0162537
722.424	0.0162233
722.503	0.0163547
722.581	0.0163329
722.659	0.0162908
722.737	0.0162690
722.815	0.0162353
722.893	0.0161389
722.971	0.0161124
723.049	0.0160754
723.128	0.0158846
723.206	0.0159264
723.284	0.0158428
723.362	0.0157890
723.440	0.0156391
723.518	0.0155647
723.596	0.0155174
723.674	0.0154696
723.753	0.0153062
723.831	0.0151853
723.909	0.0151087
723.987	0.0150790
724.065	0.0150031
724.143	0.0150385
724.221	0.0150114
724.299	0.0149584
724.378	0.0150385
724.456	0.0150197
724.534	0.0149105
724.612	0.0150529
724.690	0.0150977
724.768	0.0151839
724.846	0.0151158
724.924	0.0152258
725.003	0.0152293
725.081	0.0152998
725.159	0.0153739
725.237	0.0155211
725.315	0.0155910
725.393	0.0156123
725.471	0.0156233
725.549	0.0157957
725.628	0.0159630
725.706	0.0159824
725.784	0.0160580
725.862	0.0161264
725.940	0.0159711
726.018	0.0161494
726.096	0.0163964
726.174	0.0163873
726.253	0.0162785
726.331	0.0163649
726.409	0.0162755
726.487	0.0163806
726.565	0.0164040
726.643	0.0162183
726.721	0.0162287
726.799	0.0162368
726.878	0.0161821
726.956	0.0160188
727.034	0.0160062
727.112	0.0159232
727.190	0.0157595
727.268	0.0155861
727.346	0.0153555
727.424	0.0153868
727.503	0.0151499
727.581	0.0150827
727.659	0.0151891
727.737	0.0149604
727.815	0.0147598
727.893	0.0147644
727.971	0.0146169
728.049	0.0145683
728.128	0.0147913
728.206	0.0146127
728.284	0.0147511
728.362	0.0148087
728.440	0.0148389
728.518	0.0149662
728.596	0.0150265
728.674	0.0149558
728.753	0.0152820
728.831	0.0153580
728.909	0.0154230
728.987	0.0155637
729.065	0.0157407
729.143	0.0157938
729.221	0.0160306
729.299	0.0161733
729.378	0.0162508
729.456	0.0163699
729.534	0.0164652
729.612	0.0167027
729.690	0.0166016
729.768	0.0168018
729.846	0.0167728
729.924	0.0170251
730.003	0.0168903
730.081	0.0167402
730.159	0.0167358
730.237	0.0167580
730.315	0.0166983
730.393	0.0166353
730.471	0.0166043
730.549	0.0164839
730.628	0.0161435
730.706	0.0161215
730.784	0.0160599
730.862	0.0160701
730.940	0.0158057
731.018	0.0155692
731.096	0.0155430
731.174	0.0153201
731.253	0.0152048
731.331	0.0150791
731.409	0.0149416
731.487	0.0148270
731.565	0.0147886
731.643	0.0147705
731.721	0.0146918
731.799	0.0145779
731.878	0.0145678
731.956	0.0145164
732.034	0.0145441
732.112	0.0147227
732.190	0.0147122
732.268	0.0147666
732.346	0.0148298
732.424	0.0148607
732.503	0.0150920
732.581	0.0152116
732.659	0.0153588
732.737	0.0154971
732.815	0.0156183
732.893	0.0158765
732.971	0.0159457
733.049	0.0161606
733.128	0.0163700
733.206	0.0163953
733.284	0.0166278
733.362	0.0166119
733.440	0.0168008
733.518	0.0169933
733.596	0.0168136
733.674	0.0169862
733.753	0.0169529
733.831	0.0167549
733.909	0.0167732
733.987	0.0167115
734.065	0.0165146
734.143	0.0163073
734.221	0.0163409
734.299	0.0161106
734.378	0.0159801
734.456	0.0157708
734.534	0.0156776
734.612	0.0156141
734.690	0.0155435
734.768	0.0153935
734.846	0.0151175
734.924	0.0151015
735.003	0.0151848
735.081	0.0151040
735.159	0.0148923
735.237	0.0149280
735.315	0.0149356
735.393	0.0148232
735.471	0.0150371
735.549	0.0149576
735.628	0.0148628
735.706	0.0151074
735.784	0.0151177
735.862	0.0151792
735.940	0.0152586
736.018	0.0153849
736.096	0.0152616
736.174	0.0155286
736.253	0.0156905
736.331	0.0157197
736.409	0.0157408
736.487	0.0158591
736.565	0.0161024
736.643	0.0160922
736.721	0.0162041
736.799	0.0161963
736.878	0.0163551
736.956	0.0163864
737.034	0.0163307
737.112	0.0163923
737.190	0.0163065
737.268	0.0163440
737.346	0.0163560
737.424	0.0163556
737.503	0.0162989
737.581	0.0161192
737.659	0.0162398
737.737	0.0160573
737.815	0.0159436
737.893	0.0158461
737.971	0.0156333
738.049	0.0154922
738.128	0.0154996
738.206	0.0153088
738.284	0.0150661
738.362	0.0150687
738.440	0.0150355
738.518	0.0149752
738.596	0.0151097
738.674	0.0147498
738.753	0.0148758
738.831	0.0150799
738.909	0.0149217
738.987	0.0150007
739.065	0.0151433
739.143	0.0152636
739.221	0.0152999
739.299	0.0153545
739.378	0.0154639
739.456	0.0156486
739.534	0.0157411
739.612	0.0157819
739.690	0.0158313
739.768	0.0159849
739.846	0.0160226
739.924	0.0161169
740.003	0.0160791
740.081	0.0161652
740.159	0.0161547
740.237	0.0163294
740.315	0.0162404
740.393	0.0162527
740.471	0.0162091
740.549	0.0163541
740.628	0.0162749
740.706	0.0161584
740.784	0.0162727
740.862	0.0163299
740.940	0.0161243
741.018	0.0162024
741.096	0.0161722
741.174	0.0159342
741.253	0.0159341
741.331	0.0162118
741.409	0.0160149
741.487	0.0159010
741.565	0.0157401
741.643	0.0158051
741.721	0.0157936
741.799	0.0158770
741.878	0.0158137
741.956	0.0157092
742.034	0.0156850
742.112	0.0156541
742.190	0.0157076
742.268	0.0155934
742.346	0.0154926
742.424	0.0153944
742.503	0.0153269
742.581	0.0154503
742.659	0.0152310
742.737	0.0152250
742.815	0.0151304
742.893	0.0152088
742.971	0.0151884
743.049	0.0152322
743.128	0.0150859
743.206	0.0151727
743.284	0.0152011
743.362	0.0151845
743.440	0.0152815
743.518	0.0155086
743.596	0.0154239
743.674	0.0153140
743.753	0.0154194
743.831	0.0153973
743.909	0.0156145
743.987	0.0157777
744.065	0.0156441
744.143	0.0156917
744.221	0.0158362
744.299	0.0158393
744.378	0.0157870
744.456	0.0160146
744.534	0.0160512
744.612	0.0160218
744.690	0.0161109
744.768	0.0160785
744.846	0.0159988
744.924	0.0160106
745.003	0.0160159
745.081	0.0159126
745.159	0.0161855
745.237	0.0160483
745.315	0.0159300
745.393	0.0160042
745.471	0.0159549
745.549	0.0159184
745.628	0.0159095
745.706	0.0157486
745.784	0.0157857
745.862	0.0156441
745.940	0.0156216
746.018	0.0155488
746.096	0.0156236
746.174	0.0156184
746.253	0.0154243
746.331	0.0153534
746.409	0.0154847
746.487	0.0154864
746.565	0.0153102
746.643	0.0153297
746.721	0.0155334
746.799	0.0155093
746.878	0.0154686
746.956	0.0154373
747.034	0.0154578
747.112	0.0154454
747.190	0.0155281
747.268	0.0157037
747.346	0.0156849
747.424	0.0156491
747.503	0.0156934
747.581	0.0156543
747.659	0.0157110
747.737	0.0156474
747.815	0.0156416
747.893	0.0158344
747.971	0.0156718
748.049	0.0155924
748.128	0.0156248
748.206	0.0155577
748.284	0.0155085
748.362	0.0153523
748.440	0.0154556
748.518	0.0153428
748.596	0.0154336
748.674	0.0152333
748.753	0.0151341
748.831	0.0150053
748.909	0.0150756
748.987	0.0151073
749.065	0.0150520
749.143	0.0148904
749.221	0.0151045
749.299	0.0149411
749.378	0.0149194
749.456	0.0150134
749.534	0.0149530
749.612	0.0149695
749.690	0.0150223
749.768	0.0151421
749.846	0.0152554
749.924	0.0153725
750.003	0.0155692
750.081	0.0155421
750.159	0.0157123
750.237	0.0159212
750.315	0.0160400
750.393	0.0160880
750.471	0.0161286
750.549	0.0162770
750.628	0.0162788
750.706	0.0163848
750.784	0.0163528
750.862	0.0164143
750.940	0.0164359
751.018	0.0165018
751.096	0.0165243
751.174	0.0163214
751.253	0.0163117
751.331	0.0162615
751.409	0.0163747
751.487	0.0161764
751.565	0.0159156
751.643	0.0160360
751.721	0.0160935
751.799	0.0160993
751.878	0.0159962
751.956	0.0157615
752.034	0.0158692
752.112	0.0158064
752.190	0.0156846
752.268	0.0155950
752.346	0.0155273
752.424	0.0156084
752.503	0.0155099
752.581	0.0153935
752.659	0.0152570
752.737	0.0153577
752.815	0.0152628
752.893	0.0151174
752.971	0.0150734
753.049	0.0151381
753.128	0.0151005
753.206	0.0152235
753.284	0.0151249
753.362	0.0151697
753.440	0.0151830
753.518	0.0151826
753.596	0.0153438
753.674	0.0153204
753.753	0.0153975
753.831	0.0153332
753.909	0.0153418
753.987	0.0154624
754.065	0.0153064
754.143	0.0154128
754.221	0.0155666
754.299	0.0156805
754.378	0.0156491
754.456	0.0156373
754.534	0.0155893
754.612	0.0156660
754.690	0.0156905
754.768	0.0157653
754.846	0.0158298
754.924	0.0157770
755.003	0.0157503
755.081	0.0159107
755.159	0.0158901
755.237	0.0158212
755.315	0.0157806
755.393	0.0159777
755.471	0.0160164
755.549	0.0159952
755.628	0.0159864
755.706	0.0158467
755.784	0.0159232
755.862	0.0159824
755.940	0.0162120
756.018	0.0161543
756.096	0.0159898
756.174	0.0159900
756.253	0.0160993
756.331	0.0161278
756.409	0.0162023
756.487	0.0160987
756.565	0.0161497
756.643	0.0161203
756.721	0.0161098
756.799	0.0161110
756.878	0.0161237
756.956	0.0159941
757.034	0.0161181
757.112	0.0159782
757.190	0.0160482
757.268	0.0160154
757.346	0.0158306
757.424	0.0157920
757.503	0.0158360
757.581	0.0158237
757.659	0.0155100
757.737	0.0155539
757.815	0.0156261
757.893	0.0154749
757.971	0.0154081
758.049	0.0154006
758.128	0.0153836
758.206	0.0153571
758.284	0.0153620
758.362	0.0154691
758.440	0.0154761
758.518	0.0156087
758.596	0.0155793
758.674	0.0155958
758.753	0.0155575
758.831	0.0157155
758.909	0.0157062
758.987	0.0156863
759.065	0.0156616
759.143	0.0158319
759.221	0.0158376
759.299	0.0157364
759.378	0.0158693
759.456	0.0159134
759.534	0.0160011
759.612	0.0159711
759.690	0.0159198
759.768	0.0158844
759.846	0.0157745
759.924	0.0159068
760.003	0.0157803
760.081	0.0157142
760.159	0.0157161
760.237	0.0157378
760.315	0.0157575
760.393	0.0156165
760.471	0.0155156
760.549	0.0156050
760.628	0.0155406
760.706	0.0157215
760.784	0.0155994
760.862	0.0156527
760.940	0.0157003
761.018	0.0157679
761.096	0.0156162
761.174	0.0158696
761.253	0.0157977
761.331	0.0160069
761.409	0.0160545
761.487	0.0160641
761.565	0.0161910
761.643	0.0162272
761.721	0.0162186
761.799	0.0164642
761.878	0.0162771
761.956	0.0163393
762.034	0.0163711
762.112	0.0163583
762.190	0.0163081
762.268	0.0165027
762.346	0.0164564
762.424	0.0164738
762.503	0.0163088
762.581	0.0163306
762.659	0.0163731
762.737	0.0163513
762.815	0.0161803
762.893	0.0161994
762.971	0.0161115
763.049	0.0160747
763.128	0.0160111
763.206	0.0159048
763.284	0.0157310
763.362	0.0156747
763.440	0.0156847
763.518	0.0155933
763.596	0.0155408
763.674	0.0154198
763.753	0.0153716
763.831	0.0151266
763.909	0.0151732
763.987	0.0150799
764.065	0.0150926
764.143	0.0151309
764.221	0.0151913
764.299	0.0150791
764.378	0.0150455
764.456	0.0150731
764.534	0.0151583
764.612	0.0152914
764.690	0.0152841
764.768	0.0152801
764.846	0.0152519
764.924	0.0154327
765.003	0.0154320
765.081	0.0155894
765.159	0.0156900
765.237	0.0156117
765.315	0.0157618
765.393	0.0157520
765.471	0.0157212
765.549	0.0158677
765.628	0.0158488
765.706	0.0158160
765.784	0.0157069
765.862	0.0157937
765.940	0.0156358
766.018	0.0156850
766.096	0.0156721
766.174	0.0156065
766.253	0.0155576
766.331	0.0156770
766.409	0.0158441
766.487	0.0156812
766.565	0.0155481
766.643	0.0157294
766.721	0.0155079
766.799	0.0155349
766.878	0.0155131
766.956	0.0156445
767.034	0.0156245
767.112	0.0157605
767.190	0.0159100
767.268	0.0159401
767.346	0.0159051
767.424	0.0160097
767.503	0.0160567
767.581	0.0161799
767.659	0.0162234
767.737	0.0161415
767.815	0.0163319
767.893	0.0161869
767.971	0.0162466
768.049	0.0161533
768.128	0.0161809
768.206	0.0162047
768.284	0.0161980
768.362	0.0161166
768.440	0.0160809
768.518	0.0159870
768.596	0.0159878
768.674	0.0157865
768.753	0.0157331
768.831	0.0155133
768.909	0.0156294
768.987	0.0155107
769.065	0.0154039
769.143	0.0154308
769.221	0.0153918
769.299	0.0153262
769.378	0.0151312
769.456	0.0151824
769.534	0.0151731
769.612	0.0150449
769.690	0.0149246
769.768	0.0150708
769.846	0.0150111
769.924	0.0151220
770.003	0.0150783
770.081	0.0152655
770.159	0.0152847
770.237	0.0153930
770.315	0.0153576
770.393	0.0154164
770.471	0.0155892
770.549	0.0155149
770.628	0.0156039
770.706	0.0158253
770.784	0.0159540
770.862	0.0159702
770.940	0.0159637
771.018	0.0160278
771.096	0.0160258
771.174	0.0161566
771.253	0.0161169
771.331	0.0163571
771.409	0.0161819
771.487	0.0160297
771.565	0.0158820
771.643	0.0159632
771.721	0.0160807
771.799	0.0159231
771.878	0.0158582
771.956	0.0157193
772.034	0.0156552
772.112	0.0158200
772.190	0.0156632
772.268	0.0155857
772.346	0.0156038
772.424	0.0156956
772.503	0.0156810
772.581	0.0156074
772.659	0.0156429
772.737	0.0157838
772.815	0.0157903
772.893	0.0157461
772.971	0.0159045
773.049	0.0160234
773.128	0.0161564
773.206	0.0159951
773.284	0.0161169
773.362	0.0161568
773.440	0.0160927
773.518	0.0161620
773.596	0.0162292
773.674	0.0162560
773.753	0.0163593
773.831	0.0161813
773.909	0.0161448
773.987	0.0163302
774.065	0.0161279
774.143	0.0161574
774.221	0.0161546
774.299	0.0162749
774.378	0.0160394
774.456	0.0159657
774.534	0.0161325
774.612	0.0160012
774.690	0.0160228
774.768	0.0158290
774.846	0.0157175
774.924	0.0156876
775.003	0.0157867
775.081	0.0156760
775.159	0.0157674
775.237	0.0157056
775.315	0.0157144
775.393	0.0156844
775.471	0.0155580
775.549	0.0157254
775.628	0.0157045
775.706	0.0156007
775.784	0.0155483
775.862	0.0156928
775.940	0.0156152
776.018	0.0155518
776.096	0.0156873
776.174	0.0156066
776.253	0.0155882
776.331	0.0155884
776.409	0.0157436
776.487	0.0156552
776.565	0.0157346
776.643	0.0156430
776.721	0.0157485
776.799	0.0155962
776.878	0.0157697
776.956	0.0158243
777.034	0.0157667
777.112	0.0158144
777.190	0.0158518
777.268	0.0158579
777.346	0.0158528
777.424	0.0158285
777.503	0.0158472
777.581	0.0158967
777.659	0.0156087
777.737	0.0156863
777.815	0.0157700
777.893	0.0157415
777.971	0.0157457
778.049	0.0156797
778.128	0.0156499
778.206	0.0156976
778.284	0.0157869
778.362	0.0156755
778.440	0.0157723
778.518	0.0158120
778.596	0.0159023
778.674	0.0157690
778.753	0.0158739
778.831	0.0159306
778.909	0.0159390
778.987	0.0161018
779.065	0.0160857
779.143	0.0159952
779.221	0.0161589
779.299	0.0162007
779.378	0.0162087
779.456	0.0162607
779.534	0.0162714
779.612	0.0162793
779.690	0.0163527
779.768	0.0162704
779.846	0.0162674
779.924	0.0162022
780.003	0.0160494
780.081	0.0161034
780.159	0.0161069
780.237	0.0160919
780.315	0.0159235
780.393	0.0158289
780.471	0.0159209
780.549	0.0157406
780.628	0.0158534
780.706	0.0157450
780.784	0.0155522
780.862	0.0155870
780.940	0.0156062
781.018	0.0153421
781.096	0.0155861
781.174	0.0155054
781.253	0.0154325
781.331	0.0153107
781.409	0.0153796
781.487	0.0153577
781.565	0.0153514
781.643	0.0154620
781.721	0.0154507
781.799	0.0156177
781.878	0.0155299
781.956	0.0156275
782.034	0.0156679
782.112	0.0157697
782.190	0.0158545
782.268	0.0159962
782.346	0.0159797
782.424	0.0160567
782.503	0.0162039
782.581	0.0160968
782.659	0.0163447
782.737	0.0162530
782.815	0.0161992
782.893	0.0162675
782.971	0.0162659
783.049	0.0163542
783.128	0.0163490
783.206	0.0161335
783.284	0.0161190
783.362	0.0161657
783.440	0.0162473
783.518	0.0160455
783.596	0.0159718
783.674	0.0159604
783.753	0.0159342
783.831	0.0159451
783.909	0.0161520
783.987	0.0160410
784.065	0.0158815
784.143	0.0159361
784.221	0.0158561
784.299	0.0159142
784.378	0.0158130
784.456	0.0158641
784.534	0.0158126
784.612	0.0159588
784.690	0.0157928
784.768	0.0158054
784.846	0.0158981
784.924	0.0158836
785.003	0.0159498
785.081	0.0158977
785.159	0.0158186
785.237	0.0158691
785.315	0.0158534
785.393	0.0157710
785.471	0.0158486
785.549	0.0158132
785.628	0.0159802
785.706	0.0158195
785.784	0.0159548
785.862	0.0159260
785.940	0.0159206
786.018	0.0159733
786.096	0.0160826
786.174	0.0160318
786.253	0.0159846
786.331	0.0160151
786.409	0.0159010
786.487	0.0159776
786.565	0.0160210
786.643	0.0159140
786.721	0.0159918
786.799	0.0159371
786.878	0.0157636
786.956	0.0158807
787.034	0.0158667
787.112	0.0157674
787.190	0.0157723
787.268	0.0157376
787.346	0.0156679
787.424	0.0155875
787.503	0.0156943
787.581	0.0155954
787.659	0.0156483
787.737	0.0156443
787.815	0.0155684
787.893	0.0156013
787.971	0.0157376
788.049	0.0156406
788.128	0.0155458
788.206	0.0156711
788.284	0.0157023
788.362	0.0156951
788.440	0.0156397
788.518	0.0156791
788.596	0.0157996
788.674	0.0158636
788.753	0.0158685
788.831	0.0157526
788.909	0.0158983
788.987	0.0157600
789.065	0.0158688
789.143	0.0157727
789.221	0.0157601
789.299	0.0157693
789.378	0.0158145
789.456	0.0157742
789.534	0.0157308
789.612	0.0156135
789.690	0.0157529
789.768	0.0156609
789.846	0.0156952
789.924	0.0156557
790.003	0.0156264
790.081	0.0158395
790.159	0.0156165
790.237	0.0156532
790.315	0.0155007
790.393	0.0157581
790.471	0.0157909
790.549	0.0155829
790.628	0.0157848
790.706	0.0157743
790.784	0.0158591
790.862	0.0159090
790.940	0.0159518
791.018	0.0158174
791.096	0.0157961
791.174	0.0157114
791.253	0.0158115
791.331	0.0158515
791.409	0.0157984
791.487	0.0157713
791.565	0.0157195
791.643	0.0156689
791.721	0.0156758
791.799	0.0157984
791.878	0.0158403
791.956	0.0156490
792.034	0.0157174
792.112	0.0156902
792.190	0.0158450
792.268	0.0158887
792.346	0.0158249
792.424	0.0157822
792.503	0.0158981
792.581	0.0158046
792.659	0.0159656
792.737	0.0159372
792.815	0.0160068
792.893	0.0159850
792.971	0.0158713
793.049	0.0157738
793.128	0.0158759
793.206	0.0158544
793.284	0.0157843
793.362	0.0158096
793.440	0.0157424
793.518	0.0157207
793.596	0.0157100
793.674	0.0157551
793.753	0.0155680
793.831	0.0157201
793.909	0.0155692
793.987	0.0157130
794.065	0.0156775
794.143	0.0156386
794.221	0.0155859
794.299	0.0158414
794.378	0.0158360
794.456	0.0155797
794.534	0.0156548
794.612	0.0158238
794.690	0.0156506
794.768	0.0157784
794.846	0.0158403
794.924	0.0159248
795.003	0.0157562
795.081	0.0158421
795.159	0.0159398
795.237	0.0157253
795.315	0.0158840
795.393	0.0158543
795.471	0.0159834
795.549	0.0158796
795.628	0.0159253
795.706	0.0159030
795.784	0.0158693
795.862	0.0156892
795.940	0.0158014
796.018	0.0159328
796.096	0.0157583
796.174	0.0157806
796.253	0.0157935
796.331	0.0158187
796.409	0.0158409
796.487	0.0158014
796.565	0.0158165
796.643	0.0158241
796.721	0.0159258
796.799	0.0158728
796.878	0.0158887
796.956	0.0159695
797.034	0.0158329
797.112	0.0159956
797.190	0.0159643
797.268	0.0159708
797.346	0.0160873
797.424	0.0159290
797.503	0.0160098
797.581	0.0157851
797.659	0.0158974
797.737	0.0159695
797.815	0.0158771
797.893	0.0159070
797.971	0.0159670
798.049	0.0157896
798.128	0.0157783
798.206	0.0157777
798.284	0.0157109
798.362	0.0157848
798.440	0.0157178
798.518	0.0156158
798.596	0.0158356
798.674	0.0157830
798.753	0.0157220
798.831	0.0156615
798.909	0.0157547
798.987	0.0157460
799.065	0.0158167
799.143	0.0158327
799.221	0.0156824
799.299	0.0158609
799.378	0.0158298
799.456	0.0156927
799.534	0.0158067
799.612	0.0158855
799.690	0.0157488
799.768	0.0158284
799.846	0.0157726
799.924	0.0158518
800.003	0.0158057
800.081	0.0157410
800.159	0.0157334
800.237	0.0158200
800.315	0.0157709
800.393	0.0157659
800.471	0.0156886
800.549	0.0156992
800.628	0.0158128
800.706	0.0157101
800.784	0.0158163
800.862	0.0156834
800.940	0.0156955
801.018	0.0157829
801.096	0.0158588
801.174	0.0159433
801.253	0.0158714
801.331	0.0158503
801.409	0.0160077
801.487	0.0159937
801.565	0.0158785
801.643	0.0159177
801.721	0.0159092
801.799	0.0160181
801.878	0.0161153
801.956	0.0159341
802.034	0.0158901
802.112	0.0158730
802.190	0.0156924
802.268	0.0159010
802.346	0.0158723
802.424	0.0158253
802.503	0.0157326
802.581	0.0157186
802.659	0.0156994
802.737	0.0157714
802.815	0.0156055
802.893	0.0155762
802.971	0.0156888
803.049	0.0156339
803.128	0.0155887
803.206	0.0156979
803.284	0.0155422
803.362	0.0155769
803.440	0.0156638
803.518	0.0156552
803.596	0.0155711
803.674	0.0156009
803.753	0.0157040
803.831	0.0156323
803.909	0.0155678
803.987	0.0155672
804.065	0.0156725
804.143	0.0156916
804.221	0.0156821
804.299	0.0156506
804.378	0.0156772
804.456	0.0156631
804.534	0.0157713
804.612	0.0157162
804.690	0.0156623
804.768	0.0156247
804.846	0.0156396
804.924	0.0156483
805.003	0.0156739
805.081	0.0158044
805.159	0.0158421
805.237	0.0157589
805.315	0.0158571
805.393	0.0157230
805.471	0.0159373
805.549	0.0159917
805.628	0.0158354
805.706	0.0159083
805.784	0.0159025
805.862	0.0159489
805.940	0.0158318
806.018	0.0158959
806.096	0.0159617
806.174	0.0158065
806.253	0.0157522
806.331	0.0157908
806.409	0.0158719
806.487	0.0158492
806.565	0.0156805
806.643	0.0158022
806.721	0.0156499
806.799	0.0156580
806.878	0.0157146
806.956	0.0155669
807.034	0.0155148
807.112	0.0156509
807.190	0.0157350
807.268	0.0156406
807.346	0.0156881
807.424	0.0156419
807.503	0.0157008
807.581	0.0156581
807.659	0.0156281
807.737	0.0156045
807.815	0.0155499
807.893	0.0156432
807.971	0.0156970
808.049	0.0157516
808.128	0.0156953
808.206	0.0157816
808.284	0.0156828
808.362	0.0157689
808.440	0.0158153
808.518	0.0158015
808.596	0.0157953
808.674	0.0159337
808.753	0.0158856
808.831	0.0159001
808.909	0.0158961
808.987	0.0159459
809.065	0.0158730
809.143	0.0158363
809.221	0.0159324
809.299	0.0159388
809.378	0.0158865
809.456	0.0159324
809.534	0.0159394
809.612	0.0159543
809.690	0.0159158
809.768	0.0159856
809.846	0.0159235
809.924	0.0159826
810.003	0.0158312
810.081	0.0158627
810.159	0.0158628
810.237	0.0155815
810.315	0.0159292
810.393	0.0158727
810.471	0.0156454
810.549	0.0155936
810.628	0.0155967
810.706	0.0155786
810.784	0.0156132
810.862	0.0157276
810.940	0.0156242
811.018	0.0154404
811.096	0.0154509
811.174	0.0155942
811.253	0.0156168
811.331	0.0155369
811.409	0.0154113
811.487	0.0155969
811.565	0.0155371
811.643	0.0155962
811.721	0.0155647
811.799	0.0155791
811.878	0.0156537
811.956	0.0155774
812.034	0.0155746
812.112	0.0156066
812.190	0.0156108
812.268	0.0156694
812.346	0.0155344
812.424	0.0155137
812.503	0.0157917
812.581	0.0156904
812.659	0.0156894
812.737	0.0156610
812.815	0.0156742
812.893	0.0157002
812.971	0.0156204
813.049	0.0156421
813.128	0.0157041
813.206	0.0157435
813.284	0.0156296
813.362	0.0156712
813.440	0.0157074
813.518	0.0156358
813.596	0.0156573
813.674	0.0156986
813.753	0.0156215
813.831	0.0156766
813.909	0.0156981
813.987	0.0157012
814.065	0.0157619
814.143	0.0157384
814.221	0.0158505
814.299	0.0155865
814.378	0.0156963
814.456	0.0157713
814.534	0.0158730
814.612	0.0158793
814.690	0.0158768
814.768	0.0158200
814.846	0.0157870
814.924	0.0159528
815.003	0.0156849
815.081	0.0158356
815.159	0.0159737
815.237	0.0158729
815.315	0.0158005
815.393	0.0157951
815.471	0.0156598
815.549	0.0157504
815.628	0.0157509
815.706	0.0159106
815.784	0.0157546
815.862	0.0156903
815.940	0.0156691
816.018	0.0157893
816.096	0.0157610
816.174	0.0157114
816.253	0.0155588
816.331	0.0155388
816.409	0.0154945
816.487	0.0155494
816.565	0.0155837
816.643	0.0155706
816.721	0.0156724
816.799	0.0156902
816.878	0.0156230
816.956	0.0157768
817.034	0.0156027
817.112	0.0157531
817.190	0.0156683
817.268	0.0155520
817.346	0.0157145
817.424	0.0156844
817.503	0.0157719
817.581	0.0157909
817.659	0.0157961
817.737	0.0158450
817.815	0.0158960
817.893	0.0159042
817.971	0.0158607
818.049	0.0158852
818.128	0.0158188
818.206	0.0158886
818.284	0.0159048
818.362	0.0160120
818.440	0.0160880
818.518	0.0160030
818.596	0.0158947
818.674	0.0161167
818.753	0.0160768
818.831	0.0160511
818.909	0.0160677
818.987	0.0158814
819.065	0.0159881
819.143	0.0159427
819.221	0.0159929
819.299	0.0160387
819.378	0.0159387
819.456	0.0159690
819.534	0.0158833
819.612	0.0157470
819.690	0.0157307
819.768	0.0157827
819.846	0.0158206
819.924	0.0157018
820.003	0.0156601
820.081	0.0156297
820.159	0.0154983
820.237	0.0154829
820.315	0.0155951
820.393	0.0154395
820.471	0.0154449
820.549	0.0155173
820.628	0.0154617
820.706	0.0154623
820.784	0.0153210
820.862	0.0154784
820.940	0.0154411
821.018	0.0153970
821.096	0.0154514
821.174	0.0154897
821.253	0.0155908
821.331	0.0156631
821.409	0.0155978
821.487	0.0156258
821.565	0.0157952
821.643	0.0157060
821.721	0.0157594
821.799	0.0157293
821.878	0.0158598
821.956	0.0158472
822.034	0.0158083
822.112	0.0157729
822.190	0.0158283
822.268	0.0157510
822.346	0.0157541
822.424	0.0158788
822.503	0.0158712
822.581	0.0158857
822.659	0.0158855
822.737	0.0157448
822.815	0.0158566
822.893	0.0159138
822.971	0.0158225
823.049	0.0158463
823.128	0.0157346
823.206	0.0156834
823.284	0.0159021
823.362	0.0157955
823.440	0.0156529
823.518	0.0156856
823.596	0.0157977
823.674	0.0156548
823.753	0.0156055
823.831	0.0156483
823.909	0.0157646
823.987	0.0155563
824.065	0.0155910
824.143	0.0156814
824.221	0.0155959
824.299	0.0157010
824.378	0.0155504
824.456	0.0154981
824.534	0.0157155
824.612	0.0155780
824.690	0.0155471
824.768	0.0155071
824.846	0.0156193
824.924	0.0156894
825.003	0.0157249
825.081	0.0155701
825.159	0.0155301
825.237	0.0156611
825.315	0.0158569
825.393	0.0155239
825.471	0.0154760
825.549	0.0156275
825.628	0.0157528
825.706	0.0157061
825.784	0.0157710
825.862	0.0157066
825.940	0.0156660
826.018	0.0156881
826.096	0.0157272
826.174	0.0157476
826.253	0.0157375
826.331	0.0158714
826.409	0.0157840
826.487	0.0157723
826.565	0.0158550
826.643	0.0158013
826.721	0.0157961
826.799	0.0158239
826.878	0.0157956
826.956	0.0156986
827.034	0.0156921
827.112	0.0157143
827.190	0.0155567
827.268	0.0156808
827.346	0.0156642
827.424	0.0155745
827.503	0.0155527
827.581	0.0155853
827.659	0.0155611
827.737	0.0157343
827.815	0.0154676
827.893	0.0154108
827.971	0.0155290
828.049	0.0154148
828.128	0.0154120
828.206	0.0155063
828.284	0.0153182
828.362	0.0153426
828.440	0.0154385
828.518	0.0153667
828.596	0.0154652
828.674	0.0154333
828.753	0.0153484
828.831	0.0154798
828.909	0.0155243
828.987	0.0154797
829.065	0.0156310
829.143	0.0156857
829.221	0.0155265
829.299	0.0156345
829.378	0.0156927
829.456	0.0157152
829.534	0.0157362
829.612	0.0157470
829.690	0.0159044
829.768	0.0158805
829.846	0.0158169
829.924	0.0159156
830.003	0.0158443
830.081	0.0159984
830.159	0.0159808
830.237	0.0160376
830.315	0.0160440
830.393	0.0160100
830.471	0.0160011
830.549	0.0158635
830.628	0.0158008
830.706	0.0158573
830.784	0.0159975
830.862	0.0157423
830.940	0.0157822
831.018	0.0158811
831.096	0.0157845
831.174	0.0156677
831.253	0.0157755
831.331	0.0158467
831.409	0.0157039
831.487	0.0156141
831.565	0.0156202
831.643	0.0156332
831.721	0.0156609
831.799	0.0157423
831.878	0.0156149
831.956	0.0156239
832.034	0.0156882
832.112	0.0157008
832.190	0.0155240
832.268	0.0156079
832.346	0.0156528
832.424	0.0156153
832.503	0.0156406
832.581	0.0157231
832.659	0.0155783
832.737	0.0157331
832.815	0.0156802
832.893	0.0156754
832.971	0.0157938
833.049	0.0156835
833.128	0.0157206
833.206	0.0156914
833.284	0.0156847
833.362	0.0158043
833.440	0.0158232
833.518	0.0158131
833.596	0.0156770
833.674	0.0159205
833.753	0.0158421
833.831	0.0157189
833.909	0.0156669
833.987	0.0158973
834.065	0.0157233
834.143	0.0157050
834.221	0.0158446
834.299	0.0158044
834.378	0.0156595
834.456	0.0157103
834.534	0.0156921
834.612	0.0158012
834.690	0.0156656
834.768	0.0157516
834.846	0.0157602
834.924	0.0156412
835.003	0.0156710
835.081	0.0158142
835.159	0.0156871
835.237	0.0158049
835.315	0.0157877
835.393	0.0155417
835.471	0.0156493
835.549	0.0156564
835.628	0.0156778
835.706	0.0157246
835.784	0.0157643
835.862	0.0158885
835.940	0.0157170
836.018	0.0157678
836.096	0.0156863
836.174	0.0158159
836.253	0.0157301
836.331	0.0158799
836.409	0.0158485
836.487	0.0159123
836.565	0.0159626
836.643	0.0159383
836.721	0.0159428
836.799	0.0157587
836.878	0.0158642
836.956	0.0158677
837.034	0.0158973
837.112	0.0158736
837.190	0.0160066
837.268	0.0159323
837.346	0.0159706
837.424	0.0160134
837.503	0.0160365
837.581	0.0159521
837.659	0.0158669
837.737	0.0159866
837.815	0.0159270
837.893	0.0160345
837.971	0.0158923
838.049	0.0158739
838.128	0.0158395
838.206	0.0159744
838.284	0.0158673
838.362	0.0158781
838.440	0.0158746
838.518	0.0156654
838.596	0.0157743
838.674	0.0158336
838.753	0.0158421
838.831	0.0157006
838.909	0.0157337
838.987	0.0158083
839.065	0.0158746
839.143	0.0156979
839.221	0.0157265
839.299	0.0156217
839.378	0.0157951
839.456	0.0157470
839.534	0.0156503
839.612	0.0156026
839.690	0.0157704
839.768	0.0157222
839.846	0.0157462
839.924	0.0157175
840.003	0.0156466
840.081	0.0157310
840.159	0.0158072
840.237	0.0157293
840.315	0.0156359
840.393	0.0156293
840.471	0.0157726
840.549	0.0156837
840.628	0.0157083
840.706	0.0158291
840.784	0.0158419
840.862	0.0158440
840.940	0.0158471
841.018	0.0158195
841.096	0.0158438
841.174	0.0158765
841.253	0.0158092
841.331	0.0158233
841.409	0.0159385
841.487	0.0160325
841.565	0.0159351
841.643	0.0159363
841.721	0.0159339
841.799	0.0159782
841.878	0.0160433
841.956	0.0159670
842.034	0.0160085
842.112	0.0159602
842.190	0.0159648
842.268	0.0159203
842.346	0.0158029
842.424	0.0158815
842.503	0.0157614
842.581	0.0158883
842.659	0.0157796
842.737	0.0156584
842.815	0.0158102
842.893	0.0157716
842.971	0.0157533
843.049	0.0157579
843.128	0.0157333
843.206	0.0157753
843.284	0.0156911
843.362	0.0155803
843.440	0.0154775
843.518	0.0156565
843.596	0.0156298
843.674	0.0155854
843.753	0.0156136
843.831	0.0156075
843.909	0.0157795
843.987	0.0156516
844.065	0.0155849
844.143	0.0156970
844.221	0.0156828
844.299	0.0158588
844.378	0.0157393
844.456	0.0157220
844.534	0.0157162
844.612	0.0157780
844.690	0.0157462
844.768	0.0158497
844.846	0.0156423
844.924	0.0157007
845.003	0.0158432
845.081	0.0155200
845.159	0.0155890
845.237	0.0156602
845.315	0.0156410
845.393	0.0156824
845.471	0.0156636
845.549	0.0155583
845.628	0.0155296
845.706	0.0155482
845.784	0.0154727
845.862	0.0155173
845.940	0.0155772
846.018	0.0155249
846.096	0.0155535
846.174	0.0153921
846.253	0.0154726
846.331	0.0154399
846.409	0.0155254
846.487	0.0154810
846.565	0.0154658
846.643	0.0155864
846.721	0.0155991
846.799	0.0156920
846.878	0.0156200
846.956	0.0156145
847.034	0.0155751
847.112	0.0157037
847.190	0.0157597
847.268	0.0155480
847.346	0.0156276
847.424	0.0157913
847.503	0.0156921
847.581	0.0157513
847.659	0.0159115
847.737	0.0158958
847.815	0.0157124
847.893	0.0156775
847.971	0.0158434
848.049	0.0157955
848.128	0.0158440
848.206	0.0158389
848.284	0.0158408
848.362	0.0158165
848.440	0.0157664
848.518	0.0157440
848.596	0.0157708
848.674	0.0157702
848.753	0.0157561
848.831	0.0157046
848.909	0.0157362
848.987	0.0157027
849.065	0.0157066
849.143	0.0156847
849.221	0.0157063
849.299	0.0156123
849.378	0.0155798
849.456	0.0156296
849.534	0.0154825
849.612	0.0154612
849.690	0.0155246
849.768	0.0155225
849.846	0.0155025
849.924	0.0155402
850.003	0.0155264
850.081	0.0155023
850.159	0.0154817
850.237	0.0156248
850.315	0.0155654
850.393	0.0155161
850.471	0.0154990
850.549	0.0154466
850.628	0.0157186
850.706	0.0156496
850.784	0.0156577
850.862	0.0156871
850.940	0.0156165
851.018	0.0157130
851.096	0.0156913
851.174	0.0157346
851.253	0.0158697
851.331	0.0159052
851.409	0.0159080
851.487	0.0159516
851.565	0.0157292
851.643	0.0157928
851.721	0.0158885
851.799	0.0158907
851.878	0.0157841
851.956	0.0158499
852.034	0.0158121
852.112	0.0157536
852.190	0.0157650
852.268	0.0158608
852.346	0.0158952
852.424	0.0157058
852.503	0.0157223
852.581	0.0158174
852.659	0.0157082
852.737	0.0158241
852.815	0.0158468
852.893	0.0156668
852.971	0.0157256
853.049	0.0157650
853.128	0.0158123
853.206	0.0158906
853.284	0.0158350
853.362	0.0158555
853.440	0.0158065
853.518	0.0157711
853.596	0.0158022
853.674	0.0159097
853.753	0.0158825
853.831	0.0159190
853.909	0.0158691
853.987	0.0157754
854.065	0.0157871
854.143	0.0157536
854.221	0.0157563
854.299	0.0157681
854.378	0.0159336
854.456	0.0156837
854.534	0.0157556
854.612	0.0158534
854.690	0.0157286
854.768	0.0157162
854.846	0.0156778
854.924	0.0157806
855.003	0.0156342
855.081	0.0157500
855.159	0.0158633
855.237	0.0157462
855.315	0.0156230
855.393	0.0157970
855.471	0.0157972
855.549	0.0156578
855.628	0.0157269
855.706	0.0158234
855.784	0.0156818
855.862	0.0156937
855.940	0.0158380
856.018	0.0157185
856.096	0.0158107
856.174	0.0157677
856.253	0.0159190
856.331	0.0158483
856.409	0.0158443
856.487	0.0157527
856.565	0.0157286
856.643	0.0157949
856.721	0.0158248
856.799	0.0159396
856.878	0.0156891
856.956	0.0158399
857.034	0.0156948
857.112	0.0157583
857.190	0.0158350
857.268	0.0157834
857.346	0.0158693
857.424	0.0158528
857.503	0.0159236
857.581	0.0159095
857.659	0.0158086
857.737	0.0159819
857.815	0.0158567
857.893	0.0159542
857.971	0.0159531
858.049	0.0159100
858.128	0.0158883
858.206	0.0158611
858.284	0.0159895
858.362	0.0159535
858.440	0.0157972
858.518	0.0160323
858.596	0.0159326
858.674	0.0159344
858.753	0.0159718
858.831	0.0158759
858.909	0.0158010
858.987	0.0158525
859.065	0.0158153
859.143	0.0158336
859.221	0.0159032
859.299	0.0158182
859.378	0.0157737
859.456	0.0157990
859.534	0.0159275
859.612	0.0158202
859.690	0.0157895
859.768	0.0158463
859.846	0.0159348
859.924	0.0158134
860.003	0.0158270
860.081	0.0156882
860.159	0.0159039
860.237	0.0158421
860.315	0.0158986
860.393	0.0158562
860.471	0.0158808
860.549	0.0158634
860.628	0.0157434
860.706	0.0157274
860.784	0.0157708
860.862	0.0158514
860.940	0.0157368
861.018	0.0157032
861.096	0.0157708
861.174	0.0157065
861.253	0.0157944
861.331	0.0157447
861.409	0.0158009
861.487	0.0156437
861.565	0.0156293
861.643	0.0159019
861.721	0.0157120
861.799	0.0157707
861.878	0.0157925
861.956	0.0157082
862.034	0.0157116
862.112	0.0156963
862.190	0.0155581
862.268	0.0158965
862.346	0.0158101
862.424	0.0156849
862.503	0.0156940
862.581	0.0158773
862.659	0.0159090
862.737	0.0159141
862.815	0.0158445
862.893	0.0158819
862.971	0.0160002
863.049	0.0157850
863.128	0.0158128
863.206	0.0159961
863.284	0.0159931
863.362	0.0158877
863.440	0.0157694
863.518	0.0160397
863.596	0.0158627
863.674	0.0158337
863.753	0.0157874
863.831	0.0157356
863.909	0.0158208
863.987	0.0157833
864.065	0.0157640
864.143	0.0157666
864.221	0.0156647
864.299	0.0156120
864.378	0.0157100
864.456	0.0156851
864.534	0.0157091
864.612	0.0156963
864.690	0.0156844
864.768	0.0155548
864.846	0.0155487
864.924	0.0155216
865.003	0.0155816
865.081	0.0156076
865.159	0.0156136
865.237	0.0154649
865.315	0.0155293
865.393	0.0153875
865.471	0.0154327
865.549	0.0154845
865.628	0.0154535
865.706	0.0155683
865.784	0.0153704
865.862	0.0153152
865.940	0.0153445
866.018	0.0153504
866.096	0.0154474
866.174	0.0153922
866.253	0.0153197
866.331	0.0153349
866.409	0.0152753
866.487	0.0154269
866.565	0.0153809
866.643	0.0152321
866.721	0.0153692
866.799	0.0154408
866.878	0.0154430
866.956	0.0154327
867.034	0.0156053
867.112	0.0156064
867.190	0.0155206
867.268	0.0154791
867.346	0.0155743
867.424	0.0156983
867.503	0.0155830
867.581	0.0156517
867.659	0.0156078
867.737	0.0155804
867.815	0.0156647
867.893	0.0157320
867.971	0.0156341
868.049	0.0156661
868.128	0.0156051
868.206	0.0156432
868.284	0.0158025
868.362	0.0157423
868.440	0.0158237
868.518	0.0157258
868.596	0.0157955
868.674	0.0157877
868.753	0.0155966
868.831	0.0157145
868.909	0.0157054
868.987	0.0156905
869.065	0.0158148
869.143	0.0158499
869.221	0.0157465
869.299	0.0156567
869.378	0.0157858
869.456	0.0157404
869.534	0.0156998
869.612	0.0156792
869.690	0.0157259
869.768	0.0156924
869.846	0.0157102
869.924	0.0156216
870.003	0.0155722
870.081	0.0157034
870.159	0.0157239
870.237	0.0155624
870.315	0.0156141
870.393	0.0155721
870.471	0.0155986
870.549	0.0156332
870.628	0.0156039
870.706	0.0154682
870.784	0.0154830
870.862	0.0154049
870.940	0.0154740
871.018	0.0155043
871.096	0.0156336
871.174	0.0155526
871.253	0.0156007
871.331	0.0156074
871.409	0.0154731
871.487	0.0153957
871.565	0.0155040
871.643	0.0156007
871.721	0.0154143
871.799	0.0155025
871.878	0.0155605
871.956	0.0154954
872.034	0.0154746
872.112	0.0155138
872.190	0.0155554
872.268	0.0155564
872.346	0.0155611
872.424	0.0155280
872.503	0.0153546
872.581	0.0155483
872.659	0.0156056
872.737	0.0156108
872.815	0.0156950
872.893	0.0156532
872.971	0.0156670
873.049	0.0157491
873.128	0.0156331
873.206	0.0156202
873.284	0.0157207
873.362	0.0158241
873.440	0.0157535
873.518	0.0157240
873.596	0.0157378
873.674	0.0157738
873.753	0.0157400
873.831	0.0159561
873.909	0.0157965
873.987	0.0158539
874.065	0.0157494
874.143	0.0158813
874.221	0.0159673
874.299	0.0159720
874.378	0.0158630
874.456	0.0157975
874.534	0.0160234
874.612	0.0160085
874.690	0.0157902
874.768	0.0160444
874.846	0.0159268
874.924	0.0158575
875.003	0.0159874
875.081	0.0161464
875.159	0.0160139
875.237	0.0159877
875.315	0.0159518
875.393	0.0159261
875.471	0.0160342
875.549	0.0160260
875.628	0.0160137
875.706	0.0160101
875.784	0.0161255
875.862	0.0160172
875.940	0.0161082
876.018	0.0161166
876.096	0.0159190
876.174	0.0161259
876.253	0.0160410
876.331	0.0160684
876.409	0.0160103
876.487	0.0161289
876.565	0.0161001
876.643	0.0160767
876.721	0.0160408
876.799	0.0161625
876.878	0.0161034
876.956	0.0160065
877.034	0.0161310
877.112	0.0160357
877.190	0.0160916
877.268	0.0159964
877.346	0.0161179
877.424	0.0160715
877.503	0.0159157
877.581	0.0159831
877.659	0.0159863
877.737	0.0159212
877.815	0.0159106
877.893	0.0157888
877.971	0.0158400
878.049	0.0157714
878.128	0.0158736
878.206	0.0158364
878.284	0.0157270
878.362	0.0159243
878.440	0.0157419
878.518	0.0159112
878.596	0.0159824
878.674	0.0159129
878.753	0.0158067
878.831	0.0158270
878.909	0.0158610
878.987	0.0158852
879.065	0.0159698
879.143	0.0158327
879.221	0.0158370
879.299	0.0158011
879.378	0.0158175
879.456	0.0158752
879.534	0.0159324
879.612	0.0159512
879.690	0.0159938
879.768	0.0160005
879.846	0.0158778
879.924	0.0160057
880.003	0.0159268
880.081	0.0160081
880.159	0.0159166
880.237	0.0158502
880.315	0.0157821
880.393	0.0158652
880.471	0.0159382
880.549	0.0158435
880.628	0.0158262
880.706	0.0158733
880.784	0.0159024
880.862	0.0157893
880.940	0.0158309
881.018	0.0159026
881.096	0.0158895
881.174	0.0158373
881.253	0.0158363
881.331	0.0159023
881.409	0.0157825
881.487	0.0158088
881.565	0.0157484
881.643	0.0159528
881.721	0.0159194
881.799	0.0158668
881.878	0.0156959
881.956	0.0157862
882.034	0.0158246
882.112	0.0159055
882.190	0.0159089
882.268	0.0156943
882.346	0.0157313
882.424	0.0157132
882.503	0.0157056
882.581	0.0157870
882.659	0.0157887
882.737	0.0157646
882.815	0.0158614
882.893	0.0158629
882.971	0.0157759
883.049	0.0158365
883.128	0.0158495
883.206	0.0158596
883.284	0.0158955
883.362	0.0158538
883.440	0.0159602
883.518	0.0160170
883.596	0.0159608
883.674	0.0158759
883.753	0.0159769
883.831	0.0159274
883.909	0.0160229
883.987	0.0159483
884.065	0.0160270
884.143	0.0159803
884.221	0.0159309
884.299	0.0159436
884.378	0.0159211
884.456	0.0158182
884.534	0.0159073
884.612	0.0159927
884.690	0.0159158
884.768	0.0160151
884.846	0.0159789
884.924	0.0158279
885.003	0.0159176
885.081	0.0159211
885.159	0.0159344
885.237	0.0158202
885.315	0.0158469
885.393	0.0160110
885.471	0.0158075
885.549	0.0157969
885.628	0.0158424
885.706	0.0156940
885.784	0.0159758
885.862	0.0158702
885.940	0.0158687
886.018	0.0159310
886.096	0.0157903
886.174	0.0158575
886.253	0.0158497
886.331	0.0158397
886.409	0.0158590
886.487	0.0158398
886.565	0.0158985
886.643	0.0158105
886.721	0.0159061
886.799	0.0158970
886.878	0.0158204
886.956	0.0158445
887.034	0.0157723
887.112	0.0158843
887.190	0.0158155
887.268	0.0158369
887.346	0.0159854
887.424	0.0158811
887.503	0.0157310
887.581	0.0157236
887.659	0.0158391
887.737	0.0160263
887.815	0.0158730
887.893	0.0157482
887.971	0.0158369
888.049	0.0158778
888.128	0.0157328
888.206	0.0157465
888.284	0.0157991
888.362	0.0157997
888.440	0.0158936
888.518	0.0158295
888.596	0.0157821
888.674	0.0157849
888.753	0.0157660
888.831	0.0157822
888.909	0.0157516
888.987	0.0157339
889.065	0.0157561
889.143	0.0157057
889.221	0.0156609
889.299	0.0158093
889.378	0.0156648
889.456	0.0156039
889.534	0.0155392
889.612	0.0156776
889.690	0.0156803
889.768	0.0156046
889.846	0.0155473
889.924	0.0154014
890.003	0.0155149
890.081	0.0155698
890.159	0.0154902
890.237	0.0154461
890.315	0.0154427
890.393	0.0154230
890.471	0.0154410
890.549	0.0153397
890.628	0.0154562
890.706	0.0152861
890.784	0.0153691
890.862	0.0154316
890.940	0.0153577
891.018	0.0153106
891.096	0.0153490
891.174	0.0151796
891.253	0.0151788
891.331	0.0152216
891.409	0.0151553
891.487	0.0154267
891.565	0.0152516
891.643	0.0152973
891.721	0.0152646
891.799	0.0153149
891.878	0.0154330
891.956	0.0154728
892.034	0.0153908
892.112	0.0153964
892.190	0.0154878
892.268	0.0154974
892.346	0.0154977
892.424	0.0153854
892.503	0.0153870
892.581	0.0154961
892.659	0.0155769
892.737	0.0155283
892.815	0.0155241
892.893	0.0154370
892.971	0.0156749
893.049	0.0155447
893.128	0.0155706
893.206	0.0157028
893.284	0.0155335
893.362	0.0155081
893.440	0.0155414
893.518	0.0156093
893.596	0.0155137
893.674	0.0154559
893.753	0.0154217
893.831	0.0156048
893.909	0.0157030
893.987	0.0154928
894.065	0.0154166
894.143	0.0156387
894.221	0.0156428
894.299	0.0155718
894.378	0.0156127
894.456	0.0156275
894.534	0.0155261
894.612	0.0156358
894.690	0.0158413
894.768	0.0156395
894.846	0.0156036
894.924	0.0157089
895.003	0.0157200
895.081	0.0156669
895.159	0.0158220
895.237	0.0156319
895.315	0.0156732
895.393	0.0157456
895.471	0.0157455
895.549	0.0157568
895.628	0.0156937
895.706	0.0156416
895.784	0.0157587
895.862	0.0156047
895.940	0.0157439
896.018	0.0157336
896.096	0.0158694
896.174	0.0157692
896.253	0.0157626
896.331	0.0157895
896.409	0.0156783
896.487	0.0157389
896.565	0.0159173
896.643	0.0158344
896.721	0.0157833
896.799	0.0158645
896.878	0.0157146
896.956	0.0158083
897.034	0.0158853
897.112	0.0159632
897.190	0.0158936
897.268	0.0157702
897.346	0.0158521
897.424	0.0157352
897.503	0.0158573
897.581	0.0159780
897.659	0.0159450
897.737	0.0159469
897.815	0.0158346
897.893	0.0158859
897.971	0.0159653
898.049	0.0159313
898.128	0.0158465
898.206	0.0159897
898.284	0.0159541
898.362	0.0159170
898.440	0.0160403
898.518	0.0162251
898.596	0.0160653
898.674	0.0160306
898.753	0.0161090
898.831	0.0160000
898.909	0.0158378
898.987	0.0159965
899.065	0.0160809
899.143	0.0160994
899.221	0.0161789
899.299	0.0161269
899.378	0.0161203
899.456	0.0159801
899.534	0.0161016
899.612	0.0160668
899.690	0.0159211
899.768	0.0160313
899.846	0.0161382
899.924	0.0160963
900.003	0.0159671
900.081	0.0159798
900.159	0.0159830
900.237	0.0160033
900.315	0.0159790
900.393	0.0159628
900.471	0.0159523
900.549	0.0159949
900.628	0.0159250
900.706	0.0159568
900.784	0.0159140
900.862	0.0158385
900.940	0.0159735
901.018	0.0157764
901.096	0.0157820
901.174	0.0159287
901.253	0.0159248
901.331	0.0157424
901.409	0.0157858
901.487	0.0158402
901.565	0.0159319
901.643	0.0156773
901.721	0.0157330
901.799	0.0158818
901.878	0.0158161
901.956	0.0157663
902.034	0.0157238
902.112	0.0158447
902.190	0.0157925
902.268	0.0157451
902.346	0.0156126
902.424	0.0157401
902.503	0.0157446
902.581	0.0158057
902.659	0.0157308
902.737	0.0157674
902.815	0.0157607
902.893	0.0158275
902.971	0.0157423
903.049	0.0156837
903.128	0.0157128
903.206	0.0157285
903.284	0.0159270
903.362	0.0158474
903.440	0.0158913
903.518	0.0159150
903.596	0.0157283
903.674	0.0157626
903.753	0.0158153
903.831	0.0157245
903.909	0.0158603
903.987	0.0158064
904.065	0.0156879
904.143	0.0158317
904.221	0.0157883
904.299	0.0157700
904.378	0.0157828
904.456	0.0157593
904.534	0.0158356
904.612	0.0158208
904.690	0.0157722
904.768	0.0157804
904.846	0.0158312
904.924	0.0158349
905.003	0.0157486
905.081	0.0158511
905.159	0.0158161
905.237	0.0159104
905.315	0.0159038
905.393	0.0158855
905.471	0.0159665
905.549	0.0158694
905.628	0.0159639
905.706	0.0160377
905.784	0.0158154
905.862	0.0160564
905.940	0.0160748
906.018	0.0161129
906.096	0.0160347
906.174	0.0158456
906.253	0.0159912
906.331	0.0160417
906.409	0.0160416
906.487	0.0160296
906.565	0.0159673
906.643	0.0161452
906.721	0.0158659
906.799	0.0160719
906.878	0.0160028
906.956	0.0160364
907.034	0.0160201
907.112	0.0159673
907.190	0.0161038
907.268	0.0160570
907.346	0.0158129
907.424	0.0159783
907.503	0.0159209
907.581	0.0159623
907.659	0.0158402
907.737	0.0158502
907.815	0.0158325
907.893	0.0158353
907.971	0.0159281
908.049	0.0157944
908.128	0.0158566
908.206	0.0159708
908.284	0.0160032
908.362	0.0157516
908.440	0.0158897
908.518	0.0157777
908.596	0.0158869
908.674	0.0159708
908.753	0.0159494
908.831	0.0158528
908.909	0.0158260
908.987	0.0159389
909.065	0.0159093
909.143	0.0159647
909.221	0.0158940
909.299	0.0158007
909.378	0.0159247
909.456	0.0158207
909.534	0.0158889
909.612	0.0158999
909.690	0.0158994
909.768	0.0159467
909.846	0.0158705
909.924	0.0160155
910.003	0.0158253
910.081	0.0158603
910.159	0.0159121
910.237	0.0158812
910.315	0.0157056
910.393	0.0158386
910.471	0.0158848
910.549	0.0158207
910.628	0.0157774
910.706	0.0155958
910.784	0.0155678
910.862	0.0156819
910.940	0.0156901
911.018	0.0155505
911.096	0.0155307
911.174	0.0155858
911.253	0.0156691
911.331	0.0154823
911.409	0.0155398
911.487	0.0154166
911.565	0.0154924
911.643	0.0155901
911.721	0.0154253
911.799	0.0154477
911.878	0.0154094
911.956	0.0154062
912.034	0.0155264
912.112	0.0154265
912.190	0.0154261
912.268	0.0154655
912.346	0.0156074
912.424	0.0155205
912.503	0.0154597
912.581	0.0154350
912.659	0.0155004
912.737	0.0154337
912.815	0.0153951
912.893	0.0154082
912.971	0.0154753
913.049	0.0154086
913.128	0.0155383
913.206	0.0154553
913.284	0.0154231
913.362	0.0154447
913.440	0.0156127
913.518	0.0153330
913.596	0.0154646
913.674	0.0154323
913.753	0.0153947
913.831	0.0152972
913.909	0.0154800
913.987	0.0154507
914.065	0.0153996
914.143	0.0155515
914.221	0.0154810
914.299	0.0153694
914.378	0.0154859
914.456	0.0155509
914.534	0.0155091
914.612	0.0154523
914.690	0.0154381
914.768	0.0155119
914.846	0.0155991
914.924	0.0155886
915.003	0.0155907
915.081	0.0153872
915.159	0.0156236
915.237	0.0156113
915.315	0.0155588
915.393	0.0155768
915.471	0.0155617
915.549	0.0157172
915.628	0.0156688
915.706	0.0157481
915.784	0.0157164
915.862	0.0155739
915.940	0.0156732
916.018	0.0156319
916.096	0.0156516
916.174	0.0155464
916.253	0.0156810
916.331	0.0155811
916.409	0.0157549
916.487	0.0157141
916.565	0.0157179
916.643	0.0157625
916.721	0.0158510
916.799	0.0157750
916.878	0.0158966
916.956	0.0157947
917.034	0.0158785
917.112	0.0159028
917.190	0.0158927
917.268	0.0158685
917.346	0.0158989
917.424	0.0158556
917.503	0.0158453
917.581	0.0157458
917.659	0.0158273
917.737	0.0157759
917.815	0.0157803
917.893	0.0157323
917.971	0.0157840
918.049	0.0159409
918.128	0.0157376
918.206	0.0157424
918.284	0.0157553
918.362	0.0157289
918.440	0.0157114
918.518	0.0158173
918.596	0.0157037
918.674	0.0156525
918.753	0.0157410
918.831	0.0157520
918.909	0.0156514
918.987	0.0156309
919.065	0.0156190
919.143	0.0156909
919.221	0.0156859
919.299	0.0157748
919.378	0.0156891
919.456	0.0156544
919.534	0.0156763
919.612	0.0157671
919.690	0.0157493
919.768	0.0157484
919.846	0.0156929
919.924	0.0157556
920.003	0.0157431
920.081	0.0158053
920.159	0.0158005
920.237	0.0157464
920.315	0.0157928
920.393	0.0158778
920.471	0.0159437
920.549	0.0158178
920.628	0.0159036
920.706	0.0159954
920.784	0.0157651
920.862	0.0159112
920.940	0.0159059
921.018	0.0158047
921.096	0.0160089
921.174	0.0158392
921.253	0.0159476
921.331	0.0160018
921.409	0.0159395
921.487	0.0159399
921.565	0.0158884
921.643	0.0159403
921.721	0.0159136
921.799	0.0160133
921.878	0.0158677
921.956	0.0156822
922.034	0.0158186
922.112	0.0158476
922.190	0.0157784
922.268	0.0158276
922.346	0.0158804
922.424	0.0157327
922.503	0.0157497
922.581	0.0157857
922.659	0.0157634
922.737	0.0159116
922.815	0.0158592
922.893	0.0157122
922.971	0.0158518
923.049	0.0158728
923.128	0.0157518
923.206	0.0158846
923.284	0.0158810
923.362	0.0159428
923.440	0.0159361
923.518	0.0159348
923.596	0.0159621
923.674	0.0158228
923.753	0.0158521
923.831	0.0159315
923.909	0.0160317
923.987	0.0158639
924.065	0.0159466
924.143	0.0159711
924.221	0.0159646
924.299	0.0159103
924.378	0.0159619
924.456	0.0158745
924.534	0.0158255
924.612	0.0158720
924.690	0.0158263
924.768	0.0158134
924.846	0.0157948
924.924	0.0157817
925.003	0.0157509
925.081	0.0158895
925.159	0.0157747
925.237	0.0156647
925.315	0.0157658
925.393	0.0157685
925.471	0.0157266
925.549	0.0156327
925.628	0.0155933
925.706	0.0155947
925.784	0.0156768
925.862	0.0155100
925.940	0.0155178
926.018	0.0155537
926.096	0.0155999
926.174	0.0156349
926.253	0.0155571
926.331	0.0157054
926.409	0.0156458
926.487	0.0156112
926.565	0.0158899
926.643	0.0156745
926.721	0.0156820
926.799	0.0158212
926.878	0.0157143
926.956	0.0157399
927.034	0.0158665
927.112	0.0158003
927.190	0.0157629
927.268	0.0157841
927.346	0.0159160
927.424	0.0158197
927.503	0.0158032
927.581	0.0157962
927.659	0.0157917
927.737	0.0158468
927.815	0.0158933
927.893	0.0158131
927.971	0.0158431
928.049	0.0159245
928.128	0.0158302
928.206	0.0158908
928.284	0.0158675
928.362	0.0158855
928.440	0.0157199
928.518	0.0157622
928.596	0.0158774
928.674	0.0156702
928.753	0.0157221
928.831	0.0158480
928.909	0.0158866
928.987	0.0158058
929.065	0.0156824
929.143	0.0157063
929.221	0.0158092
929.299	0.0156938
929.378	0.0155834
929.456	0.0157545
929.534	0.0158569
929.612	0.0156242
929.690	0.0156774
929.768	0.0157362
929.846	0.0156194
929.924	0.0155300
930.003	0.0156994
930.081	0.0155926
930.159	0.0156788
930.237	0.0156291
930.315	0.0156250
930.393	0.0156494
930.471	0.0156422
930.549	0.0157285
930.628	0.0156024
930.706	0.0155570
930.784	0.0157382
930.862	0.0157362
930.940	0.0156397
931.018	0.0156258
931.096	0.0157504
931.174	0.0156146
931.253	0.0156145
931.331	0.0157505
931.409	0.0156160
931.487	0.0158088
931.565	0.0157224
931.643	0.0156175
931.721	0.0157005
931.799	0.0156593
931.878	0.0156962
931.956	0.0156161
932.034	0.0155215
932.112	0.0155838
932.190	0.0156399
932.268	0.0157314
932.346	0.0155195
932.424	0.0154499
932.503	0.0154524
932.581	0.0155147
932.659	0.0156128
932.737	0.0155756
932.815	0.0156828
932.893	0.0155687
932.971	0.0155719
933.049	0.0155443
933.128	0.0154947
933.206	0.0157085
933.284	0.0155160
933.362	0.0155489
933.440	0.0156223
933.518	0.0156632
933.596	0.0155638
933.674	0.0154218
933.753	0.0155953
933.831	0.0156002
933.909	0.0156271
933.987	0.0155812
934.065	0.0154314
934.143	0.0155348
934.221	0.0155015
934.299	0.0155053
934.378	0.0155798
934.456	0.0155774
934.534	0.0154594
934.612	0.0155660
934.690	0.0154929
934.768	0.0154747
934.846	0.0157111
934.924	0.0154422
935.003	0.0155070
935.081	0.0154958
935.159	0.0155396
935.237	0.0155521
935.315	0.0154016
935.393	0.0153727
935.471	0.0154889
935.549	0.0153745
935.628	0.0154517
935.706	0.0153504
935.784	0.0154407
935.862	0.0154581
935.940	0.0152990
936.018	0.0154008
936.096	0.0153836
936.174	0.0152431
936.253	0.0153739
936.331	0.0153986
936.409	0.0154031
936.487	0.0153757
936.565	0.0154976
936.643	0.0155658
936.721	0.0154201
936.799	0.0153740
936.878	0.0155004
936.956	0.0155397
937.034	0.0154552
937.112	0.0154604
937.190	0.0155730
937.268	0.0155853
937.346	0.0155836
937.424	0.0155888
937.503	0.0155294
937.581	0.0155628
937.659	0.0154816
937.737	0.0156283
937.815	0.0156794
937.893	0.0158000
937.971	0.0156309
938.049	0.0157726
938.128	0.0156595
938.206	0.0157258
938.284	0.0156300
938.362	0.0156857
938.440	0.0157780
938.518	0.0156578
938.596	0.0158072
938.674	0.0157362
938.753	0.0156081
938.831	0.0157281
938.909	0.0157307
938.987	0.0157034
939.065	0.0156721
939.143	0.0157265
939.221	0.0155910
939.299	0.0156385
939.378	0.0158004
939.456	0.0156906
939.534	0.0156178
939.612	0.0157283
939.690	0.0156715
939.768	0.0156789
939.846	0.0157521
939.924	0.0156651
940.003	0.0157216
940.081	0.0157359
940.159	0.0157217
940.237	0.0157558
940.315	0.0156218
940.393	0.0158309
940.471	0.0157742
940.549	0.0157793
940.628	0.0158562
940.706	0.0158089
940.784	0.0157774
940.862	0.0158409
940.940	0.0157326
941.018	0.0157062
941.096	0.0159068
941.174	0.0158198
941.253	0.0157953
941.331	0.0159369
941.409	0.0158362
941.487	0.0158881
941.565	0.0158622
941.643	0.0159020
941.721	0.0159991
941.799	0.0158910
941.878	0.0159207
941.956	0.0159289
942.034	0.0157822
942.112	0.0159597
942.190	0.0158693
942.268	0.0158164
942.346	0.0158508
942.424	0.0158974
942.503	0.0157882
942.581	0.0158021
942.659	0.0159280
942.737	0.0158040
942.815	0.0156915
942.893	0.0159020
942.971	0.0156169
943.049	0.0156245
943.128	0.0157479
943.206	0.0157258
943.284	0.0156419
943.362	0.0155550
943.440	0.0156299
943.518	0.0156093
943.596	0.0155354
943.674	0.0156010
943.753	0.0156435
943.831	0.0156960
943.909	0.0156842
943.987	0.0157085
944.065	0.0155613
944.143	0.0156660
944.221	0.0156764
944.299	0.0155434
944.378	0.0156628
944.456	0.0157928
944.534	0.0156390
944.612	0.0156724
944.690	0.0156564
944.768	0.0155186
944.846	0.0156518
944.924	0.0157402
945.003	0.0157345
945.081	0.0157979
945.159	0.0158135
945.237	0.0158182
945.315	0.0157136
945.393	0.0157879
945.471	0.0158320
945.549	0.0159130
945.628	0.0157886
945.706	0.0159095
945.784	0.0158946
945.862	0.0159756
945.940	0.0156886
946.018	0.0158198
946.096	0.0159098
946.174	0.0157552
946.253	0.0158018
946.331	0.0157873
946.409	0.0158443
946.487	0.0158051
946.565	0.0156419
946.643	0.0158478
946.721	0.0158607
946.799	0.0158157
946.878	0.0158407
946.956	0.0158215
947.034	0.0158009
947.112	0.0157168
947.190	0.0158536
947.268	0.0158817
947.346	0.0158655
947.424	0.0156734
947.503	0.0159137
947.581	0.0160182
947.659	0.0159253
947.737	0.0158590
947.815	0.0158369
947.893	0.0158582
947.971	0.0159054
948.049	0.0159542
948.128	0.0160275
948.206	0.0159392
948.284	0.0160007
948.362	0.0160352
948.440	0.0160390
948.518	0.0159649
948.596	0.0160612
948.674	0.0159518
948.753	0.0161118
948.831	0.0160166
948.909	0.0159875
948.987	0.0161254
949.065	0.0160174
949.143	0.0159673
949.221	0.0159204
949.299	0.0158877
949.378	0.0158228
949.456	0.0159234
949.534	0.0158161
949.612	0.0159522
949.690	0.0158835
949.768	0.0158089
949.846	0.0159729
949.924	0.0158042
