06/29/2022	23:22:01	Ver.	4.1	UNKNOWN
Optical Delay	630.002507	Delta X		0.078125	Sweeps	1	Scan Rate	0/0
Coordinates	Axis 1	NaN	Axis 2	NaN	Axis 3	NaN	Axis 4	NaN	Axis 5	NaN	Axis 6	0.000000
TX Power	0.000000	RX Power	0.000000

630.003	0.0157983
630.081	0.0159354
630.159	0.0161146
630.237	0.0159043
630.315	0.0158228
630.393	0.0159959
630.471	0.0159576
630.549	0.0160606
630.628	0.0160281
630.706	0.0160542
630.784	0.0160353
630.862	0.0160210
630.940	0.0160529
631.018	0.0160153
631.096	0.0160984
631.174	0.0161662
631.253	0.0161195
631.331	0.0161517
631.409	0.0161100
631.487	0.0161669
631.565	0.0161386
631.643	0.0161598
631.721	0.0161594
631.799	0.0159886
631.878	0.0160619
631.956	0.0161685
632.034	0.0162924
632.112	0.0162099
632.190	0.0161458
632.268	0.0161930
632.346	0.0162432
632.424	0.0162173
632.503	0.0162256
632.581	0.0162074
632.659	0.0162747
632.737	0.0160740
632.815	0.0162389
632.893	0.0162706
632.971	0.0162560
633.049	0.0161714
633.128	0.0162844
633.206	0.0161953
633.284	0.0159991
633.362	0.0160188
633.440	0.0161965
633.518	0.0161563
633.596	0.0161443
633.674	0.0160613
633.753	0.0159728
633.831	0.0159880
633.909	0.0160840
633.987	0.0160863
634.065	0.0160616
634.143	0.0161787
634.221	0.0160297
634.299	0.0160719
634.378	0.0159713
634.456	0.0159095
634.534	0.0159282
634.612	0.0159789
634.690	0.0160869
634.768	0.0159243
634.846	0.0160425
634.924	0.0159808
635.003	0.0159386
635.081	0.0159037
635.159	0.0158974
635.237	0.0159547
635.315	0.0159811
635.393	0.0159764
635.471	0.0160904
635.549	0.0159961
635.628	0.0159253
635.706	0.0158691
635.784	0.0159520
635.862	0.0159689
635.940	0.0156988
636.018	0.0157259
636.096	0.0156718
636.174	0.0157138
636.253	0.0158083
636.331	0.0157293
636.409	0.0157493
636.487	0.0155857
636.565	0.0158028
636.643	0.0158000
636.721	0.0156674
636.799	0.0157611
636.878	0.0156998
636.956	0.0157025
637.034	0.0155692
637.112	0.0156009
637.190	0.0156888
637.268	0.0156486
637.346	0.0156602
637.424	0.0155805
637.503	0.0155859
637.581	0.0156356
637.659	0.0156032
637.737	0.0156781
637.815	0.0155918
637.893	0.0156387
637.971	0.0156580
638.049	0.0155780
638.128	0.0156230
638.206	0.0156773
638.284	0.0157539
638.362	0.0154942
638.440	0.0155891
638.518	0.0158165
638.596	0.0157241
638.674	0.0156011
638.753	0.0155644
638.831	0.0156644
638.909	0.0157722
638.987	0.0155784
639.065	0.0155473
639.143	0.0158144
639.221	0.0156651
639.299	0.0155727
639.378	0.0156403
639.456	0.0156646
639.534	0.0157117
639.612	0.0158202
639.690	0.0156865
639.768	0.0155705
639.846	0.0156847
639.924	0.0156673
640.003	0.0156038
640.081	0.0158485
640.159	0.0158373
640.237	0.0157555
640.315	0.0158966
640.393	0.0157255
640.471	0.0158269
640.549	0.0159321
640.628	0.0157645
640.706	0.0156767
640.784	0.0158243
640.862	0.0158739
640.940	0.0157337
641.018	0.0159139
641.096	0.0158385
641.174	0.0159332
641.253	0.0159798
641.331	0.0160105
641.409	0.0159891
641.487	0.0159229
641.565	0.0160219
641.643	0.0159959
641.721	0.0160999
641.799	0.0160095
641.878	0.0160039
641.956	0.0160039
642.034	0.0161371
642.112	0.0161289
642.190	0.0161170
642.268	0.0161436
642.346	0.0161343
642.424	0.0160571
642.503	0.0161246
642.581	0.0162011
642.659	0.0161602
642.737	0.0161748
642.815	0.0161714
642.893	0.0161918
642.971	0.0160944
643.049	0.0161784
643.128	0.0161825
643.206	0.0160771
643.284	0.0161026
643.362	0.0161642
643.440	0.0162572
643.518	0.0161621
643.596	0.0160884
643.674	0.0160942
643.753	0.0161458
643.831	0.0161971
643.909	0.0160662
643.987	0.0161353
644.065	0.0161734
644.143	0.0160818
644.221	0.0161084
644.299	0.0161437
644.378	0.0161581
644.456	0.0161360
644.534	0.0161111
644.612	0.0161748
644.690	0.0159830
644.768	0.0160798
644.846	0.0160553
644.924	0.0160262
645.003	0.0160280
645.081	0.0161169
645.159	0.0161100
645.237	0.0159637
645.315	0.0159946
645.393	0.0160543
645.471	0.0160375
645.549	0.0160718
645.628	0.0159525
645.706	0.0159666
645.784	0.0158974
645.862	0.0159110
645.940	0.0158257
646.018	0.0158940
646.096	0.0158340
646.174	0.0159593
646.253	0.0159111
646.331	0.0157837
646.409	0.0159608
646.487	0.0158476
646.565	0.0158299
646.643	0.0159167
646.721	0.0158713
646.799	0.0158169
646.878	0.0157509
646.956	0.0157780
647.034	0.0157770
647.112	0.0159941
647.190	0.0157934
647.268	0.0158150
647.346	0.0158266
647.424	0.0157938
647.503	0.0158041
647.581	0.0158228
647.659	0.0157450
647.737	0.0157548
647.815	0.0157993
647.893	0.0157651
647.971	0.0157156
648.049	0.0158425
648.128	0.0159047
648.206	0.0158372
648.284	0.0158994
648.362	0.0157909
648.440	0.0159002
648.518	0.0157033
648.596	0.0158555
648.674	0.0157776
648.753	0.0157813
648.831	0.0157151
648.909	0.0156844
648.987	0.0157182
649.065	0.0158377
649.143	0.0158260
649.221	0.0157146
649.299	0.0157256
649.378	0.0157980
649.456	0.0158029
649.534	0.0157911
649.612	0.0157656
649.690	0.0157947
649.768	0.0156938
649.846	0.0157460
649.924	0.0157352
650.003	0.0157287
650.081	0.0158298
650.159	0.0157045
650.237	0.0157955
650.315	0.0155212
650.393	0.0157311
650.471	0.0157368
650.549	0.0157758
650.628	0.0157594
650.706	0.0157294
650.784	0.0156113
650.862	0.0156499
650.940	0.0156828
651.018	0.0157899
651.096	0.0156662
651.174	0.0158636
651.253	0.0155727
651.331	0.0156506
651.409	0.0157658
651.487	0.0156913
651.565	0.0157327
651.643	0.0158624
651.721	0.0158162
651.799	0.0158576
651.878	0.0158465
651.956	0.0158856
652.034	0.0158807
652.112	0.0158153
652.190	0.0158916
652.268	0.0157978
652.346	0.0157859
652.424	0.0158819
652.503	0.0158820
652.581	0.0158904
652.659	0.0158144
652.737	0.0158179
652.815	0.0158073
652.893	0.0159003
652.971	0.0159064
653.049	0.0158203
653.128	0.0159204
653.206	0.0159826
653.284	0.0158380
653.362	0.0159032
653.440	0.0160303
653.518	0.0158925
653.596	0.0158626
653.674	0.0158968
653.753	0.0159531
653.831	0.0159304
653.909	0.0159171
653.987	0.0159893
654.065	0.0158920
654.143	0.0158984
654.221	0.0160518
654.299	0.0159142
654.378	0.0159088
654.456	0.0158540
654.534	0.0158676
654.612	0.0159251
654.690	0.0159707
654.768	0.0157949
654.846	0.0158429
654.924	0.0159309
655.003	0.0158698
655.081	0.0159206
655.159	0.0159087
655.237	0.0159611
655.315	0.0159209
655.393	0.0158786
655.471	0.0158716
655.549	0.0158054
655.628	0.0158926
655.706	0.0159200
655.784	0.0159882
655.862	0.0157475
655.940	0.0158870
656.018	0.0159045
656.096	0.0158982
656.174	0.0160046
656.253	0.0159225
656.331	0.0157961
656.409	0.0157689
656.487	0.0158835
656.565	0.0160377
656.643	0.0158085
656.721	0.0158070
656.799	0.0158408
656.878	0.0158688
656.956	0.0160246
657.034	0.0159475
657.112	0.0159416
657.190	0.0158904
657.268	0.0160173
657.346	0.0158449
657.424	0.0159694
657.503	0.0158499
657.581	0.0158432
657.659	0.0159327
657.737	0.0158794
657.815	0.0158481
657.893	0.0157964
657.971	0.0159815
658.049	0.0159286
658.128	0.0159100
658.206	0.0159603
658.284	0.0159837
658.362	0.0160577
658.440	0.0158912
658.518	0.0157973
658.596	0.0159818
658.674	0.0158530
658.753	0.0158809
658.831	0.0160466
658.909	0.0159541
658.987	0.0159085
659.065	0.0159435
659.143	0.0159843
659.221	0.0159941
659.299	0.0160071
659.378	0.0160001
659.456	0.0160053
659.534	0.0159251
659.612	0.0159840
659.690	0.0159978
659.768	0.0159534
659.846	0.0158821
659.924	0.0159291
660.003	0.0160651
660.081	0.0160999
660.159	0.0159536
660.237	0.0158872
660.315	0.0159840
660.393	0.0159487
660.471	0.0160607
660.549	0.0160872
660.628	0.0160081
660.706	0.0158498
660.784	0.0159308
660.862	0.0159089
660.940	0.0159329
661.018	0.0158646
661.096	0.0159734
661.174	0.0159146
661.253	0.0158632
661.331	0.0159873
661.409	0.0159109
661.487	0.0159382
661.565	0.0159071
661.643	0.0158397
661.721	0.0159261
661.799	0.0158165
661.878	0.0159834
661.956	0.0159532
662.034	0.0158277
662.112	0.0158807
662.190	0.0159625
662.268	0.0158771
662.346	0.0158863
662.424	0.0158136
662.503	0.0159624
662.581	0.0159239
662.659	0.0158964
662.737	0.0158770
662.815	0.0159361
662.893	0.0159441
662.971	0.0159963
663.049	0.0159172
663.128	0.0157815
663.206	0.0158284
663.284	0.0159599
663.362	0.0158311
663.440	0.0160194
663.518	0.0158966
663.596	0.0159070
663.674	0.0159016
663.753	0.0159834
663.831	0.0158962
663.909	0.0158644
663.987	0.0158662
664.065	0.0158427
664.143	0.0158893
664.221	0.0159067
664.299	0.0159315
664.378	0.0159188
664.456	0.0160318
664.534	0.0159429
664.612	0.0158725
664.690	0.0159013
664.768	0.0158899
664.846	0.0159002
664.924	0.0159631
665.003	0.0159142
665.081	0.0159470
665.159	0.0159196
665.237	0.0158844
665.315	0.0161205
665.393	0.0161207
665.471	0.0159220
665.549	0.0159588
665.628	0.0160473
665.706	0.0159919
665.784	0.0159781
665.862	0.0159829
665.940	0.0158725
666.018	0.0158342
666.096	0.0160007
666.174	0.0160256
666.253	0.0159499
666.331	0.0160027
666.409	0.0159223
666.487	0.0158681
666.565	0.0159245
666.643	0.0158408
666.721	0.0159934
666.799	0.0159507
666.878	0.0159008
666.956	0.0159943
667.034	0.0157506
667.112	0.0159184
667.190	0.0159048
667.268	0.0159396
667.346	0.0159169
667.424	0.0158792
667.503	0.0159233
667.581	0.0158949
667.659	0.0157254
667.737	0.0157317
667.815	0.0158819
667.893	0.0158542
667.971	0.0160341
668.049	0.0158976
668.128	0.0158332
668.206	0.0157368
668.284	0.0158572
668.362	0.0158898
668.440	0.0158038
668.518	0.0158229
668.596	0.0157154
668.674	0.0158273
668.753	0.0159020
668.831	0.0157977
668.909	0.0159203
668.987	0.0158015
669.065	0.0159298
669.143	0.0158766
669.221	0.0157941
669.299	0.0157883
669.378	0.0156641
669.456	0.0158804
669.534	0.0158704
669.612	0.0156847
669.690	0.0158210
669.768	0.0158868
669.846	0.0156787
669.924	0.0157024
670.003	0.0157645
670.081	0.0158479
670.159	0.0157887
670.237	0.0157187
670.315	0.0156077
670.393	0.0158048
670.471	0.0158380
670.549	0.0159646
670.628	0.0157761
670.706	0.0157100
670.784	0.0156992
670.862	0.0159511
670.940	0.0159672
671.018	0.0157791
671.096	0.0157385
671.174	0.0157493
671.253	0.0157761
671.331	0.0157751
671.409	0.0158898
671.487	0.0159719
671.565	0.0157259
671.643	0.0157936
671.721	0.0159524
671.799	0.0158450
671.878	0.0158084
671.956	0.0158060
672.034	0.0158961
672.112	0.0159037
672.190	0.0159328
672.268	0.0160139
672.346	0.0159120
672.424	0.0158765
672.503	0.0158958
672.581	0.0159846
672.659	0.0158607
672.737	0.0158298
672.815	0.0160738
672.893	0.0158701
672.971	0.0160583
673.049	0.0159369
673.128	0.0158975
673.206	0.0158588
673.284	0.0156865
673.362	0.0159741
673.440	0.0158243
673.518	0.0158955
673.596	0.0158857
673.674	0.0158839
673.753	0.0158999
673.831	0.0159432
673.909	0.0158489
673.987	0.0158536
674.065	0.0158725
674.143	0.0159718
674.221	0.0159530
674.299	0.0159753
674.378	0.0160156
674.456	0.0157130
674.534	0.0157923
674.612	0.0158966
674.690	0.0157945
674.768	0.0158076
674.846	0.0158446
674.924	0.0157606
675.003	0.0158619
675.081	0.0157907
675.159	0.0159567
675.237	0.0157478
675.315	0.0157996
675.393	0.0157545
675.471	0.0156861
675.549	0.0157281
675.628	0.0157500
675.706	0.0158397
675.784	0.0158441
675.862	0.0158776
675.940	0.0159050
676.018	0.0157029
676.096	0.0158625
676.174	0.0157585
676.253	0.0157433
676.331	0.0159362
676.409	0.0158228
676.487	0.0158302
676.565	0.0157724
676.643	0.0157413
676.721	0.0158588
676.799	0.0158912
676.878	0.0158221
676.956	0.0158199
677.034	0.0158367
677.112	0.0158975
677.190	0.0159080
677.268	0.0159190
677.346	0.0159104
677.424	0.0158258
677.503	0.0158609
677.581	0.0158491
677.659	0.0157374
677.737	0.0158037
677.815	0.0160010
677.893	0.0157753
677.971	0.0158772
678.049	0.0159313
678.128	0.0157959
678.206	0.0157752
678.284	0.0158337
678.362	0.0159740
678.440	0.0159647
678.518	0.0158449
678.596	0.0158532
678.674	0.0158193
678.753	0.0158075
678.831	0.0158318
678.909	0.0159458
678.987	0.0159521
679.065	0.0158733
679.143	0.0159264
679.221	0.0160387
679.299	0.0160083
679.378	0.0159063
679.456	0.0160249
679.534	0.0159785
679.612	0.0158820
679.690	0.0160085
679.768	0.0159871
679.846	0.0159232
679.924	0.0159995
680.003	0.0160025
680.081	0.0158456
680.159	0.0161127
680.237	0.0160552
680.315	0.0159753
680.393	0.0160325
680.471	0.0159931
680.549	0.0161089
680.628	0.0160654
680.706	0.0159612
680.784	0.0159599
680.862	0.0160326
680.940	0.0162286
681.018	0.0160058
681.096	0.0159996
681.174	0.0160605
681.253	0.0160595
681.331	0.0161552
681.409	0.0161588
681.487	0.0161223
681.565	0.0160818
681.643	0.0160555
681.721	0.0160924
681.799	0.0160319
681.878	0.0160061
681.956	0.0160221
682.034	0.0160110
682.112	0.0160799
682.190	0.0161373
682.268	0.0160840
682.346	0.0159636
682.424	0.0160538
682.503	0.0161173
682.581	0.0161288
682.659	0.0160448
682.737	0.0160311
682.815	0.0160932
682.893	0.0159193
682.971	0.0159743
683.049	0.0160143
683.128	0.0160663
683.206	0.0159079
683.284	0.0159750
683.362	0.0159591
683.440	0.0159641
683.518	0.0159287
683.596	0.0158824
683.674	0.0159330
683.753	0.0158900
683.831	0.0157755
683.909	0.0158398
683.987	0.0158305
684.065	0.0159377
684.143	0.0158408
684.221	0.0159153
684.299	0.0156670
684.378	0.0156464
684.456	0.0158637
684.534	0.0158952
684.612	0.0159148
684.690	0.0159541
684.768	0.0159195
684.846	0.0160123
684.924	0.0160816
685.003	0.0159683
685.081	0.0159577
685.159	0.0160037
685.237	0.0160314
685.315	0.0159466
685.393	0.0159502
685.471	0.0158212
685.549	0.0158923
685.628	0.0159572
685.706	0.0159632
685.784	0.0159234
685.862	0.0158873
685.940	0.0158530
686.018	0.0157677
686.096	0.0158083
686.174	0.0158368
686.253	0.0157301
686.331	0.0158352
686.409	0.0158947
686.487	0.0158714
686.565	0.0156909
686.643	0.0157581
686.721	0.0156751
686.799	0.0155898
686.878	0.0157035
686.956	0.0157159
687.034	0.0156758
687.112	0.0157327
687.190	0.0157646
687.268	0.0156757
687.346	0.0156512
687.424	0.0156656
687.503	0.0157526
687.581	0.0156733
687.659	0.0158321
687.737	0.0158593
687.815	0.0157112
687.893	0.0157818
687.971	0.0156803
688.049	0.0157530
688.128	0.0157716
688.206	0.0158108
688.284	0.0158008
688.362	0.0158873
688.440	0.0158694
688.518	0.0159824
688.596	0.0159673
688.674	0.0159016
688.753	0.0158950
688.831	0.0159037
688.909	0.0159505
688.987	0.0159430
689.065	0.0159692
689.143	0.0161458
689.221	0.0160071
689.299	0.0160346
689.378	0.0160491
689.456	0.0163744
689.534	0.0161691
689.612	0.0162486
689.690	0.0161349
689.768	0.0161292
689.846	0.0163019
689.924	0.0163232
690.003	0.0162901
690.081	0.0162861
690.159	0.0162473
690.237	0.0163708
690.315	0.0164316
690.393	0.0164539
690.471	0.0162486
690.549	0.0162350
690.628	0.0163368
690.706	0.0162887
690.784	0.0162310
690.862	0.0164965
690.940	0.0164838
691.018	0.0164204
691.096	0.0163023
691.174	0.0162180
691.253	0.0162345
691.331	0.0163431
691.409	0.0162694
691.487	0.0162608
691.565	0.0160146
691.643	0.0162217
691.721	0.0162551
691.799	0.0162199
691.878	0.0161739
691.956	0.0161241
692.034	0.0162653
692.112	0.0161612
692.190	0.0161124
692.268	0.0161523
692.346	0.0162308
692.424	0.0161415
692.503	0.0161686
692.581	0.0162045
692.659	0.0161526
692.737	0.0161675
692.815	0.0161817
692.893	0.0162411
692.971	0.0162147
693.049	0.0160763
693.128	0.0161741
693.206	0.0160942
693.284	0.0161572
693.362	0.0161176
693.440	0.0161140
693.518	0.0161712
693.596	0.0162389
693.674	0.0161153
693.753	0.0160280
693.831	0.0160117
693.909	0.0159776
693.987	0.0160147
694.065	0.0160513
694.143	0.0159249
694.221	0.0159745
694.299	0.0159375
694.378	0.0159671
694.456	0.0159351
694.534	0.0159153
694.612	0.0158858
694.690	0.0159123
694.768	0.0159002
694.846	0.0159328
694.924	0.0159901
695.003	0.0158179
695.081	0.0159032
695.159	0.0158652
695.237	0.0158010
695.315	0.0157620
695.393	0.0159365
695.471	0.0157789
695.549	0.0157899
695.628	0.0158895
695.706	0.0157823
695.784	0.0158079
695.862	0.0157916
695.940	0.0158048
696.018	0.0157598
696.096	0.0157598
696.174	0.0158534
696.253	0.0156512
696.331	0.0156081
696.409	0.0157378
696.487	0.0157218
696.565	0.0157079
696.643	0.0157653
696.721	0.0156097
696.799	0.0156014
696.878	0.0156670
696.956	0.0155724
697.034	0.0157205
697.112	0.0156643
697.190	0.0156104
697.268	0.0155693
697.346	0.0157397
697.424	0.0158072
697.503	0.0156424
697.581	0.0156908
697.659	0.0158352
697.737	0.0157201
697.815	0.0156440
697.893	0.0158423
697.971	0.0157841
698.049	0.0156482
698.128	0.0155858
698.206	0.0157899
698.284	0.0158395
698.362	0.0156876
698.440	0.0156366
698.518	0.0157078
698.596	0.0155605
698.674	0.0157147
698.753	0.0157027
698.831	0.0156664
698.909	0.0158191
698.987	0.0157579
699.065	0.0157033
699.143	0.0156702
699.221	0.0159374
699.299	0.0158246
699.378	0.0158727
699.456	0.0157557
699.534	0.0159399
699.612	0.0159756
699.690	0.0158723
699.768	0.0159653
699.846	0.0159696
699.924	0.0160339
700.003	0.0159713
700.081	0.0159959
700.159	0.0161313
700.237	0.0159570
700.315	0.0158831
700.393	0.0159718
700.471	0.0159716
700.549	0.0159274
700.628	0.0158065
700.706	0.0159331
700.784	0.0157465
700.862	0.0158216
700.940	0.0158413
701.018	0.0159257
701.096	0.0159386
701.174	0.0159761
701.253	0.0158644
701.331	0.0159789
701.409	0.0158972
701.487	0.0158595
701.565	0.0159517
701.643	0.0158705
701.721	0.0159991
701.799	0.0160321
701.878	0.0159470
701.956	0.0159431
702.034	0.0158213
702.112	0.0158319
702.190	0.0159403
702.268	0.0158701
702.346	0.0158442
702.424	0.0157951
702.503	0.0158769
702.581	0.0158860
702.659	0.0159031
702.737	0.0158226
702.815	0.0159070
702.893	0.0159597
702.971	0.0159336
703.049	0.0158652
703.128	0.0158527
703.206	0.0159953
703.284	0.0160187
703.362	0.0160985
703.440	0.0160648
703.518	0.0160657
703.596	0.0160265
703.674	0.0160590
703.753	0.0160722
703.831	0.0161094
703.909	0.0161723
703.987	0.0160335
704.065	0.0160964
704.143	0.0160207
704.221	0.0159985
704.299	0.0159454
704.378	0.0160395
704.456	0.0159650
704.534	0.0160079
704.612	0.0159795
704.690	0.0159556
704.768	0.0158409
704.846	0.0158811
704.924	0.0159989
705.003	0.0160166
705.081	0.0160332
705.159	0.0159338
705.237	0.0159507
705.315	0.0159944
705.393	0.0160829
705.471	0.0159751
705.549	0.0159734
705.628	0.0161861
705.706	0.0160638
705.784	0.0161430
705.862	0.0160863
705.940	0.0159833
706.018	0.0162273
706.096	0.0159876
706.174	0.0160007
706.253	0.0160743
706.331	0.0161461
706.409	0.0160217
706.487	0.0159885
706.565	0.0159089
706.643	0.0157431
706.721	0.0158278
706.799	0.0158279
706.878	0.0158382
706.956	0.0159891
707.034	0.0158714
707.112	0.0159176
707.190	0.0158354
707.268	0.0159712
707.346	0.0158946
707.424	0.0159766
707.503	0.0160564
707.581	0.0159341
707.659	0.0161294
707.737	0.0161721
707.815	0.0162000
707.893	0.0162647
707.971	0.0161710
708.049	0.0161953
708.128	0.0163087
708.206	0.0164053
708.284	0.0160909
708.362	0.0161753
708.440	0.0161764
708.518	0.0160419
708.596	0.0160951
708.674	0.0160648
708.753	0.0160056
708.831	0.0158932
708.909	0.0159954
708.987	0.0159274
709.065	0.0158318
709.143	0.0159170
709.221	0.0159733
709.299	0.0159350
709.378	0.0157985
709.456	0.0157851
709.534	0.0158823
709.612	0.0159338
709.690	0.0158976
709.768	0.0158820
709.846	0.0157011
709.924	0.0157803
710.003	0.0158551
710.081	0.0159871
710.159	0.0158202
710.237	0.0156941
710.315	0.0156901
710.393	0.0156336
710.471	0.0157786
710.549	0.0157285
710.628	0.0157054
710.706	0.0157027
710.784	0.0156858
710.862	0.0155923
710.940	0.0156429
711.018	0.0158801
711.096	0.0159096
711.174	0.0159666
711.253	0.0159760
711.331	0.0160120
711.409	0.0159348
711.487	0.0161548
711.565	0.0161335
711.643	0.0161944
711.721	0.0163251
711.799	0.0163095
711.878	0.0163487
711.956	0.0164029
712.034	0.0162332
712.112	0.0162200
712.190	0.0162339
712.268	0.0164149
712.346	0.0163055
712.424	0.0161946
712.503	0.0161470
712.581	0.0160223
712.659	0.0160833
712.737	0.0159550
712.815	0.0159766
712.893	0.0160260
712.971	0.0159305
713.049	0.0159091
713.128	0.0159388
713.206	0.0159210
713.284	0.0157818
713.362	0.0158529
713.440	0.0158617
713.518	0.0159791
713.596	0.0159502
713.674	0.0158727
713.753	0.0159258
713.831	0.0158710
713.909	0.0158023
713.987	0.0160389
714.065	0.0159322
714.143	0.0159402
714.221	0.0159276
714.299	0.0160915
714.378	0.0160059
714.456	0.0159100
714.534	0.0159801
714.612	0.0161080
714.690	0.0160019
714.768	0.0159428
714.846	0.0159952
714.924	0.0160472
715.003	0.0160917
715.081	0.0160808
715.159	0.0160803
715.237	0.0162239
715.315	0.0162378
715.393	0.0162484
715.471	0.0162699
715.549	0.0161337
715.628	0.0163623
715.706	0.0162237
715.784	0.0163232
715.862	0.0162424
715.940	0.0161742
716.018	0.0162662
716.096	0.0163713
716.174	0.0163196
716.253	0.0162495
716.331	0.0162115
716.409	0.0159837
716.487	0.0160784
716.565	0.0160216
716.643	0.0159722
716.721	0.0159676
716.799	0.0160133
716.878	0.0157795
716.956	0.0158002
717.034	0.0157927
717.112	0.0157150
717.190	0.0156603
717.268	0.0156421
717.346	0.0155988
717.424	0.0156050
717.503	0.0156500
717.581	0.0156046
717.659	0.0156873
717.737	0.0156422
717.815	0.0157954
717.893	0.0159946
717.971	0.0158629
718.049	0.0160140
718.128	0.0159995
718.206	0.0159714
718.284	0.0162872
718.362	0.0163001
718.440	0.0162482
718.518	0.0162363
718.596	0.0162943
718.674	0.0164455
718.753	0.0163434
718.831	0.0163355
718.909	0.0161563
718.987	0.0162467
719.065	0.0160807
719.143	0.0161057
719.221	0.0160547
719.299	0.0159356
719.378	0.0157551
719.456	0.0156777
719.534	0.0155518
719.612	0.0155997
719.690	0.0153846
719.768	0.0153386
719.846	0.0153800
719.924	0.0151450
720.003	0.0151892
720.081	0.0152017
720.159	0.0152255
720.237	0.0152902
720.315	0.0150688
720.393	0.0150870
720.471	0.0151731
720.549	0.0151575
720.628	0.0151345
720.706	0.0151382
720.784	0.0153661
720.862	0.0152258
720.940	0.0152986
721.018	0.0154519
721.096	0.0155861
721.174	0.0155933
721.253	0.0156551
721.331	0.0157471
721.409	0.0156804
721.487	0.0156533
721.565	0.0157906
721.643	0.0157624
721.721	0.0159402
721.799	0.0158230
721.878	0.0159755
721.956	0.0161522
722.034	0.0160559
722.112	0.0160880
722.190	0.0161789
722.268	0.0161546
722.346	0.0160674
722.424	0.0161922
722.503	0.0160807
722.581	0.0162896
722.659	0.0162417
722.737	0.0161958
722.815	0.0159797
722.893	0.0159803
722.971	0.0159210
723.049	0.0159546
723.128	0.0158340
723.206	0.0157204
723.284	0.0157606
723.362	0.0157141
723.440	0.0155402
723.518	0.0154556
723.596	0.0154020
723.674	0.0153347
723.753	0.0152648
723.831	0.0151971
723.909	0.0153326
723.987	0.0152215
724.065	0.0153801
724.143	0.0153712
724.221	0.0153249
724.299	0.0152686
724.378	0.0152916
724.456	0.0154102
724.534	0.0154446
724.612	0.0155656
724.690	0.0157242
724.768	0.0157044
724.846	0.0157448
724.924	0.0157397
725.003	0.0158755
725.081	0.0158736
725.159	0.0160259
725.237	0.0160103
725.315	0.0159901
725.393	0.0162239
725.471	0.0160849
725.549	0.0161716
725.628	0.0161507
725.706	0.0160662
725.784	0.0163837
725.862	0.0164695
725.940	0.0164025
726.018	0.0164377
726.096	0.0163969
726.174	0.0163249
726.253	0.0163605
726.331	0.0163163
726.409	0.0165090
726.487	0.0163600
726.565	0.0164324
726.643	0.0163832
726.721	0.0162426
726.799	0.0161926
726.878	0.0162337
726.956	0.0161318
727.034	0.0158420
727.112	0.0157841
727.190	0.0157486
727.268	0.0157469
727.346	0.0154655
727.424	0.0153330
727.503	0.0152516
727.581	0.0152377
727.659	0.0149237
727.737	0.0149377
727.815	0.0148776
727.893	0.0147708
727.971	0.0148245
728.049	0.0148403
728.128	0.0149113
728.206	0.0149750
728.284	0.0148316
728.362	0.0149990
728.440	0.0150117
728.518	0.0151891
728.596	0.0153922
728.674	0.0154060
728.753	0.0154837
728.831	0.0157685
728.909	0.0159521
728.987	0.0157784
729.065	0.0159360
729.143	0.0162373
729.221	0.0164020
729.299	0.0164188
729.378	0.0165871
729.456	0.0164819
729.534	0.0166303
729.612	0.0166237
729.690	0.0165426
729.768	0.0167461
729.846	0.0167827
729.924	0.0165704
730.003	0.0165823
730.081	0.0165279
730.159	0.0166293
730.237	0.0163850
730.315	0.0165379
730.393	0.0164280
730.471	0.0163284
730.549	0.0162512
730.628	0.0161530
730.706	0.0161805
730.784	0.0160028
730.862	0.0158354
730.940	0.0157934
731.018	0.0155826
731.096	0.0155349
731.174	0.0152827
731.253	0.0151546
731.331	0.0152030
731.409	0.0150604
731.487	0.0150452
731.565	0.0150063
731.643	0.0149551
731.721	0.0147929
731.799	0.0146484
731.878	0.0148280
731.956	0.0147713
732.034	0.0147179
732.112	0.0147807
732.190	0.0148535
732.268	0.0148418
732.346	0.0150739
732.424	0.0150648
732.503	0.0151918
732.581	0.0155001
732.659	0.0155476
732.737	0.0156808
732.815	0.0159888
732.893	0.0161244
732.971	0.0161997
733.049	0.0164888
733.128	0.0165895
733.206	0.0167797
733.284	0.0168135
733.362	0.0167939
733.440	0.0169680
733.518	0.0170068
733.596	0.0169588
733.674	0.0170657
733.753	0.0169083
733.831	0.0169254
733.909	0.0167593
733.987	0.0167437
734.065	0.0165418
734.143	0.0165949
734.221	0.0163228
734.299	0.0161201
734.378	0.0160442
734.456	0.0158066
734.534	0.0157764
734.612	0.0156507
734.690	0.0154463
734.768	0.0154529
734.846	0.0153695
734.924	0.0152898
735.003	0.0151193
735.081	0.0151582
735.159	0.0152256
735.237	0.0151266
735.315	0.0151012
735.393	0.0151237
735.471	0.0149940
735.549	0.0151506
735.628	0.0150964
735.706	0.0153345
735.784	0.0151888
735.862	0.0153083
735.940	0.0154166
736.018	0.0153680
736.096	0.0154977
736.174	0.0157359
736.253	0.0156678
736.331	0.0158945
736.409	0.0158503
736.487	0.0161078
736.565	0.0161983
736.643	0.0163055
736.721	0.0164226
736.799	0.0163747
736.878	0.0165195
736.956	0.0165063
737.034	0.0164142
737.112	0.0164340
737.190	0.0165950
737.268	0.0165178
737.346	0.0166566
737.424	0.0164574
737.503	0.0163533
737.581	0.0162943
737.659	0.0162477
737.737	0.0161888
737.815	0.0159254
737.893	0.0159020
737.971	0.0158777
738.049	0.0157876
738.128	0.0155089
738.206	0.0154902
738.284	0.0155579
738.362	0.0152991
738.440	0.0153469
738.518	0.0151933
738.596	0.0150517
738.674	0.0150716
738.753	0.0150865
738.831	0.0150478
738.909	0.0151467
738.987	0.0151685
739.065	0.0152218
739.143	0.0150786
739.221	0.0154554
739.299	0.0153972
739.378	0.0154488
739.456	0.0155297
739.534	0.0156601
739.612	0.0156857
739.690	0.0157605
739.768	0.0157779
739.846	0.0158099
739.924	0.0158777
740.003	0.0158309
740.081	0.0159785
740.159	0.0160688
740.237	0.0159857
740.315	0.0161260
740.393	0.0159967
740.471	0.0160316
740.549	0.0161366
740.628	0.0161319
740.706	0.0161459
740.784	0.0160976
740.862	0.0160258
740.940	0.0159218
741.018	0.0160914
741.096	0.0160397
741.174	0.0160800
741.253	0.0160372
741.331	0.0161118
741.409	0.0160599
741.487	0.0160254
741.565	0.0159109
741.643	0.0158243
741.721	0.0159300
741.799	0.0158347
741.878	0.0159854
741.956	0.0158157
742.034	0.0158064
742.112	0.0156718
742.190	0.0156762
742.268	0.0156939
742.346	0.0156021
742.424	0.0155371
742.503	0.0153898
742.581	0.0154764
742.659	0.0151636
742.737	0.0152477
742.815	0.0152580
742.893	0.0153766
742.971	0.0153625
743.049	0.0153459
743.128	0.0152619
743.206	0.0153183
743.284	0.0154363
743.362	0.0154228
743.440	0.0154084
743.518	0.0155084
743.596	0.0154413
743.674	0.0155618
743.753	0.0156279
743.831	0.0158556
743.909	0.0158434
743.987	0.0158367
744.065	0.0158923
744.143	0.0159721
744.221	0.0159093
744.299	0.0160652
744.378	0.0161031
744.456	0.0160589
744.534	0.0161272
744.612	0.0160991
744.690	0.0161412
744.768	0.0160482
744.846	0.0160854
744.924	0.0161469
745.003	0.0159916
745.081	0.0159686
745.159	0.0159342
745.237	0.0160653
745.315	0.0160728
745.393	0.0160255
745.471	0.0161192
745.549	0.0160284
745.628	0.0159473
745.706	0.0159192
745.784	0.0159753
745.862	0.0160303
745.940	0.0159399
746.018	0.0159016
746.096	0.0159578
746.174	0.0158262
746.253	0.0159462
746.331	0.0161040
746.409	0.0159670
746.487	0.0159052
746.565	0.0159300
746.643	0.0158105
746.721	0.0156759
746.799	0.0157583
746.878	0.0157903
746.956	0.0158512
747.034	0.0158498
747.112	0.0157867
747.190	0.0158512
747.268	0.0159061
747.346	0.0159879
747.424	0.0159293
747.503	0.0159518
747.581	0.0160672
747.659	0.0158633
747.737	0.0159422
747.815	0.0161741
747.893	0.0160547
747.971	0.0159877
748.049	0.0159589
748.128	0.0160315
748.206	0.0158559
748.284	0.0157209
748.362	0.0157473
748.440	0.0157137
748.518	0.0155942
748.596	0.0157294
748.674	0.0156203
748.753	0.0155611
748.831	0.0155289
748.909	0.0154348
748.987	0.0154300
749.065	0.0153429
749.143	0.0152558
749.221	0.0153597
749.299	0.0154218
749.378	0.0154122
749.456	0.0154617
749.534	0.0156095
749.612	0.0156387
749.690	0.0156485
749.768	0.0155734
749.846	0.0158574
749.924	0.0160433
750.003	0.0159353
750.081	0.0161516
750.159	0.0162740
750.237	0.0162267
750.315	0.0162119
750.393	0.0163080
750.471	0.0165816
750.549	0.0165913
750.628	0.0165216
750.706	0.0164584
750.784	0.0166628
750.862	0.0166446
750.940	0.0165015
751.018	0.0165577
751.096	0.0166445
751.174	0.0166190
751.253	0.0165669
751.331	0.0164052
751.409	0.0164353
751.487	0.0163671
751.565	0.0163877
751.643	0.0162550
751.721	0.0161372
751.799	0.0159666
751.878	0.0160349
751.956	0.0158802
752.034	0.0158701
752.112	0.0160563
752.190	0.0158949
752.268	0.0157768
752.346	0.0156728
752.424	0.0158202
752.503	0.0156458
752.581	0.0156563
752.659	0.0157286
752.737	0.0156794
752.815	0.0156071
752.893	0.0154601
752.971	0.0155670
753.049	0.0154930
753.128	0.0155651
753.206	0.0156070
753.284	0.0155155
753.362	0.0153784
753.440	0.0155984
753.518	0.0155614
753.596	0.0156606
753.674	0.0155698
753.753	0.0155595
753.831	0.0155914
753.909	0.0156277
753.987	0.0154812
754.065	0.0155230
754.143	0.0155369
754.221	0.0156330
754.299	0.0156210
754.378	0.0154787
754.456	0.0155281
754.534	0.0156856
754.612	0.0156391
754.690	0.0157417
754.768	0.0158246
754.846	0.0159225
754.924	0.0159358
755.003	0.0159808
755.081	0.0159462
755.159	0.0160337
755.237	0.0161552
755.315	0.0163242
755.393	0.0161799
755.471	0.0161363
755.549	0.0162189
755.628	0.0163718
755.706	0.0162759
755.784	0.0164616
755.862	0.0164421
755.940	0.0163023
756.018	0.0163831
756.096	0.0163148
756.174	0.0162042
756.253	0.0164492
756.331	0.0163117
756.409	0.0161458
756.487	0.0162453
756.565	0.0161345
756.643	0.0160711
756.721	0.0160010
756.799	0.0161124
756.878	0.0160139
756.956	0.0159789
757.034	0.0158167
757.112	0.0158491
757.190	0.0157639
757.268	0.0157285
757.346	0.0157769
757.424	0.0156683
757.503	0.0155942
757.581	0.0154923
757.659	0.0154792
757.737	0.0155213
757.815	0.0154191
757.893	0.0154144
757.971	0.0153435
758.049	0.0155177
758.128	0.0153667
758.206	0.0154315
758.284	0.0152740
758.362	0.0154270
758.440	0.0154592
758.518	0.0155314
758.596	0.0155193
758.674	0.0155724
758.753	0.0155978
758.831	0.0154943
758.909	0.0155187
758.987	0.0155296
759.065	0.0157051
759.143	0.0157835
759.221	0.0158395
759.299	0.0157607
759.378	0.0158142
759.456	0.0159908
759.534	0.0159064
759.612	0.0158208
759.690	0.0159551
759.768	0.0158418
759.846	0.0158887
759.924	0.0158628
760.003	0.0156671
760.081	0.0158620
760.159	0.0159774
760.237	0.0159026
760.315	0.0159398
760.393	0.0158794
760.471	0.0158302
760.549	0.0159653
760.628	0.0160646
760.706	0.0158683
760.784	0.0158688
760.862	0.0158374
760.940	0.0158176
761.018	0.0159611
761.096	0.0159938
761.174	0.0158835
761.253	0.0159305
761.331	0.0159294
761.409	0.0159596
761.487	0.0160717
761.565	0.0159935
761.643	0.0160804
761.721	0.0160381
761.799	0.0160913
761.878	0.0159509
761.956	0.0161543
762.034	0.0163190
762.112	0.0162629
762.190	0.0162357
762.268	0.0163052
762.346	0.0161552
762.424	0.0163478
762.503	0.0162759
762.581	0.0163498
762.659	0.0161940
762.737	0.0160700
762.815	0.0161118
762.893	0.0161966
762.971	0.0160822
763.049	0.0160174
763.128	0.0158838
763.206	0.0158271
763.284	0.0157645
763.362	0.0157988
763.440	0.0156782
763.518	0.0155881
763.596	0.0155959
763.674	0.0153959
763.753	0.0154620
763.831	0.0154234
763.909	0.0154881
763.987	0.0155510
764.065	0.0153761
764.143	0.0153486
764.221	0.0155308
764.299	0.0155245
764.378	0.0154873
764.456	0.0154803
764.534	0.0156799
764.612	0.0156216
764.690	0.0156785
764.768	0.0158212
764.846	0.0157172
764.924	0.0157918
765.003	0.0157763
765.081	0.0158498
765.159	0.0160201
765.237	0.0159157
765.315	0.0158600
765.393	0.0158472
765.471	0.0158723
765.549	0.0159311
765.628	0.0158978
765.706	0.0159032
765.784	0.0159527
765.862	0.0156742
765.940	0.0159810
766.018	0.0158797
766.096	0.0157704
766.174	0.0159204
766.253	0.0158946
766.331	0.0160580
766.409	0.0161029
766.487	0.0161488
766.565	0.0161686
766.643	0.0162697
766.721	0.0162832
766.799	0.0162776
766.878	0.0164301
766.956	0.0164965
767.034	0.0164898
767.112	0.0164954
767.190	0.0165504
767.268	0.0166952
767.346	0.0166341
767.424	0.0166872
767.503	0.0166714
767.581	0.0167461
767.659	0.0167467
767.737	0.0167349
767.815	0.0166203
767.893	0.0166237
767.971	0.0165202
768.049	0.0164559
768.128	0.0165658
768.206	0.0164162
768.284	0.0163467
768.362	0.0161858
768.440	0.0161385
768.518	0.0160560
768.596	0.0159647
768.674	0.0160744
768.753	0.0160599
768.831	0.0159235
768.909	0.0158679
768.987	0.0158484
769.065	0.0158158
769.143	0.0157933
769.221	0.0156310
769.299	0.0156878
769.378	0.0155362
769.456	0.0155791
769.534	0.0155773
769.612	0.0155907
769.690	0.0157220
769.768	0.0154561
769.846	0.0155884
769.924	0.0156888
770.003	0.0156644
770.081	0.0155196
770.159	0.0157505
770.237	0.0158209
770.315	0.0157953
770.393	0.0160065
770.471	0.0159612
770.549	0.0160399
770.628	0.0161586
770.706	0.0162202
770.784	0.0164458
770.862	0.0162048
770.940	0.0162856
771.018	0.0163177
771.096	0.0162772
771.174	0.0162751
771.253	0.0162808
771.331	0.0161813
771.409	0.0162218
771.487	0.0163391
771.565	0.0160668
771.643	0.0159805
771.721	0.0160063
771.799	0.0159197
771.878	0.0158492
771.956	0.0158809
772.034	0.0158316
772.112	0.0156671
772.190	0.0156903
772.268	0.0157238
772.346	0.0157567
772.424	0.0157828
772.503	0.0158956
772.581	0.0158489
772.659	0.0158590
772.737	0.0158873
772.815	0.0158910
772.893	0.0159696
772.971	0.0161142
773.049	0.0161417
773.128	0.0161555
773.206	0.0162917
773.284	0.0162650
773.362	0.0162703
773.440	0.0162283
773.518	0.0163464
773.596	0.0164882
773.674	0.0164211
773.753	0.0165083
773.831	0.0164828
773.909	0.0165354
773.987	0.0162996
774.065	0.0164765
774.143	0.0163796
774.221	0.0163902
774.299	0.0160949
774.378	0.0161292
774.456	0.0159743
774.534	0.0159660
774.612	0.0159319
774.690	0.0156812
774.768	0.0157123
774.846	0.0157455
774.924	0.0156018
775.003	0.0154952
775.081	0.0154373
775.159	0.0154738
775.237	0.0155324
775.315	0.0155190
775.393	0.0154239
775.471	0.0155315
775.549	0.0154169
775.628	0.0155153
775.706	0.0155321
775.784	0.0156215
775.862	0.0156909
775.940	0.0155952
776.018	0.0156621
776.096	0.0157761
776.174	0.0157886
776.253	0.0157121
776.331	0.0157023
776.409	0.0157587
776.487	0.0159783
776.565	0.0159550
776.643	0.0158669
776.721	0.0160540
776.799	0.0160124
776.878	0.0160503
776.956	0.0160098
777.034	0.0161248
777.112	0.0161597
777.190	0.0162360
777.268	0.0160767
777.346	0.0161140
777.424	0.0160497
777.503	0.0160453
777.581	0.0160625
777.659	0.0160542
777.737	0.0161005
777.815	0.0159544
777.893	0.0161096
777.971	0.0159740
778.049	0.0158896
778.128	0.0159634
778.206	0.0160580
778.284	0.0159637
778.362	0.0159419
778.440	0.0159146
778.518	0.0159955
778.596	0.0160276
778.674	0.0159481
778.753	0.0159079
778.831	0.0160116
778.909	0.0159676
778.987	0.0160258
779.065	0.0160326
779.143	0.0161872
779.221	0.0161652
779.299	0.0161444
779.378	0.0161556
779.456	0.0162914
779.534	0.0162926
779.612	0.0163889
779.690	0.0162901
779.768	0.0163585
779.846	0.0163855
779.924	0.0163597
780.003	0.0162890
780.081	0.0162304
780.159	0.0162255
780.237	0.0161192
780.315	0.0161915
780.393	0.0160211
780.471	0.0160265
780.549	0.0159392
780.628	0.0159614
780.706	0.0158671
780.784	0.0158153
780.862	0.0156036
780.940	0.0155132
781.018	0.0155986
781.096	0.0154972
781.174	0.0155796
781.253	0.0155492
781.331	0.0155353
781.409	0.0155947
781.487	0.0154358
781.565	0.0155463
781.643	0.0154542
781.721	0.0155078
781.799	0.0155700
781.878	0.0155271
781.956	0.0155666
782.034	0.0156734
782.112	0.0157480
782.190	0.0158105
782.268	0.0159016
782.346	0.0159401
782.424	0.0159647
782.503	0.0160284
782.581	0.0160912
782.659	0.0161829
782.737	0.0162252
782.815	0.0162446
782.893	0.0162523
782.971	0.0162239
783.049	0.0163604
783.128	0.0162967
783.206	0.0162317
783.284	0.0163489
783.362	0.0164289
783.440	0.0162538
783.518	0.0162916
783.596	0.0162740
783.674	0.0162300
783.753	0.0162350
783.831	0.0161267
783.909	0.0162121
783.987	0.0161965
784.065	0.0161611
784.143	0.0161531
784.221	0.0160821
784.299	0.0160667
784.378	0.0159454
784.456	0.0160110
784.534	0.0160181
784.612	0.0160341
784.690	0.0161053
784.768	0.0159097
784.846	0.0159592
784.924	0.0159943
785.003	0.0158842
785.081	0.0160037
785.159	0.0158860
785.237	0.0158937
785.315	0.0159161
785.393	0.0157935
785.471	0.0159383
785.549	0.0159507
785.628	0.0158604
785.706	0.0158883
785.784	0.0160756
785.862	0.0159563
785.940	0.0159576
786.018	0.0160609
786.096	0.0158813
786.174	0.0158264
786.253	0.0160265
786.331	0.0160726
786.409	0.0159220
786.487	0.0157561
786.565	0.0158765
786.643	0.0159219
786.721	0.0159288
786.799	0.0157820
786.878	0.0157784
786.956	0.0157613
787.034	0.0158025
787.112	0.0157109
787.190	0.0156938
787.268	0.0154675
787.346	0.0155976
787.424	0.0158219
787.503	0.0157262
787.581	0.0156636
787.659	0.0156412
787.737	0.0156900
787.815	0.0158683
787.893	0.0156176
787.971	0.0157240
788.049	0.0157491
788.128	0.0158225
788.206	0.0158103
788.284	0.0159460
788.362	0.0159161
788.440	0.0158243
788.518	0.0161002
788.596	0.0160838
788.674	0.0160439
788.753	0.0161277
788.831	0.0161739
788.909	0.0161807
788.987	0.0161700
789.065	0.0161012
789.143	0.0162627
789.221	0.0161012
789.299	0.0159678
789.378	0.0161310
789.456	0.0160217
789.534	0.0159248
789.612	0.0159354
789.690	0.0159218
789.768	0.0159087
789.846	0.0159305
789.924	0.0158503
790.003	0.0156828
790.081	0.0159706
790.159	0.0157835
790.237	0.0158162
790.315	0.0158221
790.393	0.0158532
790.471	0.0159590
790.549	0.0157732
790.628	0.0158355
790.706	0.0159129
790.784	0.0157811
790.862	0.0158761
790.940	0.0157732
791.018	0.0158271
791.096	0.0159570
791.174	0.0158330
791.253	0.0159735
791.331	0.0159042
791.409	0.0159966
791.487	0.0160311
791.565	0.0158802
791.643	0.0159856
791.721	0.0159793
791.799	0.0160102
791.878	0.0160022
791.956	0.0162463
792.034	0.0160104
792.112	0.0160374
792.190	0.0161442
792.268	0.0161643
792.346	0.0160548
792.424	0.0160517
792.503	0.0160667
792.581	0.0159988
792.659	0.0159941
792.737	0.0161311
792.815	0.0161487
792.893	0.0160112
792.971	0.0160423
793.049	0.0160330
793.128	0.0158713
793.206	0.0159141
793.284	0.0158863
793.362	0.0158128
793.440	0.0158653
793.518	0.0157041
793.596	0.0157059
793.674	0.0157622
793.753	0.0158748
793.831	0.0158029
793.909	0.0157882
793.987	0.0157381
794.065	0.0158237
794.143	0.0160103
794.221	0.0158452
794.299	0.0158181
794.378	0.0157882
794.456	0.0158763
794.534	0.0159755
794.612	0.0159277
794.690	0.0159885
794.768	0.0160407
794.846	0.0161112
794.924	0.0159247
795.003	0.0158597
795.081	0.0160239
795.159	0.0159997
795.237	0.0160293
795.315	0.0160041
795.393	0.0160573
795.471	0.0160548
795.549	0.0161303
795.628	0.0160299
795.706	0.0158252
795.784	0.0159563
795.862	0.0159661
795.940	0.0159996
796.018	0.0158900
796.096	0.0159466
796.174	0.0160563
796.253	0.0160533
796.331	0.0160341
796.409	0.0158048
796.487	0.0160075
796.565	0.0159435
796.643	0.0158701
796.721	0.0159972
796.799	0.0159445
796.878	0.0158749
796.956	0.0159065
797.034	0.0159771
797.112	0.0158807
797.190	0.0159763
797.268	0.0159104
797.346	0.0158495
797.424	0.0159909
797.503	0.0159215
797.581	0.0158798
797.659	0.0157554
797.737	0.0158569
797.815	0.0157735
797.893	0.0158647
797.971	0.0157796
798.049	0.0157433
798.128	0.0156818
798.206	0.0157227
798.284	0.0158035
798.362	0.0158338
798.440	0.0157822
798.518	0.0158363
798.596	0.0156618
798.674	0.0157245
798.753	0.0157636
798.831	0.0157877
798.909	0.0157632
798.987	0.0157294
799.065	0.0157710
799.143	0.0157735
799.221	0.0158622
799.299	0.0158897
799.378	0.0157236
799.456	0.0157301
799.534	0.0157468
799.612	0.0158080
799.690	0.0156822
799.768	0.0156416
799.846	0.0156136
799.924	0.0155004
800.003	0.0155848
800.081	0.0156552
800.159	0.0156654
800.237	0.0155382
800.315	0.0153973
800.393	0.0153713
800.471	0.0154686
800.549	0.0157478
800.628	0.0155750
800.706	0.0154292
800.784	0.0154774
800.862	0.0156607
800.940	0.0156782
801.018	0.0156047
801.096	0.0158089
801.174	0.0157432
801.253	0.0158471
801.331	0.0159595
801.409	0.0158356
801.487	0.0158237
801.565	0.0160549
801.643	0.0159436
801.721	0.0159811
801.799	0.0160439
801.878	0.0159518
801.956	0.0160972
802.034	0.0160583
802.112	0.0158773
802.190	0.0159470
802.268	0.0160960
802.346	0.0160806
802.424	0.0160196
802.503	0.0160332
802.581	0.0159464
802.659	0.0157871
802.737	0.0157488
802.815	0.0158884
802.893	0.0157424
802.971	0.0157259
803.049	0.0158337
803.128	0.0157459
803.206	0.0158525
803.284	0.0158353
803.362	0.0158883
803.440	0.0157732
803.518	0.0159580
803.596	0.0159385
803.674	0.0158902
803.753	0.0159351
803.831	0.0159446
803.909	0.0158212
803.987	0.0159551
804.065	0.0158970
804.143	0.0159404
804.221	0.0158999
804.299	0.0159748
804.378	0.0158343
804.456	0.0160117
804.534	0.0159856
804.612	0.0160360
804.690	0.0159802
804.768	0.0159739
804.846	0.0160175
804.924	0.0160520
805.003	0.0161328
805.081	0.0161058
805.159	0.0159822
805.237	0.0160762
805.315	0.0162772
805.393	0.0162185
805.471	0.0160773
805.549	0.0160420
805.628	0.0161437
805.706	0.0162213
805.784	0.0162385
805.862	0.0161101
805.940	0.0161263
806.018	0.0160902
806.096	0.0159252
806.174	0.0159627
806.253	0.0159272
806.331	0.0159872
806.409	0.0158678
806.487	0.0158780
806.565	0.0158927
806.643	0.0157840
806.721	0.0157017
806.799	0.0156934
806.878	0.0155713
806.956	0.0156456
807.034	0.0157025
807.112	0.0156630
807.190	0.0156444
807.268	0.0154638
807.346	0.0155181
807.424	0.0155872
807.503	0.0155576
807.581	0.0157166
807.659	0.0155945
807.737	0.0156322
807.815	0.0155782
807.893	0.0156621
807.971	0.0158056
808.049	0.0158054
808.128	0.0157249
808.206	0.0157980
808.284	0.0157875
808.362	0.0159223
808.440	0.0158274
808.518	0.0157095
808.596	0.0157456
808.674	0.0158923
808.753	0.0159158
808.831	0.0158223
808.909	0.0157664
808.987	0.0160041
809.065	0.0159595
809.143	0.0159306
809.221	0.0159551
809.299	0.0160326
809.378	0.0160634
809.456	0.0159883
809.534	0.0161005
809.612	0.0160072
809.690	0.0161268
809.768	0.0159166
809.846	0.0159637
809.924	0.0160677
810.003	0.0161592
810.081	0.0160895
810.159	0.0160902
810.237	0.0160738
810.315	0.0160677
810.393	0.0162296
810.471	0.0160397
810.549	0.0160861
810.628	0.0160541
810.706	0.0159831
810.784	0.0160390
810.862	0.0160037
810.940	0.0159899
811.018	0.0160213
811.096	0.0160065
811.174	0.0158721
811.253	0.0159904
811.331	0.0160875
811.409	0.0159345
811.487	0.0160449
811.565	0.0159631
811.643	0.0159446
811.721	0.0157802
811.799	0.0159361
811.878	0.0160487
811.956	0.0159579
812.034	0.0158469
812.112	0.0160352
812.190	0.0161198
812.268	0.0159777
812.346	0.0159696
812.424	0.0159566
812.503	0.0159380
812.581	0.0159194
812.659	0.0158356
812.737	0.0158161
812.815	0.0158986
812.893	0.0158582
812.971	0.0158089
813.049	0.0158512
813.128	0.0159196
813.206	0.0157331
813.284	0.0156251
813.362	0.0158470
813.440	0.0158069
813.518	0.0157975
813.596	0.0158954
813.674	0.0157179
813.753	0.0156545
813.831	0.0157373
813.909	0.0157034
813.987	0.0156848
814.065	0.0157401
814.143	0.0158037
814.221	0.0157230
814.299	0.0156143
814.378	0.0155817
814.456	0.0157617
814.534	0.0157902
814.612	0.0157137
814.690	0.0156396
814.768	0.0157858
814.846	0.0157416
814.924	0.0158398
815.003	0.0157400
815.081	0.0157684
815.159	0.0158466
815.237	0.0157706
815.315	0.0157777
815.393	0.0157178
815.471	0.0157889
815.549	0.0157780
815.628	0.0156405
815.706	0.0156977
815.784	0.0155988
815.862	0.0155918
815.940	0.0156799
816.018	0.0155492
816.096	0.0154317
816.174	0.0154731
816.253	0.0154150
816.331	0.0153960
816.409	0.0155264
816.487	0.0155505
816.565	0.0154938
816.643	0.0155058
816.721	0.0155091
816.799	0.0154718
816.878	0.0155788
816.956	0.0156448
817.034	0.0154119
817.112	0.0155467
817.190	0.0155338
817.268	0.0155992
817.346	0.0157191
817.424	0.0157307
817.503	0.0156681
817.581	0.0157075
817.659	0.0158282
817.737	0.0156857
817.815	0.0157265
817.893	0.0158195
817.971	0.0158652
818.049	0.0159656
818.128	0.0159180
818.206	0.0159735
818.284	0.0158015
818.362	0.0159975
818.440	0.0159776
818.518	0.0159256
818.596	0.0159013
818.674	0.0160379
818.753	0.0160945
818.831	0.0159205
818.909	0.0160056
818.987	0.0158961
819.065	0.0159250
819.143	0.0158092
819.221	0.0159242
819.299	0.0158190
819.378	0.0159184
819.456	0.0157304
819.534	0.0156677
819.612	0.0158259
819.690	0.0157983
819.768	0.0158501
819.846	0.0157426
819.924	0.0157490
820.003	0.0157816
820.081	0.0156536
820.159	0.0156026
820.237	0.0156071
820.315	0.0155040
820.393	0.0156738
820.471	0.0155057
820.549	0.0156246
820.628	0.0156213
820.706	0.0156487
820.784	0.0155451
820.862	0.0154519
820.940	0.0156495
821.018	0.0156528
821.096	0.0156821
821.174	0.0155820
821.253	0.0156795
821.331	0.0157413
821.409	0.0155910
821.487	0.0156310
821.565	0.0156300
821.643	0.0157664
821.721	0.0156657
821.799	0.0156042
821.878	0.0156773
821.956	0.0157511
822.034	0.0156799
822.112	0.0157599
822.190	0.0157362
822.268	0.0157852
822.346	0.0158906
822.424	0.0157893
822.503	0.0159367
822.581	0.0158134
822.659	0.0157642
822.737	0.0159510
822.815	0.0157276
822.893	0.0159216
822.971	0.0157879
823.049	0.0158530
823.128	0.0159920
823.206	0.0157456
823.284	0.0158823
823.362	0.0158979
823.440	0.0159236
823.518	0.0157109
823.596	0.0156846
823.674	0.0157388
823.753	0.0157873
823.831	0.0157721
823.909	0.0158820
823.987	0.0157829
824.065	0.0156684
824.143	0.0156578
824.221	0.0157775
824.299	0.0157574
824.378	0.0158159
824.456	0.0156463
824.534	0.0158145
824.612	0.0158601
824.690	0.0158876
824.768	0.0158092
824.846	0.0158579
824.924	0.0158807
825.003	0.0159036
825.081	0.0161066
825.159	0.0160342
825.237	0.0159760
825.315	0.0159888
825.393	0.0159662
825.471	0.0159960
825.549	0.0160631
825.628	0.0161536
825.706	0.0161411
825.784	0.0159969
825.862	0.0161140
825.940	0.0160753
826.018	0.0160397
826.096	0.0160262
826.174	0.0159959
826.253	0.0159528
826.331	0.0159143
826.409	0.0160293
826.487	0.0160625
826.565	0.0160505
826.643	0.0159750
826.721	0.0159013
826.799	0.0162105
826.878	0.0159359
826.956	0.0160047
827.034	0.0160819
827.112	0.0160828
827.190	0.0159741
827.268	0.0159835
827.346	0.0159412
827.424	0.0159097
827.503	0.0159404
827.581	0.0159347
827.659	0.0158397
827.737	0.0159789
827.815	0.0157363
827.893	0.0158501
827.971	0.0158154
828.049	0.0158263
828.128	0.0156210
828.206	0.0157420
828.284	0.0158098
828.362	0.0156171
828.440	0.0156288
828.518	0.0156449
828.596	0.0157364
828.674	0.0157044
828.753	0.0157061
828.831	0.0155963
828.909	0.0156743
828.987	0.0156098
829.065	0.0156258
829.143	0.0156902
829.221	0.0157671
829.299	0.0157481
829.378	0.0157802
829.456	0.0159230
829.534	0.0157322
829.612	0.0158387
829.690	0.0158323
829.768	0.0159467
829.846	0.0159491
829.924	0.0159702
830.003	0.0160820
830.081	0.0160609
830.159	0.0160965
830.237	0.0161163
830.315	0.0160570
830.393	0.0160572
830.471	0.0161945
830.549	0.0161842
830.628	0.0162249
830.706	0.0161518
830.784	0.0160712
830.862	0.0160885
830.940	0.0160800
831.018	0.0159725
831.096	0.0160147
831.174	0.0160980
831.253	0.0158914
831.331	0.0159921
831.409	0.0158352
831.487	0.0158015
831.565	0.0157851
831.643	0.0157240
831.721	0.0157632
831.799	0.0157933
831.878	0.0157961
831.956	0.0157449
832.034	0.0158242
832.112	0.0157705
832.190	0.0156479
832.268	0.0157768
832.346	0.0157511
832.424	0.0158706
832.503	0.0159428
832.581	0.0159772
832.659	0.0159447
832.737	0.0159331
832.815	0.0159027
832.893	0.0159525
832.971	0.0158947
833.049	0.0158707
833.128	0.0160340
833.206	0.0159654
833.284	0.0159908
833.362	0.0159789
833.440	0.0160485
833.518	0.0159921
833.596	0.0160570
833.674	0.0160402
833.753	0.0159613
833.831	0.0160016
833.909	0.0160711
833.987	0.0158550
834.065	0.0159301
834.143	0.0159294
834.221	0.0159011
834.299	0.0160175
834.378	0.0161006
834.456	0.0160376
834.534	0.0158675
834.612	0.0159453
834.690	0.0159146
834.768	0.0159130
834.846	0.0158456
834.924	0.0159143
835.003	0.0158762
835.081	0.0158778
835.159	0.0158371
835.237	0.0158585
835.315	0.0158146
835.393	0.0158132
835.471	0.0158223
835.549	0.0158640
835.628	0.0158662
835.706	0.0159109
835.784	0.0157169
835.862	0.0157290
835.940	0.0159039
836.018	0.0157397
836.096	0.0157973
836.174	0.0158442
836.253	0.0157971
836.331	0.0158311
836.409	0.0158951
836.487	0.0160658
836.565	0.0159944
836.643	0.0160468
836.721	0.0159916
836.799	0.0159976
836.878	0.0160783
836.956	0.0159375
837.034	0.0160371
837.112	0.0160070
837.190	0.0159963
837.268	0.0161271
837.346	0.0160526
837.424	0.0160645
837.503	0.0160122
837.581	0.0159015
837.659	0.0160406
837.737	0.0159280
837.815	0.0159011
837.893	0.0159017
837.971	0.0157817
838.049	0.0158399
838.128	0.0158917
838.206	0.0158343
838.284	0.0157721
838.362	0.0156464
838.440	0.0157328
838.518	0.0156940
838.596	0.0156474
838.674	0.0157742
838.753	0.0156627
838.831	0.0156518
838.909	0.0156853
838.987	0.0155764
839.065	0.0155096
839.143	0.0156404
839.221	0.0155671
839.299	0.0155485
839.378	0.0157240
839.456	0.0155733
839.534	0.0156898
839.612	0.0156357
839.690	0.0156607
839.768	0.0156345
839.846	0.0156759
839.924	0.0156056
840.003	0.0156197
840.081	0.0156824
840.159	0.0155280
840.237	0.0154787
840.315	0.0156029
840.393	0.0156462
840.471	0.0157183
840.549	0.0156963
840.628	0.0157632
840.706	0.0157363
840.784	0.0156246
840.862	0.0158121
840.940	0.0157913
841.018	0.0157856
841.096	0.0159423
841.174	0.0157221
841.253	0.0158434
841.331	0.0157809
841.409	0.0158543
841.487	0.0158289
841.565	0.0158300
841.643	0.0158647
841.721	0.0157190
841.799	0.0158931
841.878	0.0158714
841.956	0.0158823
842.034	0.0159081
842.112	0.0157195
842.190	0.0159357
842.268	0.0158849
842.346	0.0157367
842.424	0.0158850
842.503	0.0156647
842.581	0.0156449
842.659	0.0157320
842.737	0.0157031
842.815	0.0157727
842.893	0.0156840
842.971	0.0156678
843.049	0.0157800
843.128	0.0157121
843.206	0.0156725
843.284	0.0158281
843.362	0.0158015
843.440	0.0157594
843.518	0.0158283
843.596	0.0158083
843.674	0.0158546
843.753	0.0159171
843.831	0.0159293
843.909	0.0158941
843.987	0.0159765
844.065	0.0159792
844.143	0.0159244
844.221	0.0158613
844.299	0.0159027
844.378	0.0160450
844.456	0.0160119
844.534	0.0159406
844.612	0.0160466
844.690	0.0160624
844.768	0.0160854
844.846	0.0161394
844.924	0.0160554
845.003	0.0160792
845.081	0.0159535
845.159	0.0160048
845.237	0.0161489
845.315	0.0160561
845.393	0.0161295
845.471	0.0160502
845.549	0.0161301
845.628	0.0160067
845.706	0.0161101
845.784	0.0159927
845.862	0.0160042
845.940	0.0160878
846.018	0.0159995
846.096	0.0159679
846.174	0.0160181
846.253	0.0161497
846.331	0.0159634
846.409	0.0159125
846.487	0.0160437
846.565	0.0160476
846.643	0.0159622
846.721	0.0159466
846.799	0.0160696
846.878	0.0161456
846.956	0.0160736
847.034	0.0159572
847.112	0.0161121
847.190	0.0159637
847.268	0.0161371
847.346	0.0160392
847.424	0.0159736
847.503	0.0161646
847.581	0.0161283
847.659	0.0160964
847.737	0.0161160
847.815	0.0160387
847.893	0.0160699
847.971	0.0160905
848.049	0.0160078
848.128	0.0161494
848.206	0.0160632
848.284	0.0160670
848.362	0.0160722
848.440	0.0161540
848.518	0.0161523
848.596	0.0161284
848.674	0.0162113
848.753	0.0159410
848.831	0.0160681
848.909	0.0161311
848.987	0.0161318
849.065	0.0161919
849.143	0.0161348
849.221	0.0160088
849.299	0.0161110
849.378	0.0160270
849.456	0.0160438
849.534	0.0160594
849.612	0.0159822
849.690	0.0160419
849.768	0.0160019
849.846	0.0157933
849.924	0.0158788
850.003	0.0157978
850.081	0.0158492
850.159	0.0159543
850.237	0.0158416
850.315	0.0157663
850.393	0.0158166
850.471	0.0157730
850.549	0.0157817
850.628	0.0158423
850.706	0.0158470
850.784	0.0159537
850.862	0.0159188
850.940	0.0158275
851.018	0.0158840
851.096	0.0157784
851.174	0.0158386
851.253	0.0158848
851.331	0.0159470
851.409	0.0159887
851.487	0.0159467
851.565	0.0160333
851.643	0.0159517
851.721	0.0159750
851.799	0.0160303
851.878	0.0159435
851.956	0.0159251
852.034	0.0158771
852.112	0.0161161
852.190	0.0158920
852.268	0.0159213
852.346	0.0158023
852.424	0.0158271
852.503	0.0159297
852.581	0.0159462
852.659	0.0158595
852.737	0.0158116
852.815	0.0158008
852.893	0.0158158
852.971	0.0157613
853.049	0.0157691
853.128	0.0158081
853.206	0.0157539
853.284	0.0158575
853.362	0.0157410
853.440	0.0156079
853.518	0.0156670
853.596	0.0157961
853.674	0.0157655
853.753	0.0156979
853.831	0.0157659
853.909	0.0156297
853.987	0.0157891
854.065	0.0156873
854.143	0.0157229
854.221	0.0157778
854.299	0.0158256
854.378	0.0157411
854.456	0.0157868
854.534	0.0157121
854.612	0.0156335
854.690	0.0156226
854.768	0.0156641
854.846	0.0156927
854.924	0.0157375
855.003	0.0157908
855.081	0.0157201
855.159	0.0158604
855.237	0.0157522
855.315	0.0156819
855.393	0.0156440
855.471	0.0157478
855.549	0.0157978
855.628	0.0157910
855.706	0.0157829
855.784	0.0157688
855.862	0.0158714
855.940	0.0158188
856.018	0.0157735
856.096	0.0157142
856.174	0.0158016
856.253	0.0158022
856.331	0.0157313
856.409	0.0157453
856.487	0.0158888
856.565	0.0159195
856.643	0.0158924
856.721	0.0159119
856.799	0.0158692
856.878	0.0158949
856.956	0.0158280
857.034	0.0159351
857.112	0.0159509
857.190	0.0159239
857.268	0.0158568
857.346	0.0158466
857.424	0.0158897
857.503	0.0158578
857.581	0.0159750
857.659	0.0159258
857.737	0.0159121
857.815	0.0157104
857.893	0.0158248
857.971	0.0159235
858.049	0.0158770
858.128	0.0158775
858.206	0.0158849
858.284	0.0157557
858.362	0.0158637
858.440	0.0158613
858.518	0.0159094
858.596	0.0158450
858.674	0.0159239
858.753	0.0159519
858.831	0.0158713
858.909	0.0159245
858.987	0.0159239
859.065	0.0158845
859.143	0.0158671
859.221	0.0157715
859.299	0.0159438
859.378	0.0158739
859.456	0.0156336
859.534	0.0157612
859.612	0.0156641
859.690	0.0157986
859.768	0.0157963
859.846	0.0156498
859.924	0.0157762
860.003	0.0156291
860.081	0.0156476
860.159	0.0157597
860.237	0.0157087
860.315	0.0157156
860.393	0.0156453
860.471	0.0156061
860.549	0.0157397
860.628	0.0156480
860.706	0.0156243
860.784	0.0157359
860.862	0.0157331
860.940	0.0158889
861.018	0.0158411
861.096	0.0157567
861.174	0.0159138
861.253	0.0157967
861.331	0.0158682
861.409	0.0157883
861.487	0.0157804
861.565	0.0159048
861.643	0.0159456
861.721	0.0157678
861.799	0.0158104
861.878	0.0158221
861.956	0.0157959
862.034	0.0159197
862.112	0.0158166
862.190	0.0158129
862.268	0.0159591
862.346	0.0158224
862.424	0.0158865
862.503	0.0157750
862.581	0.0158579
862.659	0.0158851
862.737	0.0157478
862.815	0.0158369
862.893	0.0158506
862.971	0.0159142
863.049	0.0159380
863.128	0.0159026
863.206	0.0158635
863.284	0.0159943
863.362	0.0158458
863.440	0.0159894
863.518	0.0160728
863.596	0.0160169
863.674	0.0158636
863.753	0.0158414
863.831	0.0159289
863.909	0.0160027
863.987	0.0160609
864.065	0.0160105
864.143	0.0158942
864.221	0.0159900
864.299	0.0160562
864.378	0.0159635
864.456	0.0161047
864.534	0.0159679
864.612	0.0158314
864.690	0.0159902
864.768	0.0160423
864.846	0.0159546
864.924	0.0160210
865.003	0.0158906
865.081	0.0159789
865.159	0.0157713
865.237	0.0157455
865.315	0.0158546
865.393	0.0158829
865.471	0.0158414
865.549	0.0156859
865.628	0.0155319
865.706	0.0158418
865.784	0.0156562
865.862	0.0157706
865.940	0.0156470
866.018	0.0156402
866.096	0.0155728
866.174	0.0156532
866.253	0.0155884
866.331	0.0155745
866.409	0.0155541
866.487	0.0155614
866.565	0.0154807
866.643	0.0156303
866.721	0.0155371
866.799	0.0156767
866.878	0.0157040
866.956	0.0156181
867.034	0.0158131
867.112	0.0157926
867.190	0.0157966
867.268	0.0159187
867.346	0.0158247
867.424	0.0158511
867.503	0.0159085
867.581	0.0159644
867.659	0.0160871
867.737	0.0160210
867.815	0.0161327
867.893	0.0160231
867.971	0.0161897
868.049	0.0161761
868.128	0.0162301
868.206	0.0163394
868.284	0.0161913
868.362	0.0161942
868.440	0.0161993
868.518	0.0162728
868.596	0.0161234
868.674	0.0159883
868.753	0.0161675
868.831	0.0161805
868.909	0.0160742
868.987	0.0161471
869.065	0.0160886
869.143	0.0161330
869.221	0.0161689
869.299	0.0160944
869.378	0.0160975
869.456	0.0162089
869.534	0.0160459
869.612	0.0160027
869.690	0.0161098
869.768	0.0162303
869.846	0.0162585
869.924	0.0162309
870.003	0.0161988
870.081	0.0161621
870.159	0.0163136
870.237	0.0162627
870.315	0.0160683
870.393	0.0161227
870.471	0.0162483
870.549	0.0162078
870.628	0.0161223
870.706	0.0161354
870.784	0.0161864
870.862	0.0162296
870.940	0.0160620
871.018	0.0161253
871.096	0.0160867
871.174	0.0160402
871.253	0.0160873
871.331	0.0161815
871.409	0.0162064
871.487	0.0160255
871.565	0.0159869
871.643	0.0160786
871.721	0.0160627
871.799	0.0160756
871.878	0.0160591
871.956	0.0161320
872.034	0.0160360
872.112	0.0160064
872.190	0.0158907
872.268	0.0160885
872.346	0.0160094
872.424	0.0158765
872.503	0.0159404
872.581	0.0160180
872.659	0.0159781
872.737	0.0159060
872.815	0.0159627
872.893	0.0160026
872.971	0.0160596
873.049	0.0158614
873.128	0.0160078
873.206	0.0158760
873.284	0.0159559
873.362	0.0158514
873.440	0.0159229
873.518	0.0158401
873.596	0.0159756
873.674	0.0159396
873.753	0.0160326
873.831	0.0160375
873.909	0.0160107
873.987	0.0159744
874.065	0.0160670
874.143	0.0160849
874.221	0.0158604
874.299	0.0160000
874.378	0.0160827
874.456	0.0160085
874.534	0.0162091
874.612	0.0161901
874.690	0.0159909
874.768	0.0160165
874.846	0.0160910
874.924	0.0160140
875.003	0.0159798
875.081	0.0161546
875.159	0.0161424
875.237	0.0160670
875.315	0.0162072
875.393	0.0161586
875.471	0.0162362
875.549	0.0161253
875.628	0.0161593
875.706	0.0162326
875.784	0.0162003
875.862	0.0162384
875.940	0.0162369
876.018	0.0162573
876.096	0.0162216
876.174	0.0162498
876.253	0.0161281
876.331	0.0161239
876.409	0.0161124
876.487	0.0161311
876.565	0.0161999
876.643	0.0161415
876.721	0.0160511
876.799	0.0160948
876.878	0.0160437
876.956	0.0161472
877.034	0.0160266
877.112	0.0160628
877.190	0.0159980
877.268	0.0159171
877.346	0.0159473
877.424	0.0160881
877.503	0.0159961
877.581	0.0158234
877.659	0.0159207
877.737	0.0159447
877.815	0.0157523
877.893	0.0158032
877.971	0.0157407
878.049	0.0159280
878.128	0.0160338
878.206	0.0157800
878.284	0.0158242
878.362	0.0158972
878.440	0.0158640
878.518	0.0158121
878.596	0.0158608
878.674	0.0159163
878.753	0.0157639
878.831	0.0156949
878.909	0.0157922
878.987	0.0159190
879.065	0.0157269
879.143	0.0158517
879.221	0.0158439
879.299	0.0159409
879.378	0.0158818
879.456	0.0159780
879.534	0.0158186
879.612	0.0157811
879.690	0.0157442
879.768	0.0157562
879.846	0.0159153
879.924	0.0158277
880.003	0.0158262
880.081	0.0158154
880.159	0.0158923
880.237	0.0159001
880.315	0.0159322
880.393	0.0158842
880.471	0.0158588
880.549	0.0158372
880.628	0.0159203
880.706	0.0157111
880.784	0.0157925
880.862	0.0157566
880.940	0.0158756
881.018	0.0158010
881.096	0.0158099
881.174	0.0157243
881.253	0.0158158
881.331	0.0159016
881.409	0.0157338
881.487	0.0158564
881.565	0.0158362
881.643	0.0157887
881.721	0.0158040
881.799	0.0158318
881.878	0.0157565
881.956	0.0156555
882.034	0.0156208
882.112	0.0158775
882.190	0.0157648
882.268	0.0157202
882.346	0.0158475
882.424	0.0157869
882.503	0.0158255
882.581	0.0158833
882.659	0.0159472
882.737	0.0159525
882.815	0.0159226
882.893	0.0157864
882.971	0.0158971
883.049	0.0159113
883.128	0.0158231
883.206	0.0158803
883.284	0.0159642
883.362	0.0159579
883.440	0.0159817
883.518	0.0159241
883.596	0.0157343
883.674	0.0159094
883.753	0.0159778
883.831	0.0158498
883.909	0.0159950
883.987	0.0158797
884.065	0.0161493
884.143	0.0158881
884.221	0.0159864
884.299	0.0158714
884.378	0.0159963
884.456	0.0159673
884.534	0.0158384
884.612	0.0158293
884.690	0.0159571
884.768	0.0159124
884.846	0.0158858
884.924	0.0158414
885.003	0.0158260
885.081	0.0158601
885.159	0.0157376
885.237	0.0156433
885.315	0.0158000
885.393	0.0157359
885.471	0.0156967
885.549	0.0156099
885.628	0.0157096
885.706	0.0156599
885.784	0.0156216
885.862	0.0155130
885.940	0.0155676
886.018	0.0154800
886.096	0.0155950
886.174	0.0155508
886.253	0.0155438
886.331	0.0156054
886.409	0.0155917
886.487	0.0156405
886.565	0.0154687
886.643	0.0156325
886.721	0.0155453
886.799	0.0157092
886.878	0.0157381
886.956	0.0156757
887.034	0.0157131
887.112	0.0156040
887.190	0.0155424
887.268	0.0156746
887.346	0.0156964
887.424	0.0156332
887.503	0.0157548
887.581	0.0157542
887.659	0.0157130
887.737	0.0157063
887.815	0.0157265
887.893	0.0157227
887.971	0.0157050
888.049	0.0158168
888.128	0.0159764
888.206	0.0157790
888.284	0.0157249
888.362	0.0158508
888.440	0.0159029
888.518	0.0158907
888.596	0.0159557
888.674	0.0159107
888.753	0.0160523
888.831	0.0161313
888.909	0.0159602
888.987	0.0160186
889.065	0.0160162
889.143	0.0160960
889.221	0.0160864
889.299	0.0159176
889.378	0.0159959
889.456	0.0160817
889.534	0.0158919
889.612	0.0160375
889.690	0.0160864
889.768	0.0160526
889.846	0.0159444
889.924	0.0158996
890.003	0.0159939
890.081	0.0160612
890.159	0.0159175
890.237	0.0159763
890.315	0.0160427
890.393	0.0158377
890.471	0.0158710
890.549	0.0160198
890.628	0.0159933
890.706	0.0159957
890.784	0.0158670
890.862	0.0160054
890.940	0.0160667
891.018	0.0159442
891.096	0.0160735
891.174	0.0160600
891.253	0.0159962
891.331	0.0160336
891.409	0.0161371
891.487	0.0160428
891.565	0.0161415
891.643	0.0162402
891.721	0.0162363
891.799	0.0162582
891.878	0.0160526
891.956	0.0161212
892.034	0.0162338
892.112	0.0162666
892.190	0.0160877
892.268	0.0161607
892.346	0.0161250
892.424	0.0162578
892.503	0.0161819
892.581	0.0161961
892.659	0.0162259
892.737	0.0160777
892.815	0.0162717
892.893	0.0160958
892.971	0.0160487
893.049	0.0160135
893.128	0.0160933
893.206	0.0161028
893.284	0.0160906
893.362	0.0159869
893.440	0.0160859
893.518	0.0160681
893.596	0.0159313
893.674	0.0160042
893.753	0.0161169
893.831	0.0161855
893.909	0.0160735
893.987	0.0159785
894.065	0.0158492
894.143	0.0161826
894.221	0.0160781
894.299	0.0160483
894.378	0.0160545
894.456	0.0159122
894.534	0.0159562
894.612	0.0160205
894.690	0.0159786
894.768	0.0160129
894.846	0.0159862
894.924	0.0159293
895.003	0.0159253
895.081	0.0158653
895.159	0.0158663
895.237	0.0159667
895.315	0.0160159
895.393	0.0159205
895.471	0.0159280
895.549	0.0159296
895.628	0.0157680
895.706	0.0159021
895.784	0.0158781
895.862	0.0157114
895.940	0.0156853
896.018	0.0157573
896.096	0.0158002
896.174	0.0156793
896.253	0.0158646
896.331	0.0156360
896.409	0.0157184
896.487	0.0156970
896.565	0.0156719
896.643	0.0157533
896.721	0.0155640
896.799	0.0157482
896.878	0.0157613
896.956	0.0157866
897.034	0.0157729
897.112	0.0158157
897.190	0.0157211
897.268	0.0158274
897.346	0.0157421
897.424	0.0157299
897.503	0.0157927
897.581	0.0157393
897.659	0.0157558
897.737	0.0158420
897.815	0.0158849
897.893	0.0158841
897.971	0.0157715
898.049	0.0159563
898.128	0.0160260
898.206	0.0158963
898.284	0.0157751
898.362	0.0158936
898.440	0.0159988
898.518	0.0158894
898.596	0.0158195
898.674	0.0158501
898.753	0.0159077
898.831	0.0160839
898.909	0.0160545
898.987	0.0159826
899.065	0.0159187
899.143	0.0159599
899.221	0.0160508
899.299	0.0160419
899.378	0.0161119
899.456	0.0159856
899.534	0.0161201
899.612	0.0160131
899.690	0.0160714
899.768	0.0161614
899.846	0.0162161
899.924	0.0161000
900.003	0.0162135
900.081	0.0162019
900.159	0.0161842
900.237	0.0160325
900.315	0.0160691
900.393	0.0161541
900.471	0.0161751
900.549	0.0161929
900.628	0.0162280
900.706	0.0162242
900.784	0.0161369
900.862	0.0161596
900.940	0.0162618
901.018	0.0162010
901.096	0.0162045
901.174	0.0161538
901.253	0.0163319
901.331	0.0162393
901.409	0.0163239
901.487	0.0160279
901.565	0.0162640
901.643	0.0163350
901.721	0.0162593
901.799	0.0162237
901.878	0.0162090
901.956	0.0161317
902.034	0.0160541
902.112	0.0161053
902.190	0.0160307
902.268	0.0161532
902.346	0.0160091
902.424	0.0159516
902.503	0.0159766
902.581	0.0160899
902.659	0.0160601
902.737	0.0161246
902.815	0.0160992
902.893	0.0160962
902.971	0.0159643
903.049	0.0159706
903.128	0.0160489
903.206	0.0161120
903.284	0.0160518
903.362	0.0160524
903.440	0.0160654
903.518	0.0160771
903.596	0.0161053
903.674	0.0159486
903.753	0.0159518
903.831	0.0160304
903.909	0.0159449
903.987	0.0158901
904.065	0.0160252
904.143	0.0160263
904.221	0.0160070
904.299	0.0159925
904.378	0.0159918
904.456	0.0160744
904.534	0.0158927
904.612	0.0160501
904.690	0.0158750
904.768	0.0159132
904.846	0.0160071
904.924	0.0159303
905.003	0.0158407
905.081	0.0158092
905.159	0.0158623
905.237	0.0159290
905.315	0.0158042
905.393	0.0159131
905.471	0.0159309
905.549	0.0158109
905.628	0.0158306
905.706	0.0157779
905.784	0.0158977
905.862	0.0159308
905.940	0.0160280
906.018	0.0158421
906.096	0.0157919
906.174	0.0157729
906.253	0.0158981
906.331	0.0157542
906.409	0.0157957
906.487	0.0158127
906.565	0.0158571
906.643	0.0158082
906.721	0.0157910
906.799	0.0158094
906.878	0.0158333
906.956	0.0157887
907.034	0.0157700
907.112	0.0158111
907.190	0.0158620
907.268	0.0158553
907.346	0.0158951
907.424	0.0158907
907.503	0.0159553
907.581	0.0159882
907.659	0.0159023
907.737	0.0159598
907.815	0.0159602
907.893	0.0158507
907.971	0.0158997
908.049	0.0159707
908.128	0.0158429
908.206	0.0159977
908.284	0.0159441
908.362	0.0157345
908.440	0.0159755
908.518	0.0158472
908.596	0.0157280
908.674	0.0158843
908.753	0.0158151
908.831	0.0159420
908.909	0.0158522
908.987	0.0157775
909.065	0.0157838
909.143	0.0157936
909.221	0.0156618
909.299	0.0158700
909.378	0.0158040
909.456	0.0158186
909.534	0.0157378
909.612	0.0157803
909.690	0.0158148
909.768	0.0157895
909.846	0.0157533
909.924	0.0158375
910.003	0.0159046
910.081	0.0158451
910.159	0.0157290
910.237	0.0157752
910.315	0.0156823
910.393	0.0157320
910.471	0.0156610
910.549	0.0156607
910.628	0.0157512
910.706	0.0156019
910.784	0.0157314
910.862	0.0157243
910.940	0.0157470
911.018	0.0157457
911.096	0.0156270
911.174	0.0156686
911.253	0.0158363
911.331	0.0155340
911.409	0.0157577
911.487	0.0157358
911.565	0.0157665
911.643	0.0157114
911.721	0.0156882
911.799	0.0157218
911.878	0.0156236
911.956	0.0157378
912.034	0.0158570
912.112	0.0158931
912.190	0.0158630
912.268	0.0158788
912.346	0.0158421
912.424	0.0157590
912.503	0.0157922
912.581	0.0159311
912.659	0.0158971
912.737	0.0158276
912.815	0.0159068
912.893	0.0158030
912.971	0.0158632
913.049	0.0157401
913.128	0.0158327
913.206	0.0158746
913.284	0.0159002
913.362	0.0157758
913.440	0.0158463
913.518	0.0159178
913.596	0.0158382
913.674	0.0157668
913.753	0.0159392
913.831	0.0159075
913.909	0.0156389
913.987	0.0159328
914.065	0.0158475
914.143	0.0157176
914.221	0.0156676
914.299	0.0157452
914.378	0.0157486
914.456	0.0156961
914.534	0.0159560
914.612	0.0157457
914.690	0.0158550
914.768	0.0157896
914.846	0.0158147
914.924	0.0157832
915.003	0.0158694
915.081	0.0160619
915.159	0.0159741
915.237	0.0157816
915.315	0.0159203
915.393	0.0158665
915.471	0.0159254
915.549	0.0160975
915.628	0.0160609
915.706	0.0160858
915.784	0.0160723
915.862	0.0160787
915.940	0.0159947
916.018	0.0160953
916.096	0.0160698
916.174	0.0160917
916.253	0.0161340
916.331	0.0161117
916.409	0.0161651
916.487	0.0161913
916.565	0.0160234
916.643	0.0161336
916.721	0.0162753
916.799	0.0161724
916.878	0.0159877
916.956	0.0160740
917.034	0.0161505
917.112	0.0160275
917.190	0.0161042
917.268	0.0159583
917.346	0.0161269
917.424	0.0160473
917.503	0.0161316
917.581	0.0160072
917.659	0.0159227
917.737	0.0159905
917.815	0.0162737
917.893	0.0160746
917.971	0.0160365
918.049	0.0159947
918.128	0.0160587
918.206	0.0159823
918.284	0.0160148
918.362	0.0161259
918.440	0.0161113
918.518	0.0159055
918.596	0.0160267
918.674	0.0160388
918.753	0.0161015
918.831	0.0159913
918.909	0.0160084
918.987	0.0160868
919.065	0.0159520
919.143	0.0160266
919.221	0.0160213
919.299	0.0159480
919.378	0.0158411
919.456	0.0160296
919.534	0.0161443
919.612	0.0158860
919.690	0.0159271
919.768	0.0158748
919.846	0.0160526
919.924	0.0160297
920.003	0.0159999
920.081	0.0160363
920.159	0.0159360
920.237	0.0159198
920.315	0.0160135
920.393	0.0159230
920.471	0.0158704
920.549	0.0159909
920.628	0.0158164
920.706	0.0158833
920.784	0.0158652
920.862	0.0160072
920.940	0.0158533
921.018	0.0158004
921.096	0.0158430
921.174	0.0157661
921.253	0.0158942
921.331	0.0158745
921.409	0.0158258
921.487	0.0158900
921.565	0.0158527
921.643	0.0157916
921.721	0.0157754
921.799	0.0157392
921.878	0.0156536
921.956	0.0157893
922.034	0.0157703
922.112	0.0157453
922.190	0.0158692
922.268	0.0157856
922.346	0.0157748
922.424	0.0158301
922.503	0.0157703
922.581	0.0158480
922.659	0.0157767
922.737	0.0158114
922.815	0.0160162
922.893	0.0158601
922.971	0.0158947
923.049	0.0158088
923.128	0.0159549
923.206	0.0158821
923.284	0.0158247
923.362	0.0159509
923.440	0.0158003
923.518	0.0158267
923.596	0.0159973
923.674	0.0159192
923.753	0.0159051
923.831	0.0158343
923.909	0.0160194
923.987	0.0158962
924.065	0.0157736
924.143	0.0159354
924.221	0.0157428
924.299	0.0157701
924.378	0.0158513
924.456	0.0158978
924.534	0.0158983
924.612	0.0158713
924.690	0.0159450
924.768	0.0158727
924.846	0.0159422
924.924	0.0158994
925.003	0.0158763
925.081	0.0159174
925.159	0.0157849
925.237	0.0158293
925.315	0.0157592
925.393	0.0158188
925.471	0.0158251
925.549	0.0158092
925.628	0.0158495
925.706	0.0157538
925.784	0.0158501
925.862	0.0157445
925.940	0.0157866
926.018	0.0155690
926.096	0.0156464
926.174	0.0157024
926.253	0.0157458
926.331	0.0157166
926.409	0.0156664
926.487	0.0157243
926.565	0.0158623
926.643	0.0157944
926.721	0.0156206
926.799	0.0158235
926.878	0.0158625
926.956	0.0158241
927.034	0.0158633
927.112	0.0158637
927.190	0.0159133
927.268	0.0157975
927.346	0.0158884
927.424	0.0158907
927.503	0.0158353
927.581	0.0158923
927.659	0.0158648
927.737	0.0158590
927.815	0.0158772
927.893	0.0158311
927.971	0.0158630
928.049	0.0159190
928.128	0.0157690
928.206	0.0156849
928.284	0.0157815
928.362	0.0159086
928.440	0.0157407
928.518	0.0158212
928.596	0.0158858
928.674	0.0157570
928.753	0.0157195
928.831	0.0156014
928.909	0.0157436
928.987	0.0157804
929.065	0.0158160
929.143	0.0156397
929.221	0.0157204
929.299	0.0157840
929.378	0.0156245
929.456	0.0156307
929.534	0.0155584
929.612	0.0156309
929.690	0.0156165
929.768	0.0157333
929.846	0.0156979
929.924	0.0157683
930.003	0.0156918
930.081	0.0156913
930.159	0.0156055
930.237	0.0155859
930.315	0.0157047
930.393	0.0156575
930.471	0.0154916
930.549	0.0157324
930.628	0.0157240
930.706	0.0155799
930.784	0.0157577
930.862	0.0156818
930.940	0.0157021
931.018	0.0158835
931.096	0.0157461
931.174	0.0157864
931.253	0.0158504
931.331	0.0159449
931.409	0.0158105
931.487	0.0158552
931.565	0.0158640
931.643	0.0158533
931.721	0.0158802
931.799	0.0156345
931.878	0.0158274
931.956	0.0159795
932.034	0.0158119
932.112	0.0159698
932.190	0.0158408
932.268	0.0157984
932.346	0.0158842
932.424	0.0158525
932.503	0.0159074
932.581	0.0157426
932.659	0.0158232
932.737	0.0158429
932.815	0.0157604
932.893	0.0157721
932.971	0.0159354
933.049	0.0157679
933.128	0.0158051
933.206	0.0158939
933.284	0.0160069
933.362	0.0158025
933.440	0.0158253
933.518	0.0159699
933.596	0.0158227
933.674	0.0157111
933.753	0.0159045
933.831	0.0159803
933.909	0.0158105
933.987	0.0159128
934.065	0.0159453
934.143	0.0158605
934.221	0.0158238
934.299	0.0159017
934.378	0.0157589
934.456	0.0158290
934.534	0.0159091
934.612	0.0158159
934.690	0.0156805
934.768	0.0157681
934.846	0.0158279
934.924	0.0159203
935.003	0.0157854
935.081	0.0158548
935.159	0.0159342
935.237	0.0159601
935.315	0.0158646
935.393	0.0157233
935.471	0.0158071
935.549	0.0158743
935.628	0.0157248
935.706	0.0159126
935.784	0.0159212
935.862	0.0157732
935.940	0.0159475
936.018	0.0159180
936.096	0.0157401
936.174	0.0159511
936.253	0.0159193
936.331	0.0158845
936.409	0.0158649
936.487	0.0158986
936.565	0.0158875
936.643	0.0159206
936.721	0.0161132
936.799	0.0158168
936.878	0.0158018
936.956	0.0158466
937.034	0.0158067
937.112	0.0159995
937.190	0.0158458
937.268	0.0158539
937.346	0.0158402
937.424	0.0158445
937.503	0.0160603
937.581	0.0159272
937.659	0.0159760
937.737	0.0158477
937.815	0.0158714
937.893	0.0158589
937.971	0.0158479
938.049	0.0159942
938.128	0.0160172
938.206	0.0158991
938.284	0.0159797
938.362	0.0158988
938.440	0.0159505
938.518	0.0159457
938.596	0.0159281
938.674	0.0160564
938.753	0.0159061
938.831	0.0159721
938.909	0.0159391
938.987	0.0159930
939.065	0.0160217
939.143	0.0160059
939.221	0.0159781
939.299	0.0160714
939.378	0.0159480
939.456	0.0159778
939.534	0.0159564
939.612	0.0159288
939.690	0.0160777
939.768	0.0159473
939.846	0.0159279
939.924	0.0159577
940.003	0.0159751
940.081	0.0160512
940.159	0.0161176
940.237	0.0160052
940.315	0.0159978
940.393	0.0160547
940.471	0.0160512
940.549	0.0161541
940.628	0.0160954
940.706	0.0160690
940.784	0.0160400
940.862	0.0160797
940.940	0.0161032
941.018	0.0161327
941.096	0.0160748
941.174	0.0161734
941.253	0.0162165
941.331	0.0161994
941.409	0.0161707
941.487	0.0163181
941.565	0.0161909
941.643	0.0162155
941.721	0.0163209
941.799	0.0162875
941.878	0.0162782
941.956	0.0163337
942.034	0.0163744
942.112	0.0165045
942.190	0.0161485
942.268	0.0162576
942.346	0.0163300
942.424	0.0163591
942.503	0.0162144
942.581	0.0163770
942.659	0.0163925
942.737	0.0163726
942.815	0.0162737
942.893	0.0161914
942.971	0.0161304
943.049	0.0162549
943.128	0.0162538
943.206	0.0162759
943.284	0.0161888
943.362	0.0162499
943.440	0.0161393
943.518	0.0160503
943.596	0.0160812
943.674	0.0161980
943.753	0.0162179
943.831	0.0161895
943.909	0.0161174
943.987	0.0161079
944.065	0.0159177
944.143	0.0160733
944.221	0.0161058
944.299	0.0161221
944.378	0.0159745
944.456	0.0159138
944.534	0.0159674
944.612	0.0159100
944.690	0.0159063
944.768	0.0158715
944.846	0.0159759
944.924	0.0159316
945.003	0.0158810
945.081	0.0158655
945.159	0.0159422
945.237	0.0159256
945.315	0.0159029
945.393	0.0160184
945.471	0.0159399
945.549	0.0158176
945.628	0.0159147
945.706	0.0158836
945.784	0.0156985
945.862	0.0157744
945.940	0.0159039
946.018	0.0158425
946.096	0.0156618
946.174	0.0158298
946.253	0.0157794
946.331	0.0155613
946.409	0.0157526
946.487	0.0157315
946.565	0.0157065
946.643	0.0158370
946.721	0.0158172
946.799	0.0157869
946.878	0.0157545
946.956	0.0156772
947.034	0.0157819
947.112	0.0157333
947.190	0.0157553
947.268	0.0157296
947.346	0.0155527
947.424	0.0157011
947.503	0.0158164
947.581	0.0155848
947.659	0.0156098
947.737	0.0156935
947.815	0.0156781
947.893	0.0157359
947.971	0.0157304
948.049	0.0157169
948.128	0.0157120
948.206	0.0158710
948.284	0.0155788
948.362	0.0157188
948.440	0.0155973
948.518	0.0154977
948.596	0.0156905
948.674	0.0156232
948.753	0.0156093
948.831	0.0155934
948.909	0.0155450
948.987	0.0155748
949.065	0.0154991
949.143	0.0154568
949.221	0.0154681
949.299	0.0156866
949.378	0.0156171
949.456	0.0153477
949.534	0.0156031
949.612	0.0156297
949.690	0.0156351
949.768	0.0155475
949.846	0.0155918
949.924	0.0155566
