06/29/2022	23:22:16	Ver.	4.1	UNKNOWN
Optical Delay	630.002507	Delta X		0.078125	Sweeps	1	Scan Rate	0/0
Coordinates	Axis 1	NaN	Axis 2	NaN	Axis 3	NaN	Axis 4	NaN	Axis 5	NaN	Axis 6	0.000000
TX Power	0.000000	RX Power	0.000000

630.003	0.0164808
630.081	0.0167313
630.159	0.0166975
630.237	0.0166766
630.315	0.0166812
630.393	0.0166487
630.471	0.0166568
630.549	0.0166247
630.628	0.0168646
630.706	0.0168152
630.784	0.0166459
630.862	0.0166289
630.940	0.0168204
631.018	0.0166604
631.096	0.0166695
631.174	0.0167397
631.253	0.0166585
631.331	0.0168054
631.409	0.0167331
631.487	0.0167681
631.565	0.0168781
631.643	0.0167990
631.721	0.0167516
631.799	0.0168233
631.878	0.0166613
631.956	0.0166240
632.034	0.0167772
632.112	0.0166750
632.190	0.0165083
632.268	0.0166884
632.346	0.0167267
632.424	0.0167033
632.503	0.0167112
632.581	0.0167302
632.659	0.0167506
632.737	0.0166540
632.815	0.0165947
632.893	0.0164661
632.971	0.0165313
633.049	0.0166402
633.128	0.0165997
633.206	0.0165638
633.284	0.0164537
633.362	0.0165685
633.440	0.0165908
633.518	0.0165512
633.596	0.0165417
633.674	0.0165067
633.753	0.0164456
633.831	0.0165330
633.909	0.0165792
633.987	0.0164782
634.065	0.0165308
634.143	0.0164256
634.221	0.0165047
634.299	0.0165085
634.378	0.0164991
634.456	0.0163898
634.534	0.0163623
634.612	0.0164709
634.690	0.0163606
634.768	0.0162753
634.846	0.0163177
634.924	0.0163517
635.003	0.0163052
635.081	0.0163986
635.159	0.0162756
635.237	0.0163680
635.315	0.0163453
635.393	0.0162910
635.471	0.0162092
635.549	0.0161475
635.628	0.0162199
635.706	0.0162142
635.784	0.0161024
635.862	0.0161379
635.940	0.0163105
636.018	0.0162896
636.096	0.0160886
636.174	0.0160600
636.253	0.0161404
636.331	0.0162383
636.409	0.0161600
636.487	0.0162177
636.565	0.0161441
636.643	0.0162205
636.721	0.0161521
636.799	0.0162523
636.878	0.0162278
636.956	0.0161221
637.034	0.0162355
637.112	0.0162304
637.190	0.0162118
637.268	0.0162440
637.346	0.0162797
637.424	0.0162678
637.503	0.0161626
637.581	0.0162163
637.659	0.0161131
637.737	0.0161848
637.815	0.0162022
637.893	0.0163563
637.971	0.0162593
638.049	0.0161316
638.128	0.0162075
638.206	0.0162939
638.284	0.0162772
638.362	0.0162167
638.440	0.0164139
638.518	0.0163667
638.596	0.0163382
638.674	0.0163465
638.753	0.0163631
638.831	0.0165392
638.909	0.0163828
638.987	0.0164797
639.065	0.0166428
639.143	0.0164680
639.221	0.0163747
639.299	0.0166611
639.378	0.0165598
639.456	0.0167104
639.534	0.0166640
639.612	0.0166482
639.690	0.0165410
639.768	0.0166084
639.846	0.0165711
639.924	0.0167345
640.003	0.0167043
640.081	0.0166187
640.159	0.0166171
640.237	0.0168394
640.315	0.0167052
640.393	0.0168040
640.471	0.0167245
640.549	0.0168822
640.628	0.0167919
640.706	0.0166931
640.784	0.0167998
640.862	0.0167970
640.940	0.0168331
641.018	0.0168269
641.096	0.0168520
641.174	0.0167677
641.253	0.0168365
641.331	0.0167423
641.409	0.0167254
641.487	0.0169077
641.565	0.0166440
641.643	0.0168806
641.721	0.0168552
641.799	0.0169696
641.878	0.0169501
641.956	0.0169183
642.034	0.0168887
642.112	0.0168644
642.190	0.0167971
642.268	0.0167770
642.346	0.0167108
642.424	0.0167212
642.503	0.0168085
642.581	0.0168091
642.659	0.0168430
642.737	0.0168255
642.815	0.0167371
642.893	0.0167944
642.971	0.0169055
643.049	0.0168091
643.128	0.0168385
643.206	0.0167525
643.284	0.0167124
643.362	0.0167951
643.440	0.0168138
643.518	0.0168053
643.596	0.0167369
643.674	0.0167751
643.753	0.0168019
643.831	0.0164909
643.909	0.0165997
643.987	0.0166452
644.065	0.0167075
644.143	0.0165490
644.221	0.0166999
644.299	0.0166591
644.378	0.0166604
644.456	0.0164844
644.534	0.0164874
644.612	0.0165589
644.690	0.0163191
644.768	0.0164735
644.846	0.0164137
644.924	0.0164522
645.003	0.0164465
645.081	0.0163696
645.159	0.0164065
645.237	0.0164040
645.315	0.0164295
645.393	0.0164557
645.471	0.0163715
645.549	0.0163358
645.628	0.0164051
645.706	0.0163110
645.784	0.0163625
645.862	0.0163874
645.940	0.0163145
646.018	0.0162914
646.096	0.0162232
646.174	0.0162365
646.253	0.0162341
646.331	0.0162637
646.409	0.0162499
646.487	0.0162167
646.565	0.0163111
646.643	0.0162025
646.721	0.0162985
646.799	0.0162119
646.878	0.0163554
646.956	0.0161652
647.034	0.0160520
647.112	0.0160879
647.190	0.0162330
647.268	0.0163455
647.346	0.0163004
647.424	0.0162296
647.503	0.0161555
647.581	0.0161256
647.659	0.0162640
647.737	0.0162252
647.815	0.0161728
647.893	0.0161357
647.971	0.0160857
648.049	0.0160609
648.128	0.0162383
648.206	0.0162546
648.284	0.0161643
648.362	0.0160738
648.440	0.0160645
648.518	0.0160729
648.596	0.0160984
648.674	0.0162322
648.753	0.0162601
648.831	0.0160909
648.909	0.0160076
648.987	0.0159529
649.065	0.0161451
649.143	0.0160049
649.221	0.0160371
649.299	0.0161221
649.378	0.0160947
649.456	0.0160741
649.534	0.0160593
649.612	0.0162003
649.690	0.0162029
649.768	0.0161817
649.846	0.0161491
649.924	0.0161452
650.003	0.0162428
650.081	0.0163528
650.159	0.0161699
650.237	0.0161763
650.315	0.0162250
650.393	0.0162738
650.471	0.0164149
650.549	0.0162017
650.628	0.0164169
650.706	0.0164497
650.784	0.0165177
650.862	0.0165098
650.940	0.0163980
651.018	0.0164133
651.096	0.0165279
651.174	0.0164541
651.253	0.0164380
651.331	0.0164851
651.409	0.0164774
651.487	0.0165446
651.565	0.0164666
651.643	0.0167738
651.721	0.0165818
651.799	0.0164976
651.878	0.0165916
651.956	0.0167134
652.034	0.0166951
652.112	0.0166684
652.190	0.0166531
652.268	0.0167353
652.346	0.0165657
652.424	0.0166483
652.503	0.0166301
652.581	0.0166086
652.659	0.0166579
652.737	0.0167450
652.815	0.0167363
652.893	0.0167257
652.971	0.0166618
653.049	0.0165410
653.128	0.0166648
653.206	0.0166235
653.284	0.0163406
653.362	0.0166950
653.440	0.0165507
653.518	0.0166555
653.596	0.0166570
653.674	0.0164979
653.753	0.0166240
653.831	0.0167850
653.909	0.0165467
653.987	0.0165951
654.065	0.0166132
654.143	0.0166069
654.221	0.0167127
654.299	0.0165556
654.378	0.0164745
654.456	0.0165754
654.534	0.0164436
654.612	0.0164453
654.690	0.0165466
654.768	0.0164551
654.846	0.0165092
654.924	0.0163829
655.003	0.0164671
655.081	0.0163851
655.159	0.0164495
655.237	0.0163746
655.315	0.0165434
655.393	0.0164289
655.471	0.0163430
655.549	0.0164346
655.628	0.0164315
655.706	0.0162781
655.784	0.0163860
655.862	0.0164619
655.940	0.0164028
656.018	0.0162842
656.096	0.0163714
656.174	0.0162875
656.253	0.0164403
656.331	0.0162952
656.409	0.0163934
656.487	0.0164374
656.565	0.0164702
656.643	0.0164292
656.721	0.0164587
656.799	0.0163895
656.878	0.0163613
656.956	0.0165477
657.034	0.0165492
657.112	0.0165444
657.190	0.0164011
657.268	0.0165103
657.346	0.0165745
657.424	0.0165238
657.503	0.0164704
657.581	0.0165438
657.659	0.0165334
657.737	0.0166557
657.815	0.0166955
657.893	0.0165762
657.971	0.0166727
658.049	0.0164922
658.128	0.0167799
658.206	0.0166079
658.284	0.0166505
658.362	0.0166744
658.440	0.0167818
658.518	0.0166821
658.596	0.0165772
658.674	0.0167138
658.753	0.0166614
658.831	0.0166547
658.909	0.0167003
658.987	0.0167078
659.065	0.0166324
659.143	0.0167007
659.221	0.0167376
659.299	0.0166696
659.378	0.0166686
659.456	0.0165734
659.534	0.0166615
659.612	0.0167399
659.690	0.0166759
659.768	0.0168551
659.846	0.0168524
659.924	0.0167056
660.003	0.0167690
660.081	0.0167566
660.159	0.0167698
660.237	0.0167774
660.315	0.0167381
660.393	0.0168270
660.471	0.0167192
660.549	0.0168148
660.628	0.0168468
660.706	0.0167683
660.784	0.0166006
660.862	0.0167366
660.940	0.0166277
661.018	0.0165826
661.096	0.0164534
661.174	0.0165824
661.253	0.0166242
661.331	0.0165799
661.409	0.0165465
661.487	0.0166319
661.565	0.0166222
661.643	0.0165547
661.721	0.0164539
661.799	0.0165893
661.878	0.0166566
661.956	0.0165371
662.034	0.0164935
662.112	0.0165946
662.190	0.0165589
662.268	0.0164020
662.346	0.0164030
662.424	0.0163578
662.503	0.0166525
662.581	0.0165887
662.659	0.0165019
662.737	0.0163653
662.815	0.0164919
662.893	0.0165324
662.971	0.0163939
663.049	0.0163601
663.128	0.0163907
663.206	0.0163774
663.284	0.0163243
663.362	0.0163851
663.440	0.0164081
663.518	0.0162943
663.596	0.0162841
663.674	0.0163186
663.753	0.0163602
663.831	0.0163833
663.909	0.0163167
663.987	0.0163049
664.065	0.0162915
664.143	0.0163001
664.221	0.0162401
664.299	0.0163490
664.378	0.0163914
664.456	0.0163902
664.534	0.0162887
664.612	0.0164627
664.690	0.0163279
664.768	0.0163819
664.846	0.0161831
664.924	0.0163912
665.003	0.0164379
665.081	0.0161956
665.159	0.0162400
665.237	0.0164602
665.315	0.0162820
665.393	0.0162122
665.471	0.0162577
665.549	0.0164707
665.628	0.0163950
665.706	0.0163326
665.784	0.0163768
665.862	0.0162204
665.940	0.0162717
666.018	0.0162678
666.096	0.0163682
666.174	0.0162939
666.253	0.0163549
666.331	0.0162572
666.409	0.0162856
666.487	0.0163541
666.565	0.0163618
666.643	0.0163223
666.721	0.0164189
666.799	0.0164595
666.878	0.0164439
666.956	0.0163860
667.034	0.0163609
667.112	0.0163401
667.190	0.0166006
667.268	0.0164725
667.346	0.0164879
667.424	0.0165504
667.503	0.0164419
667.581	0.0164175
667.659	0.0163814
667.737	0.0164594
667.815	0.0165224
667.893	0.0165286
667.971	0.0164154
668.049	0.0165086
668.128	0.0166508
668.206	0.0164024
668.284	0.0165313
668.362	0.0165954
668.440	0.0164642
668.518	0.0165273
668.596	0.0164139
668.674	0.0163957
668.753	0.0164923
668.831	0.0164241
668.909	0.0163918
668.987	0.0165651
669.065	0.0163671
669.143	0.0163881
669.221	0.0163982
669.299	0.0164349
669.378	0.0164071
669.456	0.0164278
669.534	0.0165372
669.612	0.0164292
669.690	0.0163834
669.768	0.0165457
669.846	0.0165222
669.924	0.0163856
670.003	0.0163517
670.081	0.0163182
670.159	0.0164266
670.237	0.0165729
670.315	0.0163718
670.393	0.0164678
670.471	0.0166163
670.549	0.0166159
670.628	0.0163999
670.706	0.0164293
670.784	0.0165446
670.862	0.0165362
670.940	0.0165311
671.018	0.0164639
671.096	0.0164302
671.174	0.0164919
671.253	0.0165241
671.331	0.0165083
671.409	0.0162932
671.487	0.0164674
671.565	0.0163841
671.643	0.0163058
671.721	0.0163070
671.799	0.0163502
671.878	0.0162837
671.956	0.0163140
672.034	0.0163568
672.112	0.0164168
672.190	0.0161810
672.268	0.0163957
672.346	0.0163420
672.424	0.0162670
672.503	0.0163933
672.581	0.0161887
672.659	0.0163744
672.737	0.0163515
672.815	0.0161462
672.893	0.0164030
672.971	0.0162879
673.049	0.0163051
673.128	0.0162642
673.206	0.0163022
673.284	0.0162534
673.362	0.0163028
673.440	0.0162064
673.518	0.0161590
673.596	0.0162765
673.674	0.0163010
673.753	0.0162576
673.831	0.0163125
673.909	0.0162888
673.987	0.0162669
674.065	0.0162923
674.143	0.0162526
674.221	0.0162363
674.299	0.0160501
674.378	0.0161317
674.456	0.0161902
674.534	0.0163265
674.612	0.0161320
674.690	0.0162334
674.768	0.0162554
674.846	0.0162829
674.924	0.0163608
675.003	0.0164326
675.081	0.0162006
675.159	0.0163058
675.237	0.0163129
675.315	0.0163482
675.393	0.0164690
675.471	0.0163415
675.549	0.0162722
675.628	0.0164255
675.706	0.0164362
675.784	0.0163776
675.862	0.0163446
675.940	0.0164029
676.018	0.0163727
676.096	0.0163271
676.174	0.0163454
676.253	0.0165020
676.331	0.0165862
676.409	0.0164949
676.487	0.0164483
676.565	0.0164487
676.643	0.0166311
676.721	0.0164831
676.799	0.0164487
676.878	0.0165481
676.956	0.0164378
677.034	0.0165344
677.112	0.0165482
677.190	0.0166785
677.268	0.0166741
677.346	0.0166020
677.424	0.0165765
677.503	0.0165882
677.581	0.0166138
677.659	0.0165080
677.737	0.0167315
677.815	0.0165848
677.893	0.0165524
677.971	0.0166848
678.049	0.0166702
678.128	0.0165838
678.206	0.0168040
678.284	0.0166670
678.362	0.0167044
678.440	0.0164901
678.518	0.0166553
678.596	0.0165807
678.674	0.0167032
678.753	0.0168163
678.831	0.0166463
678.909	0.0166358
678.987	0.0166557
679.065	0.0167496
679.143	0.0167838
679.221	0.0168052
679.299	0.0168243
679.378	0.0166855
679.456	0.0167307
679.534	0.0166776
679.612	0.0167149
679.690	0.0166885
679.768	0.0167284
679.846	0.0166222
679.924	0.0167093
680.003	0.0167224
680.081	0.0167995
680.159	0.0166453
680.237	0.0166453
680.315	0.0166808
680.393	0.0167684
680.471	0.0166730
680.549	0.0166388
680.628	0.0167584
680.706	0.0167102
680.784	0.0166243
680.862	0.0166391
680.940	0.0165572
681.018	0.0167554
681.096	0.0166927
681.174	0.0167623
681.253	0.0165439
681.331	0.0167079
681.409	0.0166793
681.487	0.0166458
681.565	0.0166803
681.643	0.0165395
681.721	0.0165336
681.799	0.0166292
681.878	0.0165226
681.956	0.0164822
682.034	0.0164211
682.112	0.0164282
682.190	0.0165065
682.268	0.0165218
682.346	0.0165233
682.424	0.0165334
682.503	0.0164130
682.581	0.0164725
682.659	0.0164167
682.737	0.0164162
682.815	0.0165022
682.893	0.0164353
682.971	0.0164074
683.049	0.0164719
683.128	0.0164439
683.206	0.0166432
683.284	0.0163743
683.362	0.0166006
683.440	0.0166014
683.518	0.0165815
683.596	0.0167175
683.674	0.0165221
683.753	0.0166194
683.831	0.0165955
683.909	0.0166142
683.987	0.0167308
684.065	0.0165338
684.143	0.0164845
684.221	0.0165571
684.299	0.0167207
684.378	0.0166479
684.456	0.0165366
684.534	0.0164366
684.612	0.0165557
684.690	0.0164825
684.768	0.0166738
684.846	0.0165047
684.924	0.0164045
685.003	0.0164201
685.081	0.0165044
685.159	0.0165272
685.237	0.0163520
685.315	0.0163140
685.393	0.0165028
685.471	0.0164404
685.549	0.0165725
685.628	0.0165108
685.706	0.0162589
685.784	0.0165124
685.862	0.0164217
685.940	0.0163586
686.018	0.0164272
686.096	0.0162151
686.174	0.0164716
686.253	0.0163549
686.331	0.0163940
686.409	0.0164444
686.487	0.0163508
686.565	0.0163849
686.643	0.0164259
686.721	0.0163965
686.799	0.0164855
686.878	0.0163754
686.956	0.0163772
687.034	0.0164355
687.112	0.0164455
687.190	0.0165315
687.268	0.0164985
687.346	0.0166132
687.424	0.0165233
687.503	0.0165470
687.581	0.0165154
687.659	0.0165715
687.737	0.0166933
687.815	0.0166879
687.893	0.0167951
687.971	0.0168468
688.049	0.0167957
688.128	0.0168137
688.206	0.0168388
688.284	0.0169675
688.362	0.0168971
688.440	0.0168170
688.518	0.0168642
688.596	0.0169756
688.674	0.0168524
688.753	0.0168289
688.831	0.0169724
688.909	0.0169105
688.987	0.0167777
689.065	0.0167944
689.143	0.0168191
689.221	0.0168443
689.299	0.0169638
689.378	0.0168131
689.456	0.0167765
689.534	0.0167561
689.612	0.0168188
689.690	0.0167837
689.768	0.0167371
689.846	0.0165961
689.924	0.0166369
690.003	0.0166884
690.081	0.0164910
690.159	0.0165806
690.237	0.0166889
690.315	0.0166344
690.393	0.0166264
690.471	0.0166682
690.549	0.0166241
690.628	0.0166580
690.706	0.0166611
690.784	0.0166798
690.862	0.0165652
690.940	0.0166331
691.018	0.0167017
691.096	0.0167664
691.174	0.0166864
691.253	0.0165097
691.331	0.0166253
691.409	0.0166518
691.487	0.0165697
691.565	0.0164416
691.643	0.0166283
691.721	0.0165926
691.799	0.0166465
691.878	0.0166035
691.956	0.0168130
692.034	0.0167368
692.112	0.0167019
692.190	0.0166832
692.268	0.0166699
692.346	0.0167338
692.424	0.0166716
692.503	0.0167019
692.581	0.0165349
692.659	0.0167529
692.737	0.0165907
692.815	0.0165981
692.893	0.0166510
692.971	0.0166069
693.049	0.0166814
693.128	0.0166904
693.206	0.0166909
693.284	0.0165889
693.362	0.0165244
693.440	0.0165024
693.518	0.0163186
693.596	0.0164389
693.674	0.0164382
693.753	0.0163216
693.831	0.0164635
693.909	0.0164517
693.987	0.0165005
694.065	0.0162766
694.143	0.0163256
694.221	0.0164440
694.299	0.0161452
694.378	0.0162237
694.456	0.0162744
694.534	0.0162803
694.612	0.0163120
694.690	0.0162975
694.768	0.0161053
694.846	0.0162366
694.924	0.0160905
695.003	0.0162479
695.081	0.0162062
695.159	0.0161954
695.237	0.0162933
695.315	0.0162672
695.393	0.0161915
695.471	0.0161806
695.549	0.0163748
695.628	0.0161879
695.706	0.0161778
695.784	0.0162548
695.862	0.0163185
695.940	0.0161121
696.018	0.0162443
696.096	0.0162373
696.174	0.0162498
696.253	0.0161917
696.331	0.0160944
696.409	0.0161125
696.487	0.0162066
696.565	0.0161694
696.643	0.0161640
696.721	0.0162516
696.799	0.0162275
696.878	0.0161413
696.956	0.0161572
697.034	0.0163112
697.112	0.0163387
697.190	0.0163056
697.268	0.0163205
697.346	0.0162449
697.424	0.0162671
697.503	0.0161497
697.581	0.0164458
697.659	0.0163070
697.737	0.0161708
697.815	0.0163680
697.893	0.0163582
697.971	0.0162630
698.049	0.0162042
698.128	0.0164380
698.206	0.0163815
698.284	0.0163342
698.362	0.0164198
698.440	0.0164447
698.518	0.0164285
698.596	0.0163866
698.674	0.0163326
698.753	0.0164642
698.831	0.0164071
698.909	0.0165267
698.987	0.0164712
699.065	0.0163958
699.143	0.0165308
699.221	0.0165867
699.299	0.0165459
699.378	0.0167072
699.456	0.0165150
699.534	0.0165967
699.612	0.0166686
699.690	0.0167062
699.768	0.0165810
699.846	0.0167127
699.924	0.0166415
700.003	0.0166077
700.081	0.0166321
700.159	0.0166516
700.237	0.0166946
700.315	0.0166458
700.393	0.0164816
700.471	0.0167668
700.549	0.0165645
700.628	0.0164919
700.706	0.0164964
700.784	0.0164967
700.862	0.0165677
700.940	0.0166012
701.018	0.0165002
701.096	0.0164584
701.174	0.0165423
701.253	0.0164638
701.331	0.0165211
701.409	0.0165197
701.487	0.0165318
701.565	0.0165542
701.643	0.0166002
701.721	0.0166071
701.799	0.0164375
701.878	0.0164342
701.956	0.0164085
702.034	0.0164716
702.112	0.0165698
702.190	0.0166576
702.268	0.0165543
702.346	0.0164845
702.424	0.0165343
702.503	0.0166048
702.581	0.0164534
702.659	0.0164539
702.737	0.0164761
702.815	0.0165594
702.893	0.0166120
702.971	0.0166244
703.049	0.0164108
703.128	0.0165398
703.206	0.0167632
703.284	0.0165623
703.362	0.0167213
703.440	0.0165889
703.518	0.0165919
703.596	0.0166102
703.674	0.0167296
703.753	0.0166892
703.831	0.0167207
703.909	0.0166695
703.987	0.0166786
704.065	0.0166422
704.143	0.0166682
704.221	0.0167252
704.299	0.0167636
704.378	0.0166280
704.456	0.0165854
704.534	0.0166899
704.612	0.0167026
704.690	0.0166313
704.768	0.0165969
704.846	0.0167475
704.924	0.0167809
705.003	0.0167126
705.081	0.0165904
705.159	0.0167971
705.237	0.0167822
705.315	0.0167265
705.393	0.0166223
705.471	0.0165270
705.549	0.0166640
705.628	0.0166269
705.706	0.0166196
705.784	0.0166019
705.862	0.0164382
705.940	0.0165162
706.018	0.0165623
706.096	0.0165630
706.174	0.0165428
706.253	0.0164656
706.331	0.0165748
706.409	0.0165332
706.487	0.0166578
706.565	0.0165820
706.643	0.0166275
706.721	0.0167368
706.799	0.0166422
706.878	0.0166634
706.956	0.0167452
707.034	0.0165273
707.112	0.0166807
707.190	0.0167523
707.268	0.0167510
707.346	0.0168636
707.424	0.0167847
707.503	0.0166586
707.581	0.0168224
707.659	0.0165524
707.737	0.0166689
707.815	0.0167339
707.893	0.0165545
707.971	0.0166784
708.049	0.0166454
708.128	0.0163472
708.206	0.0164887
708.284	0.0164515
708.362	0.0164744
708.440	0.0163399
708.518	0.0163464
708.596	0.0164252
708.674	0.0163721
708.753	0.0164443
708.831	0.0162704
708.909	0.0163181
708.987	0.0163625
709.065	0.0161198
709.143	0.0162436
709.221	0.0163984
709.299	0.0163315
709.378	0.0163053
709.456	0.0162955
709.534	0.0163232
709.612	0.0163423
709.690	0.0162684
709.768	0.0163531
709.846	0.0164234
709.924	0.0163831
710.003	0.0163984
710.081	0.0164793
710.159	0.0165211
710.237	0.0161684
710.315	0.0162490
710.393	0.0163397
710.471	0.0163918
710.549	0.0163738
710.628	0.0164262
710.706	0.0164339
710.784	0.0164471
710.862	0.0165219
710.940	0.0165176
711.018	0.0164280
711.096	0.0165887
711.174	0.0166501
711.253	0.0166737
711.331	0.0166113
711.409	0.0166973
711.487	0.0168293
711.565	0.0167924
711.643	0.0169794
711.721	0.0168971
711.799	0.0167477
711.878	0.0168174
711.956	0.0168184
712.034	0.0168552
712.112	0.0168698
712.190	0.0165365
712.268	0.0168472
712.346	0.0166565
712.424	0.0166098
712.503	0.0165285
712.581	0.0166440
712.659	0.0164390
712.737	0.0165249
712.815	0.0164954
712.893	0.0163944
712.971	0.0162391
713.049	0.0163721
713.128	0.0163740
713.206	0.0164393
713.284	0.0164321
713.362	0.0163553
713.440	0.0165407
713.518	0.0164575
713.596	0.0162277
713.674	0.0163901
713.753	0.0163139
713.831	0.0164960
713.909	0.0165726
713.987	0.0164169
714.065	0.0165137
714.143	0.0165034
714.221	0.0165582
714.299	0.0166113
714.378	0.0165318
714.456	0.0165741
714.534	0.0166534
714.612	0.0163776
714.690	0.0165617
714.768	0.0165258
714.846	0.0165767
714.924	0.0164478
715.003	0.0165638
715.081	0.0165839
715.159	0.0165397
715.237	0.0166022
715.315	0.0166057
715.393	0.0165593
715.471	0.0166242
715.549	0.0165922
715.628	0.0166599
715.706	0.0167894
715.784	0.0166820
715.862	0.0167529
715.940	0.0167580
716.018	0.0167541
716.096	0.0167603
716.174	0.0166138
716.253	0.0166505
716.331	0.0166282
716.409	0.0165892
716.487	0.0165160
716.565	0.0164710
716.643	0.0164678
716.721	0.0164404
716.799	0.0162359
716.878	0.0162705
716.956	0.0163313
717.034	0.0161571
717.112	0.0161977
717.190	0.0160213
717.268	0.0161037
717.346	0.0160195
717.424	0.0160737
717.503	0.0162037
717.581	0.0161932
717.659	0.0161472
717.737	0.0161051
717.815	0.0163068
717.893	0.0163368
717.971	0.0162260
718.049	0.0162104
718.128	0.0163829
718.206	0.0164848
718.284	0.0164074
718.362	0.0164706
718.440	0.0166330
718.518	0.0167493
718.596	0.0166853
718.674	0.0166187
718.753	0.0167453
718.831	0.0166127
718.909	0.0165327
718.987	0.0164796
719.065	0.0165022
719.143	0.0163774
719.221	0.0163393
719.299	0.0161370
719.378	0.0162754
719.456	0.0161119
719.534	0.0159543
719.612	0.0158331
719.690	0.0159238
719.768	0.0157758
719.846	0.0157789
719.924	0.0157630
720.003	0.0158045
720.081	0.0157661
720.159	0.0157536
720.237	0.0158627
720.315	0.0156250
720.393	0.0157690
720.471	0.0158015
720.549	0.0158882
720.628	0.0160816
720.706	0.0158640
720.784	0.0160085
720.862	0.0162058
720.940	0.0162457
721.018	0.0162568
721.096	0.0163181
721.174	0.0163997
721.253	0.0164881
721.331	0.0164697
721.409	0.0165632
721.487	0.0165592
721.565	0.0167347
721.643	0.0167883
721.721	0.0168021
721.799	0.0166875
721.878	0.0166710
721.956	0.0167699
722.034	0.0168653
722.112	0.0169479
722.190	0.0168147
722.268	0.0168967
722.346	0.0169187
722.424	0.0168369
722.503	0.0168839
722.581	0.0169360
722.659	0.0168507
722.737	0.0167216
722.815	0.0166756
722.893	0.0166055
722.971	0.0167072
723.049	0.0165910
723.128	0.0164146
723.206	0.0163847
723.284	0.0164687
723.362	0.0163586
723.440	0.0163557
723.518	0.0162003
723.596	0.0161668
723.674	0.0159786
723.753	0.0158904
723.831	0.0159846
723.909	0.0159576
723.987	0.0159386
724.065	0.0159908
724.143	0.0159372
724.221	0.0159592
724.299	0.0159953
724.378	0.0160175
724.456	0.0161235
724.534	0.0162129
724.612	0.0162346
724.690	0.0161827
724.768	0.0162682
724.846	0.0163863
724.924	0.0163869
725.003	0.0163485
725.081	0.0164046
725.159	0.0164481
725.237	0.0166130
725.315	0.0164916
725.393	0.0165147
725.471	0.0168079
725.549	0.0167412
725.628	0.0168272
725.706	0.0167400
725.784	0.0167419
725.862	0.0168472
725.940	0.0168307
726.018	0.0168351
726.096	0.0168774
726.174	0.0168819
726.253	0.0169352
726.331	0.0169392
726.409	0.0168857
726.487	0.0169141
726.565	0.0169747
726.643	0.0167651
726.721	0.0168850
726.799	0.0166848
726.878	0.0166280
726.956	0.0166954
727.034	0.0166621
727.112	0.0164248
727.190	0.0163549
727.268	0.0163186
727.346	0.0161086
727.424	0.0158572
727.503	0.0159129
727.581	0.0157531
727.659	0.0157084
727.737	0.0156234
727.815	0.0154711
727.893	0.0155230
727.971	0.0154870
728.049	0.0155847
728.128	0.0154678
728.206	0.0155251
728.284	0.0156515
728.362	0.0157106
728.440	0.0159299
728.518	0.0158502
728.596	0.0159142
728.674	0.0160521
728.753	0.0162979
728.831	0.0163853
728.909	0.0164230
728.987	0.0166524
729.065	0.0166299
729.143	0.0167706
729.221	0.0169321
729.299	0.0168749
729.378	0.0171259
729.456	0.0171471
729.534	0.0171072
729.612	0.0172028
729.690	0.0170795
729.768	0.0171997
729.846	0.0171937
729.924	0.0173506
730.003	0.0172681
730.081	0.0171693
730.159	0.0173064
730.237	0.0171973
730.315	0.0171469
730.393	0.0172668
730.471	0.0170397
730.549	0.0170071
730.628	0.0170361
730.706	0.0169028
730.784	0.0166304
730.862	0.0166765
730.940	0.0166434
731.018	0.0164343
731.096	0.0162913
731.174	0.0163998
731.253	0.0161976
731.331	0.0160042
731.409	0.0158326
731.487	0.0156580
731.565	0.0156731
731.643	0.0155637
731.721	0.0154707
731.799	0.0153358
731.878	0.0152952
731.956	0.0153367
732.034	0.0153113
732.112	0.0152681
732.190	0.0154874
732.268	0.0154893
732.346	0.0156223
732.424	0.0155817
732.503	0.0157230
732.581	0.0159570
732.659	0.0161332
732.737	0.0163255
732.815	0.0163536
732.893	0.0165615
732.971	0.0167256
733.049	0.0168915
733.128	0.0171039
733.206	0.0172951
733.284	0.0173469
733.362	0.0173224
733.440	0.0174884
733.518	0.0176128
733.596	0.0176006
733.674	0.0176939
733.753	0.0174296
733.831	0.0174635
733.909	0.0173737
733.987	0.0172970
734.065	0.0172579
734.143	0.0171268
734.221	0.0169718
734.299	0.0168931
734.378	0.0166599
734.456	0.0164510
734.534	0.0163699
734.612	0.0162766
734.690	0.0161469
734.768	0.0160217
734.846	0.0158215
734.924	0.0159599
735.003	0.0157150
735.081	0.0157158
735.159	0.0156304
735.237	0.0155200
735.315	0.0155812
735.393	0.0154397
735.471	0.0155121
735.549	0.0155973
735.628	0.0155350
735.706	0.0156035
735.784	0.0156028
735.862	0.0155905
735.940	0.0157686
736.018	0.0158089
736.096	0.0159397
736.174	0.0159823
736.253	0.0159965
736.331	0.0162450
736.409	0.0162379
736.487	0.0164653
736.565	0.0166176
736.643	0.0166731
736.721	0.0168417
736.799	0.0168392
736.878	0.0169850
736.956	0.0169658
737.034	0.0168497
737.112	0.0169749
737.190	0.0169716
737.268	0.0171781
737.346	0.0170390
737.424	0.0168718
737.503	0.0170424
737.581	0.0168535
737.659	0.0167837
737.737	0.0168481
737.815	0.0166534
737.893	0.0165903
737.971	0.0164672
738.049	0.0165744
738.128	0.0163030
738.206	0.0162977
738.284	0.0161557
738.362	0.0161317
738.440	0.0159502
738.518	0.0159068
738.596	0.0158823
738.674	0.0157976
738.753	0.0159237
738.831	0.0158929
738.909	0.0158389
738.987	0.0158081
739.065	0.0159419
739.143	0.0158382
739.221	0.0159412
739.299	0.0160051
739.378	0.0160221
739.456	0.0161533
739.534	0.0161292
739.612	0.0164000
739.690	0.0163716
739.768	0.0164656
739.846	0.0165291
739.924	0.0165876
740.003	0.0165441
740.081	0.0167300
740.159	0.0166117
740.237	0.0167195
740.315	0.0168481
740.393	0.0166237
740.471	0.0167881
740.549	0.0168043
740.628	0.0166928
740.706	0.0168733
740.784	0.0168081
740.862	0.0167308
740.940	0.0167957
741.018	0.0167733
741.096	0.0166518
741.174	0.0168304
741.253	0.0168401
741.331	0.0167942
741.409	0.0167436
741.487	0.0167686
741.565	0.0167455
741.643	0.0166986
741.721	0.0167840
741.799	0.0167511
741.878	0.0167275
741.956	0.0167140
742.034	0.0165788
742.112	0.0164574
742.190	0.0164217
742.268	0.0163786
742.346	0.0162830
742.424	0.0163367
742.503	0.0162537
742.581	0.0160645
742.659	0.0160791
742.737	0.0161331
742.815	0.0159465
742.893	0.0159142
742.971	0.0159268
743.049	0.0157661
743.128	0.0157289
743.206	0.0158449
743.284	0.0157919
743.362	0.0160155
743.440	0.0159926
743.518	0.0161310
743.596	0.0160352
743.674	0.0161706
743.753	0.0162292
743.831	0.0162422
743.909	0.0163343
743.987	0.0163604
744.065	0.0164386
744.143	0.0167617
744.221	0.0167432
744.299	0.0166814
744.378	0.0165724
744.456	0.0168279
744.534	0.0167474
744.612	0.0167599
744.690	0.0167827
744.768	0.0168358
744.846	0.0168005
744.924	0.0167765
745.003	0.0168345
745.081	0.0167465
745.159	0.0165087
745.237	0.0167509
745.315	0.0167887
745.393	0.0165970
745.471	0.0166007
745.549	0.0166742
745.628	0.0166366
745.706	0.0166627
745.784	0.0166599
745.862	0.0165862
745.940	0.0165550
746.018	0.0165087
746.096	0.0165830
746.174	0.0166898
746.253	0.0165689
746.331	0.0165395
746.409	0.0165654
746.487	0.0166576
746.565	0.0166674
746.643	0.0164965
746.721	0.0164707
746.799	0.0164140
746.878	0.0165224
746.956	0.0165672
747.034	0.0164569
747.112	0.0163375
747.190	0.0165496
747.268	0.0164507
747.346	0.0165971
747.424	0.0164022
747.503	0.0165096
747.581	0.0165199
747.659	0.0164968
747.737	0.0166785
747.815	0.0163965
747.893	0.0164500
747.971	0.0162712
748.049	0.0162789
748.128	0.0164709
748.206	0.0164133
748.284	0.0163010
748.362	0.0163183
748.440	0.0162372
748.518	0.0162662
748.596	0.0160606
748.674	0.0160415
748.753	0.0160402
748.831	0.0160069
748.909	0.0160183
748.987	0.0158440
749.065	0.0158076
749.143	0.0159428
749.221	0.0159305
749.299	0.0160468
749.378	0.0159418
749.456	0.0161856
749.534	0.0159510
749.612	0.0161684
749.690	0.0161626
749.768	0.0163264
749.846	0.0165515
749.924	0.0165302
750.003	0.0166550
750.081	0.0166308
750.159	0.0168102
750.237	0.0166746
750.315	0.0168460
750.393	0.0170197
750.471	0.0170697
750.549	0.0172198
750.628	0.0170388
750.706	0.0170721
750.784	0.0171323
750.862	0.0170988
750.940	0.0170447
751.018	0.0171172
751.096	0.0169132
751.174	0.0169677
751.253	0.0167706
751.331	0.0166971
751.409	0.0167792
751.487	0.0167815
751.565	0.0167440
751.643	0.0165390
751.721	0.0167318
751.799	0.0166146
751.878	0.0165698
751.956	0.0164595
752.034	0.0164755
752.112	0.0164142
752.190	0.0164529
752.268	0.0163147
752.346	0.0162733
752.424	0.0163220
752.503	0.0162115
752.581	0.0161675
752.659	0.0162381
752.737	0.0162819
752.815	0.0161287
752.893	0.0161621
752.971	0.0161220
753.049	0.0160047
753.128	0.0162029
753.206	0.0161253
753.284	0.0160463
753.362	0.0159934
753.440	0.0160764
753.518	0.0161680
753.596	0.0161871
753.674	0.0161179
753.753	0.0159226
753.831	0.0159708
753.909	0.0160373
753.987	0.0160033
754.065	0.0159679
754.143	0.0160599
754.221	0.0161184
754.299	0.0158842
754.378	0.0160030
754.456	0.0161125
754.534	0.0161767
754.612	0.0161713
754.690	0.0162379
754.768	0.0162911
754.846	0.0162704
754.924	0.0164140
755.003	0.0164439
755.081	0.0165271
755.159	0.0166702
755.237	0.0169039
755.315	0.0167507
755.393	0.0167951
755.471	0.0169732
755.549	0.0169630
755.628	0.0168951
755.706	0.0171686
755.784	0.0171095
755.862	0.0170773
755.940	0.0171030
756.018	0.0168771
756.096	0.0171440
756.174	0.0170753
756.253	0.0170017
756.331	0.0169453
756.409	0.0169810
756.487	0.0169768
756.565	0.0168014
756.643	0.0167206
756.721	0.0166208
756.799	0.0167320
756.878	0.0165631
756.956	0.0164929
757.034	0.0164697
757.112	0.0163703
757.190	0.0163323
757.268	0.0163987
757.346	0.0163387
757.424	0.0162374
757.503	0.0161887
757.581	0.0162004
757.659	0.0161112
757.737	0.0161096
757.815	0.0161239
757.893	0.0161652
757.971	0.0161256
758.049	0.0160324
758.128	0.0160418
758.206	0.0161788
758.284	0.0161991
758.362	0.0161836
758.440	0.0161976
758.518	0.0162266
758.596	0.0162579
758.674	0.0161954
758.753	0.0163151
758.831	0.0161892
758.909	0.0164245
758.987	0.0163042
759.065	0.0163335
759.143	0.0163978
759.221	0.0164459
759.299	0.0163837
759.378	0.0163202
759.456	0.0165379
759.534	0.0165343
759.612	0.0164805
759.690	0.0163835
759.768	0.0163293
759.846	0.0164104
759.924	0.0164415
760.003	0.0163547
760.081	0.0164519
760.159	0.0164005
760.237	0.0164522
760.315	0.0166195
760.393	0.0165380
760.471	0.0165962
760.549	0.0165878
760.628	0.0165972
760.706	0.0166869
760.784	0.0166595
760.862	0.0166350
760.940	0.0166814
761.018	0.0167339
761.096	0.0165940
761.174	0.0166454
761.253	0.0166388
761.331	0.0165779
761.409	0.0164162
761.487	0.0163921
761.565	0.0164597
761.643	0.0165544
761.721	0.0166702
761.799	0.0166337
761.878	0.0165488
761.956	0.0166531
762.034	0.0165781
762.112	0.0165804
762.190	0.0166515
762.268	0.0168063
762.346	0.0167773
762.424	0.0168672
762.503	0.0169389
762.581	0.0168102
762.659	0.0166751
762.737	0.0168616
762.815	0.0168640
762.893	0.0167890
762.971	0.0166828
763.049	0.0166994
763.128	0.0165948
763.206	0.0164658
763.284	0.0165226
763.362	0.0165216
763.440	0.0162916
763.518	0.0162225
763.596	0.0163403
763.674	0.0161178
763.753	0.0162106
763.831	0.0161941
763.909	0.0160653
763.987	0.0161094
764.065	0.0161530
764.143	0.0163177
764.221	0.0161966
764.299	0.0161234
764.378	0.0162386
764.456	0.0163344
764.534	0.0163696
764.612	0.0163381
764.690	0.0164328
764.768	0.0163643
764.846	0.0164089
764.924	0.0165861
765.003	0.0166028
765.081	0.0166733
765.159	0.0166715
765.237	0.0167375
765.315	0.0166576
765.393	0.0167065
765.471	0.0167307
765.549	0.0167490
765.628	0.0166454
765.706	0.0166692
765.784	0.0165962
765.862	0.0165546
765.940	0.0165146
766.018	0.0167279
766.096	0.0166759
766.174	0.0167711
766.253	0.0166879
766.331	0.0168568
766.409	0.0167293
766.487	0.0167046
766.565	0.0167786
766.643	0.0168768
766.721	0.0169180
766.799	0.0168504
766.878	0.0168686
766.956	0.0170074
767.034	0.0169528
767.112	0.0170183
767.190	0.0171387
767.268	0.0172277
767.346	0.0171424
767.424	0.0172158
767.503	0.0171943
767.581	0.0172044
767.659	0.0171758
767.737	0.0172490
767.815	0.0170770
767.893	0.0170128
767.971	0.0169211
768.049	0.0168729
768.128	0.0169947
768.206	0.0167902
768.284	0.0166396
768.362	0.0166949
768.440	0.0166120
768.518	0.0166451
768.596	0.0164117
768.674	0.0165303
768.753	0.0164082
768.831	0.0163352
768.909	0.0163422
768.987	0.0162479
769.065	0.0161564
769.143	0.0160845
769.221	0.0160358
769.299	0.0159274
769.378	0.0160586
769.456	0.0159624
769.534	0.0160906
769.612	0.0159789
769.690	0.0160246
769.768	0.0159692
769.846	0.0161198
769.924	0.0161143
770.003	0.0160094
770.081	0.0162811
770.159	0.0162907
770.237	0.0164414
770.315	0.0164779
770.393	0.0165167
770.471	0.0166086
770.549	0.0166943
770.628	0.0167593
770.706	0.0167362
770.784	0.0168934
770.862	0.0170940
770.940	0.0169292
771.018	0.0169351
771.096	0.0170380
771.174	0.0169831
771.253	0.0170193
771.331	0.0169316
771.409	0.0168370
771.487	0.0168507
771.565	0.0166941
771.643	0.0166775
771.721	0.0165195
771.799	0.0164690
771.878	0.0164052
771.956	0.0162783
772.034	0.0162751
772.112	0.0161788
772.190	0.0159447
772.268	0.0161138
772.346	0.0163003
772.424	0.0161361
772.503	0.0163084
772.581	0.0162067
772.659	0.0162851
772.737	0.0163504
772.815	0.0162899
772.893	0.0163383
772.971	0.0164959
773.049	0.0164781
773.128	0.0167000
773.206	0.0165453
773.284	0.0167047
773.362	0.0167960
773.440	0.0169274
773.518	0.0167690
773.596	0.0169908
773.674	0.0169740
773.753	0.0168050
773.831	0.0168498
773.909	0.0168343
773.987	0.0170184
774.065	0.0169996
774.143	0.0168899
774.221	0.0168658
774.299	0.0167693
774.378	0.0167288
774.456	0.0167093
774.534	0.0166317
774.612	0.0165831
774.690	0.0165664
774.768	0.0163787
774.846	0.0162154
774.924	0.0162155
775.003	0.0162868
775.081	0.0160963
775.159	0.0159884
775.237	0.0158701
775.315	0.0159200
775.393	0.0160303
775.471	0.0159789
775.549	0.0160992
775.628	0.0160717
775.706	0.0159389
775.784	0.0161627
775.862	0.0160987
775.940	0.0162370
776.018	0.0162688
776.096	0.0163973
776.174	0.0163414
776.253	0.0162865
776.331	0.0164201
776.409	0.0164579
776.487	0.0164420
776.565	0.0164387
776.643	0.0166102
776.721	0.0165739
776.799	0.0166962
776.878	0.0166772
776.956	0.0165955
777.034	0.0166528
777.112	0.0165849
777.190	0.0167706
777.268	0.0167960
777.346	0.0167101
777.424	0.0167130
777.503	0.0167921
777.581	0.0166453
777.659	0.0166451
777.737	0.0167813
777.815	0.0166779
777.893	0.0166895
777.971	0.0168104
778.049	0.0166574
778.128	0.0167587
778.206	0.0167174
778.284	0.0166101
778.362	0.0166679
778.440	0.0167258
778.518	0.0167766
778.596	0.0167056
778.674	0.0167749
778.753	0.0167448
778.831	0.0167778
778.909	0.0168379
778.987	0.0167788
779.065	0.0166316
779.143	0.0166640
779.221	0.0167911
779.299	0.0166856
779.378	0.0167731
779.456	0.0166015
779.534	0.0166428
779.612	0.0167571
779.690	0.0167329
779.768	0.0167845
779.846	0.0166020
779.924	0.0165870
780.003	0.0166692
780.081	0.0168429
780.159	0.0167180
780.237	0.0166996
780.315	0.0165726
780.393	0.0168218
780.471	0.0165741
780.549	0.0164595
780.628	0.0166803
780.706	0.0165393
780.784	0.0166012
780.862	0.0164841
780.940	0.0164904
781.018	0.0165233
781.096	0.0165636
781.174	0.0166140
781.253	0.0165479
781.331	0.0165904
781.409	0.0166021
781.487	0.0164468
781.565	0.0165108
781.643	0.0164105
781.721	0.0164160
781.799	0.0164938
781.878	0.0164045
781.956	0.0164182
782.034	0.0164677
782.112	0.0164664
782.190	0.0165365
782.268	0.0165844
782.346	0.0165827
782.424	0.0165462
782.503	0.0165132
782.581	0.0165373
782.659	0.0167330
782.737	0.0166827
782.815	0.0166628
782.893	0.0166241
782.971	0.0166271
783.049	0.0166612
783.128	0.0166487
783.206	0.0166969
783.284	0.0164615
783.362	0.0165562
783.440	0.0165891
783.518	0.0165096
783.596	0.0165331
783.674	0.0163347
783.753	0.0162833
783.831	0.0162915
783.909	0.0162445
783.987	0.0162237
784.065	0.0161594
784.143	0.0163091
784.221	0.0162782
784.299	0.0161707
784.378	0.0159449
784.456	0.0160403
784.534	0.0161050
784.612	0.0162588
784.690	0.0161163
784.768	0.0160956
784.846	0.0161903
784.924	0.0161668
785.003	0.0162685
785.081	0.0162202
785.159	0.0162312
785.237	0.0162829
785.315	0.0163950
785.393	0.0165467
785.471	0.0165292
785.549	0.0165971
785.628	0.0166319
785.706	0.0167195
785.784	0.0166402
785.862	0.0165872
785.940	0.0167904
786.018	0.0167017
786.096	0.0166613
786.174	0.0167603
786.253	0.0166766
786.331	0.0166789
786.409	0.0166939
786.487	0.0166071
786.565	0.0165725
786.643	0.0166052
786.721	0.0163573
786.799	0.0164053
786.878	0.0163740
786.956	0.0164909
787.034	0.0163090
787.112	0.0163509
787.190	0.0162840
787.268	0.0162669
787.346	0.0161926
787.424	0.0161975
787.503	0.0161947
787.581	0.0160767
787.659	0.0161878
787.737	0.0160449
787.815	0.0161145
787.893	0.0161765
787.971	0.0160762
788.049	0.0162999
788.128	0.0162488
788.206	0.0164547
788.284	0.0163944
788.362	0.0163353
788.440	0.0164873
788.518	0.0164946
788.596	0.0165460
788.674	0.0165614
788.753	0.0166356
788.831	0.0166069
788.909	0.0167398
788.987	0.0165832
789.065	0.0167235
789.143	0.0167822
789.221	0.0166853
789.299	0.0167490
789.378	0.0166563
789.456	0.0166360
789.534	0.0166051
789.612	0.0167544
789.690	0.0166254
789.768	0.0165900
789.846	0.0167154
789.924	0.0166042
790.003	0.0166157
790.081	0.0165290
790.159	0.0167019
790.237	0.0166673
790.315	0.0165755
790.393	0.0165593
790.471	0.0165266
790.549	0.0165579
790.628	0.0166066
790.706	0.0165569
790.784	0.0165189
790.862	0.0165558
790.940	0.0166087
791.018	0.0165483
791.096	0.0166559
791.174	0.0165730
791.253	0.0166451
791.331	0.0165132
791.409	0.0165396
791.487	0.0166782
791.565	0.0166993
791.643	0.0166676
791.721	0.0165547
791.799	0.0166698
791.878	0.0167029
791.956	0.0166104
792.034	0.0166976
792.112	0.0167056
792.190	0.0166668
792.268	0.0165414
792.346	0.0166506
792.424	0.0166086
792.503	0.0166262
792.581	0.0166135
792.659	0.0165576
792.737	0.0165791
792.815	0.0165060
792.893	0.0165540
792.971	0.0164455
793.049	0.0165147
793.128	0.0164312
793.206	0.0164565
793.284	0.0163262
793.362	0.0164031
793.440	0.0162142
793.518	0.0161131
793.596	0.0161505
793.674	0.0161766
793.753	0.0161304
793.831	0.0162407
793.909	0.0163054
793.987	0.0162591
794.065	0.0163140
794.143	0.0163518
794.221	0.0164063
794.299	0.0164901
794.378	0.0164452
794.456	0.0165897
794.534	0.0166682
794.612	0.0166417
794.690	0.0166442
794.768	0.0165783
794.846	0.0166198
794.924	0.0167334
795.003	0.0166695
795.081	0.0167031
795.159	0.0167715
795.237	0.0167854
795.315	0.0165560
795.393	0.0166979
795.471	0.0166711
795.549	0.0166187
795.628	0.0166535
795.706	0.0167182
795.784	0.0165739
795.862	0.0166014
795.940	0.0165894
796.018	0.0165148
796.096	0.0164667
796.174	0.0164154
796.253	0.0165701
796.331	0.0164861
796.409	0.0163251
796.487	0.0164637
796.565	0.0165703
796.643	0.0164577
796.721	0.0163925
796.799	0.0164053
796.878	0.0163129
796.956	0.0162693
797.034	0.0163609
797.112	0.0163474
797.190	0.0165826
797.268	0.0163403
797.346	0.0163528
797.424	0.0164951
797.503	0.0163577
797.581	0.0162704
797.659	0.0162842
797.737	0.0163597
797.815	0.0161650
797.893	0.0164079
797.971	0.0163297
798.049	0.0161115
798.128	0.0163247
798.206	0.0162293
798.284	0.0163348
798.362	0.0162538
798.440	0.0163879
798.518	0.0162554
798.596	0.0162489
798.674	0.0163277
798.753	0.0163848
798.831	0.0164967
798.909	0.0165009
798.987	0.0164803
799.065	0.0163690
799.143	0.0162920
799.221	0.0163609
799.299	0.0164584
799.378	0.0164536
799.456	0.0163708
799.534	0.0163134
799.612	0.0164164
799.690	0.0163718
799.768	0.0162605
799.846	0.0162566
799.924	0.0163202
800.003	0.0163028
800.081	0.0162170
800.159	0.0162035
800.237	0.0161843
800.315	0.0163210
800.393	0.0162605
800.471	0.0160339
800.549	0.0162319
800.628	0.0162344
800.706	0.0162466
800.784	0.0164133
800.862	0.0163190
800.940	0.0162692
801.018	0.0164969
801.096	0.0163921
801.174	0.0165222
801.253	0.0166359
801.331	0.0166228
801.409	0.0165779
801.487	0.0166241
801.565	0.0167297
801.643	0.0166958
801.721	0.0167252
801.799	0.0166645
801.878	0.0166319
801.956	0.0167673
802.034	0.0167339
802.112	0.0166415
802.190	0.0168175
802.268	0.0167413
802.346	0.0165987
802.424	0.0165684
802.503	0.0166908
802.581	0.0165295
802.659	0.0166824
802.737	0.0166325
802.815	0.0165859
802.893	0.0165742
802.971	0.0164895
803.049	0.0164682
803.128	0.0164079
803.206	0.0165912
803.284	0.0164797
803.362	0.0164557
803.440	0.0163921
803.518	0.0163528
803.596	0.0163808
803.674	0.0162600
803.753	0.0164059
803.831	0.0162951
803.909	0.0162820
803.987	0.0165454
804.065	0.0163584
804.143	0.0163959
804.221	0.0165958
804.299	0.0164062
804.378	0.0162372
804.456	0.0163937
804.534	0.0165144
804.612	0.0164730
804.690	0.0163881
804.768	0.0164475
804.846	0.0164761
804.924	0.0164072
805.003	0.0165549
805.081	0.0165582
805.159	0.0165228
805.237	0.0165870
805.315	0.0166522
805.393	0.0165678
805.471	0.0165670
805.549	0.0165932
805.628	0.0165693
805.706	0.0165355
805.784	0.0165495
805.862	0.0165870
805.940	0.0163522
806.018	0.0164562
806.096	0.0163732
806.174	0.0164915
806.253	0.0163815
806.331	0.0165040
806.409	0.0164055
806.487	0.0163446
806.565	0.0163368
806.643	0.0164153
806.721	0.0163443
806.799	0.0162574
806.878	0.0164030
806.956	0.0163842
807.034	0.0162981
807.112	0.0164316
807.190	0.0164165
807.268	0.0163911
807.346	0.0165325
807.424	0.0164686
807.503	0.0164591
807.581	0.0164008
807.659	0.0163379
807.737	0.0165372
807.815	0.0164970
807.893	0.0165079
807.971	0.0165639
808.049	0.0166331
808.128	0.0165942
808.206	0.0167000
808.284	0.0165195
808.362	0.0166854
808.440	0.0166033
808.518	0.0167243
808.596	0.0164686
808.674	0.0165706
808.753	0.0165102
808.831	0.0165308
808.909	0.0166427
808.987	0.0165858
809.065	0.0165445
809.143	0.0165788
809.221	0.0166591
809.299	0.0166406
809.378	0.0165644
809.456	0.0165732
809.534	0.0165968
809.612	0.0165052
809.690	0.0165539
809.768	0.0165499
809.846	0.0165960
809.924	0.0166380
810.003	0.0164657
810.081	0.0165166
810.159	0.0165375
810.237	0.0165900
810.315	0.0165450
810.393	0.0164604
810.471	0.0162685
810.549	0.0164397
810.628	0.0165115
810.706	0.0162430
810.784	0.0163928
810.862	0.0165118
810.940	0.0164027
811.018	0.0163759
811.096	0.0162522
811.174	0.0163156
811.253	0.0163761
811.331	0.0164395
811.409	0.0162859
811.487	0.0163009
811.565	0.0164146
811.643	0.0163707
811.721	0.0162711
811.799	0.0162960
811.878	0.0163035
811.956	0.0163905
812.034	0.0163056
812.112	0.0162595
812.190	0.0163322
812.268	0.0162617
812.346	0.0162106
812.424	0.0164064
812.503	0.0163327
812.581	0.0163741
812.659	0.0162331
812.737	0.0163820
812.815	0.0162178
812.893	0.0161669
812.971	0.0161390
813.049	0.0162718
813.128	0.0162293
813.206	0.0162016
813.284	0.0160976
813.362	0.0161906
813.440	0.0161505
813.518	0.0160939
813.596	0.0161897
813.674	0.0161645
813.753	0.0162188
813.831	0.0162140
813.909	0.0163223
813.987	0.0161845
814.065	0.0160847
814.143	0.0161311
814.221	0.0163627
814.299	0.0163047
814.378	0.0162775
814.456	0.0163274
814.534	0.0162568
814.612	0.0162724
814.690	0.0164091
814.768	0.0162934
814.846	0.0163895
814.924	0.0164181
815.003	0.0163054
815.081	0.0163412
815.159	0.0163823
815.237	0.0163773
815.315	0.0163955
815.393	0.0164629
815.471	0.0164590
815.549	0.0164154
815.628	0.0162656
815.706	0.0164622
815.784	0.0165771
815.862	0.0164672
815.940	0.0164488
816.018	0.0163634
816.096	0.0163793
816.174	0.0163942
816.253	0.0163414
816.331	0.0161598
816.409	0.0163406
816.487	0.0162862
816.565	0.0164634
816.643	0.0163734
816.721	0.0162352
816.799	0.0164259
816.878	0.0162199
816.956	0.0163388
817.034	0.0162019
817.112	0.0162318
817.190	0.0162687
817.268	0.0163332
817.346	0.0163334
817.424	0.0162837
817.503	0.0163176
817.581	0.0163181
817.659	0.0162939
817.737	0.0163490
817.815	0.0163936
817.893	0.0165057
817.971	0.0164643
818.049	0.0164390
818.128	0.0164684
818.206	0.0164481
818.284	0.0164769
818.362	0.0165371
818.440	0.0164805
818.518	0.0165009
818.596	0.0165981
818.674	0.0164159
818.753	0.0163857
818.831	0.0165476
818.909	0.0163838
818.987	0.0165978
819.065	0.0164323
819.143	0.0164547
819.221	0.0164189
819.299	0.0164116
819.378	0.0163976
819.456	0.0164600
819.534	0.0163634
819.612	0.0163248
819.690	0.0163766
819.768	0.0161467
819.846	0.0163445
819.924	0.0163175
820.003	0.0164613
820.081	0.0163395
820.159	0.0161459
820.237	0.0162848
820.315	0.0163414
820.393	0.0161802
820.471	0.0161900
820.549	0.0162759
820.628	0.0162458
820.706	0.0161861
820.784	0.0162471
820.862	0.0161824
820.940	0.0160237
821.018	0.0161666
821.096	0.0163065
821.174	0.0162368
821.253	0.0161938
821.331	0.0162568
821.409	0.0164683
821.487	0.0164344
821.565	0.0163435
821.643	0.0164321
821.721	0.0164362
821.799	0.0164634
821.878	0.0165284
821.956	0.0165376
822.034	0.0167245
822.112	0.0166502
822.190	0.0165620
822.268	0.0164578
822.346	0.0166872
822.424	0.0166413
822.503	0.0167112
822.581	0.0167495
822.659	0.0167416
822.737	0.0167504
822.815	0.0166063
822.893	0.0165905
822.971	0.0166908
823.049	0.0166456
823.128	0.0166552
823.206	0.0167343
823.284	0.0167200
823.362	0.0166615
823.440	0.0166457
823.518	0.0167220
823.596	0.0166224
823.674	0.0165699
823.753	0.0165715
823.831	0.0165553
823.909	0.0165089
823.987	0.0165221
824.065	0.0164701
824.143	0.0164411
824.221	0.0166060
824.299	0.0164559
824.378	0.0164778
824.456	0.0165149
824.534	0.0164606
824.612	0.0165097
824.690	0.0165012
824.768	0.0164693
824.846	0.0165170
824.924	0.0164584
825.003	0.0166798
825.081	0.0163894
825.159	0.0164393
825.237	0.0165746
825.315	0.0164880
825.393	0.0164581
825.471	0.0163681
825.549	0.0166288
825.628	0.0165897
825.706	0.0165353
825.784	0.0165672
825.862	0.0166839
825.940	0.0167350
826.018	0.0166326
826.096	0.0167564
826.174	0.0166004
826.253	0.0166224
826.331	0.0165852
826.409	0.0165067
826.487	0.0166893
826.565	0.0164410
826.643	0.0164204
826.721	0.0164962
826.799	0.0164124
826.878	0.0162753
826.956	0.0163816
827.034	0.0164970
827.112	0.0163245
827.190	0.0163473
827.268	0.0162348
827.346	0.0162042
827.424	0.0163682
827.503	0.0162315
827.581	0.0162085
827.659	0.0161535
827.737	0.0161692
827.815	0.0160417
827.893	0.0160838
827.971	0.0160590
828.049	0.0161188
828.128	0.0160378
828.206	0.0159800
828.284	0.0161141
828.362	0.0159943
828.440	0.0159931
828.518	0.0158994
828.596	0.0160398
828.674	0.0161382
828.753	0.0161021
828.831	0.0161306
828.909	0.0162746
828.987	0.0162650
829.065	0.0164973
829.143	0.0164911
829.221	0.0164291
829.299	0.0164497
829.378	0.0164680
829.456	0.0165692
829.534	0.0165986
829.612	0.0166219
829.690	0.0166495
829.768	0.0166766
829.846	0.0167229
829.924	0.0168763
830.003	0.0167925
830.081	0.0167336
830.159	0.0167617
830.237	0.0167238
830.315	0.0168328
830.393	0.0167469
830.471	0.0167854
830.549	0.0168113
830.628	0.0165883
830.706	0.0167687
830.784	0.0166554
830.862	0.0167059
830.940	0.0166612
831.018	0.0166788
831.096	0.0165283
831.174	0.0166030
831.253	0.0165996
831.331	0.0165956
831.409	0.0165648
831.487	0.0165067
831.565	0.0167000
831.643	0.0165083
831.721	0.0164568
831.799	0.0163876
831.878	0.0165359
831.956	0.0164275
832.034	0.0162969
832.112	0.0163895
832.190	0.0162074
832.268	0.0163300
832.346	0.0163445
832.424	0.0164069
832.503	0.0164220
832.581	0.0163994
832.659	0.0163840
832.737	0.0164516
832.815	0.0164501
832.893	0.0164941
832.971	0.0165890
833.049	0.0164997
833.128	0.0163863
833.206	0.0165718
833.284	0.0165469
833.362	0.0165900
833.440	0.0165120
833.518	0.0166219
833.596	0.0166300
833.674	0.0165967
833.753	0.0165183
833.831	0.0165612
833.909	0.0167293
833.987	0.0165681
834.065	0.0165787
834.143	0.0166666
834.221	0.0166454
834.299	0.0166763
834.378	0.0165324
834.456	0.0166058
834.534	0.0165612
834.612	0.0164555
834.690	0.0164675
834.768	0.0164065
834.846	0.0165239
834.924	0.0163607
835.003	0.0163557
835.081	0.0162564
835.159	0.0164741
835.237	0.0163715
835.315	0.0163110
835.393	0.0163583
835.471	0.0162848
835.549	0.0161948
835.628	0.0161560
835.706	0.0162776
835.784	0.0162389
835.862	0.0163479
835.940	0.0162807
836.018	0.0163274
836.096	0.0161880
836.174	0.0162444
836.253	0.0162533
836.331	0.0162409
836.409	0.0162027
836.487	0.0164177
836.565	0.0163778
836.643	0.0163322
836.721	0.0162755
836.799	0.0165166
836.878	0.0163342
836.956	0.0163173
837.034	0.0163631
837.112	0.0164233
837.190	0.0163604
837.268	0.0162971
837.346	0.0164378
837.424	0.0164360
837.503	0.0165168
837.581	0.0164391
837.659	0.0164406
837.737	0.0165821
837.815	0.0165643
837.893	0.0165109
837.971	0.0162753
838.049	0.0163400
838.128	0.0162808
838.206	0.0163017
838.284	0.0161729
838.362	0.0161848
838.440	0.0161799
838.518	0.0162271
838.596	0.0161641
838.674	0.0161420
838.753	0.0161902
838.831	0.0160676
838.909	0.0160152
838.987	0.0161729
839.065	0.0160045
839.143	0.0161592
839.221	0.0161333
839.299	0.0161723
839.378	0.0161622
839.456	0.0161551
839.534	0.0161467
839.612	0.0162023
839.690	0.0162649
839.768	0.0162724
839.846	0.0163071
839.924	0.0163521
840.003	0.0162538
840.081	0.0162197
840.159	0.0163793
840.237	0.0163652
840.315	0.0164523
840.393	0.0164393
840.471	0.0164903
840.549	0.0165683
840.628	0.0165382
840.706	0.0165292
840.784	0.0165005
840.862	0.0164661
840.940	0.0166034
841.018	0.0165084
841.096	0.0166084
841.174	0.0166071
841.253	0.0164983
841.331	0.0166156
841.409	0.0166349
841.487	0.0165888
841.565	0.0164869
841.643	0.0167672
841.721	0.0166479
841.799	0.0166238
841.878	0.0167480
841.956	0.0167548
842.034	0.0166782
842.112	0.0165948
842.190	0.0166600
842.268	0.0166780
842.346	0.0167022
842.424	0.0168580
842.503	0.0167601
842.581	0.0166333
842.659	0.0167216
842.737	0.0167023
842.815	0.0166428
842.893	0.0167010
842.971	0.0167238
843.049	0.0167684
843.128	0.0166309
843.206	0.0166373
843.284	0.0166601
843.362	0.0165729
843.440	0.0167067
843.518	0.0165881
843.596	0.0165450
843.674	0.0167322
843.753	0.0167139
843.831	0.0165897
843.909	0.0164633
843.987	0.0165140
844.065	0.0164476
844.143	0.0166519
844.221	0.0165804
844.299	0.0165971
844.378	0.0166494
844.456	0.0165796
844.534	0.0166600
844.612	0.0164274
844.690	0.0166530
844.768	0.0165312
844.846	0.0166442
844.924	0.0167662
845.003	0.0166583
845.081	0.0166122
845.159	0.0166004
845.237	0.0166391
845.315	0.0166772
845.393	0.0167057
845.471	0.0166798
845.549	0.0166499
845.628	0.0166653
845.706	0.0166174
845.784	0.0167688
845.862	0.0165775
845.940	0.0165811
846.018	0.0167576
846.096	0.0166487
846.174	0.0165838
846.253	0.0166723
846.331	0.0165544
846.409	0.0165904
846.487	0.0166914
846.565	0.0166516
846.643	0.0166116
846.721	0.0165588
846.799	0.0166187
846.878	0.0165480
846.956	0.0166756
847.034	0.0165227
847.112	0.0166476
847.190	0.0166303
847.268	0.0165614
847.346	0.0165601
847.424	0.0166004
847.503	0.0165407
847.581	0.0164401
847.659	0.0166137
847.737	0.0165667
847.815	0.0166836
847.893	0.0165659
847.971	0.0165351
848.049	0.0166077
848.128	0.0165728
848.206	0.0166284
848.284	0.0166467
848.362	0.0166374
848.440	0.0166801
848.518	0.0166146
848.596	0.0165627
848.674	0.0166599
848.753	0.0166331
848.831	0.0166223
848.909	0.0166338
848.987	0.0166443
849.065	0.0166057
849.143	0.0165546
849.221	0.0164831
849.299	0.0165642
849.378	0.0165963
849.456	0.0165434
849.534	0.0164940
849.612	0.0163675
849.690	0.0163667
849.768	0.0163973
849.846	0.0164482
849.924	0.0164435
850.003	0.0162982
850.081	0.0163680
850.159	0.0164201
850.237	0.0163902
850.315	0.0164224
850.393	0.0163252
850.471	0.0162337
850.549	0.0161571
850.628	0.0162122
850.706	0.0163165
850.784	0.0162408
850.862	0.0162778
850.940	0.0162093
851.018	0.0161642
851.096	0.0162576
851.174	0.0161371
851.253	0.0162401
851.331	0.0162218
851.409	0.0161494
851.487	0.0162618
851.565	0.0162180
851.643	0.0162221
851.721	0.0162816
851.799	0.0163590
851.878	0.0163699
851.956	0.0162778
852.034	0.0163132
852.112	0.0165016
852.190	0.0164574
852.268	0.0164368
852.346	0.0165452
852.424	0.0165834
852.503	0.0164653
852.581	0.0164276
852.659	0.0163877
852.737	0.0163073
852.815	0.0165455
852.893	0.0163980
852.971	0.0165348
853.049	0.0164158
853.128	0.0164232
853.206	0.0163641
853.284	0.0162596
853.362	0.0163999
853.440	0.0164211
853.518	0.0163303
853.596	0.0164378
853.674	0.0163851
853.753	0.0162555
853.831	0.0163392
853.909	0.0163878
853.987	0.0164091
854.065	0.0163746
854.143	0.0162885
854.221	0.0163140
854.299	0.0163368
854.378	0.0164316
854.456	0.0163741
854.534	0.0163167
854.612	0.0163970
854.690	0.0162553
854.768	0.0163498
854.846	0.0165306
854.924	0.0163104
855.003	0.0161904
855.081	0.0163560
855.159	0.0164026
855.237	0.0163216
855.315	0.0164689
855.393	0.0164254
855.471	0.0164825
855.549	0.0163698
855.628	0.0165051
855.706	0.0163495
855.784	0.0163319
855.862	0.0163906
855.940	0.0164497
856.018	0.0163349
856.096	0.0164030
856.174	0.0165066
856.253	0.0164929
856.331	0.0163459
856.409	0.0163640
856.487	0.0166112
856.565	0.0164037
856.643	0.0164603
856.721	0.0164375
856.799	0.0164191
856.878	0.0164729
856.956	0.0163699
857.034	0.0165024
857.112	0.0165211
857.190	0.0164674
857.268	0.0165426
857.346	0.0165877
857.424	0.0166382
857.503	0.0165650
857.581	0.0165305
857.659	0.0165698
857.737	0.0166670
857.815	0.0165961
857.893	0.0166881
857.971	0.0164616
858.049	0.0165536
858.128	0.0166862
858.206	0.0166838
858.284	0.0165078
858.362	0.0166479
858.440	0.0165699
858.518	0.0166616
858.596	0.0165402
858.674	0.0165150
858.753	0.0165571
858.831	0.0163738
858.909	0.0163779
858.987	0.0165282
859.065	0.0163025
859.143	0.0163672
859.221	0.0164388
859.299	0.0163755
859.378	0.0162499
859.456	0.0163249
859.534	0.0164252
859.612	0.0161954
859.690	0.0162270
859.768	0.0163502
859.846	0.0163100
859.924	0.0161428
860.003	0.0162869
860.081	0.0162469
860.159	0.0163097
860.237	0.0161472
860.315	0.0160812
860.393	0.0162228
860.471	0.0162381
860.549	0.0162820
860.628	0.0163615
860.706	0.0162648
860.784	0.0162595
860.862	0.0162800
860.940	0.0163655
861.018	0.0163052
861.096	0.0163949
861.174	0.0164046
861.253	0.0164027
861.331	0.0163974
861.409	0.0163035
861.487	0.0162358
861.565	0.0164077
861.643	0.0163513
861.721	0.0163625
861.799	0.0164156
861.878	0.0162214
861.956	0.0164053
862.034	0.0164742
862.112	0.0163458
862.190	0.0162009
862.268	0.0163349
862.346	0.0164453
862.424	0.0163006
862.503	0.0164325
862.581	0.0164870
862.659	0.0162851
862.737	0.0164140
862.815	0.0163927
862.893	0.0164503
862.971	0.0164928
863.049	0.0163792
863.128	0.0164194
863.206	0.0165118
863.284	0.0165937
863.362	0.0166692
863.440	0.0166225
863.518	0.0165247
863.596	0.0165494
863.674	0.0165952
863.753	0.0166753
863.831	0.0165959
863.909	0.0166268
863.987	0.0165739
864.065	0.0166075
864.143	0.0165936
864.221	0.0166021
864.299	0.0165047
864.378	0.0165102
864.456	0.0166145
864.534	0.0166356
864.612	0.0164440
864.690	0.0166125
864.768	0.0166094
864.846	0.0164870
864.924	0.0164414
865.003	0.0165244
865.081	0.0164815
865.159	0.0164575
865.237	0.0165057
865.315	0.0162255
865.393	0.0163113
865.471	0.0164703
865.549	0.0164966
865.628	0.0164291
865.706	0.0164410
865.784	0.0163677
865.862	0.0163622
865.940	0.0163684
866.018	0.0163358
866.096	0.0164825
866.174	0.0163027
866.253	0.0164646
866.331	0.0165310
866.409	0.0165244
866.487	0.0163814
866.565	0.0163969
866.643	0.0164393
866.721	0.0166425
866.799	0.0164289
866.878	0.0166204
866.956	0.0165228
867.034	0.0165527
867.112	0.0165417
867.190	0.0165578
867.268	0.0166106
867.346	0.0166000
867.424	0.0168549
867.503	0.0168398
867.581	0.0166770
867.659	0.0166845
867.737	0.0167289
867.815	0.0167291
867.893	0.0166702
867.971	0.0167210
868.049	0.0168562
868.128	0.0167426
868.206	0.0167540
868.284	0.0168552
868.362	0.0168569
868.440	0.0166911
868.518	0.0169212
868.596	0.0167251
868.674	0.0167447
868.753	0.0168067
868.831	0.0167902
868.909	0.0168372
868.987	0.0168183
869.065	0.0166255
869.143	0.0167114
869.221	0.0167430
869.299	0.0166757
869.378	0.0167704
869.456	0.0166733
869.534	0.0166032
869.612	0.0165525
869.690	0.0166852
869.768	0.0167039
869.846	0.0168359
869.924	0.0166377
870.003	0.0166695
870.081	0.0166450
870.159	0.0166253
870.237	0.0167123
870.315	0.0166521
870.393	0.0165166
870.471	0.0166149
870.549	0.0165575
870.628	0.0165445
870.706	0.0165070
870.784	0.0167530
870.862	0.0166435
870.940	0.0166671
871.018	0.0167574
871.096	0.0167545
871.174	0.0166335
871.253	0.0166282
871.331	0.0167178
871.409	0.0167127
871.487	0.0166985
871.565	0.0164618
871.643	0.0166013
871.721	0.0164816
871.799	0.0165015
871.878	0.0166235
871.956	0.0165246
872.034	0.0165428
872.112	0.0164931
872.190	0.0165649
872.268	0.0165261
872.346	0.0164369
872.424	0.0163090
872.503	0.0164707
872.581	0.0163914
872.659	0.0165792
872.737	0.0164614
872.815	0.0163783
872.893	0.0164529
872.971	0.0164723
873.049	0.0164472
873.128	0.0164610
873.206	0.0164864
873.284	0.0164911
873.362	0.0165137
873.440	0.0165574
873.518	0.0165482
873.596	0.0165912
873.674	0.0166150
873.753	0.0165751
873.831	0.0165939
873.909	0.0167123
873.987	0.0167536
874.065	0.0166956
874.143	0.0168643
874.221	0.0168204
874.299	0.0168039
874.378	0.0169515
874.456	0.0169335
874.534	0.0168395
874.612	0.0168460
874.690	0.0168794
874.768	0.0168887
874.846	0.0168335
874.924	0.0167927
875.003	0.0165569
875.081	0.0165692
875.159	0.0166781
875.237	0.0166072
875.315	0.0167603
875.393	0.0166114
875.471	0.0166055
875.549	0.0165547
875.628	0.0165024
875.706	0.0166635
875.784	0.0165462
875.862	0.0166096
875.940	0.0165816
876.018	0.0166196
876.096	0.0167573
876.174	0.0163799
876.253	0.0164949
876.331	0.0165224
876.409	0.0165093
876.487	0.0164876
876.565	0.0164311
876.643	0.0165559
876.721	0.0164568
876.799	0.0164213
876.878	0.0163510
876.956	0.0163181
877.034	0.0164062
877.112	0.0162586
877.190	0.0164278
877.268	0.0162624
877.346	0.0161594
877.424	0.0162412
877.503	0.0163239
877.581	0.0162632
877.659	0.0163107
877.737	0.0162123
877.815	0.0161893
877.893	0.0162360
877.971	0.0162643
878.049	0.0161422
878.128	0.0163343
878.206	0.0162357
878.284	0.0162290
878.362	0.0162245
878.440	0.0162828
878.518	0.0162456
878.596	0.0163312
878.674	0.0162367
878.753	0.0163052
878.831	0.0163647
878.909	0.0164304
878.987	0.0164513
879.065	0.0163527
879.143	0.0162493
879.221	0.0164268
879.299	0.0163966
879.378	0.0164401
879.456	0.0162812
879.534	0.0163548
879.612	0.0163472
879.690	0.0163548
879.768	0.0164270
879.846	0.0162419
879.924	0.0162949
880.003	0.0163238
880.081	0.0163148
880.159	0.0164333
880.237	0.0164384
880.315	0.0165539
880.393	0.0165456
880.471	0.0166086
880.549	0.0165190
880.628	0.0163604
880.706	0.0164834
880.784	0.0165332
880.862	0.0165324
880.940	0.0164708
881.018	0.0164432
881.096	0.0165708
881.174	0.0164858
881.253	0.0164619
881.331	0.0164463
881.409	0.0164603
881.487	0.0165190
881.565	0.0165388
881.643	0.0165097
881.721	0.0165528
881.799	0.0166454
881.878	0.0165572
881.956	0.0165194
882.034	0.0165114
882.112	0.0165248
882.190	0.0164873
882.268	0.0166516
882.346	0.0166507
882.424	0.0166757
882.503	0.0165495
882.581	0.0166338
882.659	0.0166727
882.737	0.0167247
882.815	0.0167797
882.893	0.0166674
882.971	0.0166747
883.049	0.0166405
883.128	0.0166893
883.206	0.0166611
883.284	0.0165652
883.362	0.0166116
883.440	0.0166102
883.518	0.0164750
883.596	0.0164201
883.674	0.0164951
883.753	0.0162971
883.831	0.0162029
883.909	0.0162138
883.987	0.0161993
884.065	0.0162161
884.143	0.0162161
884.221	0.0160796
884.299	0.0161086
884.378	0.0161771
884.456	0.0159782
884.534	0.0161151
884.612	0.0160287
884.690	0.0158601
884.768	0.0160062
884.846	0.0161277
884.924	0.0160285
885.003	0.0161510
885.081	0.0161797
885.159	0.0162825
885.237	0.0161479
885.315	0.0161404
885.393	0.0161893
885.471	0.0161385
885.549	0.0161571
885.628	0.0162549
885.706	0.0162273
885.784	0.0162681
885.862	0.0162911
885.940	0.0161707
886.018	0.0163711
886.096	0.0163377
886.174	0.0163444
886.253	0.0163377
886.331	0.0163486
886.409	0.0163429
886.487	0.0164582
886.565	0.0163577
886.643	0.0163101
886.721	0.0164431
886.799	0.0164104
886.878	0.0164610
886.956	0.0164024
887.034	0.0164179
887.112	0.0164855
887.190	0.0163552
887.268	0.0165011
887.346	0.0166136
887.424	0.0165507
887.503	0.0164212
887.581	0.0164639
887.659	0.0165603
887.737	0.0167146
887.815	0.0165487
887.893	0.0165187
887.971	0.0164239
888.049	0.0164676
888.128	0.0165413
888.206	0.0166125
888.284	0.0164729
888.362	0.0167274
888.440	0.0166962
888.518	0.0165182
888.596	0.0166370
888.674	0.0166337
888.753	0.0166187
888.831	0.0165447
888.909	0.0165981
888.987	0.0166435
889.065	0.0165876
889.143	0.0166604
889.221	0.0166705
889.299	0.0167165
889.378	0.0166126
889.456	0.0165485
889.534	0.0165916
889.612	0.0166002
889.690	0.0165705
889.768	0.0164955
889.846	0.0166311
889.924	0.0165646
890.003	0.0166682
890.081	0.0165405
890.159	0.0165279
890.237	0.0165742
890.315	0.0164487
890.393	0.0164569
890.471	0.0164993
890.549	0.0164569
890.628	0.0163695
890.706	0.0164648
890.784	0.0166488
890.862	0.0164708
890.940	0.0163943
891.018	0.0164677
891.096	0.0164186
891.174	0.0165794
891.253	0.0167588
891.331	0.0166376
891.409	0.0165144
891.487	0.0164749
891.565	0.0166196
891.643	0.0166620
891.721	0.0166340
891.799	0.0165821
891.878	0.0166509
891.956	0.0164877
892.034	0.0165549
892.112	0.0165471
892.190	0.0165591
892.268	0.0165559
892.346	0.0166203
892.424	0.0164665
892.503	0.0165455
892.581	0.0166293
892.659	0.0165762
892.737	0.0165155
892.815	0.0165176
892.893	0.0164556
892.971	0.0165440
893.049	0.0164611
893.128	0.0165260
893.206	0.0164428
893.284	0.0163984
893.362	0.0162984
893.440	0.0165916
893.518	0.0165541
893.596	0.0164440
893.674	0.0164279
893.753	0.0164741
893.831	0.0164020
893.909	0.0164194
893.987	0.0165666
894.065	0.0164477
894.143	0.0165811
894.221	0.0163615
894.299	0.0163528
894.378	0.0164906
894.456	0.0164866
894.534	0.0163879
894.612	0.0164281
894.690	0.0164644
894.768	0.0164368
894.846	0.0164476
894.924	0.0164771
895.003	0.0165382
895.081	0.0163750
895.159	0.0164616
895.237	0.0164122
895.315	0.0164023
895.393	0.0162941
895.471	0.0165138
895.549	0.0165065
895.628	0.0165513
895.706	0.0165141
895.784	0.0163653
895.862	0.0164525
895.940	0.0165215
896.018	0.0164130
896.096	0.0164345
896.174	0.0163116
896.253	0.0164758
896.331	0.0165770
896.409	0.0166435
896.487	0.0166681
896.565	0.0164107
896.643	0.0164672
896.721	0.0165088
896.799	0.0165394
896.878	0.0165659
896.956	0.0165448
897.034	0.0164911
897.112	0.0165429
897.190	0.0165081
897.268	0.0165784
897.346	0.0165298
897.424	0.0164680
897.503	0.0165948
897.581	0.0164061
897.659	0.0163656
897.737	0.0164422
897.815	0.0164606
897.893	0.0165485
897.971	0.0165497
898.049	0.0166454
898.128	0.0166342
898.206	0.0165876
898.284	0.0165856
898.362	0.0165680
898.440	0.0167252
898.518	0.0166414
898.596	0.0164674
898.674	0.0164565
898.753	0.0167300
898.831	0.0166820
898.909	0.0166787
898.987	0.0165525
899.065	0.0166913
899.143	0.0166476
899.221	0.0166952
899.299	0.0165733
899.378	0.0164828
899.456	0.0167519
899.534	0.0166656
899.612	0.0167048
899.690	0.0166060
899.768	0.0165923
899.846	0.0166599
899.924	0.0166852
900.003	0.0165717
900.081	0.0165437
900.159	0.0166656
900.237	0.0165571
900.315	0.0166152
900.393	0.0166668
900.471	0.0165607
900.549	0.0165887
900.628	0.0166107
900.706	0.0166334
900.784	0.0165903
900.862	0.0166543
900.940	0.0165498
901.018	0.0166212
901.096	0.0165726
901.174	0.0165583
901.253	0.0165992
901.331	0.0166258
901.409	0.0164919
901.487	0.0165858
901.565	0.0165768
901.643	0.0164842
901.721	0.0164711
901.799	0.0165248
901.878	0.0165481
901.956	0.0165778
902.034	0.0165396
902.112	0.0164945
902.190	0.0163855
902.268	0.0165417
902.346	0.0163727
902.424	0.0165197
902.503	0.0164626
902.581	0.0165153
902.659	0.0163357
902.737	0.0163725
902.815	0.0165623
902.893	0.0166642
902.971	0.0164965
903.049	0.0165385
903.128	0.0163669
903.206	0.0164667
903.284	0.0166326
903.362	0.0164175
903.440	0.0165633
903.518	0.0166185
903.596	0.0164613
903.674	0.0165845
903.753	0.0164800
903.831	0.0163926
903.909	0.0164941
903.987	0.0165189
904.065	0.0164088
904.143	0.0164762
904.221	0.0164652
904.299	0.0165671
904.378	0.0165102
904.456	0.0164587
904.534	0.0165742
904.612	0.0164180
904.690	0.0163709
904.768	0.0164727
904.846	0.0163706
904.924	0.0164153
905.003	0.0165890
905.081	0.0163708
905.159	0.0164240
905.237	0.0164862
905.315	0.0163538
905.393	0.0165594
905.471	0.0164124
905.549	0.0164610
905.628	0.0165839
905.706	0.0163992
905.784	0.0164859
905.862	0.0164731
905.940	0.0165470
906.018	0.0166724
906.096	0.0165079
906.174	0.0165479
906.253	0.0165574
906.331	0.0163746
906.409	0.0164037
906.487	0.0164979
906.565	0.0165161
906.643	0.0164865
906.721	0.0165483
906.799	0.0165507
906.878	0.0164941
906.956	0.0164336
907.034	0.0164008
907.112	0.0163882
907.190	0.0164297
907.268	0.0164369
907.346	0.0163857
907.424	0.0163900
907.503	0.0164289
907.581	0.0163615
907.659	0.0163851
907.737	0.0162524
907.815	0.0162686
907.893	0.0164133
907.971	0.0163297
908.049	0.0161765
908.128	0.0161781
908.206	0.0162687
908.284	0.0161668
908.362	0.0162241
908.440	0.0161822
908.518	0.0162080
908.596	0.0163155
908.674	0.0161736
908.753	0.0163614
908.831	0.0163659
908.909	0.0162366
908.987	0.0162737
909.065	0.0162586
909.143	0.0162971
909.221	0.0163137
909.299	0.0163907
909.378	0.0163575
909.456	0.0161745
909.534	0.0163213
909.612	0.0163634
909.690	0.0165122
909.768	0.0164561
909.846	0.0164200
909.924	0.0164601
910.003	0.0162725
910.081	0.0164656
910.159	0.0164359
910.237	0.0164111
910.315	0.0162959
910.393	0.0164361
910.471	0.0164063
910.549	0.0164129
910.628	0.0165251
910.706	0.0164622
910.784	0.0163596
910.862	0.0164851
910.940	0.0162863
911.018	0.0162096
911.096	0.0163161
911.174	0.0163427
911.253	0.0163791
911.331	0.0163931
911.409	0.0162630
911.487	0.0164110
911.565	0.0163587
911.643	0.0163920
911.721	0.0164802
911.799	0.0164287
911.878	0.0164046
911.956	0.0164061
912.034	0.0164581
912.112	0.0165785
912.190	0.0166280
912.268	0.0165508
912.346	0.0165788
912.424	0.0164733
912.503	0.0166237
912.581	0.0164307
912.659	0.0164626
912.737	0.0166342
912.815	0.0166209
912.893	0.0165553
912.971	0.0165267
913.049	0.0165972
913.128	0.0164380
913.206	0.0162679
913.284	0.0165177
913.362	0.0164798
913.440	0.0163187
913.518	0.0163280
913.596	0.0163511
913.674	0.0164948
913.753	0.0164072
913.831	0.0164124
913.909	0.0165561
913.987	0.0164421
914.065	0.0163902
914.143	0.0165889
914.221	0.0164112
914.299	0.0165165
914.378	0.0166545
914.456	0.0165758
914.534	0.0165165
914.612	0.0164648
914.690	0.0165841
914.768	0.0165913
914.846	0.0164342
914.924	0.0164846
915.003	0.0165977
915.081	0.0166721
915.159	0.0165649
915.237	0.0166568
915.315	0.0165163
915.393	0.0165579
915.471	0.0165785
915.549	0.0165298
915.628	0.0166061
915.706	0.0167005
915.784	0.0167634
915.862	0.0166898
915.940	0.0167042
916.018	0.0167383
916.096	0.0167663
916.174	0.0167253
916.253	0.0167049
916.331	0.0167308
916.409	0.0166967
916.487	0.0167493
916.565	0.0168053
916.643	0.0167772
916.721	0.0168095
916.799	0.0167980
916.878	0.0167713
916.956	0.0167191
917.034	0.0166077
917.112	0.0166751
917.190	0.0166423
917.268	0.0166695
917.346	0.0165023
917.424	0.0163667
917.503	0.0165818
917.581	0.0165720
917.659	0.0163833
917.737	0.0164277
917.815	0.0163280
917.893	0.0164653
917.971	0.0164847
918.049	0.0164309
918.128	0.0164095
918.206	0.0164794
918.284	0.0163396
918.362	0.0163313
918.440	0.0163480
918.518	0.0162331
918.596	0.0162996
918.674	0.0163713
918.753	0.0163925
918.831	0.0164250
918.909	0.0163995
918.987	0.0162835
919.065	0.0161514
919.143	0.0163413
919.221	0.0163490
919.299	0.0163017
919.378	0.0163910
919.456	0.0164428
919.534	0.0164629
919.612	0.0163872
919.690	0.0163223
919.768	0.0162706
919.846	0.0163433
919.924	0.0163499
920.003	0.0163874
920.081	0.0164588
920.159	0.0165244
920.237	0.0166068
920.315	0.0165279
920.393	0.0163829
920.471	0.0165417
920.549	0.0165411
920.628	0.0164996
920.706	0.0164744
920.784	0.0165889
920.862	0.0166086
920.940	0.0165749
921.018	0.0164795
921.096	0.0164473
921.174	0.0163792
921.253	0.0164841
921.331	0.0164774
921.409	0.0164879
921.487	0.0164897
921.565	0.0165220
921.643	0.0164545
921.721	0.0164009
921.799	0.0163506
921.878	0.0163895
921.956	0.0163980
922.034	0.0164635
922.112	0.0164320
922.190	0.0163087
922.268	0.0163523
922.346	0.0162387
922.424	0.0162555
922.503	0.0164490
922.581	0.0163649
922.659	0.0162346
922.737	0.0162823
922.815	0.0164700
922.893	0.0162930
922.971	0.0163206
923.049	0.0162376
923.128	0.0164582
923.206	0.0163768
923.284	0.0163967
923.362	0.0163615
923.440	0.0164223
923.518	0.0163773
923.596	0.0163480
923.674	0.0163331
923.753	0.0163021
923.831	0.0163706
923.909	0.0164553
923.987	0.0164105
924.065	0.0162066
924.143	0.0163804
924.221	0.0163557
924.299	0.0162932
924.378	0.0162675
924.456	0.0161471
924.534	0.0162861
924.612	0.0163757
924.690	0.0162948
924.768	0.0163326
924.846	0.0163078
924.924	0.0162379
925.003	0.0164004
925.081	0.0163011
925.159	0.0163498
925.237	0.0163580
925.315	0.0162917
925.393	0.0162762
925.471	0.0164010
925.549	0.0162572
925.628	0.0162747
925.706	0.0162477
925.784	0.0161926
925.862	0.0163660
925.940	0.0162994
926.018	0.0161610
926.096	0.0160836
926.174	0.0161295
926.253	0.0160822
926.331	0.0164573
926.409	0.0162752
926.487	0.0162402
926.565	0.0163193
926.643	0.0162897
926.721	0.0162971
926.799	0.0164540
926.878	0.0163043
926.956	0.0163952
927.034	0.0163314
927.112	0.0163911
927.190	0.0164609
927.268	0.0164004
927.346	0.0164446
927.424	0.0163251
927.503	0.0165061
927.581	0.0165157
927.659	0.0165456
927.737	0.0164964
927.815	0.0164639
927.893	0.0164988
927.971	0.0165079
928.049	0.0164249
928.128	0.0163477
928.206	0.0165247
928.284	0.0164526
928.362	0.0164002
928.440	0.0163382
928.518	0.0164484
928.596	0.0163952
928.674	0.0164904
928.753	0.0163306
928.831	0.0163491
928.909	0.0162910
928.987	0.0163445
929.065	0.0164453
929.143	0.0162837
929.221	0.0162098
929.299	0.0163669
929.378	0.0164137
929.456	0.0161868
929.534	0.0163811
929.612	0.0163145
929.690	0.0162930
929.768	0.0163533
929.846	0.0164408
929.924	0.0162579
930.003	0.0162305
930.081	0.0163799
930.159	0.0163296
930.237	0.0163923
930.315	0.0163378
930.393	0.0163203
930.471	0.0165366
930.549	0.0164700
930.628	0.0164415
930.706	0.0164228
930.784	0.0163538
930.862	0.0163610
930.940	0.0165072
931.018	0.0165262
931.096	0.0164254
931.174	0.0163855
931.253	0.0164401
931.331	0.0165716
931.409	0.0165308
931.487	0.0165067
931.565	0.0165058
931.643	0.0165189
931.721	0.0165819
931.799	0.0165697
931.878	0.0164737
931.956	0.0166255
932.034	0.0164902
932.112	0.0164587
932.190	0.0165643
932.268	0.0164321
932.346	0.0164867
932.424	0.0164170
932.503	0.0164006
932.581	0.0164455
932.659	0.0163448
932.737	0.0163131
932.815	0.0163881
932.893	0.0163171
932.971	0.0164807
933.049	0.0162976
933.128	0.0162689
933.206	0.0162833
933.284	0.0163280
933.362	0.0163575
933.440	0.0163603
933.518	0.0163328
933.596	0.0162532
933.674	0.0163354
933.753	0.0163100
933.831	0.0163173
933.909	0.0162764
933.987	0.0164310
934.065	0.0164332
934.143	0.0163628
934.221	0.0164693
934.299	0.0163991
934.378	0.0164921
934.456	0.0164737
934.534	0.0165565
934.612	0.0164394
934.690	0.0164144
934.768	0.0166145
934.846	0.0166306
934.924	0.0165079
935.003	0.0166227
935.081	0.0166293
935.159	0.0166299
935.237	0.0166682
935.315	0.0165182
935.393	0.0165736
935.471	0.0164783
935.549	0.0164137
935.628	0.0165180
935.706	0.0165646
935.784	0.0165619
935.862	0.0165777
935.940	0.0164683
936.018	0.0165674
936.096	0.0164551
936.174	0.0164405
936.253	0.0165204
936.331	0.0164516
936.409	0.0164332
936.487	0.0166103
936.565	0.0165754
936.643	0.0164658
936.721	0.0164603
936.799	0.0164149
936.878	0.0164959
936.956	0.0164411
937.034	0.0165025
937.112	0.0164914
937.190	0.0164465
937.268	0.0165585
937.346	0.0167146
937.424	0.0165730
937.503	0.0165451
937.581	0.0165736
937.659	0.0165450
937.737	0.0165403
937.815	0.0166549
937.893	0.0165950
937.971	0.0167714
938.049	0.0165873
938.128	0.0166061
938.206	0.0167007
938.284	0.0166658
938.362	0.0165936
938.440	0.0168048
938.518	0.0167361
938.596	0.0166657
938.674	0.0167004
938.753	0.0166583
938.831	0.0166062
938.909	0.0166467
938.987	0.0165854
939.065	0.0166625
939.143	0.0167121
939.221	0.0166270
939.299	0.0167193
939.378	0.0166059
939.456	0.0167194
939.534	0.0166256
939.612	0.0167582
939.690	0.0168084
939.768	0.0167612
939.846	0.0167879
939.924	0.0168332
940.003	0.0167796
940.081	0.0167887
940.159	0.0167980
940.237	0.0168149
940.315	0.0168763
940.393	0.0169045
940.471	0.0167902
940.549	0.0166640
940.628	0.0166653
940.706	0.0165546
940.784	0.0168678
940.862	0.0168378
940.940	0.0166022
941.018	0.0167515
941.096	0.0166260
941.174	0.0167947
941.253	0.0167645
941.331	0.0165772
941.409	0.0167482
941.487	0.0167564
941.565	0.0168211
941.643	0.0168043
941.721	0.0166504
941.799	0.0166943
941.878	0.0166519
941.956	0.0167754
942.034	0.0165984
942.112	0.0165490
942.190	0.0167229
942.268	0.0168180
942.346	0.0165755
942.424	0.0165938
942.503	0.0166149
942.581	0.0165800
942.659	0.0165251
942.737	0.0164228
942.815	0.0165533
942.893	0.0165056
942.971	0.0164713
943.049	0.0163718
943.128	0.0164043
943.206	0.0163380
943.284	0.0162672
943.362	0.0164036
943.440	0.0164872
943.518	0.0163876
943.596	0.0163445
943.674	0.0163193
943.753	0.0164124
943.831	0.0163375
943.909	0.0161888
943.987	0.0163079
944.065	0.0161893
944.143	0.0162835
944.221	0.0164612
944.299	0.0162115
944.378	0.0162678
944.456	0.0163071
944.534	0.0163014
944.612	0.0161826
944.690	0.0163336
944.768	0.0162217
944.846	0.0163058
944.924	0.0163920
945.003	0.0162646
945.081	0.0162336
945.159	0.0160783
945.237	0.0162682
945.315	0.0163364
945.393	0.0162450
945.471	0.0161327
945.549	0.0161993
945.628	0.0162621
945.706	0.0162517
945.784	0.0163395
945.862	0.0161620
945.940	0.0163114
946.018	0.0161991
946.096	0.0161734
946.174	0.0163496
946.253	0.0163192
946.331	0.0161719
946.409	0.0161900
946.487	0.0162687
946.565	0.0162972
946.643	0.0163763
946.721	0.0162907
946.799	0.0163322
946.878	0.0163474
946.956	0.0162419
947.034	0.0163264
947.112	0.0164136
947.190	0.0162992
947.268	0.0163884
947.346	0.0164719
947.424	0.0164525
947.503	0.0163351
947.581	0.0164041
947.659	0.0163599
947.737	0.0162768
947.815	0.0163544
947.893	0.0164404
947.971	0.0164692
948.049	0.0163938
948.128	0.0164851
948.206	0.0163715
948.284	0.0163512
948.362	0.0163313
948.440	0.0163694
948.518	0.0164538
948.596	0.0164938
948.674	0.0162982
948.753	0.0162971
948.831	0.0163721
948.909	0.0165269
948.987	0.0165488
949.065	0.0162394
949.143	0.0163827
949.221	0.0163534
949.299	0.0163072
949.378	0.0163481
949.456	0.0163470
949.534	0.0162791
949.612	0.0164058
949.690	0.0164380
949.768	0.0163034
949.846	0.0163699
949.924	0.0162284
