06/29/2022	23:23:07	Ver.	4.1	UNKNOWN
Optical Delay	629.995835	Delta X		0.078125	Sweeps	1	Scan Rate	0/0
Coordinates	Axis 1	NaN	Axis 2	NaN	Axis 3	NaN	Axis 4	NaN	Axis 5	NaN	Axis 6	0.000000
TX Power	0.000000	RX Power	0.000000

629.996	0.0170506
630.074	0.0168365
630.152	0.0170597
630.230	0.0169497
630.308	0.0168239
630.386	0.0167644
630.465	0.0167924
630.543	0.0168082
630.621	0.0168568
630.699	0.0169102
630.777	0.0168759
630.855	0.0169289
630.933	0.0167714
631.011	0.0169091
631.090	0.0168464
631.168	0.0168206
631.246	0.0167242
631.324	0.0167188
631.402	0.0165640
631.480	0.0165676
631.558	0.0165097
631.636	0.0164770
631.715	0.0163265
631.793	0.0164066
631.871	0.0164142
631.949	0.0164050
632.027	0.0162619
632.105	0.0162887
632.183	0.0163940
632.261	0.0163653
632.340	0.0162504
632.418	0.0162270
632.496	0.0163865
632.574	0.0162650
632.652	0.0162496
632.730	0.0163605
632.808	0.0162965
632.886	0.0163120
632.965	0.0163538
633.043	0.0162948
633.121	0.0163580
633.199	0.0162500
633.277	0.0162627
633.355	0.0163684
633.433	0.0163012
633.511	0.0164230
633.590	0.0162706
633.668	0.0165160
633.746	0.0164591
633.824	0.0163765
633.902	0.0163965
633.980	0.0164106
634.058	0.0164317
634.136	0.0162792
634.215	0.0165064
634.293	0.0164685
634.371	0.0165460
634.449	0.0165073
634.527	0.0163071
634.605	0.0165176
634.683	0.0164260
634.761	0.0164274
634.840	0.0164211
634.918	0.0165115
634.996	0.0165555
635.074	0.0165986
635.152	0.0167476
635.230	0.0166447
635.308	0.0165839
635.386	0.0165862
635.465	0.0165572
635.543	0.0166116
635.621	0.0165702
635.699	0.0166324
635.777	0.0166660
635.855	0.0166888
635.933	0.0167085
636.011	0.0168127
636.090	0.0167051
636.168	0.0166793
636.246	0.0167250
636.324	0.0166541
636.402	0.0165508
636.480	0.0166434
636.558	0.0167684
636.636	0.0168684
636.715	0.0169826
636.793	0.0168726
636.871	0.0168195
636.949	0.0169978
637.027	0.0167450
637.105	0.0168121
637.183	0.0168639
637.261	0.0169529
637.340	0.0170320
637.418	0.0169368
637.496	0.0168874
637.574	0.0169653
637.652	0.0169064
637.730	0.0168701
637.808	0.0169923
637.886	0.0169901
637.965	0.0170292
638.043	0.0167354
638.121	0.0167430
638.199	0.0167978
638.277	0.0168341
638.355	0.0168756
638.433	0.0169595
638.511	0.0169097
638.590	0.0168915
638.668	0.0169187
638.746	0.0167858
638.824	0.0166981
638.902	0.0168729
638.980	0.0168770
639.058	0.0167651
639.136	0.0168612
639.215	0.0168939
639.293	0.0168548
639.371	0.0168502
639.449	0.0166814
639.527	0.0168553
639.605	0.0168523
639.683	0.0168040
639.761	0.0168165
639.840	0.0168274
639.918	0.0167887
639.996	0.0168349
640.074	0.0167857
640.152	0.0167868
640.230	0.0168974
640.308	0.0168095
640.386	0.0167269
640.465	0.0166850
640.543	0.0166680
640.621	0.0166058
640.699	0.0167544
640.777	0.0166796
640.855	0.0165702
640.933	0.0165822
641.011	0.0165553
641.090	0.0165154
641.168	0.0164577
641.246	0.0164712
641.324	0.0165031
641.402	0.0164512
641.480	0.0163046
641.558	0.0163553
641.636	0.0164536
641.715	0.0163931
641.793	0.0163264
641.871	0.0163560
641.949	0.0163581
642.027	0.0163902
642.105	0.0163950
642.183	0.0164507
642.261	0.0163465
642.340	0.0163804
642.418	0.0163518
642.496	0.0163736
642.574	0.0163560
642.652	0.0164098
642.730	0.0162821
642.808	0.0163572
642.886	0.0163921
642.965	0.0162458
643.043	0.0162646
643.121	0.0163802
643.199	0.0162860
643.277	0.0161639
643.355	0.0162044
643.433	0.0160831
643.511	0.0162273
643.590	0.0162691
643.668	0.0162852
643.746	0.0162670
643.824	0.0163837
643.902	0.0162605
643.980	0.0161380
644.058	0.0161787
644.136	0.0161766
644.215	0.0162372
644.293	0.0161866
644.371	0.0163213
644.449	0.0162946
644.527	0.0162146
644.605	0.0163460
644.683	0.0163466
644.761	0.0163181
644.840	0.0162379
644.918	0.0163265
644.996	0.0162862
645.074	0.0163148
645.152	0.0164407
645.230	0.0163303
645.308	0.0162844
645.386	0.0163223
645.465	0.0163528
645.543	0.0162989
645.621	0.0164088
645.699	0.0163605
645.777	0.0163812
645.855	0.0164655
645.933	0.0162771
646.011	0.0163504
646.090	0.0164731
646.168	0.0165632
646.246	0.0163952
646.324	0.0165546
646.402	0.0165623
646.480	0.0165971
646.558	0.0166769
646.636	0.0165626
646.715	0.0167469
646.793	0.0167368
646.871	0.0168467
646.949	0.0167909
647.027	0.0170290
647.105	0.0168160
647.183	0.0168875
647.261	0.0169647
647.340	0.0168613
647.418	0.0169527
647.496	0.0169884
647.574	0.0172108
647.652	0.0170509
647.730	0.0170217
647.808	0.0169687
647.886	0.0170847
647.965	0.0171581
648.043	0.0172009
648.121	0.0172221
648.199	0.0171584
648.277	0.0171765
648.355	0.0171069
648.433	0.0171045
648.511	0.0171696
648.590	0.0171294
648.668	0.0172052
648.746	0.0171442
648.824	0.0171913
648.902	0.0171876
648.980	0.0171934
649.058	0.0172997
649.136	0.0172524
649.215	0.0171932
649.293	0.0171830
649.371	0.0172411
649.449	0.0171919
649.527	0.0171346
649.605	0.0170912
649.683	0.0172277
649.761	0.0172215
649.840	0.0171050
649.918	0.0172065
649.996	0.0172197
650.074	0.0171064
650.152	0.0171873
650.230	0.0171349
650.308	0.0170974
650.386	0.0170243
650.465	0.0170792
650.543	0.0171300
650.621	0.0170562
650.699	0.0169044
650.777	0.0170483
650.855	0.0171587
650.933	0.0170339
651.011	0.0169968
651.090	0.0168591
651.168	0.0169669
651.246	0.0171005
651.324	0.0170409
651.402	0.0168356
651.480	0.0169551
651.558	0.0169744
651.636	0.0169489
651.715	0.0168337
651.793	0.0168382
651.871	0.0168520
651.949	0.0168803
652.027	0.0169591
652.105	0.0168921
652.183	0.0168526
652.261	0.0168258
652.340	0.0167319
652.418	0.0166716
652.496	0.0168639
652.574	0.0167957
652.652	0.0168548
652.730	0.0168621
652.808	0.0167705
652.886	0.0168210
652.965	0.0167515
653.043	0.0167054
653.121	0.0167226
653.199	0.0166759
653.277	0.0166939
653.355	0.0166882
653.433	0.0168915
653.511	0.0167194
653.590	0.0166147
653.668	0.0167474
653.746	0.0167792
653.824	0.0166386
653.902	0.0167906
653.980	0.0167053
654.058	0.0165572
654.136	0.0166744
654.215	0.0167012
654.293	0.0166936
654.371	0.0167251
654.449	0.0168137
654.527	0.0168596
654.605	0.0167991
654.683	0.0166550
654.761	0.0167412
654.840	0.0168618
654.918	0.0167870
654.996	0.0167961
655.074	0.0167854
655.152	0.0168384
655.230	0.0168173
655.308	0.0167554
655.386	0.0168604
655.465	0.0167267
655.543	0.0169225
655.621	0.0168321
655.699	0.0167988
655.777	0.0168729
655.855	0.0169473
655.933	0.0168056
656.011	0.0168826
656.090	0.0168362
656.168	0.0167869
656.246	0.0168156
656.324	0.0168295
656.402	0.0168855
656.480	0.0167220
656.558	0.0167200
656.636	0.0169016
656.715	0.0167978
656.793	0.0167735
656.871	0.0168558
656.949	0.0167116
657.027	0.0169630
657.105	0.0167390
657.183	0.0167118
657.261	0.0167123
657.340	0.0167023
657.418	0.0165326
657.496	0.0166873
657.574	0.0167264
657.652	0.0165305
657.730	0.0165664
657.808	0.0166389
657.886	0.0166803
657.965	0.0166487
658.043	0.0166915
658.121	0.0166734
658.199	0.0166187
658.277	0.0166531
658.355	0.0163808
658.433	0.0165627
658.511	0.0166457
658.590	0.0165811
658.668	0.0164622
658.746	0.0165586
658.824	0.0164351
658.902	0.0165597
658.980	0.0166625
659.058	0.0163004
659.136	0.0165029
659.215	0.0167029
659.293	0.0166242
659.371	0.0165341
659.449	0.0164355
659.527	0.0165276
659.605	0.0164290
659.683	0.0165442
659.761	0.0165899
659.840	0.0164924
659.918	0.0164177
659.996	0.0164897
660.074	0.0166162
660.152	0.0165082
660.230	0.0166619
660.308	0.0164431
660.386	0.0164162
660.465	0.0167020
660.543	0.0166163
660.621	0.0165459
660.699	0.0165015
660.777	0.0165577
660.855	0.0164573
660.933	0.0166246
661.011	0.0164539
661.090	0.0165423
661.168	0.0164806
661.246	0.0166302
661.324	0.0164275
661.402	0.0164069
661.480	0.0165812
661.558	0.0164796
661.636	0.0165613
661.715	0.0163861
661.793	0.0164330
661.871	0.0164339
661.949	0.0166317
662.027	0.0165190
662.105	0.0164479
662.183	0.0164528
662.261	0.0165090
662.340	0.0165878
662.418	0.0165539
662.496	0.0163649
662.574	0.0163177
662.652	0.0165640
662.730	0.0164408
662.808	0.0164793
662.886	0.0165392
662.965	0.0165276
663.043	0.0164902
663.121	0.0165799
663.199	0.0165327
663.277	0.0165047
663.355	0.0165813
663.433	0.0164854
663.511	0.0164729
663.590	0.0165388
663.668	0.0164800
663.746	0.0165848
663.824	0.0166026
663.902	0.0163467
663.980	0.0165134
664.058	0.0166642
664.136	0.0165079
664.215	0.0164799
664.293	0.0166138
664.371	0.0165582
664.449	0.0165657
664.527	0.0165779
664.605	0.0166465
664.683	0.0167030
664.761	0.0166884
664.840	0.0165871
664.918	0.0165892
664.996	0.0166289
665.074	0.0165366
665.152	0.0165444
665.230	0.0165306
665.308	0.0165398
665.386	0.0165869
665.465	0.0165612
665.543	0.0166594
665.621	0.0166253
665.699	0.0166039
665.777	0.0164182
665.855	0.0165219
665.933	0.0166370
666.011	0.0166457
666.090	0.0164887
666.168	0.0163764
666.246	0.0166058
666.324	0.0165982
666.402	0.0166045
666.480	0.0164723
666.558	0.0166127
666.636	0.0166686
666.715	0.0166689
666.793	0.0165543
666.871	0.0164701
666.949	0.0165025
667.027	0.0166791
667.105	0.0166626
667.183	0.0165800
667.261	0.0166331
667.340	0.0166830
667.418	0.0165889
667.496	0.0164863
667.574	0.0166724
667.652	0.0166109
667.730	0.0164810
667.808	0.0165080
667.886	0.0165630
667.965	0.0166093
668.043	0.0165009
668.121	0.0165182
668.199	0.0166130
668.277	0.0165507
668.355	0.0165708
668.433	0.0164955
668.511	0.0164792
668.590	0.0164538
668.668	0.0165376
668.746	0.0164050
668.824	0.0164515
668.902	0.0163773
668.980	0.0167112
669.058	0.0165341
669.136	0.0165378
669.215	0.0164002
669.293	0.0164966
669.371	0.0165027
669.449	0.0165021
669.527	0.0165387
669.605	0.0165753
669.683	0.0165363
669.761	0.0164602
669.840	0.0165324
669.918	0.0164928
669.996	0.0165093
670.074	0.0166694
670.152	0.0165875
670.230	0.0165647
670.308	0.0166547
670.386	0.0166277
670.465	0.0166215
670.543	0.0167059
670.621	0.0166512
670.699	0.0166943
670.777	0.0167738
670.855	0.0167091
670.933	0.0167658
671.011	0.0167429
671.090	0.0167805
671.168	0.0167828
671.246	0.0167850
671.324	0.0168325
671.402	0.0168175
671.480	0.0167554
671.558	0.0168986
671.636	0.0169156
671.715	0.0168679
671.793	0.0169309
671.871	0.0168390
671.949	0.0169133
672.027	0.0169193
672.105	0.0167484
672.183	0.0167918
672.261	0.0170136
672.340	0.0169268
672.418	0.0168511
672.496	0.0168761
672.574	0.0169647
672.652	0.0169523
672.730	0.0168664
672.808	0.0169646
672.886	0.0169598
672.965	0.0168920
673.043	0.0168671
673.121	0.0169989
673.199	0.0169430
673.277	0.0169943
673.355	0.0171077
673.433	0.0169697
673.511	0.0170745
673.590	0.0169357
673.668	0.0170841
673.746	0.0170789
673.824	0.0171530
673.902	0.0168873
673.980	0.0169618
674.058	0.0170448
674.136	0.0171418
674.215	0.0171224
674.293	0.0171533
674.371	0.0171530
674.449	0.0171115
674.527	0.0170440
674.605	0.0170979
674.683	0.0172254
674.761	0.0172154
674.840	0.0171590
674.918	0.0172131
674.996	0.0171395
675.074	0.0171687
675.152	0.0172982
675.230	0.0171871
675.308	0.0170769
675.386	0.0171773
675.465	0.0171477
675.543	0.0171926
675.621	0.0171175
675.699	0.0170789
675.777	0.0169596
675.855	0.0169829
675.933	0.0169662
676.011	0.0170572
676.090	0.0170641
676.168	0.0170052
676.246	0.0169904
676.324	0.0170346
676.402	0.0168535
676.480	0.0170399
676.558	0.0170475
676.636	0.0170283
676.715	0.0169911
676.793	0.0169289
676.871	0.0169749
676.949	0.0172388
677.027	0.0169337
677.105	0.0169844
677.183	0.0170352
677.261	0.0171360
677.340	0.0171132
677.418	0.0171857
677.496	0.0171748
677.574	0.0170036
677.652	0.0168310
677.730	0.0170004
677.808	0.0169909
677.886	0.0167683
677.965	0.0169857
678.043	0.0168868
678.121	0.0168890
678.199	0.0168955
678.277	0.0168480
678.355	0.0166505
678.433	0.0167996
678.511	0.0167294
678.590	0.0167356
678.668	0.0167923
678.746	0.0167872
678.824	0.0167017
678.902	0.0166919
678.980	0.0165971
679.058	0.0164776
679.136	0.0165948
679.215	0.0167215
679.293	0.0165153
679.371	0.0162932
679.449	0.0164126
679.527	0.0164890
679.605	0.0163332
679.683	0.0164050
679.761	0.0164814
679.840	0.0165363
679.918	0.0165794
679.996	0.0164375
680.074	0.0164856
680.152	0.0166550
680.230	0.0167181
680.308	0.0165356
680.386	0.0165385
680.465	0.0167458
680.543	0.0167476
680.621	0.0166902
680.699	0.0166283
680.777	0.0166834
680.855	0.0165496
680.933	0.0166660
681.011	0.0167149
681.090	0.0167303
681.168	0.0164868
681.246	0.0165336
681.324	0.0167752
681.402	0.0165334
681.480	0.0165665
681.558	0.0164575
681.636	0.0164497
681.715	0.0165549
681.793	0.0164986
681.871	0.0164322
681.949	0.0164894
682.027	0.0164513
682.105	0.0164256
682.183	0.0164385
682.261	0.0164171
682.340	0.0162848
682.418	0.0165518
682.496	0.0164126
682.574	0.0163638
682.652	0.0164755
682.730	0.0162708
682.808	0.0162467
682.886	0.0161831
682.965	0.0162243
683.043	0.0162469
683.121	0.0162622
683.199	0.0162581
683.277	0.0161421
683.355	0.0162497
683.433	0.0163664
683.511	0.0163138
683.590	0.0164037
683.668	0.0162968
683.746	0.0163078
683.824	0.0164285
683.902	0.0164579
683.980	0.0164833
684.058	0.0165172
684.136	0.0166595
684.215	0.0167071
684.293	0.0167215
684.371	0.0167755
684.449	0.0170365
684.527	0.0167550
684.605	0.0168250
684.683	0.0169500
684.761	0.0169895
684.840	0.0170635
684.918	0.0172407
684.996	0.0171423
685.074	0.0171877
685.152	0.0172408
685.230	0.0171034
685.308	0.0170358
685.386	0.0171310
685.465	0.0171775
685.543	0.0171960
685.621	0.0171439
685.699	0.0172626
685.777	0.0171944
685.855	0.0171162
685.933	0.0171090
686.011	0.0170409
686.090	0.0170528
686.168	0.0170547
686.246	0.0171340
686.324	0.0170029
686.402	0.0169329
686.480	0.0170991
686.558	0.0170461
686.636	0.0169643
686.715	0.0170292
686.793	0.0169937
686.871	0.0169016
686.949	0.0168814
687.027	0.0169209
687.105	0.0169183
687.183	0.0170262
687.261	0.0169120
687.340	0.0169563
687.418	0.0169315
687.496	0.0168244
687.574	0.0168655
687.652	0.0168522
687.730	0.0168426
687.808	0.0168816
687.886	0.0171491
687.965	0.0170389
688.043	0.0169683
688.121	0.0170595
688.199	0.0169665
688.277	0.0168314
688.355	0.0170497
688.433	0.0170389
688.511	0.0168704
688.590	0.0170670
688.668	0.0170357
688.746	0.0170029
688.824	0.0169585
688.902	0.0169220
688.980	0.0170324
689.058	0.0168077
689.136	0.0168697
689.215	0.0168204
689.293	0.0170702
689.371	0.0168134
689.449	0.0168513
689.527	0.0169177
689.605	0.0169040
689.683	0.0167783
689.761	0.0169519
689.840	0.0167345
689.918	0.0168645
689.996	0.0166841
690.074	0.0166302
690.152	0.0167348
690.230	0.0168880
690.308	0.0167062
690.386	0.0166862
690.465	0.0167428
690.543	0.0165570
690.621	0.0165382
690.699	0.0165199
690.777	0.0165289
690.855	0.0164353
690.933	0.0165050
691.011	0.0163315
691.090	0.0165037
691.168	0.0163846
691.246	0.0162624
691.324	0.0162100
691.402	0.0162450
691.480	0.0162556
691.558	0.0163153
691.636	0.0162407
691.715	0.0163361
691.793	0.0162877
691.871	0.0162399
691.949	0.0161680
692.027	0.0163963
692.105	0.0164352
692.183	0.0164596
692.261	0.0164185
692.340	0.0163985
692.418	0.0163892
692.496	0.0164183
692.574	0.0164646
692.652	0.0164496
692.730	0.0162887
692.808	0.0165041
692.886	0.0165673
692.965	0.0165085
693.043	0.0163974
693.121	0.0164961
693.199	0.0163518
693.277	0.0164111
693.355	0.0164287
693.433	0.0163986
693.511	0.0162748
693.590	0.0163310
693.668	0.0164097
693.746	0.0164251
693.824	0.0164274
693.902	0.0165405
693.980	0.0165686
694.058	0.0164727
694.136	0.0166454
694.215	0.0165039
694.293	0.0164495
694.371	0.0165189
694.449	0.0165734
694.527	0.0166257
694.605	0.0167873
694.683	0.0167078
694.761	0.0167218
694.840	0.0168144
694.918	0.0167886
694.996	0.0168123
695.074	0.0167318
695.152	0.0168340
695.230	0.0167905
695.308	0.0167384
695.386	0.0169424
695.465	0.0169478
695.543	0.0168944
695.621	0.0169451
695.699	0.0169422
695.777	0.0170395
695.855	0.0168444
695.933	0.0169421
696.011	0.0168164
696.090	0.0170605
696.168	0.0169596
696.246	0.0168491
696.324	0.0170359
696.402	0.0167999
696.480	0.0168624
696.558	0.0170767
696.636	0.0171017
696.715	0.0169444
696.793	0.0168999
696.871	0.0170499
696.949	0.0169212
697.027	0.0168867
697.105	0.0169465
697.183	0.0169623
697.261	0.0169703
697.340	0.0169981
697.418	0.0169316
697.496	0.0169333
697.574	0.0169393
697.652	0.0168885
697.730	0.0169037
697.808	0.0169449
697.886	0.0168776
697.965	0.0168555
698.043	0.0169270
698.121	0.0168581
698.199	0.0167278
698.277	0.0168047
698.355	0.0168146
698.433	0.0168378
698.511	0.0167454
698.590	0.0166634
698.668	0.0167610
698.746	0.0167850
698.824	0.0168526
698.902	0.0167033
698.980	0.0167475
699.058	0.0167645
699.136	0.0167427
699.215	0.0168364
699.293	0.0168059
699.371	0.0167398
699.449	0.0168788
699.527	0.0168212
699.605	0.0168584
699.683	0.0167237
699.761	0.0168636
699.840	0.0168499
699.918	0.0166844
699.996	0.0166408
700.074	0.0168600
700.152	0.0167905
700.230	0.0167596
700.308	0.0167825
700.386	0.0167851
700.465	0.0168972
700.543	0.0167565
700.621	0.0168621
700.699	0.0168478
700.777	0.0166283
700.855	0.0167731
700.933	0.0169360
701.011	0.0169118
701.090	0.0169131
701.168	0.0170306
701.246	0.0168307
701.324	0.0168822
701.402	0.0169666
701.480	0.0170512
701.558	0.0169640
701.636	0.0168578
701.715	0.0169620
701.793	0.0169994
701.871	0.0169604
701.949	0.0167458
702.027	0.0167118
702.105	0.0168105
702.183	0.0166712
702.261	0.0167060
702.340	0.0167566
702.418	0.0166855
702.496	0.0165129
702.574	0.0165637
702.652	0.0164919
702.730	0.0165271
702.808	0.0164645
702.886	0.0166470
702.965	0.0167458
703.043	0.0169154
703.121	0.0168364
703.199	0.0168293
703.277	0.0167252
703.355	0.0168684
703.433	0.0167458
703.511	0.0168492
703.590	0.0168047
703.668	0.0167680
703.746	0.0167339
703.824	0.0167937
703.902	0.0167477
703.980	0.0165881
704.058	0.0165855
704.136	0.0166432
704.215	0.0167118
704.293	0.0164687
704.371	0.0164149
704.449	0.0164124
704.527	0.0163885
704.605	0.0164850
704.683	0.0163401
704.761	0.0163230
704.840	0.0163656
704.918	0.0163400
704.996	0.0165391
705.074	0.0162380
705.152	0.0162271
705.230	0.0163467
705.308	0.0162978
705.386	0.0162887
705.465	0.0162521
705.543	0.0163126
705.621	0.0163743
705.699	0.0163253
705.777	0.0163743
705.855	0.0162794
705.933	0.0162119
706.011	0.0161725
706.090	0.0163306
706.168	0.0163325
706.246	0.0163539
706.324	0.0164007
706.402	0.0164803
706.480	0.0164039
706.558	0.0163032
706.636	0.0163669
706.715	0.0165436
706.793	0.0163432
706.871	0.0165064
706.949	0.0164984
707.027	0.0165593
707.105	0.0164812
707.183	0.0165742
707.261	0.0167077
707.340	0.0168379
707.418	0.0166948
707.496	0.0166812
707.574	0.0168414
707.652	0.0167632
707.730	0.0167948
707.808	0.0168097
707.886	0.0167720
707.965	0.0168406
708.043	0.0167987
708.121	0.0169796
708.199	0.0169244
708.277	0.0167221
708.355	0.0167839
708.433	0.0167604
708.511	0.0168398
708.590	0.0167758
708.668	0.0168207
708.746	0.0167062
708.824	0.0167851
708.902	0.0167725
708.980	0.0167741
709.058	0.0168288
709.136	0.0166698
709.215	0.0167662
709.293	0.0167303
709.371	0.0166655
709.449	0.0168775
709.527	0.0167250
709.605	0.0166972
709.683	0.0166560
709.761	0.0166037
709.840	0.0167369
709.918	0.0167940
709.996	0.0166908
710.074	0.0165632
710.152	0.0166161
710.230	0.0167928
710.308	0.0166355
710.386	0.0167176
710.465	0.0167091
710.543	0.0167091
710.621	0.0165773
710.699	0.0167390
710.777	0.0166790
710.855	0.0167078
710.933	0.0169607
711.011	0.0169683
711.090	0.0168246
711.168	0.0170512
711.246	0.0169984
711.324	0.0169808
711.402	0.0169941
711.480	0.0169789
711.558	0.0170378
711.636	0.0172116
711.715	0.0169917
711.793	0.0169941
711.871	0.0170741
711.949	0.0169502
712.027	0.0169592
712.105	0.0167881
712.183	0.0167577
712.261	0.0167533
712.340	0.0168579
712.418	0.0166817
712.496	0.0168060
712.574	0.0168111
712.652	0.0165752
712.730	0.0166844
712.808	0.0165165
712.886	0.0167686
712.965	0.0168047
713.043	0.0167428
713.121	0.0167065
713.199	0.0166869
713.277	0.0166972
713.355	0.0167223
713.433	0.0168056
713.511	0.0166718
713.590	0.0166882
713.668	0.0165979
713.746	0.0167299
713.824	0.0166257
713.902	0.0165871
713.980	0.0166904
714.058	0.0168068
714.136	0.0166412
714.215	0.0165543
714.293	0.0166511
714.371	0.0165855
714.449	0.0165186
714.527	0.0164227
714.605	0.0164536
714.683	0.0165353
714.761	0.0165165
714.840	0.0165140
714.918	0.0165473
714.996	0.0164127
715.074	0.0164359
715.152	0.0163807
715.230	0.0166323
715.308	0.0164986
715.386	0.0163400
715.465	0.0165598
715.543	0.0165065
715.621	0.0164881
715.699	0.0166309
715.777	0.0165304
715.855	0.0164126
715.933	0.0163377
716.011	0.0163932
716.090	0.0163297
716.168	0.0161781
716.246	0.0163033
716.324	0.0162971
716.402	0.0161563
716.480	0.0163047
716.558	0.0159877
716.636	0.0160399
716.715	0.0161620
716.793	0.0159930
716.871	0.0160278
716.949	0.0160740
717.027	0.0159536
717.105	0.0160775
717.183	0.0161051
717.261	0.0161496
717.340	0.0161728
717.418	0.0163168
717.496	0.0163500
717.574	0.0164226
717.652	0.0164990
717.730	0.0164334
717.808	0.0165485
717.886	0.0165543
717.965	0.0165854
718.043	0.0167281
718.121	0.0167612
718.199	0.0168631
718.277	0.0168565
718.355	0.0168581
718.433	0.0169109
718.511	0.0168910
718.590	0.0170824
718.668	0.0169883
718.746	0.0168255
718.824	0.0169144
718.902	0.0168360
718.980	0.0167993
719.058	0.0168272
719.136	0.0167496
719.215	0.0166486
719.293	0.0167252
719.371	0.0165577
719.449	0.0164862
719.527	0.0164996
719.605	0.0165368
719.683	0.0163288
719.761	0.0163760
719.840	0.0163534
719.918	0.0162922
719.996	0.0164152
720.074	0.0164406
720.152	0.0163379
720.230	0.0163944
720.308	0.0163955
720.386	0.0163947
720.465	0.0163378
720.543	0.0163399
720.621	0.0163991
720.699	0.0165347
720.777	0.0166081
720.855	0.0166023
720.933	0.0166914
721.011	0.0166177
721.090	0.0167776
721.168	0.0167765
721.246	0.0167225
721.324	0.0168310
721.402	0.0168159
721.480	0.0168278
721.558	0.0168674
721.636	0.0169065
721.715	0.0169337
721.793	0.0170162
721.871	0.0169311
721.949	0.0170264
722.027	0.0170776
722.105	0.0170292
722.183	0.0169879
722.261	0.0170850
722.340	0.0169442
722.418	0.0170463
722.496	0.0169335
722.574	0.0169535
722.652	0.0168758
722.730	0.0168362
722.808	0.0168545
722.886	0.0167150
722.965	0.0166348
723.043	0.0165683
723.121	0.0164583
723.199	0.0164800
723.277	0.0163696
723.355	0.0163460
723.433	0.0164030
723.511	0.0161139
723.590	0.0161819
723.668	0.0162988
723.746	0.0162377
723.824	0.0162009
723.902	0.0162538
723.980	0.0162954
724.058	0.0163054
724.136	0.0162552
724.215	0.0164439
724.293	0.0163473
724.371	0.0164190
724.449	0.0164242
724.527	0.0166521
724.605	0.0165690
724.683	0.0164568
724.761	0.0165932
724.840	0.0168348
724.918	0.0167764
724.996	0.0169173
725.074	0.0168780
725.152	0.0169579
725.230	0.0169117
725.308	0.0169151
725.386	0.0170000
725.465	0.0170995
725.543	0.0168851
725.621	0.0170303
725.699	0.0169315
725.777	0.0169541
725.855	0.0172829
725.933	0.0170863
726.011	0.0168439
726.090	0.0171100
726.168	0.0171281
726.246	0.0170344
726.324	0.0172499
726.402	0.0171235
726.480	0.0172634
726.558	0.0170394
726.636	0.0170313
726.715	0.0169093
726.793	0.0168887
726.871	0.0167947
726.949	0.0167757
727.027	0.0167273
727.105	0.0166217
727.183	0.0164767
727.261	0.0163642
727.340	0.0164003
727.418	0.0163785
727.496	0.0162683
727.574	0.0159484
727.652	0.0159973
727.730	0.0158789
727.808	0.0159308
727.886	0.0158770
727.965	0.0158788
728.043	0.0158426
728.121	0.0158884
728.199	0.0158613
728.277	0.0158899
728.355	0.0159956
728.433	0.0159828
728.511	0.0160863
728.590	0.0161180
728.668	0.0161847
728.746	0.0162293
728.824	0.0164115
728.902	0.0164477
728.980	0.0165101
729.058	0.0166679
729.136	0.0168205
729.215	0.0168735
729.293	0.0167633
729.371	0.0168726
729.449	0.0169066
729.527	0.0169822
729.605	0.0169274
729.683	0.0170793
729.761	0.0170937
729.840	0.0169651
729.918	0.0170426
729.996	0.0173541
730.074	0.0171728
730.152	0.0171260
730.230	0.0170464
730.308	0.0169829
730.386	0.0171336
730.465	0.0171132
730.543	0.0168843
730.621	0.0169996
730.699	0.0169122
730.777	0.0167387
730.855	0.0167200
730.933	0.0166739
731.011	0.0165034
731.090	0.0164074
731.168	0.0163685
731.246	0.0163831
731.324	0.0160690
731.402	0.0159860
731.480	0.0158550
731.558	0.0159217
731.636	0.0157460
731.715	0.0156825
731.793	0.0156361
731.871	0.0155926
731.949	0.0156532
732.027	0.0156355
732.105	0.0156065
732.183	0.0156754
732.261	0.0156729
732.340	0.0156960
732.418	0.0158862
732.496	0.0162291
732.574	0.0161343
732.652	0.0162217
732.730	0.0165340
732.808	0.0165565
732.886	0.0167371
732.965	0.0168236
733.043	0.0170208
733.121	0.0171915
733.199	0.0173479
733.277	0.0173924
733.355	0.0174097
733.433	0.0175240
733.511	0.0174792
733.590	0.0175387
733.668	0.0176144
733.746	0.0176579
733.824	0.0175594
733.902	0.0176095
733.980	0.0173589
734.058	0.0173776
734.136	0.0172607
734.215	0.0172981
734.293	0.0172038
734.371	0.0170457
734.449	0.0169022
734.527	0.0167861
734.605	0.0166049
734.683	0.0166690
734.761	0.0163839
734.840	0.0163847
734.918	0.0163890
734.996	0.0161308
735.074	0.0160265
735.152	0.0159594
735.230	0.0159411
735.308	0.0158349
735.386	0.0159187
735.465	0.0159384
735.543	0.0158351
735.621	0.0158609
735.699	0.0158862
735.777	0.0160594
735.855	0.0160786
735.933	0.0160879
736.011	0.0162461
736.090	0.0163784
736.168	0.0164706
736.246	0.0165993
736.324	0.0165368
736.402	0.0166894
736.480	0.0168339
736.558	0.0169807
736.636	0.0169360
736.715	0.0172768
736.793	0.0171399
736.871	0.0171748
736.949	0.0173306
737.027	0.0173769
737.105	0.0173002
737.183	0.0174358
737.261	0.0172071
737.340	0.0172732
737.418	0.0174036
737.496	0.0172737
737.574	0.0172171
737.652	0.0173893
737.730	0.0172897
737.808	0.0172046
737.886	0.0169973
737.965	0.0169460
738.043	0.0168011
738.121	0.0167491
738.199	0.0167828
738.277	0.0166052
738.355	0.0166347
738.433	0.0165154
738.511	0.0164331
738.590	0.0164255
738.668	0.0163261
738.746	0.0163384
738.824	0.0163206
738.902	0.0162629
738.980	0.0162144
739.058	0.0162794
739.136	0.0162694
739.215	0.0161159
739.293	0.0162408
739.371	0.0163105
739.449	0.0162994
739.527	0.0162273
739.605	0.0162759
739.683	0.0162910
739.761	0.0163433
739.840	0.0163576
739.918	0.0162725
739.996	0.0163895
740.074	0.0164380
740.152	0.0164304
740.230	0.0166116
740.308	0.0166923
740.386	0.0166222
740.465	0.0166582
740.543	0.0167180
740.621	0.0168382
740.699	0.0168177
740.777	0.0168297
740.855	0.0168232
740.933	0.0169610
741.011	0.0169271
741.090	0.0168658
741.168	0.0168790
741.246	0.0168470
741.324	0.0168931
741.402	0.0169398
741.480	0.0169444
741.558	0.0170024
741.636	0.0170323
741.715	0.0171598
741.793	0.0171050
741.871	0.0168843
741.949	0.0168116
742.027	0.0168742
742.105	0.0167870
742.183	0.0168666
742.261	0.0166536
742.340	0.0165595
742.418	0.0165977
742.496	0.0164853
742.574	0.0165105
742.652	0.0165515
742.730	0.0164156
742.808	0.0163427
742.886	0.0162603
742.965	0.0162455
743.043	0.0162542
743.121	0.0160545
743.199	0.0163306
743.277	0.0162593
743.355	0.0163223
743.433	0.0163024
743.511	0.0162593
743.590	0.0164231
743.668	0.0163747
743.746	0.0164731
743.824	0.0167177
743.902	0.0165982
743.980	0.0167978
744.058	0.0168915
744.136	0.0170041
744.215	0.0169355
744.293	0.0170245
744.371	0.0170250
744.449	0.0169924
744.527	0.0169085
744.605	0.0170377
744.683	0.0169825
744.761	0.0168320
744.840	0.0170144
744.918	0.0167395
744.996	0.0167268
745.074	0.0168221
745.152	0.0166924
745.230	0.0166154
745.308	0.0165804
745.386	0.0167123
745.465	0.0166444
745.543	0.0166566
745.621	0.0168024
745.699	0.0168951
745.777	0.0168401
745.855	0.0168346
745.933	0.0168209
746.011	0.0168291
746.090	0.0167892
746.168	0.0167144
746.246	0.0170123
746.324	0.0169859
746.402	0.0168535
746.480	0.0168066
746.558	0.0168848
746.636	0.0168456
746.715	0.0169563
746.793	0.0167334
746.871	0.0168315
746.949	0.0166699
747.027	0.0168484
747.105	0.0167464
747.183	0.0166255
747.261	0.0166109
747.340	0.0166985
747.418	0.0165823
747.496	0.0166512
747.574	0.0164528
747.652	0.0166593
747.730	0.0166259
747.808	0.0165200
747.886	0.0164620
747.965	0.0163950
748.043	0.0165931
748.121	0.0163906
748.199	0.0165112
748.277	0.0163625
748.355	0.0161807
748.433	0.0163567
748.511	0.0163088
748.590	0.0161868
748.668	0.0162643
748.746	0.0163598
748.824	0.0163369
748.902	0.0164379
748.980	0.0162408
749.058	0.0162875
749.136	0.0163314
749.215	0.0162550
749.293	0.0163834
749.371	0.0164828
749.449	0.0164494
749.527	0.0164645
749.605	0.0165287
749.683	0.0164793
749.761	0.0165815
749.840	0.0166574
749.918	0.0166342
749.996	0.0167918
750.074	0.0167610
750.152	0.0169664
750.230	0.0169349
750.308	0.0169776
750.386	0.0170688
750.465	0.0171990
750.543	0.0172208
750.621	0.0171777
750.699	0.0172515
750.777	0.0172971
750.855	0.0172507
750.933	0.0171818
751.011	0.0172088
751.090	0.0171604
751.168	0.0171349
751.246	0.0171504
751.324	0.0169350
751.402	0.0170222
751.480	0.0167046
751.558	0.0167977
751.636	0.0167240
751.715	0.0166715
751.793	0.0167442
751.871	0.0165511
751.949	0.0166737
752.027	0.0166759
752.105	0.0165588
752.183	0.0167049
752.261	0.0167224
752.340	0.0166634
752.418	0.0165912
752.496	0.0166676
752.574	0.0166784
752.652	0.0167493
752.730	0.0166634
752.808	0.0167754
752.886	0.0166811
752.965	0.0168149
753.043	0.0168525
753.121	0.0167361
753.199	0.0167357
753.277	0.0167976
753.355	0.0166868
753.433	0.0167542
753.511	0.0166571
753.590	0.0167020
753.668	0.0165384
753.746	0.0163610
753.824	0.0165422
753.902	0.0163771
753.980	0.0162403
754.058	0.0164520
754.136	0.0164872
754.215	0.0164596
754.293	0.0164970
754.371	0.0165200
754.449	0.0165388
754.527	0.0164740
754.605	0.0165097
754.683	0.0166666
754.761	0.0166717
754.840	0.0166882
754.918	0.0167759
754.996	0.0168126
755.074	0.0168082
755.152	0.0168624
755.230	0.0168829
755.308	0.0169875
755.386	0.0171103
755.465	0.0171696
755.543	0.0172373
755.621	0.0172726
755.699	0.0173063
755.777	0.0173601
755.855	0.0172788
755.933	0.0172549
756.011	0.0172597
756.090	0.0173225
756.168	0.0172870
756.246	0.0173862
756.324	0.0172392
756.402	0.0172179
756.480	0.0171241
756.558	0.0171297
756.636	0.0170122
756.715	0.0169590
756.793	0.0170473
756.871	0.0169282
756.949	0.0167829
757.027	0.0167703
757.105	0.0168191
757.183	0.0166683
757.261	0.0166335
757.340	0.0164851
757.418	0.0165346
757.496	0.0164721
757.574	0.0164771
757.652	0.0164411
757.730	0.0164744
757.808	0.0164568
757.886	0.0163602
757.965	0.0161458
758.043	0.0164585
758.121	0.0163441
758.199	0.0162749
758.277	0.0162490
758.355	0.0162332
758.433	0.0161156
758.511	0.0162602
758.590	0.0163239
758.668	0.0162684
758.746	0.0163274
758.824	0.0164868
758.902	0.0163850
758.980	0.0164702
759.058	0.0164934
759.136	0.0165730
759.215	0.0165913
759.293	0.0166227
759.371	0.0168353
759.449	0.0165971
759.527	0.0167841
759.605	0.0168073
759.683	0.0167722
759.761	0.0168400
759.840	0.0166993
759.918	0.0168596
759.996	0.0170718
760.074	0.0168689
760.152	0.0169430
760.230	0.0170252
760.308	0.0170542
760.386	0.0172366
760.465	0.0170558
760.543	0.0171828
760.621	0.0172022
760.699	0.0171310
760.777	0.0171420
760.855	0.0171797
760.933	0.0173118
761.011	0.0171724
761.090	0.0170645
761.168	0.0172202
761.246	0.0173264
761.324	0.0171511
761.402	0.0171017
761.480	0.0170955
761.558	0.0172440
761.636	0.0170737
761.715	0.0171513
761.793	0.0172069
761.871	0.0172505
761.949	0.0173063
762.027	0.0170846
762.105	0.0172949
762.183	0.0172736
762.261	0.0172851
762.340	0.0171941
762.418	0.0172843
762.496	0.0174159
762.574	0.0173398
762.652	0.0172288
762.730	0.0172194
762.808	0.0172761
762.886	0.0170917
762.965	0.0172308
763.043	0.0170410
763.121	0.0169911
763.199	0.0170087
763.277	0.0169634
763.355	0.0166785
763.433	0.0167119
763.511	0.0167953
763.590	0.0166172
763.668	0.0166306
763.746	0.0167020
763.824	0.0165967
763.902	0.0166144
763.980	0.0165938
764.058	0.0166583
764.136	0.0165219
764.215	0.0166811
764.293	0.0165585
764.371	0.0166364
764.449	0.0167936
764.527	0.0167850
764.605	0.0167017
764.683	0.0167580
764.761	0.0168916
764.840	0.0168256
764.918	0.0167253
764.996	0.0168829
765.074	0.0169284
765.152	0.0167837
765.230	0.0168456
765.308	0.0168114
765.386	0.0168156
765.465	0.0167831
765.543	0.0166017
765.621	0.0165961
765.699	0.0167947
765.777	0.0167886
765.855	0.0166357
765.933	0.0166661
766.011	0.0167098
766.090	0.0166257
766.168	0.0168695
766.246	0.0166948
766.324	0.0166261
766.402	0.0165482
766.480	0.0166250
766.558	0.0167525
766.636	0.0169105
766.715	0.0167606
766.793	0.0166316
766.871	0.0168037
766.949	0.0168690
767.027	0.0168333
767.105	0.0168036
767.183	0.0169446
767.261	0.0170002
767.340	0.0168084
767.418	0.0170131
767.496	0.0168721
767.574	0.0168079
767.652	0.0169450
767.730	0.0169554
767.808	0.0170667
767.886	0.0169023
767.965	0.0169495
768.043	0.0168709
768.121	0.0168488
768.199	0.0167725
768.277	0.0168874
768.355	0.0167967
768.433	0.0167567
768.511	0.0166225
768.590	0.0165672
768.668	0.0166023
768.746	0.0166338
768.824	0.0165585
768.902	0.0164169
768.980	0.0163869
769.058	0.0164389
769.136	0.0162851
769.215	0.0162281
769.293	0.0164294
769.371	0.0163151
769.449	0.0162111
769.527	0.0160775
769.605	0.0162014
769.683	0.0162460
769.761	0.0162262
769.840	0.0162177
769.918	0.0162644
769.996	0.0164053
770.074	0.0164002
770.152	0.0165437
770.230	0.0164903
770.308	0.0165411
770.386	0.0166970
770.465	0.0165685
770.543	0.0166219
770.621	0.0169311
770.699	0.0169392
770.777	0.0169210
770.855	0.0170963
770.933	0.0170739
771.011	0.0170571
771.090	0.0169874
771.168	0.0170482
771.246	0.0171169
771.324	0.0169724
771.402	0.0169891
771.480	0.0169907
771.558	0.0168465
771.636	0.0168969
771.715	0.0168773
771.793	0.0168111
771.871	0.0165823
771.949	0.0166378
772.027	0.0166548
772.105	0.0166627
772.183	0.0165836
772.261	0.0165173
772.340	0.0165347
772.418	0.0164600
772.496	0.0164564
772.574	0.0163605
772.652	0.0165855
772.730	0.0163301
772.808	0.0165113
772.886	0.0167421
772.965	0.0168214
773.043	0.0167574
773.121	0.0167941
773.199	0.0169969
773.277	0.0171279
773.355	0.0171444
773.433	0.0173050
773.511	0.0172896
773.590	0.0173063
773.668	0.0174715
773.746	0.0174712
773.824	0.0172366
773.902	0.0173492
773.980	0.0173981
774.058	0.0172146
774.136	0.0172417
774.215	0.0172477
774.293	0.0171980
774.371	0.0170772
774.449	0.0171882
774.527	0.0170789
774.605	0.0170212
774.683	0.0171464
774.761	0.0170263
774.840	0.0167854
774.918	0.0168093
774.996	0.0169942
775.074	0.0169428
775.152	0.0169677
775.230	0.0167304
775.308	0.0166891
775.386	0.0166684
775.465	0.0166281
775.543	0.0167528
775.621	0.0164327
775.699	0.0164377
775.777	0.0163043
775.855	0.0162024
775.933	0.0162208
776.011	0.0161848
776.090	0.0161169
776.168	0.0161387
776.246	0.0162155
776.324	0.0161618
776.402	0.0160901
776.480	0.0161446
776.558	0.0162945
776.636	0.0164091
776.715	0.0164243
776.793	0.0166433
776.871	0.0165384
776.949	0.0166715
777.027	0.0168392
777.105	0.0168871
777.183	0.0170800
777.261	0.0169614
777.340	0.0170224
777.418	0.0170911
777.496	0.0170519
777.574	0.0170630
777.652	0.0171562
777.730	0.0172449
777.808	0.0173489
777.886	0.0172948
777.965	0.0172964
778.043	0.0173083
778.121	0.0173526
778.199	0.0173616
778.277	0.0173794
778.355	0.0172723
778.433	0.0174122
778.511	0.0173365
778.590	0.0173641
778.668	0.0172289
778.746	0.0172606
778.824	0.0173229
778.902	0.0172315
778.980	0.0171223
779.058	0.0171514
779.136	0.0170190
779.215	0.0171222
779.293	0.0170929
779.371	0.0168301
779.449	0.0169542
779.527	0.0168509
779.605	0.0167850
779.683	0.0167722
779.761	0.0168009
779.840	0.0165428
779.918	0.0164568
779.996	0.0164247
780.074	0.0164065
780.152	0.0163503
780.230	0.0163058
780.308	0.0160580
780.386	0.0162602
780.465	0.0161673
780.543	0.0160163
780.621	0.0161243
780.699	0.0159595
780.777	0.0159115
780.855	0.0159937
780.933	0.0160309
781.011	0.0159642
781.090	0.0160916
781.168	0.0161067
781.246	0.0159529
781.324	0.0162054
781.402	0.0162826
781.480	0.0162405
781.558	0.0162910
781.636	0.0164594
781.715	0.0163757
781.793	0.0165581
781.871	0.0166367
781.949	0.0166238
782.027	0.0166878
782.105	0.0168137
782.183	0.0168703
782.261	0.0167898
782.340	0.0171279
782.418	0.0170370
782.496	0.0171542
782.574	0.0172128
782.652	0.0172013
782.730	0.0172945
782.808	0.0173243
782.886	0.0173463
782.965	0.0171668
783.043	0.0171899
783.121	0.0172612
783.199	0.0171996
783.277	0.0171693
783.355	0.0171860
783.433	0.0170356
783.511	0.0168922
783.590	0.0169949
783.668	0.0168523
783.746	0.0169164
783.824	0.0169125
783.902	0.0169426
783.980	0.0168113
784.058	0.0165466
784.136	0.0166443
784.215	0.0167458
784.293	0.0165212
784.371	0.0165846
784.449	0.0166917
784.527	0.0165490
784.605	0.0166135
784.683	0.0165641
784.761	0.0166223
784.840	0.0166411
784.918	0.0167522
784.996	0.0166517
785.074	0.0167066
785.152	0.0168288
785.230	0.0168620
785.308	0.0168629
785.386	0.0169994
785.465	0.0169476
785.543	0.0168822
785.621	0.0169674
785.699	0.0170316
785.777	0.0169941
785.855	0.0169780
785.933	0.0170316
786.011	0.0169249
786.090	0.0169146
786.168	0.0168939
786.246	0.0169954
786.324	0.0169588
786.402	0.0169027
786.480	0.0168611
786.558	0.0169321
786.636	0.0167993
786.715	0.0168060
786.793	0.0168169
786.871	0.0168196
786.949	0.0168078
787.027	0.0166776
787.105	0.0167836
787.183	0.0166452
787.261	0.0166428
787.340	0.0166369
787.418	0.0166685
787.496	0.0165992
787.574	0.0168012
787.652	0.0167825
787.730	0.0167184
787.808	0.0167785
787.886	0.0167859
787.965	0.0168576
788.043	0.0169696
788.121	0.0169393
788.199	0.0170135
788.277	0.0170682
788.355	0.0170346
788.433	0.0170513
788.511	0.0170717
788.590	0.0171208
788.668	0.0171166
788.746	0.0170351
788.824	0.0170920
788.902	0.0171761
788.980	0.0170486
789.058	0.0171251
789.136	0.0170649
789.215	0.0171063
789.293	0.0172875
789.371	0.0169929
789.449	0.0169204
789.527	0.0170458
789.605	0.0168807
789.683	0.0170030
789.761	0.0168132
789.840	0.0169026
789.918	0.0167545
789.996	0.0167985
790.074	0.0168187
790.152	0.0165179
790.230	0.0165695
790.308	0.0167292
790.386	0.0166280
790.465	0.0165053
790.543	0.0165611
790.621	0.0165018
790.699	0.0166032
790.777	0.0165485
790.855	0.0165697
790.933	0.0164500
791.011	0.0165086
791.090	0.0166682
791.168	0.0165340
791.246	0.0165787
791.324	0.0166306
791.402	0.0165905
791.480	0.0165735
791.558	0.0165795
791.636	0.0168636
791.715	0.0168306
791.793	0.0166809
791.871	0.0165773
791.949	0.0167395
792.027	0.0168457
792.105	0.0167615
792.183	0.0166441
792.261	0.0166581
792.340	0.0166811
792.418	0.0167552
792.496	0.0167270
792.574	0.0166837
792.652	0.0166175
792.730	0.0166286
792.808	0.0164545
792.886	0.0164401
792.965	0.0164040
793.043	0.0165680
793.121	0.0163026
793.199	0.0162062
793.277	0.0163065
793.355	0.0161638
793.433	0.0161578
793.511	0.0161792
793.590	0.0162382
793.668	0.0161913
793.746	0.0160880
793.824	0.0161935
793.902	0.0162821
793.980	0.0161001
794.058	0.0161730
794.136	0.0161883
794.215	0.0163206
794.293	0.0161572
794.371	0.0163087
794.449	0.0164019
794.527	0.0163157
794.605	0.0165396
794.683	0.0164573
794.761	0.0163935
794.840	0.0164407
794.918	0.0165082
794.996	0.0166013
795.074	0.0165285
795.152	0.0166465
795.230	0.0166729
795.308	0.0166434
795.386	0.0165957
795.465	0.0165848
795.543	0.0165672
795.621	0.0166354
795.699	0.0165551
795.777	0.0165282
795.855	0.0163997
795.933	0.0165724
796.011	0.0165086
796.090	0.0165233
796.168	0.0165080
796.246	0.0164185
796.324	0.0164896
796.402	0.0165265
796.480	0.0164634
796.558	0.0163671
796.636	0.0162587
796.715	0.0163111
796.793	0.0163590
796.871	0.0162778
796.949	0.0164271
797.027	0.0164709
797.105	0.0165988
797.183	0.0165873
797.261	0.0164533
797.340	0.0163772
797.418	0.0165794
797.496	0.0167393
797.574	0.0167032
797.652	0.0166271
797.730	0.0167415
797.808	0.0166435
797.886	0.0167000
797.965	0.0166936
798.043	0.0166911
798.121	0.0167229
798.199	0.0166338
798.277	0.0166898
798.355	0.0166232
798.433	0.0168442
798.511	0.0166943
798.590	0.0167999
798.668	0.0167421
798.746	0.0167996
798.824	0.0166639
798.902	0.0168388
798.980	0.0167925
799.058	0.0169833
799.136	0.0167985
799.215	0.0167964
799.293	0.0167709
799.371	0.0167429
799.449	0.0168476
799.527	0.0166906
799.605	0.0166860
799.683	0.0168703
799.761	0.0168359
799.840	0.0165788
799.918	0.0167050
799.996	0.0166409
800.074	0.0166132
800.152	0.0166082
800.230	0.0165215
800.308	0.0166328
800.386	0.0165444
800.465	0.0163597
800.543	0.0164697
800.621	0.0166956
800.699	0.0165981
800.777	0.0167338
800.855	0.0167427
800.933	0.0167010
801.011	0.0167467
801.090	0.0166880
801.168	0.0167995
801.246	0.0167406
801.324	0.0169797
801.402	0.0169359
801.480	0.0168867
801.558	0.0168419
801.636	0.0168720
801.715	0.0168774
801.793	0.0169224
801.871	0.0167979
801.949	0.0168227
802.027	0.0168361
802.105	0.0166967
802.183	0.0166062
802.261	0.0166878
802.340	0.0165926
802.418	0.0165591
802.496	0.0166433
802.574	0.0165818
802.652	0.0164989
802.730	0.0164669
802.808	0.0165456
802.886	0.0165972
802.965	0.0165233
803.043	0.0165333
803.121	0.0164899
803.199	0.0165366
803.277	0.0165793
803.355	0.0166323
803.433	0.0165887
803.511	0.0165364
803.590	0.0165340
803.668	0.0166830
803.746	0.0167667
803.824	0.0165820
803.902	0.0166286
803.980	0.0166709
804.058	0.0165765
804.136	0.0167140
804.215	0.0167316
804.293	0.0167180
804.371	0.0167389
804.449	0.0166862
804.527	0.0167755
804.605	0.0169937
804.683	0.0168526
804.761	0.0168264
804.840	0.0168464
804.918	0.0168693
804.996	0.0168529
805.074	0.0170004
805.152	0.0169379
805.230	0.0170084
805.308	0.0170182
805.386	0.0170045
805.465	0.0170634
805.543	0.0169350
805.621	0.0170758
805.699	0.0169260
805.777	0.0169538
805.855	0.0169561
805.933	0.0168638
806.011	0.0169666
806.090	0.0169283
806.168	0.0168803
806.246	0.0168656
806.324	0.0169776
806.402	0.0168148
806.480	0.0167826
806.558	0.0167207
806.636	0.0166298
806.715	0.0166576
806.793	0.0166569
806.871	0.0167443
806.949	0.0166827
807.027	0.0165554
807.105	0.0164244
807.183	0.0165383
807.261	0.0165984
807.340	0.0165788
807.418	0.0164314
807.496	0.0165234
807.574	0.0165233
807.652	0.0164342
807.730	0.0164151
807.808	0.0165933
807.886	0.0165149
807.965	0.0165503
808.043	0.0165700
808.121	0.0164917
808.199	0.0165165
808.277	0.0165533
808.355	0.0166686
808.433	0.0164703
808.511	0.0164671
808.590	0.0164629
808.668	0.0164948
808.746	0.0164984
808.824	0.0164906
808.902	0.0163889
808.980	0.0164436
809.058	0.0165645
809.136	0.0165903
809.215	0.0165031
809.293	0.0166152
809.371	0.0164332
809.449	0.0165034
809.527	0.0165092
809.605	0.0164127
809.683	0.0164102
809.761	0.0164458
809.840	0.0163783
809.918	0.0163461
809.996	0.0164351
810.074	0.0163276
810.152	0.0162241
810.230	0.0163422
810.308	0.0164598
810.386	0.0162427
810.465	0.0164300
810.543	0.0163876
810.621	0.0164026
810.699	0.0163757
810.777	0.0163689
810.855	0.0163657
810.933	0.0164565
811.011	0.0164861
811.090	0.0165408
811.168	0.0164551
811.246	0.0165958
811.324	0.0165863
811.402	0.0166811
811.480	0.0165565
811.558	0.0166432
811.636	0.0166902
811.715	0.0167240
811.793	0.0167996
811.871	0.0167043
811.949	0.0167242
812.027	0.0167062
812.105	0.0168119
812.183	0.0168486
812.261	0.0168601
812.340	0.0167992
812.418	0.0167220
812.496	0.0166497
812.574	0.0168856
812.652	0.0169172
812.730	0.0167803
812.808	0.0167956
812.886	0.0167955
812.965	0.0167445
813.043	0.0168968
813.121	0.0169271
813.199	0.0169640
813.277	0.0169332
813.355	0.0168204
813.433	0.0167991
813.511	0.0168569
813.590	0.0169698
813.668	0.0169219
813.746	0.0168026
813.824	0.0168055
813.902	0.0168929
813.980	0.0167973
814.058	0.0167780
814.136	0.0168296
814.215	0.0168415
814.293	0.0168925
814.371	0.0169020
814.449	0.0167543
814.527	0.0167812
814.605	0.0169459
814.683	0.0168172
814.761	0.0166602
814.840	0.0166352
814.918	0.0166168
814.996	0.0167258
815.074	0.0166837
815.152	0.0165319
815.230	0.0166182
815.308	0.0166691
815.386	0.0166591
815.465	0.0166187
815.543	0.0165868
815.621	0.0165726
815.699	0.0166557
815.777	0.0166248
815.855	0.0165530
815.933	0.0164429
816.011	0.0164316
816.090	0.0165236
816.168	0.0165015
816.246	0.0164871
816.324	0.0164155
816.402	0.0164444
816.480	0.0164778
816.558	0.0163779
816.636	0.0163401
816.715	0.0165607
816.793	0.0164024
816.871	0.0163955
816.949	0.0164156
817.027	0.0163585
817.105	0.0163215
817.183	0.0163506
817.261	0.0163802
817.340	0.0164525
817.418	0.0166109
817.496	0.0165590
817.574	0.0164415
817.652	0.0166613
817.730	0.0166891
817.808	0.0166275
817.886	0.0166471
817.965	0.0165749
818.043	0.0166750
818.121	0.0167736
818.199	0.0168686
818.277	0.0168140
818.355	0.0168639
818.433	0.0167669
818.511	0.0168321
818.590	0.0166942
818.668	0.0168209
818.746	0.0168332
818.824	0.0168137
818.902	0.0167802
818.980	0.0166779
819.058	0.0168998
819.136	0.0168577
819.215	0.0168029
819.293	0.0167217
819.371	0.0168028
819.449	0.0168103
819.527	0.0167899
819.605	0.0166965
819.683	0.0168010
819.761	0.0169604
819.840	0.0167645
819.918	0.0168558
819.996	0.0167195
820.074	0.0169508
820.152	0.0167986
820.230	0.0168674
820.308	0.0168677
820.386	0.0170092
820.465	0.0168156
820.543	0.0169701
820.621	0.0169258
820.699	0.0168946
820.777	0.0169270
820.855	0.0169989
820.933	0.0168620
821.011	0.0169038
821.090	0.0169283
821.168	0.0168992
821.246	0.0168524
821.324	0.0168120
821.402	0.0169748
821.480	0.0167939
821.558	0.0167860
821.636	0.0166569
821.715	0.0166982
821.793	0.0166553
821.871	0.0167594
821.949	0.0167660
822.027	0.0165276
822.105	0.0167379
822.183	0.0167113
822.261	0.0167397
822.340	0.0167167
822.418	0.0166927
822.496	0.0168238
822.574	0.0166476
822.652	0.0166695
822.730	0.0167696
822.808	0.0167994
822.886	0.0168212
822.965	0.0167986
823.043	0.0166895
823.121	0.0167100
823.199	0.0168010
823.277	0.0167257
823.355	0.0166710
823.433	0.0165736
823.511	0.0165875
823.590	0.0166579
823.668	0.0165017
823.746	0.0165081
823.824	0.0163387
823.902	0.0163497
823.980	0.0163325
824.058	0.0162170
824.136	0.0162366
824.215	0.0163902
824.293	0.0160995
824.371	0.0161169
824.449	0.0162067
824.527	0.0161181
824.605	0.0161592
824.683	0.0161880
824.761	0.0161758
824.840	0.0162548
824.918	0.0162068
824.996	0.0163224
825.074	0.0163420
825.152	0.0164429
825.230	0.0165020
825.308	0.0165742
825.386	0.0166084
825.465	0.0165879
825.543	0.0167434
825.621	0.0168288
825.699	0.0167743
825.777	0.0167711
825.855	0.0168580
825.933	0.0168185
826.011	0.0169859
826.090	0.0170422
826.168	0.0170576
826.246	0.0170693
826.324	0.0169537
826.402	0.0170988
826.480	0.0170551
826.558	0.0171082
826.636	0.0170234
826.715	0.0170446
826.793	0.0170400
826.871	0.0168944
826.949	0.0168701
827.027	0.0168372
827.105	0.0167753
827.183	0.0169652
827.261	0.0168368
827.340	0.0168162
827.418	0.0167726
827.496	0.0167754
827.574	0.0167710
827.652	0.0166479
827.730	0.0167780
827.808	0.0166054
827.886	0.0167872
827.965	0.0167017
828.043	0.0166120
828.121	0.0166164
828.199	0.0166424
828.277	0.0167073
828.355	0.0167523
828.433	0.0165391
828.511	0.0165418
828.590	0.0166750
828.668	0.0167380
828.746	0.0167133
828.824	0.0166816
828.902	0.0167538
828.980	0.0166580
829.058	0.0167069
829.136	0.0167706
829.215	0.0168266
829.293	0.0168249
829.371	0.0168063
829.449	0.0168592
829.527	0.0168877
829.605	0.0168019
829.683	0.0168323
829.761	0.0170689
829.840	0.0169788
829.918	0.0169276
829.996	0.0170619
830.074	0.0169462
830.152	0.0170953
830.230	0.0169186
830.308	0.0170982
830.386	0.0170191
830.465	0.0169771
830.543	0.0170596
830.621	0.0170219
830.699	0.0169863
830.777	0.0170542
830.855	0.0170086
830.933	0.0167306
831.011	0.0170206
831.090	0.0168655
831.168	0.0167741
831.246	0.0167742
831.324	0.0166629
831.402	0.0166177
831.480	0.0165278
831.558	0.0164158
831.636	0.0164893
831.715	0.0165019
831.793	0.0164528
831.871	0.0164373
831.949	0.0164220
832.027	0.0165123
832.105	0.0163361
832.183	0.0164582
832.261	0.0163101
832.340	0.0163944
832.418	0.0164605
832.496	0.0164713
832.574	0.0164938
832.652	0.0164154
832.730	0.0164804
832.808	0.0166123
832.886	0.0165794
832.965	0.0165253
833.043	0.0165248
833.121	0.0165376
833.199	0.0164772
833.277	0.0164839
833.355	0.0165331
833.433	0.0166180
833.511	0.0165188
833.590	0.0165205
833.668	0.0164882
833.746	0.0165845
833.824	0.0165420
833.902	0.0164681
833.980	0.0165264
834.058	0.0165771
834.136	0.0165749
834.215	0.0165465
834.293	0.0165635
834.371	0.0165929
834.449	0.0165226
834.527	0.0165885
834.605	0.0165067
834.683	0.0165359
834.761	0.0164606
834.840	0.0165930
834.918	0.0165139
834.996	0.0164190
835.074	0.0164588
835.152	0.0163734
835.230	0.0164770
835.308	0.0164398
835.386	0.0164925
835.465	0.0163332
835.543	0.0164536
835.621	0.0165421
835.699	0.0164773
835.777	0.0164697
835.855	0.0164911
835.933	0.0164820
836.011	0.0165874
836.090	0.0165299
836.168	0.0165459
836.246	0.0166548
836.324	0.0166437
836.402	0.0166763
836.480	0.0166324
836.558	0.0166561
836.636	0.0169908
836.715	0.0169745
836.793	0.0168375
836.871	0.0169416
836.949	0.0170280
837.027	0.0169604
837.105	0.0170888
837.183	0.0170139
837.261	0.0169775
837.340	0.0170247
837.418	0.0170790
837.496	0.0170290
837.574	0.0170742
837.652	0.0171423
837.730	0.0170616
837.808	0.0171071
837.886	0.0170467
837.965	0.0168153
838.043	0.0171365
838.121	0.0169720
838.199	0.0170630
838.277	0.0169190
838.355	0.0169233
838.433	0.0168488
838.511	0.0169363
838.590	0.0169739
838.668	0.0168597
838.746	0.0169923
838.824	0.0168601
838.902	0.0169179
838.980	0.0168269
839.058	0.0167979
839.136	0.0168482
839.215	0.0169577
839.293	0.0168397
839.371	0.0169899
839.449	0.0170165
839.527	0.0168566
839.605	0.0170477
839.683	0.0171765
839.761	0.0169498
839.840	0.0168542
839.918	0.0170290
839.996	0.0172500
840.074	0.0171581
840.152	0.0170379
840.230	0.0170831
840.308	0.0170993
840.386	0.0169685
840.465	0.0170022
840.543	0.0169402
840.621	0.0169203
840.699	0.0169724
840.777	0.0169126
840.855	0.0170963
840.933	0.0169255
841.011	0.0167892
841.090	0.0168961
841.168	0.0168864
841.246	0.0167671
841.324	0.0167252
841.402	0.0168781
841.480	0.0169110
841.558	0.0167208
841.636	0.0168835
841.715	0.0168488
841.793	0.0168916
841.871	0.0168771
841.949	0.0169078
842.027	0.0170080
842.105	0.0167755
842.183	0.0168120
842.261	0.0168204
842.340	0.0167570
842.418	0.0167740
842.496	0.0166649
842.574	0.0167208
842.652	0.0167623
842.730	0.0165736
842.808	0.0167243
842.886	0.0167130
842.965	0.0165633
843.043	0.0166288
843.121	0.0164899
843.199	0.0167049
843.277	0.0166636
843.355	0.0167725
843.433	0.0166940
843.511	0.0167314
843.590	0.0165560
843.668	0.0165791
843.746	0.0165913
843.824	0.0166322
843.902	0.0166886
843.980	0.0165876
844.058	0.0166476
844.136	0.0166467
844.215	0.0165867
844.293	0.0167796
844.371	0.0166296
844.449	0.0166439
844.527	0.0166142
844.605	0.0168234
844.683	0.0167420
844.761	0.0166911
844.840	0.0166860
844.918	0.0166077
844.996	0.0166820
845.074	0.0166387
845.152	0.0167852
845.230	0.0167966
845.308	0.0168012
845.386	0.0166779
845.465	0.0165522
845.543	0.0166007
845.621	0.0165652
845.699	0.0167321
845.777	0.0165433
845.855	0.0165598
845.933	0.0165453
846.011	0.0165011
846.090	0.0164908
846.168	0.0165735
846.246	0.0164620
846.324	0.0165493
846.402	0.0165606
846.480	0.0165426
846.558	0.0165569
846.636	0.0165212
846.715	0.0166273
846.793	0.0165107
846.871	0.0165865
846.949	0.0166833
847.027	0.0166242
847.105	0.0165355
847.183	0.0164120
847.261	0.0166281
847.340	0.0166243
847.418	0.0165621
847.496	0.0164948
847.574	0.0165099
847.652	0.0166158
847.730	0.0164492
847.808	0.0163405
847.886	0.0163888
847.965	0.0165031
848.043	0.0163725
848.121	0.0164281
848.199	0.0164388
848.277	0.0162746
848.355	0.0163013
848.433	0.0163394
848.511	0.0164676
848.590	0.0163668
848.668	0.0163899
848.746	0.0163898
848.824	0.0164017
848.902	0.0164996
848.980	0.0164496
849.058	0.0163282
849.136	0.0165608
849.215	0.0164415
849.293	0.0164701
849.371	0.0165218
849.449	0.0166256
849.527	0.0165713
849.605	0.0165657
849.683	0.0164519
849.761	0.0167397
849.840	0.0166664
849.918	0.0166963
849.996	0.0165281
850.074	0.0165738
850.152	0.0166375
850.230	0.0166540
850.308	0.0165815
850.386	0.0165565
850.465	0.0166831
850.543	0.0165847
850.621	0.0166700
850.699	0.0167310
850.777	0.0167659
850.855	0.0166361
850.933	0.0165986
851.011	0.0166207
851.090	0.0166252
851.168	0.0166344
851.246	0.0167342
851.324	0.0166708
851.402	0.0167883
851.480	0.0167880
851.558	0.0166989
851.636	0.0167830
851.715	0.0167928
851.793	0.0168064
851.871	0.0167231
851.949	0.0167064
852.027	0.0168480
852.105	0.0168264
852.183	0.0169551
852.261	0.0167844
852.340	0.0168096
852.418	0.0167503
852.496	0.0166385
852.574	0.0168267
852.652	0.0167656
852.730	0.0168001
852.808	0.0169429
852.886	0.0168675
852.965	0.0168523
853.043	0.0167030
853.121	0.0168040
853.199	0.0168078
853.277	0.0169807
853.355	0.0168085
853.433	0.0167374
853.511	0.0167846
853.590	0.0167406
853.668	0.0166180
853.746	0.0167738
853.824	0.0168434
853.902	0.0167624
853.980	0.0166723
854.058	0.0167194
854.136	0.0166824
854.215	0.0166732
854.293	0.0167077
854.371	0.0166984
854.449	0.0166491
854.527	0.0166169
854.605	0.0165392
854.683	0.0166270
854.761	0.0166001
854.840	0.0165974
854.918	0.0166092
854.996	0.0165975
855.074	0.0167047
855.152	0.0165070
855.230	0.0166837
855.308	0.0167148
855.386	0.0166567
855.465	0.0167493
855.543	0.0165933
855.621	0.0166126
855.699	0.0166673
855.777	0.0166632
855.855	0.0166693
855.933	0.0168159
856.011	0.0167609
856.090	0.0166816
856.168	0.0167146
856.246	0.0167081
856.324	0.0167295
856.402	0.0167803
856.480	0.0166641
856.558	0.0167695
856.636	0.0167627
856.715	0.0166267
856.793	0.0167068
856.871	0.0167888
856.949	0.0167685
857.027	0.0167480
857.105	0.0167297
857.183	0.0166870
857.261	0.0167278
857.340	0.0167725
857.418	0.0167444
857.496	0.0167218
857.574	0.0168562
857.652	0.0166966
857.730	0.0166923
857.808	0.0165930
857.886	0.0167798
857.965	0.0168293
858.043	0.0164673
858.121	0.0166105
858.199	0.0167141
858.277	0.0168672
858.355	0.0168371
858.433	0.0168793
858.511	0.0167106
858.590	0.0166295
858.668	0.0166808
858.746	0.0166612
858.824	0.0166970
858.902	0.0166288
858.980	0.0166576
859.058	0.0166087
859.136	0.0165527
859.215	0.0164952
859.293	0.0165602
859.371	0.0165022
859.449	0.0166937
859.527	0.0165323
859.605	0.0165869
859.683	0.0166065
859.761	0.0165479
859.840	0.0165431
859.918	0.0166373
859.996	0.0165210
860.074	0.0165247
860.152	0.0164681
860.230	0.0165195
860.308	0.0165113
860.386	0.0165171
860.465	0.0166020
860.543	0.0166742
860.621	0.0167307
860.699	0.0166744
860.777	0.0166221
860.855	0.0165478
860.933	0.0166762
861.011	0.0166621
861.090	0.0165960
861.168	0.0167270
861.246	0.0164917
861.324	0.0166653
861.402	0.0166373
861.480	0.0167111
861.558	0.0166866
861.636	0.0166608
861.715	0.0165449
861.793	0.0165869
861.871	0.0165311
861.949	0.0166311
862.027	0.0165360
862.105	0.0166318
862.183	0.0166489
862.261	0.0165905
862.340	0.0167078
862.418	0.0166444
862.496	0.0164504
862.574	0.0165368
862.652	0.0166906
862.730	0.0166840
862.808	0.0166328
862.886	0.0165848
862.965	0.0166757
863.043	0.0167003
863.121	0.0166583
863.199	0.0167069
863.277	0.0168327
863.355	0.0168074
863.433	0.0166182
863.511	0.0168760
863.590	0.0168657
863.668	0.0168473
863.746	0.0168166
863.824	0.0169524
863.902	0.0167892
863.980	0.0168932
864.058	0.0169908
864.136	0.0169971
864.215	0.0169538
864.293	0.0170520
864.371	0.0170975
864.449	0.0169452
864.527	0.0170135
864.605	0.0169930
864.683	0.0170614
864.761	0.0172186
864.840	0.0171009
864.918	0.0170649
864.996	0.0169805
865.074	0.0169118
865.152	0.0169681
865.230	0.0171030
865.308	0.0170430
865.386	0.0170488
865.465	0.0169731
865.543	0.0169698
865.621	0.0170090
865.699	0.0168171
865.777	0.0169408
865.855	0.0169548
865.933	0.0168156
866.011	0.0168114
866.090	0.0167780
866.168	0.0168842
866.246	0.0167877
866.324	0.0168766
866.402	0.0167864
866.480	0.0167976
866.558	0.0167472
866.636	0.0166863
866.715	0.0166368
866.793	0.0167882
866.871	0.0167809
866.949	0.0166961
867.027	0.0166219
867.105	0.0166109
867.183	0.0166756
867.261	0.0166813
867.340	0.0168787
867.418	0.0166822
867.496	0.0167390
867.574	0.0167475
867.652	0.0167699
867.730	0.0167282
867.808	0.0168622
867.886	0.0168030
867.965	0.0167664
868.043	0.0169496
868.121	0.0169021
868.199	0.0168756
868.277	0.0167596
868.355	0.0169423
868.433	0.0166489
868.511	0.0166070
868.590	0.0167939
868.668	0.0169106
868.746	0.0166206
868.824	0.0167332
868.902	0.0167444
868.980	0.0167210
869.058	0.0166935
869.136	0.0168472
869.215	0.0167867
869.293	0.0166418
869.371	0.0166301
869.449	0.0167236
869.527	0.0168372
869.605	0.0167129
869.683	0.0167985
869.761	0.0167919
869.840	0.0167430
869.918	0.0167262
869.996	0.0167264
870.074	0.0167664
870.152	0.0168024
870.230	0.0167893
870.308	0.0169273
870.386	0.0167994
870.465	0.0168116
870.543	0.0168855
870.621	0.0169212
870.699	0.0168770
870.777	0.0168469
870.855	0.0168537
870.933	0.0169285
871.011	0.0168225
871.090	0.0170197
871.168	0.0168606
871.246	0.0169057
871.324	0.0169173
871.402	0.0168418
871.480	0.0169463
871.558	0.0168482
871.636	0.0169044
871.715	0.0168482
871.793	0.0168710
871.871	0.0168460
871.949	0.0166829
872.027	0.0167862
872.105	0.0167883
872.183	0.0167037
872.261	0.0167097
872.340	0.0167929
872.418	0.0167223
872.496	0.0165564
872.574	0.0166257
872.652	0.0165609
872.730	0.0166492
872.808	0.0165492
872.886	0.0164561
872.965	0.0164553
873.043	0.0163686
873.121	0.0163837
873.199	0.0164143
873.277	0.0165818
873.355	0.0164966
873.433	0.0163396
873.511	0.0164279
873.590	0.0164218
873.668	0.0164951
873.746	0.0163229
873.824	0.0163713
873.902	0.0165568
873.980	0.0163329
874.058	0.0164324
874.136	0.0165743
874.215	0.0164638
874.293	0.0166223
874.371	0.0166441
874.449	0.0166149
874.527	0.0165747
874.605	0.0166087
874.683	0.0166009
874.761	0.0166575
874.840	0.0166079
874.918	0.0165921
874.996	0.0166428
875.074	0.0165755
875.152	0.0165628
875.230	0.0165477
875.308	0.0165912
875.386	0.0165781
875.465	0.0166653
875.543	0.0166353
875.621	0.0166108
875.699	0.0165194
875.777	0.0165981
875.855	0.0165823
875.933	0.0165000
876.011	0.0166159
876.090	0.0166905
876.168	0.0164236
876.246	0.0165813
876.324	0.0165873
876.402	0.0165505
876.480	0.0164972
876.558	0.0165677
876.636	0.0165497
876.715	0.0165374
876.793	0.0165590
876.871	0.0164007
876.949	0.0164700
877.027	0.0164973
877.105	0.0166117
877.183	0.0166081
877.261	0.0164876
877.340	0.0167727
877.418	0.0166915
877.496	0.0166954
877.574	0.0167442
877.652	0.0167213
877.730	0.0167633
877.808	0.0168569
877.886	0.0168208
877.965	0.0168768
878.043	0.0170152
878.121	0.0168473
878.199	0.0169738
878.277	0.0170228
878.355	0.0170996
878.433	0.0169928
878.511	0.0170734
878.590	0.0171561
878.668	0.0171449
878.746	0.0172165
878.824	0.0172958
878.902	0.0171989
878.980	0.0172299
879.058	0.0172058
879.136	0.0173036
879.215	0.0173595
879.293	0.0171959
879.371	0.0172815
879.449	0.0173737
879.527	0.0171513
879.605	0.0171423
879.683	0.0170647
879.761	0.0173568
879.840	0.0171715
879.918	0.0169860
879.996	0.0171081
880.074	0.0171439
880.152	0.0167937
880.230	0.0169149
880.308	0.0168556
880.386	0.0168676
880.465	0.0168234
880.543	0.0167187
880.621	0.0167142
880.699	0.0166228
880.777	0.0165336
880.855	0.0165266
880.933	0.0164850
881.011	0.0163525
881.090	0.0163237
881.168	0.0162959
881.246	0.0161733
881.324	0.0161494
881.402	0.0162163
881.480	0.0161742
881.558	0.0161053
881.636	0.0161288
881.715	0.0162467
881.793	0.0160867
881.871	0.0161653
881.949	0.0162229
882.027	0.0162576
882.105	0.0162952
882.183	0.0162621
882.261	0.0163544
882.340	0.0162372
882.418	0.0163973
882.496	0.0163046
882.574	0.0162768
882.652	0.0164696
882.730	0.0164651
882.808	0.0164248
882.886	0.0165137
882.965	0.0165421
883.043	0.0164783
883.121	0.0165238
883.199	0.0166595
883.277	0.0166472
883.355	0.0166814
883.433	0.0166433
883.511	0.0166026
883.590	0.0167522
883.668	0.0166039
883.746	0.0165878
883.824	0.0167026
883.902	0.0167970
883.980	0.0167588
884.058	0.0166249
884.136	0.0165675
884.215	0.0165933
884.293	0.0166612
884.371	0.0167976
884.449	0.0168149
884.527	0.0166812
884.605	0.0167140
884.683	0.0167381
884.761	0.0168506
884.840	0.0167695
884.918	0.0166664
884.996	0.0167901
885.074	0.0166471
885.152	0.0167865
885.230	0.0166996
885.308	0.0168034
885.386	0.0168236
885.465	0.0168076
885.543	0.0168721
885.621	0.0168314
885.699	0.0167501
885.777	0.0167686
885.855	0.0166536
885.933	0.0168574
886.011	0.0168584
886.090	0.0168565
886.168	0.0167800
886.246	0.0167921
886.324	0.0167160
886.402	0.0168736
886.480	0.0167673
886.558	0.0167563
886.636	0.0168610
886.715	0.0168103
886.793	0.0168354
886.871	0.0168188
886.949	0.0167228
887.027	0.0168216
887.105	0.0166801
887.183	0.0167992
887.261	0.0167989
887.340	0.0167175
887.418	0.0168655
887.496	0.0168967
887.574	0.0167664
887.652	0.0169012
887.730	0.0169631
887.808	0.0167773
887.886	0.0168382
887.965	0.0168250
888.043	0.0168785
888.121	0.0170065
888.199	0.0169328
888.277	0.0168130
888.355	0.0166481
888.433	0.0168744
888.511	0.0169228
888.590	0.0168607
888.668	0.0167697
888.746	0.0168037
888.824	0.0168780
888.902	0.0168545
888.980	0.0166997
889.058	0.0167938
889.136	0.0168302
889.215	0.0168396
889.293	0.0166174
889.371	0.0167079
889.449	0.0167243
889.527	0.0167675
889.605	0.0167316
889.683	0.0167446
889.761	0.0167017
889.840	0.0167817
889.918	0.0168723
889.996	0.0168247
890.074	0.0167531
890.152	0.0167490
890.230	0.0168791
890.308	0.0169424
890.386	0.0168662
890.465	0.0168003
890.543	0.0168240
890.621	0.0167717
890.699	0.0168288
890.777	0.0168404
890.855	0.0168468
890.933	0.0168880
891.011	0.0168925
891.090	0.0167350
891.168	0.0168454
891.246	0.0169435
891.324	0.0167057
891.402	0.0167683
891.480	0.0168293
891.558	0.0168015
891.636	0.0167584
891.715	0.0166710
891.793	0.0167243
891.871	0.0166843
891.949	0.0167097
892.027	0.0167076
892.105	0.0167451
892.183	0.0164983
892.261	0.0165722
892.340	0.0166016
892.418	0.0166594
892.496	0.0166692
892.574	0.0167186
892.652	0.0165878
892.730	0.0166258
892.808	0.0165791
892.886	0.0167876
892.965	0.0167042
893.043	0.0165743
893.121	0.0165921
893.199	0.0166676
893.277	0.0167770
893.355	0.0167981
893.433	0.0165491
893.511	0.0165725
893.590	0.0167097
893.668	0.0167478
893.746	0.0167825
893.824	0.0167200
893.902	0.0168208
893.980	0.0166850
894.058	0.0167194
894.136	0.0167410
894.215	0.0167746
894.293	0.0167539
894.371	0.0166937
894.449	0.0167765
894.527	0.0168278
894.605	0.0168231
894.683	0.0166600
894.761	0.0167299
894.840	0.0168304
894.918	0.0167323
894.996	0.0167863
895.074	0.0168718
895.152	0.0167397
895.230	0.0167422
895.308	0.0166880
895.386	0.0166711
895.465	0.0167535
895.543	0.0167126
895.621	0.0167195
895.699	0.0165337
895.777	0.0165881
895.855	0.0166300
895.933	0.0165517
896.011	0.0166928
896.090	0.0166860
896.168	0.0167516
896.246	0.0167441
896.324	0.0167478
896.402	0.0167835
896.480	0.0167956
896.558	0.0167411
896.636	0.0166311
896.715	0.0167016
896.793	0.0167185
896.871	0.0166348
896.949	0.0168337
897.027	0.0168438
897.105	0.0166654
897.183	0.0167857
897.261	0.0169556
897.340	0.0168602
897.418	0.0169239
897.496	0.0168127
897.574	0.0168416
897.652	0.0170891
897.730	0.0169012
897.808	0.0168936
897.886	0.0168953
897.965	0.0168354
898.043	0.0168869
898.121	0.0169154
898.199	0.0168113
898.277	0.0168980
898.355	0.0170154
898.433	0.0169166
898.511	0.0169086
898.590	0.0168293
898.668	0.0169337
898.746	0.0169137
898.824	0.0169404
898.902	0.0168703
898.980	0.0167940
899.058	0.0169984
899.136	0.0168435
899.215	0.0167796
899.293	0.0168924
899.371	0.0167479
899.449	0.0168472
899.527	0.0168444
899.605	0.0168955
899.683	0.0168285
899.761	0.0168054
899.840	0.0168182
899.918	0.0168018
899.996	0.0167495
900.074	0.0168652
900.152	0.0168966
900.230	0.0168191
900.308	0.0168699
900.386	0.0167780
900.465	0.0169885
900.543	0.0167915
900.621	0.0168913
900.699	0.0167340
900.777	0.0167914
900.855	0.0167890
900.933	0.0168598
901.011	0.0168017
901.090	0.0167759
901.168	0.0167094
901.246	0.0168319
901.324	0.0167963
901.402	0.0167450
901.480	0.0167656
901.558	0.0167185
901.636	0.0168269
901.715	0.0168723
901.793	0.0168074
901.871	0.0167466
901.949	0.0165994
902.027	0.0166962
902.105	0.0167337
902.183	0.0168401
902.261	0.0168191
902.340	0.0167481
902.418	0.0167156
902.496	0.0169030
902.574	0.0168884
902.652	0.0169190
902.730	0.0170924
902.808	0.0169720
902.886	0.0170028
902.965	0.0167752
903.043	0.0168582
903.121	0.0168761
903.199	0.0170212
903.277	0.0168688
903.355	0.0168890
903.433	0.0169053
903.511	0.0169226
903.590	0.0169920
903.668	0.0169580
903.746	0.0168484
903.824	0.0167901
903.902	0.0168916
903.980	0.0169330
904.058	0.0168214
904.136	0.0167091
904.215	0.0167455
904.293	0.0167607
904.371	0.0165491
904.449	0.0166411
904.527	0.0166253
904.605	0.0165248
904.683	0.0166990
904.761	0.0165155
904.840	0.0166220
904.918	0.0163844
904.996	0.0163577
905.074	0.0163706
905.152	0.0164595
905.230	0.0165147
905.308	0.0164315
905.386	0.0164162
905.465	0.0164356
905.543	0.0164754
905.621	0.0164989
905.699	0.0164097
905.777	0.0164458
905.855	0.0165086
905.933	0.0163341
906.011	0.0164099
906.090	0.0164242
906.168	0.0164451
906.246	0.0165019
906.324	0.0164750
906.402	0.0162418
906.480	0.0164024
906.558	0.0164082
906.636	0.0163290
906.715	0.0163387
906.793	0.0164310
906.871	0.0163695
906.949	0.0164801
907.027	0.0163918
907.105	0.0164807
907.183	0.0164912
907.261	0.0163643
907.340	0.0163898
907.418	0.0164252
907.496	0.0164730
907.574	0.0166144
907.652	0.0165587
907.730	0.0165420
907.808	0.0165294
907.886	0.0164710
907.965	0.0165520
908.043	0.0167550
908.121	0.0165286
908.199	0.0166486
908.277	0.0166247
908.355	0.0165837
908.433	0.0166141
908.511	0.0168324
908.590	0.0166218
908.668	0.0166765
908.746	0.0168164
908.824	0.0166734
908.902	0.0168161
908.980	0.0167345
909.058	0.0166642
909.136	0.0167651
909.215	0.0168191
909.293	0.0168230
909.371	0.0166632
909.449	0.0166611
909.527	0.0167891
909.605	0.0168322
909.683	0.0168033
909.761	0.0166239
909.840	0.0167278
909.918	0.0166886
909.996	0.0166178
910.074	0.0167799
910.152	0.0166314
910.230	0.0167474
910.308	0.0167200
910.386	0.0166913
910.465	0.0165360
910.543	0.0167232
910.621	0.0167074
910.699	0.0167592
910.777	0.0167640
910.855	0.0167168
910.933	0.0167284
911.011	0.0167627
911.090	0.0167433
911.168	0.0167905
911.246	0.0169298
911.324	0.0168943
911.402	0.0167970
911.480	0.0168196
911.558	0.0169022
911.636	0.0168873
911.715	0.0168746
911.793	0.0168803
911.871	0.0168708
911.949	0.0168817
912.027	0.0168332
912.105	0.0167766
912.183	0.0170139
912.261	0.0167789
912.340	0.0169720
912.418	0.0169041
912.496	0.0169286
912.574	0.0168575
912.652	0.0168625
912.730	0.0167799
912.808	0.0167665
912.886	0.0167937
912.965	0.0167127
913.043	0.0168150
913.121	0.0168417
913.199	0.0165984
913.277	0.0166169
913.355	0.0167094
913.433	0.0166016
913.511	0.0166235
913.590	0.0166736
913.668	0.0166479
913.746	0.0166545
913.824	0.0166846
913.902	0.0166169
913.980	0.0165422
914.058	0.0166629
914.136	0.0165614
914.215	0.0165939
914.293	0.0167178
914.371	0.0166728
914.449	0.0165506
914.527	0.0166389
914.605	0.0166649
914.683	0.0166060
914.761	0.0166557
914.840	0.0166297
914.918	0.0167273
914.996	0.0167661
915.074	0.0167918
915.152	0.0167372
915.230	0.0168697
915.308	0.0167821
915.386	0.0168298
915.465	0.0168240
915.543	0.0167249
915.621	0.0165779
915.699	0.0168360
915.777	0.0167518
915.855	0.0166409
915.933	0.0166447
916.011	0.0166779
916.090	0.0167354
916.168	0.0166041
916.246	0.0166634
916.324	0.0166327
916.402	0.0164081
916.480	0.0164613
916.558	0.0165699
916.636	0.0165752
916.715	0.0164603
916.793	0.0165602
916.871	0.0164748
916.949	0.0163590
917.027	0.0164931
917.105	0.0165012
917.183	0.0165296
917.261	0.0164175
917.340	0.0164862
917.418	0.0165707
917.496	0.0165414
917.574	0.0163457
917.652	0.0165385
917.730	0.0166767
917.808	0.0165582
917.886	0.0165192
917.965	0.0166435
918.043	0.0165947
918.121	0.0164911
918.199	0.0165440
918.277	0.0164410
918.355	0.0164955
918.433	0.0164407
918.511	0.0165301
918.590	0.0165426
918.668	0.0164890
918.746	0.0163192
918.824	0.0163975
918.902	0.0166151
918.980	0.0165144
919.058	0.0165804
919.136	0.0164931
919.215	0.0165987
919.293	0.0165643
919.371	0.0166833
919.449	0.0166867
919.527	0.0166404
919.605	0.0165120
919.683	0.0167159
919.761	0.0167532
919.840	0.0166605
919.918	0.0167902
919.996	0.0168656
920.074	0.0168407
920.152	0.0168591
920.230	0.0168785
920.308	0.0167413
920.386	0.0169579
920.465	0.0168213
920.543	0.0167041
920.621	0.0168261
920.699	0.0168288
920.777	0.0168513
920.855	0.0167352
920.933	0.0167318
921.011	0.0166870
921.090	0.0167461
921.168	0.0166617
921.246	0.0165884
921.324	0.0166382
921.402	0.0165860
921.480	0.0165336
921.558	0.0166601
921.636	0.0165860
921.715	0.0166273
921.793	0.0166669
921.871	0.0163361
921.949	0.0165949
922.027	0.0166233
922.105	0.0165740
922.183	0.0165754
922.261	0.0163959
922.340	0.0165379
922.418	0.0166204
922.496	0.0165601
922.574	0.0164941
922.652	0.0164345
922.730	0.0165345
922.808	0.0165561
922.886	0.0165301
922.965	0.0165027
923.043	0.0164481
923.121	0.0165658
923.199	0.0165368
923.277	0.0166850
923.355	0.0166437
923.433	0.0166892
923.511	0.0167177
923.590	0.0167633
923.668	0.0167873
923.746	0.0166550
923.824	0.0167253
923.902	0.0168620
923.980	0.0167834
924.058	0.0168754
924.136	0.0167441
924.215	0.0166605
924.293	0.0166861
924.371	0.0167345
924.449	0.0168060
924.527	0.0166279
924.605	0.0165604
924.683	0.0167367
924.761	0.0166428
924.840	0.0166438
924.918	0.0166232
924.996	0.0166069
925.074	0.0167507
925.152	0.0165269
925.230	0.0166290
925.308	0.0167596
925.386	0.0166891
925.465	0.0167336
925.543	0.0165538
925.621	0.0165394
925.699	0.0165154
925.777	0.0166724
925.855	0.0166080
925.933	0.0166806
926.011	0.0167367
926.090	0.0166689
926.168	0.0168046
926.246	0.0165096
926.324	0.0165011
926.402	0.0167417
926.480	0.0166958
926.558	0.0166562
926.636	0.0166953
926.715	0.0166232
926.793	0.0166761
926.871	0.0166415
926.949	0.0166940
927.027	0.0166230
927.105	0.0167127
927.183	0.0166518
927.261	0.0167056
927.340	0.0165929
927.418	0.0166498
927.496	0.0166110
927.574	0.0167079
927.652	0.0165939
927.730	0.0166431
927.808	0.0167962
927.886	0.0166312
927.965	0.0167278
928.043	0.0167689
928.121	0.0166612
928.199	0.0166220
928.277	0.0165558
928.355	0.0165966
928.433	0.0166573
928.511	0.0166670
928.590	0.0166244
928.668	0.0166475
928.746	0.0166630
928.824	0.0166507
928.902	0.0165681
928.980	0.0167238
929.058	0.0168410
929.136	0.0166224
929.215	0.0166343
929.293	0.0166364
929.371	0.0166044
929.449	0.0166138
929.527	0.0165894
929.605	0.0165489
929.683	0.0166677
929.761	0.0166588
929.840	0.0165802
929.918	0.0166115
929.996	0.0166283
930.074	0.0165841
930.152	0.0165278
930.230	0.0166434
930.308	0.0166319
930.386	0.0166965
930.465	0.0167462
930.543	0.0166538
930.621	0.0167702
930.699	0.0168737
930.777	0.0167442
930.855	0.0168941
930.933	0.0168743
931.011	0.0168928
931.090	0.0169547
931.168	0.0169479
931.246	0.0168430
931.324	0.0169148
931.402	0.0168782
931.480	0.0170530
931.558	0.0169627
931.636	0.0168844
931.715	0.0170071
931.793	0.0169659
931.871	0.0169354
931.949	0.0168830
932.027	0.0169767
932.105	0.0168301
932.183	0.0168755
932.261	0.0168938
932.340	0.0168468
932.418	0.0168411
932.496	0.0168594
932.574	0.0167275
932.652	0.0168633
932.730	0.0168243
932.808	0.0167291
932.886	0.0167578
932.965	0.0168262
933.043	0.0167790
933.121	0.0168018
933.199	0.0169093
933.277	0.0168299
933.355	0.0169408
933.433	0.0169490
933.511	0.0169196
933.590	0.0168604
933.668	0.0168713
933.746	0.0169109
933.824	0.0169471
933.902	0.0168663
933.980	0.0167435
934.058	0.0169003
934.136	0.0169664
934.215	0.0168559
934.293	0.0169733
934.371	0.0169877
934.449	0.0169106
934.527	0.0167786
934.605	0.0169882
934.683	0.0168909
934.761	0.0169001
934.840	0.0168820
934.918	0.0169559
934.996	0.0168877
935.074	0.0168395
935.152	0.0168354
935.230	0.0168548
935.308	0.0169460
935.386	0.0168812
935.465	0.0168102
935.543	0.0168993
935.621	0.0168839
935.699	0.0169123
935.777	0.0168478
935.855	0.0168531
935.933	0.0167558
936.011	0.0166965
936.090	0.0168227
936.168	0.0168326
936.246	0.0167658
936.324	0.0168279
936.402	0.0168266
936.480	0.0169302
936.558	0.0168316
936.636	0.0167741
936.715	0.0167329
936.793	0.0167491
936.871	0.0167491
936.949	0.0168438
937.027	0.0169603
937.105	0.0168267
937.183	0.0168011
937.261	0.0168037
937.340	0.0167922
937.418	0.0168186
937.496	0.0168292
937.574	0.0167959
937.652	0.0168194
937.730	0.0169096
937.808	0.0168417
937.886	0.0167837
937.965	0.0168017
938.043	0.0168015
938.121	0.0167451
938.199	0.0168160
938.277	0.0167606
938.355	0.0166422
938.433	0.0167171
938.511	0.0167759
938.590	0.0167719
938.668	0.0167936
938.746	0.0167671
938.824	0.0167520
938.902	0.0166816
938.980	0.0166190
939.058	0.0166492
939.136	0.0167648
939.215	0.0167336
939.293	0.0166766
939.371	0.0167029
939.449	0.0167191
939.527	0.0165633
939.605	0.0167347
939.683	0.0166737
939.761	0.0166296
939.840	0.0165656
939.918	0.0164166
939.996	0.0165801
940.074	0.0165089
940.152	0.0165899
940.230	0.0164874
940.308	0.0163583
940.386	0.0164465
940.465	0.0164838
940.543	0.0165195
940.621	0.0163423
940.699	0.0164599
940.777	0.0164412
940.855	0.0164154
940.933	0.0165933
941.011	0.0164722
941.090	0.0164110
941.168	0.0164667
941.246	0.0164160
941.324	0.0165508
941.402	0.0164830
941.480	0.0165185
941.558	0.0166547
941.636	0.0164673
941.715	0.0166913
941.793	0.0165751
941.871	0.0165373
941.949	0.0164525
942.027	0.0166170
942.105	0.0166299
942.183	0.0164987
942.261	0.0165697
942.340	0.0166159
942.418	0.0167322
942.496	0.0165464
942.574	0.0164862
942.652	0.0165131
942.730	0.0165802
942.808	0.0165071
942.886	0.0166702
942.965	0.0165960
943.043	0.0166556
943.121	0.0165543
943.199	0.0166468
943.277	0.0166158
943.355	0.0164037
943.433	0.0164439
943.511	0.0164121
943.590	0.0164149
943.668	0.0164220
943.746	0.0163692
943.824	0.0164803
943.902	0.0163570
943.980	0.0164345
944.058	0.0164680
944.136	0.0163671
944.215	0.0163010
944.293	0.0162909
944.371	0.0163833
944.449	0.0163540
944.527	0.0164294
944.605	0.0164455
944.683	0.0164157
944.761	0.0165981
944.840	0.0165335
944.918	0.0164091
944.996	0.0164147
945.074	0.0165082
945.152	0.0165926
945.230	0.0166022
945.308	0.0164994
945.386	0.0166083
945.465	0.0165872
945.543	0.0165073
945.621	0.0165910
945.699	0.0166314
945.777	0.0166328
945.855	0.0166467
945.933	0.0167232
946.011	0.0166859
946.090	0.0167738
946.168	0.0167500
946.246	0.0167047
946.324	0.0167267
946.402	0.0168194
946.480	0.0168236
946.558	0.0167554
946.636	0.0167937
946.715	0.0168260
946.793	0.0167963
946.871	0.0167110
946.949	0.0169884
947.027	0.0169709
947.105	0.0168057
947.183	0.0169715
947.261	0.0168422
947.340	0.0169617
947.418	0.0169131
947.496	0.0169297
947.574	0.0168066
947.652	0.0169049
947.730	0.0169524
947.808	0.0167918
947.886	0.0168460
947.965	0.0168576
948.043	0.0167619
948.121	0.0165699
948.199	0.0165808
948.277	0.0167741
948.355	0.0166990
948.433	0.0167384
948.511	0.0168633
948.590	0.0167706
948.668	0.0166908
948.746	0.0166689
948.824	0.0167572
948.902	0.0166589
948.980	0.0168037
949.058	0.0167246
949.136	0.0167322
949.215	0.0166758
949.293	0.0166908
949.371	0.0168438
949.449	0.0168057
949.527	0.0168474
949.605	0.0168764
949.683	0.0168137
949.761	0.0167726
949.840	0.0168245
949.918	0.0169117
