06/29/2022	23:24:22	Ver.	4.1	UNKNOWN
Optical Delay	630.002507	Delta X		0.078125	Sweeps	1	Scan Rate	0/0
Coordinates	Axis 1	NaN	Axis 2	NaN	Axis 3	NaN	Axis 4	NaN	Axis 5	NaN	Axis 6	0.000000
TX Power	0.000000	RX Power	0.000000

630.003	0.0151433
630.081	0.0160508
630.159	0.0160841
630.237	0.0161546
630.315	0.0162792
630.393	0.0162272
630.471	0.0161865
630.549	0.0162776
630.628	0.0161568
630.706	0.0162970
630.784	0.0162191
630.862	0.0163877
630.940	0.0163052
631.018	0.0165051
631.096	0.0164497
631.174	0.0163156
631.253	0.0165688
631.331	0.0165804
631.409	0.0164464
631.487	0.0164455
631.565	0.0164954
631.643	0.0164342
631.721	0.0164758
631.799	0.0166543
631.878	0.0165444
631.956	0.0167364
632.034	0.0167415
632.112	0.0167708
632.190	0.0166930
632.268	0.0166376
632.346	0.0166106
632.424	0.0165740
632.503	0.0165716
632.581	0.0165698
632.659	0.0165261
632.737	0.0164742
632.815	0.0164392
632.893	0.0163671
632.971	0.0163224
633.049	0.0164642
633.128	0.0164163
633.206	0.0162815
633.284	0.0163389
633.362	0.0164327
633.440	0.0164273
633.518	0.0165324
633.596	0.0164069
633.674	0.0165029
633.753	0.0165795
633.831	0.0165255
633.909	0.0164954
633.987	0.0163829
634.065	0.0163193
634.143	0.0164398
634.221	0.0162880
634.299	0.0162056
634.378	0.0161379
634.456	0.0160728
634.534	0.0160699
634.612	0.0158945
634.690	0.0160398
634.768	0.0156967
634.846	0.0156978
634.924	0.0158023
635.003	0.0158025
635.081	0.0156889
635.159	0.0156617
635.237	0.0156803
635.315	0.0156189
635.393	0.0157110
635.471	0.0156656
635.549	0.0157625
635.628	0.0156657
635.706	0.0155351
635.784	0.0153954
635.862	0.0151344
635.940	0.0150954
636.018	0.0150556
636.096	0.0149157
636.174	0.0147165
636.253	0.0147417
636.331	0.0148289
636.409	0.0149177
636.487	0.0149308
636.565	0.0148376
636.643	0.0149051
636.721	0.0148581
636.799	0.0149345
636.878	0.0152831
636.956	0.0151720
637.034	0.0152406
637.112	0.0152779
637.190	0.0152958
637.268	0.0154073
637.346	0.0153744
637.424	0.0154642
637.503	0.0153471
637.581	0.0154414
637.659	0.0155399
637.737	0.0154659
637.815	0.0154134
637.893	0.0153883
637.971	0.0155537
638.049	0.0155885
638.128	0.0153484
638.206	0.0153561
638.284	0.0152614
638.362	0.0153448
638.440	0.0154652
638.518	0.0153676
638.596	0.0155164
638.674	0.0154848
638.753	0.0154246
638.831	0.0155158
638.909	0.0155808
638.987	0.0156834
639.065	0.0157333
639.143	0.0156766
639.221	0.0157424
639.299	0.0157700
639.378	0.0158215
639.456	0.0158268
639.534	0.0157793
639.612	0.0157882
639.690	0.0157972
639.768	0.0156187
639.846	0.0157275
639.924	0.0158112
640.003	0.0158048
640.081	0.0157277
640.159	0.0157282
640.237	0.0156627
640.315	0.0159457
640.393	0.0158482
640.471	0.0158796
640.549	0.0159802
640.628	0.0160199
640.706	0.0159835
640.784	0.0161572
640.862	0.0159853
640.940	0.0160501
641.018	0.0161232
641.096	0.0161819
641.174	0.0160968
641.253	0.0163669
641.331	0.0163879
641.409	0.0161977
641.487	0.0162113
641.565	0.0160766
641.643	0.0162624
641.721	0.0163132
641.799	0.0163054
641.878	0.0162288
641.956	0.0163868
642.034	0.0164240
642.112	0.0164201
642.190	0.0164016
642.268	0.0166041
642.346	0.0164552
642.424	0.0165811
642.503	0.0165328
642.581	0.0165600
642.659	0.0166692
642.737	0.0164909
642.815	0.0166383
642.893	0.0167781
642.971	0.0165948
643.049	0.0167004
643.128	0.0164716
643.206	0.0164627
643.284	0.0164082
643.362	0.0164866
643.440	0.0164996
643.518	0.0163948
643.596	0.0163539
643.674	0.0162183
643.753	0.0163773
643.831	0.0162861
643.909	0.0161989
643.987	0.0163543
644.065	0.0163745
644.143	0.0163783
644.221	0.0162298
644.299	0.0161404
644.378	0.0161357
644.456	0.0160529
644.534	0.0159918
644.612	0.0160920
644.690	0.0159947
644.768	0.0159741
644.846	0.0157948
644.924	0.0158565
645.003	0.0160384
645.081	0.0160488
645.159	0.0160043
645.237	0.0160129
645.315	0.0158824
645.393	0.0157480
645.471	0.0158295
645.549	0.0158154
645.628	0.0158777
645.706	0.0156967
645.784	0.0157954
645.862	0.0156317
645.940	0.0155361
646.018	0.0155874
646.096	0.0154788
646.174	0.0155392
646.253	0.0155608
646.331	0.0154832
646.409	0.0155714
646.487	0.0154879
646.565	0.0155132
646.643	0.0154283
646.721	0.0154029
646.799	0.0155083
646.878	0.0155113
646.956	0.0153189
647.034	0.0153965
647.112	0.0153543
647.190	0.0155137
647.268	0.0154607
647.346	0.0153892
647.424	0.0155119
647.503	0.0154111
647.581	0.0153518
647.659	0.0154270
647.737	0.0154858
647.815	0.0153848
647.893	0.0154547
647.971	0.0156374
648.049	0.0155968
648.128	0.0156502
648.206	0.0155835
648.284	0.0155936
648.362	0.0155312
648.440	0.0154967
648.518	0.0156336
648.596	0.0155882
648.674	0.0154012
648.753	0.0154302
648.831	0.0157843
648.909	0.0155388
648.987	0.0155792
649.065	0.0156401
649.143	0.0155914
649.221	0.0157114
649.299	0.0157185
649.378	0.0157809
649.456	0.0159550
649.534	0.0159043
649.612	0.0159830
649.690	0.0159743
649.768	0.0160902
649.846	0.0161048
649.924	0.0160458
650.003	0.0160786
650.081	0.0161746
650.159	0.0162290
650.237	0.0162222
650.315	0.0162130
650.393	0.0164511
650.471	0.0164008
650.549	0.0162189
650.628	0.0162718
650.706	0.0161718
650.784	0.0161842
650.862	0.0161566
650.940	0.0162302
651.018	0.0161293
651.096	0.0160141
651.174	0.0161517
651.253	0.0161420
651.331	0.0159617
651.409	0.0161399
651.487	0.0159684
651.565	0.0159868
651.643	0.0159154
651.721	0.0158813
651.799	0.0159238
651.878	0.0157594
651.956	0.0158305
652.034	0.0159035
652.112	0.0157758
652.190	0.0156389
652.268	0.0156944
652.346	0.0155585
652.424	0.0154858
652.503	0.0154321
652.581	0.0152763
652.659	0.0152744
652.737	0.0153193
652.815	0.0152180
652.893	0.0153476
652.971	0.0151244
653.049	0.0150674
653.128	0.0150907
653.206	0.0151292
653.284	0.0151525
653.362	0.0151875
653.440	0.0153004
653.518	0.0154052
653.596	0.0153009
653.674	0.0153596
653.753	0.0153392
653.831	0.0153102
653.909	0.0151445
653.987	0.0153316
654.065	0.0152673
654.143	0.0152651
654.221	0.0151671
654.299	0.0151421
654.378	0.0152049
654.456	0.0151424
654.534	0.0151281
654.612	0.0151747
654.690	0.0151640
654.768	0.0153503
654.846	0.0151731
654.924	0.0151972
655.003	0.0153314
655.081	0.0151826
655.159	0.0153476
655.237	0.0152271
655.315	0.0152872
655.393	0.0153482
655.471	0.0155151
655.549	0.0153827
655.628	0.0153810
655.706	0.0153572
655.784	0.0154333
655.862	0.0154485
655.940	0.0156046
656.018	0.0155061
656.096	0.0153873
656.174	0.0153785
656.253	0.0154836
656.331	0.0154430
656.409	0.0155366
656.487	0.0154400
656.565	0.0155080
656.643	0.0155727
656.721	0.0156400
656.799	0.0157376
656.878	0.0156698
656.956	0.0156357
657.034	0.0157588
657.112	0.0159403
657.190	0.0159146
657.268	0.0159449
657.346	0.0158912
657.424	0.0159646
657.503	0.0159909
657.581	0.0160235
657.659	0.0160223
657.737	0.0159892
657.815	0.0160181
657.893	0.0160246
657.971	0.0159789
658.049	0.0160891
658.128	0.0160393
658.206	0.0160556
658.284	0.0161565
658.362	0.0161269
658.440	0.0160289
658.518	0.0160453
658.596	0.0161933
658.674	0.0160660
658.753	0.0160382
658.831	0.0159708
658.909	0.0159514
658.987	0.0158496
659.065	0.0159341
659.143	0.0160042
659.221	0.0160877
659.299	0.0158430
659.378	0.0160593
659.456	0.0158128
659.534	0.0160459
659.612	0.0159086
659.690	0.0160904
659.768	0.0159679
659.846	0.0158883
659.924	0.0159383
660.003	0.0159676
660.081	0.0159084
660.159	0.0159018
660.237	0.0158516
660.315	0.0158984
660.393	0.0156242
660.471	0.0156422
660.549	0.0157933
660.628	0.0156802
660.706	0.0157335
660.784	0.0154926
660.862	0.0156305
660.940	0.0156442
661.018	0.0155087
661.096	0.0156309
661.174	0.0156338
661.253	0.0155031
661.331	0.0155662
661.409	0.0155722
661.487	0.0155331
661.565	0.0156515
661.643	0.0156444
661.721	0.0156778
661.799	0.0156757
661.878	0.0159197
661.956	0.0158804
662.034	0.0157602
662.112	0.0158748
662.190	0.0158650
662.268	0.0158319
662.346	0.0159002
662.424	0.0158433
662.503	0.0158619
662.581	0.0158021
662.659	0.0158961
662.737	0.0158836
662.815	0.0158464
662.893	0.0157613
662.971	0.0158624
663.049	0.0157226
663.128	0.0155773
663.206	0.0156506
663.284	0.0157224
663.362	0.0156766
663.440	0.0156350
663.518	0.0155221
663.596	0.0156087
663.674	0.0157171
663.753	0.0156186
663.831	0.0156516
663.909	0.0156198
663.987	0.0157769
664.065	0.0157838
664.143	0.0157121
664.221	0.0156854
664.299	0.0157876
664.378	0.0159123
664.456	0.0158121
664.534	0.0157337
664.612	0.0159441
664.690	0.0159000
664.768	0.0158804
664.846	0.0158485
664.924	0.0158173
665.003	0.0159657
665.081	0.0160551
665.159	0.0159579
665.237	0.0157612
665.315	0.0158253
665.393	0.0160552
665.471	0.0159933
665.549	0.0158980
665.628	0.0160897
665.706	0.0159427
665.784	0.0159005
665.862	0.0160044
665.940	0.0160017
666.018	0.0160181
666.096	0.0161501
666.174	0.0160057
666.253	0.0160837
666.331	0.0162223
666.409	0.0161209
666.487	0.0162237
666.565	0.0162215
666.643	0.0161478
666.721	0.0162301
666.799	0.0162436
666.878	0.0160483
666.956	0.0161099
667.034	0.0162128
667.112	0.0161323
667.190	0.0161074
667.268	0.0160088
667.346	0.0162058
667.424	0.0162473
667.503	0.0161431
667.581	0.0163069
667.659	0.0162077
667.737	0.0162112
667.815	0.0162281
667.893	0.0162256
667.971	0.0161729
668.049	0.0164017
668.128	0.0163802
668.206	0.0162061
668.284	0.0162818
668.362	0.0161090
668.440	0.0161677
668.518	0.0161041
668.596	0.0161668
668.674	0.0160007
668.753	0.0159344
668.831	0.0161110
668.909	0.0160819
668.987	0.0161982
669.065	0.0161295
669.143	0.0162043
669.221	0.0161630
669.299	0.0160966
669.378	0.0161928
669.456	0.0161595
669.534	0.0161881
669.612	0.0161955
669.690	0.0163760
669.768	0.0161304
669.846	0.0161194
669.924	0.0160950
670.003	0.0160833
670.081	0.0160484
670.159	0.0161121
670.237	0.0160851
670.315	0.0162435
670.393	0.0161366
670.471	0.0160991
670.549	0.0160148
670.628	0.0159829
670.706	0.0160598
670.784	0.0158047
670.862	0.0159868
670.940	0.0159624
671.018	0.0159468
671.096	0.0159518
671.174	0.0158751
671.253	0.0157430
671.331	0.0158910
671.409	0.0159362
671.487	0.0159048
671.565	0.0158484
671.643	0.0157961
671.721	0.0157542
671.799	0.0159498
671.878	0.0159908
671.956	0.0158775
672.034	0.0158842
672.112	0.0158949
672.190	0.0157957
672.268	0.0157477
672.346	0.0157800
672.424	0.0156634
672.503	0.0156386
672.581	0.0157741
672.659	0.0155234
672.737	0.0155901
672.815	0.0155103
672.893	0.0154625
672.971	0.0156061
673.049	0.0155280
673.128	0.0154362
673.206	0.0154449
673.284	0.0154430
673.362	0.0155191
673.440	0.0154789
673.518	0.0152558
673.596	0.0154224
673.674	0.0153471
673.753	0.0152208
673.831	0.0153406
673.909	0.0156004
673.987	0.0153873
674.065	0.0154359
674.143	0.0154091
674.221	0.0155161
674.299	0.0154479
674.378	0.0153683
674.456	0.0154232
674.534	0.0154459
674.612	0.0156796
674.690	0.0156752
674.768	0.0156871
674.846	0.0157240
674.924	0.0156641
675.003	0.0157813
675.081	0.0156490
675.159	0.0157343
675.237	0.0156769
675.315	0.0158311
675.393	0.0159033
675.471	0.0155600
675.549	0.0156419
675.628	0.0155625
675.706	0.0156992
675.784	0.0154858
675.862	0.0153886
675.940	0.0152722
676.018	0.0152364
676.096	0.0151223
676.174	0.0151987
676.253	0.0150151
676.331	0.0150056
676.409	0.0151788
676.487	0.0150901
676.565	0.0149110
676.643	0.0149467
676.721	0.0151308
676.799	0.0153014
676.878	0.0152605
676.956	0.0151840
677.034	0.0152796
677.112	0.0154103
677.190	0.0153291
677.268	0.0154164
677.346	0.0154354
677.424	0.0154803
677.503	0.0155823
677.581	0.0155128
677.659	0.0155653
677.737	0.0156927
677.815	0.0155952
677.893	0.0156862
677.971	0.0158266
678.049	0.0159514
678.128	0.0159582
678.206	0.0159436
678.284	0.0160712
678.362	0.0162094
678.440	0.0162791
678.518	0.0162522
678.596	0.0165339
678.674	0.0165517
678.753	0.0166901
678.831	0.0166090
678.909	0.0167204
678.987	0.0168635
679.065	0.0168274
679.143	0.0167594
679.221	0.0167842
679.299	0.0167933
679.378	0.0167417
679.456	0.0166453
679.534	0.0166536
679.612	0.0166752
679.690	0.0169771
679.768	0.0166527
679.846	0.0165273
679.924	0.0167087
680.003	0.0166237
680.081	0.0164624
680.159	0.0164027
680.237	0.0163532
680.315	0.0164867
680.393	0.0163722
680.471	0.0162386
680.549	0.0161766
680.628	0.0160382
680.706	0.0161375
680.784	0.0159757
680.862	0.0159629
680.940	0.0159657
681.018	0.0159825
681.096	0.0158672
681.174	0.0158776
681.253	0.0158941
681.331	0.0159425
681.409	0.0158273
681.487	0.0159040
681.565	0.0159237
681.643	0.0158396
681.721	0.0160130
681.799	0.0159679
681.878	0.0160608
681.956	0.0159585
682.034	0.0160587
682.112	0.0161244
682.190	0.0161814
682.268	0.0159930
682.346	0.0164084
682.424	0.0161684
682.503	0.0160521
682.581	0.0162005
682.659	0.0161944
682.737	0.0163699
682.815	0.0162907
682.893	0.0161794
682.971	0.0162050
683.049	0.0161842
683.128	0.0162114
683.206	0.0161512
683.284	0.0161967
683.362	0.0160915
683.440	0.0160570
683.518	0.0159547
683.596	0.0159837
683.674	0.0159345
683.753	0.0159803
683.831	0.0158990
683.909	0.0160351
683.987	0.0157910
684.065	0.0156761
684.143	0.0157198
684.221	0.0156690
684.299	0.0155295
684.378	0.0155349
684.456	0.0156255
684.534	0.0154598
684.612	0.0154492
684.690	0.0153535
684.768	0.0153403
684.846	0.0153740
684.924	0.0153045
685.003	0.0151806
685.081	0.0151413
685.159	0.0151146
685.237	0.0151984
685.315	0.0151823
685.393	0.0151205
685.471	0.0150896
685.549	0.0151544
685.628	0.0151304
685.706	0.0152072
685.784	0.0151561
685.862	0.0151640
685.940	0.0152632
686.018	0.0152325
686.096	0.0152132
686.174	0.0152055
686.253	0.0152847
686.331	0.0153493
686.409	0.0154092
686.487	0.0153161
686.565	0.0154774
686.643	0.0153423
686.721	0.0154995
686.799	0.0155014
686.878	0.0155239
686.956	0.0155734
687.034	0.0154598
687.112	0.0156831
687.190	0.0157034
687.268	0.0157478
687.346	0.0156860
687.424	0.0156217
687.503	0.0157150
687.581	0.0158543
687.659	0.0156005
687.737	0.0157561
687.815	0.0158047
687.893	0.0156236
687.971	0.0157894
688.049	0.0157337
688.128	0.0157131
688.206	0.0158402
688.284	0.0158627
688.362	0.0157209
688.440	0.0158417
688.518	0.0158659
688.596	0.0159661
688.674	0.0160055
688.753	0.0158231
688.831	0.0159618
688.909	0.0161840
688.987	0.0160006
689.065	0.0161304
689.143	0.0161024
689.221	0.0162080
689.299	0.0163342
689.378	0.0162975
689.456	0.0162140
689.534	0.0163658
689.612	0.0163203
689.690	0.0163825
689.768	0.0164953
689.846	0.0165708
689.924	0.0165998
690.003	0.0165096
690.081	0.0165561
690.159	0.0166145
690.237	0.0164919
690.315	0.0166249
690.393	0.0166894
690.471	0.0166034
690.549	0.0165563
690.628	0.0165296
690.706	0.0164339
690.784	0.0164574
690.862	0.0163940
690.940	0.0164777
691.018	0.0164634
691.096	0.0163840
691.174	0.0163583
691.253	0.0161409
691.331	0.0161746
691.409	0.0162115
691.487	0.0160437
691.565	0.0158986
691.643	0.0159801
691.721	0.0158723
691.799	0.0158028
691.878	0.0157345
691.956	0.0157822
692.034	0.0157188
692.112	0.0154864
692.190	0.0154808
692.268	0.0153808
692.346	0.0153703
692.424	0.0154158
692.503	0.0153293
692.581	0.0152976
692.659	0.0153213
692.737	0.0152518
692.815	0.0153312
692.893	0.0152145
692.971	0.0153736
693.049	0.0153342
693.128	0.0152943
693.206	0.0152092
693.284	0.0153761
693.362	0.0153100
693.440	0.0153993
693.518	0.0155259
693.596	0.0154536
693.674	0.0155224
693.753	0.0155331
693.831	0.0155523
693.909	0.0156548
693.987	0.0155724
694.065	0.0157720
694.143	0.0158257
694.221	0.0158415
694.299	0.0158916
694.378	0.0157851
694.456	0.0157972
694.534	0.0158207
694.612	0.0160087
694.690	0.0159842
694.768	0.0159761
694.846	0.0159431
694.924	0.0159940
695.003	0.0160814
695.081	0.0160686
695.159	0.0162851
695.237	0.0161039
695.315	0.0161094
695.393	0.0162750
695.471	0.0161480
695.549	0.0161444
695.628	0.0160539
695.706	0.0159435
695.784	0.0159937
695.862	0.0159638
695.940	0.0160902
696.018	0.0159518
696.096	0.0159160
696.174	0.0157896
696.253	0.0159867
696.331	0.0159005
696.409	0.0158447
696.487	0.0158125
696.565	0.0157739
696.643	0.0159285
696.721	0.0158736
696.799	0.0157741
696.878	0.0158613
696.956	0.0158366
697.034	0.0157359
697.112	0.0158041
697.190	0.0157607
697.268	0.0156448
697.346	0.0156030
697.424	0.0157111
697.503	0.0154562
697.581	0.0154177
697.659	0.0154163
697.737	0.0153853
697.815	0.0153859
697.893	0.0153433
697.971	0.0155889
698.049	0.0156575
698.128	0.0155979
698.206	0.0154686
698.284	0.0156355
698.362	0.0156284
698.440	0.0156290
698.518	0.0157254
698.596	0.0155048
698.674	0.0154736
698.753	0.0155409
698.831	0.0152996
698.909	0.0153302
698.987	0.0152207
699.065	0.0150130
699.143	0.0149843
699.221	0.0150294
699.299	0.0149993
699.378	0.0148353
699.456	0.0149351
699.534	0.0148976
699.612	0.0151552
699.690	0.0151110
699.768	0.0151903
699.846	0.0150336
699.924	0.0151029
700.003	0.0150682
700.081	0.0152801
700.159	0.0154103
700.237	0.0154042
700.315	0.0152584
700.393	0.0154610
700.471	0.0155875
700.549	0.0154434
700.628	0.0154955
700.706	0.0155990
700.784	0.0156428
700.862	0.0155807
700.940	0.0155940
701.018	0.0155830
701.096	0.0157780
701.174	0.0157562
701.253	0.0158055
701.331	0.0155686
701.409	0.0156851
701.487	0.0157842
701.565	0.0157301
701.643	0.0155775
701.721	0.0158987
701.799	0.0158293
701.878	0.0159406
701.956	0.0158691
702.034	0.0157462
702.112	0.0157449
702.190	0.0159976
702.268	0.0159893
702.346	0.0160307
702.424	0.0158948
702.503	0.0157990
702.581	0.0158511
702.659	0.0159396
702.737	0.0160466
702.815	0.0159348
702.893	0.0159827
702.971	0.0159316
703.049	0.0158685
703.128	0.0160155
703.206	0.0160432
703.284	0.0159653
703.362	0.0159200
703.440	0.0160162
703.518	0.0158841
703.596	0.0159109
703.674	0.0161030
703.753	0.0160272
703.831	0.0160695
703.909	0.0160686
703.987	0.0162271
704.065	0.0162646
704.143	0.0163257
704.221	0.0163575
704.299	0.0163281
704.378	0.0163441
704.456	0.0164015
704.534	0.0165607
704.612	0.0166006
704.690	0.0165257
704.768	0.0165034
704.846	0.0165572
704.924	0.0167418
705.003	0.0166266
705.081	0.0165556
705.159	0.0165811
705.237	0.0166428
705.315	0.0164306
705.393	0.0165810
705.471	0.0166079
705.549	0.0164211
705.628	0.0163786
705.706	0.0163557
705.784	0.0163601
705.862	0.0164338
705.940	0.0162989
706.018	0.0162846
706.096	0.0163723
706.174	0.0163028
706.253	0.0163377
706.331	0.0163426
706.409	0.0162943
706.487	0.0163802
706.565	0.0162835
706.643	0.0162695
706.721	0.0163828
706.799	0.0162706
706.878	0.0161993
706.956	0.0163092
707.034	0.0163848
707.112	0.0162723
707.190	0.0163081
707.268	0.0162016
707.346	0.0163386
707.424	0.0162951
707.503	0.0161914
707.581	0.0161369
707.659	0.0161681
707.737	0.0162160
707.815	0.0161727
707.893	0.0160716
707.971	0.0160381
708.049	0.0159733
708.128	0.0158933
708.206	0.0158804
708.284	0.0159286
708.362	0.0158707
708.440	0.0158015
708.518	0.0158076
708.596	0.0157137
708.674	0.0156271
708.753	0.0156187
708.831	0.0156214
708.909	0.0154671
708.987	0.0154877
709.065	0.0155053
709.143	0.0153794
709.221	0.0152686
709.299	0.0152237
709.378	0.0151277
709.456	0.0150955
709.534	0.0150280
709.612	0.0150691
709.690	0.0149338
709.768	0.0150343
709.846	0.0147851
709.924	0.0146478
710.003	0.0148817
710.081	0.0149032
710.159	0.0147839
710.237	0.0145523
710.315	0.0147199
710.393	0.0147829
710.471	0.0148417
710.549	0.0148290
710.628	0.0148396
710.706	0.0148692
710.784	0.0149519
710.862	0.0150407
710.940	0.0149030
711.018	0.0150768
711.096	0.0152158
711.174	0.0151988
711.253	0.0151365
711.331	0.0153625
711.409	0.0152345
711.487	0.0153893
711.565	0.0154416
711.643	0.0155051
711.721	0.0155634
711.799	0.0154423
711.878	0.0155404
711.956	0.0155046
712.034	0.0156483
712.112	0.0157020
712.190	0.0157269
712.268	0.0157848
712.346	0.0157919
712.424	0.0157590
712.503	0.0157710
712.581	0.0159711
712.659	0.0157018
712.737	0.0157371
712.815	0.0159628
712.893	0.0158407
712.971	0.0159108
713.049	0.0158936
713.128	0.0158451
713.206	0.0159731
713.284	0.0158310
713.362	0.0158681
713.440	0.0158366
713.518	0.0159653
713.596	0.0160599
713.674	0.0158498
713.753	0.0159198
713.831	0.0160527
713.909	0.0160533
713.987	0.0161102
714.065	0.0159816
714.143	0.0159672
714.221	0.0159923
714.299	0.0160757
714.378	0.0159357
714.456	0.0160286
714.534	0.0159836
714.612	0.0158475
714.690	0.0159969
714.768	0.0159808
714.846	0.0160023
714.924	0.0159917
715.003	0.0159483
715.081	0.0159940
715.159	0.0160878
715.237	0.0160252
715.315	0.0159672
715.393	0.0160562
715.471	0.0160323
715.549	0.0158811
715.628	0.0161264
715.706	0.0160646
715.784	0.0160297
715.862	0.0160796
715.940	0.0158812
716.018	0.0159541
716.096	0.0159953
716.174	0.0158151
716.253	0.0157632
716.331	0.0157301
716.409	0.0156844
716.487	0.0157335
716.565	0.0157748
716.643	0.0156689
716.721	0.0156289
716.799	0.0156226
716.878	0.0155910
716.956	0.0156828
717.034	0.0157819
717.112	0.0155994
717.190	0.0156435
717.268	0.0156413
717.346	0.0156081
717.424	0.0157220
717.503	0.0156728
717.581	0.0157281
717.659	0.0155384
717.737	0.0156653
717.815	0.0157127
717.893	0.0158609
717.971	0.0158392
718.049	0.0158439
718.128	0.0157976
718.206	0.0158633
718.284	0.0159118
718.362	0.0157511
718.440	0.0157357
718.518	0.0158080
718.596	0.0156660
718.674	0.0159089
718.753	0.0158955
718.831	0.0157637
718.909	0.0157694
718.987	0.0157903
719.065	0.0157364
719.143	0.0156123
719.221	0.0157311
719.299	0.0156472
719.378	0.0156995
719.456	0.0156483
719.534	0.0156539
719.612	0.0157270
719.690	0.0156221
719.768	0.0156699
719.846	0.0155523
719.924	0.0156572
720.003	0.0156107
720.081	0.0154951
720.159	0.0156463
720.237	0.0154946
720.315	0.0155474
720.393	0.0154698
720.471	0.0154476
720.549	0.0153383
720.628	0.0154762
720.706	0.0154185
720.784	0.0155574
720.862	0.0153332
720.940	0.0155219
721.018	0.0155859
721.096	0.0155754
721.174	0.0157571
721.253	0.0157171
721.331	0.0158191
721.409	0.0159569
721.487	0.0159386
721.565	0.0159392
721.643	0.0158775
721.721	0.0159416
721.799	0.0159814
721.878	0.0160434
721.956	0.0160006
722.034	0.0160017
722.112	0.0160215
722.190	0.0159824
722.268	0.0159695
722.346	0.0159224
722.424	0.0159978
722.503	0.0158820
722.581	0.0159783
722.659	0.0158981
722.737	0.0157349
722.815	0.0157087
722.893	0.0155981
722.971	0.0155162
723.049	0.0154426
723.128	0.0154684
723.206	0.0153964
723.284	0.0152693
723.362	0.0152300
723.440	0.0153735
723.518	0.0151737
723.596	0.0152337
723.674	0.0152678
723.753	0.0151516
723.831	0.0153329
723.909	0.0153625
723.987	0.0152657
724.065	0.0153930
724.143	0.0152155
724.221	0.0152248
724.299	0.0155334
724.378	0.0156069
724.456	0.0155402
724.534	0.0156204
724.612	0.0157461
724.690	0.0158295
724.768	0.0158067
724.846	0.0156377
724.924	0.0160050
725.003	0.0158203
725.081	0.0158645
725.159	0.0158192
725.237	0.0159343
725.315	0.0158705
725.393	0.0158479
725.471	0.0157391
725.549	0.0156978
725.628	0.0158257
725.706	0.0158297
725.784	0.0159031
725.862	0.0157743
725.940	0.0157932
726.018	0.0158946
726.096	0.0157981
726.174	0.0157620
726.253	0.0158691
726.331	0.0159869
726.409	0.0159503
726.487	0.0159809
726.565	0.0157792
726.643	0.0158120
726.721	0.0157989
726.799	0.0158741
726.878	0.0158721
726.956	0.0158117
727.034	0.0156121
727.112	0.0156785
727.190	0.0157114
727.268	0.0156464
727.346	0.0156874
727.424	0.0156230
727.503	0.0154597
727.581	0.0155999
727.659	0.0156029
727.737	0.0155285
727.815	0.0155134
727.893	0.0156275
727.971	0.0154671
728.049	0.0153551
728.128	0.0153860
728.206	0.0155665
728.284	0.0155339
728.362	0.0155296
728.440	0.0155621
728.518	0.0156769
728.596	0.0156830
728.674	0.0158412
728.753	0.0159591
728.831	0.0160121
728.909	0.0159474
728.987	0.0159670
729.065	0.0161479
729.143	0.0161933
729.221	0.0162442
729.299	0.0162109
729.378	0.0162807
729.456	0.0165328
729.534	0.0163897
729.612	0.0163084
729.690	0.0163913
729.768	0.0163335
729.846	0.0166095
729.924	0.0165173
730.003	0.0164948
730.081	0.0165575
730.159	0.0165240
730.237	0.0165919
730.315	0.0165932
730.393	0.0165909
730.471	0.0165942
730.549	0.0165446
730.628	0.0165965
730.706	0.0164760
730.784	0.0165467
730.862	0.0164272
730.940	0.0163311
731.018	0.0163431
731.096	0.0161278
731.174	0.0161079
731.253	0.0159649
731.331	0.0160713
731.409	0.0157533
731.487	0.0156342
731.565	0.0156561
731.643	0.0156421
731.721	0.0156079
731.799	0.0154612
731.878	0.0155537
731.956	0.0154301
732.034	0.0152865
732.112	0.0153045
732.190	0.0154018
732.268	0.0154314
732.346	0.0153713
732.424	0.0153685
732.503	0.0154431
732.581	0.0155295
732.659	0.0155750
732.737	0.0154948
732.815	0.0155457
732.893	0.0153511
732.971	0.0156046
733.049	0.0156010
733.128	0.0156548
733.206	0.0156045
733.284	0.0158592
733.362	0.0157658
733.440	0.0157785
733.518	0.0157178
733.596	0.0158829
733.674	0.0157130
733.753	0.0158125
733.831	0.0157386
733.909	0.0158530
733.987	0.0157967
734.065	0.0159354
734.143	0.0158599
734.221	0.0157360
734.299	0.0157190
734.378	0.0155874
734.456	0.0156660
734.534	0.0155521
734.612	0.0155089
734.690	0.0155498
734.768	0.0152457
734.846	0.0154464
734.924	0.0153255
735.003	0.0151305
735.081	0.0152482
735.159	0.0151080
735.237	0.0149650
735.315	0.0150916
735.393	0.0151214
735.471	0.0151762
735.549	0.0152071
735.628	0.0151945
735.706	0.0154946
735.784	0.0154736
735.862	0.0154995
735.940	0.0156162
736.018	0.0157468
736.096	0.0156117
736.174	0.0158262
736.253	0.0158058
736.331	0.0159363
736.409	0.0159203
736.487	0.0160194
736.565	0.0161116
736.643	0.0162756
736.721	0.0160400
736.799	0.0161816
736.878	0.0162581
736.956	0.0161184
737.034	0.0162788
737.112	0.0162308
737.190	0.0161672
737.268	0.0163251
737.346	0.0161518
737.424	0.0162012
737.503	0.0161820
737.581	0.0160178
737.659	0.0161420
737.737	0.0161749
737.815	0.0160542
737.893	0.0161449
737.971	0.0160679
738.049	0.0158778
738.128	0.0159897
738.206	0.0159513
738.284	0.0157682
738.362	0.0155996
738.440	0.0155833
738.518	0.0156847
738.596	0.0156283
738.674	0.0155086
738.753	0.0155438
738.831	0.0155424
738.909	0.0154643
738.987	0.0155151
739.065	0.0154329
739.143	0.0155072
739.221	0.0155544
739.299	0.0154710
739.378	0.0154241
739.456	0.0154155
739.534	0.0155462
739.612	0.0153389
739.690	0.0154675
739.768	0.0154408
739.846	0.0156347
739.924	0.0158349
740.003	0.0156644
740.081	0.0156461
740.159	0.0156809
740.237	0.0157005
740.315	0.0157252
740.393	0.0157833
740.471	0.0158748
740.549	0.0160204
740.628	0.0158494
740.706	0.0160650
740.784	0.0160694
740.862	0.0161032
740.940	0.0160948
741.018	0.0161781
741.096	0.0161460
741.174	0.0160297
741.253	0.0159850
741.331	0.0159326
741.409	0.0160020
741.487	0.0161040
741.565	0.0160537
741.643	0.0159803
741.721	0.0160278
741.799	0.0158890
741.878	0.0158619
741.956	0.0159193
742.034	0.0158892
742.112	0.0159251
742.190	0.0158719
742.268	0.0157487
742.346	0.0156350
742.424	0.0158116
742.503	0.0157324
742.581	0.0156976
742.659	0.0156318
742.737	0.0155528
742.815	0.0156634
742.893	0.0156377
742.971	0.0156895
743.049	0.0156710
743.128	0.0155344
743.206	0.0156321
743.284	0.0156058
743.362	0.0155453
743.440	0.0156586
743.518	0.0157473
743.596	0.0156598
743.674	0.0158246
743.753	0.0158185
743.831	0.0158144
743.909	0.0158140
743.987	0.0159814
744.065	0.0159876
744.143	0.0158696
744.221	0.0159413
744.299	0.0159477
744.378	0.0162001
744.456	0.0159775
744.534	0.0160454
744.612	0.0159529
744.690	0.0161124
744.768	0.0159525
744.846	0.0160132
744.924	0.0159151
745.003	0.0159295
745.081	0.0159239
745.159	0.0158464
745.237	0.0157320
745.315	0.0159413
745.393	0.0157784
745.471	0.0158821
745.549	0.0158930
745.628	0.0158031
745.706	0.0156848
745.784	0.0157699
745.862	0.0160181
745.940	0.0159031
746.018	0.0159779
746.096	0.0159235
746.174	0.0160687
746.253	0.0160139
746.331	0.0160892
746.409	0.0161861
746.487	0.0160563
746.565	0.0161246
746.643	0.0162184
746.721	0.0162688
746.799	0.0164089
746.878	0.0163577
746.956	0.0163062
747.034	0.0162473
747.112	0.0162551
747.190	0.0163100
747.268	0.0163329
747.346	0.0164304
747.424	0.0164072
747.503	0.0162389
747.581	0.0162568
747.659	0.0162150
747.737	0.0162471
747.815	0.0159300
747.893	0.0160064
747.971	0.0158826
748.049	0.0157494
748.128	0.0159290
748.206	0.0159202
748.284	0.0157809
748.362	0.0157320
748.440	0.0156887
748.518	0.0158029
748.596	0.0156480
748.674	0.0156968
748.753	0.0157784
748.831	0.0156979
748.909	0.0156596
748.987	0.0156171
749.065	0.0156327
749.143	0.0157403
749.221	0.0156791
749.299	0.0156696
749.378	0.0157537
749.456	0.0157973
749.534	0.0159383
749.612	0.0158574
749.690	0.0159946
749.768	0.0160873
749.846	0.0160458
749.924	0.0161066
750.003	0.0162361
750.081	0.0162092
750.159	0.0161561
750.237	0.0161200
750.315	0.0162547
750.393	0.0162482
750.471	0.0163555
750.549	0.0163919
750.628	0.0163430
750.706	0.0163503
750.784	0.0164212
750.862	0.0162943
750.940	0.0163534
751.018	0.0163729
751.096	0.0164516
751.174	0.0164088
751.253	0.0163164
751.331	0.0162446
751.409	0.0161749
751.487	0.0161049
751.565	0.0159760
751.643	0.0161389
751.721	0.0157667
751.799	0.0157893
751.878	0.0158737
751.956	0.0159533
752.034	0.0158131
752.112	0.0156277
752.190	0.0157627
752.268	0.0158331
752.346	0.0157996
752.424	0.0157495
752.503	0.0157396
752.581	0.0156870
752.659	0.0157843
752.737	0.0157984
752.815	0.0157507
752.893	0.0161097
752.971	0.0158717
753.049	0.0159850
753.128	0.0160224
753.206	0.0160566
753.284	0.0159251
753.362	0.0159421
753.440	0.0160070
753.518	0.0159135
753.596	0.0158720
753.674	0.0158933
753.753	0.0157842
753.831	0.0158912
753.909	0.0157146
753.987	0.0157184
754.065	0.0158895
754.143	0.0158916
754.221	0.0157719
754.299	0.0158791
754.378	0.0158419
754.456	0.0159056
754.534	0.0159631
754.612	0.0160143
754.690	0.0162100
754.768	0.0160583
754.846	0.0161840
754.924	0.0162638
755.003	0.0162796
755.081	0.0163389
755.159	0.0162113
755.237	0.0164181
755.315	0.0165070
755.393	0.0163462
755.471	0.0164319
755.549	0.0162914
755.628	0.0164270
755.706	0.0165815
755.784	0.0165395
755.862	0.0164893
755.940	0.0164969
756.018	0.0164672
756.096	0.0164534
756.174	0.0164516
756.253	0.0164238
756.331	0.0163165
756.409	0.0161059
756.487	0.0162737
756.565	0.0162258
756.643	0.0162875
756.721	0.0161160
756.799	0.0160600
756.878	0.0160729
756.956	0.0160892
757.034	0.0159983
757.112	0.0160343
757.190	0.0160569
757.268	0.0159525
757.346	0.0159373
757.424	0.0160087
757.503	0.0159659
757.581	0.0159331
757.659	0.0159163
757.737	0.0158212
757.815	0.0156615
757.893	0.0156849
757.971	0.0158035
758.049	0.0157152
758.128	0.0158079
758.206	0.0155591
758.284	0.0155350
758.362	0.0154425
758.440	0.0154589
758.518	0.0154265
758.596	0.0153367
758.674	0.0153576
758.753	0.0152318
758.831	0.0152100
758.909	0.0154317
758.987	0.0152459
759.065	0.0152667
759.143	0.0152047
759.221	0.0151993
759.299	0.0153237
759.378	0.0152968
759.456	0.0152202
759.534	0.0153976
759.612	0.0152567
759.690	0.0155884
759.768	0.0152658
759.846	0.0153034
759.924	0.0154044
760.003	0.0155159
760.081	0.0154670
760.159	0.0154947
760.237	0.0155869
760.315	0.0154566
760.393	0.0156940
760.471	0.0156703
760.549	0.0157543
760.628	0.0157092
760.706	0.0157400
760.784	0.0156107
760.862	0.0157787
760.940	0.0157184
761.018	0.0155452
761.096	0.0155587
761.174	0.0155318
761.253	0.0156199
761.331	0.0155953
761.409	0.0154901
761.487	0.0155241
761.565	0.0156040
761.643	0.0156247
761.721	0.0155361
761.799	0.0156463
761.878	0.0157618
761.956	0.0157518
762.034	0.0158430
762.112	0.0157043
762.190	0.0157623
762.268	0.0158605
762.346	0.0159045
762.424	0.0158388
762.503	0.0157461
762.581	0.0158562
762.659	0.0158572
762.737	0.0157118
762.815	0.0157063
762.893	0.0156887
762.971	0.0156155
763.049	0.0155349
763.128	0.0155649
763.206	0.0156332
763.284	0.0155220
763.362	0.0155759
763.440	0.0156133
763.518	0.0155698
763.596	0.0155145
763.674	0.0155978
763.753	0.0156672
763.831	0.0155980
763.909	0.0156383
763.987	0.0156905
764.065	0.0156460
764.143	0.0156805
764.221	0.0156203
764.299	0.0155547
764.378	0.0155704
764.456	0.0156641
764.534	0.0158031
764.612	0.0157722
764.690	0.0157767
764.768	0.0155959
764.846	0.0158047
764.924	0.0158640
765.003	0.0159825
765.081	0.0160258
765.159	0.0159547
765.237	0.0160503
765.315	0.0160720
765.393	0.0161026
765.471	0.0161156
765.549	0.0161421
765.628	0.0160741
765.706	0.0161508
765.784	0.0159312
765.862	0.0161608
765.940	0.0162538
766.018	0.0162955
766.096	0.0162612
766.174	0.0163094
766.253	0.0165305
766.331	0.0164133
766.409	0.0164836
766.487	0.0164764
766.565	0.0164285
766.643	0.0164801
766.721	0.0164851
766.799	0.0165329
766.878	0.0166031
766.956	0.0163689
767.034	0.0164632
767.112	0.0165107
767.190	0.0164531
767.268	0.0163692
767.346	0.0163897
767.424	0.0165333
767.503	0.0164300
767.581	0.0164745
767.659	0.0165732
767.737	0.0165417
767.815	0.0164574
767.893	0.0164870
767.971	0.0164515
768.049	0.0163299
768.128	0.0165334
768.206	0.0162209
768.284	0.0163811
768.362	0.0162971
768.440	0.0162621
768.518	0.0163919
768.596	0.0163319
768.674	0.0163511
768.753	0.0163105
768.831	0.0162221
768.909	0.0162032
768.987	0.0162150
769.065	0.0160835
769.143	0.0160667
769.221	0.0160459
769.299	0.0159605
769.378	0.0159232
769.456	0.0157584
769.534	0.0157793
769.612	0.0159189
769.690	0.0157981
769.768	0.0157472
769.846	0.0156638
769.924	0.0156850
770.003	0.0154824
770.081	0.0155860
770.159	0.0155665
770.237	0.0154527
770.315	0.0155669
770.393	0.0155581
770.471	0.0155270
770.549	0.0154537
770.628	0.0155172
770.706	0.0155056
770.784	0.0155341
770.862	0.0156203
770.940	0.0155602
771.018	0.0156448
771.096	0.0155904
771.174	0.0155564
771.253	0.0157153
771.331	0.0155328
771.409	0.0157563
771.487	0.0158952
771.565	0.0158501
771.643	0.0159813
771.721	0.0162172
771.799	0.0161307
771.878	0.0160665
771.956	0.0163129
772.034	0.0162971
772.112	0.0164285
772.190	0.0163967
772.268	0.0165553
772.346	0.0163519
772.424	0.0164875
772.503	0.0164935
772.581	0.0163097
772.659	0.0163776
772.737	0.0163775
772.815	0.0163713
772.893	0.0163155
772.971	0.0163756
773.049	0.0164066
773.128	0.0162569
773.206	0.0162789
773.284	0.0161033
773.362	0.0160866
773.440	0.0160475
773.518	0.0158620
773.596	0.0158910
773.674	0.0157382
773.753	0.0156036
773.831	0.0154267
773.909	0.0152793
773.987	0.0152529
774.065	0.0152370
774.143	0.0151823
774.221	0.0150449
774.299	0.0150136
774.378	0.0149598
774.456	0.0148226
774.534	0.0148030
774.612	0.0149936
774.690	0.0149879
774.768	0.0149768
774.846	0.0149733
774.924	0.0151168
775.003	0.0151345
775.081	0.0152928
775.159	0.0153608
775.237	0.0154105
775.315	0.0154417
775.393	0.0154354
775.471	0.0154697
775.549	0.0155737
775.628	0.0156236
775.706	0.0158325
775.784	0.0159070
775.862	0.0159741
775.940	0.0159505
776.018	0.0161591
776.096	0.0160976
776.174	0.0160429
776.253	0.0163465
776.331	0.0163961
776.409	0.0163599
776.487	0.0164070
776.565	0.0164223
776.643	0.0163011
776.721	0.0164039
776.799	0.0163928
776.878	0.0163937
776.956	0.0163360
777.034	0.0163385
777.112	0.0163245
777.190	0.0162326
777.268	0.0162837
777.346	0.0161304
777.424	0.0161503
777.503	0.0160970
777.581	0.0160617
777.659	0.0159789
777.737	0.0160873
777.815	0.0159370
777.893	0.0158982
777.971	0.0159010
778.049	0.0157778
778.128	0.0157817
778.206	0.0158350
778.284	0.0156870
778.362	0.0156638
778.440	0.0157148
778.518	0.0156502
778.596	0.0155773
778.674	0.0157302
778.753	0.0156335
778.831	0.0157922
778.909	0.0156645
778.987	0.0156419
779.065	0.0157070
779.143	0.0157185
779.221	0.0158636
779.299	0.0156268
779.378	0.0157293
779.456	0.0156801
779.534	0.0157514
779.612	0.0157564
779.690	0.0156532
779.768	0.0158079
779.846	0.0156806
779.924	0.0157414
780.003	0.0159040
780.081	0.0159047
780.159	0.0158299
780.237	0.0157685
780.315	0.0159984
780.393	0.0159116
780.471	0.0158713
780.549	0.0160004
780.628	0.0159899
780.706	0.0158982
780.784	0.0158357
780.862	0.0159344
780.940	0.0158868
781.018	0.0158584
781.096	0.0159185
781.174	0.0160325
781.253	0.0157925
781.331	0.0158888
781.409	0.0159032
781.487	0.0159831
781.565	0.0160007
781.643	0.0159077
781.721	0.0159735
781.799	0.0160064
781.878	0.0159643
781.956	0.0159978
782.034	0.0160271
782.112	0.0160812
782.190	0.0159917
782.268	0.0160747
782.346	0.0159441
782.424	0.0159507
782.503	0.0160606
782.581	0.0160870
782.659	0.0160813
782.737	0.0161040
782.815	0.0161858
782.893	0.0162292
782.971	0.0161543
783.049	0.0162962
783.128	0.0163221
783.206	0.0162417
783.284	0.0161214
783.362	0.0160954
783.440	0.0160827
783.518	0.0161497
783.596	0.0160028
783.674	0.0160006
783.753	0.0159962
783.831	0.0157236
783.909	0.0157543
783.987	0.0155898
784.065	0.0155702
784.143	0.0156490
784.221	0.0155470
784.299	0.0154288
784.378	0.0152935
784.456	0.0152795
784.534	0.0153577
784.612	0.0153201
784.690	0.0153538
784.768	0.0152319
784.846	0.0153463
784.924	0.0152621
785.003	0.0152592
785.081	0.0151179
785.159	0.0151766
785.237	0.0153459
785.315	0.0153191
785.393	0.0153291
785.471	0.0154222
785.549	0.0154238
785.628	0.0154642
785.706	0.0156465
785.784	0.0155638
785.862	0.0157458
785.940	0.0156837
786.018	0.0156502
786.096	0.0157765
786.174	0.0158304
786.253	0.0159538
786.331	0.0159343
786.409	0.0158213
786.487	0.0159047
786.565	0.0158791
786.643	0.0158681
786.721	0.0159409
786.799	0.0159653
786.878	0.0159687
786.956	0.0157247
787.034	0.0156924
787.112	0.0157864
787.190	0.0156258
787.268	0.0155604
787.346	0.0155679
787.424	0.0155054
787.503	0.0154235
787.581	0.0155246
787.659	0.0153706
787.737	0.0152282
787.815	0.0154088
787.893	0.0154208
787.971	0.0153294
788.049	0.0153091
788.128	0.0153047
788.206	0.0154308
788.284	0.0155450
788.362	0.0153225
788.440	0.0153819
788.518	0.0154894
788.596	0.0154366
788.674	0.0155083
788.753	0.0156568
788.831	0.0155289
788.909	0.0154964
788.987	0.0155323
789.065	0.0156236
789.143	0.0156860
789.221	0.0156808
789.299	0.0156113
789.378	0.0155869
789.456	0.0156371
789.534	0.0156648
789.612	0.0157852
789.690	0.0157973
789.768	0.0156928
789.846	0.0157522
789.924	0.0156567
790.003	0.0156380
790.081	0.0157181
790.159	0.0157753
790.237	0.0157415
790.315	0.0156292
790.393	0.0155756
790.471	0.0156307
790.549	0.0155815
790.628	0.0155082
790.706	0.0152954
790.784	0.0155066
790.862	0.0155091
790.940	0.0154184
791.018	0.0154023
791.096	0.0155254
791.174	0.0155112
791.253	0.0155808
791.331	0.0156023
791.409	0.0157375
791.487	0.0158300
791.565	0.0158939
791.643	0.0158426
791.721	0.0160046
791.799	0.0160750
791.878	0.0161447
791.956	0.0161977
792.034	0.0163314
792.112	0.0164011
792.190	0.0163873
792.268	0.0163100
792.346	0.0165070
792.424	0.0164117
792.503	0.0165137
792.581	0.0165166
792.659	0.0163642
792.737	0.0164500
792.815	0.0163197
792.893	0.0162839
792.971	0.0163750
793.049	0.0161235
793.128	0.0161693
793.206	0.0162035
793.284	0.0160725
793.362	0.0160509
793.440	0.0162051
793.518	0.0161591
793.596	0.0161417
793.674	0.0162514
793.753	0.0163663
793.831	0.0161732
793.909	0.0162054
793.987	0.0160193
794.065	0.0160115
794.143	0.0159201
794.221	0.0159270
794.299	0.0156508
794.378	0.0156936
794.456	0.0157322
794.534	0.0155069
794.612	0.0152859
794.690	0.0153200
794.768	0.0153395
794.846	0.0153642
794.924	0.0152731
795.003	0.0151818
795.081	0.0153900
795.159	0.0153334
795.237	0.0152995
795.315	0.0153101
795.393	0.0153533
795.471	0.0153844
795.549	0.0154177
795.628	0.0154488
795.706	0.0156757
795.784	0.0156394
795.862	0.0156518
795.940	0.0157883
796.018	0.0157550
796.096	0.0160102
796.174	0.0160376
796.253	0.0160882
796.331	0.0160445
796.409	0.0159456
796.487	0.0161580
796.565	0.0162689
796.643	0.0163201
796.721	0.0162090
796.799	0.0162507
796.878	0.0161742
796.956	0.0161414
797.034	0.0160077
797.112	0.0159361
797.190	0.0160717
797.268	0.0159299
797.346	0.0159653
797.424	0.0160155
797.503	0.0159528
797.581	0.0159841
797.659	0.0160088
797.737	0.0159208
797.815	0.0159953
797.893	0.0158838
797.971	0.0159224
798.049	0.0158939
798.128	0.0159316
798.206	0.0157765
798.284	0.0160001
798.362	0.0157521
798.440	0.0158435
798.518	0.0157375
798.596	0.0158821
798.674	0.0158144
798.753	0.0156598
798.831	0.0155957
798.909	0.0156205
798.987	0.0155207
799.065	0.0155770
799.143	0.0154882
799.221	0.0154203
799.299	0.0154050
799.378	0.0154163
799.456	0.0154982
799.534	0.0152808
799.612	0.0154941
799.690	0.0153680
799.768	0.0153497
799.846	0.0153465
799.924	0.0154171
800.003	0.0154365
800.081	0.0153173
800.159	0.0153244
800.237	0.0154519
800.315	0.0155079
800.393	0.0155891
800.471	0.0155299
800.549	0.0155447
800.628	0.0155952
800.706	0.0155773
800.784	0.0155703
800.862	0.0156044
800.940	0.0157738
801.018	0.0155961
801.096	0.0157052
801.174	0.0155254
801.253	0.0155910
801.331	0.0156404
801.409	0.0155759
801.487	0.0155118
801.565	0.0154272
801.643	0.0154303
801.721	0.0155430
801.799	0.0154895
801.878	0.0155400
801.956	0.0153711
802.034	0.0152242
802.112	0.0153934
802.190	0.0153838
802.268	0.0152188
802.346	0.0151089
802.424	0.0151162
802.503	0.0149993
802.581	0.0150163
802.659	0.0150656
802.737	0.0149154
802.815	0.0150117
802.893	0.0149560
802.971	0.0149436
803.049	0.0149072
803.128	0.0148195
803.206	0.0148555
803.284	0.0148230
803.362	0.0147901
803.440	0.0149467
803.518	0.0150999
803.596	0.0152199
803.674	0.0151133
803.753	0.0152949
803.831	0.0152992
803.909	0.0153424
803.987	0.0153382
804.065	0.0154238
804.143	0.0154240
804.221	0.0155006
804.299	0.0156197
804.378	0.0155266
804.456	0.0155365
804.534	0.0154774
804.612	0.0155387
804.690	0.0154988
804.768	0.0155011
804.846	0.0156407
804.924	0.0157687
805.003	0.0156250
805.081	0.0156255
805.159	0.0155851
805.237	0.0155742
805.315	0.0156970
805.393	0.0157671
805.471	0.0156709
805.549	0.0156608
805.628	0.0157982
805.706	0.0158357
805.784	0.0158665
805.862	0.0159823
805.940	0.0161261
806.018	0.0160842
806.096	0.0160198
806.174	0.0162637
806.253	0.0163138
806.331	0.0164169
806.409	0.0163668
806.487	0.0163975
806.565	0.0163535
806.643	0.0164882
806.721	0.0166651
806.799	0.0167046
806.878	0.0166585
806.956	0.0165399
807.034	0.0165964
807.112	0.0165311
807.190	0.0165602
807.268	0.0163786
807.346	0.0164619
807.424	0.0164160
807.503	0.0164005
807.581	0.0161907
807.659	0.0162997
807.737	0.0162991
807.815	0.0161090
807.893	0.0162249
807.971	0.0160847
808.049	0.0159755
808.128	0.0161295
808.206	0.0160510
808.284	0.0158821
808.362	0.0160460
808.440	0.0159101
808.518	0.0159609
808.596	0.0158475
808.674	0.0157874
808.753	0.0157558
808.831	0.0158597
808.909	0.0158791
808.987	0.0158988
809.065	0.0159823
809.143	0.0157914
809.221	0.0158899
809.299	0.0157642
809.378	0.0158524
809.456	0.0158615
809.534	0.0158278
809.612	0.0158253
809.690	0.0156316
809.768	0.0156026
809.846	0.0155961
809.924	0.0155674
810.003	0.0156237
810.081	0.0156736
810.159	0.0155426
810.237	0.0155172
810.315	0.0156535
810.393	0.0157583
810.471	0.0157920
810.549	0.0157716
810.628	0.0159219
810.706	0.0159235
810.784	0.0157967
810.862	0.0155762
810.940	0.0158066
811.018	0.0157103
811.096	0.0156751
811.174	0.0157677
811.253	0.0156749
811.331	0.0156337
811.409	0.0156743
811.487	0.0158188
811.565	0.0155762
811.643	0.0156008
811.721	0.0158997
811.799	0.0156521
811.878	0.0157343
811.956	0.0158199
812.034	0.0156781
812.112	0.0158263
812.190	0.0159898
812.268	0.0157371
812.346	0.0158926
812.424	0.0158287
812.503	0.0158901
812.581	0.0157729
812.659	0.0159325
812.737	0.0160504
812.815	0.0160912
812.893	0.0159074
812.971	0.0158819
813.049	0.0159483
813.128	0.0160526
813.206	0.0159512
813.284	0.0159574
813.362	0.0160480
813.440	0.0159130
813.518	0.0159651
813.596	0.0160822
813.674	0.0159897
813.753	0.0159424
813.831	0.0160783
813.909	0.0160822
813.987	0.0161051
814.065	0.0161220
814.143	0.0159592
814.221	0.0162454
814.299	0.0160380
814.378	0.0160754
814.456	0.0162717
814.534	0.0162318
814.612	0.0162125
814.690	0.0161953
814.768	0.0162063
814.846	0.0161581
814.924	0.0161079
815.003	0.0161150
815.081	0.0160299
815.159	0.0160038
815.237	0.0159616
815.315	0.0160330
815.393	0.0159602
815.471	0.0159302
815.549	0.0158659
815.628	0.0158930
815.706	0.0159212
815.784	0.0157637
815.862	0.0157322
815.940	0.0157857
816.018	0.0157777
816.096	0.0156026
816.174	0.0157099
816.253	0.0156605
816.331	0.0157143
816.409	0.0157234
816.487	0.0156399
816.565	0.0158192
816.643	0.0157113
816.721	0.0157048
816.799	0.0157645
816.878	0.0155465
816.956	0.0153940
817.034	0.0154752
817.112	0.0156622
817.190	0.0154535
817.268	0.0156089
817.346	0.0154233
817.424	0.0154588
817.503	0.0153454
817.581	0.0153014
817.659	0.0153511
817.737	0.0153078
817.815	0.0153349
817.893	0.0154433
817.971	0.0154219
818.049	0.0154353
818.128	0.0153608
818.206	0.0152824
818.284	0.0153554
818.362	0.0153616
818.440	0.0152402
818.518	0.0152372
818.596	0.0153178
818.674	0.0152052
818.753	0.0153957
818.831	0.0153136
818.909	0.0152685
818.987	0.0154565
819.065	0.0152710
819.143	0.0153233
819.221	0.0155288
819.299	0.0155081
819.378	0.0153968
819.456	0.0155294
819.534	0.0155528
819.612	0.0155383
819.690	0.0157045
819.768	0.0157559
819.846	0.0157115
819.924	0.0159428
820.003	0.0160593
820.081	0.0161189
820.159	0.0161656
820.237	0.0163306
820.315	0.0161694
820.393	0.0163347
820.471	0.0164063
820.549	0.0162759
820.628	0.0162997
820.706	0.0162927
820.784	0.0164177
820.862	0.0163229
820.940	0.0163015
821.018	0.0162562
821.096	0.0163394
821.174	0.0163761
821.253	0.0162076
821.331	0.0162357
821.409	0.0163570
821.487	0.0161400
821.565	0.0161144
821.643	0.0161002
821.721	0.0160346
821.799	0.0158555
821.878	0.0157582
821.956	0.0157565
822.034	0.0157470
822.112	0.0156477
822.190	0.0156835
822.268	0.0155870
822.346	0.0154429
822.424	0.0152998
822.503	0.0154558
822.581	0.0154063
822.659	0.0153629
822.737	0.0154461
822.815	0.0153599
822.893	0.0154337
822.971	0.0154104
823.049	0.0155037
823.128	0.0155260
823.206	0.0155167
823.284	0.0156472
823.362	0.0157226
823.440	0.0154769
823.518	0.0155492
823.596	0.0156975
823.674	0.0155477
823.753	0.0156753
823.831	0.0157247
823.909	0.0158713
823.987	0.0157874
824.065	0.0157013
824.143	0.0156432
824.221	0.0158825
824.299	0.0158353
824.378	0.0158292
824.456	0.0158276
824.534	0.0158708
824.612	0.0158813
824.690	0.0158295
824.768	0.0159588
824.846	0.0158663
824.924	0.0157779
825.003	0.0158726
825.081	0.0158527
825.159	0.0158517
825.237	0.0157815
825.315	0.0157434
825.393	0.0157005
825.471	0.0158092
825.549	0.0158987
825.628	0.0157362
825.706	0.0157884
825.784	0.0156609
825.862	0.0156375
825.940	0.0156178
826.018	0.0157420
826.096	0.0157201
826.174	0.0155888
826.253	0.0155716
826.331	0.0154955
826.409	0.0155641
826.487	0.0155148
826.565	0.0154880
826.643	0.0155472
826.721	0.0154198
826.799	0.0153878
826.878	0.0154085
826.956	0.0153393
827.034	0.0154315
827.112	0.0153029
827.190	0.0153997
827.268	0.0153452
827.346	0.0153284
827.424	0.0153676
827.503	0.0154044
827.581	0.0155354
827.659	0.0155413
827.737	0.0155064
827.815	0.0154869
827.893	0.0155405
827.971	0.0156114
828.049	0.0154471
828.128	0.0155501
828.206	0.0156711
828.284	0.0157686
828.362	0.0156744
828.440	0.0155245
828.518	0.0156818
828.596	0.0157365
828.674	0.0156608
828.753	0.0156830
828.831	0.0157239
828.909	0.0157320
828.987	0.0156329
829.065	0.0156155
829.143	0.0159978
829.221	0.0159248
829.299	0.0158951
829.378	0.0159591
829.456	0.0159949
829.534	0.0159361
829.612	0.0159229
829.690	0.0159398
829.768	0.0159787
829.846	0.0160085
829.924	0.0160207
830.003	0.0160603
830.081	0.0161205
830.159	0.0161375
830.237	0.0160471
830.315	0.0159780
830.393	0.0159380
830.471	0.0160355
830.549	0.0161691
830.628	0.0159599
830.706	0.0159826
830.784	0.0160702
830.862	0.0160850
830.940	0.0160509
831.018	0.0160306
831.096	0.0161424
831.174	0.0160497
831.253	0.0160202
831.331	0.0159583
831.409	0.0159652
831.487	0.0161346
831.565	0.0159222
831.643	0.0159519
831.721	0.0161228
831.799	0.0161382
831.878	0.0160408
831.956	0.0161581
832.034	0.0161108
832.112	0.0162035
832.190	0.0161016
832.268	0.0161130
832.346	0.0161034
832.424	0.0161853
832.503	0.0161620
832.581	0.0161488
832.659	0.0160866
832.737	0.0161134
832.815	0.0159415
832.893	0.0161147
832.971	0.0161150
833.049	0.0161026
833.128	0.0160705
833.206	0.0161088
833.284	0.0162435
833.362	0.0162270
833.440	0.0161782
833.518	0.0161490
833.596	0.0163816
833.674	0.0162859
833.753	0.0162341
833.831	0.0162580
833.909	0.0162218
833.987	0.0162548
834.065	0.0163137
834.143	0.0162283
834.221	0.0161639
834.299	0.0162415
834.378	0.0160919
834.456	0.0161690
834.534	0.0161591
834.612	0.0160849
834.690	0.0161709
834.768	0.0159299
834.846	0.0158686
834.924	0.0160349
835.003	0.0159261
835.081	0.0159141
835.159	0.0159943
835.237	0.0159001
835.315	0.0158094
835.393	0.0157388
835.471	0.0158799
835.549	0.0157542
835.628	0.0158659
835.706	0.0159641
835.784	0.0157824
835.862	0.0156267
835.940	0.0158007
836.018	0.0157480
836.096	0.0156684
836.174	0.0157486
836.253	0.0156246
836.331	0.0154538
836.409	0.0156519
836.487	0.0155656
836.565	0.0155417
836.643	0.0157447
836.721	0.0158366
836.799	0.0158039
836.878	0.0156370
836.956	0.0156347
837.034	0.0156344
837.112	0.0157611
837.190	0.0157217
837.268	0.0156760
837.346	0.0157240
837.424	0.0156729
837.503	0.0157213
837.581	0.0156035
837.659	0.0157308
837.737	0.0157654
837.815	0.0156940
837.893	0.0157647
837.971	0.0157655
838.049	0.0157750
838.128	0.0158181
838.206	0.0159039
838.284	0.0158696
838.362	0.0158724
838.440	0.0157909
838.518	0.0159163
838.596	0.0157492
838.674	0.0158292
838.753	0.0159539
838.831	0.0158559
838.909	0.0157763
838.987	0.0158591
839.065	0.0157733
839.143	0.0157272
839.221	0.0157259
839.299	0.0155796
839.378	0.0157282
839.456	0.0157642
839.534	0.0156559
839.612	0.0156504
839.690	0.0157355
839.768	0.0157347
839.846	0.0157583
839.924	0.0155977
840.003	0.0157915
840.081	0.0156647
840.159	0.0155998
840.237	0.0157415
840.315	0.0156895
840.393	0.0157367
840.471	0.0157151
840.549	0.0156890
840.628	0.0155934
840.706	0.0156780
840.784	0.0157156
840.862	0.0156794
840.940	0.0155453
841.018	0.0156932
841.096	0.0156509
841.174	0.0157143
841.253	0.0157250
841.331	0.0157116
841.409	0.0156653
841.487	0.0157197
841.565	0.0157483
841.643	0.0156663
841.721	0.0156977
841.799	0.0157269
841.878	0.0157423
841.956	0.0156154
842.034	0.0156308
842.112	0.0154373
842.190	0.0155793
842.268	0.0153561
842.346	0.0153990
842.424	0.0153390
842.503	0.0153619
842.581	0.0154595
842.659	0.0153825
842.737	0.0153049
842.815	0.0152724
842.893	0.0152525
842.971	0.0153597
843.049	0.0154314
843.128	0.0155284
843.206	0.0155607
843.284	0.0154106
843.362	0.0155843
843.440	0.0155878
843.518	0.0155857
843.596	0.0156301
843.674	0.0156876
843.753	0.0155945
843.831	0.0156603
843.909	0.0156783
843.987	0.0157752
844.065	0.0156911
844.143	0.0158408
844.221	0.0159935
844.299	0.0157700
844.378	0.0159274
844.456	0.0160424
844.534	0.0160510
844.612	0.0162571
844.690	0.0161935
844.768	0.0161504
844.846	0.0162499
844.924	0.0164157
845.003	0.0162113
845.081	0.0163404
845.159	0.0163595
845.237	0.0161620
845.315	0.0162470
845.393	0.0162855
845.471	0.0164143
845.549	0.0163393
845.628	0.0163158
845.706	0.0162846
845.784	0.0162750
845.862	0.0162736
845.940	0.0163091
846.018	0.0163202
846.096	0.0161786
846.174	0.0162468
846.253	0.0161618
846.331	0.0163464
846.409	0.0160647
846.487	0.0161604
846.565	0.0161689
846.643	0.0160027
846.721	0.0160683
846.799	0.0159789
846.878	0.0159817
846.956	0.0161397
847.034	0.0160088
847.112	0.0159489
847.190	0.0159742
847.268	0.0159399
847.346	0.0158974
847.424	0.0157893
847.503	0.0158660
847.581	0.0158221
847.659	0.0158307
847.737	0.0158469
847.815	0.0159093
847.893	0.0158603
847.971	0.0156638
848.049	0.0158788
848.128	0.0157258
848.206	0.0158563
848.284	0.0159170
848.362	0.0158688
848.440	0.0159608
848.518	0.0159381
848.596	0.0160059
848.674	0.0159541
848.753	0.0159428
848.831	0.0158862
848.909	0.0160542
848.987	0.0160397
849.065	0.0158711
849.143	0.0158543
849.221	0.0158734
849.299	0.0157867
849.378	0.0157750
849.456	0.0158675
849.534	0.0157693
849.612	0.0157081
849.690	0.0157845
849.768	0.0157365
849.846	0.0156854
849.924	0.0156717
850.003	0.0156110
850.081	0.0156326
850.159	0.0157462
850.237	0.0155929
850.315	0.0155683
850.393	0.0155807
850.471	0.0156128
850.549	0.0155456
850.628	0.0155700
850.706	0.0155261
850.784	0.0155816
850.862	0.0157291
850.940	0.0156677
851.018	0.0157709
851.096	0.0157298
851.174	0.0158139
851.253	0.0159287
851.331	0.0157873
851.409	0.0158208
851.487	0.0157285
851.565	0.0158381
851.643	0.0158995
851.721	0.0158295
851.799	0.0157211
851.878	0.0157679
851.956	0.0156796
852.034	0.0156765
852.112	0.0157539
852.190	0.0156029
852.268	0.0156973
852.346	0.0157674
852.424	0.0155811
852.503	0.0156850
852.581	0.0157072
852.659	0.0155953
852.737	0.0157090
852.815	0.0157365
852.893	0.0157034
852.971	0.0156944
853.049	0.0156651
853.128	0.0157522
853.206	0.0157123
853.284	0.0157324
853.362	0.0157728
853.440	0.0156637
853.518	0.0156818
853.596	0.0156237
853.674	0.0156373
853.753	0.0157315
853.831	0.0155635
853.909	0.0156409
853.987	0.0155034
854.065	0.0155756
854.143	0.0156580
854.221	0.0156881
854.299	0.0157482
854.378	0.0156054
854.456	0.0157084
854.534	0.0157024
854.612	0.0155891
854.690	0.0156444
854.768	0.0156337
854.846	0.0155759
854.924	0.0155997
855.003	0.0156535
855.081	0.0159306
855.159	0.0157529
855.237	0.0156653
855.315	0.0157665
855.393	0.0158099
855.471	0.0157571
855.549	0.0156527
855.628	0.0157654
855.706	0.0156751
855.784	0.0157247
855.862	0.0157734
855.940	0.0158201
856.018	0.0157365
856.096	0.0157481
856.174	0.0157221
856.253	0.0156864
856.331	0.0155627
856.409	0.0156002
856.487	0.0156765
856.565	0.0157216
856.643	0.0156923
856.721	0.0155228
856.799	0.0158215
856.878	0.0157824
856.956	0.0157631
857.034	0.0157803
857.112	0.0158504
857.190	0.0159804
857.268	0.0159582
857.346	0.0158733
857.424	0.0160374
857.503	0.0162531
857.581	0.0161526
857.659	0.0160349
857.737	0.0160492
857.815	0.0161101
857.893	0.0161233
857.971	0.0161513
858.049	0.0162748
858.128	0.0163075
858.206	0.0161412
858.284	0.0161136
858.362	0.0162439
858.440	0.0163194
858.518	0.0162891
858.596	0.0163283
858.674	0.0164010
858.753	0.0163275
858.831	0.0163976
858.909	0.0162752
858.987	0.0163203
859.065	0.0163149
859.143	0.0163057
859.221	0.0163732
859.299	0.0163781
859.378	0.0164323
859.456	0.0162302
859.534	0.0161855
859.612	0.0162990
859.690	0.0160937
859.768	0.0161623
859.846	0.0160926
859.924	0.0161739
860.003	0.0161948
860.081	0.0161918
860.159	0.0161007
860.237	0.0160758
860.315	0.0160271
860.393	0.0159875
860.471	0.0158425
860.549	0.0159882
860.628	0.0158213
860.706	0.0157726
860.784	0.0157401
860.862	0.0158013
860.940	0.0159541
861.018	0.0156441
861.096	0.0156529
861.174	0.0157631
861.253	0.0156470
861.331	0.0155464
861.409	0.0155730
861.487	0.0155971
861.565	0.0155258
861.643	0.0155890
861.721	0.0155772
861.799	0.0155232
861.878	0.0155355
861.956	0.0155653
862.034	0.0155116
862.112	0.0157236
862.190	0.0156096
862.268	0.0155738
862.346	0.0156152
862.424	0.0154616
862.503	0.0158157
862.581	0.0156797
862.659	0.0156260
862.737	0.0157633
862.815	0.0157465
862.893	0.0155832
862.971	0.0156832
863.049	0.0159262
863.128	0.0158546
863.206	0.0158161
863.284	0.0159268
863.362	0.0160393
863.440	0.0160675
863.518	0.0160400
863.596	0.0160662
863.674	0.0162814
863.753	0.0161643
863.831	0.0161612
863.909	0.0162170
863.987	0.0162023
864.065	0.0161144
864.143	0.0160900
864.221	0.0160433
864.299	0.0162238
864.378	0.0162179
864.456	0.0161842
864.534	0.0161292
864.612	0.0160951
864.690	0.0162015
864.768	0.0162166
864.846	0.0160937
864.924	0.0162189
865.003	0.0161200
865.081	0.0160048
865.159	0.0160938
865.237	0.0161976
865.315	0.0161079
865.393	0.0159917
865.471	0.0161265
865.549	0.0160493
865.628	0.0159669
865.706	0.0161672
865.784	0.0161407
865.862	0.0160258
865.940	0.0159270
866.018	0.0160417
866.096	0.0158463
866.174	0.0158331
866.253	0.0158540
866.331	0.0157652
866.409	0.0157393
866.487	0.0154916
866.565	0.0155115
866.643	0.0155412
866.721	0.0154486
866.799	0.0153044
866.878	0.0153759
866.956	0.0152589
867.034	0.0153156
867.112	0.0154078
867.190	0.0152573
867.268	0.0152368
867.346	0.0151583
867.424	0.0150535
867.503	0.0152447
867.581	0.0153214
867.659	0.0151476
867.737	0.0151416
867.815	0.0150511
867.893	0.0152545
867.971	0.0152174
868.049	0.0152657
868.128	0.0152188
868.206	0.0153453
868.284	0.0151122
868.362	0.0152277
868.440	0.0154214
868.518	0.0153889
868.596	0.0153670
868.674	0.0153950
868.753	0.0155013
868.831	0.0154665
868.909	0.0156712
868.987	0.0155596
869.065	0.0156546
869.143	0.0156957
869.221	0.0157346
869.299	0.0159047
869.378	0.0157545
869.456	0.0158914
869.534	0.0160036
869.612	0.0158799
869.690	0.0159709
869.768	0.0159901
869.846	0.0159130
869.924	0.0161949
870.003	0.0160066
870.081	0.0159219
870.159	0.0158566
870.237	0.0157818
870.315	0.0159270
870.393	0.0157976
870.471	0.0158331
870.549	0.0159112
870.628	0.0157690
870.706	0.0158203
870.784	0.0157841
870.862	0.0156798
870.940	0.0157356
871.018	0.0158984
871.096	0.0158013
871.174	0.0157255
871.253	0.0158495
871.331	0.0159527
871.409	0.0157570
871.487	0.0158903
871.565	0.0160015
871.643	0.0161310
871.721	0.0160076
871.799	0.0160947
871.878	0.0163190
871.956	0.0163457
872.034	0.0163965
872.112	0.0163400
872.190	0.0164559
872.268	0.0166231
872.346	0.0167478
872.424	0.0168561
872.503	0.0168324
872.581	0.0168066
872.659	0.0168346
872.737	0.0171525
872.815	0.0169956
872.893	0.0170699
872.971	0.0172009
873.049	0.0171697
873.128	0.0172013
873.206	0.0171658
873.284	0.0171148
873.362	0.0172466
873.440	0.0170545
873.518	0.0170554
873.596	0.0169308
873.674	0.0167165
873.753	0.0168548
873.831	0.0168361
873.909	0.0165950
873.987	0.0165988
874.065	0.0164819
874.143	0.0164706
874.221	0.0163685
874.299	0.0161411
874.378	0.0162405
874.456	0.0159820
874.534	0.0158659
874.612	0.0157332
874.690	0.0156130
874.768	0.0156670
874.846	0.0154331
874.924	0.0155084
875.003	0.0155119
875.081	0.0152966
875.159	0.0152790
875.237	0.0151606
875.315	0.0150226
875.393	0.0150258
875.471	0.0150314
875.549	0.0150004
875.628	0.0148765
875.706	0.0149777
875.784	0.0149581
875.862	0.0149422
875.940	0.0149219
876.018	0.0149603
876.096	0.0149375
876.174	0.0148512
876.253	0.0149270
876.331	0.0149751
876.409	0.0148567
876.487	0.0148701
876.565	0.0149310
876.643	0.0149033
876.721	0.0150697
876.799	0.0151443
876.878	0.0150324
876.956	0.0149261
877.034	0.0150837
877.112	0.0152493
877.190	0.0152541
877.268	0.0151196
877.346	0.0151155
877.424	0.0151612
877.503	0.0152052
877.581	0.0153154
877.659	0.0153735
877.737	0.0154048
877.815	0.0154626
877.893	0.0154092
877.971	0.0154703
878.049	0.0156332
878.128	0.0156876
878.206	0.0155901
878.284	0.0156063
878.362	0.0158095
878.440	0.0156254
878.518	0.0157471
878.596	0.0156476
878.674	0.0157256
878.753	0.0156973
878.831	0.0158494
878.909	0.0157938
878.987	0.0158837
879.065	0.0158385
879.143	0.0157855
879.221	0.0158297
879.299	0.0157208
879.378	0.0158288
879.456	0.0158950
879.534	0.0160058
879.612	0.0160806
879.690	0.0159190
879.768	0.0158630
879.846	0.0158955
879.924	0.0160201
880.003	0.0158486
880.081	0.0159067
880.159	0.0158704
880.237	0.0159292
880.315	0.0158379
880.393	0.0159104
880.471	0.0159209
880.549	0.0159628
880.628	0.0159569
880.706	0.0158904
880.784	0.0159305
880.862	0.0160029
880.940	0.0159214
881.018	0.0161468
881.096	0.0160663
881.174	0.0158851
881.253	0.0158900
881.331	0.0161086
881.409	0.0159952
881.487	0.0159949
881.565	0.0159595
881.643	0.0161869
881.721	0.0161176
881.799	0.0159510
881.878	0.0159747
881.956	0.0160574
882.034	0.0161713
882.112	0.0161835
882.190	0.0159826
882.268	0.0161015
882.346	0.0161696
882.424	0.0160397
882.503	0.0161057
882.581	0.0161184
882.659	0.0159054
882.737	0.0159229
882.815	0.0162060
882.893	0.0161110
882.971	0.0160800
883.049	0.0161243
883.128	0.0160404
883.206	0.0159239
883.284	0.0159542
883.362	0.0159756
883.440	0.0160675
883.518	0.0158784
883.596	0.0159880
883.674	0.0159911
883.753	0.0159032
883.831	0.0159879
883.909	0.0159647
883.987	0.0159630
884.065	0.0159483
884.143	0.0159535
884.221	0.0160980
884.299	0.0160651
884.378	0.0160815
884.456	0.0160573
884.534	0.0159872
884.612	0.0160357
884.690	0.0159655
884.768	0.0159949
884.846	0.0162209
884.924	0.0161501
885.003	0.0159419
885.081	0.0161040
885.159	0.0160541
885.237	0.0160869
885.315	0.0160016
885.393	0.0160088
885.471	0.0159109
885.549	0.0161129
885.628	0.0160291
885.706	0.0159018
885.784	0.0157981
885.862	0.0158080
885.940	0.0159277
886.018	0.0156783
886.096	0.0155836
886.174	0.0158176
886.253	0.0157070
886.331	0.0154884
886.409	0.0155715
886.487	0.0156607
886.565	0.0155355
886.643	0.0157114
886.721	0.0156126
886.799	0.0156343
886.878	0.0155755
886.956	0.0156389
887.034	0.0156735
887.112	0.0158585
887.190	0.0157717
887.268	0.0157795
887.346	0.0159619
887.424	0.0159617
887.503	0.0158537
887.581	0.0159824
887.659	0.0157079
887.737	0.0159454
887.815	0.0158913
887.893	0.0159879
887.971	0.0159727
888.049	0.0159844
888.128	0.0158582
888.206	0.0160041
888.284	0.0158531
888.362	0.0160193
888.440	0.0160999
888.518	0.0160549
888.596	0.0160593
888.674	0.0160590
888.753	0.0161591
888.831	0.0161494
888.909	0.0162447
888.987	0.0161875
889.065	0.0163568
889.143	0.0161756
889.221	0.0162036
889.299	0.0162885
889.378	0.0164243
889.456	0.0162890
889.534	0.0162347
889.612	0.0164073
889.690	0.0162654
889.768	0.0162189
889.846	0.0160567
889.924	0.0161374
890.003	0.0160057
890.081	0.0160207
890.159	0.0160179
890.237	0.0160503
890.315	0.0160355
890.393	0.0160173
890.471	0.0158855
890.549	0.0158565
890.628	0.0157780
890.706	0.0159614
890.784	0.0158690
890.862	0.0157315
890.940	0.0158589
891.018	0.0158353
891.096	0.0158093
891.174	0.0157981
891.253	0.0158461
891.331	0.0158073
891.409	0.0158149
891.487	0.0158894
891.565	0.0157332
891.643	0.0159261
891.721	0.0159259
891.799	0.0157664
891.878	0.0157811
891.956	0.0157854
892.034	0.0156770
892.112	0.0155743
892.190	0.0155898
892.268	0.0156382
892.346	0.0157124
892.424	0.0157092
892.503	0.0155743
892.581	0.0156660
892.659	0.0156612
892.737	0.0158974
892.815	0.0158517
892.893	0.0156238
892.971	0.0157478
893.049	0.0157848
893.128	0.0155585
893.206	0.0156902
893.284	0.0156583
893.362	0.0157029
893.440	0.0157285
893.518	0.0155869
893.596	0.0156333
893.674	0.0156944
893.753	0.0156773
893.831	0.0156142
893.909	0.0155592
893.987	0.0157236
894.065	0.0156983
894.143	0.0156806
894.221	0.0156833
894.299	0.0157643
894.378	0.0158376
894.456	0.0156231
894.534	0.0157143
894.612	0.0160230
894.690	0.0158990
894.768	0.0159377
894.846	0.0157455
894.924	0.0158289
895.003	0.0158821
895.081	0.0158985
895.159	0.0158966
895.237	0.0158787
895.315	0.0159048
895.393	0.0159529
895.471	0.0159399
895.549	0.0159364
895.628	0.0159918
895.706	0.0160660
895.784	0.0160088
895.862	0.0156992
895.940	0.0158413
896.018	0.0159037
896.096	0.0158585
896.174	0.0159474
896.253	0.0159528
896.331	0.0158507
896.409	0.0159267
896.487	0.0160406
896.565	0.0160313
896.643	0.0160978
896.721	0.0160239
896.799	0.0160968
896.878	0.0161142
896.956	0.0161250
897.034	0.0160854
897.112	0.0162464
897.190	0.0163318
897.268	0.0162807
897.346	0.0164402
897.424	0.0164043
897.503	0.0164181
897.581	0.0163690
897.659	0.0163367
897.737	0.0164641
897.815	0.0163110
897.893	0.0163333
897.971	0.0163895
898.049	0.0163353
898.128	0.0164393
898.206	0.0163454
898.284	0.0162643
898.362	0.0164581
898.440	0.0161536
898.518	0.0162286
898.596	0.0161997
898.674	0.0159605
898.753	0.0161003
898.831	0.0160573
898.909	0.0158709
898.987	0.0159644
899.065	0.0159064
899.143	0.0159028
899.221	0.0156877
899.299	0.0155416
899.378	0.0156580
899.456	0.0155808
899.534	0.0154718
899.612	0.0152809
899.690	0.0153682
899.768	0.0153306
899.846	0.0151910
899.924	0.0151611
900.003	0.0151778
900.081	0.0151073
900.159	0.0150446
900.237	0.0150921
900.315	0.0150910
900.393	0.0150467
900.471	0.0149805
900.549	0.0149396
900.628	0.0151048
900.706	0.0151847
900.784	0.0150272
900.862	0.0151295
900.940	0.0152298
901.018	0.0151630
901.096	0.0150907
901.174	0.0152572
901.253	0.0152604
901.331	0.0153257
901.409	0.0152670
901.487	0.0151637
901.565	0.0152538
901.643	0.0151892
901.721	0.0153769
901.799	0.0153110
901.878	0.0154640
901.956	0.0153550
902.034	0.0153537
902.112	0.0154324
902.190	0.0154211
902.268	0.0153918
902.346	0.0155688
902.424	0.0156038
902.503	0.0157209
902.581	0.0155302
902.659	0.0156285
902.737	0.0156732
902.815	0.0157005
902.893	0.0157701
902.971	0.0157310
903.049	0.0159530
903.128	0.0158450
903.206	0.0157571
903.284	0.0158512
903.362	0.0157323
903.440	0.0157279
903.518	0.0158121
903.596	0.0159135
903.674	0.0157169
903.753	0.0156639
903.831	0.0157974
903.909	0.0158224
903.987	0.0157610
904.065	0.0159212
904.143	0.0157816
904.221	0.0157616
904.299	0.0157688
904.378	0.0157056
904.456	0.0157149
904.534	0.0157468
904.612	0.0156885
904.690	0.0156901
904.768	0.0158043
904.846	0.0157213
904.924	0.0156921
905.003	0.0157072
905.081	0.0156488
905.159	0.0156691
905.237	0.0158311
905.315	0.0158924
905.393	0.0158689
905.471	0.0158763
905.549	0.0159335
905.628	0.0159563
905.706	0.0159332
905.784	0.0159155
905.862	0.0159753
905.940	0.0160438
906.018	0.0161656
906.096	0.0161850
906.174	0.0162473
906.253	0.0161154
906.331	0.0161532
906.409	0.0162411
906.487	0.0161956
906.565	0.0163644
906.643	0.0162156
906.721	0.0161827
906.799	0.0162679
906.878	0.0161665
906.956	0.0161745
907.034	0.0160414
907.112	0.0160786
907.190	0.0158855
907.268	0.0160928
907.346	0.0160073
907.424	0.0158784
907.503	0.0160609
907.581	0.0159267
907.659	0.0159318
907.737	0.0158671
907.815	0.0158053
907.893	0.0159471
907.971	0.0157818
908.049	0.0159119
908.128	0.0157657
908.206	0.0156637
908.284	0.0157017
908.362	0.0158747
908.440	0.0158733
908.518	0.0157912
908.596	0.0158660
908.674	0.0158488
908.753	0.0158601
908.831	0.0157635
908.909	0.0158194
908.987	0.0157991
909.065	0.0157196
909.143	0.0158314
909.221	0.0157684
909.299	0.0158561
909.378	0.0159302
909.456	0.0157353
909.534	0.0158124
909.612	0.0158787
909.690	0.0156787
909.768	0.0158210
909.846	0.0159228
909.924	0.0157831
910.003	0.0156249
910.081	0.0158885
910.159	0.0157430
910.237	0.0156824
910.315	0.0156564
910.393	0.0155969
910.471	0.0156986
910.549	0.0155640
910.628	0.0156142
910.706	0.0156506
910.784	0.0155621
910.862	0.0156164
910.940	0.0156062
911.018	0.0156493
911.096	0.0156377
911.174	0.0156510
911.253	0.0158518
911.331	0.0157593
911.409	0.0156971
911.487	0.0158006
911.565	0.0158328
911.643	0.0156956
911.721	0.0157143
911.799	0.0159215
911.878	0.0159220
911.956	0.0159463
912.034	0.0158475
912.112	0.0158440
912.190	0.0158549
912.268	0.0159194
912.346	0.0160251
912.424	0.0159523
912.503	0.0159630
912.581	0.0158894
912.659	0.0158340
912.737	0.0159464
912.815	0.0160313
912.893	0.0158802
912.971	0.0159106
913.049	0.0160664
913.128	0.0161369
913.206	0.0160879
913.284	0.0161298
913.362	0.0160943
913.440	0.0161039
913.518	0.0161401
913.596	0.0162218
913.674	0.0161864
913.753	0.0160392
913.831	0.0161225
913.909	0.0162187
913.987	0.0160349
914.065	0.0160524
914.143	0.0160488
914.221	0.0159258
914.299	0.0159174
914.378	0.0160603
914.456	0.0159965
914.534	0.0158887
914.612	0.0158130
914.690	0.0158904
914.768	0.0159116
914.846	0.0158490
914.924	0.0158499
915.003	0.0156830
915.081	0.0158163
915.159	0.0157585
915.237	0.0156734
915.315	0.0154802
915.393	0.0156094
915.471	0.0155762
915.549	0.0154972
915.628	0.0155361
915.706	0.0153902
915.784	0.0154496
915.862	0.0154468
915.940	0.0153399
916.018	0.0153321
916.096	0.0154731
916.174	0.0155207
916.253	0.0154110
916.331	0.0154826
916.409	0.0154682
916.487	0.0154407
916.565	0.0154645
916.643	0.0155599
916.721	0.0156362
916.799	0.0156473
916.878	0.0157207
916.956	0.0157501
917.034	0.0156013
917.112	0.0156278
917.190	0.0157032
917.268	0.0158342
917.346	0.0157896
917.424	0.0158337
917.503	0.0158304
917.581	0.0158994
917.659	0.0159495
917.737	0.0159515
917.815	0.0161668
917.893	0.0159948
917.971	0.0160212
918.049	0.0158506
918.128	0.0160208
918.206	0.0159888
918.284	0.0160856
918.362	0.0158823
918.440	0.0161092
918.518	0.0161612
918.596	0.0161175
918.674	0.0158788
918.753	0.0160423
918.831	0.0160748
918.909	0.0159370
918.987	0.0159597
919.065	0.0158824
919.143	0.0159010
919.221	0.0157133
919.299	0.0158891
919.378	0.0158671
919.456	0.0159247
919.534	0.0157060
919.612	0.0158164
919.690	0.0158324
919.768	0.0158115
919.846	0.0157295
919.924	0.0158057
920.003	0.0157857
920.081	0.0158718
920.159	0.0158020
920.237	0.0157491
920.315	0.0157590
920.393	0.0159198
920.471	0.0159705
920.549	0.0158540
920.628	0.0158966
920.706	0.0158534
920.784	0.0158546
920.862	0.0158904
920.940	0.0158849
921.018	0.0159305
921.096	0.0158907
921.174	0.0158531
921.253	0.0157352
921.331	0.0158397
921.409	0.0157808
921.487	0.0156534
921.565	0.0157554
921.643	0.0157611
921.721	0.0156805
921.799	0.0156478
921.878	0.0155653
921.956	0.0155741
922.034	0.0156744
922.112	0.0156667
922.190	0.0156052
922.268	0.0153965
922.346	0.0155803
922.424	0.0155680
922.503	0.0155083
922.581	0.0154712
922.659	0.0154783
922.737	0.0155830
922.815	0.0156477
922.893	0.0156657
922.971	0.0155299
923.049	0.0154912
923.128	0.0154701
923.206	0.0156615
923.284	0.0155226
923.362	0.0157356
923.440	0.0157424
923.518	0.0157162
923.596	0.0157590
923.674	0.0158265
923.753	0.0156862
923.831	0.0156504
923.909	0.0158162
923.987	0.0157549
924.065	0.0158485
924.143	0.0158269
924.221	0.0158379
924.299	0.0158337
924.378	0.0159489
924.456	0.0158750
924.534	0.0159290
924.612	0.0157871
924.690	0.0159544
924.768	0.0159059
924.846	0.0159492
924.924	0.0160570
925.003	0.0160689
925.081	0.0160287
925.159	0.0160722
925.237	0.0161937
925.315	0.0160678
925.393	0.0160255
925.471	0.0161248
925.549	0.0160168
925.628	0.0160087
925.706	0.0161099
925.784	0.0162390
925.862	0.0161555
925.940	0.0160841
926.018	0.0162357
926.096	0.0161669
926.174	0.0161259
926.253	0.0161394
926.331	0.0162061
926.409	0.0162298
926.487	0.0161392
926.565	0.0160683
926.643	0.0161666
926.721	0.0161436
926.799	0.0160209
926.878	0.0160970
926.956	0.0159988
927.034	0.0159034
927.112	0.0158494
927.190	0.0159013
927.268	0.0159887
927.346	0.0159080
927.424	0.0159870
927.503	0.0158971
927.581	0.0160309
927.659	0.0158744
927.737	0.0158955
927.815	0.0158900
927.893	0.0158005
927.971	0.0159666
928.049	0.0158260
928.128	0.0159200
928.206	0.0158109
928.284	0.0157568
928.362	0.0159264
928.440	0.0159023
928.518	0.0158379
928.596	0.0156304
928.674	0.0157234
928.753	0.0157987
928.831	0.0157948
928.909	0.0157278
928.987	0.0156770
929.065	0.0159131
929.143	0.0157464
929.221	0.0157280
929.299	0.0158414
929.378	0.0158080
929.456	0.0157287
929.534	0.0157909
929.612	0.0158836
929.690	0.0156769
929.768	0.0158745
929.846	0.0158630
929.924	0.0157087
930.003	0.0158856
930.081	0.0159539
930.159	0.0159274
930.237	0.0158082
930.315	0.0157727
930.393	0.0159227
930.471	0.0157693
930.549	0.0159703
930.628	0.0158153
930.706	0.0157501
930.784	0.0158335
930.862	0.0158508
930.940	0.0160271
931.018	0.0157848
931.096	0.0158379
931.174	0.0159188
931.253	0.0158752
931.331	0.0159458
931.409	0.0159022
931.487	0.0158497
931.565	0.0159554
931.643	0.0158929
931.721	0.0158245
931.799	0.0158755
931.878	0.0159467
931.956	0.0158698
932.034	0.0158240
932.112	0.0158602
932.190	0.0159915
932.268	0.0159192
932.346	0.0156617
932.424	0.0157131
932.503	0.0158462
932.581	0.0158774
932.659	0.0157616
932.737	0.0158497
932.815	0.0157158
932.893	0.0157370
932.971	0.0156976
933.049	0.0156408
933.128	0.0156232
933.206	0.0156985
933.284	0.0156220
933.362	0.0157475
933.440	0.0158644
933.518	0.0157259
933.596	0.0157367
933.674	0.0156628
933.753	0.0157621
933.831	0.0159538
933.909	0.0157690
933.987	0.0157300
934.065	0.0156121
934.143	0.0156737
934.221	0.0158479
934.299	0.0157914
934.378	0.0156242
934.456	0.0156222
934.534	0.0158280
934.612	0.0156804
934.690	0.0155541
934.768	0.0157800
934.846	0.0156712
934.924	0.0157871
935.003	0.0156309
935.081	0.0157052
935.159	0.0157253
935.237	0.0156490
935.315	0.0156690
935.393	0.0156769
935.471	0.0156107
935.549	0.0157465
935.628	0.0157467
935.706	0.0156487
935.784	0.0155430
935.862	0.0156095
935.940	0.0156796
936.018	0.0157342
936.096	0.0157082
936.174	0.0157180
936.253	0.0155746
936.331	0.0154324
936.409	0.0156294
936.487	0.0155307
936.565	0.0155230
936.643	0.0155901
936.721	0.0154711
936.799	0.0154116
936.878	0.0155424
936.956	0.0155226
937.034	0.0154659
937.112	0.0155361
937.190	0.0155819
937.268	0.0154622
937.346	0.0154868
937.424	0.0155802
937.503	0.0155556
937.581	0.0156985
937.659	0.0156902
937.737	0.0156231
937.815	0.0157136
937.893	0.0157243
937.971	0.0156468
938.049	0.0157853
938.128	0.0156578
938.206	0.0156732
938.284	0.0157226
938.362	0.0157011
938.440	0.0157360
938.518	0.0158204
938.596	0.0158761
938.674	0.0158198
938.753	0.0158395
938.831	0.0157376
938.909	0.0158061
938.987	0.0158611
939.065	0.0159643
939.143	0.0158941
939.221	0.0159715
939.299	0.0160631
939.378	0.0160151
939.456	0.0159704
939.534	0.0158524
939.612	0.0158505
939.690	0.0159375
939.768	0.0160826
939.846	0.0162050
939.924	0.0161046
940.003	0.0162516
940.081	0.0160303
940.159	0.0161151
940.237	0.0162000
940.315	0.0161845
940.393	0.0161693
940.471	0.0161975
940.549	0.0163105
940.628	0.0162202
940.706	0.0162314
940.784	0.0163875
940.862	0.0162907
940.940	0.0164017
941.018	0.0164151
941.096	0.0163996
941.174	0.0162909
941.253	0.0163689
941.331	0.0163466
941.409	0.0162579
941.487	0.0163039
941.565	0.0161263
941.643	0.0162772
941.721	0.0163365
941.799	0.0163081
941.878	0.0162341
941.956	0.0161499
942.034	0.0163772
942.112	0.0161811
942.190	0.0161526
942.268	0.0160795
942.346	0.0161219
942.424	0.0159208
942.503	0.0160514
942.581	0.0158939
942.659	0.0158423
942.737	0.0157222
942.815	0.0158030
942.893	0.0158089
942.971	0.0157230
943.049	0.0156544
943.128	0.0156434
943.206	0.0156912
943.284	0.0157101
943.362	0.0155405
943.440	0.0156147
943.518	0.0156159
943.596	0.0155545
943.674	0.0155643
943.753	0.0154055
943.831	0.0155178
943.909	0.0154898
943.987	0.0155511
944.065	0.0156105
944.143	0.0155695
944.221	0.0156650
944.299	0.0156880
944.378	0.0156252
944.456	0.0155422
944.534	0.0156191
944.612	0.0157504
944.690	0.0156832
944.768	0.0157965
944.846	0.0158444
944.924	0.0157909
945.003	0.0158054
945.081	0.0158030
945.159	0.0158981
945.237	0.0157820
945.315	0.0159144
945.393	0.0158458
945.471	0.0157428
945.549	0.0157851
945.628	0.0156116
945.706	0.0158498
945.784	0.0157890
945.862	0.0156271
945.940	0.0157790
946.018	0.0157399
946.096	0.0156583
946.174	0.0156448
946.253	0.0156264
946.331	0.0156360
946.409	0.0157230
946.487	0.0158418
946.565	0.0156254
946.643	0.0156717
946.721	0.0157042
946.799	0.0156347
946.878	0.0156153
946.956	0.0156591
947.034	0.0156337
947.112	0.0155779
947.190	0.0155170
947.268	0.0156977
947.346	0.0155853
947.424	0.0156123
947.503	0.0156567
947.581	0.0155575
947.659	0.0155003
947.737	0.0154641
947.815	0.0156346
947.893	0.0156984
947.971	0.0155371
948.049	0.0155180
948.128	0.0155776
948.206	0.0156686
948.284	0.0155534
948.362	0.0156261
948.440	0.0155603
948.518	0.0155870
948.596	0.0156952
948.674	0.0156194
948.753	0.0156857
948.831	0.0157635
948.909	0.0158589
948.987	0.0157175
949.065	0.0157608
949.143	0.0157269
949.221	0.0156877
949.299	0.0158038
949.378	0.0157951
949.456	0.0156753
949.534	0.0155527
949.612	0.0156876
949.690	0.0157664
949.768	0.0157275
949.846	0.0157594
949.924	0.0158572
