06/29/2022	23:25:07	Ver.	4.1	UNKNOWN
Optical Delay	630.002507	Delta X		0.078125	Sweeps	1	Scan Rate	0/0
Coordinates	Axis 1	NaN	Axis 2	NaN	Axis 3	NaN	Axis 4	NaN	Axis 5	NaN	Axis 6	0.000000
TX Power	0.000000	RX Power	0.000000

630.003	0.0169306
630.081	0.0171520
630.159	0.0169431
630.237	0.0167298
630.315	0.0166317
630.393	0.0165968
630.471	0.0164413
630.549	0.0164230
630.628	0.0163485
630.706	0.0161744
630.784	0.0162791
630.862	0.0162420
630.940	0.0161713
631.018	0.0163766
631.096	0.0163380
631.174	0.0164073
631.253	0.0163218
631.331	0.0166381
631.409	0.0164793
631.487	0.0165356
631.565	0.0165800
631.643	0.0166754
631.721	0.0164716
631.799	0.0163747
631.878	0.0162286
631.956	0.0160779
632.034	0.0157429
632.112	0.0157861
632.190	0.0156602
632.268	0.0155444
632.346	0.0155719
632.424	0.0154527
632.503	0.0156030
632.581	0.0156733
632.659	0.0155695
632.737	0.0155939
632.815	0.0155418
632.893	0.0157188
632.971	0.0156996
633.049	0.0157256
633.128	0.0159200
633.206	0.0157187
633.284	0.0157000
633.362	0.0154580
633.440	0.0151939
633.518	0.0149364
633.596	0.0147173
633.674	0.0142136
633.753	0.0137803
633.831	0.0138200
633.909	0.0135625
633.987	0.0136408
634.065	0.0139159
634.143	0.0139992
634.221	0.0142513
634.299	0.0145158
634.378	0.0148569
634.456	0.0148938
634.534	0.0151351
634.612	0.0152798
634.690	0.0153853
634.768	0.0155692
634.846	0.0156627
634.924	0.0156227
635.003	0.0157154
635.081	0.0156780
635.159	0.0157427
635.237	0.0155971
635.315	0.0156967
635.393	0.0156593
635.471	0.0156755
635.549	0.0154935
635.628	0.0154742
635.706	0.0155114
635.784	0.0155242
635.862	0.0154575
635.940	0.0154462
636.018	0.0155836
636.096	0.0155853
636.174	0.0156693
636.253	0.0157636
636.331	0.0158163
636.409	0.0158913
636.487	0.0161259
636.565	0.0163226
636.643	0.0163075
636.721	0.0161685
636.799	0.0163832
636.878	0.0163897
636.956	0.0164751
637.034	0.0163737
637.112	0.0165794
637.190	0.0165547
637.268	0.0164928
637.346	0.0163117
637.424	0.0163346
637.503	0.0162937
637.581	0.0162669
637.659	0.0163291
637.737	0.0162547
637.815	0.0162301
637.893	0.0162338
637.971	0.0162007
638.049	0.0161616
638.128	0.0161507
638.206	0.0162350
638.284	0.0162868
638.362	0.0161896
638.440	0.0164582
638.518	0.0163535
638.596	0.0163036
638.674	0.0165225
638.753	0.0164890
638.831	0.0164893
638.909	0.0166285
638.987	0.0165845
639.065	0.0163794
639.143	0.0165291
639.221	0.0164291
639.299	0.0163243
639.378	0.0163721
639.456	0.0162748
639.534	0.0163091
639.612	0.0163891
639.690	0.0162357
639.768	0.0163980
639.846	0.0165000
639.924	0.0167165
640.003	0.0168045
640.081	0.0167825
640.159	0.0168043
640.237	0.0169259
640.315	0.0169427
640.393	0.0171707
640.471	0.0170414
640.549	0.0171918
640.628	0.0170828
640.706	0.0171277
640.784	0.0171745
640.862	0.0167951
640.940	0.0168048
641.018	0.0168278
641.096	0.0168003
641.174	0.0166734
641.253	0.0166392
641.331	0.0165213
641.409	0.0167072
641.487	0.0168212
641.565	0.0169972
641.643	0.0168179
641.721	0.0167851
641.799	0.0168838
641.878	0.0169836
641.956	0.0168076
642.034	0.0165936
642.112	0.0165493
642.190	0.0162056
642.268	0.0161645
642.346	0.0158675
642.424	0.0157575
642.503	0.0158980
642.581	0.0158342
642.659	0.0158978
642.737	0.0158493
642.815	0.0157573
642.893	0.0160716
642.971	0.0159036
643.049	0.0159216
643.128	0.0159301
643.206	0.0158143
643.284	0.0158537
643.362	0.0157270
643.440	0.0156293
643.518	0.0155694
643.596	0.0154957
643.674	0.0155173
643.753	0.0155681
643.831	0.0156202
643.909	0.0155606
643.987	0.0155780
644.065	0.0156769
644.143	0.0155370
644.221	0.0156793
644.299	0.0155715
644.378	0.0154542
644.456	0.0153359
644.534	0.0150598
644.612	0.0151244
644.690	0.0151949
644.768	0.0151975
644.846	0.0152345
644.924	0.0151988
645.003	0.0152598
645.081	0.0153155
645.159	0.0153140
645.237	0.0154385
645.315	0.0153843
645.393	0.0154137
645.471	0.0156258
645.549	0.0159328
645.628	0.0158759
645.706	0.0161432
645.784	0.0162038
645.862	0.0160972
645.940	0.0161038
646.018	0.0161178
646.096	0.0161182
646.174	0.0161134
646.253	0.0160477
646.331	0.0160437
646.409	0.0161267
646.487	0.0160471
646.565	0.0161206
646.643	0.0162083
646.721	0.0162920
646.799	0.0163986
646.878	0.0165685
646.956	0.0165897
647.034	0.0166030
647.112	0.0165138
647.190	0.0167034
647.268	0.0166746
647.346	0.0167018
647.424	0.0168870
647.503	0.0168532
647.581	0.0167169
647.659	0.0166409
647.737	0.0166937
647.815	0.0166523
647.893	0.0164587
647.971	0.0163531
648.049	0.0165041
648.128	0.0163229
648.206	0.0161369
648.284	0.0163013
648.362	0.0161217
648.440	0.0159288
648.518	0.0159743
648.596	0.0161244
648.674	0.0158247
648.753	0.0159090
648.831	0.0158657
648.909	0.0157394
648.987	0.0157644
649.065	0.0158215
649.143	0.0156679
649.221	0.0157949
649.299	0.0156843
649.378	0.0157133
649.456	0.0156891
649.534	0.0157185
649.612	0.0157182
649.690	0.0157317
649.768	0.0157334
649.846	0.0155432
649.924	0.0155209
650.003	0.0156226
650.081	0.0156263
650.159	0.0154177
650.237	0.0151976
650.315	0.0150255
650.393	0.0148822
650.471	0.0148177
650.549	0.0147289
650.628	0.0148646
650.706	0.0148476
650.784	0.0149187
650.862	0.0151004
650.940	0.0152758
651.018	0.0154391
651.096	0.0154478
651.174	0.0155671
651.253	0.0154897
651.331	0.0156485
651.409	0.0154328
651.487	0.0155042
651.565	0.0156599
651.643	0.0155679
651.721	0.0155781
651.799	0.0154517
651.878	0.0154362
651.956	0.0153157
652.034	0.0152381
652.112	0.0152776
652.190	0.0152043
652.268	0.0152776
652.346	0.0153869
652.424	0.0154656
652.503	0.0153310
652.581	0.0154584
652.659	0.0156364
652.737	0.0155965
652.815	0.0156844
652.893	0.0158616
652.971	0.0158603
653.049	0.0158659
653.128	0.0159663
653.206	0.0159111
653.284	0.0159511
653.362	0.0159764
653.440	0.0159072
653.518	0.0158100
653.596	0.0158636
653.674	0.0158645
653.753	0.0157734
653.831	0.0159974
653.909	0.0159001
653.987	0.0158987
654.065	0.0157802
654.143	0.0157838
654.221	0.0158705
654.299	0.0159714
654.378	0.0160645
654.456	0.0160502
654.534	0.0161387
654.612	0.0162132
654.690	0.0164345
654.768	0.0163252
654.846	0.0164367
654.924	0.0164693
655.003	0.0164125
655.081	0.0164294
655.159	0.0164409
655.237	0.0165467
655.315	0.0165230
655.393	0.0163671
655.471	0.0163446
655.549	0.0165389
655.628	0.0163813
655.706	0.0161608
655.784	0.0163447
655.862	0.0163379
655.940	0.0162400
656.018	0.0162708
656.096	0.0163045
656.174	0.0163596
656.253	0.0163180
656.331	0.0161207
656.409	0.0161861
656.487	0.0161057
656.565	0.0160828
656.643	0.0161134
656.721	0.0161432
656.799	0.0161047
656.878	0.0160114
656.956	0.0160732
657.034	0.0158420
657.112	0.0160618
657.190	0.0160522
657.268	0.0159077
657.346	0.0158631
657.424	0.0160336
657.503	0.0159959
657.581	0.0160281
657.659	0.0161107
657.737	0.0161833
657.815	0.0160316
657.893	0.0161112
657.971	0.0161537
658.049	0.0161475
658.128	0.0159424
658.206	0.0158202
658.284	0.0157342
658.362	0.0156782
658.440	0.0156332
658.518	0.0155915
658.596	0.0155475
658.674	0.0154897
658.753	0.0155238
658.831	0.0156837
658.909	0.0156947
658.987	0.0156653
659.065	0.0157031
659.143	0.0157443
659.221	0.0158649
659.299	0.0157891
659.378	0.0157684
659.456	0.0158212
659.534	0.0160406
659.612	0.0161086
659.690	0.0161375
659.768	0.0162150
659.846	0.0160857
659.924	0.0161166
660.003	0.0162360
660.081	0.0161591
660.159	0.0162033
660.237	0.0161174
660.315	0.0163098
660.393	0.0163024
660.471	0.0160574
660.549	0.0161896
660.628	0.0160834
660.706	0.0159708
660.784	0.0159738
660.862	0.0158935
660.940	0.0157855
661.018	0.0157365
661.096	0.0158324
661.174	0.0157962
661.253	0.0157774
661.331	0.0158688
661.409	0.0159343
661.487	0.0158662
661.565	0.0159212
661.643	0.0161261
661.721	0.0161029
661.799	0.0163355
661.878	0.0163963
661.956	0.0163145
662.034	0.0163477
662.112	0.0163433
662.190	0.0162968
662.268	0.0163976
662.346	0.0165125
662.424	0.0163391
662.503	0.0163496
662.581	0.0163379
662.659	0.0163240
662.737	0.0162000
662.815	0.0161974
662.893	0.0161568
662.971	0.0160529
663.049	0.0161731
663.128	0.0161504
663.206	0.0160494
663.284	0.0160690
663.362	0.0159608
663.440	0.0160828
663.518	0.0161904
663.596	0.0162263
663.674	0.0161662
663.753	0.0163255
663.831	0.0163061
663.909	0.0162219
663.987	0.0162180
664.065	0.0163848
664.143	0.0164673
664.221	0.0164182
664.299	0.0163519
664.378	0.0163960
664.456	0.0163104
664.534	0.0163224
664.612	0.0163806
664.690	0.0163895
664.768	0.0164104
664.846	0.0163741
664.924	0.0162875
665.003	0.0164613
665.081	0.0163371
665.159	0.0164158
665.237	0.0165598
665.315	0.0165605
665.393	0.0165231
665.471	0.0165540
665.549	0.0166715
665.628	0.0165685
665.706	0.0165144
665.784	0.0165462
665.862	0.0164104
665.940	0.0162588
666.018	0.0162045
666.096	0.0161562
666.174	0.0161846
666.253	0.0160049
666.331	0.0158167
666.409	0.0159126
666.487	0.0158942
666.565	0.0159795
666.643	0.0160622
666.721	0.0161702
666.799	0.0160757
666.878	0.0162466
666.956	0.0163239
667.034	0.0162453
667.112	0.0162765
667.190	0.0165221
667.268	0.0165320
667.346	0.0164785
667.424	0.0164832
667.503	0.0163702
667.581	0.0164714
667.659	0.0163789
667.737	0.0164188
667.815	0.0163235
667.893	0.0162936
667.971	0.0161916
668.049	0.0163391
668.128	0.0162005
668.206	0.0162884
668.284	0.0162706
668.362	0.0161459
668.440	0.0161078
668.518	0.0160627
668.596	0.0160909
668.674	0.0161704
668.753	0.0160322
668.831	0.0160378
668.909	0.0160705
668.987	0.0162068
669.065	0.0162138
669.143	0.0162125
669.221	0.0161316
669.299	0.0161512
669.378	0.0160966
669.456	0.0161438
669.534	0.0160923
669.612	0.0161295
669.690	0.0161855
669.768	0.0160376
669.846	0.0160237
669.924	0.0160200
670.003	0.0159417
670.081	0.0159617
670.159	0.0157777
670.237	0.0158044
670.315	0.0156924
670.393	0.0155718
670.471	0.0156419
670.549	0.0157256
670.628	0.0156606
670.706	0.0155460
670.784	0.0157457
670.862	0.0156679
670.940	0.0155980
671.018	0.0157501
671.096	0.0156419
671.174	0.0155815
671.253	0.0156627
671.331	0.0155698
671.409	0.0156290
671.487	0.0154745
671.565	0.0154236
671.643	0.0155257
671.721	0.0154057
671.799	0.0154175
671.878	0.0155098
671.956	0.0153617
672.034	0.0152747
672.112	0.0151093
672.190	0.0153555
672.268	0.0151922
672.346	0.0151746
672.424	0.0153596
672.503	0.0153272
672.581	0.0152505
672.659	0.0151851
672.737	0.0154435
672.815	0.0155585
672.893	0.0155606
672.971	0.0155756
673.049	0.0157596
673.128	0.0157399
673.206	0.0157333
673.284	0.0157748
673.362	0.0157523
673.440	0.0158021
673.518	0.0156126
673.596	0.0157087
673.674	0.0155579
673.753	0.0153145
673.831	0.0154678
673.909	0.0153344
673.987	0.0152608
674.065	0.0153979
674.143	0.0153574
674.221	0.0153468
674.299	0.0154421
674.378	0.0156026
674.456	0.0157877
674.534	0.0159023
674.612	0.0161104
674.690	0.0161337
674.768	0.0162772
674.846	0.0164708
674.924	0.0165298
675.003	0.0165746
675.081	0.0166853
675.159	0.0166816
675.237	0.0165892
675.315	0.0166838
675.393	0.0165617
675.471	0.0166287
675.549	0.0166639
675.628	0.0165306
675.706	0.0165720
675.784	0.0167011
675.862	0.0166907
675.940	0.0167420
676.018	0.0166115
676.096	0.0168059
676.174	0.0167138
676.253	0.0168542
676.331	0.0169113
676.409	0.0168899
676.487	0.0167906
676.565	0.0168260
676.643	0.0168525
676.721	0.0167071
676.799	0.0166280
676.878	0.0166444
676.956	0.0166747
677.034	0.0165522
677.112	0.0166400
677.190	0.0164924
677.268	0.0163895
677.346	0.0164390
677.424	0.0162921
677.503	0.0162772
677.581	0.0163107
677.659	0.0161893
677.737	0.0162169
677.815	0.0161568
677.893	0.0161770
677.971	0.0160926
678.049	0.0161015
678.128	0.0162018
678.206	0.0161877
678.284	0.0161604
678.362	0.0162009
678.440	0.0161184
678.518	0.0162391
678.596	0.0161344
678.674	0.0161405
678.753	0.0161957
678.831	0.0161946
678.909	0.0162260
678.987	0.0162045
679.065	0.0163948
679.143	0.0164684
679.221	0.0163490
679.299	0.0163236
679.378	0.0164011
679.456	0.0163963
679.534	0.0163350
679.612	0.0163849
679.690	0.0164542
679.768	0.0164133
679.846	0.0164927
679.924	0.0164288
680.003	0.0164221
680.081	0.0164292
680.159	0.0164845
680.237	0.0165689
680.315	0.0162835
680.393	0.0162877
680.471	0.0162805
680.549	0.0161798
680.628	0.0162338
680.706	0.0162788
680.784	0.0161455
680.862	0.0159924
680.940	0.0161098
681.018	0.0161009
681.096	0.0160617
681.174	0.0161401
681.253	0.0161006
681.331	0.0161223
681.409	0.0159966
681.487	0.0159501
681.565	0.0157738
681.643	0.0158545
681.721	0.0157169
681.799	0.0157332
681.878	0.0155390
681.956	0.0156815
682.034	0.0155402
682.112	0.0156873
682.190	0.0155687
682.268	0.0156360
682.346	0.0156259
682.424	0.0154820
682.503	0.0154494
682.581	0.0155363
682.659	0.0154700
682.737	0.0153912
682.815	0.0153908
682.893	0.0152569
682.971	0.0153157
683.049	0.0153490
683.128	0.0151998
683.206	0.0151709
683.284	0.0152790
683.362	0.0152965
683.440	0.0152187
683.518	0.0153102
683.596	0.0153519
683.674	0.0152942
683.753	0.0154126
683.831	0.0153321
683.909	0.0154092
683.987	0.0153845
684.065	0.0154685
684.143	0.0154702
684.221	0.0154861
684.299	0.0155161
684.378	0.0155054
684.456	0.0155835
684.534	0.0155342
684.612	0.0155953
684.690	0.0157507
684.768	0.0156051
684.846	0.0158609
684.924	0.0156934
685.003	0.0157788
685.081	0.0158169
685.159	0.0160606
685.237	0.0159733
685.315	0.0160622
685.393	0.0161253
685.471	0.0161436
685.549	0.0160909
685.628	0.0161673
685.706	0.0161361
685.784	0.0161589
685.862	0.0160184
685.940	0.0161015
686.018	0.0161689
686.096	0.0162119
686.174	0.0161946
686.253	0.0162769
686.331	0.0161356
686.409	0.0162281
686.487	0.0163413
686.565	0.0162013
686.643	0.0162653
686.721	0.0165678
686.799	0.0166695
686.878	0.0165314
686.956	0.0166589
687.034	0.0166579
687.112	0.0165832
687.190	0.0167723
687.268	0.0168519
687.346	0.0167383
687.424	0.0166394
687.503	0.0167936
687.581	0.0166682
687.659	0.0167332
687.737	0.0167499
687.815	0.0167061
687.893	0.0166190
687.971	0.0165089
688.049	0.0164561
688.128	0.0163445
688.206	0.0163194
688.284	0.0164974
688.362	0.0161954
688.440	0.0161156
688.518	0.0160358
688.596	0.0159777
688.674	0.0159270
688.753	0.0159412
688.831	0.0159036
688.909	0.0156719
688.987	0.0156736
689.065	0.0156335
689.143	0.0156247
689.221	0.0154710
689.299	0.0153796
689.378	0.0154214
689.456	0.0153316
689.534	0.0153807
689.612	0.0153055
689.690	0.0154292
689.768	0.0153907
689.846	0.0153161
689.924	0.0155302
690.003	0.0152995
690.081	0.0153124
690.159	0.0154874
690.237	0.0154043
690.315	0.0154530
690.393	0.0154290
690.471	0.0154831
690.549	0.0155458
690.628	0.0154289
690.706	0.0153859
690.784	0.0155570
690.862	0.0154352
690.940	0.0156168
691.018	0.0156314
691.096	0.0156486
691.174	0.0156657
691.253	0.0159236
691.331	0.0157969
691.409	0.0158043
691.487	0.0159476
691.565	0.0160130
691.643	0.0160622
691.721	0.0160712
691.799	0.0161546
691.878	0.0160922
691.956	0.0162389
692.034	0.0162508
692.112	0.0164151
692.190	0.0163889
692.268	0.0162212
692.346	0.0163717
692.424	0.0162117
692.503	0.0162559
692.581	0.0162756
692.659	0.0162111
692.737	0.0162183
692.815	0.0159268
692.893	0.0160736
692.971	0.0160435
693.049	0.0159879
693.128	0.0160122
693.206	0.0159557
693.284	0.0160324
693.362	0.0162394
693.440	0.0159666
693.518	0.0160741
693.596	0.0161405
693.674	0.0161987
693.753	0.0162395
693.831	0.0161041
693.909	0.0162965
693.987	0.0164890
694.065	0.0163412
694.143	0.0163564
694.221	0.0161721
694.299	0.0163336
694.378	0.0163120
694.456	0.0163191
694.534	0.0160164
694.612	0.0160231
694.690	0.0159375
694.768	0.0157668
694.846	0.0156236
694.924	0.0154779
695.003	0.0154005
695.081	0.0153187
695.159	0.0153301
695.237	0.0150957
695.315	0.0151333
695.393	0.0150937
695.471	0.0152452
695.549	0.0152579
695.628	0.0152042
695.706	0.0152070
695.784	0.0154042
695.862	0.0154516
695.940	0.0153426
696.018	0.0154128
696.096	0.0154338
696.174	0.0154269
696.253	0.0153598
696.331	0.0152546
696.409	0.0153109
696.487	0.0153431
696.565	0.0150628
696.643	0.0150858
696.721	0.0151022
696.799	0.0149879
696.878	0.0149945
696.956	0.0151423
697.034	0.0152411
697.112	0.0149510
697.190	0.0152231
697.268	0.0152722
697.346	0.0152399
697.424	0.0154312
697.503	0.0155904
697.581	0.0155978
697.659	0.0157597
697.737	0.0159214
697.815	0.0158162
697.893	0.0159160
697.971	0.0159576
698.049	0.0160106
698.128	0.0161484
698.206	0.0160403
698.284	0.0160140
698.362	0.0161320
698.440	0.0159528
698.518	0.0158473
698.596	0.0159856
698.674	0.0160390
698.753	0.0159747
698.831	0.0159496
698.909	0.0157157
698.987	0.0158131
699.065	0.0159229
699.143	0.0158320
699.221	0.0160004
699.299	0.0159686
699.378	0.0160749
699.456	0.0160394
699.534	0.0160381
699.612	0.0160358
699.690	0.0162742
699.768	0.0163479
699.846	0.0162402
699.924	0.0163334
700.003	0.0163320
700.081	0.0164593
700.159	0.0164870
700.237	0.0164374
700.315	0.0163815
700.393	0.0164055
700.471	0.0165435
700.549	0.0164198
700.628	0.0164833
700.706	0.0164692
700.784	0.0164274
700.862	0.0165281
700.940	0.0166161
701.018	0.0164196
701.096	0.0165683
701.174	0.0166153
701.253	0.0164800
701.331	0.0164779
701.409	0.0166527
701.487	0.0165987
701.565	0.0167873
701.643	0.0167648
701.721	0.0166306
701.799	0.0167238
701.878	0.0168526
701.956	0.0169206
702.034	0.0168718
702.112	0.0168277
702.190	0.0170202
702.268	0.0169448
702.346	0.0169867
702.424	0.0170033
702.503	0.0169614
702.581	0.0168988
702.659	0.0170120
702.737	0.0169298
702.815	0.0168931
702.893	0.0170087
702.971	0.0167812
703.049	0.0167491
703.128	0.0167430
703.206	0.0167162
703.284	0.0165973
703.362	0.0165672
703.440	0.0164967
703.518	0.0163954
703.596	0.0164478
703.674	0.0164371
703.753	0.0164231
703.831	0.0163171
703.909	0.0164104
703.987	0.0163716
704.065	0.0162989
704.143	0.0164433
704.221	0.0163002
704.299	0.0162606
704.378	0.0163582
704.456	0.0162209
704.534	0.0163400
704.612	0.0163453
704.690	0.0160771
704.768	0.0163777
704.846	0.0163316
704.924	0.0162059
705.003	0.0161332
705.081	0.0161669
705.159	0.0160134
705.237	0.0161603
705.315	0.0159258
705.393	0.0158679
705.471	0.0157921
705.549	0.0156472
705.628	0.0156664
705.706	0.0153445
705.784	0.0153350
705.862	0.0153577
705.940	0.0153043
706.018	0.0153754
706.096	0.0152798
706.174	0.0150623
706.253	0.0150675
706.331	0.0150783
706.409	0.0151749
706.487	0.0151683
706.565	0.0150645
706.643	0.0150568
706.721	0.0148280
706.799	0.0148832
706.878	0.0148093
706.956	0.0149995
707.034	0.0148334
707.112	0.0149149
707.190	0.0148417
707.268	0.0147907
707.346	0.0148328
707.424	0.0148438
707.503	0.0148177
707.581	0.0148825
707.659	0.0149076
707.737	0.0148795
707.815	0.0149657
707.893	0.0148936
707.971	0.0149654
708.049	0.0150286
708.128	0.0151227
708.206	0.0150741
708.284	0.0150114
708.362	0.0152168
708.440	0.0152596
708.518	0.0152615
708.596	0.0154794
708.674	0.0154061
708.753	0.0154254
708.831	0.0155202
708.909	0.0156208
708.987	0.0155438
709.065	0.0155167
709.143	0.0154979
709.221	0.0154790
709.299	0.0156285
709.378	0.0155060
709.456	0.0156590
709.534	0.0157414
709.612	0.0155983
709.690	0.0157046
709.768	0.0158247
709.846	0.0159450
709.924	0.0159625
710.003	0.0159168
710.081	0.0157317
710.159	0.0159052
710.237	0.0159311
710.315	0.0160422
710.393	0.0159406
710.471	0.0158572
710.549	0.0157584
710.628	0.0157506
710.706	0.0157868
710.784	0.0159480
710.862	0.0158695
710.940	0.0158724
711.018	0.0159202
711.096	0.0157641
711.174	0.0157074
711.253	0.0157465
711.331	0.0160528
711.409	0.0160419
711.487	0.0161472
711.565	0.0160405
711.643	0.0161237
711.721	0.0161779
711.799	0.0161708
711.878	0.0160880
711.956	0.0161796
712.034	0.0162311
712.112	0.0161969
712.190	0.0162962
712.268	0.0161356
712.346	0.0162051
712.424	0.0161328
712.503	0.0161086
712.581	0.0162059
712.659	0.0162900
712.737	0.0160244
712.815	0.0160703
712.893	0.0160793
712.971	0.0159841
713.049	0.0158662
713.128	0.0159058
713.206	0.0159856
713.284	0.0157503
713.362	0.0157935
713.440	0.0157394
713.518	0.0157902
713.596	0.0157520
713.674	0.0157018
713.753	0.0157270
713.831	0.0157771
713.909	0.0158601
713.987	0.0158318
714.065	0.0156731
714.143	0.0156637
714.221	0.0158318
714.299	0.0157558
714.378	0.0158978
714.456	0.0157428
714.534	0.0158178
714.612	0.0158847
714.690	0.0159218
714.768	0.0158134
714.846	0.0159113
714.924	0.0158527
715.003	0.0158126
715.081	0.0158495
715.159	0.0159056
715.237	0.0157598
715.315	0.0159885
715.393	0.0160105
715.471	0.0161041
715.549	0.0160239
715.628	0.0159956
715.706	0.0160741
715.784	0.0161819
715.862	0.0161955
715.940	0.0161988
716.018	0.0160674
716.096	0.0161342
716.174	0.0161671
716.253	0.0161060
716.331	0.0160685
716.409	0.0160709
716.487	0.0160937
716.565	0.0160015
716.643	0.0161215
716.721	0.0162147
716.799	0.0160943
716.878	0.0161498
716.956	0.0161381
717.034	0.0160126
717.112	0.0160489
717.190	0.0161740
717.268	0.0160264
717.346	0.0159962
717.424	0.0159691
717.503	0.0160105
717.581	0.0158206
717.659	0.0159066
717.737	0.0157277
717.815	0.0158194
717.893	0.0157880
717.971	0.0157869
718.049	0.0157201
718.128	0.0155769
718.206	0.0156029
718.284	0.0155486
718.362	0.0156204
718.440	0.0156299
718.518	0.0157941
718.596	0.0157590
718.674	0.0157792
718.753	0.0158826
718.831	0.0159972
718.909	0.0161635
718.987	0.0162144
719.065	0.0161188
719.143	0.0163374
719.221	0.0164053
719.299	0.0164095
719.378	0.0162924
719.456	0.0164107
719.534	0.0161961
719.612	0.0161501
719.690	0.0163035
719.768	0.0162490
719.846	0.0158911
719.924	0.0159803
720.003	0.0159875
720.081	0.0155715
720.159	0.0156281
720.237	0.0156129
720.315	0.0154104
720.393	0.0153616
720.471	0.0152033
720.549	0.0151470
720.628	0.0152628
720.706	0.0152420
720.784	0.0152058
720.862	0.0152362
720.940	0.0153121
721.018	0.0153606
721.096	0.0152876
721.174	0.0154846
721.253	0.0154299
721.331	0.0153987
721.409	0.0154929
721.487	0.0154195
721.565	0.0156367
721.643	0.0155353
721.721	0.0156980
721.799	0.0156611
721.878	0.0157511
721.956	0.0159268
722.034	0.0160125
722.112	0.0159777
722.190	0.0159857
722.268	0.0161491
722.346	0.0161328
722.424	0.0161915
722.503	0.0162464
722.581	0.0162550
722.659	0.0162450
722.737	0.0161575
722.815	0.0160934
722.893	0.0161148
722.971	0.0160267
723.049	0.0160857
723.128	0.0161703
723.206	0.0159907
723.284	0.0158221
723.362	0.0158676
723.440	0.0158021
723.518	0.0157904
723.596	0.0157214
723.674	0.0157445
723.753	0.0156781
723.831	0.0156785
723.909	0.0155595
723.987	0.0156259
724.065	0.0155985
724.143	0.0155630
724.221	0.0156302
724.299	0.0155737
724.378	0.0155887
724.456	0.0157560
724.534	0.0156905
724.612	0.0156353
724.690	0.0157372
724.768	0.0158103
724.846	0.0159184
724.924	0.0158821
725.003	0.0159582
725.081	0.0161565
725.159	0.0161035
725.237	0.0161488
725.315	0.0161607
725.393	0.0163465
725.471	0.0164844
725.549	0.0163698
725.628	0.0164901
725.706	0.0164928
725.784	0.0165266
725.862	0.0165436
725.940	0.0166000
726.018	0.0166724
726.096	0.0166684
726.174	0.0166798
726.253	0.0165971
726.331	0.0167083
726.409	0.0167612
726.487	0.0168449
726.565	0.0167777
726.643	0.0167693
726.721	0.0167326
726.799	0.0167639
726.878	0.0169283
726.956	0.0167010
727.034	0.0166412
727.112	0.0167648
727.190	0.0166090
727.268	0.0166566
727.346	0.0165695
727.424	0.0165350
727.503	0.0164429
727.581	0.0163801
727.659	0.0163517
727.737	0.0162653
727.815	0.0161397
727.893	0.0161336
727.971	0.0161915
728.049	0.0161270
728.128	0.0161127
728.206	0.0159546
728.284	0.0159184
728.362	0.0162039
728.440	0.0160619
728.518	0.0160597
728.596	0.0159528
728.674	0.0157787
728.753	0.0159804
728.831	0.0160381
728.909	0.0158457
728.987	0.0158914
729.065	0.0157760
729.143	0.0157780
729.221	0.0157854
729.299	0.0158550
729.378	0.0157019
729.456	0.0156071
729.534	0.0157043
729.612	0.0156189
729.690	0.0154538
729.768	0.0154861
729.846	0.0152996
729.924	0.0154844
730.003	0.0155737
730.081	0.0155839
730.159	0.0155280
730.237	0.0154603
730.315	0.0155300
730.393	0.0154083
730.471	0.0155299
730.549	0.0155920
730.628	0.0156104
730.706	0.0155020
730.784	0.0155061
730.862	0.0154346
730.940	0.0155118
731.018	0.0153405
731.096	0.0154853
731.174	0.0152728
731.253	0.0152136
731.331	0.0152631
731.409	0.0152422
731.487	0.0150299
731.565	0.0150722
731.643	0.0150696
731.721	0.0152248
731.799	0.0150506
731.878	0.0149921
731.956	0.0149950
732.034	0.0149769
732.112	0.0150893
732.190	0.0150389
732.268	0.0150639
732.346	0.0152153
732.424	0.0153228
732.503	0.0153866
732.581	0.0153812
732.659	0.0154684
732.737	0.0154002
732.815	0.0156808
732.893	0.0159442
732.971	0.0157262
733.049	0.0158397
733.128	0.0160416
733.206	0.0161768
733.284	0.0162930
733.362	0.0164407
733.440	0.0164806
733.518	0.0165474
733.596	0.0166827
733.674	0.0167365
733.753	0.0167376
733.831	0.0166688
733.909	0.0167645
733.987	0.0166561
734.065	0.0166267
734.143	0.0166973
734.221	0.0166479
734.299	0.0166046
734.378	0.0164513
734.456	0.0162929
734.534	0.0161903
734.612	0.0162479
734.690	0.0162286
734.768	0.0161431
734.846	0.0161285
734.924	0.0159586
735.003	0.0159676
735.081	0.0158274
735.159	0.0157931
735.237	0.0157538
735.315	0.0155634
735.393	0.0154089
735.471	0.0155643
735.549	0.0156001
735.628	0.0154942
735.706	0.0154690
735.784	0.0154822
735.862	0.0156177
735.940	0.0156586
736.018	0.0155833
736.096	0.0156830
736.174	0.0156520
736.253	0.0157072
736.331	0.0155727
736.409	0.0158034
736.487	0.0158363
736.565	0.0156597
736.643	0.0159218
736.721	0.0159439
736.799	0.0160513
736.878	0.0160605
736.956	0.0160729
737.034	0.0161702
737.112	0.0162244
737.190	0.0161713
737.268	0.0163648
737.346	0.0163065
737.424	0.0164946
737.503	0.0165183
737.581	0.0163319
737.659	0.0163516
737.737	0.0164271
737.815	0.0164582
737.893	0.0163916
737.971	0.0163691
738.049	0.0164209
738.128	0.0162876
738.206	0.0162138
738.284	0.0162627
738.362	0.0161180
738.440	0.0160685
738.518	0.0161042
738.596	0.0159594
738.674	0.0160605
738.753	0.0162178
738.831	0.0159144
738.909	0.0159925
738.987	0.0158368
739.065	0.0161752
739.143	0.0160006
739.221	0.0159423
739.299	0.0159921
739.378	0.0161421
739.456	0.0160647
739.534	0.0160285
739.612	0.0161226
739.690	0.0160895
739.768	0.0160967
739.846	0.0161786
739.924	0.0161581
740.003	0.0161623
740.081	0.0161758
740.159	0.0163769
740.237	0.0162981
740.315	0.0162851
740.393	0.0162471
740.471	0.0163747
740.549	0.0163744
740.628	0.0163029
740.706	0.0164670
740.784	0.0164320
740.862	0.0163105
740.940	0.0165622
741.018	0.0166532
741.096	0.0164977
741.174	0.0163441
741.253	0.0165298
741.331	0.0165062
741.409	0.0163359
741.487	0.0163808
741.565	0.0164133
741.643	0.0164328
741.721	0.0163291
741.799	0.0163129
741.878	0.0162673
741.956	0.0162804
742.034	0.0163583
742.112	0.0161942
742.190	0.0160903
742.268	0.0162389
742.346	0.0160813
742.424	0.0162041
742.503	0.0161418
742.581	0.0160434
742.659	0.0159791
742.737	0.0159394
742.815	0.0159467
742.893	0.0159396
742.971	0.0158693
743.049	0.0158890
743.128	0.0158681
743.206	0.0157931
743.284	0.0158602
743.362	0.0159418
743.440	0.0158590
743.518	0.0159184
743.596	0.0158987
743.674	0.0158391
743.753	0.0158801
743.831	0.0159244
743.909	0.0159695
743.987	0.0160526
744.065	0.0161456
744.143	0.0160754
744.221	0.0161950
744.299	0.0162775
744.378	0.0163766
744.456	0.0161594
744.534	0.0162105
744.612	0.0163074
744.690	0.0163704
744.768	0.0163205
744.846	0.0163496
744.924	0.0163656
745.003	0.0163976
745.081	0.0162103
745.159	0.0162194
745.237	0.0162779
745.315	0.0162680
745.393	0.0160612
745.471	0.0159822
745.549	0.0161483
745.628	0.0161597
745.706	0.0160497
745.784	0.0159806
745.862	0.0160294
745.940	0.0161497
746.018	0.0159618
746.096	0.0160267
746.174	0.0160165
746.253	0.0160153
746.331	0.0159416
746.409	0.0159800
746.487	0.0160932
746.565	0.0161398
746.643	0.0160565
746.721	0.0161068
746.799	0.0161110
746.878	0.0160808
746.956	0.0162504
747.034	0.0160569
747.112	0.0162222
747.190	0.0162948
747.268	0.0161831
747.346	0.0161755
747.424	0.0162140
747.503	0.0163223
747.581	0.0162133
747.659	0.0161440
747.737	0.0162044
747.815	0.0162672
747.893	0.0161727
747.971	0.0161196
748.049	0.0161845
748.128	0.0160158
748.206	0.0160069
748.284	0.0161236
748.362	0.0161134
748.440	0.0159756
748.518	0.0158004
748.596	0.0159448
748.674	0.0157788
748.753	0.0156992
748.831	0.0157267
748.909	0.0158451
748.987	0.0158348
749.065	0.0158247
749.143	0.0158638
749.221	0.0157887
749.299	0.0157824
749.378	0.0158482
749.456	0.0157705
749.534	0.0159096
749.612	0.0158347
749.690	0.0159593
749.768	0.0158634
749.846	0.0159906
749.924	0.0159824
750.003	0.0160180
750.081	0.0160493
750.159	0.0160918
750.237	0.0162117
750.315	0.0161147
750.393	0.0163866
750.471	0.0163046
750.549	0.0163960
750.628	0.0164519
750.706	0.0164329
750.784	0.0163305
750.862	0.0164785
750.940	0.0166099
751.018	0.0164924
751.096	0.0167068
751.174	0.0165807
751.253	0.0165460
751.331	0.0165720
751.409	0.0163438
751.487	0.0164626
751.565	0.0165425
751.643	0.0165139
751.721	0.0162898
751.799	0.0162817
751.878	0.0161893
751.956	0.0162652
752.034	0.0162218
752.112	0.0162306
752.190	0.0162521
752.268	0.0161974
752.346	0.0162025
752.424	0.0162106
752.503	0.0160410
752.581	0.0162103
752.659	0.0162222
752.737	0.0162749
752.815	0.0163645
752.893	0.0163767
752.971	0.0161836
753.049	0.0161649
753.128	0.0162828
753.206	0.0162374
753.284	0.0161868
753.362	0.0162383
753.440	0.0161354
753.518	0.0161869
753.596	0.0160013
753.674	0.0160704
753.753	0.0159864
753.831	0.0160207
753.909	0.0160027
753.987	0.0157624
754.065	0.0158335
754.143	0.0157612
754.221	0.0158335
754.299	0.0157917
754.378	0.0156767
754.456	0.0156226
754.534	0.0155623
754.612	0.0154793
754.690	0.0155910
754.768	0.0155245
754.846	0.0155978
754.924	0.0156487
755.003	0.0156516
755.081	0.0155784
755.159	0.0157424
755.237	0.0157311
755.315	0.0157597
755.393	0.0157893
755.471	0.0157613
755.549	0.0157616
755.628	0.0159785
755.706	0.0159635
755.784	0.0158424
755.862	0.0158916
755.940	0.0158321
756.018	0.0159452
756.096	0.0159303
756.174	0.0160390
756.253	0.0158870
756.331	0.0159616
756.409	0.0157845
756.487	0.0159771
756.565	0.0159078
756.643	0.0157515
756.721	0.0158006
756.799	0.0158649
756.878	0.0158039
756.956	0.0157735
757.034	0.0157511
757.112	0.0157384
757.190	0.0157316
757.268	0.0156172
757.346	0.0156722
757.424	0.0157541
757.503	0.0156770
757.581	0.0154698
757.659	0.0155232
757.737	0.0154453
757.815	0.0154406
757.893	0.0154594
757.971	0.0153214
758.049	0.0154091
758.128	0.0154564
758.206	0.0153143
758.284	0.0152915
758.362	0.0153427
758.440	0.0153112
758.518	0.0153778
758.596	0.0152409
758.674	0.0152220
758.753	0.0152833
758.831	0.0153316
758.909	0.0154245
758.987	0.0153869
759.065	0.0153712
759.143	0.0155134
759.221	0.0154015
759.299	0.0154747
759.378	0.0155322
759.456	0.0154987
759.534	0.0155911
759.612	0.0156966
759.690	0.0156656
759.768	0.0156851
759.846	0.0158047
759.924	0.0158634
760.003	0.0157610
760.081	0.0157435
760.159	0.0158338
760.237	0.0158952
760.315	0.0158093
760.393	0.0159394
760.471	0.0159291
760.549	0.0160587
760.628	0.0159467
760.706	0.0159118
760.784	0.0159712
760.862	0.0160401
760.940	0.0160653
761.018	0.0162684
761.096	0.0162791
761.174	0.0161608
761.253	0.0161150
761.331	0.0163287
761.409	0.0163216
761.487	0.0164715
761.565	0.0164819
761.643	0.0164433
761.721	0.0164483
761.799	0.0164169
761.878	0.0163828
761.956	0.0163692
762.034	0.0164791
762.112	0.0164783
762.190	0.0164333
762.268	0.0162999
762.346	0.0163221
762.424	0.0162872
762.503	0.0164657
762.581	0.0162934
762.659	0.0163830
762.737	0.0163412
762.815	0.0163686
762.893	0.0164417
762.971	0.0163783
763.049	0.0164566
763.128	0.0164175
763.206	0.0165073
763.284	0.0164485
763.362	0.0165231
763.440	0.0165556
763.518	0.0164795
763.596	0.0165934
763.674	0.0166663
763.753	0.0165569
763.831	0.0165342
763.909	0.0166975
763.987	0.0165510
764.065	0.0164964
764.143	0.0164751
764.221	0.0166145
764.299	0.0165558
764.378	0.0164182
764.456	0.0164506
764.534	0.0163950
764.612	0.0163666
764.690	0.0164587
764.768	0.0161984
764.846	0.0163858
764.924	0.0163759
765.003	0.0161939
765.081	0.0163403
765.159	0.0162449
765.237	0.0163196
765.315	0.0162590
765.393	0.0161958
765.471	0.0163654
765.549	0.0163876
765.628	0.0162816
765.706	0.0163443
765.784	0.0164101
765.862	0.0164330
765.940	0.0164135
766.018	0.0163626
766.096	0.0163815
766.174	0.0162643
766.253	0.0163043
766.331	0.0163205
766.409	0.0162857
766.487	0.0160238
766.565	0.0160155
766.643	0.0159388
766.721	0.0157723
766.799	0.0157983
766.878	0.0156288
766.956	0.0155865
767.034	0.0155928
767.112	0.0155640
767.190	0.0156617
767.268	0.0155426
767.346	0.0157165
767.424	0.0156816
767.503	0.0156886
767.581	0.0157594
767.659	0.0158613
767.737	0.0159251
767.815	0.0160262
767.893	0.0162454
767.971	0.0163924
768.049	0.0163885
768.128	0.0164271
768.206	0.0162861
768.284	0.0163193
768.362	0.0163328
768.440	0.0163177
768.518	0.0162336
768.596	0.0161666
768.674	0.0160509
768.753	0.0159732
768.831	0.0159487
768.909	0.0158521
768.987	0.0157551
769.065	0.0157439
769.143	0.0157627
769.221	0.0157569
769.299	0.0158979
769.378	0.0159370
769.456	0.0159824
769.534	0.0161195
769.612	0.0162291
769.690	0.0164736
769.768	0.0164806
769.846	0.0164573
769.924	0.0166141
770.003	0.0166264
770.081	0.0166066
770.159	0.0165290
770.237	0.0165662
770.315	0.0164520
770.393	0.0163882
770.471	0.0163097
770.549	0.0164083
770.628	0.0162246
770.706	0.0161745
770.784	0.0160353
770.862	0.0158019
770.940	0.0157893
771.018	0.0157463
771.096	0.0157193
771.174	0.0154517
771.253	0.0153793
771.331	0.0154263
771.409	0.0153094
771.487	0.0151134
771.565	0.0151589
771.643	0.0151588
771.721	0.0149945
771.799	0.0151275
771.878	0.0150829
771.956	0.0151856
772.034	0.0150911
772.112	0.0152847
772.190	0.0152164
772.268	0.0154291
772.346	0.0154879
772.424	0.0155072
772.503	0.0156574
772.581	0.0157026
772.659	0.0158562
772.737	0.0159113
772.815	0.0159902
772.893	0.0161427
772.971	0.0161670
773.049	0.0162122
773.128	0.0164612
773.206	0.0165405
773.284	0.0165626
773.362	0.0166426
773.440	0.0167064
773.518	0.0168417
773.596	0.0167948
773.674	0.0169402
773.753	0.0169464
773.831	0.0169990
773.909	0.0169151
773.987	0.0169755
774.065	0.0168084
774.143	0.0168159
774.221	0.0166420
774.299	0.0164462
774.378	0.0163728
774.456	0.0164607
774.534	0.0163238
774.612	0.0162291
774.690	0.0159579
774.768	0.0160012
774.846	0.0158303
774.924	0.0156497
775.003	0.0156548
775.081	0.0156196
775.159	0.0155405
775.237	0.0155624
775.315	0.0156017
775.393	0.0154691
775.471	0.0155658
775.549	0.0156243
775.628	0.0155750
775.706	0.0155151
775.784	0.0155148
775.862	0.0155502
775.940	0.0157108
776.018	0.0157102
776.096	0.0157043
776.174	0.0156900
776.253	0.0156283
776.331	0.0156293
776.409	0.0158839
776.487	0.0158659
776.565	0.0157594
776.643	0.0157136
776.721	0.0156999
776.799	0.0157317
776.878	0.0158253
776.956	0.0156730
777.034	0.0155519
777.112	0.0157331
777.190	0.0156239
777.268	0.0157846
777.346	0.0157866
777.424	0.0157841
777.503	0.0157207
777.581	0.0157329
777.659	0.0158761
777.737	0.0158702
777.815	0.0159408
777.893	0.0159102
777.971	0.0159772
778.049	0.0160937
778.128	0.0161835
778.206	0.0161919
778.284	0.0161221
778.362	0.0162332
778.440	0.0162241
778.518	0.0164766
778.596	0.0164201
778.674	0.0162837
778.753	0.0163055
778.831	0.0164458
778.909	0.0163855
778.987	0.0162275
779.065	0.0164520
779.143	0.0163676
779.221	0.0164090
779.299	0.0164112
779.378	0.0164162
779.456	0.0165930
779.534	0.0164108
779.612	0.0163844
779.690	0.0163026
779.768	0.0163116
779.846	0.0163039
779.924	0.0162030
780.003	0.0161631
780.081	0.0159416
780.159	0.0160465
780.237	0.0159523
780.315	0.0160719
780.393	0.0157958
780.471	0.0158961
780.549	0.0158131
780.628	0.0156166
780.706	0.0157861
780.784	0.0157761
780.862	0.0155389
780.940	0.0155415
781.018	0.0155357
781.096	0.0155564
781.174	0.0153978
781.253	0.0154845
781.331	0.0154670
781.409	0.0156358
781.487	0.0155321
781.565	0.0154659
781.643	0.0154710
781.721	0.0154405
781.799	0.0155244
781.878	0.0153570
781.956	0.0154742
782.034	0.0154586
782.112	0.0156351
782.190	0.0156467
782.268	0.0156907
782.346	0.0155583
782.424	0.0155570
782.503	0.0155630
782.581	0.0154578
782.659	0.0156084
782.737	0.0156895
782.815	0.0155862
782.893	0.0155412
782.971	0.0156922
783.049	0.0157434
783.128	0.0155439
783.206	0.0156449
783.284	0.0156333
783.362	0.0156107
783.440	0.0157986
783.518	0.0157109
783.596	0.0157507
783.674	0.0155928
783.753	0.0156313
783.831	0.0157236
783.909	0.0158057
783.987	0.0157993
784.065	0.0157516
784.143	0.0158250
784.221	0.0157975
784.299	0.0157243
784.378	0.0156506
784.456	0.0156640
784.534	0.0156623
784.612	0.0157001
784.690	0.0157693
784.768	0.0157462
784.846	0.0155879
784.924	0.0155192
785.003	0.0156908
785.081	0.0157281
785.159	0.0155994
785.237	0.0156413
785.315	0.0155560
785.393	0.0156196
785.471	0.0156836
785.549	0.0156021
785.628	0.0155907
785.706	0.0156696
785.784	0.0156694
785.862	0.0157923
785.940	0.0157944
786.018	0.0157568
786.096	0.0157874
786.174	0.0156710
786.253	0.0158279
786.331	0.0158869
786.409	0.0157695
786.487	0.0156850
786.565	0.0156879
786.643	0.0157442
786.721	0.0156322
786.799	0.0156844
786.878	0.0157046
786.956	0.0155443
787.034	0.0157562
787.112	0.0156087
787.190	0.0154711
787.268	0.0155871
787.346	0.0156627
787.424	0.0156489
787.503	0.0156425
787.581	0.0156808
787.659	0.0154856
787.737	0.0155132
787.815	0.0154501
787.893	0.0155408
787.971	0.0155357
788.049	0.0156992
788.128	0.0156956
788.206	0.0156882
788.284	0.0156524
788.362	0.0156219
788.440	0.0157908
788.518	0.0156961
788.596	0.0156481
788.674	0.0157771
788.753	0.0158052
788.831	0.0157600
788.909	0.0158755
788.987	0.0159425
789.065	0.0161433
789.143	0.0162823
789.221	0.0162255
789.299	0.0163573
789.378	0.0164999
789.456	0.0163744
789.534	0.0165456
789.612	0.0167352
789.690	0.0167439
789.768	0.0167133
789.846	0.0167315
789.924	0.0168369
790.003	0.0167242
790.081	0.0165854
790.159	0.0166142
790.237	0.0165940
790.315	0.0165960
790.393	0.0166710
790.471	0.0166260
790.549	0.0163842
790.628	0.0165246
790.706	0.0163064
790.784	0.0162791
790.862	0.0162814
790.940	0.0162029
791.018	0.0163089
791.096	0.0162351
791.174	0.0163317
791.253	0.0164783
791.331	0.0164416
791.409	0.0163633
791.487	0.0165610
791.565	0.0163979
791.643	0.0163617
791.721	0.0161799
791.799	0.0159556
791.878	0.0158486
791.956	0.0157284
792.034	0.0154836
792.112	0.0153413
792.190	0.0151435
792.268	0.0150777
792.346	0.0151447
792.424	0.0149810
792.503	0.0150773
792.581	0.0150797
792.659	0.0151536
792.737	0.0152699
792.815	0.0153195
792.893	0.0154311
792.971	0.0155170
793.049	0.0157088
793.128	0.0158782
793.206	0.0157675
793.284	0.0158411
793.362	0.0161524
793.440	0.0162933
793.518	0.0162939
793.596	0.0164073
793.674	0.0166695
793.753	0.0167419
793.831	0.0168173
793.909	0.0168558
793.987	0.0169851
794.065	0.0170508
794.143	0.0170191
794.221	0.0170412
794.299	0.0169807
794.378	0.0167974
794.456	0.0169126
794.534	0.0168645
794.612	0.0166091
794.690	0.0163148
794.768	0.0162411
794.846	0.0161776
794.924	0.0161746
795.003	0.0160941
795.081	0.0160307
795.159	0.0159490
795.237	0.0157287
795.315	0.0156841
795.393	0.0158498
795.471	0.0155994
795.549	0.0156284
795.628	0.0155229
795.706	0.0154093
795.784	0.0154942
795.862	0.0154198
795.940	0.0155201
796.018	0.0153648
796.096	0.0152441
796.174	0.0152888
796.253	0.0153204
796.331	0.0153947
796.409	0.0152982
796.487	0.0152563
796.565	0.0152447
796.643	0.0152068
796.721	0.0153753
796.799	0.0152933
796.878	0.0153775
796.956	0.0154546
797.034	0.0153212
797.112	0.0153981
797.190	0.0154282
797.268	0.0155105
797.346	0.0155605
797.424	0.0155585
797.503	0.0154694
797.581	0.0154564
797.659	0.0155669
797.737	0.0157338
797.815	0.0155807
797.893	0.0155612
797.971	0.0155302
798.049	0.0156623
798.128	0.0156447
798.206	0.0155073
798.284	0.0156152
798.362	0.0154481
798.440	0.0155157
798.518	0.0156892
798.596	0.0157189
798.674	0.0154689
798.753	0.0154738
798.831	0.0156570
798.909	0.0155884
798.987	0.0156028
799.065	0.0155338
799.143	0.0154602
799.221	0.0155467
799.299	0.0155003
799.378	0.0155018
799.456	0.0155224
799.534	0.0155293
799.612	0.0155411
799.690	0.0154004
799.768	0.0153717
799.846	0.0154896
799.924	0.0154944
800.003	0.0153184
800.081	0.0152109
800.159	0.0152055
800.237	0.0151692
800.315	0.0151256
800.393	0.0151811
800.471	0.0151428
800.549	0.0149085
800.628	0.0150121
800.706	0.0150597
800.784	0.0151202
800.862	0.0151716
800.940	0.0151597
801.018	0.0152099
801.096	0.0152246
801.174	0.0154054
801.253	0.0155506
801.331	0.0155742
801.409	0.0157358
801.487	0.0157642
801.565	0.0160294
801.643	0.0159822
801.721	0.0159735
801.799	0.0162282
801.878	0.0162304
801.956	0.0165158
802.034	0.0162865
802.112	0.0164699
802.190	0.0164754
802.268	0.0163611
802.346	0.0165944
802.424	0.0165556
802.503	0.0164005
802.581	0.0164910
802.659	0.0165471
802.737	0.0165022
802.815	0.0163654
802.893	0.0164323
802.971	0.0164500
803.049	0.0163412
803.128	0.0164542
803.206	0.0162353
803.284	0.0163673
803.362	0.0163920
803.440	0.0164435
803.518	0.0165490
803.596	0.0165589
803.674	0.0163753
803.753	0.0163776
803.831	0.0163890
803.909	0.0164783
803.987	0.0164159
804.065	0.0164689
804.143	0.0164111
804.221	0.0164928
804.299	0.0167113
804.378	0.0166302
804.456	0.0165983
804.534	0.0166098
804.612	0.0166638
804.690	0.0165955
804.768	0.0166552
804.846	0.0163879
804.924	0.0163465
805.003	0.0163602
805.081	0.0162582
805.159	0.0164860
805.237	0.0162766
805.315	0.0161798
805.393	0.0164302
805.471	0.0165222
805.549	0.0164245
805.628	0.0165996
805.706	0.0165607
805.784	0.0165955
805.862	0.0165182
805.940	0.0164908
806.018	0.0164877
806.096	0.0164097
806.174	0.0162251
806.253	0.0161140
806.331	0.0159973
806.409	0.0159415
806.487	0.0159074
806.565	0.0160437
806.643	0.0158168
806.721	0.0158997
806.799	0.0158574
806.878	0.0158418
806.956	0.0157001
807.034	0.0156904
807.112	0.0158530
807.190	0.0154982
807.268	0.0155276
807.346	0.0156807
807.424	0.0156055
807.503	0.0156319
807.581	0.0156298
807.659	0.0156573
807.737	0.0157587
807.815	0.0156723
807.893	0.0156052
807.971	0.0157281
808.049	0.0158404
808.128	0.0159753
808.206	0.0159890
808.284	0.0159805
808.362	0.0160277
808.440	0.0159506
808.518	0.0159750
808.596	0.0158161
808.674	0.0159739
808.753	0.0157626
808.831	0.0157967
808.909	0.0157473
808.987	0.0158108
809.065	0.0158338
809.143	0.0157697
809.221	0.0157148
809.299	0.0157676
809.378	0.0158852
809.456	0.0159178
809.534	0.0157932
809.612	0.0158508
809.690	0.0159661
809.768	0.0158607
809.846	0.0159400
809.924	0.0159468
810.003	0.0160631
810.081	0.0161204
810.159	0.0161477
810.237	0.0161876
810.315	0.0161994
810.393	0.0160629
810.471	0.0160733
810.549	0.0161588
810.628	0.0161484
810.706	0.0161199
810.784	0.0160526
810.862	0.0159785
810.940	0.0160377
811.018	0.0161060
811.096	0.0161604
811.174	0.0160666
811.253	0.0161088
811.331	0.0161360
811.409	0.0160677
811.487	0.0160178
811.565	0.0160961
811.643	0.0162524
811.721	0.0161837
811.799	0.0162218
811.878	0.0161678
811.956	0.0162247
812.034	0.0162761
812.112	0.0162190
812.190	0.0161909
812.268	0.0162609
812.346	0.0160647
812.424	0.0161268
812.503	0.0161308
812.581	0.0161015
812.659	0.0160165
812.737	0.0160769
812.815	0.0161418
812.893	0.0159938
812.971	0.0160271
813.049	0.0161227
813.128	0.0160241
813.206	0.0160291
813.284	0.0159328
813.362	0.0160059
813.440	0.0160645
813.518	0.0159665
813.596	0.0158733
813.674	0.0159311
813.753	0.0158826
813.831	0.0159859
813.909	0.0158787
813.987	0.0157345
814.065	0.0157446
814.143	0.0159417
814.221	0.0158493
814.299	0.0156264
814.378	0.0156433
814.456	0.0156372
814.534	0.0155102
814.612	0.0155104
814.690	0.0155348
814.768	0.0153943
814.846	0.0153631
814.924	0.0153838
815.003	0.0154462
815.081	0.0153812
815.159	0.0152948
815.237	0.0153687
815.315	0.0152957
815.393	0.0154778
815.471	0.0155360
815.549	0.0155418
815.628	0.0154375
815.706	0.0156107
815.784	0.0154654
815.862	0.0153962
815.940	0.0155212
816.018	0.0154948
816.096	0.0154482
816.174	0.0155712
816.253	0.0156264
816.331	0.0156510
816.409	0.0156678
816.487	0.0156115
816.565	0.0157465
816.643	0.0157563
816.721	0.0158923
816.799	0.0159509
816.878	0.0158682
816.956	0.0160815
817.034	0.0159534
817.112	0.0159636
817.190	0.0160368
817.268	0.0160979
817.346	0.0161719
817.424	0.0160732
817.503	0.0161549
817.581	0.0161792
817.659	0.0161285
817.737	0.0161658
817.815	0.0162382
817.893	0.0162675
817.971	0.0162621
818.049	0.0163836
818.128	0.0164063
818.206	0.0162549
818.284	0.0162880
818.362	0.0163406
818.440	0.0162560
818.518	0.0162906
818.596	0.0163000
818.674	0.0161784
818.753	0.0163187
818.831	0.0160989
818.909	0.0160660
818.987	0.0160966
819.065	0.0158722
819.143	0.0158893
819.221	0.0159027
819.299	0.0159509
819.378	0.0159052
819.456	0.0157938
819.534	0.0156298
819.612	0.0157003
819.690	0.0156512
819.768	0.0157378
819.846	0.0156417
819.924	0.0156700
820.003	0.0156529
820.081	0.0155688
820.159	0.0155917
820.237	0.0154893
820.315	0.0155933
820.393	0.0156000
820.471	0.0155404
820.549	0.0156980
820.628	0.0157941
820.706	0.0158751
820.784	0.0159170
820.862	0.0159195
820.940	0.0158279
821.018	0.0159013
821.096	0.0160640
821.174	0.0160979
821.253	0.0161266
821.331	0.0161139
821.409	0.0161017
821.487	0.0161780
821.565	0.0160335
821.643	0.0160344
821.721	0.0160163
821.799	0.0159727
821.878	0.0159214
821.956	0.0159534
822.034	0.0159760
822.112	0.0158500
822.190	0.0158891
822.268	0.0159573
822.346	0.0159674
822.424	0.0159940
822.503	0.0159678
822.581	0.0158569
822.659	0.0158587
822.737	0.0157739
822.815	0.0157842
822.893	0.0158957
822.971	0.0157905
823.049	0.0157710
823.128	0.0157051
823.206	0.0157696
823.284	0.0157334
823.362	0.0157373
823.440	0.0156596
823.518	0.0155582
823.596	0.0155117
823.674	0.0156559
823.753	0.0155873
823.831	0.0154680
823.909	0.0153945
823.987	0.0154336
824.065	0.0153944
824.143	0.0155628
824.221	0.0155846
824.299	0.0156275
824.378	0.0155520
824.456	0.0155428
824.534	0.0156251
824.612	0.0157029
824.690	0.0156542
824.768	0.0155415
824.846	0.0156490
824.924	0.0156749
825.003	0.0158507
825.081	0.0157534
825.159	0.0158084
825.237	0.0158073
825.315	0.0156763
825.393	0.0159029
825.471	0.0159541
825.549	0.0157881
825.628	0.0159274
825.706	0.0157996
825.784	0.0158115
825.862	0.0158968
825.940	0.0160313
826.018	0.0161122
826.096	0.0160767
826.174	0.0160957
826.253	0.0161095
826.331	0.0162207
826.409	0.0162050
826.487	0.0161391
826.565	0.0159919
826.643	0.0161481
826.721	0.0161334
826.799	0.0160586
826.878	0.0160442
826.956	0.0162327
827.034	0.0161622
827.112	0.0163372
827.190	0.0162296
827.268	0.0161846
827.346	0.0161871
827.424	0.0162551
827.503	0.0162726
827.581	0.0161681
827.659	0.0162682
827.737	0.0161677
827.815	0.0162849
827.893	0.0163464
827.971	0.0162791
828.049	0.0164537
828.128	0.0162616
828.206	0.0162934
828.284	0.0162979
828.362	0.0162595
828.440	0.0162818
828.518	0.0162823
828.596	0.0162447
828.674	0.0163308
828.753	0.0163770
828.831	0.0163028
828.909	0.0163787
828.987	0.0163889
829.065	0.0163692
829.143	0.0163705
829.221	0.0162875
829.299	0.0163928
829.378	0.0165305
829.456	0.0165397
829.534	0.0164532
829.612	0.0164508
829.690	0.0165932
829.768	0.0166898
829.846	0.0164976
829.924	0.0167240
830.003	0.0166846
830.081	0.0166342
830.159	0.0165612
830.237	0.0167184
830.315	0.0166147
830.393	0.0166861
830.471	0.0167276
830.549	0.0165327
830.628	0.0164496
830.706	0.0166206
830.784	0.0164940
830.862	0.0164594
830.940	0.0164826
831.018	0.0165098
831.096	0.0164478
831.174	0.0165965
831.253	0.0164861
831.331	0.0162990
831.409	0.0163835
831.487	0.0164804
831.565	0.0165246
831.643	0.0164626
831.721	0.0164541
831.799	0.0164190
831.878	0.0163172
831.956	0.0164512
832.034	0.0163898
832.112	0.0162875
832.190	0.0163102
832.268	0.0163863
832.346	0.0164101
832.424	0.0162746
832.503	0.0162078
832.581	0.0161800
832.659	0.0161758
832.737	0.0162554
832.815	0.0160626
832.893	0.0160873
832.971	0.0162777
833.049	0.0162206
833.128	0.0160909
833.206	0.0160848
833.284	0.0160564
833.362	0.0160723
833.440	0.0159912
833.518	0.0159276
833.596	0.0159707
833.674	0.0159194
833.753	0.0159139
833.831	0.0159605
833.909	0.0158399
833.987	0.0158271
834.065	0.0157069
834.143	0.0157180
834.221	0.0156956
834.299	0.0157901
834.378	0.0156334
834.456	0.0157247
834.534	0.0157450
834.612	0.0158015
834.690	0.0156903
834.768	0.0157501
834.846	0.0156371
834.924	0.0156615
835.003	0.0157425
835.081	0.0158371
835.159	0.0156698
835.237	0.0156147
835.315	0.0155920
835.393	0.0157138
835.471	0.0155297
835.549	0.0155256
835.628	0.0155831
835.706	0.0155569
835.784	0.0156160
835.862	0.0156633
835.940	0.0157360
836.018	0.0156494
836.096	0.0158706
836.174	0.0157435
836.253	0.0158881
836.331	0.0157918
836.409	0.0158234
836.487	0.0159437
836.565	0.0158720
836.643	0.0159338
836.721	0.0159969
836.799	0.0159586
836.878	0.0160079
836.956	0.0159358
837.034	0.0160812
837.112	0.0160633
837.190	0.0159476
837.268	0.0160299
837.346	0.0160124
837.424	0.0160199
837.503	0.0159940
837.581	0.0160660
837.659	0.0158014
837.737	0.0159659
837.815	0.0159771
837.893	0.0159743
837.971	0.0158064
838.049	0.0157919
838.128	0.0159175
838.206	0.0158774
838.284	0.0158144
838.362	0.0159124
838.440	0.0157607
838.518	0.0158311
838.596	0.0159002
838.674	0.0158132
838.753	0.0160414
838.831	0.0158888
838.909	0.0158552
838.987	0.0157964
839.065	0.0158137
839.143	0.0158322
839.221	0.0157948
839.299	0.0157076
839.378	0.0157013
839.456	0.0155997
839.534	0.0155959
839.612	0.0155283
839.690	0.0154006
839.768	0.0153986
839.846	0.0152317
839.924	0.0152030
840.003	0.0152348
840.081	0.0152519
840.159	0.0151218
840.237	0.0151677
840.315	0.0153091
840.393	0.0153495
840.471	0.0152827
840.549	0.0154121
840.628	0.0154030
840.706	0.0153967
840.784	0.0154400
840.862	0.0157381
840.940	0.0158835
841.018	0.0159645
841.096	0.0160081
841.174	0.0159794
841.253	0.0161230
841.331	0.0162514
841.409	0.0163623
841.487	0.0164355
841.565	0.0166376
841.643	0.0165218
841.721	0.0167165
841.799	0.0166830
841.878	0.0166919
841.956	0.0169335
842.034	0.0168779
842.112	0.0167831
842.190	0.0167943
842.268	0.0169103
842.346	0.0168098
842.424	0.0168605
842.503	0.0169134
842.581	0.0168040
842.659	0.0168172
842.737	0.0167393
842.815	0.0167922
842.893	0.0167316
842.971	0.0166576
843.049	0.0165811
843.128	0.0164867
843.206	0.0165460
843.284	0.0165219
843.362	0.0163223
843.440	0.0163091
843.518	0.0162216
843.596	0.0162192
843.674	0.0161986
843.753	0.0162755
843.831	0.0161839
843.909	0.0160903
843.987	0.0161380
844.065	0.0161649
844.143	0.0161469
844.221	0.0161382
844.299	0.0159113
844.378	0.0160227
844.456	0.0159678
844.534	0.0160493
844.612	0.0160429
844.690	0.0160851
844.768	0.0160528
844.846	0.0159688
844.924	0.0160155
845.003	0.0159487
845.081	0.0159511
845.159	0.0158416
845.237	0.0158354
845.315	0.0159096
845.393	0.0159535
845.471	0.0159565
845.549	0.0158767
845.628	0.0158729
845.706	0.0159534
845.784	0.0160410
845.862	0.0160305
845.940	0.0160012
846.018	0.0160705
846.096	0.0160062
846.174	0.0161661
846.253	0.0161779
846.331	0.0161160
846.409	0.0161520
846.487	0.0162405
846.565	0.0161295
846.643	0.0162113
846.721	0.0161778
846.799	0.0160239
846.878	0.0160770
846.956	0.0160672
847.034	0.0159901
847.112	0.0160252
847.190	0.0158520
847.268	0.0159798
847.346	0.0159972
847.424	0.0158204
847.503	0.0156992
847.581	0.0156870
847.659	0.0157564
847.737	0.0156959
847.815	0.0157251
847.893	0.0156543
847.971	0.0155584
848.049	0.0156089
848.128	0.0156254
848.206	0.0156246
848.284	0.0156065
848.362	0.0158615
848.440	0.0157589
848.518	0.0156535
848.596	0.0159035
848.674	0.0159019
848.753	0.0160226
848.831	0.0161201
848.909	0.0160191
848.987	0.0159899
849.065	0.0161237
849.143	0.0160954
849.221	0.0160860
849.299	0.0159313
849.378	0.0159896
849.456	0.0160871
849.534	0.0158591
849.612	0.0160459
849.690	0.0158715
849.768	0.0158453
849.846	0.0157912
849.924	0.0159855
850.003	0.0158492
850.081	0.0158338
850.159	0.0159460
850.237	0.0160400
850.315	0.0159193
850.393	0.0160412
850.471	0.0160901
850.549	0.0161677
850.628	0.0160607
850.706	0.0161582
850.784	0.0159817
850.862	0.0161661
850.940	0.0161271
851.018	0.0159686
851.096	0.0161050
851.174	0.0160959
851.253	0.0160467
851.331	0.0160465
851.409	0.0159884
851.487	0.0159392
851.565	0.0161259
851.643	0.0160941
851.721	0.0160346
851.799	0.0160391
851.878	0.0160729
851.956	0.0161282
852.034	0.0159598
852.112	0.0161888
852.190	0.0160706
852.268	0.0158064
852.346	0.0160863
852.424	0.0161254
852.503	0.0161118
852.581	0.0161375
852.659	0.0163150
852.737	0.0161940
852.815	0.0162698
852.893	0.0163087
852.971	0.0162127
853.049	0.0162122
853.128	0.0162099
853.206	0.0160675
853.284	0.0160981
853.362	0.0160475
853.440	0.0160703
853.518	0.0160435
853.596	0.0160004
853.674	0.0160287
853.753	0.0159554
853.831	0.0159016
853.909	0.0159343
853.987	0.0159937
854.065	0.0160230
854.143	0.0158680
854.221	0.0159858
854.299	0.0158900
854.378	0.0158532
854.456	0.0159805
854.534	0.0159106
854.612	0.0159669
854.690	0.0160731
854.768	0.0160733
854.846	0.0160390
854.924	0.0160759
855.003	0.0161031
855.081	0.0161522
855.159	0.0162004
855.237	0.0162509
855.315	0.0162833
855.393	0.0163093
855.471	0.0162467
855.549	0.0163240
855.628	0.0162709
855.706	0.0162632
855.784	0.0162685
855.862	0.0163985
855.940	0.0164146
856.018	0.0162944
856.096	0.0163856
856.174	0.0163937
856.253	0.0165877
856.331	0.0164217
856.409	0.0163272
856.487	0.0164976
856.565	0.0162671
856.643	0.0163895
856.721	0.0163043
856.799	0.0163631
856.878	0.0163419
856.956	0.0164188
857.034	0.0161273
857.112	0.0161702
857.190	0.0161903
857.268	0.0160590
857.346	0.0159835
857.424	0.0161922
857.503	0.0160941
857.581	0.0160815
857.659	0.0160706
857.737	0.0160416
857.815	0.0158947
857.893	0.0159824
857.971	0.0158812
858.049	0.0158804
858.128	0.0159148
858.206	0.0158284
858.284	0.0157860
858.362	0.0157403
858.440	0.0156667
858.518	0.0157978
858.596	0.0160731
858.674	0.0158369
858.753	0.0157617
858.831	0.0158263
858.909	0.0157648
858.987	0.0157764
859.065	0.0157101
859.143	0.0155558
859.221	0.0155112
859.299	0.0156544
859.378	0.0155563
859.456	0.0153793
859.534	0.0154619
859.612	0.0156055
859.690	0.0155264
859.768	0.0155634
859.846	0.0157162
859.924	0.0156239
860.003	0.0158101
860.081	0.0158315
860.159	0.0157950
860.237	0.0159079
860.315	0.0160514
860.393	0.0160018
860.471	0.0160246
860.549	0.0159862
860.628	0.0161707
860.706	0.0162128
860.784	0.0162238
860.862	0.0163920
860.940	0.0163830
861.018	0.0163422
861.096	0.0162967
861.174	0.0165395
861.253	0.0164548
861.331	0.0163406
861.409	0.0163528
861.487	0.0163677
861.565	0.0164030
861.643	0.0163957
861.721	0.0163548
861.799	0.0162037
861.878	0.0162520
861.956	0.0161102
862.034	0.0160742
862.112	0.0162337
862.190	0.0161932
862.268	0.0161229
862.346	0.0161988
862.424	0.0161010
862.503	0.0159702
862.581	0.0160958
862.659	0.0161202
862.737	0.0161265
862.815	0.0162039
862.893	0.0159335
862.971	0.0160206
863.049	0.0160349
863.128	0.0161102
863.206	0.0159808
863.284	0.0159305
863.362	0.0157484
863.440	0.0159628
863.518	0.0158065
863.596	0.0157518
863.674	0.0155968
863.753	0.0157789
863.831	0.0156093
863.909	0.0155193
863.987	0.0155276
864.065	0.0155645
864.143	0.0155261
864.221	0.0155097
864.299	0.0154788
864.378	0.0154211
864.456	0.0154147
864.534	0.0153857
864.612	0.0152303
864.690	0.0153031
864.768	0.0151952
864.846	0.0151833
864.924	0.0150596
865.003	0.0150985
865.081	0.0151938
865.159	0.0150569
865.237	0.0151929
865.315	0.0151632
865.393	0.0151978
865.471	0.0152329
865.549	0.0154049
865.628	0.0152953
865.706	0.0153376
865.784	0.0154170
865.862	0.0153722
865.940	0.0154461
866.018	0.0155386
866.096	0.0156020
866.174	0.0156647
866.253	0.0155803
866.331	0.0156010
866.409	0.0156526
866.487	0.0157024
866.565	0.0156431
866.643	0.0157897
866.721	0.0159504
866.799	0.0158464
866.878	0.0157771
866.956	0.0158974
867.034	0.0159277
867.112	0.0161474
867.190	0.0161878
867.268	0.0158929
867.346	0.0159877
867.424	0.0160169
867.503	0.0161365
867.581	0.0160937
867.659	0.0160830
867.737	0.0160036
867.815	0.0160987
867.893	0.0159361
867.971	0.0159548
868.049	0.0160050
868.128	0.0159570
868.206	0.0160625
868.284	0.0160625
868.362	0.0159859
868.440	0.0160645
868.518	0.0161768
868.596	0.0162482
868.674	0.0162312
868.753	0.0164627
868.831	0.0164890
868.909	0.0163940
868.987	0.0165584
869.065	0.0168412
869.143	0.0167889
869.221	0.0171097
869.299	0.0170551
869.378	0.0172929
869.456	0.0172867
869.534	0.0173872
869.612	0.0175012
869.690	0.0175723
869.768	0.0175574
869.846	0.0176466
869.924	0.0178748
870.003	0.0178455
870.081	0.0176817
870.159	0.0178577
870.237	0.0178767
870.315	0.0179366
870.393	0.0178137
870.471	0.0177730
870.549	0.0176713
870.628	0.0176215
870.706	0.0174909
870.784	0.0175397
870.862	0.0172482
870.940	0.0171525
871.018	0.0171844
871.096	0.0170522
871.174	0.0168638
871.253	0.0167558
871.331	0.0167656
871.409	0.0165516
871.487	0.0165086
871.565	0.0163956
871.643	0.0162935
871.721	0.0161810
871.799	0.0161557
871.878	0.0160748
871.956	0.0159150
872.034	0.0159850
872.112	0.0160242
872.190	0.0159165
872.268	0.0158125
872.346	0.0158113
872.424	0.0157169
872.503	0.0155936
872.581	0.0155397
872.659	0.0154245
872.737	0.0153110
872.815	0.0153117
872.893	0.0151495
872.971	0.0152430
873.049	0.0151662
873.128	0.0150751
873.206	0.0151884
873.284	0.0150188
873.362	0.0148922
873.440	0.0149962
873.518	0.0151175
873.596	0.0149834
873.674	0.0148311
873.753	0.0148474
873.831	0.0147578
873.909	0.0147208
873.987	0.0147351
874.065	0.0146339
874.143	0.0147328
874.221	0.0148750
874.299	0.0146346
874.378	0.0148185
874.456	0.0147653
874.534	0.0148051
874.612	0.0148352
874.690	0.0149133
874.768	0.0149423
874.846	0.0150092
874.924	0.0149531
875.003	0.0150329
875.081	0.0150491
875.159	0.0152407
875.237	0.0151188
875.315	0.0151888
875.393	0.0152303
875.471	0.0151937
875.549	0.0152680
875.628	0.0152268
875.706	0.0154405
875.784	0.0154552
875.862	0.0154424
875.940	0.0156868
876.018	0.0155975
876.096	0.0155569
876.174	0.0156052
876.253	0.0157058
876.331	0.0157230
876.409	0.0157600
876.487	0.0158430
876.565	0.0159888
876.643	0.0160304
876.721	0.0158498
876.799	0.0158633
876.878	0.0160587
876.956	0.0160433
877.034	0.0158745
877.112	0.0159000
877.190	0.0159349
877.268	0.0160946
877.346	0.0159525
877.424	0.0160165
877.503	0.0159708
877.581	0.0159331
877.659	0.0160168
877.737	0.0159135
877.815	0.0160282
877.893	0.0160262
877.971	0.0160751
878.049	0.0161015
878.128	0.0160152
878.206	0.0161134
878.284	0.0160657
878.362	0.0160762
878.440	0.0161304
878.518	0.0162419
878.596	0.0162548
878.674	0.0162904
878.753	0.0163233
878.831	0.0163874
878.909	0.0163421
878.987	0.0162834
879.065	0.0163226
879.143	0.0162200
879.221	0.0163242
879.299	0.0163876
879.378	0.0164062
879.456	0.0164483
879.534	0.0162008
879.612	0.0163337
879.690	0.0162270
879.768	0.0162450
879.846	0.0163316
879.924	0.0163103
880.003	0.0162373
880.081	0.0164394
880.159	0.0163779
880.237	0.0162021
880.315	0.0164080
880.393	0.0163934
880.471	0.0162352
880.549	0.0161334
880.628	0.0163126
880.706	0.0162411
880.784	0.0163572
880.862	0.0163531
880.940	0.0163052
881.018	0.0162782
881.096	0.0163046
881.174	0.0162452
881.253	0.0163023
881.331	0.0162597
881.409	0.0163856
881.487	0.0163251
881.565	0.0163351
881.643	0.0162759
881.721	0.0163374
881.799	0.0161704
881.878	0.0162832
881.956	0.0162349
882.034	0.0161950
882.112	0.0162020
882.190	0.0159352
882.268	0.0160081
882.346	0.0160250
882.424	0.0158760
882.503	0.0159669
882.581	0.0160310
882.659	0.0158372
882.737	0.0157796
882.815	0.0158819
882.893	0.0158881
882.971	0.0157073
883.049	0.0156704
883.128	0.0157931
883.206	0.0156917
883.284	0.0156382
883.362	0.0157173
883.440	0.0157160
883.518	0.0156034
883.596	0.0154559
883.674	0.0156364
883.753	0.0156688
883.831	0.0156241
883.909	0.0156981
883.987	0.0156893
884.065	0.0156193
884.143	0.0156914
884.221	0.0157705
884.299	0.0156714
884.378	0.0158022
884.456	0.0158012
884.534	0.0158080
884.612	0.0158871
884.690	0.0157435
884.768	0.0158245
884.846	0.0156361
884.924	0.0157763
885.003	0.0157664
885.081	0.0158183
885.159	0.0156944
885.237	0.0158346
885.315	0.0159216
885.393	0.0160146
885.471	0.0160384
885.549	0.0160553
885.628	0.0161037
885.706	0.0162766
885.784	0.0162404
885.862	0.0162016
885.940	0.0162980
886.018	0.0162698
886.096	0.0163422
886.174	0.0163705
886.253	0.0164278
886.331	0.0164086
886.409	0.0162408
886.487	0.0164137
886.565	0.0164314
886.643	0.0164027
886.721	0.0163797
886.799	0.0163730
886.878	0.0164728
886.956	0.0162423
887.034	0.0161987
887.112	0.0161879
887.190	0.0162795
887.268	0.0162125
887.346	0.0161351
887.424	0.0161873
887.503	0.0161797
887.581	0.0159866
887.659	0.0159942
887.737	0.0160725
887.815	0.0160455
887.893	0.0159689
887.971	0.0157859
888.049	0.0158941
888.128	0.0158450
888.206	0.0158434
888.284	0.0156597
888.362	0.0155995
888.440	0.0156133
888.518	0.0156665
888.596	0.0156388
888.674	0.0156368
888.753	0.0156866
888.831	0.0157954
888.909	0.0158204
888.987	0.0159378
889.065	0.0156807
889.143	0.0158676
889.221	0.0157207
889.299	0.0157391
889.378	0.0157657
889.456	0.0158027
889.534	0.0157970
889.612	0.0159244
889.690	0.0157863
889.768	0.0157198
889.846	0.0157331
889.924	0.0159528
890.003	0.0158767
890.081	0.0160133
890.159	0.0159174
890.237	0.0159090
890.315	0.0159855
890.393	0.0159769
890.471	0.0159488
890.549	0.0159821
890.628	0.0158634
890.706	0.0159959
890.784	0.0159472
890.862	0.0160596
890.940	0.0158710
891.018	0.0159946
891.096	0.0158937
891.174	0.0159927
891.253	0.0158472
891.331	0.0157645
891.409	0.0159116
891.487	0.0158226
891.565	0.0159193
891.643	0.0160635
891.721	0.0159814
891.799	0.0159681
891.878	0.0160595
891.956	0.0160307
892.034	0.0161717
892.112	0.0161000
892.190	0.0162072
892.268	0.0161071
892.346	0.0162054
892.424	0.0163190
892.503	0.0161069
892.581	0.0160987
892.659	0.0163116
892.737	0.0162484
892.815	0.0163207
892.893	0.0160543
892.971	0.0161507
893.049	0.0162438
893.128	0.0163952
893.206	0.0162758
893.284	0.0161795
893.362	0.0162269
893.440	0.0160254
893.518	0.0161584
893.596	0.0162157
893.674	0.0160826
893.753	0.0162034
893.831	0.0162003
893.909	0.0163246
893.987	0.0163397
894.065	0.0162724
894.143	0.0162823
894.221	0.0164950
894.299	0.0165169
894.378	0.0164316
894.456	0.0165002
894.534	0.0165247
894.612	0.0165821
894.690	0.0164702
894.768	0.0164699
894.846	0.0166894
894.924	0.0167230
895.003	0.0167222
895.081	0.0166960
895.159	0.0167130
895.237	0.0166545
895.315	0.0166034
895.393	0.0167216
895.471	0.0166080
895.549	0.0166621
895.628	0.0166043
895.706	0.0164054
895.784	0.0165032
895.862	0.0163453
895.940	0.0163631
896.018	0.0162169
896.096	0.0161951
896.174	0.0160777
896.253	0.0160552
896.331	0.0159741
896.409	0.0159330
896.487	0.0158730
896.565	0.0157562
896.643	0.0156329
896.721	0.0154972
896.799	0.0156829
896.878	0.0156180
896.956	0.0155108
897.034	0.0154796
897.112	0.0155227
897.190	0.0154050
897.268	0.0154368
897.346	0.0153562
897.424	0.0152803
897.503	0.0151306
897.581	0.0152085
897.659	0.0150910
897.737	0.0150344
897.815	0.0151783
897.893	0.0151730
897.971	0.0150430
898.049	0.0150179
898.128	0.0148645
898.206	0.0150849
898.284	0.0151160
898.362	0.0150491
898.440	0.0150727
898.518	0.0151642
898.596	0.0151373
898.674	0.0150758
898.753	0.0150580
898.831	0.0150615
898.909	0.0151982
898.987	0.0151157
899.065	0.0150561
899.143	0.0152126
899.221	0.0152780
899.299	0.0152514
899.378	0.0152033
899.456	0.0152729
899.534	0.0153710
899.612	0.0153869
899.690	0.0152901
899.768	0.0153168
899.846	0.0154098
899.924	0.0153453
900.003	0.0154543
900.081	0.0155507
900.159	0.0155112
900.237	0.0156880
900.315	0.0155917
900.393	0.0156647
900.471	0.0156947
900.549	0.0158266
900.628	0.0159158
900.706	0.0157442
900.784	0.0157385
900.862	0.0159062
900.940	0.0158318
901.018	0.0158747
901.096	0.0158655
901.174	0.0157445
901.253	0.0157874
901.331	0.0159245
901.409	0.0159177
901.487	0.0158643
901.565	0.0158973
901.643	0.0160284
901.721	0.0158403
901.799	0.0160935
901.878	0.0160616
901.956	0.0160836
902.034	0.0160105
902.112	0.0160671
902.190	0.0159396
902.268	0.0158923
902.346	0.0159563
902.424	0.0158875
902.503	0.0157994
902.581	0.0159929
902.659	0.0158406
902.737	0.0159917
902.815	0.0158200
902.893	0.0160713
902.971	0.0160786
903.049	0.0159797
903.128	0.0160931
903.206	0.0161295
903.284	0.0161909
903.362	0.0162203
903.440	0.0162903
903.518	0.0164371
903.596	0.0164187
903.674	0.0164304
903.753	0.0165521
903.831	0.0164575
903.909	0.0165425
903.987	0.0164138
904.065	0.0165348
904.143	0.0166012
904.221	0.0166016
904.299	0.0165604
904.378	0.0166664
904.456	0.0164949
904.534	0.0165868
904.612	0.0165949
904.690	0.0164092
904.768	0.0164771
904.846	0.0163667
904.924	0.0162259
905.003	0.0163707
905.081	0.0163023
905.159	0.0162552
905.237	0.0160988
905.315	0.0160107
905.393	0.0161680
905.471	0.0160094
905.549	0.0159360
905.628	0.0159261
905.706	0.0159839
905.784	0.0158221
905.862	0.0159374
905.940	0.0159062
906.018	0.0158753
906.096	0.0159301
906.174	0.0159889
906.253	0.0160098
906.331	0.0159261
906.409	0.0159657
906.487	0.0159577
906.565	0.0159715
906.643	0.0159344
906.721	0.0159990
906.799	0.0160580
906.878	0.0159618
906.956	0.0158869
907.034	0.0158657
907.112	0.0159639
907.190	0.0159448
907.268	0.0158064
907.346	0.0157159
907.424	0.0157733
907.503	0.0157452
907.581	0.0156870
907.659	0.0156163
907.737	0.0154997
907.815	0.0155857
907.893	0.0156652
907.971	0.0156259
908.049	0.0157648
908.128	0.0157336
908.206	0.0157343
908.284	0.0159093
908.362	0.0158157
908.440	0.0157923
908.518	0.0157668
908.596	0.0159682
908.674	0.0157699
908.753	0.0157754
908.831	0.0159695
908.909	0.0159231
908.987	0.0159777
909.065	0.0160651
909.143	0.0160491
909.221	0.0161111
909.299	0.0158379
909.378	0.0160022
909.456	0.0161496
909.534	0.0161387
909.612	0.0161195
909.690	0.0159721
909.768	0.0161032
909.846	0.0162215
909.924	0.0162525
910.003	0.0160883
910.081	0.0161224
910.159	0.0162902
910.237	0.0161385
910.315	0.0160511
910.393	0.0162243
910.471	0.0160973
910.549	0.0160837
910.628	0.0160330
910.706	0.0161534
910.784	0.0162167
910.862	0.0162270
910.940	0.0162669
911.018	0.0161581
911.096	0.0162247
911.174	0.0163621
911.253	0.0162415
911.331	0.0162553
911.409	0.0161370
911.487	0.0161841
911.565	0.0160983
911.643	0.0161076
911.721	0.0162627
911.799	0.0160398
911.878	0.0159210
911.956	0.0160055
912.034	0.0160481
912.112	0.0159838
912.190	0.0159988
912.268	0.0159902
912.346	0.0159250
912.424	0.0159466
912.503	0.0159220
912.581	0.0160168
912.659	0.0159750
912.737	0.0160402
912.815	0.0158112
912.893	0.0158832
912.971	0.0157645
913.049	0.0157817
913.128	0.0157400
913.206	0.0155724
913.284	0.0155906
913.362	0.0155579
913.440	0.0156770
913.518	0.0155087
913.596	0.0153631
913.674	0.0155517
913.753	0.0156988
913.831	0.0155515
913.909	0.0156731
913.987	0.0157400
914.065	0.0157748
914.143	0.0157101
914.221	0.0158738
914.299	0.0160094
914.378	0.0160682
914.456	0.0160189
914.534	0.0160143
914.612	0.0160635
914.690	0.0160835
914.768	0.0161700
914.846	0.0161874
914.924	0.0161599
915.003	0.0160887
915.081	0.0161826
915.159	0.0162157
915.237	0.0161044
915.315	0.0160336
915.393	0.0159976
915.471	0.0162835
915.549	0.0162575
915.628	0.0161607
915.706	0.0161002
915.784	0.0161305
915.862	0.0161722
915.940	0.0161576
916.018	0.0161137
916.096	0.0162424
916.174	0.0161829
916.253	0.0160729
916.331	0.0161626
916.409	0.0161337
916.487	0.0162189
916.565	0.0162968
916.643	0.0160401
916.721	0.0159801
916.799	0.0160474
916.878	0.0160682
916.956	0.0158226
917.034	0.0158455
917.112	0.0158126
917.190	0.0156579
917.268	0.0156959
917.346	0.0157536
917.424	0.0157205
917.503	0.0158485
917.581	0.0155736
917.659	0.0158231
917.737	0.0158649
917.815	0.0158015
917.893	0.0156770
917.971	0.0156844
918.049	0.0156181
918.128	0.0156747
918.206	0.0158124
918.284	0.0156956
918.362	0.0157954
918.440	0.0156179
918.518	0.0156931
918.596	0.0156173
918.674	0.0156264
918.753	0.0155050
918.831	0.0155687
918.909	0.0155417
918.987	0.0154937
919.065	0.0156435
919.143	0.0154431
919.221	0.0154308
919.299	0.0154885
919.378	0.0154824
919.456	0.0153816
919.534	0.0152954
919.612	0.0153652
919.690	0.0152505
919.768	0.0153223
919.846	0.0152821
919.924	0.0152285
920.003	0.0153169
920.081	0.0155103
920.159	0.0154539
920.237	0.0154615
920.315	0.0154891
920.393	0.0156470
920.471	0.0156479
920.549	0.0155511
920.628	0.0156992
920.706	0.0157169
920.784	0.0158016
920.862	0.0159339
920.940	0.0159656
921.018	0.0162624
921.096	0.0160771
921.174	0.0162068
921.253	0.0162447
921.331	0.0162957
921.409	0.0164025
921.487	0.0163629
921.565	0.0164442
921.643	0.0164833
921.721	0.0163513
921.799	0.0163641
921.878	0.0165327
921.956	0.0165792
922.034	0.0165305
922.112	0.0166071
922.190	0.0165656
922.268	0.0165700
922.346	0.0167720
922.424	0.0166400
922.503	0.0167754
922.581	0.0167332
922.659	0.0166268
922.737	0.0166386
922.815	0.0167250
922.893	0.0166338
922.971	0.0165165
923.049	0.0165642
923.128	0.0166145
923.206	0.0164513
923.284	0.0164969
923.362	0.0165426
923.440	0.0164833
923.518	0.0165471
923.596	0.0163986
923.674	0.0164140
923.753	0.0163541
923.831	0.0163905
923.909	0.0163988
923.987	0.0161646
924.065	0.0160719
924.143	0.0162707
924.221	0.0161677
924.299	0.0162354
924.378	0.0160905
924.456	0.0159875
924.534	0.0159122
924.612	0.0159145
924.690	0.0158932
924.768	0.0159000
924.846	0.0157817
924.924	0.0158628
925.003	0.0157349
925.081	0.0158094
925.159	0.0156519
925.237	0.0156799
925.315	0.0156696
925.393	0.0157280
925.471	0.0157567
925.549	0.0156602
925.628	0.0156831
925.706	0.0157445
925.784	0.0157397
925.862	0.0155736
925.940	0.0159106
926.018	0.0158102
926.096	0.0156861
926.174	0.0157082
926.253	0.0157165
926.331	0.0156934
926.409	0.0156688
926.487	0.0157059
926.565	0.0156560
926.643	0.0155727
926.721	0.0157623
926.799	0.0156989
926.878	0.0157775
926.956	0.0158162
927.034	0.0158968
927.112	0.0158839
927.190	0.0159573
927.268	0.0160374
927.346	0.0160610
927.424	0.0160355
927.503	0.0161278
927.581	0.0160302
927.659	0.0160548
927.737	0.0159927
927.815	0.0163613
927.893	0.0161036
927.971	0.0161246
928.049	0.0160317
928.128	0.0160220
928.206	0.0160180
928.284	0.0160027
928.362	0.0158837
928.440	0.0159591
928.518	0.0160809
928.596	0.0158250
928.674	0.0159129
928.753	0.0160399
928.831	0.0159608
928.909	0.0159584
928.987	0.0159830
929.065	0.0161913
929.143	0.0160542
929.221	0.0162109
929.299	0.0161304
929.378	0.0160564
929.456	0.0160284
929.534	0.0162125
929.612	0.0162792
929.690	0.0162506
929.768	0.0162237
929.846	0.0162298
929.924	0.0161221
930.003	0.0162413
930.081	0.0163884
930.159	0.0161427
930.237	0.0161852
930.315	0.0161040
930.393	0.0160317
930.471	0.0160681
930.549	0.0161236
930.628	0.0160945
930.706	0.0160425
930.784	0.0160755
930.862	0.0162432
930.940	0.0162157
931.018	0.0161081
931.096	0.0160510
931.174	0.0162638
931.253	0.0161736
931.331	0.0160942
931.409	0.0161846
931.487	0.0162197
931.565	0.0162801
931.643	0.0163312
931.721	0.0161495
931.799	0.0161018
931.878	0.0161990
931.956	0.0160024
932.034	0.0160239
932.112	0.0161752
932.190	0.0161680
932.268	0.0161073
932.346	0.0159991
932.424	0.0159329
932.503	0.0159475
932.581	0.0159253
932.659	0.0159689
932.737	0.0159356
932.815	0.0160254
932.893	0.0157644
932.971	0.0159617
933.049	0.0158846
933.128	0.0157249
933.206	0.0157530
933.284	0.0157182
933.362	0.0158509
933.440	0.0158552
933.518	0.0159355
933.596	0.0159588
933.674	0.0158927
933.753	0.0157478
933.831	0.0159221
933.909	0.0158495
933.987	0.0157248
934.065	0.0158037
934.143	0.0158517
934.221	0.0157241
934.299	0.0156808
934.378	0.0157804
934.456	0.0157455
934.534	0.0157056
934.612	0.0156794
934.690	0.0158247
934.768	0.0159062
934.846	0.0158248
934.924	0.0156241
935.003	0.0158474
935.081	0.0158419
935.159	0.0159863
935.237	0.0158792
935.315	0.0159071
935.393	0.0160780
935.471	0.0158749
935.549	0.0159700
935.628	0.0158941
935.706	0.0159018
935.784	0.0159354
935.862	0.0159187
935.940	0.0161076
936.018	0.0159640
936.096	0.0159251
936.174	0.0160711
936.253	0.0161116
936.331	0.0159988
936.409	0.0160305
936.487	0.0159969
936.565	0.0159672
936.643	0.0160255
936.721	0.0160086
936.799	0.0159691
936.878	0.0158931
936.956	0.0160171
937.034	0.0160570
937.112	0.0160587
937.190	0.0159295
937.268	0.0160553
937.346	0.0159972
937.424	0.0160531
937.503	0.0161381
937.581	0.0161115
937.659	0.0162840
937.737	0.0163023
937.815	0.0162471
937.893	0.0162973
937.971	0.0163577
938.049	0.0162218
938.128	0.0162695
938.206	0.0164034
938.284	0.0161955
938.362	0.0162842
938.440	0.0162520
938.518	0.0161624
938.596	0.0162717
938.674	0.0162646
938.753	0.0162183
938.831	0.0161533
938.909	0.0160754
938.987	0.0160079
939.065	0.0160577
939.143	0.0159379
939.221	0.0159626
939.299	0.0160036
939.378	0.0159547
939.456	0.0159222
939.534	0.0160114
939.612	0.0160771
939.690	0.0160638
939.768	0.0158984
939.846	0.0161016
939.924	0.0161276
940.003	0.0160473
940.081	0.0158517
940.159	0.0158867
940.237	0.0159609
940.315	0.0157439
940.393	0.0157070
940.471	0.0157718
940.549	0.0155598
940.628	0.0156223
940.706	0.0155776
940.784	0.0155379
940.862	0.0156101
940.940	0.0154021
941.018	0.0153304
941.096	0.0155714
941.174	0.0156734
941.253	0.0155654
941.331	0.0153930
941.409	0.0155486
941.487	0.0155917
941.565	0.0156432
941.643	0.0156628
941.721	0.0157008
941.799	0.0157143
941.878	0.0156409
941.956	0.0156886
942.034	0.0156916
942.112	0.0156233
942.190	0.0157452
942.268	0.0157767
942.346	0.0157312
942.424	0.0157597
942.503	0.0157516
942.581	0.0156208
942.659	0.0156760
942.737	0.0157874
942.815	0.0158032
942.893	0.0157539
942.971	0.0158139
943.049	0.0159040
943.128	0.0158076
943.206	0.0158419
943.284	0.0158731
943.362	0.0157487
943.440	0.0157146
943.518	0.0157207
943.596	0.0156901
943.674	0.0157224
943.753	0.0155202
943.831	0.0156313
943.909	0.0155607
943.987	0.0157103
944.065	0.0156180
944.143	0.0155266
944.221	0.0157627
944.299	0.0157485
944.378	0.0155959
944.456	0.0156126
944.534	0.0156120
944.612	0.0155762
944.690	0.0155371
944.768	0.0156323
944.846	0.0156451
944.924	0.0156699
945.003	0.0157629
945.081	0.0156276
945.159	0.0156976
945.237	0.0156509
945.315	0.0157797
945.393	0.0158006
945.471	0.0158399
945.549	0.0159757
945.628	0.0158865
945.706	0.0159966
945.784	0.0160879
945.862	0.0161614
945.940	0.0161829
946.018	0.0161861
946.096	0.0163262
946.174	0.0164212
946.253	0.0161714
946.331	0.0163255
946.409	0.0163721
946.487	0.0163898
946.565	0.0162302
946.643	0.0164165
946.721	0.0163515
946.799	0.0162504
946.878	0.0163889
946.956	0.0162927
947.034	0.0163488
947.112	0.0163654
947.190	0.0162809
947.268	0.0161977
947.346	0.0160940
947.424	0.0162347
947.503	0.0163577
947.581	0.0162454
947.659	0.0162370
947.737	0.0162889
947.815	0.0162027
947.893	0.0162070
947.971	0.0161456
948.049	0.0162092
948.128	0.0162308
948.206	0.0161118
948.284	0.0160738
948.362	0.0160525
948.440	0.0159529
948.518	0.0159723
948.596	0.0160063
948.674	0.0159485
948.753	0.0159313
948.831	0.0159795
948.909	0.0160189
948.987	0.0161112
949.065	0.0160897
949.143	0.0159995
949.221	0.0160878
949.299	0.0162955
949.378	0.0162939
949.456	0.0162545
949.534	0.0163923
949.612	0.0164874
949.690	0.0164186
949.768	0.0164408
949.846	0.0164352
949.924	0.0164407
