06/29/2022	22:40:44	Ver.	4.1	UNKNOWN
Optical Delay	630.002507	Delta X		0.078125	Sweeps	1	Scan Rate	0/0
Coordinates	Axis 1	NaN	Axis 2	NaN	Axis 3	NaN	Axis 4	NaN	Axis 5	NaN	Axis 6	0.000000
TX Power	0.000000	RX Power	0.000000

630.003	0.0165771
630.081	0.0164864
630.159	0.0166163
630.237	0.0165884
630.315	0.0164574
630.393	0.0165434
630.471	0.0165706
630.549	0.0166110
630.628	0.0165482
630.706	0.0165147
630.784	0.0166363
630.862	0.0164912
630.940	0.0166676
631.018	0.0164524
631.096	0.0165031
631.174	0.0166048
631.253	0.0166684
631.331	0.0165086
631.409	0.0165042
631.487	0.0166693
631.565	0.0165206
631.643	0.0165977
631.721	0.0165602
631.799	0.0165920
631.878	0.0166166
631.956	0.0164532
632.034	0.0166184
632.112	0.0166899
632.190	0.0165561
632.268	0.0165355
632.346	0.0165143
632.424	0.0166288
632.503	0.0166724
632.581	0.0165945
632.659	0.0165762
632.737	0.0166606
632.815	0.0165565
632.893	0.0166215
632.971	0.0165786
633.049	0.0165390
633.128	0.0166926
633.206	0.0165440
633.284	0.0165433
633.362	0.0164222
633.440	0.0166728
633.518	0.0165663
633.596	0.0165766
633.674	0.0166817
633.753	0.0166259
633.831	0.0166095
633.909	0.0163879
633.987	0.0164695
634.065	0.0166049
634.143	0.0165781
634.221	0.0166526
634.299	0.0164903
634.378	0.0165544
634.456	0.0166008
634.534	0.0165353
634.612	0.0166210
634.690	0.0166428
634.768	0.0164199
634.846	0.0164743
634.924	0.0164938
635.003	0.0165636
635.081	0.0164621
635.159	0.0165800
635.237	0.0165282
635.315	0.0164648
635.393	0.0165703
635.471	0.0165721
635.549	0.0165690
635.628	0.0165791
635.706	0.0166637
635.784	0.0166061
635.862	0.0165237
635.940	0.0165782
636.018	0.0165729
636.096	0.0166387
636.174	0.0167333
636.253	0.0165964
636.331	0.0165907
636.409	0.0165072
636.487	0.0164520
636.565	0.0166653
636.643	0.0166607
636.721	0.0165214
636.799	0.0164997
636.878	0.0165150
636.956	0.0165874
637.034	0.0167033
637.112	0.0165233
637.190	0.0165744
637.268	0.0165525
637.346	0.0166260
637.424	0.0166050
637.503	0.0166029
637.581	0.0166411
637.659	0.0165862
637.737	0.0165182
637.815	0.0165398
637.893	0.0165833
637.971	0.0165257
638.049	0.0165361
638.128	0.0166203
638.206	0.0166483
638.284	0.0166562
638.362	0.0165824
638.440	0.0166319
638.518	0.0165662
638.596	0.0166130
638.674	0.0165459
638.753	0.0165562
638.831	0.0167029
638.909	0.0165977
638.987	0.0165571
639.065	0.0165699
639.143	0.0166870
639.221	0.0165795
639.299	0.0166000
639.378	0.0166082
639.456	0.0166021
639.534	0.0166464
639.612	0.0167233
639.690	0.0165390
639.768	0.0166051
639.846	0.0166404
639.924	0.0167075
640.003	0.0166442
640.081	0.0166319
640.159	0.0165937
640.237	0.0165151
640.315	0.0167375
640.393	0.0164771
640.471	0.0165958
640.549	0.0166548
640.628	0.0167106
640.706	0.0164716
640.784	0.0165804
640.862	0.0166431
640.940	0.0167064
641.018	0.0165884
641.096	0.0166021
641.174	0.0165002
641.253	0.0165771
641.331	0.0164722
641.409	0.0164818
641.487	0.0167027
641.565	0.0166318
641.643	0.0165795
641.721	0.0165149
641.799	0.0165405
641.878	0.0165572
641.956	0.0166235
642.034	0.0166238
642.112	0.0165308
642.190	0.0165618
642.268	0.0166419
642.346	0.0165014
642.424	0.0165373
642.503	0.0164764
642.581	0.0165173
642.659	0.0166341
642.737	0.0164462
642.815	0.0165667
642.893	0.0166277
642.971	0.0166515
643.049	0.0166657
643.128	0.0164407
643.206	0.0165700
643.284	0.0166557
643.362	0.0165305
643.440	0.0165920
643.518	0.0166032
643.596	0.0165758
643.674	0.0164539
643.753	0.0166090
643.831	0.0165900
643.909	0.0166457
643.987	0.0165995
644.065	0.0167052
644.143	0.0167281
644.221	0.0165746
644.299	0.0165707
644.378	0.0165684
644.456	0.0166074
644.534	0.0165628
644.612	0.0165435
644.690	0.0165080
644.768	0.0167307
644.846	0.0166481
644.924	0.0166060
645.003	0.0166988
645.081	0.0165705
645.159	0.0165316
645.237	0.0165217
645.315	0.0166039
645.393	0.0165205
645.471	0.0166389
645.549	0.0166400
645.628	0.0166125
645.706	0.0165735
645.784	0.0166251
645.862	0.0165725
645.940	0.0166120
646.018	0.0165955
646.096	0.0165147
646.174	0.0164935
646.253	0.0166496
646.331	0.0166570
646.409	0.0166685
646.487	0.0165396
646.565	0.0166241
646.643	0.0165865
646.721	0.0165805
646.799	0.0165991
646.878	0.0165580
646.956	0.0165639
647.034	0.0165623
647.112	0.0164276
647.190	0.0165995
647.268	0.0166783
647.346	0.0166405
647.424	0.0165848
647.503	0.0166652
647.581	0.0166386
647.659	0.0165289
647.737	0.0166236
647.815	0.0164188
647.893	0.0165456
647.971	0.0165412
648.049	0.0165674
648.128	0.0165591
648.206	0.0165646
648.284	0.0166108
648.362	0.0165723
648.440	0.0164928
648.518	0.0165259
648.596	0.0166299
648.674	0.0165881
648.753	0.0165962
648.831	0.0165876
648.909	0.0166621
648.987	0.0166259
649.065	0.0165576
649.143	0.0165327
649.221	0.0165879
649.299	0.0165672
649.378	0.0165864
649.456	0.0166521
649.534	0.0165183
649.612	0.0165462
649.690	0.0165178
649.768	0.0166683
649.846	0.0166271
649.924	0.0165401
650.003	0.0164529
650.081	0.0166139
650.159	0.0166798
650.237	0.0165713
650.315	0.0164314
650.393	0.0165232
650.471	0.0166119
650.549	0.0165920
650.628	0.0165895
650.706	0.0166035
650.784	0.0165937
650.862	0.0165901
650.940	0.0165752
651.018	0.0166164
651.096	0.0165599
651.174	0.0166525
651.253	0.0166724
651.331	0.0166039
651.409	0.0165488
651.487	0.0165206
651.565	0.0166277
651.643	0.0166096
651.721	0.0167033
651.799	0.0164925
651.878	0.0166248
651.956	0.0165450
652.034	0.0165308
652.112	0.0166725
652.190	0.0166285
652.268	0.0166267
652.346	0.0165994
652.424	0.0166127
652.503	0.0165987
652.581	0.0165096
652.659	0.0165930
652.737	0.0166564
652.815	0.0167220
652.893	0.0166030
652.971	0.0165295
653.049	0.0165266
653.128	0.0165264
653.206	0.0165932
653.284	0.0165062
653.362	0.0165498
653.440	0.0164971
653.518	0.0166248
653.596	0.0165809
653.674	0.0166249
653.753	0.0166353
653.831	0.0165374
653.909	0.0166193
653.987	0.0165224
654.065	0.0165734
654.143	0.0165526
654.221	0.0166550
654.299	0.0165489
654.378	0.0165564
654.456	0.0164830
654.534	0.0165574
654.612	0.0166371
654.690	0.0165147
654.768	0.0165012
654.846	0.0165897
654.924	0.0165961
655.003	0.0166321
655.081	0.0166190
655.159	0.0164622
655.237	0.0165862
655.315	0.0165624
655.393	0.0165170
655.471	0.0165464
655.549	0.0165536
655.628	0.0166495
655.706	0.0165504
655.784	0.0165661
655.862	0.0164403
655.940	0.0164491
656.018	0.0166620
656.096	0.0165816
656.174	0.0165476
656.253	0.0165414
656.331	0.0165032
656.409	0.0164796
656.487	0.0165785
656.565	0.0166365
656.643	0.0166017
656.721	0.0166341
656.799	0.0165937
656.878	0.0165313
656.956	0.0165878
657.034	0.0165841
657.112	0.0165314
657.190	0.0165773
657.268	0.0165208
657.346	0.0166131
657.424	0.0166071
657.503	0.0165854
657.581	0.0166061
657.659	0.0165550
657.737	0.0166401
657.815	0.0166057
657.893	0.0165739
657.971	0.0166463
658.049	0.0166110
658.128	0.0165128
658.206	0.0164898
658.284	0.0166058
658.362	0.0166674
658.440	0.0165104
658.518	0.0165485
658.596	0.0166930
658.674	0.0165879
658.753	0.0165406
658.831	0.0165785
658.909	0.0165347
658.987	0.0166865
659.065	0.0167267
659.143	0.0166179
659.221	0.0165842
659.299	0.0163992
659.378	0.0166033
659.456	0.0166635
659.534	0.0165584
659.612	0.0165676
659.690	0.0167026
659.768	0.0166341
659.846	0.0165871
659.924	0.0164900
660.003	0.0165589
660.081	0.0166384
660.159	0.0164904
660.237	0.0165506
660.315	0.0165630
660.393	0.0164902
660.471	0.0165852
660.549	0.0165269
660.628	0.0165594
660.706	0.0165604
660.784	0.0166814
660.862	0.0165303
660.940	0.0165543
661.018	0.0165305
661.096	0.0165549
661.174	0.0165234
661.253	0.0165518
661.331	0.0165257
661.409	0.0165372
661.487	0.0166227
661.565	0.0166551
661.643	0.0164753
661.721	0.0164822
661.799	0.0166873
661.878	0.0166148
661.956	0.0165008
662.034	0.0165402
662.112	0.0165601
662.190	0.0165827
662.268	0.0166024
662.346	0.0166340
662.424	0.0166933
662.503	0.0166299
662.581	0.0166039
662.659	0.0166933
662.737	0.0164479
662.815	0.0166434
662.893	0.0165265
662.971	0.0166405
663.049	0.0165131
663.128	0.0165768
663.206	0.0165315
663.284	0.0165927
663.362	0.0166138
663.440	0.0165759
663.518	0.0165745
663.596	0.0164973
663.674	0.0165998
663.753	0.0166357
663.831	0.0165685
663.909	0.0165613
663.987	0.0165466
664.065	0.0166480
664.143	0.0166205
664.221	0.0165417
664.299	0.0166310
664.378	0.0165666
664.456	0.0165565
664.534	0.0165079
664.612	0.0166806
664.690	0.0165851
664.768	0.0166279
664.846	0.0165874
664.924	0.0166560
665.003	0.0164002
665.081	0.0166464
665.159	0.0164732
665.237	0.0165070
665.315	0.0164845
665.393	0.0165268
665.471	0.0166027
665.549	0.0166469
665.628	0.0166000
665.706	0.0166471
665.784	0.0165446
665.862	0.0165749
665.940	0.0165547
666.018	0.0166947
666.096	0.0164995
666.174	0.0165883
666.253	0.0167242
666.331	0.0166216
666.409	0.0166224
666.487	0.0166043
666.565	0.0166096
666.643	0.0164779
666.721	0.0165897
666.799	0.0166264
666.878	0.0165492
666.956	0.0163409
667.034	0.0164786
667.112	0.0165366
667.190	0.0166520
667.268	0.0165457
667.346	0.0165782
667.424	0.0164583
667.503	0.0166470
667.581	0.0165647
667.659	0.0166776
667.737	0.0164709
667.815	0.0166261
667.893	0.0164629
667.971	0.0165794
668.049	0.0167378
668.128	0.0167289
668.206	0.0165249
668.284	0.0164832
668.362	0.0165359
668.440	0.0165762
668.518	0.0165965
668.596	0.0166749
668.674	0.0166243
668.753	0.0165089
668.831	0.0165670
668.909	0.0165869
668.987	0.0165192
669.065	0.0165302
669.143	0.0165932
669.221	0.0167334
669.299	0.0166766
669.378	0.0166680
669.456	0.0165615
669.534	0.0165030
669.612	0.0165497
669.690	0.0165485
669.768	0.0165790
669.846	0.0166250
669.924	0.0166045
670.003	0.0165153
670.081	0.0165535
670.159	0.0166145
670.237	0.0166810
670.315	0.0166235
670.393	0.0166277
670.471	0.0164769
670.549	0.0166262
670.628	0.0166024
670.706	0.0166174
670.784	0.0165584
670.862	0.0167049
670.940	0.0165723
671.018	0.0165094
671.096	0.0166669
671.174	0.0165190
671.253	0.0166427
671.331	0.0166156
671.409	0.0165011
671.487	0.0164974
671.565	0.0166479
671.643	0.0166221
671.721	0.0165036
671.799	0.0164983
671.878	0.0166747
671.956	0.0166631
672.034	0.0166238
672.112	0.0165301
672.190	0.0166078
672.268	0.0166618
672.346	0.0165430
672.424	0.0166051
672.503	0.0165105
672.581	0.0166602
672.659	0.0165506
672.737	0.0165959
672.815	0.0166526
672.893	0.0165012
672.971	0.0166013
673.049	0.0166321
673.128	0.0164481
673.206	0.0164314
673.284	0.0166016
673.362	0.0165868
673.440	0.0165721
673.518	0.0165356
673.596	0.0166090
673.674	0.0165061
673.753	0.0165321
673.831	0.0165610
673.909	0.0165108
673.987	0.0167417
674.065	0.0165405
674.143	0.0166336
674.221	0.0165503
674.299	0.0165524
674.378	0.0165982
674.456	0.0166022
674.534	0.0164660
674.612	0.0166628
674.690	0.0164851
674.768	0.0165147
674.846	0.0167448
674.924	0.0166983
675.003	0.0164904
675.081	0.0165206
675.159	0.0166505
675.237	0.0166384
675.315	0.0166183
675.393	0.0165942
675.471	0.0166337
675.549	0.0166263
675.628	0.0166351
675.706	0.0164876
675.784	0.0166069
675.862	0.0166578
675.940	0.0165418
676.018	0.0164975
676.096	0.0165237
676.174	0.0166949
676.253	0.0167390
676.331	0.0165252
676.409	0.0164466
676.487	0.0166610
676.565	0.0166367
676.643	0.0165730
676.721	0.0166320
676.799	0.0165555
676.878	0.0167809
676.956	0.0165947
677.034	0.0165779
677.112	0.0165887
677.190	0.0165997
677.268	0.0165623
677.346	0.0166257
677.424	0.0165957
677.503	0.0165697
677.581	0.0166328
677.659	0.0165086
677.737	0.0165913
677.815	0.0165435
677.893	0.0164309
677.971	0.0164040
678.049	0.0164359
678.128	0.0165995
678.206	0.0164309
678.284	0.0164429
678.362	0.0165768
678.440	0.0166192
678.518	0.0165656
678.596	0.0165181
678.674	0.0165588
678.753	0.0165851
678.831	0.0164706
678.909	0.0165155
678.987	0.0166470
679.065	0.0165342
679.143	0.0165214
679.221	0.0166092
679.299	0.0165826
679.378	0.0165715
679.456	0.0165878
679.534	0.0164199
679.612	0.0165728
679.690	0.0167057
679.768	0.0166235
679.846	0.0166425
679.924	0.0166185
680.003	0.0166714
680.081	0.0165783
680.159	0.0165827
680.237	0.0165132
680.315	0.0164979
680.393	0.0165273
680.471	0.0165627
680.549	0.0166445
680.628	0.0164702
680.706	0.0164561
680.784	0.0166312
680.862	0.0165326
680.940	0.0164537
681.018	0.0165132
681.096	0.0166487
681.174	0.0166309
681.253	0.0165150
681.331	0.0165964
681.409	0.0165208
681.487	0.0165148
681.565	0.0165711
681.643	0.0165096
681.721	0.0166122
681.799	0.0165924
681.878	0.0165373
681.956	0.0166817
682.034	0.0165555
682.112	0.0165083
682.190	0.0165015
682.268	0.0164826
682.346	0.0166248
682.424	0.0165026
682.503	0.0166280
682.581	0.0166653
682.659	0.0165843
682.737	0.0165176
682.815	0.0164658
682.893	0.0165681
682.971	0.0165450
683.049	0.0166120
683.128	0.0165936
683.206	0.0166010
683.284	0.0164676
683.362	0.0164417
683.440	0.0166690
683.518	0.0165764
683.596	0.0165092
683.674	0.0166634
683.753	0.0165545
683.831	0.0165256
683.909	0.0164458
683.987	0.0165661
684.065	0.0165694
684.143	0.0165221
684.221	0.0164333
684.299	0.0165015
684.378	0.0165466
684.456	0.0165748
684.534	0.0165551
684.612	0.0165054
684.690	0.0166393
684.768	0.0164091
684.846	0.0165529
684.924	0.0165623
685.003	0.0165258
685.081	0.0165984
685.159	0.0166104
685.237	0.0167202
685.315	0.0165795
685.393	0.0165580
685.471	0.0165872
685.549	0.0165900
685.628	0.0165877
685.706	0.0165125
685.784	0.0167150
685.862	0.0164993
685.940	0.0166592
686.018	0.0166523
686.096	0.0165437
686.174	0.0165107
686.253	0.0164957
686.331	0.0165187
686.409	0.0165412
686.487	0.0165504
686.565	0.0166644
686.643	0.0166956
686.721	0.0165491
686.799	0.0164233
686.878	0.0165188
686.956	0.0165049
687.034	0.0165156
687.112	0.0165964
687.190	0.0166651
687.268	0.0166440
687.346	0.0166675
687.424	0.0164247
687.503	0.0165684
687.581	0.0166660
687.659	0.0165053
687.737	0.0165160
687.815	0.0166995
687.893	0.0166113
687.971	0.0165490
688.049	0.0164944
688.128	0.0164069
688.206	0.0165347
688.284	0.0165266
688.362	0.0164751
688.440	0.0165308
688.518	0.0165683
688.596	0.0165098
688.674	0.0164836
688.753	0.0165905
688.831	0.0164448
688.909	0.0166959
688.987	0.0166843
689.065	0.0165052
689.143	0.0166315
689.221	0.0165713
689.299	0.0165134
689.378	0.0167013
689.456	0.0167213
689.534	0.0165880
689.612	0.0165457
689.690	0.0165781
689.768	0.0165216
689.846	0.0164798
689.924	0.0166273
690.003	0.0165096
690.081	0.0165578
690.159	0.0165733
690.237	0.0165409
690.315	0.0164361
690.393	0.0167216
690.471	0.0165405
690.549	0.0164600
690.628	0.0164998
690.706	0.0165005
690.784	0.0166064
690.862	0.0166226
690.940	0.0165459
691.018	0.0165397
691.096	0.0165424
691.174	0.0164970
691.253	0.0165742
691.331	0.0165842
691.409	0.0165486
691.487	0.0165249
691.565	0.0165958
691.643	0.0165463
691.721	0.0165673
691.799	0.0164667
691.878	0.0166861
691.956	0.0165664
692.034	0.0164292
692.112	0.0165562
692.190	0.0166440
692.268	0.0166038
692.346	0.0165988
692.424	0.0166565
692.503	0.0164513
692.581	0.0167009
692.659	0.0166207
692.737	0.0165486
692.815	0.0167087
692.893	0.0166802
692.971	0.0165578
693.049	0.0166065
693.128	0.0165927
693.206	0.0167506
693.284	0.0166246
693.362	0.0166489
693.440	0.0165649
693.518	0.0166845
693.596	0.0165629
693.674	0.0166232
693.753	0.0165633
693.831	0.0164923
693.909	0.0164983
693.987	0.0165564
694.065	0.0164874
694.143	0.0165323
694.221	0.0166010
694.299	0.0166711
694.378	0.0166077
694.456	0.0165832
694.534	0.0166126
694.612	0.0165732
694.690	0.0166486
694.768	0.0166586
694.846	0.0165030
694.924	0.0165443
695.003	0.0166143
695.081	0.0166525
695.159	0.0165707
695.237	0.0166089
695.315	0.0167550
695.393	0.0165713
695.471	0.0164970
695.549	0.0166458
695.628	0.0164632
695.706	0.0164261
695.784	0.0164883
695.862	0.0164700
695.940	0.0165328
696.018	0.0164631
696.096	0.0166808
696.174	0.0165781
696.253	0.0165810
696.331	0.0164648
696.409	0.0165745
696.487	0.0166434
696.565	0.0165402
696.643	0.0165778
696.721	0.0166241
696.799	0.0165398
696.878	0.0166296
696.956	0.0165568
697.034	0.0165355
697.112	0.0165148
697.190	0.0166610
697.268	0.0165376
697.346	0.0163935
697.424	0.0165655
697.503	0.0165690
697.581	0.0165698
697.659	0.0165209
697.737	0.0164869
697.815	0.0165094
697.893	0.0165096
697.971	0.0165889
698.049	0.0164575
698.128	0.0165286
698.206	0.0164842
698.284	0.0166362
698.362	0.0165108
698.440	0.0165141
698.518	0.0165181
698.596	0.0165860
698.674	0.0164773
698.753	0.0166131
698.831	0.0166551
698.909	0.0166432
698.987	0.0166046
699.065	0.0165906
699.143	0.0166024
699.221	0.0166750
699.299	0.0167036
699.378	0.0165807
699.456	0.0165527
699.534	0.0166203
699.612	0.0166037
699.690	0.0165758
699.768	0.0165309
699.846	0.0166167
699.924	0.0166248
700.003	0.0164949
700.081	0.0166390
700.159	0.0166602
700.237	0.0165840
700.315	0.0165510
700.393	0.0165497
700.471	0.0165471
700.549	0.0165957
700.628	0.0165162
700.706	0.0166946
700.784	0.0165746
700.862	0.0165511
700.940	0.0165398
701.018	0.0166354
701.096	0.0166072
701.174	0.0165672
701.253	0.0164977
701.331	0.0166055
701.409	0.0165489
701.487	0.0164506
701.565	0.0166676
701.643	0.0166518
701.721	0.0164793
701.799	0.0166627
701.878	0.0166180
701.956	0.0165369
702.034	0.0166177
702.112	0.0165356
702.190	0.0165249
702.268	0.0166412
702.346	0.0165580
702.424	0.0165517
702.503	0.0165468
702.581	0.0167014
702.659	0.0165972
702.737	0.0164868
702.815	0.0166696
702.893	0.0166529
702.971	0.0165434
703.049	0.0165844
703.128	0.0166181
703.206	0.0166753
703.284	0.0166218
703.362	0.0165839
703.440	0.0166756
703.518	0.0166695
703.596	0.0165766
703.674	0.0165848
703.753	0.0165556
703.831	0.0165943
703.909	0.0165878
703.987	0.0165682
704.065	0.0165741
704.143	0.0166655
704.221	0.0166473
704.299	0.0166111
704.378	0.0165768
704.456	0.0165816
704.534	0.0165499
704.612	0.0165901
704.690	0.0165687
704.768	0.0165890
704.846	0.0165912
704.924	0.0165862
705.003	0.0165330
705.081	0.0165438
705.159	0.0165264
705.237	0.0165704
705.315	0.0165670
705.393	0.0166348
705.471	0.0166547
705.549	0.0165806
705.628	0.0166278
705.706	0.0165285
705.784	0.0165420
705.862	0.0166029
705.940	0.0166306
706.018	0.0165237
706.096	0.0167593
706.174	0.0165921
706.253	0.0165176
706.331	0.0166451
706.409	0.0166455
706.487	0.0166049
706.565	0.0164536
706.643	0.0166936
706.721	0.0166249
706.799	0.0166080
706.878	0.0165589
706.956	0.0165417
707.034	0.0165799
707.112	0.0166057
707.190	0.0165355
707.268	0.0166179
707.346	0.0166248
707.424	0.0165968
707.503	0.0166380
707.581	0.0167483
707.659	0.0166556
707.737	0.0166720
707.815	0.0165583
707.893	0.0164543
707.971	0.0164738
708.049	0.0166817
708.128	0.0165484
708.206	0.0165822
708.284	0.0165781
708.362	0.0166298
708.440	0.0167248
708.518	0.0164690
708.596	0.0164064
708.674	0.0164613
708.753	0.0166438
708.831	0.0166326
708.909	0.0165661
708.987	0.0165742
709.065	0.0165684
709.143	0.0166279
709.221	0.0166398
709.299	0.0165156
709.378	0.0166241
709.456	0.0166340
709.534	0.0165961
709.612	0.0165936
709.690	0.0166035
709.768	0.0165656
709.846	0.0164651
709.924	0.0166484
710.003	0.0166718
710.081	0.0165789
710.159	0.0165750
710.237	0.0166497
710.315	0.0166109
710.393	0.0165525
710.471	0.0166388
710.549	0.0165677
710.628	0.0165238
710.706	0.0166308
710.784	0.0166120
710.862	0.0164713
710.940	0.0165762
711.018	0.0164170
711.096	0.0165015
711.174	0.0165462
711.253	0.0165952
711.331	0.0165572
711.409	0.0164994
711.487	0.0165380
711.565	0.0165158
711.643	0.0165065
711.721	0.0166246
711.799	0.0166214
711.878	0.0165645
711.956	0.0165217
712.034	0.0165517
712.112	0.0164530
712.190	0.0167115
712.268	0.0165575
712.346	0.0164293
712.424	0.0164347
712.503	0.0165574
712.581	0.0166232
712.659	0.0165504
712.737	0.0165984
712.815	0.0166798
712.893	0.0165658
712.971	0.0164744
713.049	0.0165030
713.128	0.0165170
713.206	0.0165588
713.284	0.0165572
713.362	0.0166159
713.440	0.0165196
713.518	0.0164332
713.596	0.0166084
713.674	0.0166677
713.753	0.0166050
713.831	0.0165881
713.909	0.0166008
713.987	0.0165037
714.065	0.0166154
714.143	0.0166039
714.221	0.0166680
714.299	0.0166309
714.378	0.0165026
714.456	0.0166736
714.534	0.0165202
714.612	0.0164420
714.690	0.0166084
714.768	0.0166379
714.846	0.0165727
714.924	0.0164941
715.003	0.0165656
715.081	0.0165913
715.159	0.0164613
715.237	0.0166026
715.315	0.0165717
715.393	0.0165392
715.471	0.0166199
715.549	0.0165238
715.628	0.0165520
715.706	0.0165567
715.784	0.0165620
715.862	0.0164723
715.940	0.0165843
716.018	0.0165246
716.096	0.0165176
716.174	0.0164878
716.253	0.0164776
716.331	0.0165623
716.409	0.0167343
716.487	0.0167111
716.565	0.0166811
716.643	0.0166045
716.721	0.0165587
716.799	0.0166342
716.878	0.0166990
716.956	0.0165163
717.034	0.0165834
717.112	0.0166391
717.190	0.0166985
717.268	0.0165653
717.346	0.0166985
717.424	0.0167043
717.503	0.0166589
717.581	0.0167713
717.659	0.0167499
717.737	0.0165406
717.815	0.0165777
717.893	0.0165656
717.971	0.0166823
718.049	0.0167935
718.128	0.0166235
718.206	0.0166407
718.284	0.0165440
718.362	0.0166547
718.440	0.0166093
718.518	0.0166666
718.596	0.0165810
718.674	0.0165782
718.753	0.0165193
718.831	0.0164631
718.909	0.0166138
718.987	0.0166821
719.065	0.0164597
719.143	0.0166111
719.221	0.0165325
719.299	0.0165384
719.378	0.0166460
719.456	0.0164844
719.534	0.0165905
719.612	0.0165385
719.690	0.0165073
719.768	0.0164578
719.846	0.0165211
719.924	0.0165316
720.003	0.0164048
720.081	0.0164315
720.159	0.0165780
720.237	0.0166189
720.315	0.0166359
720.393	0.0165801
720.471	0.0164812
720.549	0.0164993
720.628	0.0164835
720.706	0.0166095
720.784	0.0166206
720.862	0.0165018
720.940	0.0165219
721.018	0.0166138
721.096	0.0165782
721.174	0.0165301
721.253	0.0167105
721.331	0.0166506
721.409	0.0165250
721.487	0.0167207
721.565	0.0167378
721.643	0.0165996
721.721	0.0166424
721.799	0.0166202
721.878	0.0165977
721.956	0.0167837
722.034	0.0168099
722.112	0.0167263
722.190	0.0167590
722.268	0.0167748
722.346	0.0166409
722.424	0.0167304
722.503	0.0166376
722.581	0.0165456
722.659	0.0166069
722.737	0.0165816
722.815	0.0165134
722.893	0.0165584
722.971	0.0167170
723.049	0.0165495
723.128	0.0165016
723.206	0.0164847
723.284	0.0165558
723.362	0.0165367
723.440	0.0166479
723.518	0.0166151
723.596	0.0165594
723.674	0.0165340
723.753	0.0167011
723.831	0.0165936
723.909	0.0166888
723.987	0.0166534
724.065	0.0166491
724.143	0.0165547
724.221	0.0166893
724.299	0.0167556
724.378	0.0166451
724.456	0.0166542
724.534	0.0165861
724.612	0.0166700
724.690	0.0166904
724.768	0.0166091
724.846	0.0165035
724.924	0.0167196
725.003	0.0166504
725.081	0.0165289
725.159	0.0164533
725.237	0.0166544
725.315	0.0165160
725.393	0.0165608
725.471	0.0165404
725.549	0.0166512
725.628	0.0165225
725.706	0.0165138
725.784	0.0166317
725.862	0.0165120
725.940	0.0164603
726.018	0.0165729
726.096	0.0164878
726.174	0.0165503
726.253	0.0164968
726.331	0.0165688
726.409	0.0166365
726.487	0.0165413
726.565	0.0165184
726.643	0.0166173
726.721	0.0166427
726.799	0.0165846
726.878	0.0164907
726.956	0.0165462
727.034	0.0163760
727.112	0.0166180
727.190	0.0164986
727.268	0.0167313
727.346	0.0166678
727.424	0.0165701
727.503	0.0163931
727.581	0.0166500
727.659	0.0166360
727.737	0.0165687
727.815	0.0166921
727.893	0.0165331
727.971	0.0165650
728.049	0.0166081
728.128	0.0165979
728.206	0.0165071
728.284	0.0165449
728.362	0.0166473
728.440	0.0165629
728.518	0.0166165
728.596	0.0167260
728.674	0.0164615
728.753	0.0165450
728.831	0.0167123
728.909	0.0165777
728.987	0.0166432
729.065	0.0165280
729.143	0.0165694
729.221	0.0164854
729.299	0.0164913
729.378	0.0165121
729.456	0.0165235
729.534	0.0164804
729.612	0.0165270
729.690	0.0164965
729.768	0.0164606
729.846	0.0164997
729.924	0.0165446
730.003	0.0164596
730.081	0.0165598
730.159	0.0164751
730.237	0.0164783
730.315	0.0164480
730.393	0.0164227
730.471	0.0166405
730.549	0.0167095
730.628	0.0165565
730.706	0.0164418
730.784	0.0166875
730.862	0.0166618
730.940	0.0167118
731.018	0.0165428
731.096	0.0166671
731.174	0.0167583
731.253	0.0167879
731.331	0.0166449
731.409	0.0165916
731.487	0.0167234
731.565	0.0166882
731.643	0.0166662
731.721	0.0166351
731.799	0.0167326
731.878	0.0167831
731.956	0.0167132
732.034	0.0166638
732.112	0.0167027
732.190	0.0165717
732.268	0.0165816
732.346	0.0166249
732.424	0.0165775
732.503	0.0165997
732.581	0.0167458
732.659	0.0166294
732.737	0.0166416
732.815	0.0166335
732.893	0.0167785
732.971	0.0166234
733.049	0.0165689
733.128	0.0165034
733.206	0.0165105
733.284	0.0166116
733.362	0.0166246
733.440	0.0165916
733.518	0.0166560
733.596	0.0166657
733.674	0.0166041
733.753	0.0166158
733.831	0.0165772
733.909	0.0167132
733.987	0.0166693
734.065	0.0165617
734.143	0.0167036
734.221	0.0166274
734.299	0.0166485
734.378	0.0166068
734.456	0.0167390
734.534	0.0167162
734.612	0.0165572
734.690	0.0166005
734.768	0.0165722
734.846	0.0166749
734.924	0.0165306
735.003	0.0164686
735.081	0.0165133
735.159	0.0165621
735.237	0.0165688
735.315	0.0165163
735.393	0.0165172
735.471	0.0167320
735.549	0.0164175
735.628	0.0164593
735.706	0.0165775
735.784	0.0165511
735.862	0.0164632
735.940	0.0166083
736.018	0.0164231
736.096	0.0166903
736.174	0.0167393
736.253	0.0166460
736.331	0.0167470
736.409	0.0166779
736.487	0.0167204
736.565	0.0167529
736.643	0.0167617
736.721	0.0165776
736.799	0.0166753
736.878	0.0166562
736.956	0.0166277
737.034	0.0167825
737.112	0.0165979
737.190	0.0165206
737.268	0.0166180
737.346	0.0165889
737.424	0.0166101
737.503	0.0165579
737.581	0.0165912
737.659	0.0164397
737.737	0.0164806
737.815	0.0165799
737.893	0.0166023
737.971	0.0166432
738.049	0.0164339
738.128	0.0166103
738.206	0.0166064
738.284	0.0166431
738.362	0.0166586
738.440	0.0164648
738.518	0.0166673
738.596	0.0166220
738.674	0.0166252
738.753	0.0166028
738.831	0.0165575
738.909	0.0166011
738.987	0.0165382
739.065	0.0165814
739.143	0.0164984
739.221	0.0164867
739.299	0.0165408
739.378	0.0165852
739.456	0.0165189
739.534	0.0164755
739.612	0.0164697
739.690	0.0163927
739.768	0.0166127
739.846	0.0165256
739.924	0.0165823
740.003	0.0165555
740.081	0.0164493
740.159	0.0165704
740.237	0.0166169
740.315	0.0167081
740.393	0.0168152
740.471	0.0165521
740.549	0.0165559
740.628	0.0166313
740.706	0.0166949
740.784	0.0167496
740.862	0.0167296
740.940	0.0165582
741.018	0.0166249
741.096	0.0166910
741.174	0.0165031
741.253	0.0166408
741.331	0.0165380
741.409	0.0165943
741.487	0.0166228
741.565	0.0164906
741.643	0.0166467
741.721	0.0166205
741.799	0.0166438
741.878	0.0166371
741.956	0.0166416
742.034	0.0167046
742.112	0.0166322
742.190	0.0167447
742.268	0.0165824
742.346	0.0167216
742.424	0.0166382
742.503	0.0167655
742.581	0.0165292
742.659	0.0167023
742.737	0.0167426
742.815	0.0167930
742.893	0.0165601
742.971	0.0165933
743.049	0.0167964
743.128	0.0166636
743.206	0.0164924
743.284	0.0167224
743.362	0.0166272
743.440	0.0166273
743.518	0.0166908
743.596	0.0165826
743.674	0.0165871
743.753	0.0165977
743.831	0.0165692
743.909	0.0167097
743.987	0.0165945
744.065	0.0167972
744.143	0.0166484
744.221	0.0166356
744.299	0.0165209
744.378	0.0164835
744.456	0.0164597
744.534	0.0166193
744.612	0.0164198
744.690	0.0166180
744.768	0.0166632
744.846	0.0166498
744.924	0.0166541
745.003	0.0167229
745.081	0.0165893
745.159	0.0165454
745.237	0.0165921
745.315	0.0166105
745.393	0.0164328
745.471	0.0164998
745.549	0.0165520
745.628	0.0165589
745.706	0.0165411
745.784	0.0164553
745.862	0.0165640
745.940	0.0166244
746.018	0.0164749
746.096	0.0165041
746.174	0.0166199
746.253	0.0164404
746.331	0.0166507
746.409	0.0166157
746.487	0.0164887
746.565	0.0166641
746.643	0.0168501
746.721	0.0166943
746.799	0.0166811
746.878	0.0167007
746.956	0.0165213
747.034	0.0166065
747.112	0.0167106
747.190	0.0165951
747.268	0.0165868
747.346	0.0166196
747.424	0.0164909
747.503	0.0165215
747.581	0.0166428
747.659	0.0165369
747.737	0.0166141
747.815	0.0165806
747.893	0.0164976
747.971	0.0164701
748.049	0.0164896
748.128	0.0166363
748.206	0.0166822
748.284	0.0166331
748.362	0.0166823
748.440	0.0167311
748.518	0.0166077
748.596	0.0166667
748.674	0.0166673
748.753	0.0166438
748.831	0.0167188
748.909	0.0167059
748.987	0.0165916
749.065	0.0165269
749.143	0.0165026
749.221	0.0166796
749.299	0.0165505
749.378	0.0166272
749.456	0.0164735
749.534	0.0165444
749.612	0.0165630
749.690	0.0166990
749.768	0.0165880
749.846	0.0166544
749.924	0.0165347
750.003	0.0165719
750.081	0.0164514
750.159	0.0166825
750.237	0.0167855
750.315	0.0166100
750.393	0.0165990
750.471	0.0164973
750.549	0.0166258
750.628	0.0166295
750.706	0.0166478
750.784	0.0168077
750.862	0.0165693
750.940	0.0165227
751.018	0.0166944
751.096	0.0165377
751.174	0.0164760
751.253	0.0165945
751.331	0.0165562
751.409	0.0164635
751.487	0.0164271
751.565	0.0163633
751.643	0.0164873
751.721	0.0165231
751.799	0.0165481
751.878	0.0165783
751.956	0.0166520
752.034	0.0165099
752.112	0.0165527
752.190	0.0166956
752.268	0.0166298
752.346	0.0165923
752.424	0.0166246
752.503	0.0165957
752.581	0.0166808
752.659	0.0165875
752.737	0.0165446
752.815	0.0166183
752.893	0.0166200
752.971	0.0165111
753.049	0.0164707
753.128	0.0166521
753.206	0.0166915
753.284	0.0166694
753.362	0.0166171
753.440	0.0166845
753.518	0.0165821
753.596	0.0166435
753.674	0.0167339
753.753	0.0165598
753.831	0.0166818
753.909	0.0165782
753.987	0.0165546
754.065	0.0166309
754.143	0.0165508
754.221	0.0166733
754.299	0.0166792
754.378	0.0166550
754.456	0.0165112
754.534	0.0165219
754.612	0.0167357
754.690	0.0164851
754.768	0.0166093
754.846	0.0167448
754.924	0.0166263
755.003	0.0165681
755.081	0.0165891
755.159	0.0166080
755.237	0.0165915
755.315	0.0165234
755.393	0.0165706
755.471	0.0165977
755.549	0.0167045
755.628	0.0165205
755.706	0.0166306
755.784	0.0166172
755.862	0.0166515
755.940	0.0165908
756.018	0.0165609
756.096	0.0167101
756.174	0.0166703
756.253	0.0166184
756.331	0.0167405
756.409	0.0165025
756.487	0.0164806
756.565	0.0166165
756.643	0.0164262
756.721	0.0166290
756.799	0.0166063
756.878	0.0164851
756.956	0.0166077
757.034	0.0165288
757.112	0.0165115
757.190	0.0166159
757.268	0.0165773
757.346	0.0164146
757.424	0.0165237
757.503	0.0164766
757.581	0.0166345
757.659	0.0166584
757.737	0.0166669
757.815	0.0166620
757.893	0.0165795
757.971	0.0167152
758.049	0.0168041
758.128	0.0165717
758.206	0.0166470
758.284	0.0165961
758.362	0.0167356
758.440	0.0166978
758.518	0.0165891
758.596	0.0166666
758.674	0.0166495
758.753	0.0167342
758.831	0.0165857
758.909	0.0166451
758.987	0.0166388
759.065	0.0165743
759.143	0.0165746
759.221	0.0166724
759.299	0.0165941
759.378	0.0167674
759.456	0.0167853
759.534	0.0168465
759.612	0.0167564
759.690	0.0165311
759.768	0.0166232
759.846	0.0166800
759.924	0.0165649
760.003	0.0165119
760.081	0.0165773
760.159	0.0165639
760.237	0.0165926
760.315	0.0165349
760.393	0.0165771
760.471	0.0164547
760.549	0.0166535
760.628	0.0165604
760.706	0.0166679
760.784	0.0164885
760.862	0.0165740
760.940	0.0167596
761.018	0.0166035
761.096	0.0166908
761.174	0.0166906
761.253	0.0166624
761.331	0.0165931
761.409	0.0166313
761.487	0.0165846
761.565	0.0166066
761.643	0.0166625
761.721	0.0166637
761.799	0.0166512
761.878	0.0167088
761.956	0.0165819
762.034	0.0164864
762.112	0.0167825
762.190	0.0166845
762.268	0.0164735
762.346	0.0166662
762.424	0.0165884
762.503	0.0166576
762.581	0.0167208
762.659	0.0166010
762.737	0.0165960
762.815	0.0166090
762.893	0.0166667
762.971	0.0166724
763.049	0.0166512
763.128	0.0165783
763.206	0.0165030
763.284	0.0166434
763.362	0.0166357
763.440	0.0164127
763.518	0.0165783
763.596	0.0166575
763.674	0.0164069
763.753	0.0165598
763.831	0.0165420
763.909	0.0165821
763.987	0.0166470
764.065	0.0166013
764.143	0.0165171
764.221	0.0164639
764.299	0.0165523
764.378	0.0165009
764.456	0.0166195
764.534	0.0165795
764.612	0.0164831
764.690	0.0165868
764.768	0.0165977
764.846	0.0165869
764.924	0.0166750
765.003	0.0166114
765.081	0.0165447
765.159	0.0165825
765.237	0.0165287
765.315	0.0165719
765.393	0.0166188
765.471	0.0166632
765.549	0.0165366
765.628	0.0166436
765.706	0.0166486
765.784	0.0163537
765.862	0.0165463
765.940	0.0166111
766.018	0.0165747
766.096	0.0166550
766.174	0.0166467
766.253	0.0165707
766.331	0.0165516
766.409	0.0166257
766.487	0.0166407
766.565	0.0167299
766.643	0.0167408
766.721	0.0165910
766.799	0.0166322
766.878	0.0165357
766.956	0.0165439
767.034	0.0164782
767.112	0.0165247
767.190	0.0164488
767.268	0.0166557
767.346	0.0165688
767.424	0.0165608
767.503	0.0165857
767.581	0.0166119
767.659	0.0165977
767.737	0.0167459
767.815	0.0167342
767.893	0.0166999
767.971	0.0165292
768.049	0.0165388
768.128	0.0166889
768.206	0.0167900
768.284	0.0165379
768.362	0.0166920
768.440	0.0167500
768.518	0.0164947
768.596	0.0165851
768.674	0.0166180
768.753	0.0166807
768.831	0.0165998
768.909	0.0167159
768.987	0.0165768
769.065	0.0165645
769.143	0.0166468
769.221	0.0166807
769.299	0.0165107
769.378	0.0165285
769.456	0.0164916
769.534	0.0165458
769.612	0.0166631
769.690	0.0166772
769.768	0.0166885
769.846	0.0166376
769.924	0.0166218
770.003	0.0166428
770.081	0.0166062
770.159	0.0166004
770.237	0.0166035
770.315	0.0165909
770.393	0.0165700
770.471	0.0165894
770.549	0.0166425
770.628	0.0164863
770.706	0.0165346
770.784	0.0166194
770.862	0.0166292
770.940	0.0164791
771.018	0.0164376
771.096	0.0166168
771.174	0.0167126
771.253	0.0166830
771.331	0.0165059
771.409	0.0167027
771.487	0.0166203
771.565	0.0165217
771.643	0.0165916
771.721	0.0166351
771.799	0.0165619
771.878	0.0166615
771.956	0.0163846
772.034	0.0166404
772.112	0.0166996
772.190	0.0166376
772.268	0.0165508
772.346	0.0165145
772.424	0.0166010
772.503	0.0166042
772.581	0.0166839
772.659	0.0166137
772.737	0.0165517
772.815	0.0166512
772.893	0.0166081
772.971	0.0166437
773.049	0.0166198
773.128	0.0166052
773.206	0.0165221
773.284	0.0166210
773.362	0.0165707
773.440	0.0165742
773.518	0.0166598
773.596	0.0165169
773.674	0.0165920
773.753	0.0166147
773.831	0.0165388
773.909	0.0165344
773.987	0.0165170
774.065	0.0166803
774.143	0.0165923
774.221	0.0164292
774.299	0.0165572
774.378	0.0165405
774.456	0.0165984
774.534	0.0166456
774.612	0.0165468
774.690	0.0165798
774.768	0.0167382
774.846	0.0164830
774.924	0.0166562
775.003	0.0165749
775.081	0.0165568
775.159	0.0165699
775.237	0.0167198
775.315	0.0166216
775.393	0.0165833
775.471	0.0165283
775.549	0.0165505
775.628	0.0166582
775.706	0.0165252
775.784	0.0166463
775.862	0.0164999
775.940	0.0165147
776.018	0.0165036
776.096	0.0165011
776.174	0.0165175
776.253	0.0166737
776.331	0.0166441
776.409	0.0165980
776.487	0.0166072
776.565	0.0166486
776.643	0.0165894
776.721	0.0165530
776.799	0.0166511
776.878	0.0166480
776.956	0.0165697
777.034	0.0167076
777.112	0.0167037
777.190	0.0166208
777.268	0.0165187
777.346	0.0167500
777.424	0.0166624
777.503	0.0165003
777.581	0.0166595
777.659	0.0166354
777.737	0.0165379
777.815	0.0166426
777.893	0.0165835
777.971	0.0166923
778.049	0.0165134
778.128	0.0165524
778.206	0.0165443
778.284	0.0164945
778.362	0.0166113
778.440	0.0165883
778.518	0.0166002
778.596	0.0165001
778.674	0.0164744
778.753	0.0165534
778.831	0.0164995
778.909	0.0164950
778.987	0.0166109
779.065	0.0165557
779.143	0.0165985
779.221	0.0165295
779.299	0.0165488
779.378	0.0165648
779.456	0.0164951
779.534	0.0165065
779.612	0.0165778
779.690	0.0164792
779.768	0.0166677
779.846	0.0166288
779.924	0.0166257
780.003	0.0165143
780.081	0.0166325
780.159	0.0165865
780.237	0.0166084
780.315	0.0165434
780.393	0.0166800
780.471	0.0166167
780.549	0.0165595
780.628	0.0165902
780.706	0.0167328
780.784	0.0165480
780.862	0.0165324
780.940	0.0165079
781.018	0.0165933
781.096	0.0165657
781.174	0.0165024
781.253	0.0165901
781.331	0.0166384
781.409	0.0165802
781.487	0.0166950
781.565	0.0166564
781.643	0.0165153
781.721	0.0166875
781.799	0.0166213
781.878	0.0165886
781.956	0.0165775
782.034	0.0165194
782.112	0.0166306
782.190	0.0165993
782.268	0.0165635
782.346	0.0165759
782.424	0.0165779
782.503	0.0165391
782.581	0.0167149
782.659	0.0165437
782.737	0.0166345
782.815	0.0166551
782.893	0.0166003
782.971	0.0165759
783.049	0.0165841
783.128	0.0165818
783.206	0.0166521
783.284	0.0165461
783.362	0.0165071
783.440	0.0165337
783.518	0.0165416
783.596	0.0165585
783.674	0.0165362
783.753	0.0165970
783.831	0.0165701
783.909	0.0164704
783.987	0.0165812
784.065	0.0164636
784.143	0.0166240
784.221	0.0166416
784.299	0.0165584
784.378	0.0166750
784.456	0.0166341
784.534	0.0166665
784.612	0.0164404
784.690	0.0166009
784.768	0.0166126
784.846	0.0166129
784.924	0.0165331
785.003	0.0165199
785.081	0.0167115
785.159	0.0165710
785.237	0.0167307
785.315	0.0165208
785.393	0.0166103
785.471	0.0167920
785.549	0.0166237
785.628	0.0166079
785.706	0.0167145
785.784	0.0166295
785.862	0.0166394
785.940	0.0165666
786.018	0.0165113
786.096	0.0166390
786.174	0.0165914
786.253	0.0167060
786.331	0.0165257
786.409	0.0164554
786.487	0.0166630
786.565	0.0166203
786.643	0.0165027
786.721	0.0166203
786.799	0.0165038
786.878	0.0165899
786.956	0.0166756
787.034	0.0166660
787.112	0.0165223
787.190	0.0164987
787.268	0.0166064
787.346	0.0165079
787.424	0.0165782
787.503	0.0165955
787.581	0.0166322
787.659	0.0165577
787.737	0.0166039
787.815	0.0167312
787.893	0.0166994
787.971	0.0166537
788.049	0.0166254
788.128	0.0165540
788.206	0.0166222
788.284	0.0164306
788.362	0.0164633
788.440	0.0166745
788.518	0.0165005
788.596	0.0165998
788.674	0.0165872
788.753	0.0163893
788.831	0.0165497
788.909	0.0166490
788.987	0.0166807
789.065	0.0165182
789.143	0.0165118
789.221	0.0167030
789.299	0.0165225
789.378	0.0168272
789.456	0.0166194
789.534	0.0165808
789.612	0.0165898
789.690	0.0166709
789.768	0.0165392
789.846	0.0165015
789.924	0.0165927
790.003	0.0167148
790.081	0.0166210
790.159	0.0166361
790.237	0.0166679
790.315	0.0166300
790.393	0.0165127
790.471	0.0166300
790.549	0.0166826
790.628	0.0168272
790.706	0.0165562
790.784	0.0166119
790.862	0.0166376
790.940	0.0166577
791.018	0.0166457
791.096	0.0166727
791.174	0.0166327
791.253	0.0167394
791.331	0.0166918
791.409	0.0165797
791.487	0.0166015
791.565	0.0166691
791.643	0.0166893
791.721	0.0165685
791.799	0.0165295
791.878	0.0165794
791.956	0.0165065
792.034	0.0166340
792.112	0.0165924
792.190	0.0165383
792.268	0.0164454
792.346	0.0165753
792.424	0.0165966
792.503	0.0166398
792.581	0.0166283
792.659	0.0167416
792.737	0.0166528
792.815	0.0166390
792.893	0.0165961
792.971	0.0164281
793.049	0.0167084
793.128	0.0166470
793.206	0.0165626
793.284	0.0166039
793.362	0.0164806
793.440	0.0165312
793.518	0.0166733
793.596	0.0164835
793.674	0.0165132
793.753	0.0166097
793.831	0.0165622
793.909	0.0163419
793.987	0.0166157
794.065	0.0165895
794.143	0.0167198
794.221	0.0165128
794.299	0.0166133
794.378	0.0165237
794.456	0.0167143
794.534	0.0167288
794.612	0.0166947
794.690	0.0167406
794.768	0.0166116
794.846	0.0164649
794.924	0.0165934
795.003	0.0166726
795.081	0.0165745
795.159	0.0165139
795.237	0.0167288
795.315	0.0165575
795.393	0.0165390
795.471	0.0166662
795.549	0.0165584
795.628	0.0166017
795.706	0.0165714
795.784	0.0167233
795.862	0.0165157
795.940	0.0165865
796.018	0.0166167
796.096	0.0165263
796.174	0.0166321
796.253	0.0166989
796.331	0.0165572
796.409	0.0165127
796.487	0.0166242
796.565	0.0165501
796.643	0.0165732
796.721	0.0167219
796.799	0.0165517
796.878	0.0165660
796.956	0.0165412
797.034	0.0165582
797.112	0.0164721
797.190	0.0165191
797.268	0.0166276
797.346	0.0164943
797.424	0.0166780
797.503	0.0166224
797.581	0.0167004
797.659	0.0165603
797.737	0.0165528
797.815	0.0164815
797.893	0.0165528
797.971	0.0165147
798.049	0.0166119
798.128	0.0166893
798.206	0.0166281
798.284	0.0166718
798.362	0.0165729
798.440	0.0165598
798.518	0.0166638
798.596	0.0167141
798.674	0.0165889
798.753	0.0165768
798.831	0.0166811
798.909	0.0166218
798.987	0.0165287
799.065	0.0166263
799.143	0.0164545
799.221	0.0166029
799.299	0.0164428
799.378	0.0166505
799.456	0.0165938
799.534	0.0165993
799.612	0.0164986
799.690	0.0165031
799.768	0.0166397
799.846	0.0165762
799.924	0.0165583
800.003	0.0165633
800.081	0.0166795
800.159	0.0165967
800.237	0.0165042
800.315	0.0164540
800.393	0.0166744
800.471	0.0165852
800.549	0.0165659
800.628	0.0166027
800.706	0.0165660
800.784	0.0163827
800.862	0.0164103
800.940	0.0164875
801.018	0.0165845
801.096	0.0165865
801.174	0.0164754
801.253	0.0166905
801.331	0.0165534
801.409	0.0166005
801.487	0.0164507
801.565	0.0164921
801.643	0.0166165
801.721	0.0165096
801.799	0.0166895
801.878	0.0164725
801.956	0.0164920
802.034	0.0165237
802.112	0.0166409
802.190	0.0166763
802.268	0.0166507
802.346	0.0166890
802.424	0.0166792
802.503	0.0164694
802.581	0.0164922
802.659	0.0167181
802.737	0.0164579
802.815	0.0165864
802.893	0.0165564
802.971	0.0166325
803.049	0.0167332
803.128	0.0166186
803.206	0.0165292
803.284	0.0166542
803.362	0.0165582
803.440	0.0167277
803.518	0.0165574
803.596	0.0164973
803.674	0.0167256
803.753	0.0164449
803.831	0.0165281
803.909	0.0166252
803.987	0.0165450
804.065	0.0165131
804.143	0.0165715
804.221	0.0164823
804.299	0.0166231
804.378	0.0166714
804.456	0.0166170
804.534	0.0165288
804.612	0.0164782
804.690	0.0166009
804.768	0.0165927
804.846	0.0167159
804.924	0.0166067
805.003	0.0166700
805.081	0.0164417
805.159	0.0165882
805.237	0.0166645
805.315	0.0165789
805.393	0.0166283
805.471	0.0166167
805.549	0.0165131
805.628	0.0165835
805.706	0.0163698
805.784	0.0165298
805.862	0.0164883
805.940	0.0166142
806.018	0.0167109
806.096	0.0166724
806.174	0.0165930
806.253	0.0165930
806.331	0.0165371
806.409	0.0164457
806.487	0.0165492
806.565	0.0164636
806.643	0.0166039
806.721	0.0164975
806.799	0.0164054
806.878	0.0165394
806.956	0.0165523
807.034	0.0165617
807.112	0.0165463
807.190	0.0166018
807.268	0.0165646
807.346	0.0165778
807.424	0.0166481
807.503	0.0166178
807.581	0.0165967
807.659	0.0166090
807.737	0.0165652
807.815	0.0166100
807.893	0.0165437
807.971	0.0165710
808.049	0.0166289
808.128	0.0165005
808.206	0.0165523
808.284	0.0165616
808.362	0.0166074
808.440	0.0165759
808.518	0.0166472
808.596	0.0165753
808.674	0.0165652
808.753	0.0165388
808.831	0.0166212
808.909	0.0164476
808.987	0.0165215
809.065	0.0164803
809.143	0.0166083
809.221	0.0166342
809.299	0.0166205
809.378	0.0166151
809.456	0.0165626
809.534	0.0164568
809.612	0.0165592
809.690	0.0167046
809.768	0.0165969
809.846	0.0165215
809.924	0.0166576
810.003	0.0165855
810.081	0.0166510
810.159	0.0165128
810.237	0.0166382
810.315	0.0165149
810.393	0.0165378
810.471	0.0166095
810.549	0.0164870
810.628	0.0166676
810.706	0.0166381
810.784	0.0167176
810.862	0.0165779
810.940	0.0165871
811.018	0.0166534
811.096	0.0165959
811.174	0.0165031
811.253	0.0166067
811.331	0.0165934
811.409	0.0165855
811.487	0.0165553
811.565	0.0166351
811.643	0.0166031
811.721	0.0165553
811.799	0.0165551
811.878	0.0165247
811.956	0.0164738
812.034	0.0166136
812.112	0.0166184
812.190	0.0165005
812.268	0.0163486
812.346	0.0164478
812.424	0.0165871
812.503	0.0163776
812.581	0.0165778
812.659	0.0165120
812.737	0.0164451
812.815	0.0165420
812.893	0.0164674
812.971	0.0165448
813.049	0.0165702
813.128	0.0164867
813.206	0.0164015
813.284	0.0166091
813.362	0.0164695
813.440	0.0165858
813.518	0.0165055
813.596	0.0165192
813.674	0.0166248
813.753	0.0165993
813.831	0.0165620
813.909	0.0166306
813.987	0.0165387
814.065	0.0165948
814.143	0.0165155
814.221	0.0166129
814.299	0.0166167
814.378	0.0166735
814.456	0.0165941
814.534	0.0166354
814.612	0.0165717
814.690	0.0166178
814.768	0.0167278
814.846	0.0166420
814.924	0.0165171
815.003	0.0166473
815.081	0.0166127
815.159	0.0165717
815.237	0.0165856
815.315	0.0164555
815.393	0.0166682
815.471	0.0166214
815.549	0.0164629
815.628	0.0165347
815.706	0.0165158
815.784	0.0164895
815.862	0.0164376
815.940	0.0165490
816.018	0.0166515
816.096	0.0164616
816.174	0.0164767
816.253	0.0166528
816.331	0.0164522
816.409	0.0164969
816.487	0.0164838
816.565	0.0164770
816.643	0.0165709
816.721	0.0166606
816.799	0.0165282
816.878	0.0165513
816.956	0.0165252
817.034	0.0165880
817.112	0.0166091
817.190	0.0164775
817.268	0.0165659
817.346	0.0165903
817.424	0.0166357
817.503	0.0164988
817.581	0.0166098
817.659	0.0165409
817.737	0.0165567
817.815	0.0166132
817.893	0.0166537
817.971	0.0165968
818.049	0.0165158
818.128	0.0167165
818.206	0.0165134
818.284	0.0166182
818.362	0.0164896
818.440	0.0165779
818.518	0.0165635
818.596	0.0165926
818.674	0.0165913
818.753	0.0165883
818.831	0.0165992
818.909	0.0166555
818.987	0.0165781
819.065	0.0165620
819.143	0.0165189
819.221	0.0165654
819.299	0.0165782
819.378	0.0165571
819.456	0.0165804
819.534	0.0166209
819.612	0.0166833
819.690	0.0165792
819.768	0.0165577
819.846	0.0165585
819.924	0.0166347
820.003	0.0166268
820.081	0.0165128
820.159	0.0167377
820.237	0.0166147
820.315	0.0164925
820.393	0.0165820
820.471	0.0164570
820.549	0.0165489
820.628	0.0164989
820.706	0.0166306
820.784	0.0165224
820.862	0.0165369
820.940	0.0166425
821.018	0.0167107
821.096	0.0167626
821.174	0.0166902
821.253	0.0164435
821.331	0.0166249
821.409	0.0167803
821.487	0.0165884
821.565	0.0166428
821.643	0.0167421
821.721	0.0165663
821.799	0.0165420
821.878	0.0164619
821.956	0.0165684
822.034	0.0166650
822.112	0.0165883
822.190	0.0165257
822.268	0.0165282
822.346	0.0166348
822.424	0.0166855
822.503	0.0165427
822.581	0.0166341
822.659	0.0166129
822.737	0.0166306
822.815	0.0165418
822.893	0.0165608
822.971	0.0166649
823.049	0.0165186
823.128	0.0165495
823.206	0.0166962
823.284	0.0166434
823.362	0.0165675
823.440	0.0165025
823.518	0.0166238
823.596	0.0166047
823.674	0.0165474
823.753	0.0166121
823.831	0.0167812
823.909	0.0166412
823.987	0.0166788
824.065	0.0167111
824.143	0.0165744
824.221	0.0165262
824.299	0.0166670
824.378	0.0166310
824.456	0.0166063
824.534	0.0166764
824.612	0.0166243
824.690	0.0165085
824.768	0.0164931
824.846	0.0165929
824.924	0.0165719
825.003	0.0165603
825.081	0.0164507
825.159	0.0165988
825.237	0.0164798
825.315	0.0165516
825.393	0.0165075
825.471	0.0165450
825.549	0.0166872
825.628	0.0163767
825.706	0.0164533
825.784	0.0164409
825.862	0.0165224
825.940	0.0166205
826.018	0.0166573
826.096	0.0164997
826.174	0.0165266
826.253	0.0166140
826.331	0.0165038
826.409	0.0165375
826.487	0.0166447
826.565	0.0166684
826.643	0.0165662
826.721	0.0166470
826.799	0.0165820
826.878	0.0163934
826.956	0.0166678
827.034	0.0165672
827.112	0.0165099
827.190	0.0166019
827.268	0.0166003
827.346	0.0166148
827.424	0.0165724
827.503	0.0164684
827.581	0.0165592
827.659	0.0166386
827.737	0.0165984
827.815	0.0166460
827.893	0.0165857
827.971	0.0166524
828.049	0.0166422
828.128	0.0165515
828.206	0.0165186
828.284	0.0165878
828.362	0.0166520
828.440	0.0166888
828.518	0.0165155
828.596	0.0164968
828.674	0.0165987
828.753	0.0164874
828.831	0.0166018
828.909	0.0165760
828.987	0.0164973
829.065	0.0165369
829.143	0.0166240
829.221	0.0166481
829.299	0.0166317
829.378	0.0165509
829.456	0.0164245
829.534	0.0166204
829.612	0.0165124
829.690	0.0165333
829.768	0.0165553
829.846	0.0166065
829.924	0.0167006
830.003	0.0165432
830.081	0.0165415
830.159	0.0166407
830.237	0.0165583
830.315	0.0165675
830.393	0.0167340
830.471	0.0166044
830.549	0.0164986
830.628	0.0166804
830.706	0.0164626
830.784	0.0166799
830.862	0.0165263
830.940	0.0165221
831.018	0.0165980
831.096	0.0165083
831.174	0.0165879
831.253	0.0165830
831.331	0.0164991
831.409	0.0164330
831.487	0.0164665
831.565	0.0166093
831.643	0.0166065
831.721	0.0164770
831.799	0.0165437
831.878	0.0165704
831.956	0.0167007
832.034	0.0164883
832.112	0.0165430
832.190	0.0166041
832.268	0.0166190
832.346	0.0165889
832.424	0.0165225
832.503	0.0164670
832.581	0.0165807
832.659	0.0165055
832.737	0.0164178
832.815	0.0164474
832.893	0.0165978
832.971	0.0165530
833.049	0.0164381
833.128	0.0164949
833.206	0.0165332
833.284	0.0165139
833.362	0.0166142
833.440	0.0165969
833.518	0.0165360
833.596	0.0164508
833.674	0.0167028
833.753	0.0165470
833.831	0.0165475
833.909	0.0166988
833.987	0.0165295
834.065	0.0165760
834.143	0.0167147
834.221	0.0167476
834.299	0.0167590
834.378	0.0164818
834.456	0.0166869
834.534	0.0166832
834.612	0.0167098
834.690	0.0165514
834.768	0.0166996
834.846	0.0166882
834.924	0.0166026
835.003	0.0166853
835.081	0.0166405
835.159	0.0165816
835.237	0.0165705
835.315	0.0165913
835.393	0.0165900
835.471	0.0166204
835.549	0.0164458
835.628	0.0164924
835.706	0.0166064
835.784	0.0164446
835.862	0.0164520
835.940	0.0164561
836.018	0.0163677
836.096	0.0165588
836.174	0.0164914
836.253	0.0166419
836.331	0.0164857
836.409	0.0165111
836.487	0.0166161
836.565	0.0166134
836.643	0.0164667
836.721	0.0166283
836.799	0.0164429
836.878	0.0166425
836.956	0.0165327
837.034	0.0165087
837.112	0.0166850
837.190	0.0165073
837.268	0.0166067
837.346	0.0166597
837.424	0.0166204
837.503	0.0167133
837.581	0.0166263
837.659	0.0167132
837.737	0.0166525
837.815	0.0166607
837.893	0.0166337
837.971	0.0166830
838.049	0.0167394
838.128	0.0166978
838.206	0.0168164
838.284	0.0167377
838.362	0.0166519
838.440	0.0166700
838.518	0.0166134
838.596	0.0167210
838.674	0.0167062
838.753	0.0164714
838.831	0.0165660
838.909	0.0166930
838.987	0.0167031
839.065	0.0166420
839.143	0.0164679
839.221	0.0164375
839.299	0.0163948
839.378	0.0165619
839.456	0.0165095
839.534	0.0165379
839.612	0.0164817
839.690	0.0165374
839.768	0.0165295
839.846	0.0164143
839.924	0.0163928
840.003	0.0164284
840.081	0.0163521
840.159	0.0163034
840.237	0.0162637
840.315	0.0164945
840.393	0.0165013
840.471	0.0165117
840.549	0.0163964
840.628	0.0164436
840.706	0.0164995
840.784	0.0164943
840.862	0.0164337
840.940	0.0164569
841.018	0.0165099
841.096	0.0164880
841.174	0.0165173
841.253	0.0164813
841.331	0.0165649
841.409	0.0166062
841.487	0.0165034
841.565	0.0165486
841.643	0.0165932
841.721	0.0166802
841.799	0.0165694
841.878	0.0166762
841.956	0.0167822
842.034	0.0167105
842.112	0.0165482
842.190	0.0167202
842.268	0.0168044
842.346	0.0165634
842.424	0.0167497
842.503	0.0168729
842.581	0.0165902
842.659	0.0167062
842.737	0.0167290
842.815	0.0166338
842.893	0.0166931
842.971	0.0168076
843.049	0.0166608
843.128	0.0165583
843.206	0.0165806
843.284	0.0166798
843.362	0.0165621
843.440	0.0163774
843.518	0.0164921
843.596	0.0164840
843.674	0.0165129
843.753	0.0163995
843.831	0.0164375
843.909	0.0163538
843.987	0.0162957
844.065	0.0163914
844.143	0.0163896
844.221	0.0163991
844.299	0.0164632
844.378	0.0163393
844.456	0.0162871
844.534	0.0164069
844.612	0.0164837
844.690	0.0162227
844.768	0.0163225
844.846	0.0164590
844.924	0.0164219
845.003	0.0164664
845.081	0.0164285
845.159	0.0165764
845.237	0.0165567
845.315	0.0166562
845.393	0.0166557
845.471	0.0166030
845.549	0.0165257
845.628	0.0165824
845.706	0.0167167
845.784	0.0166341
845.862	0.0167397
845.940	0.0167608
846.018	0.0168731
846.096	0.0168278
846.174	0.0166992
846.253	0.0167718
846.331	0.0166111
846.409	0.0167793
846.487	0.0168102
846.565	0.0168405
846.643	0.0168227
846.721	0.0168042
846.799	0.0167261
846.878	0.0167271
846.956	0.0167040
847.034	0.0166232
847.112	0.0167327
847.190	0.0166706
847.268	0.0167279
847.346	0.0166882
847.424	0.0166555
847.503	0.0165638
847.581	0.0163763
847.659	0.0164620
847.737	0.0164550
847.815	0.0165789
847.893	0.0163559
847.971	0.0163758
848.049	0.0164349
848.128	0.0164399
848.206	0.0165145
848.284	0.0163863
848.362	0.0164744
848.440	0.0163691
848.518	0.0163868
848.596	0.0163519
848.674	0.0164021
848.753	0.0163614
848.831	0.0163869
848.909	0.0164091
848.987	0.0163702
849.065	0.0163686
849.143	0.0164986
849.221	0.0165431
849.299	0.0164672
849.378	0.0164902
849.456	0.0164582
849.534	0.0165625
849.612	0.0165968
849.690	0.0167043
849.768	0.0166677
849.846	0.0168197
849.924	0.0166261
850.003	0.0165511
850.081	0.0166139
850.159	0.0167818
850.237	0.0167931
850.315	0.0166788
850.393	0.0166783
850.471	0.0167583
850.549	0.0168072
850.628	0.0168034
850.706	0.0168814
850.784	0.0168199
850.862	0.0166829
850.940	0.0167881
851.018	0.0166078
851.096	0.0166601
851.174	0.0167284
851.253	0.0166244
851.331	0.0166379
851.409	0.0165759
851.487	0.0165430
851.565	0.0166185
851.643	0.0164982
851.721	0.0165076
851.799	0.0165795
851.878	0.0165065
851.956	0.0164695
852.034	0.0163637
852.112	0.0164673
852.190	0.0164869
852.268	0.0162810
852.346	0.0163644
852.424	0.0164429
852.503	0.0164157
852.581	0.0164283
852.659	0.0164742
852.737	0.0164503
852.815	0.0164594
852.893	0.0164410
852.971	0.0164115
853.049	0.0165042
853.128	0.0164870
853.206	0.0165108
853.284	0.0164648
853.362	0.0165102
853.440	0.0165935
853.518	0.0164727
853.596	0.0164797
853.674	0.0165096
853.753	0.0165672
853.831	0.0166306
853.909	0.0164971
853.987	0.0164926
854.065	0.0165861
854.143	0.0165569
854.221	0.0166481
854.299	0.0166235
854.378	0.0166024
854.456	0.0167075
854.534	0.0165611
854.612	0.0164941
854.690	0.0165888
854.768	0.0166083
854.846	0.0165247
854.924	0.0165933
855.003	0.0166445
855.081	0.0166578
855.159	0.0165241
855.237	0.0165115
855.315	0.0167352
855.393	0.0167132
855.471	0.0166184
855.549	0.0165608
855.628	0.0166036
855.706	0.0165601
855.784	0.0165863
855.862	0.0166689
855.940	0.0165545
856.018	0.0165736
856.096	0.0166323
856.174	0.0164240
856.253	0.0165771
856.331	0.0167002
856.409	0.0165240
856.487	0.0165318
856.565	0.0164361
856.643	0.0164759
856.721	0.0166372
856.799	0.0164841
856.878	0.0164254
856.956	0.0165008
857.034	0.0164501
857.112	0.0165300
857.190	0.0165214
857.268	0.0166753
857.346	0.0166613
857.424	0.0165826
857.503	0.0165162
857.581	0.0165338
857.659	0.0165585
857.737	0.0164865
857.815	0.0164851
857.893	0.0165530
857.971	0.0166389
858.049	0.0166280
858.128	0.0164896
858.206	0.0166567
858.284	0.0166462
858.362	0.0166332
858.440	0.0167353
858.518	0.0166056
858.596	0.0167459
858.674	0.0166708
858.753	0.0165786
858.831	0.0166339
858.909	0.0166776
858.987	0.0166103
859.065	0.0166520
859.143	0.0167905
859.221	0.0167660
859.299	0.0166983
859.378	0.0166996
859.456	0.0168520
859.534	0.0166189
859.612	0.0167442
859.690	0.0166510
859.768	0.0167753
859.846	0.0164962
859.924	0.0165478
860.003	0.0166923
860.081	0.0165955
860.159	0.0164633
860.237	0.0167143
860.315	0.0166643
860.393	0.0164924
860.471	0.0165809
860.549	0.0166949
860.628	0.0164347
860.706	0.0164486
860.784	0.0165136
860.862	0.0163764
860.940	0.0164019
861.018	0.0165791
861.096	0.0164071
861.174	0.0165468
861.253	0.0164781
861.331	0.0163988
861.409	0.0164158
861.487	0.0165160
861.565	0.0164664
861.643	0.0164153
861.721	0.0163919
861.799	0.0165204
861.878	0.0164317
861.956	0.0164339
862.034	0.0165218
862.112	0.0165487
862.190	0.0164145
862.268	0.0165960
862.346	0.0164307
862.424	0.0165963
862.503	0.0165895
862.581	0.0165092
862.659	0.0164991
862.737	0.0165455
862.815	0.0167539
862.893	0.0165412
862.971	0.0165093
863.049	0.0166265
863.128	0.0166652
863.206	0.0166711
863.284	0.0167063
863.362	0.0166374
863.440	0.0167126
863.518	0.0166670
863.596	0.0166922
863.674	0.0167075
863.753	0.0168038
863.831	0.0167683
863.909	0.0167947
863.987	0.0168208
864.065	0.0166872
864.143	0.0168259
864.221	0.0166891
864.299	0.0167859
864.378	0.0167178
864.456	0.0167734
864.534	0.0165710
864.612	0.0167290
864.690	0.0167299
864.768	0.0165115
864.846	0.0166039
864.924	0.0165619
865.003	0.0165733
865.081	0.0166201
865.159	0.0165530
865.237	0.0165942
865.315	0.0165261
865.393	0.0165433
865.471	0.0164962
865.549	0.0165801
865.628	0.0165966
865.706	0.0164188
865.784	0.0165435
865.862	0.0164594
865.940	0.0163791
866.018	0.0164017
866.096	0.0163918
866.174	0.0164931
866.253	0.0164217
866.331	0.0164761
866.409	0.0164954
866.487	0.0163924
866.565	0.0164246
866.643	0.0165059
866.721	0.0165163
866.799	0.0164764
866.878	0.0165264
866.956	0.0165008
867.034	0.0165431
867.112	0.0165817
867.190	0.0165496
867.268	0.0164890
867.346	0.0166280
867.424	0.0167125
867.503	0.0166397
867.581	0.0165643
867.659	0.0166698
867.737	0.0165781
867.815	0.0166634
867.893	0.0166450
867.971	0.0166808
868.049	0.0167990
868.128	0.0167465
868.206	0.0167670
868.284	0.0166869
868.362	0.0167632
868.440	0.0167231
868.518	0.0167364
868.596	0.0167613
868.674	0.0168563
868.753	0.0167735
868.831	0.0167563
868.909	0.0167790
868.987	0.0167348
869.065	0.0166521
869.143	0.0165630
869.221	0.0166481
869.299	0.0166942
869.378	0.0166130
869.456	0.0167704
869.534	0.0164740
869.612	0.0165695
869.690	0.0165956
869.768	0.0165107
869.846	0.0165756
869.924	0.0165807
870.003	0.0165289
870.081	0.0166989
870.159	0.0165578
870.237	0.0164537
870.315	0.0163232
870.393	0.0164780
870.471	0.0166222
870.549	0.0166145
870.628	0.0164886
870.706	0.0163346
870.784	0.0165200
870.862	0.0164532
870.940	0.0164633
871.018	0.0163576
871.096	0.0164635
871.174	0.0165781
871.253	0.0164879
871.331	0.0165155
871.409	0.0164793
871.487	0.0163991
871.565	0.0164728
871.643	0.0165163
871.721	0.0165468
871.799	0.0165797
871.878	0.0165876
871.956	0.0165103
872.034	0.0163996
872.112	0.0164432
872.190	0.0166151
872.268	0.0165809
872.346	0.0164011
872.424	0.0165108
872.503	0.0165701
872.581	0.0165521
872.659	0.0164671
872.737	0.0164790
872.815	0.0165154
872.893	0.0165287
872.971	0.0166693
873.049	0.0165189
873.128	0.0166507
873.206	0.0167381
873.284	0.0166798
873.362	0.0166975
873.440	0.0166277
873.518	0.0165841
873.596	0.0165752
873.674	0.0166797
873.753	0.0167702
873.831	0.0166344
873.909	0.0166064
873.987	0.0167593
874.065	0.0166555
874.143	0.0167312
874.221	0.0167471
874.299	0.0166274
874.378	0.0167504
874.456	0.0166411
874.534	0.0167261
874.612	0.0166167
874.690	0.0167537
874.768	0.0166401
874.846	0.0165887
874.924	0.0167109
875.003	0.0167359
875.081	0.0165610
875.159	0.0166427
875.237	0.0166478
875.315	0.0165859
875.393	0.0166017
875.471	0.0167072
875.549	0.0166290
875.628	0.0165683
875.706	0.0164861
875.784	0.0165351
875.862	0.0165329
875.940	0.0165723
876.018	0.0163934
876.096	0.0165137
876.174	0.0166431
876.253	0.0165857
876.331	0.0166039
876.409	0.0165253
876.487	0.0164924
876.565	0.0165491
876.643	0.0166029
876.721	0.0164786
876.799	0.0164822
876.878	0.0165165
876.956	0.0165852
877.034	0.0165006
877.112	0.0166011
877.190	0.0164107
877.268	0.0164691
877.346	0.0166145
877.424	0.0165120
877.503	0.0164880
877.581	0.0165124
877.659	0.0164227
877.737	0.0165070
877.815	0.0166305
877.893	0.0165030
877.971	0.0164400
878.049	0.0166318
878.128	0.0166378
878.206	0.0166447
878.284	0.0165278
878.362	0.0166363
878.440	0.0167158
878.518	0.0166351
878.596	0.0166572
878.674	0.0166882
878.753	0.0166474
878.831	0.0167252
878.909	0.0167963
878.987	0.0167726
879.065	0.0167007
879.143	0.0166859
879.221	0.0168317
879.299	0.0166307
879.378	0.0166266
879.456	0.0166743
879.534	0.0168097
879.612	0.0167157
879.690	0.0167496
879.768	0.0167147
879.846	0.0165858
879.924	0.0167104
880.003	0.0167310
880.081	0.0166066
880.159	0.0168227
880.237	0.0166579
880.315	0.0167359
880.393	0.0165788
880.471	0.0166936
880.549	0.0167210
880.628	0.0168071
880.706	0.0165371
880.784	0.0165218
880.862	0.0166463
880.940	0.0166108
881.018	0.0164864
881.096	0.0165578
881.174	0.0164581
881.253	0.0165099
881.331	0.0166352
881.409	0.0165895
881.487	0.0165123
881.565	0.0165578
881.643	0.0165623
881.721	0.0164662
881.799	0.0164066
881.878	0.0164375
881.956	0.0165804
882.034	0.0165370
882.112	0.0165205
882.190	0.0165244
882.268	0.0165266
882.346	0.0165465
882.424	0.0166270
882.503	0.0166479
882.581	0.0165820
882.659	0.0166341
882.737	0.0165943
882.815	0.0164829
882.893	0.0166807
882.971	0.0165994
883.049	0.0165419
883.128	0.0166570
883.206	0.0166489
883.284	0.0166525
883.362	0.0167035
883.440	0.0166402
883.518	0.0166819
883.596	0.0164637
883.674	0.0165981
883.753	0.0165671
883.831	0.0166618
883.909	0.0167606
883.987	0.0165534
884.065	0.0166068
884.143	0.0164983
884.221	0.0165582
884.299	0.0166046
884.378	0.0166164
884.456	0.0165015
884.534	0.0165290
884.612	0.0165442
884.690	0.0165218
884.768	0.0165630
884.846	0.0166053
884.924	0.0166100
885.003	0.0164909
885.081	0.0166460
885.159	0.0165298
885.237	0.0165538
885.315	0.0167159
885.393	0.0166573
885.471	0.0166306
885.549	0.0166676
885.628	0.0165532
885.706	0.0166917
885.784	0.0166364
885.862	0.0165711
885.940	0.0166815
886.018	0.0165932
886.096	0.0167507
886.174	0.0165865
886.253	0.0165244
886.331	0.0166579
886.409	0.0167267
886.487	0.0166853
886.565	0.0165869
886.643	0.0166605
886.721	0.0166780
886.799	0.0164861
886.878	0.0165010
886.956	0.0166300
887.034	0.0166737
887.112	0.0165912
887.190	0.0165855
887.268	0.0165206
887.346	0.0166044
887.424	0.0166122
887.503	0.0164934
887.581	0.0165496
887.659	0.0165080
887.737	0.0165204
887.815	0.0164129
887.893	0.0164644
887.971	0.0165024
888.049	0.0166238
888.128	0.0165154
888.206	0.0166122
888.284	0.0165073
888.362	0.0164427
888.440	0.0165522
888.518	0.0165744
888.596	0.0164983
888.674	0.0163850
888.753	0.0165614
888.831	0.0166607
888.909	0.0165405
888.987	0.0165899
889.065	0.0165306
889.143	0.0166197
889.221	0.0165299
889.299	0.0165628
889.378	0.0166149
889.456	0.0166756
889.534	0.0165440
889.612	0.0165964
889.690	0.0166283
889.768	0.0166716
889.846	0.0165164
889.924	0.0164958
890.003	0.0166211
890.081	0.0165192
890.159	0.0165843
890.237	0.0165735
890.315	0.0165047
890.393	0.0164993
890.471	0.0166854
890.549	0.0165629
890.628	0.0163942
890.706	0.0164206
890.784	0.0165086
890.862	0.0166283
890.940	0.0166974
891.018	0.0164433
891.096	0.0166373
891.174	0.0166039
891.253	0.0165614
891.331	0.0165308
891.409	0.0166016
891.487	0.0166083
891.565	0.0166072
891.643	0.0165217
891.721	0.0166328
891.799	0.0164961
891.878	0.0167305
891.956	0.0167921
892.034	0.0165610
892.112	0.0166145
892.190	0.0167479
892.268	0.0166558
892.346	0.0166982
892.424	0.0167825
892.503	0.0166270
892.581	0.0165079
892.659	0.0165121
892.737	0.0167059
892.815	0.0166943
892.893	0.0166519
892.971	0.0166837
893.049	0.0165350
893.128	0.0164865
893.206	0.0165597
893.284	0.0164812
893.362	0.0165852
893.440	0.0165805
893.518	0.0166175
893.596	0.0164673
893.674	0.0165299
893.753	0.0165054
893.831	0.0165343
893.909	0.0165468
893.987	0.0164835
894.065	0.0165088
894.143	0.0165905
894.221	0.0165747
894.299	0.0165192
894.378	0.0163952
894.456	0.0164691
894.534	0.0165357
894.612	0.0166296
894.690	0.0166122
894.768	0.0164897
894.846	0.0165858
894.924	0.0165476
895.003	0.0165903
895.081	0.0164764
895.159	0.0165400
895.237	0.0166830
895.315	0.0165607
895.393	0.0164942
895.471	0.0166525
895.549	0.0165408
895.628	0.0164684
895.706	0.0166805
895.784	0.0165121
895.862	0.0164773
895.940	0.0166872
896.018	0.0167038
896.096	0.0167289
896.174	0.0165927
896.253	0.0166228
896.331	0.0168131
896.409	0.0166542
896.487	0.0166585
896.565	0.0166209
896.643	0.0168003
896.721	0.0166422
896.799	0.0165670
896.878	0.0165551
896.956	0.0166628
897.034	0.0166660
897.112	0.0165665
897.190	0.0165372
897.268	0.0166581
897.346	0.0165168
897.424	0.0166975
897.503	0.0166426
897.581	0.0166402
897.659	0.0166759
897.737	0.0165695
897.815	0.0166156
897.893	0.0165279
897.971	0.0166570
898.049	0.0165448
898.128	0.0165700
898.206	0.0167068
898.284	0.0166267
898.362	0.0166202
898.440	0.0165282
898.518	0.0165517
898.596	0.0166040
898.674	0.0165599
898.753	0.0166101
898.831	0.0165374
898.909	0.0165474
898.987	0.0166497
899.065	0.0166209
899.143	0.0165714
899.221	0.0165755
899.299	0.0165929
899.378	0.0167068
899.456	0.0166275
899.534	0.0165386
899.612	0.0166251
899.690	0.0166166
899.768	0.0166744
899.846	0.0166123
899.924	0.0165868
900.003	0.0164738
900.081	0.0165493
900.159	0.0165275
900.237	0.0166474
900.315	0.0165932
900.393	0.0164639
900.471	0.0165167
900.549	0.0165417
900.628	0.0166132
900.706	0.0167097
900.784	0.0165771
900.862	0.0165712
900.940	0.0166084
901.018	0.0164956
901.096	0.0165211
901.174	0.0165511
901.253	0.0166029
901.331	0.0166521
901.409	0.0166245
901.487	0.0165240
901.565	0.0164660
901.643	0.0164892
901.721	0.0165273
901.799	0.0164825
901.878	0.0165974
901.956	0.0165469
902.034	0.0165318
902.112	0.0165736
902.190	0.0166049
902.268	0.0165557
902.346	0.0165778
902.424	0.0167067
902.503	0.0167197
902.581	0.0166190
902.659	0.0165990
902.737	0.0166883
902.815	0.0165656
902.893	0.0165869
902.971	0.0165715
903.049	0.0166084
903.128	0.0166631
903.206	0.0166651
903.284	0.0166427
903.362	0.0166507
903.440	0.0165878
903.518	0.0167822
903.596	0.0166842
903.674	0.0166003
903.753	0.0166865
903.831	0.0164548
903.909	0.0165756
903.987	0.0167388
904.065	0.0166651
904.143	0.0166856
904.221	0.0165197
904.299	0.0165719
904.378	0.0165570
904.456	0.0167247
904.534	0.0166381
904.612	0.0166489
904.690	0.0165231
904.768	0.0165707
904.846	0.0166074
904.924	0.0168069
905.003	0.0166201
905.081	0.0165345
905.159	0.0165953
905.237	0.0165352
905.315	0.0166935
905.393	0.0164456
905.471	0.0165340
905.549	0.0166119
905.628	0.0164801
905.706	0.0167346
905.784	0.0165676
905.862	0.0164401
905.940	0.0165432
906.018	0.0165131
906.096	0.0165051
906.174	0.0164065
906.253	0.0164837
906.331	0.0165559
906.409	0.0164375
906.487	0.0164660
906.565	0.0165417
906.643	0.0164013
906.721	0.0163926
906.799	0.0165536
906.878	0.0166132
906.956	0.0165590
907.034	0.0165557
907.112	0.0165647
907.190	0.0165501
907.268	0.0165348
907.346	0.0166539
907.424	0.0165659
907.503	0.0165258
907.581	0.0164468
907.659	0.0165842
907.737	0.0166557
907.815	0.0165637
907.893	0.0166604
907.971	0.0165844
908.049	0.0164811
908.128	0.0165266
908.206	0.0164462
908.284	0.0166013
908.362	0.0165768
908.440	0.0165452
908.518	0.0166914
908.596	0.0166386
908.674	0.0166109
908.753	0.0166332
908.831	0.0166201
908.909	0.0166662
908.987	0.0166332
909.065	0.0165568
909.143	0.0165200
909.221	0.0166100
909.299	0.0165600
909.378	0.0164910
909.456	0.0166269
909.534	0.0166054
909.612	0.0166891
909.690	0.0164713
909.768	0.0166689
909.846	0.0166737
909.924	0.0165736
910.003	0.0166644
910.081	0.0166339
910.159	0.0166917
910.237	0.0167815
910.315	0.0166714
910.393	0.0166569
910.471	0.0166326
910.549	0.0167460
910.628	0.0166250
910.706	0.0164957
910.784	0.0167110
910.862	0.0168152
910.940	0.0165639
911.018	0.0166710
911.096	0.0167507
911.174	0.0168725
911.253	0.0165926
911.331	0.0165973
911.409	0.0167305
911.487	0.0167809
911.565	0.0165701
911.643	0.0166061
911.721	0.0166124
911.799	0.0166361
911.878	0.0165325
911.956	0.0165649
912.034	0.0166225
912.112	0.0165505
912.190	0.0164986
912.268	0.0165475
912.346	0.0165117
912.424	0.0165870
912.503	0.0167478
912.581	0.0166094
912.659	0.0163829
912.737	0.0166972
912.815	0.0165879
912.893	0.0165443
912.971	0.0165543
913.049	0.0166590
913.128	0.0165401
913.206	0.0166416
913.284	0.0165584
913.362	0.0165345
913.440	0.0166996
913.518	0.0167104
913.596	0.0164133
913.674	0.0165434
913.753	0.0166664
913.831	0.0166520
913.909	0.0165704
913.987	0.0166726
914.065	0.0167196
914.143	0.0165595
914.221	0.0165551
914.299	0.0166538
914.378	0.0166782
914.456	0.0166253
914.534	0.0166096
914.612	0.0166196
914.690	0.0166973
914.768	0.0165321
914.846	0.0165344
914.924	0.0167316
915.003	0.0166743
915.081	0.0166724
915.159	0.0165695
915.237	0.0167396
915.315	0.0166409
915.393	0.0165904
915.471	0.0166239
915.549	0.0165978
915.628	0.0166549
915.706	0.0165256
915.784	0.0166023
915.862	0.0167014
915.940	0.0166592
916.018	0.0165245
916.096	0.0165825
916.174	0.0165748
916.253	0.0165942
916.331	0.0164986
916.409	0.0164459
916.487	0.0165687
916.565	0.0165169
916.643	0.0165170
916.721	0.0166335
916.799	0.0165084
916.878	0.0163869
916.956	0.0165292
917.034	0.0166547
917.112	0.0165533
917.190	0.0166832
917.268	0.0165743
917.346	0.0165080
917.424	0.0164809
917.503	0.0166938
917.581	0.0166241
917.659	0.0166063
917.737	0.0167363
917.815	0.0166761
917.893	0.0166442
917.971	0.0164964
918.049	0.0166927
918.128	0.0165912
918.206	0.0164626
918.284	0.0167234
918.362	0.0165688
918.440	0.0166354
918.518	0.0166808
918.596	0.0165675
918.674	0.0166859
918.753	0.0165970
918.831	0.0166000
918.909	0.0165163
918.987	0.0166307
919.065	0.0166415
919.143	0.0165130
919.221	0.0167655
919.299	0.0165558
919.378	0.0165151
919.456	0.0166681
919.534	0.0166835
919.612	0.0167301
919.690	0.0167622
919.768	0.0165818
919.846	0.0166676
919.924	0.0164392
920.003	0.0165191
920.081	0.0167358
920.159	0.0166984
920.237	0.0166373
920.315	0.0165488
920.393	0.0165471
920.471	0.0166100
920.549	0.0164916
920.628	0.0166160
920.706	0.0165520
920.784	0.0166359
920.862	0.0166042
920.940	0.0164106
921.018	0.0166878
921.096	0.0165501
921.174	0.0165434
921.253	0.0164866
921.331	0.0165805
921.409	0.0165396
921.487	0.0165945
921.565	0.0165643
921.643	0.0167091
921.721	0.0168042
921.799	0.0166522
921.878	0.0166278
921.956	0.0165586
922.034	0.0165784
922.112	0.0167731
922.190	0.0167190
922.268	0.0167779
922.346	0.0166328
922.424	0.0165492
922.503	0.0167712
922.581	0.0166890
922.659	0.0167183
922.737	0.0166317
922.815	0.0167103
922.893	0.0166184
922.971	0.0164434
923.049	0.0166512
923.128	0.0167186
923.206	0.0167156
923.284	0.0165654
923.362	0.0164143
923.440	0.0166194
923.518	0.0165223
923.596	0.0164344
923.674	0.0165442
923.753	0.0166004
923.831	0.0166528
923.909	0.0164720
923.987	0.0165826
924.065	0.0166793
924.143	0.0165746
924.221	0.0165363
924.299	0.0165769
924.378	0.0164890
924.456	0.0165472
924.534	0.0164763
924.612	0.0164272
924.690	0.0165937
924.768	0.0165405
924.846	0.0164627
924.924	0.0165238
925.003	0.0165480
925.081	0.0165658
925.159	0.0166558
925.237	0.0164966
925.315	0.0164982
925.393	0.0165637
925.471	0.0165874
925.549	0.0164906
925.628	0.0165913
925.706	0.0165433
925.784	0.0166599
925.862	0.0167222
925.940	0.0165772
926.018	0.0166534
926.096	0.0167103
926.174	0.0165063
926.253	0.0166672
926.331	0.0166744
926.409	0.0165739
926.487	0.0166793
926.565	0.0165312
926.643	0.0166081
926.721	0.0166022
926.799	0.0165092
926.878	0.0165279
926.956	0.0164934
927.034	0.0164872
927.112	0.0166338
927.190	0.0165982
927.268	0.0165320
927.346	0.0164657
927.424	0.0166473
927.503	0.0166126
927.581	0.0165218
927.659	0.0166516
927.737	0.0165487
927.815	0.0164237
927.893	0.0164819
927.971	0.0165540
928.049	0.0165749
928.128	0.0165191
928.206	0.0165757
928.284	0.0166441
928.362	0.0166743
928.440	0.0165441
928.518	0.0165547
928.596	0.0166913
928.674	0.0165749
928.753	0.0165310
928.831	0.0166114
928.909	0.0166548
928.987	0.0165383
929.065	0.0165826
929.143	0.0166062
929.221	0.0165144
929.299	0.0166127
929.378	0.0165583
929.456	0.0164810
929.534	0.0165353
929.612	0.0166081
929.690	0.0165723
929.768	0.0164433
929.846	0.0165827
929.924	0.0166587
930.003	0.0165651
930.081	0.0166074
930.159	0.0165890
930.237	0.0164674
930.315	0.0165451
930.393	0.0166559
930.471	0.0165385
930.549	0.0165701
930.628	0.0166816
930.706	0.0165165
930.784	0.0165508
930.862	0.0166176
930.940	0.0167013
931.018	0.0166236
931.096	0.0165799
931.174	0.0165099
931.253	0.0166401
931.331	0.0165777
931.409	0.0165541
931.487	0.0165130
931.565	0.0165964
931.643	0.0166363
931.721	0.0165804
931.799	0.0165046
931.878	0.0165397
931.956	0.0164587
932.034	0.0165118
932.112	0.0165102
932.190	0.0166115
932.268	0.0164202
932.346	0.0165029
932.424	0.0165052
932.503	0.0166029
932.581	0.0164915
932.659	0.0165488
932.737	0.0166252
932.815	0.0165177
932.893	0.0165791
932.971	0.0165005
933.049	0.0163964
933.128	0.0165516
933.206	0.0166409
933.284	0.0165541
933.362	0.0165444
933.440	0.0167593
933.518	0.0165765
933.596	0.0165363
933.674	0.0167024
933.753	0.0166858
933.831	0.0166143
933.909	0.0165896
933.987	0.0166094
934.065	0.0166292
934.143	0.0167008
934.221	0.0166683
934.299	0.0166679
934.378	0.0166210
934.456	0.0166062
934.534	0.0165963
934.612	0.0166220
934.690	0.0165598
934.768	0.0164777
934.846	0.0166152
934.924	0.0166405
935.003	0.0166954
935.081	0.0166397
935.159	0.0166432
935.237	0.0166434
935.315	0.0164591
935.393	0.0165300
935.471	0.0164516
935.549	0.0165406
935.628	0.0165748
935.706	0.0165266
935.784	0.0165438
935.862	0.0166633
935.940	0.0165998
936.018	0.0166672
936.096	0.0165289
936.174	0.0165623
936.253	0.0166257
936.331	0.0166383
936.409	0.0165642
936.487	0.0166929
936.565	0.0165673
936.643	0.0166144
936.721	0.0167022
936.799	0.0167068
936.878	0.0166517
936.956	0.0167259
937.034	0.0166793
937.112	0.0166372
937.190	0.0165722
937.268	0.0166084
937.346	0.0165340
937.424	0.0165812
937.503	0.0166476
937.581	0.0166511
937.659	0.0166431
937.737	0.0165539
937.815	0.0166084
937.893	0.0165566
937.971	0.0165205
938.049	0.0166353
938.128	0.0166219
938.206	0.0167580
938.284	0.0166416
938.362	0.0165770
938.440	0.0167190
938.518	0.0167132
938.596	0.0166444
938.674	0.0165839
938.753	0.0166263
938.831	0.0165536
938.909	0.0165871
938.987	0.0166133
939.065	0.0166293
939.143	0.0166477
939.221	0.0166447
939.299	0.0166417
939.378	0.0166351
939.456	0.0165278
939.534	0.0165414
939.612	0.0165579
939.690	0.0166184
939.768	0.0165407
939.846	0.0165784
939.924	0.0167489
940.003	0.0166588
940.081	0.0165094
940.159	0.0164651
940.237	0.0166121
940.315	0.0166755
940.393	0.0165585
940.471	0.0164850
940.549	0.0164183
940.628	0.0164277
940.706	0.0165760
940.784	0.0164912
940.862	0.0165785
940.940	0.0164684
941.018	0.0165789
941.096	0.0164939
941.174	0.0165436
941.253	0.0164737
941.331	0.0165181
941.409	0.0166067
941.487	0.0166019
941.565	0.0165464
941.643	0.0164144
941.721	0.0166167
941.799	0.0166698
941.878	0.0165105
941.956	0.0165600
942.034	0.0165830
942.112	0.0166695
942.190	0.0166382
942.268	0.0167193
942.346	0.0165474
942.424	0.0165249
942.503	0.0167061
942.581	0.0166099
942.659	0.0165942
942.737	0.0166236
942.815	0.0165231
942.893	0.0166733
942.971	0.0165755
943.049	0.0165879
943.128	0.0166679
943.206	0.0167023
943.284	0.0166428
943.362	0.0166390
943.440	0.0166214
943.518	0.0166519
943.596	0.0168016
943.674	0.0166511
943.753	0.0165591
943.831	0.0166611
943.909	0.0166077
943.987	0.0165494
944.065	0.0166489
944.143	0.0165781
944.221	0.0165605
944.299	0.0164242
944.378	0.0165828
944.456	0.0165829
944.534	0.0166323
944.612	0.0165369
944.690	0.0165852
944.768	0.0165207
944.846	0.0164554
944.924	0.0166277
945.003	0.0164672
945.081	0.0165069
945.159	0.0164162
945.237	0.0163026
945.315	0.0165347
945.393	0.0166019
945.471	0.0166064
945.549	0.0166033
945.628	0.0165748
945.706	0.0164830
945.784	0.0166723
945.862	0.0165916
945.940	0.0164423
946.018	0.0165479
946.096	0.0166193
946.174	0.0166512
946.253	0.0166351
946.331	0.0165465
946.409	0.0165150
946.487	0.0165700
946.565	0.0164910
946.643	0.0165890
946.721	0.0167348
946.799	0.0166306
946.878	0.0167096
946.956	0.0166528
947.034	0.0166176
947.112	0.0167416
947.190	0.0166729
947.268	0.0165395
947.346	0.0166235
947.424	0.0165639
947.503	0.0166164
947.581	0.0167941
947.659	0.0167674
947.737	0.0166721
947.815	0.0166318
947.893	0.0166441
947.971	0.0166088
948.049	0.0167194
948.128	0.0165782
948.206	0.0165451
948.284	0.0165602
948.362	0.0167586
948.440	0.0165563
948.518	0.0165922
948.596	0.0164767
948.674	0.0164892
948.753	0.0165416
948.831	0.0166096
948.909	0.0166097
948.987	0.0164550
949.065	0.0163790
949.143	0.0164656
949.221	0.0165070
949.299	0.0163820
949.378	0.0165820
949.456	0.0164256
949.534	0.0165578
949.612	0.0165636
949.690	0.0164147
949.768	0.0165596
949.846	0.0166625
949.924	0.0164884
