06/29/2022	22:47:35	Ver.	4.1	UNKNOWN
Optical Delay	630.002507	Delta X		0.078125	Sweeps	1	Scan Rate	0/0
Coordinates	Axis 1	NaN	Axis 2	NaN	Axis 3	NaN	Axis 4	NaN	Axis 5	NaN	Axis 6	0.000000
TX Power	0.000000	RX Power	0.000000

630.003	0.0164568
630.081	0.0164439
630.159	0.0163807
630.237	0.0164670
630.315	0.0165195
630.393	0.0164279
630.471	0.0165118
630.549	0.0163867
630.628	0.0165083
630.706	0.0164297
630.784	0.0164432
630.862	0.0163525
630.940	0.0164777
631.018	0.0164374
631.096	0.0163813
631.174	0.0164295
631.253	0.0164714
631.331	0.0164722
631.409	0.0163613
631.487	0.0165375
631.565	0.0163390
631.643	0.0163867
631.721	0.0165389
631.799	0.0166015
631.878	0.0164265
631.956	0.0165613
632.034	0.0164927
632.112	0.0164244
632.190	0.0164089
632.268	0.0164366
632.346	0.0163905
632.424	0.0164970
632.503	0.0164999
632.581	0.0163433
632.659	0.0163782
632.737	0.0163865
632.815	0.0164075
632.893	0.0164088
632.971	0.0163714
633.049	0.0165842
633.128	0.0165325
633.206	0.0163049
633.284	0.0164697
633.362	0.0165450
633.440	0.0164857
633.518	0.0164902
633.596	0.0165451
633.674	0.0163357
633.753	0.0163004
633.831	0.0165306
633.909	0.0163899
633.987	0.0164507
634.065	0.0163766
634.143	0.0165900
634.221	0.0164400
634.299	0.0165259
634.378	0.0163663
634.456	0.0164119
634.534	0.0164710
634.612	0.0164888
634.690	0.0164948
634.768	0.0163479
634.846	0.0163778
634.924	0.0164030
635.003	0.0162895
635.081	0.0166213
635.159	0.0165430
635.237	0.0163055
635.315	0.0164298
635.393	0.0165377
635.471	0.0163257
635.549	0.0163973
635.628	0.0165008
635.706	0.0164479
635.784	0.0163815
635.862	0.0165079
635.940	0.0163361
636.018	0.0163407
636.096	0.0164636
636.174	0.0166316
636.253	0.0163728
636.331	0.0163919
636.409	0.0165323
636.487	0.0164455
636.565	0.0162251
636.643	0.0164880
636.721	0.0164855
636.799	0.0165091
636.878	0.0165173
636.956	0.0163737
637.034	0.0165268
637.112	0.0164177
637.190	0.0164143
637.268	0.0162432
637.346	0.0163625
637.424	0.0164038
637.503	0.0164051
637.581	0.0162978
637.659	0.0164718
637.737	0.0165076
637.815	0.0163412
637.893	0.0164242
637.971	0.0164246
638.049	0.0164722
638.128	0.0163302
638.206	0.0164359
638.284	0.0163747
638.362	0.0164404
638.440	0.0163858
638.518	0.0163570
638.596	0.0164314
638.674	0.0162553
638.753	0.0164392
638.831	0.0165499
638.909	0.0165722
638.987	0.0162714
639.065	0.0164471
639.143	0.0165021
639.221	0.0164025
639.299	0.0164161
639.378	0.0164922
639.456	0.0163336
639.534	0.0164455
639.612	0.0163643
639.690	0.0162785
639.768	0.0163570
639.846	0.0164005
639.924	0.0164102
640.003	0.0163088
640.081	0.0163987
640.159	0.0165509
640.237	0.0164462
640.315	0.0163329
640.393	0.0164285
640.471	0.0163734
640.549	0.0163809
640.628	0.0163822
640.706	0.0164265
640.784	0.0163501
640.862	0.0164624
640.940	0.0165356
641.018	0.0164847
641.096	0.0163688
641.174	0.0164662
641.253	0.0162396
641.331	0.0164829
641.409	0.0164567
641.487	0.0164317
641.565	0.0165033
641.643	0.0163736
641.721	0.0163631
641.799	0.0164641
641.878	0.0164563
641.956	0.0164481
642.034	0.0164928
642.112	0.0161875
642.190	0.0163580
642.268	0.0164458
642.346	0.0164148
642.424	0.0164204
642.503	0.0163715
642.581	0.0163217
642.659	0.0164169
642.737	0.0163635
642.815	0.0163322
642.893	0.0163557
642.971	0.0164968
643.049	0.0163175
643.128	0.0163280
643.206	0.0163409
643.284	0.0163595
643.362	0.0163920
643.440	0.0164286
643.518	0.0164200
643.596	0.0164494
643.674	0.0165237
643.753	0.0165279
643.831	0.0164166
643.909	0.0163998
643.987	0.0164545
644.065	0.0164452
644.143	0.0164818
644.221	0.0164085
644.299	0.0165761
644.378	0.0165408
644.456	0.0164453
644.534	0.0162850
644.612	0.0165131
644.690	0.0164668
644.768	0.0163888
644.846	0.0163933
644.924	0.0162627
645.003	0.0164120
645.081	0.0164524
645.159	0.0165945
645.237	0.0164956
645.315	0.0163175
645.393	0.0164909
645.471	0.0164241
645.549	0.0163615
645.628	0.0163479
645.706	0.0164060
645.784	0.0163861
645.862	0.0165922
645.940	0.0164735
646.018	0.0164798
646.096	0.0164489
646.174	0.0164599
646.253	0.0164552
646.331	0.0165022
646.409	0.0164704
646.487	0.0163441
646.565	0.0163721
646.643	0.0165134
646.721	0.0165845
646.799	0.0165536
646.878	0.0165266
646.956	0.0164659
647.034	0.0164479
647.112	0.0164480
647.190	0.0165404
647.268	0.0165211
647.346	0.0162525
647.424	0.0164831
647.503	0.0163938
647.581	0.0164109
647.659	0.0164524
647.737	0.0164462
647.815	0.0164985
647.893	0.0164622
647.971	0.0165074
648.049	0.0164262
648.128	0.0164835
648.206	0.0164915
648.284	0.0163969
648.362	0.0165646
648.440	0.0164788
648.518	0.0164716
648.596	0.0162937
648.674	0.0162612
648.753	0.0163748
648.831	0.0164782
648.909	0.0163850
648.987	0.0163900
649.065	0.0164753
649.143	0.0165118
649.221	0.0163350
649.299	0.0163724
649.378	0.0164584
649.456	0.0164422
649.534	0.0163940
649.612	0.0165041
649.690	0.0165141
649.768	0.0163734
649.846	0.0163402
649.924	0.0163396
650.003	0.0164080
650.081	0.0165346
650.159	0.0163747
650.237	0.0163222
650.315	0.0164309
650.393	0.0163393
650.471	0.0163991
650.549	0.0164426
650.628	0.0164731
650.706	0.0164397
650.784	0.0166352
650.862	0.0165668
650.940	0.0166410
651.018	0.0165034
651.096	0.0164870
651.174	0.0165102
651.253	0.0166147
651.331	0.0164429
651.409	0.0166248
651.487	0.0165195
651.565	0.0164726
651.643	0.0163644
651.721	0.0163528
651.799	0.0163849
651.878	0.0163858
651.956	0.0163667
652.034	0.0165926
652.112	0.0165853
652.190	0.0162424
652.268	0.0164351
652.346	0.0164480
652.424	0.0164825
652.503	0.0165096
652.581	0.0163408
652.659	0.0164063
652.737	0.0165221
652.815	0.0165674
652.893	0.0163031
652.971	0.0163502
653.049	0.0163653
653.128	0.0164931
653.206	0.0163451
653.284	0.0164420
653.362	0.0165250
653.440	0.0164233
653.518	0.0163428
653.596	0.0164579
653.674	0.0164607
653.753	0.0163741
653.831	0.0164204
653.909	0.0164027
653.987	0.0163388
654.065	0.0162118
654.143	0.0164509
654.221	0.0164377
654.299	0.0164516
654.378	0.0165628
654.456	0.0164394
654.534	0.0165057
654.612	0.0164173
654.690	0.0165702
654.768	0.0164079
654.846	0.0164866
654.924	0.0164900
655.003	0.0163796
655.081	0.0164586
655.159	0.0164726
655.237	0.0164320
655.315	0.0164763
655.393	0.0164304
655.471	0.0164159
655.549	0.0164542
655.628	0.0164325
655.706	0.0164965
655.784	0.0163995
655.862	0.0164321
655.940	0.0165112
656.018	0.0164196
656.096	0.0165168
656.174	0.0164603
656.253	0.0164657
656.331	0.0164717
656.409	0.0165363
656.487	0.0164559
656.565	0.0164601
656.643	0.0165833
656.721	0.0164607
656.799	0.0164829
656.878	0.0164303
656.956	0.0163972
657.034	0.0164191
657.112	0.0165329
657.190	0.0163932
657.268	0.0163978
657.346	0.0164966
657.424	0.0164417
657.503	0.0164346
657.581	0.0163181
657.659	0.0163831
657.737	0.0164835
657.815	0.0166187
657.893	0.0165014
657.971	0.0164750
658.049	0.0165128
658.128	0.0164708
658.206	0.0164359
658.284	0.0165160
658.362	0.0164725
658.440	0.0164659
658.518	0.0164067
658.596	0.0164037
658.674	0.0165482
658.753	0.0163995
658.831	0.0164159
658.909	0.0166507
658.987	0.0163564
659.065	0.0163956
659.143	0.0163963
659.221	0.0163447
659.299	0.0163465
659.378	0.0164585
659.456	0.0163708
659.534	0.0164941
659.612	0.0164962
659.690	0.0164542
659.768	0.0164358
659.846	0.0164737
659.924	0.0164844
660.003	0.0165203
660.081	0.0164051
660.159	0.0164412
660.237	0.0164149
660.315	0.0165296
660.393	0.0163454
660.471	0.0163993
660.549	0.0163609
660.628	0.0164471
660.706	0.0164110
660.784	0.0165190
660.862	0.0164719
660.940	0.0164086
661.018	0.0164967
661.096	0.0164964
661.174	0.0164002
661.253	0.0164223
661.331	0.0164061
661.409	0.0164658
661.487	0.0165886
661.565	0.0164102
661.643	0.0164617
661.721	0.0164589
661.799	0.0165119
661.878	0.0163931
661.956	0.0163352
662.034	0.0165206
662.112	0.0165324
662.190	0.0164853
662.268	0.0164647
662.346	0.0163666
662.424	0.0163765
662.503	0.0163320
662.581	0.0165462
662.659	0.0166275
662.737	0.0164487
662.815	0.0164753
662.893	0.0164775
662.971	0.0164458
663.049	0.0163132
663.128	0.0162818
663.206	0.0164055
663.284	0.0164172
663.362	0.0163948
663.440	0.0164832
663.518	0.0164709
663.596	0.0164207
663.674	0.0163531
663.753	0.0164034
663.831	0.0164007
663.909	0.0164140
663.987	0.0164953
664.065	0.0164536
664.143	0.0163308
664.221	0.0165154
664.299	0.0165432
664.378	0.0165393
664.456	0.0164180
664.534	0.0163240
664.612	0.0164328
664.690	0.0164298
664.768	0.0164719
664.846	0.0164230
664.924	0.0163742
665.003	0.0164989
665.081	0.0164503
665.159	0.0164082
665.237	0.0163889
665.315	0.0164388
665.393	0.0163683
665.471	0.0165315
665.549	0.0163821
665.628	0.0164377
665.706	0.0164043
665.784	0.0164702
665.862	0.0164631
665.940	0.0164712
666.018	0.0165080
666.096	0.0163267
666.174	0.0163324
666.253	0.0163240
666.331	0.0164825
666.409	0.0162695
666.487	0.0163480
666.565	0.0165186
666.643	0.0165099
666.721	0.0163514
666.799	0.0164194
666.878	0.0165374
666.956	0.0163905
667.034	0.0164536
667.112	0.0163702
667.190	0.0162612
667.268	0.0163884
667.346	0.0164577
667.424	0.0164482
667.503	0.0163974
667.581	0.0165240
667.659	0.0164156
667.737	0.0164395
667.815	0.0164286
667.893	0.0164183
667.971	0.0164497
668.049	0.0164715
668.128	0.0164590
668.206	0.0164405
668.284	0.0164591
668.362	0.0163620
668.440	0.0162950
668.518	0.0164639
668.596	0.0165538
668.674	0.0164941
668.753	0.0164204
668.831	0.0163339
668.909	0.0164635
668.987	0.0164600
669.065	0.0165951
669.143	0.0164886
669.221	0.0164153
669.299	0.0163842
669.378	0.0163383
669.456	0.0165281
669.534	0.0165733
669.612	0.0164930
669.690	0.0163918
669.768	0.0165073
669.846	0.0164942
669.924	0.0165015
670.003	0.0164845
670.081	0.0165192
670.159	0.0165707
670.237	0.0163415
670.315	0.0165198
670.393	0.0164180
670.471	0.0164242
670.549	0.0164170
670.628	0.0164285
670.706	0.0163612
670.784	0.0164796
670.862	0.0165039
670.940	0.0164235
671.018	0.0162681
671.096	0.0166685
671.174	0.0164337
671.253	0.0164007
671.331	0.0164240
671.409	0.0163898
671.487	0.0166092
671.565	0.0165092
671.643	0.0164387
671.721	0.0165453
671.799	0.0164043
671.878	0.0164124
671.956	0.0163550
672.034	0.0165824
672.112	0.0164229
672.190	0.0164056
672.268	0.0164752
672.346	0.0165263
672.424	0.0164791
672.503	0.0164894
672.581	0.0162772
672.659	0.0164238
672.737	0.0165517
672.815	0.0163861
672.893	0.0165269
672.971	0.0165260
673.049	0.0163120
673.128	0.0164994
673.206	0.0164265
673.284	0.0164442
673.362	0.0165266
673.440	0.0162339
673.518	0.0164182
673.596	0.0164924
673.674	0.0164004
673.753	0.0164532
673.831	0.0164336
673.909	0.0164929
673.987	0.0163403
674.065	0.0164259
674.143	0.0165532
674.221	0.0164674
674.299	0.0163703
674.378	0.0164600
674.456	0.0164941
674.534	0.0165692
674.612	0.0166006
674.690	0.0164157
674.768	0.0165687
674.846	0.0163394
674.924	0.0165605
675.003	0.0165296
675.081	0.0164484
675.159	0.0164406
675.237	0.0164839
675.315	0.0164923
675.393	0.0164599
675.471	0.0165442
675.549	0.0165247
675.628	0.0164923
675.706	0.0164592
675.784	0.0165154
675.862	0.0163363
675.940	0.0166228
676.018	0.0164649
676.096	0.0165249
676.174	0.0163227
676.253	0.0164185
676.331	0.0164937
676.409	0.0165560
676.487	0.0163155
676.565	0.0164410
676.643	0.0164420
676.721	0.0163364
676.799	0.0164584
676.878	0.0164262
676.956	0.0163730
677.034	0.0163291
677.112	0.0164603
677.190	0.0164760
677.268	0.0164696
677.346	0.0165128
677.424	0.0164391
677.503	0.0164390
677.581	0.0165101
677.659	0.0164618
677.737	0.0164327
677.815	0.0165392
677.893	0.0165151
677.971	0.0164669
678.049	0.0164895
678.128	0.0164650
678.206	0.0163744
678.284	0.0163874
678.362	0.0163570
678.440	0.0164511
678.518	0.0165208
678.596	0.0164596
678.674	0.0164025
678.753	0.0164157
678.831	0.0164803
678.909	0.0163647
678.987	0.0165081
679.065	0.0164248
679.143	0.0162548
679.221	0.0164792
679.299	0.0165976
679.378	0.0164988
679.456	0.0164460
679.534	0.0164960
679.612	0.0163509
679.690	0.0164885
679.768	0.0164617
679.846	0.0164217
679.924	0.0164899
680.003	0.0165637
680.081	0.0163777
680.159	0.0164329
680.237	0.0164867
680.315	0.0163960
680.393	0.0163599
680.471	0.0165932
680.549	0.0164938
680.628	0.0165665
680.706	0.0165005
680.784	0.0165044
680.862	0.0163240
680.940	0.0163516
681.018	0.0164473
681.096	0.0165273
681.174	0.0164995
681.253	0.0165100
681.331	0.0163538
681.409	0.0163959
681.487	0.0165633
681.565	0.0164087
681.643	0.0164478
681.721	0.0164812
681.799	0.0164136
681.878	0.0163785
681.956	0.0165266
682.034	0.0164478
682.112	0.0165624
682.190	0.0163860
682.268	0.0164355
682.346	0.0163315
682.424	0.0164665
682.503	0.0164730
682.581	0.0165108
682.659	0.0164092
682.737	0.0163898
682.815	0.0164857
682.893	0.0162856
682.971	0.0163998
683.049	0.0164396
683.128	0.0163968
683.206	0.0165217
683.284	0.0165133
683.362	0.0164633
683.440	0.0163943
683.518	0.0163747
683.596	0.0164528
683.674	0.0164058
683.753	0.0163567
683.831	0.0163806
683.909	0.0165387
683.987	0.0163688
684.065	0.0164329
684.143	0.0163918
684.221	0.0163223
684.299	0.0163576
684.378	0.0165091
684.456	0.0164442
684.534	0.0162854
684.612	0.0164336
684.690	0.0164358
684.768	0.0164501
684.846	0.0164550
684.924	0.0165009
685.003	0.0164449
685.081	0.0164056
685.159	0.0163572
685.237	0.0164227
685.315	0.0164616
685.393	0.0164252
685.471	0.0163252
685.549	0.0164086
685.628	0.0164544
685.706	0.0165276
685.784	0.0164369
685.862	0.0162872
685.940	0.0163855
686.018	0.0164568
686.096	0.0164914
686.174	0.0164734
686.253	0.0165476
686.331	0.0166009
686.409	0.0165402
686.487	0.0164035
686.565	0.0163842
686.643	0.0165329
686.721	0.0163760
686.799	0.0165137
686.878	0.0165590
686.956	0.0164504
687.034	0.0163632
687.112	0.0164717
687.190	0.0163950
687.268	0.0164241
687.346	0.0163378
687.424	0.0164723
687.503	0.0164262
687.581	0.0164320
687.659	0.0164948
687.737	0.0163346
687.815	0.0165044
687.893	0.0164355
687.971	0.0165380
688.049	0.0164690
688.128	0.0164092
688.206	0.0164527
688.284	0.0164560
688.362	0.0163599
688.440	0.0163657
688.518	0.0163506
688.596	0.0164590
688.674	0.0164674
688.753	0.0164123
688.831	0.0164854
688.909	0.0164767
688.987	0.0163977
689.065	0.0164092
689.143	0.0164461
689.221	0.0164021
689.299	0.0164291
689.378	0.0163331
689.456	0.0163808
689.534	0.0164883
689.612	0.0163788
689.690	0.0164230
689.768	0.0164992
689.846	0.0164658
689.924	0.0163962
690.003	0.0164482
690.081	0.0163661
690.159	0.0163894
690.237	0.0164459
690.315	0.0166138
690.393	0.0164041
690.471	0.0165424
690.549	0.0165926
690.628	0.0164015
690.706	0.0164067
690.784	0.0163288
690.862	0.0164519
690.940	0.0163441
691.018	0.0162796
691.096	0.0162883
691.174	0.0165453
691.253	0.0163885
691.331	0.0164268
691.409	0.0164464
691.487	0.0163932
691.565	0.0165852
691.643	0.0165384
691.721	0.0164637
691.799	0.0163351
691.878	0.0164097
691.956	0.0165187
692.034	0.0164266
692.112	0.0165159
692.190	0.0165030
692.268	0.0165241
692.346	0.0165460
692.424	0.0163967
692.503	0.0164833
692.581	0.0164004
692.659	0.0164721
692.737	0.0163982
692.815	0.0163431
692.893	0.0165778
692.971	0.0163794
693.049	0.0164489
693.128	0.0163772
693.206	0.0164890
693.284	0.0163860
693.362	0.0164668
693.440	0.0163488
693.518	0.0163852
693.596	0.0163206
693.674	0.0164335
693.753	0.0165118
693.831	0.0165595
693.909	0.0165154
693.987	0.0165075
694.065	0.0165847
694.143	0.0164860
694.221	0.0164014
694.299	0.0165508
694.378	0.0165230
694.456	0.0164715
694.534	0.0164402
694.612	0.0164209
694.690	0.0163755
694.768	0.0163218
694.846	0.0164447
694.924	0.0164474
695.003	0.0164656
695.081	0.0163860
695.159	0.0164668
695.237	0.0164581
695.315	0.0165044
695.393	0.0165415
695.471	0.0166267
695.549	0.0164941
695.628	0.0164601
695.706	0.0163699
695.784	0.0163733
695.862	0.0165539
695.940	0.0164339
696.018	0.0164826
696.096	0.0163609
696.174	0.0164799
696.253	0.0165258
696.331	0.0165023
696.409	0.0164612
696.487	0.0164501
696.565	0.0165643
696.643	0.0163270
696.721	0.0164722
696.799	0.0165179
696.878	0.0164713
696.956	0.0164392
697.034	0.0164927
697.112	0.0164295
697.190	0.0165131
697.268	0.0163914
697.346	0.0164476
697.424	0.0162901
697.503	0.0164580
697.581	0.0164144
697.659	0.0165171
697.737	0.0165222
697.815	0.0164542
697.893	0.0164885
697.971	0.0164549
698.049	0.0165152
698.128	0.0164294
698.206	0.0165266
698.284	0.0165312
698.362	0.0164478
698.440	0.0165411
698.518	0.0165595
698.596	0.0164716
698.674	0.0163813
698.753	0.0165269
698.831	0.0165623
698.909	0.0165664
698.987	0.0163825
699.065	0.0165463
699.143	0.0167233
699.221	0.0166547
699.299	0.0163348
699.378	0.0164774
699.456	0.0165225
699.534	0.0163956
699.612	0.0164207
699.690	0.0164453
699.768	0.0164177
699.846	0.0165034
699.924	0.0164783
700.003	0.0163731
700.081	0.0163764
700.159	0.0164922
700.237	0.0164503
700.315	0.0164411
700.393	0.0164710
700.471	0.0165123
700.549	0.0163829
700.628	0.0165319
700.706	0.0164905
700.784	0.0164966
700.862	0.0164211
700.940	0.0165030
701.018	0.0165047
701.096	0.0165527
701.174	0.0165009
701.253	0.0165022
701.331	0.0165900
701.409	0.0163964
701.487	0.0164089
701.565	0.0165293
701.643	0.0165271
701.721	0.0164253
701.799	0.0166071
701.878	0.0165130
701.956	0.0164249
702.034	0.0163889
702.112	0.0164826
702.190	0.0163295
702.268	0.0164536
702.346	0.0164593
702.424	0.0162882
702.503	0.0164013
702.581	0.0164475
702.659	0.0165958
702.737	0.0165412
702.815	0.0163585
702.893	0.0163953
702.971	0.0164100
703.049	0.0164067
703.128	0.0164787
703.206	0.0164494
703.284	0.0164218
703.362	0.0163869
703.440	0.0164682
703.518	0.0164537
703.596	0.0164491
703.674	0.0165091
703.753	0.0165274
703.831	0.0163779
703.909	0.0163656
703.987	0.0164172
704.065	0.0164979
704.143	0.0163981
704.221	0.0165269
704.299	0.0165144
704.378	0.0164690
704.456	0.0163201
704.534	0.0164460
704.612	0.0165004
704.690	0.0163714
704.768	0.0164146
704.846	0.0162449
704.924	0.0163775
705.003	0.0164867
705.081	0.0163701
705.159	0.0162834
705.237	0.0163646
705.315	0.0164429
705.393	0.0163971
705.471	0.0163998
705.549	0.0163344
705.628	0.0164928
705.706	0.0164274
705.784	0.0164076
705.862	0.0164005
705.940	0.0164201
706.018	0.0162769
706.096	0.0163831
706.174	0.0163741
706.253	0.0163685
706.331	0.0164074
706.409	0.0164813
706.487	0.0164807
706.565	0.0165318
706.643	0.0163168
706.721	0.0163411
706.799	0.0163174
706.878	0.0163216
706.956	0.0164636
707.034	0.0163381
707.112	0.0163281
707.190	0.0163400
707.268	0.0164167
707.346	0.0162893
707.424	0.0164563
707.503	0.0164215
707.581	0.0164304
707.659	0.0165149
707.737	0.0165498
707.815	0.0163553
707.893	0.0164380
707.971	0.0163590
708.049	0.0164252
708.128	0.0163571
708.206	0.0163577
708.284	0.0163721
708.362	0.0163580
708.440	0.0164337
708.518	0.0164194
708.596	0.0164741
708.674	0.0164008
708.753	0.0164002
708.831	0.0164565
708.909	0.0164448
708.987	0.0165820
709.065	0.0164870
709.143	0.0165469
709.221	0.0164236
709.299	0.0162758
709.378	0.0164848
709.456	0.0165988
709.534	0.0163914
709.612	0.0164176
709.690	0.0165415
709.768	0.0164468
709.846	0.0164045
709.924	0.0164156
710.003	0.0163696
710.081	0.0164295
710.159	0.0164737
710.237	0.0164110
710.315	0.0164861
710.393	0.0164479
710.471	0.0165158
710.549	0.0164716
710.628	0.0164579
710.706	0.0164136
710.784	0.0165398
710.862	0.0163758
710.940	0.0163889
711.018	0.0165619
711.096	0.0165859
711.174	0.0164059
711.253	0.0163939
711.331	0.0165091
711.409	0.0164553
711.487	0.0164349
711.565	0.0164614
711.643	0.0164633
711.721	0.0165591
711.799	0.0163435
711.878	0.0163857
711.956	0.0163506
712.034	0.0163227
712.112	0.0165034
712.190	0.0164162
712.268	0.0163729
712.346	0.0163837
712.424	0.0163844
712.503	0.0164771
712.581	0.0163976
712.659	0.0164170
712.737	0.0164011
712.815	0.0163528
712.893	0.0165435
712.971	0.0164035
713.049	0.0163382
713.128	0.0161766
713.206	0.0164919
713.284	0.0164999
713.362	0.0165250
713.440	0.0165177
713.518	0.0164745
713.596	0.0164061
713.674	0.0164336
713.753	0.0164780
713.831	0.0165856
713.909	0.0166310
713.987	0.0164875
714.065	0.0166354
714.143	0.0165447
714.221	0.0164568
714.299	0.0165660
714.378	0.0165832
714.456	0.0165512
714.534	0.0165988
714.612	0.0164864
714.690	0.0166257
714.768	0.0165483
714.846	0.0165662
714.924	0.0163972
715.003	0.0165347
715.081	0.0164716
715.159	0.0165396
715.237	0.0165768
715.315	0.0165448
715.393	0.0165390
715.471	0.0165272
715.549	0.0165663
715.628	0.0166577
715.706	0.0166698
715.784	0.0165854
715.862	0.0165630
715.940	0.0166328
716.018	0.0165663
716.096	0.0165128
716.174	0.0165365
716.253	0.0165388
716.331	0.0164929
716.409	0.0164250
716.487	0.0163371
716.565	0.0161563
716.643	0.0161901
716.721	0.0160116
716.799	0.0158961
716.878	0.0158472
716.956	0.0157362
717.034	0.0157676
717.112	0.0158625
717.190	0.0155973
717.268	0.0155774
717.346	0.0157578
717.424	0.0160648
717.503	0.0158987
717.581	0.0160641
717.659	0.0165141
717.737	0.0166281
717.815	0.0166536
717.893	0.0170591
717.971	0.0171955
718.049	0.0175076
718.128	0.0177245
718.206	0.0178897
718.284	0.0180105
718.362	0.0180923
718.440	0.0181824
718.518	0.0180614
718.596	0.0179262
718.674	0.0174682
718.753	0.0170859
718.831	0.0168997
718.909	0.0163642
718.987	0.0156061
719.065	0.0151264
719.143	0.0146036
719.221	0.0142894
719.299	0.0138975
719.378	0.0135489
719.456	0.0136114
719.534	0.0138471
719.612	0.0139198
719.690	0.0143021
719.768	0.0145937
719.846	0.0151122
719.924	0.0156514
720.003	0.0161457
720.081	0.0166985
720.159	0.0171695
720.237	0.0178527
720.315	0.0183278
720.393	0.0187005
720.471	0.0191319
720.549	0.0194399
720.628	0.0196941
720.706	0.0197734
720.784	0.0195898
720.862	0.0195102
720.940	0.0193907
721.018	0.0191293
721.096	0.0186153
721.174	0.0180807
721.253	0.0177119
721.331	0.0170319
721.409	0.0162077
721.487	0.0155540
721.565	0.0146830
721.643	0.0140276
721.721	0.0133894
721.799	0.0129571
721.878	0.0125569
721.956	0.0122998
722.034	0.0122970
722.112	0.0123775
722.190	0.0125672
722.268	0.0131017
722.346	0.0137162
722.424	0.0143102
722.503	0.0148097
722.581	0.0156640
722.659	0.0164419
722.737	0.0171821
722.815	0.0179249
722.893	0.0189985
722.971	0.0196124
723.049	0.0201702
723.128	0.0205809
723.206	0.0210111
723.284	0.0210956
723.362	0.0210062
723.440	0.0208530
723.518	0.0204333
723.596	0.0200851
723.674	0.0194020
723.753	0.0186226
723.831	0.0179356
723.909	0.0170458
723.987	0.0164595
724.065	0.0156129
724.143	0.0147826
724.221	0.0141382
724.299	0.0136616
724.378	0.0132178
724.456	0.0127003
724.534	0.0124701
724.612	0.0124027
724.690	0.0123837
724.768	0.0125545
724.846	0.0127762
724.924	0.0132498
725.003	0.0138704
725.081	0.0145187
725.159	0.0149549
725.237	0.0156298
725.315	0.0162662
725.393	0.0167133
725.471	0.0172906
725.549	0.0178169
725.628	0.0183176
725.706	0.0188364
725.784	0.0190125
725.862	0.0192489
725.940	0.0193006
726.018	0.0195151
726.096	0.0193891
726.174	0.0194338
726.253	0.0191264
726.331	0.0188589
726.409	0.0186551
726.487	0.0183402
726.565	0.0180669
726.643	0.0173175
726.721	0.0167762
726.799	0.0164603
726.878	0.0160931
726.956	0.0156839
727.034	0.0152750
727.112	0.0148469
727.190	0.0145678
727.268	0.0145419
727.346	0.0143253
727.424	0.0142003
727.503	0.0141860
727.581	0.0141875
727.659	0.0144163
727.737	0.0146609
727.815	0.0146444
727.893	0.0152429
727.971	0.0154092
728.049	0.0158388
728.128	0.0162637
728.206	0.0164143
728.284	0.0166189
728.362	0.0169125
728.440	0.0172121
728.518	0.0174722
728.596	0.0176003
728.674	0.0175525
728.753	0.0174964
728.831	0.0175256
728.909	0.0174413
728.987	0.0173280
729.065	0.0171003
729.143	0.0167918
729.221	0.0166626
729.299	0.0165680
729.378	0.0160468
729.456	0.0158217
729.534	0.0156199
729.612	0.0156482
729.690	0.0155212
729.768	0.0154617
729.846	0.0155371
729.924	0.0156174
730.003	0.0158607
730.081	0.0162334
730.159	0.0164273
730.237	0.0168314
730.315	0.0171124
730.393	0.0174546
730.471	0.0176989
730.549	0.0177867
730.628	0.0180298
730.706	0.0182299
730.784	0.0182470
730.862	0.0181408
730.940	0.0180026
731.018	0.0178233
731.096	0.0174731
731.174	0.0170190
731.253	0.0167538
731.331	0.0162630
731.409	0.0158846
731.487	0.0155519
731.565	0.0151203
731.643	0.0147845
731.721	0.0146251
731.799	0.0146340
731.878	0.0145961
731.956	0.0146661
732.034	0.0148645
732.112	0.0149944
732.190	0.0150805
732.268	0.0153716
732.346	0.0156015
732.424	0.0160982
732.503	0.0162800
732.581	0.0163381
732.659	0.0165907
732.737	0.0168234
732.815	0.0170966
732.893	0.0169335
732.971	0.0170364
733.049	0.0168906
733.128	0.0169402
733.206	0.0168448
733.284	0.0167590
733.362	0.0166598
733.440	0.0166306
733.518	0.0164594
733.596	0.0166412
733.674	0.0166734
733.753	0.0166866
733.831	0.0167836
733.909	0.0167717
733.987	0.0168898
734.065	0.0168964
734.143	0.0169163
734.221	0.0168732
734.299	0.0168256
734.378	0.0168750
734.456	0.0169224
734.534	0.0168069
734.612	0.0167070
734.690	0.0168829
734.768	0.0170010
734.846	0.0169404
734.924	0.0170034
735.003	0.0170418
735.081	0.0170217
735.159	0.0172415
735.237	0.0171842
735.315	0.0171671
735.393	0.0171371
735.471	0.0170332
735.549	0.0171139
735.628	0.0168885
735.706	0.0168328
735.784	0.0166424
735.862	0.0161947
735.940	0.0159094
736.018	0.0157893
736.096	0.0154281
736.174	0.0152315
736.253	0.0149690
736.331	0.0148666
736.409	0.0148843
736.487	0.0147781
736.565	0.0148113
736.643	0.0150132
736.721	0.0150780
736.799	0.0154358
736.878	0.0156651
736.956	0.0158981
737.034	0.0160972
737.112	0.0164137
737.190	0.0167356
737.268	0.0168720
737.346	0.0169565
737.424	0.0169581
737.503	0.0170354
737.581	0.0169260
737.659	0.0169811
737.737	0.0167742
737.815	0.0166486
737.893	0.0167419
737.971	0.0163834
738.049	0.0162957
738.128	0.0162276
738.206	0.0161862
738.284	0.0161941
738.362	0.0161590
738.440	0.0162994
738.518	0.0162769
738.596	0.0162910
738.674	0.0166886
738.753	0.0167381
738.831	0.0167345
738.909	0.0170583
738.987	0.0172662
739.065	0.0172370
739.143	0.0172339
739.221	0.0173363
739.299	0.0175030
739.378	0.0175453
739.456	0.0174461
739.534	0.0172334
739.612	0.0171307
739.690	0.0171905
739.768	0.0170265
739.846	0.0168367
739.924	0.0163763
740.003	0.0162988
740.081	0.0160058
740.159	0.0157154
740.237	0.0156412
740.315	0.0154370
740.393	0.0154839
740.471	0.0154681
740.549	0.0154562
740.628	0.0155087
740.706	0.0157089
740.784	0.0159587
740.862	0.0160808
740.940	0.0162111
741.018	0.0162858
741.096	0.0165205
741.174	0.0166081
741.253	0.0166917
741.331	0.0166206
741.409	0.0165818
741.487	0.0166721
741.565	0.0166156
741.643	0.0165469
741.721	0.0164658
741.799	0.0163901
741.878	0.0162817
741.956	0.0160804
742.034	0.0159855
742.112	0.0158026
742.190	0.0158598
742.268	0.0156711
742.346	0.0154204
742.424	0.0155704
742.503	0.0156175
742.581	0.0156116
742.659	0.0157020
742.737	0.0160744
742.815	0.0159879
742.893	0.0160801
742.971	0.0161859
743.049	0.0164053
743.128	0.0162467
743.206	0.0163370
743.284	0.0166130
743.362	0.0166749
743.440	0.0168774
743.518	0.0169363
743.596	0.0171906
743.674	0.0170515
743.753	0.0170702
743.831	0.0173492
743.909	0.0175404
743.987	0.0174783
744.065	0.0175300
744.143	0.0176073
744.221	0.0175733
744.299	0.0175187
744.378	0.0173064
744.456	0.0172654
744.534	0.0171979
744.612	0.0170605
744.690	0.0168745
744.768	0.0166730
744.846	0.0165769
744.924	0.0164318
745.003	0.0159676
745.081	0.0159402
745.159	0.0157908
745.237	0.0156817
745.315	0.0155775
745.393	0.0154990
745.471	0.0154124
745.549	0.0155245
745.628	0.0157068
745.706	0.0155838
745.784	0.0156647
745.862	0.0158012
745.940	0.0159944
746.018	0.0161911
746.096	0.0162014
746.174	0.0164600
746.253	0.0164537
746.331	0.0165448
746.409	0.0165601
746.487	0.0166935
746.565	0.0166015
746.643	0.0167047
746.721	0.0167776
746.799	0.0167603
746.878	0.0167653
746.956	0.0167574
747.034	0.0167370
747.112	0.0167118
747.190	0.0165253
747.268	0.0164279
747.346	0.0164333
747.424	0.0163288
747.503	0.0162677
747.581	0.0161742
747.659	0.0160371
747.737	0.0158813
747.815	0.0159354
747.893	0.0158812
747.971	0.0159476
748.049	0.0159246
748.128	0.0160269
748.206	0.0162162
748.284	0.0162612
748.362	0.0163590
748.440	0.0164697
748.518	0.0166056
748.596	0.0167146
748.674	0.0167158
748.753	0.0168825
748.831	0.0170977
748.909	0.0171134
748.987	0.0170694
749.065	0.0172694
749.143	0.0171782
749.221	0.0171093
749.299	0.0170354
749.378	0.0171135
749.456	0.0172915
749.534	0.0171848
749.612	0.0169671
749.690	0.0170676
749.768	0.0168777
749.846	0.0168603
749.924	0.0166787
750.003	0.0165828
750.081	0.0165370
750.159	0.0163935
750.237	0.0161948
750.315	0.0161316
750.393	0.0160909
750.471	0.0158304
750.549	0.0157030
750.628	0.0157613
750.706	0.0156183
750.784	0.0156118
750.862	0.0156637
750.940	0.0156827
751.018	0.0157917
751.096	0.0158131
751.174	0.0158289
751.253	0.0158319
751.331	0.0158878
751.409	0.0161309
751.487	0.0160176
751.565	0.0160928
751.643	0.0161928
751.721	0.0164195
751.799	0.0164342
751.878	0.0163976
751.956	0.0166026
752.034	0.0165637
752.112	0.0166843
752.190	0.0168558
752.268	0.0169154
752.346	0.0169110
752.424	0.0168939
752.503	0.0170034
752.581	0.0167960
752.659	0.0166462
752.737	0.0164976
752.815	0.0164970
752.893	0.0163380
752.971	0.0161506
753.049	0.0160488
753.128	0.0160754
753.206	0.0159471
753.284	0.0157835
753.362	0.0159028
753.440	0.0158552
753.518	0.0159736
753.596	0.0159958
753.674	0.0161507
753.753	0.0161547
753.831	0.0162730
753.909	0.0163970
753.987	0.0166426
754.065	0.0168156
754.143	0.0169703
754.221	0.0169219
754.299	0.0171371
754.378	0.0172247
754.456	0.0171967
754.534	0.0170812
754.612	0.0172314
754.690	0.0171602
754.768	0.0171283
754.846	0.0170561
754.924	0.0168500
755.003	0.0165797
755.081	0.0166147
755.159	0.0164304
755.237	0.0164214
755.315	0.0161087
755.393	0.0158838
755.471	0.0159247
755.549	0.0159836
755.628	0.0156242
755.706	0.0157105
755.784	0.0156826
755.862	0.0158895
755.940	0.0158596
756.018	0.0158692
756.096	0.0161131
756.174	0.0160876
756.253	0.0161476
756.331	0.0163711
756.409	0.0164716
756.487	0.0167413
756.565	0.0166616
756.643	0.0166562
756.721	0.0167565
756.799	0.0169110
756.878	0.0169559
756.956	0.0168053
757.034	0.0168599
757.112	0.0170168
757.190	0.0170718
757.268	0.0167800
757.346	0.0166998
757.424	0.0167966
757.503	0.0169408
757.581	0.0168156
757.659	0.0168468
757.737	0.0168519
757.815	0.0166422
757.893	0.0165022
757.971	0.0164837
758.049	0.0164320
758.128	0.0164790
758.206	0.0162177
758.284	0.0162991
758.362	0.0160838
758.440	0.0161171
758.518	0.0160367
758.596	0.0158714
758.674	0.0159560
758.753	0.0159525
758.831	0.0159614
758.909	0.0159753
758.987	0.0160284
759.065	0.0161324
759.143	0.0160326
759.221	0.0162546
759.299	0.0163943
759.378	0.0165508
759.456	0.0166428
759.534	0.0166124
759.612	0.0168040
759.690	0.0167733
759.768	0.0168233
759.846	0.0170229
759.924	0.0168897
760.003	0.0170087
760.081	0.0169401
760.159	0.0169307
760.237	0.0169000
760.315	0.0167749
760.393	0.0165919
760.471	0.0166780
760.549	0.0164822
760.628	0.0162498
760.706	0.0164051
760.784	0.0162691
760.862	0.0160884
760.940	0.0160683
761.018	0.0160622
761.096	0.0160257
761.174	0.0161708
761.253	0.0160439
761.331	0.0159694
761.409	0.0159411
761.487	0.0161472
761.565	0.0161856
761.643	0.0160497
761.721	0.0161160
761.799	0.0162929
761.878	0.0162656
761.956	0.0162839
762.034	0.0163158
762.112	0.0162631
762.190	0.0164259
762.268	0.0164442
762.346	0.0165501
762.424	0.0165907
762.503	0.0167219
762.581	0.0167362
762.659	0.0167271
762.737	0.0167834
762.815	0.0168905
762.893	0.0167121
762.971	0.0167586
763.049	0.0167324
763.128	0.0166442
763.206	0.0164646
763.284	0.0165025
763.362	0.0166557
763.440	0.0164822
763.518	0.0165482
763.596	0.0165067
763.674	0.0162506
763.753	0.0163050
763.831	0.0162541
763.909	0.0162907
763.987	0.0161782
764.065	0.0163895
764.143	0.0162675
764.221	0.0162556
764.299	0.0162383
764.378	0.0160748
764.456	0.0161426
764.534	0.0161480
764.612	0.0161955
764.690	0.0161044
764.768	0.0161485
764.846	0.0163133
764.924	0.0163943
765.003	0.0164787
765.081	0.0164548
765.159	0.0165960
765.237	0.0167202
765.315	0.0167709
765.393	0.0165844
765.471	0.0166863
765.549	0.0166590
765.628	0.0166882
765.706	0.0167842
765.784	0.0165063
765.862	0.0165346
765.940	0.0163203
766.018	0.0162460
766.096	0.0162057
766.174	0.0160529
766.253	0.0159600
766.331	0.0160141
766.409	0.0160347
766.487	0.0159766
766.565	0.0161250
766.643	0.0159581
766.721	0.0161011
766.799	0.0162354
766.878	0.0163887
766.956	0.0163378
767.034	0.0165557
767.112	0.0165504
767.190	0.0167370
767.268	0.0166447
767.346	0.0166634
767.424	0.0166573
767.503	0.0167899
767.581	0.0166310
767.659	0.0166421
767.737	0.0166829
767.815	0.0164933
767.893	0.0164960
767.971	0.0164215
768.049	0.0164018
768.128	0.0165463
768.206	0.0163941
768.284	0.0163201
768.362	0.0163618
768.440	0.0164081
768.518	0.0164634
768.596	0.0165176
768.674	0.0164550
768.753	0.0165231
768.831	0.0164959
768.909	0.0164826
768.987	0.0163429
769.065	0.0165766
769.143	0.0166342
769.221	0.0164509
769.299	0.0164642
769.378	0.0165944
769.456	0.0164360
769.534	0.0165590
769.612	0.0165058
769.690	0.0164469
769.768	0.0165473
769.846	0.0164795
769.924	0.0163577
770.003	0.0163594
770.081	0.0162265
770.159	0.0163515
770.237	0.0162720
770.315	0.0162226
770.393	0.0163765
770.471	0.0161215
770.549	0.0161802
770.628	0.0163023
770.706	0.0163489
770.784	0.0163634
770.862	0.0163223
770.940	0.0163017
771.018	0.0165284
771.096	0.0164323
771.174	0.0162655
771.253	0.0164310
771.331	0.0164489
771.409	0.0164220
771.487	0.0165224
771.565	0.0163689
771.643	0.0164844
771.721	0.0164629
771.799	0.0164080
771.878	0.0162581
771.956	0.0163164
772.034	0.0163113
772.112	0.0165129
772.190	0.0166167
772.268	0.0165179
772.346	0.0168636
772.424	0.0167776
772.503	0.0166325
772.581	0.0168044
772.659	0.0167874
772.737	0.0168733
772.815	0.0169667
772.893	0.0169725
772.971	0.0167999
773.049	0.0168441
773.128	0.0166723
773.206	0.0166105
773.284	0.0165694
773.362	0.0165395
773.440	0.0163835
773.518	0.0162743
773.596	0.0163107
773.674	0.0162167
773.753	0.0161509
773.831	0.0162306
773.909	0.0163119
773.987	0.0162144
774.065	0.0162337
774.143	0.0163289
774.221	0.0164854
774.299	0.0164288
774.378	0.0163602
774.456	0.0163702
774.534	0.0164816
774.612	0.0164151
774.690	0.0166298
774.768	0.0165161
774.846	0.0165646
774.924	0.0165409
775.003	0.0165861
775.081	0.0163492
775.159	0.0163208
775.237	0.0163096
775.315	0.0163876
775.393	0.0162640
775.471	0.0161633
775.549	0.0161186
775.628	0.0162049
775.706	0.0161658
775.784	0.0161802
775.862	0.0163095
775.940	0.0163982
776.018	0.0162954
776.096	0.0162575
776.174	0.0164634
776.253	0.0165261
776.331	0.0164090
776.409	0.0164853
776.487	0.0165515
776.565	0.0164317
776.643	0.0164980
776.721	0.0165245
776.799	0.0166528
776.878	0.0166352
776.956	0.0167059
777.034	0.0164338
777.112	0.0165682
777.190	0.0164932
777.268	0.0165543
777.346	0.0165141
777.424	0.0165293
777.503	0.0164024
777.581	0.0163954
777.659	0.0163467
777.737	0.0163681
777.815	0.0162624
777.893	0.0163301
777.971	0.0164538
778.049	0.0163328
778.128	0.0163554
778.206	0.0164255
778.284	0.0163900
778.362	0.0164613
778.440	0.0164648
778.518	0.0166009
778.596	0.0164845
778.674	0.0165154
778.753	0.0165727
778.831	0.0167480
778.909	0.0165087
778.987	0.0165076
779.065	0.0167258
779.143	0.0166571
779.221	0.0164790
779.299	0.0165545
779.378	0.0166428
779.456	0.0166724
779.534	0.0165679
779.612	0.0165132
779.690	0.0165527
779.768	0.0164582
779.846	0.0165042
779.924	0.0165923
780.003	0.0164722
780.081	0.0165066
780.159	0.0165438
780.237	0.0163544
780.315	0.0163354
780.393	0.0164484
780.471	0.0163870
780.549	0.0163782
780.628	0.0163293
780.706	0.0163707
780.784	0.0162648
780.862	0.0163237
780.940	0.0163397
781.018	0.0163541
781.096	0.0163510
781.174	0.0163644
781.253	0.0164056
781.331	0.0163406
781.409	0.0164247
781.487	0.0166003
781.565	0.0164926
781.643	0.0164178
781.721	0.0165484
781.799	0.0165616
781.878	0.0164076
781.956	0.0165186
782.034	0.0165096
782.112	0.0164410
782.190	0.0163572
782.268	0.0163760
782.346	0.0164093
782.424	0.0161684
782.503	0.0163364
782.581	0.0164173
782.659	0.0165148
782.737	0.0164336
782.815	0.0164083
782.893	0.0163753
782.971	0.0165070
783.049	0.0166058
783.128	0.0165351
783.206	0.0164307
783.284	0.0165096
783.362	0.0165600
783.440	0.0165186
783.518	0.0165476
783.596	0.0164272
783.674	0.0163863
783.753	0.0164629
783.831	0.0164132
783.909	0.0163821
783.987	0.0162935
784.065	0.0163485
784.143	0.0163451
784.221	0.0163821
784.299	0.0163832
784.378	0.0165108
784.456	0.0163945
784.534	0.0162585
784.612	0.0164351
784.690	0.0163680
784.768	0.0164533
784.846	0.0165600
784.924	0.0163883
785.003	0.0165040
785.081	0.0165395
785.159	0.0164464
785.237	0.0164996
785.315	0.0166508
785.393	0.0166641
785.471	0.0164959
785.549	0.0165074
785.628	0.0165400
785.706	0.0165524
785.784	0.0165583
785.862	0.0165664
785.940	0.0165759
786.018	0.0165434
786.096	0.0164796
786.174	0.0164510
786.253	0.0165218
786.331	0.0164076
786.409	0.0165594
786.487	0.0164875
786.565	0.0164671
786.643	0.0163844
786.721	0.0165421
786.799	0.0164449
786.878	0.0164953
786.956	0.0163757
787.034	0.0165940
787.112	0.0166108
787.190	0.0164782
787.268	0.0165787
787.346	0.0166361
787.424	0.0166083
787.503	0.0166068
787.581	0.0165823
787.659	0.0165416
787.737	0.0165224
787.815	0.0166722
787.893	0.0165124
787.971	0.0164391
788.049	0.0164458
788.128	0.0163558
788.206	0.0163183
788.284	0.0161890
788.362	0.0163332
788.440	0.0161523
788.518	0.0163311
788.596	0.0161375
788.674	0.0161699
788.753	0.0160930
788.831	0.0162502
788.909	0.0163469
788.987	0.0163099
789.065	0.0163078
789.143	0.0163182
789.221	0.0163754
789.299	0.0164960
789.378	0.0163682
789.456	0.0163350
789.534	0.0164194
789.612	0.0165563
789.690	0.0165086
789.768	0.0164817
789.846	0.0164757
789.924	0.0163630
790.003	0.0164479
790.081	0.0164429
790.159	0.0164591
790.237	0.0163657
790.315	0.0164576
790.393	0.0164057
790.471	0.0164276
790.549	0.0164881
790.628	0.0163326
790.706	0.0164091
790.784	0.0165171
790.862	0.0164938
790.940	0.0164613
791.018	0.0163375
791.096	0.0165485
791.174	0.0165427
791.253	0.0164853
791.331	0.0165150
791.409	0.0165794
791.487	0.0164437
791.565	0.0166136
791.643	0.0163775
791.721	0.0164949
791.799	0.0165034
791.878	0.0164606
791.956	0.0164490
792.034	0.0164172
792.112	0.0164392
792.190	0.0165073
792.268	0.0164094
792.346	0.0163759
792.424	0.0163185
792.503	0.0164223
792.581	0.0163638
792.659	0.0162176
792.737	0.0162472
792.815	0.0161887
792.893	0.0161721
792.971	0.0161327
793.049	0.0161421
793.128	0.0162851
793.206	0.0162663
793.284	0.0161284
793.362	0.0162481
793.440	0.0162811
793.518	0.0164464
793.596	0.0164081
793.674	0.0162158
793.753	0.0164072
793.831	0.0163329
793.909	0.0164233
793.987	0.0163819
794.065	0.0164288
794.143	0.0164727
794.221	0.0165916
794.299	0.0165485
794.378	0.0165329
794.456	0.0164575
794.534	0.0165951
794.612	0.0165948
794.690	0.0163496
794.768	0.0164610
794.846	0.0164544
794.924	0.0164156
795.003	0.0164765
795.081	0.0165983
795.159	0.0164548
795.237	0.0164041
795.315	0.0164225
795.393	0.0166142
795.471	0.0164198
795.549	0.0164382
795.628	0.0165746
795.706	0.0166271
795.784	0.0165013
795.862	0.0166008
795.940	0.0165918
796.018	0.0165993
796.096	0.0166361
796.174	0.0164819
796.253	0.0166879
796.331	0.0165669
796.409	0.0165212
796.487	0.0165096
796.565	0.0163667
796.643	0.0163009
796.721	0.0161892
796.799	0.0162699
796.878	0.0162711
796.956	0.0161246
797.034	0.0162281
797.112	0.0164101
797.190	0.0163200
797.268	0.0163271
797.346	0.0163267
797.424	0.0164803
797.503	0.0163748
797.581	0.0163766
797.659	0.0164772
797.737	0.0164429
797.815	0.0165402
797.893	0.0166042
797.971	0.0164769
798.049	0.0166486
798.128	0.0165261
798.206	0.0166354
798.284	0.0165565
798.362	0.0165533
798.440	0.0164785
798.518	0.0165134
798.596	0.0164762
798.674	0.0165966
798.753	0.0166893
798.831	0.0163812
798.909	0.0164957
798.987	0.0164600
799.065	0.0163670
799.143	0.0164647
799.221	0.0165117
799.299	0.0166096
799.378	0.0164689
799.456	0.0163036
799.534	0.0164928
799.612	0.0164883
799.690	0.0164443
799.768	0.0164493
799.846	0.0164078
799.924	0.0165268
800.003	0.0164302
800.081	0.0163207
800.159	0.0165217
800.237	0.0164043
800.315	0.0163652
800.393	0.0165262
800.471	0.0164845
800.549	0.0164197
800.628	0.0164494
800.706	0.0163105
800.784	0.0163579
800.862	0.0163995
800.940	0.0162374
801.018	0.0164164
801.096	0.0163250
801.174	0.0164405
801.253	0.0163706
801.331	0.0162295
801.409	0.0164706
801.487	0.0164699
801.565	0.0163369
801.643	0.0162846
801.721	0.0163022
801.799	0.0163457
801.878	0.0163242
801.956	0.0165063
802.034	0.0165012
802.112	0.0164900
802.190	0.0164610
802.268	0.0165418
802.346	0.0166183
802.424	0.0165867
802.503	0.0165466
802.581	0.0165154
802.659	0.0165311
802.737	0.0165004
802.815	0.0165772
802.893	0.0164701
802.971	0.0165681
803.049	0.0165443
803.128	0.0164344
803.206	0.0163983
803.284	0.0165012
803.362	0.0166032
803.440	0.0164945
803.518	0.0164153
803.596	0.0163972
803.674	0.0164905
803.753	0.0164329
803.831	0.0165173
803.909	0.0166599
803.987	0.0165615
804.065	0.0164437
804.143	0.0164827
804.221	0.0167086
804.299	0.0164283
804.378	0.0165253
804.456	0.0165839
804.534	0.0165292
804.612	0.0164636
804.690	0.0166469
804.768	0.0166304
804.846	0.0165379
804.924	0.0165109
805.003	0.0163660
805.081	0.0165716
805.159	0.0165028
805.237	0.0162728
805.315	0.0165749
805.393	0.0164741
805.471	0.0164293
805.549	0.0165025
805.628	0.0162788
805.706	0.0164337
805.784	0.0165926
805.862	0.0165421
805.940	0.0163400
806.018	0.0165274
806.096	0.0166336
806.174	0.0165716
806.253	0.0167023
806.331	0.0166588
806.409	0.0164953
806.487	0.0166362
806.565	0.0166470
806.643	0.0166134
806.721	0.0164897
806.799	0.0164684
806.878	0.0166179
806.956	0.0166254
807.034	0.0165031
807.112	0.0163973
807.190	0.0165381
807.268	0.0164629
807.346	0.0164652
807.424	0.0163624
807.503	0.0162894
807.581	0.0163457
807.659	0.0163985
807.737	0.0163691
807.815	0.0162248
807.893	0.0162536
807.971	0.0164502
808.049	0.0163712
808.128	0.0164182
808.206	0.0163631
808.284	0.0162228
808.362	0.0165251
808.440	0.0163056
808.518	0.0162735
808.596	0.0163290
808.674	0.0164599
808.753	0.0164687
808.831	0.0163416
808.909	0.0163321
808.987	0.0164522
809.065	0.0164474
809.143	0.0163257
809.221	0.0164059
809.299	0.0165963
809.378	0.0164854
809.456	0.0165575
809.534	0.0164633
809.612	0.0164348
809.690	0.0165088
809.768	0.0165504
809.846	0.0164952
809.924	0.0165516
810.003	0.0165972
810.081	0.0165041
810.159	0.0165328
810.237	0.0165160
810.315	0.0165543
810.393	0.0166149
810.471	0.0165127
810.549	0.0165257
810.628	0.0166412
810.706	0.0164812
810.784	0.0165359
810.862	0.0164651
810.940	0.0164333
811.018	0.0165900
811.096	0.0165858
811.174	0.0164114
811.253	0.0164298
811.331	0.0164452
811.409	0.0163878
811.487	0.0162250
811.565	0.0163898
811.643	0.0163708
811.721	0.0162927
811.799	0.0163949
811.878	0.0165032
811.956	0.0164398
812.034	0.0165083
812.112	0.0164112
812.190	0.0163105
812.268	0.0163536
812.346	0.0164903
812.424	0.0164671
812.503	0.0163850
812.581	0.0163480
812.659	0.0162652
812.737	0.0163531
812.815	0.0163376
812.893	0.0162556
812.971	0.0164212
813.049	0.0164826
813.128	0.0163228
813.206	0.0163012
813.284	0.0163583
813.362	0.0162918
813.440	0.0162331
813.518	0.0163686
813.596	0.0162520
813.674	0.0164420
813.753	0.0162283
813.831	0.0162462
813.909	0.0162067
813.987	0.0162994
814.065	0.0163261
814.143	0.0164477
814.221	0.0164442
814.299	0.0163396
814.378	0.0163958
814.456	0.0163756
814.534	0.0164990
814.612	0.0166495
814.690	0.0164241
814.768	0.0164370
814.846	0.0166025
814.924	0.0164547
815.003	0.0165272
815.081	0.0165660
815.159	0.0163933
815.237	0.0164651
815.315	0.0164971
815.393	0.0162606
815.471	0.0163281
815.549	0.0163956
815.628	0.0162199
815.706	0.0161301
815.784	0.0161902
815.862	0.0161567
815.940	0.0161352
816.018	0.0160295
816.096	0.0161505
816.174	0.0162447
816.253	0.0163604
816.331	0.0162125
816.409	0.0162629
816.487	0.0163016
816.565	0.0163767
816.643	0.0164441
816.721	0.0165266
816.799	0.0164586
816.878	0.0167010
816.956	0.0167706
817.034	0.0167651
817.112	0.0167183
817.190	0.0167778
817.268	0.0167239
817.346	0.0167031
817.424	0.0166658
817.503	0.0165918
817.581	0.0167016
817.659	0.0166158
817.737	0.0166216
817.815	0.0165989
817.893	0.0165257
817.971	0.0162894
818.049	0.0162916
818.128	0.0162169
818.206	0.0161923
818.284	0.0161046
818.362	0.0160836
818.440	0.0159932
818.518	0.0159447
818.596	0.0160059
818.674	0.0160806
818.753	0.0161139
818.831	0.0160831
818.909	0.0161289
818.987	0.0162459
819.065	0.0162478
819.143	0.0163415
819.221	0.0164484
819.299	0.0165486
819.378	0.0166999
819.456	0.0166965
819.534	0.0167435
819.612	0.0167691
819.690	0.0169875
819.768	0.0169398
819.846	0.0169139
819.924	0.0169439
820.003	0.0168731
820.081	0.0167615
820.159	0.0166860
820.237	0.0165786
820.315	0.0163456
820.393	0.0163615
820.471	0.0163110
820.549	0.0161835
820.628	0.0161447
820.706	0.0161005
820.784	0.0160194
820.862	0.0160486
820.940	0.0159879
821.018	0.0160536
821.096	0.0158865
821.174	0.0158661
821.253	0.0160320
821.331	0.0160871
821.409	0.0159085
821.487	0.0160297
821.565	0.0162265
821.643	0.0162513
821.721	0.0162009
821.799	0.0163983
821.878	0.0165600
821.956	0.0164721
822.034	0.0166579
822.112	0.0168050
822.190	0.0165520
822.268	0.0167410
822.346	0.0168843
822.424	0.0169517
822.503	0.0168491
822.581	0.0167789
822.659	0.0167960
822.737	0.0168530
822.815	0.0167579
822.893	0.0167344
822.971	0.0167429
823.049	0.0165975
823.128	0.0166342
823.206	0.0165485
823.284	0.0166312
823.362	0.0166003
823.440	0.0164729
823.518	0.0164825
823.596	0.0164292
823.674	0.0164053
823.753	0.0162431
823.831	0.0162679
823.909	0.0163996
823.987	0.0163867
824.065	0.0162493
824.143	0.0162930
824.221	0.0162511
824.299	0.0163783
824.378	0.0163187
824.456	0.0161835
824.534	0.0163593
824.612	0.0163474
824.690	0.0162756
824.768	0.0162255
824.846	0.0161691
824.924	0.0162889
825.003	0.0162920
825.081	0.0162920
825.159	0.0161833
825.237	0.0162012
825.315	0.0162685
825.393	0.0162160
825.471	0.0162107
825.549	0.0162134
825.628	0.0162135
825.706	0.0163017
825.784	0.0163506
825.862	0.0164321
825.940	0.0163287
826.018	0.0165058
826.096	0.0166527
826.174	0.0165865
826.253	0.0165642
826.331	0.0167436
826.409	0.0166138
826.487	0.0165907
826.565	0.0167255
826.643	0.0166305
826.721	0.0167123
826.799	0.0168027
826.878	0.0166026
826.956	0.0167394
827.034	0.0167432
827.112	0.0168145
827.190	0.0167197
827.268	0.0165558
827.346	0.0165022
827.424	0.0166264
827.503	0.0165450
827.581	0.0163316
827.659	0.0164282
827.737	0.0164993
827.815	0.0162787
827.893	0.0162606
827.971	0.0162256
828.049	0.0161852
828.128	0.0162251
828.206	0.0162035
828.284	0.0162117
828.362	0.0161980
828.440	0.0163607
828.518	0.0162254
828.596	0.0162865
828.674	0.0163435
828.753	0.0162739
828.831	0.0162382
828.909	0.0161487
828.987	0.0162862
829.065	0.0162392
829.143	0.0163071
829.221	0.0162913
829.299	0.0162540
829.378	0.0163386
829.456	0.0163625
829.534	0.0162572
829.612	0.0163708
829.690	0.0165531
829.768	0.0163560
829.846	0.0165625
829.924	0.0165259
830.003	0.0165884
830.081	0.0164980
830.159	0.0164412
830.237	0.0165316
830.315	0.0165755
830.393	0.0165343
830.471	0.0164694
830.549	0.0165434
830.628	0.0165292
830.706	0.0165234
830.784	0.0164167
830.862	0.0164738
830.940	0.0165829
831.018	0.0165639
831.096	0.0164792
831.174	0.0164024
831.253	0.0164317
831.331	0.0163939
831.409	0.0165351
831.487	0.0166122
831.565	0.0163661
831.643	0.0165749
831.721	0.0166090
831.799	0.0165835
831.878	0.0165415
831.956	0.0165224
832.034	0.0164765
832.112	0.0165069
832.190	0.0165562
832.268	0.0164227
832.346	0.0163400
832.424	0.0162426
832.503	0.0162231
832.581	0.0164981
832.659	0.0162943
832.737	0.0163347
832.815	0.0162476
832.893	0.0161578
832.971	0.0161426
833.049	0.0161613
833.128	0.0162946
833.206	0.0160544
833.284	0.0161401
833.362	0.0162514
833.440	0.0160252
833.518	0.0163173
833.596	0.0162679
833.674	0.0162875
833.753	0.0162092
833.831	0.0162556
833.909	0.0161720
833.987	0.0161639
834.065	0.0162729
834.143	0.0162662
834.221	0.0162615
834.299	0.0163435
834.378	0.0162953
834.456	0.0163380
834.534	0.0163531
834.612	0.0162840
834.690	0.0164038
834.768	0.0165427
834.846	0.0165748
834.924	0.0165680
835.003	0.0164927
835.081	0.0164633
835.159	0.0166964
835.237	0.0166279
835.315	0.0165650
835.393	0.0165450
835.471	0.0164830
835.549	0.0165919
835.628	0.0166142
835.706	0.0166141
835.784	0.0167322
835.862	0.0167096
835.940	0.0164828
836.018	0.0164243
836.096	0.0164552
836.174	0.0164438
836.253	0.0164374
836.331	0.0164085
836.409	0.0165508
836.487	0.0165577
836.565	0.0164887
836.643	0.0164478
836.721	0.0164851
836.799	0.0165195
836.878	0.0164948
836.956	0.0165177
837.034	0.0165018
837.112	0.0164928
837.190	0.0165606
837.268	0.0165065
837.346	0.0164671
837.424	0.0164198
837.503	0.0164782
837.581	0.0163325
837.659	0.0163721
837.737	0.0162144
837.815	0.0163295
837.893	0.0163581
837.971	0.0161533
838.049	0.0162272
838.128	0.0162106
838.206	0.0160810
838.284	0.0161439
838.362	0.0162514
838.440	0.0161736
838.518	0.0161272
838.596	0.0161672
838.674	0.0161822
838.753	0.0162263
838.831	0.0163332
838.909	0.0162564
838.987	0.0163066
839.065	0.0163270
839.143	0.0164751
839.221	0.0164127
839.299	0.0163687
839.378	0.0163033
839.456	0.0163319
839.534	0.0162926
839.612	0.0165652
839.690	0.0164276
839.768	0.0164352
839.846	0.0164584
839.924	0.0165465
840.003	0.0165382
840.081	0.0165588
840.159	0.0165659
840.237	0.0164894
840.315	0.0165213
840.393	0.0163853
840.471	0.0166152
840.549	0.0165347
840.628	0.0163531
840.706	0.0165900
840.784	0.0165384
840.862	0.0166488
840.940	0.0166077
841.018	0.0165822
841.096	0.0167232
841.174	0.0167551
841.253	0.0166553
841.331	0.0165842
841.409	0.0166405
841.487	0.0165959
841.565	0.0165224
841.643	0.0164658
841.721	0.0165015
841.799	0.0165622
841.878	0.0165314
841.956	0.0162978
842.034	0.0164240
842.112	0.0165086
842.190	0.0163583
842.268	0.0163500
842.346	0.0163006
842.424	0.0161823
842.503	0.0161726
842.581	0.0162370
842.659	0.0161214
842.737	0.0161403
842.815	0.0162144
842.893	0.0162527
842.971	0.0161775
843.049	0.0161732
843.128	0.0161180
843.206	0.0161906
843.284	0.0162914
843.362	0.0161274
843.440	0.0162004
843.518	0.0164095
843.596	0.0164004
843.674	0.0163821
843.753	0.0162963
843.831	0.0166415
843.909	0.0164524
843.987	0.0164047
844.065	0.0165652
844.143	0.0164900
844.221	0.0164928
844.299	0.0164735
844.378	0.0165797
844.456	0.0165344
844.534	0.0164321
844.612	0.0165443
844.690	0.0164568
844.768	0.0165105
844.846	0.0164573
844.924	0.0164178
845.003	0.0164780
845.081	0.0163636
845.159	0.0162682
845.237	0.0163090
845.315	0.0164951
845.393	0.0164606
845.471	0.0164797
845.549	0.0164865
845.628	0.0164513
845.706	0.0165146
845.784	0.0165214
845.862	0.0165685
845.940	0.0165134
846.018	0.0165574
846.096	0.0166028
846.174	0.0165820
846.253	0.0165427
846.331	0.0165527
846.409	0.0164979
846.487	0.0165115
846.565	0.0164540
846.643	0.0165960
846.721	0.0164337
846.799	0.0164627
846.878	0.0163229
846.956	0.0164540
847.034	0.0162180
847.112	0.0161885
847.190	0.0163786
847.268	0.0164564
847.346	0.0163200
847.424	0.0162151
847.503	0.0161987
847.581	0.0162408
847.659	0.0163654
847.737	0.0163493
847.815	0.0163004
847.893	0.0166532
847.971	0.0164637
848.049	0.0164421
848.128	0.0164515
848.206	0.0163975
848.284	0.0165640
848.362	0.0165985
848.440	0.0165424
848.518	0.0165484
848.596	0.0164864
848.674	0.0166325
848.753	0.0165889
848.831	0.0164849
848.909	0.0165257
848.987	0.0164910
849.065	0.0165874
849.143	0.0165100
849.221	0.0165178
849.299	0.0163607
849.378	0.0163766
849.456	0.0163173
849.534	0.0163848
849.612	0.0164721
849.690	0.0163898
849.768	0.0163778
849.846	0.0164086
849.924	0.0163654
850.003	0.0163232
850.081	0.0164608
850.159	0.0163734
850.237	0.0162914
850.315	0.0164025
850.393	0.0164548
850.471	0.0164860
850.549	0.0165735
850.628	0.0165466
850.706	0.0164771
850.784	0.0165813
850.862	0.0164861
850.940	0.0165859
851.018	0.0166356
851.096	0.0165044
851.174	0.0164793
851.253	0.0166183
851.331	0.0165024
851.409	0.0163803
851.487	0.0164803
851.565	0.0163480
851.643	0.0164764
851.721	0.0164304
851.799	0.0163838
851.878	0.0162995
851.956	0.0161960
852.034	0.0163960
852.112	0.0163450
852.190	0.0162319
852.268	0.0161355
852.346	0.0161159
852.424	0.0161668
852.503	0.0162044
852.581	0.0162695
852.659	0.0162360
852.737	0.0162796
852.815	0.0163049
852.893	0.0162395
852.971	0.0162593
853.049	0.0165210
853.128	0.0165042
853.206	0.0162890
853.284	0.0165035
853.362	0.0165245
853.440	0.0164653
853.518	0.0164685
853.596	0.0165338
853.674	0.0165202
853.753	0.0165668
853.831	0.0165649
853.909	0.0165992
853.987	0.0165343
854.065	0.0163755
854.143	0.0166438
854.221	0.0165604
854.299	0.0164876
854.378	0.0165222
854.456	0.0164054
854.534	0.0165224
854.612	0.0165186
854.690	0.0163908
854.768	0.0163689
854.846	0.0165505
854.924	0.0164163
855.003	0.0165025
855.081	0.0163585
855.159	0.0163614
855.237	0.0164850
855.315	0.0164819
855.393	0.0164249
855.471	0.0163406
855.549	0.0163166
855.628	0.0165479
855.706	0.0163892
855.784	0.0163567
855.862	0.0164156
855.940	0.0165204
856.018	0.0165166
856.096	0.0165086
856.174	0.0163953
856.253	0.0164539
856.331	0.0164700
856.409	0.0165415
856.487	0.0164131
856.565	0.0163200
856.643	0.0163481
856.721	0.0164375
856.799	0.0164417
856.878	0.0162492
856.956	0.0164583
857.034	0.0164475
857.112	0.0163236
857.190	0.0164162
857.268	0.0163356
857.346	0.0162740
857.424	0.0163960
857.503	0.0163176
857.581	0.0162597
857.659	0.0163348
857.737	0.0162093
857.815	0.0162800
857.893	0.0162946
857.971	0.0164160
858.049	0.0163904
858.128	0.0164887
858.206	0.0164497
858.284	0.0163953
858.362	0.0164085
858.440	0.0164584
858.518	0.0165090
858.596	0.0163558
858.674	0.0164890
858.753	0.0165156
858.831	0.0166197
858.909	0.0165845
858.987	0.0165411
859.065	0.0165467
859.143	0.0165352
859.221	0.0165849
859.299	0.0166279
859.378	0.0166330
859.456	0.0165213
859.534	0.0165412
859.612	0.0166730
859.690	0.0165047
859.768	0.0167273
859.846	0.0165865
859.924	0.0165360
860.003	0.0165585
860.081	0.0165610
860.159	0.0164155
860.237	0.0164809
860.315	0.0165155
860.393	0.0164255
860.471	0.0163614
860.549	0.0163509
860.628	0.0163565
860.706	0.0164436
860.784	0.0163908
860.862	0.0163114
860.940	0.0161829
861.018	0.0162225
861.096	0.0163780
861.174	0.0164040
861.253	0.0162487
861.331	0.0163100
861.409	0.0163898
861.487	0.0163412
861.565	0.0163627
861.643	0.0164722
861.721	0.0163401
861.799	0.0163705
861.878	0.0163530
861.956	0.0163162
862.034	0.0163457
862.112	0.0164852
862.190	0.0165942
862.268	0.0164425
862.346	0.0164407
862.424	0.0163306
862.503	0.0164780
862.581	0.0164866
862.659	0.0163894
862.737	0.0164162
862.815	0.0164439
862.893	0.0164430
862.971	0.0163811
863.049	0.0164516
863.128	0.0163748
863.206	0.0163357
863.284	0.0164089
863.362	0.0163515
863.440	0.0164303
863.518	0.0163976
863.596	0.0162904
863.674	0.0163309
863.753	0.0163081
863.831	0.0163812
863.909	0.0165195
863.987	0.0163184
864.065	0.0162640
864.143	0.0163875
864.221	0.0163623
864.299	0.0164216
864.378	0.0164628
864.456	0.0165347
864.534	0.0165500
864.612	0.0164030
864.690	0.0163936
864.768	0.0165085
864.846	0.0164899
864.924	0.0163913
865.003	0.0163904
865.081	0.0164285
865.159	0.0165832
865.237	0.0164895
865.315	0.0164503
865.393	0.0164541
865.471	0.0165796
865.549	0.0164620
865.628	0.0164805
865.706	0.0165508
865.784	0.0166111
865.862	0.0164373
865.940	0.0163187
866.018	0.0164825
866.096	0.0164414
866.174	0.0163892
866.253	0.0164285
866.331	0.0164338
866.409	0.0164120
866.487	0.0164924
866.565	0.0164861
866.643	0.0164225
866.721	0.0165122
866.799	0.0163911
866.878	0.0164395
866.956	0.0166163
867.034	0.0164616
867.112	0.0164005
867.190	0.0164291
867.268	0.0164790
867.346	0.0165120
867.424	0.0163786
867.503	0.0165754
867.581	0.0165508
867.659	0.0163875
867.737	0.0165368
867.815	0.0164948
867.893	0.0165558
867.971	0.0165340
868.049	0.0164600
868.128	0.0164871
868.206	0.0163781
868.284	0.0165607
868.362	0.0164568
868.440	0.0163031
868.518	0.0163967
868.596	0.0165298
868.674	0.0165664
868.753	0.0164946
868.831	0.0164356
868.909	0.0164846
868.987	0.0165414
869.065	0.0165572
869.143	0.0164455
869.221	0.0163982
869.299	0.0164634
869.378	0.0163078
869.456	0.0163334
869.534	0.0164551
869.612	0.0163898
869.690	0.0165514
869.768	0.0163657
869.846	0.0164017
869.924	0.0163972
870.003	0.0162832
870.081	0.0163980
870.159	0.0163639
870.237	0.0164226
870.315	0.0162592
870.393	0.0162656
870.471	0.0163057
870.549	0.0163483
870.628	0.0163765
870.706	0.0163789
870.784	0.0164638
870.862	0.0164780
870.940	0.0165509
871.018	0.0164735
871.096	0.0164397
871.174	0.0164771
871.253	0.0164302
871.331	0.0165699
871.409	0.0164663
871.487	0.0164748
871.565	0.0163602
871.643	0.0162838
871.721	0.0164841
871.799	0.0165953
871.878	0.0165377
871.956	0.0165028
872.034	0.0163113
872.112	0.0163934
872.190	0.0164306
872.268	0.0163825
872.346	0.0165824
872.424	0.0163587
872.503	0.0164658
872.581	0.0164309
872.659	0.0166183
872.737	0.0163833
872.815	0.0163889
872.893	0.0165421
872.971	0.0165473
873.049	0.0165869
873.128	0.0163207
873.206	0.0166862
873.284	0.0165334
873.362	0.0166589
873.440	0.0165109
873.518	0.0165278
873.596	0.0165449
873.674	0.0164861
873.753	0.0162597
873.831	0.0162803
873.909	0.0163275
873.987	0.0163812
874.065	0.0163397
874.143	0.0162171
874.221	0.0163094
874.299	0.0163848
874.378	0.0161913
874.456	0.0163309
874.534	0.0160836
874.612	0.0161578
874.690	0.0162644
874.768	0.0162641
874.846	0.0161607
874.924	0.0161157
875.003	0.0162206
875.081	0.0163409
875.159	0.0161884
875.237	0.0161676
875.315	0.0162872
875.393	0.0162563
875.471	0.0163093
875.549	0.0162428
875.628	0.0162491
875.706	0.0164655
875.784	0.0165324
875.862	0.0164510
875.940	0.0163889
876.018	0.0165003
876.096	0.0166695
876.174	0.0165505
876.253	0.0163797
876.331	0.0165112
876.409	0.0165250
876.487	0.0164787
876.565	0.0166579
876.643	0.0165569
876.721	0.0166770
876.799	0.0167039
876.878	0.0164812
876.956	0.0165617
877.034	0.0165272
877.112	0.0165282
877.190	0.0165477
877.268	0.0164704
877.346	0.0164859
877.424	0.0164468
877.503	0.0163778
877.581	0.0164488
877.659	0.0164095
877.737	0.0163946
877.815	0.0164869
877.893	0.0163998
877.971	0.0164882
878.049	0.0165061
878.128	0.0165485
878.206	0.0165055
878.284	0.0164884
878.362	0.0166411
878.440	0.0164604
878.518	0.0165410
878.596	0.0166763
878.674	0.0166201
878.753	0.0165208
878.831	0.0166328
878.909	0.0164581
878.987	0.0165781
879.065	0.0165522
879.143	0.0164223
879.221	0.0163960
879.299	0.0164133
879.378	0.0165193
879.456	0.0164517
879.534	0.0163644
879.612	0.0163051
879.690	0.0162247
879.768	0.0162680
879.846	0.0162621
879.924	0.0162316
880.003	0.0161152
880.081	0.0162904
880.159	0.0162490
880.237	0.0162975
880.315	0.0164790
880.393	0.0163866
880.471	0.0161642
880.549	0.0163609
880.628	0.0163380
880.706	0.0165044
880.784	0.0163155
880.862	0.0164768
880.940	0.0164057
881.018	0.0163369
881.096	0.0164305
881.174	0.0166534
881.253	0.0165464
881.331	0.0165075
881.409	0.0166938
881.487	0.0166904
881.565	0.0166627
881.643	0.0165952
881.721	0.0165582
881.799	0.0165189
881.878	0.0163889
881.956	0.0163696
882.034	0.0163650
882.112	0.0165641
882.190	0.0165141
882.268	0.0164926
882.346	0.0165440
882.424	0.0164009
882.503	0.0164851
882.581	0.0165338
882.659	0.0163963
882.737	0.0163524
882.815	0.0166652
882.893	0.0165215
882.971	0.0165783
883.049	0.0165426
883.128	0.0165598
883.206	0.0165326
883.284	0.0165193
883.362	0.0166766
883.440	0.0165346
883.518	0.0165194
883.596	0.0165828
883.674	0.0165328
883.753	0.0165137
883.831	0.0165163
883.909	0.0165474
883.987	0.0165311
884.065	0.0165348
884.143	0.0163482
884.221	0.0164158
884.299	0.0165025
884.378	0.0164119
884.456	0.0164148
884.534	0.0164767
884.612	0.0165259
884.690	0.0163361
884.768	0.0162961
884.846	0.0162972
884.924	0.0163030
885.003	0.0162807
885.081	0.0162656
885.159	0.0163751
885.237	0.0162284
885.315	0.0163161
885.393	0.0163570
885.471	0.0163081
885.549	0.0162977
885.628	0.0164180
885.706	0.0163091
885.784	0.0162410
885.862	0.0162682
885.940	0.0164807
886.018	0.0165760
886.096	0.0165662
886.174	0.0165258
886.253	0.0164939
886.331	0.0163675
886.409	0.0163027
886.487	0.0164905
886.565	0.0164686
886.643	0.0163992
886.721	0.0163381
886.799	0.0165244
886.878	0.0164540
886.956	0.0164373
887.034	0.0162798
887.112	0.0163914
887.190	0.0163683
887.268	0.0164435
887.346	0.0163695
887.424	0.0163161
887.503	0.0164073
887.581	0.0164716
887.659	0.0164897
887.737	0.0163165
887.815	0.0163297
887.893	0.0163799
887.971	0.0164156
888.049	0.0164250
888.128	0.0164210
888.206	0.0164226
888.284	0.0164877
888.362	0.0164346
888.440	0.0165333
888.518	0.0166455
888.596	0.0166794
888.674	0.0164594
888.753	0.0165842
888.831	0.0165569
888.909	0.0165063
888.987	0.0165176
889.065	0.0166663
889.143	0.0166170
889.221	0.0165067
889.299	0.0164577
889.378	0.0165264
889.456	0.0164701
889.534	0.0165126
889.612	0.0164099
889.690	0.0164684
889.768	0.0164327
889.846	0.0162842
889.924	0.0163128
890.003	0.0163816
890.081	0.0164356
890.159	0.0164506
890.237	0.0163815
890.315	0.0164538
890.393	0.0163615
890.471	0.0164215
890.549	0.0163778
890.628	0.0163293
890.706	0.0161715
890.784	0.0163866
890.862	0.0162555
890.940	0.0163348
891.018	0.0163060
891.096	0.0163039
891.174	0.0162299
891.253	0.0163845
891.331	0.0163399
891.409	0.0162963
891.487	0.0164038
891.565	0.0164044
891.643	0.0164825
891.721	0.0164119
891.799	0.0164993
891.878	0.0163863
891.956	0.0164297
892.034	0.0165536
892.112	0.0166259
892.190	0.0165057
892.268	0.0164803
892.346	0.0165543
892.424	0.0165025
892.503	0.0163611
892.581	0.0165482
892.659	0.0164211
892.737	0.0164692
892.815	0.0163941
892.893	0.0163938
892.971	0.0164700
893.049	0.0163585
893.128	0.0164635
893.206	0.0164268
893.284	0.0164986
893.362	0.0163709
893.440	0.0164669
893.518	0.0165497
893.596	0.0163637
893.674	0.0163036
893.753	0.0163026
893.831	0.0164896
893.909	0.0165031
893.987	0.0164220
894.065	0.0165002
894.143	0.0166113
894.221	0.0164679
894.299	0.0164587
894.378	0.0164474
894.456	0.0165232
894.534	0.0164178
894.612	0.0163753
894.690	0.0164730
894.768	0.0163872
894.846	0.0165303
894.924	0.0164655
895.003	0.0164149
895.081	0.0163680
895.159	0.0165023
895.237	0.0164658
895.315	0.0163772
895.393	0.0164154
895.471	0.0163823
895.549	0.0164773
895.628	0.0163493
895.706	0.0163938
895.784	0.0165137
895.862	0.0163978
895.940	0.0164438
896.018	0.0163732
896.096	0.0165112
896.174	0.0163811
896.253	0.0164005
896.331	0.0164041
896.409	0.0164259
896.487	0.0164117
896.565	0.0165742
896.643	0.0165166
896.721	0.0164296
896.799	0.0166869
896.878	0.0165769
896.956	0.0164630
897.034	0.0164924
897.112	0.0165007
897.190	0.0164534
897.268	0.0166094
897.346	0.0163902
897.424	0.0163438
897.503	0.0164366
897.581	0.0164980
897.659	0.0164789
897.737	0.0162882
897.815	0.0163151
897.893	0.0164504
897.971	0.0163229
898.049	0.0163021
898.128	0.0162977
898.206	0.0163887
898.284	0.0161251
898.362	0.0162347
898.440	0.0163953
898.518	0.0164240
898.596	0.0162241
898.674	0.0162697
898.753	0.0162754
898.831	0.0164984
898.909	0.0164083
898.987	0.0164768
899.065	0.0164328
899.143	0.0164940
899.221	0.0163110
899.299	0.0162829
899.378	0.0164614
899.456	0.0165265
899.534	0.0164384
899.612	0.0163476
899.690	0.0164043
899.768	0.0163826
899.846	0.0165140
899.924	0.0165868
900.003	0.0163939
900.081	0.0164899
900.159	0.0165446
900.237	0.0166345
900.315	0.0165720
900.393	0.0164637
900.471	0.0163949
900.549	0.0166514
900.628	0.0165189
900.706	0.0166674
900.784	0.0166476
900.862	0.0166048
900.940	0.0165794
901.018	0.0166145
901.096	0.0167001
901.174	0.0165498
901.253	0.0165939
901.331	0.0165706
901.409	0.0165470
901.487	0.0166323
901.565	0.0167116
901.643	0.0164976
901.721	0.0165105
901.799	0.0164859
901.878	0.0165575
901.956	0.0165106
902.034	0.0164906
902.112	0.0164819
902.190	0.0165123
902.268	0.0163903
902.346	0.0165369
902.424	0.0165393
902.503	0.0164329
902.581	0.0164629
902.659	0.0164726
902.737	0.0164877
902.815	0.0163210
902.893	0.0163079
902.971	0.0162402
903.049	0.0163883
903.128	0.0161766
903.206	0.0163745
903.284	0.0163292
903.362	0.0162426
903.440	0.0162212
903.518	0.0163876
903.596	0.0163216
903.674	0.0162379
903.753	0.0162569
903.831	0.0162930
903.909	0.0163136
903.987	0.0164119
904.065	0.0163302
904.143	0.0163812
904.221	0.0163416
904.299	0.0163945
904.378	0.0165075
904.456	0.0164033
904.534	0.0163081
904.612	0.0165157
904.690	0.0165903
904.768	0.0162701
904.846	0.0163588
904.924	0.0162749
905.003	0.0164986
905.081	0.0165405
905.159	0.0166129
905.237	0.0163684
905.315	0.0163644
905.393	0.0163815
905.471	0.0165288
905.549	0.0165079
905.628	0.0165308
905.706	0.0165741
905.784	0.0166298
905.862	0.0165464
905.940	0.0164084
906.018	0.0166133
906.096	0.0165986
906.174	0.0165463
906.253	0.0165795
906.331	0.0166469
906.409	0.0165588
906.487	0.0164256
906.565	0.0164802
906.643	0.0166634
906.721	0.0165971
906.799	0.0165746
906.878	0.0164509
906.956	0.0165399
907.034	0.0166425
907.112	0.0165097
907.190	0.0164130
907.268	0.0164339
907.346	0.0163266
907.424	0.0163547
907.503	0.0162227
907.581	0.0163676
907.659	0.0164026
907.737	0.0162752
907.815	0.0162381
907.893	0.0163158
907.971	0.0162683
908.049	0.0163007
908.128	0.0163439
908.206	0.0162299
908.284	0.0162631
908.362	0.0162774
908.440	0.0162645
908.518	0.0163691
908.596	0.0162881
908.674	0.0162040
908.753	0.0163103
908.831	0.0163775
908.909	0.0161967
908.987	0.0164659
909.065	0.0163250
909.143	0.0164851
909.221	0.0163803
909.299	0.0163970
909.378	0.0164366
909.456	0.0164667
909.534	0.0165314
909.612	0.0164790
909.690	0.0165376
909.768	0.0164617
909.846	0.0164706
909.924	0.0164502
910.003	0.0165124
910.081	0.0164882
910.159	0.0164104
910.237	0.0163238
910.315	0.0162073
910.393	0.0164201
910.471	0.0164207
910.549	0.0162351
910.628	0.0162356
910.706	0.0163485
910.784	0.0162370
910.862	0.0162862
910.940	0.0163159
911.018	0.0163956
911.096	0.0163229
911.174	0.0162042
911.253	0.0164310
911.331	0.0163095
911.409	0.0164454
911.487	0.0165458
911.565	0.0164594
911.643	0.0164548
911.721	0.0165016
911.799	0.0166151
911.878	0.0164810
911.956	0.0166064
912.034	0.0166335
912.112	0.0165915
912.190	0.0166226
912.268	0.0167079
912.346	0.0164764
912.424	0.0166819
912.503	0.0166952
912.581	0.0163768
912.659	0.0164473
912.737	0.0162590
912.815	0.0163239
912.893	0.0162941
912.971	0.0162283
913.049	0.0161466
913.128	0.0161551
913.206	0.0160712
913.284	0.0160942
913.362	0.0160954
913.440	0.0162278
913.518	0.0160655
913.596	0.0161541
913.674	0.0162014
913.753	0.0163379
913.831	0.0163500
913.909	0.0162752
913.987	0.0162900
914.065	0.0163760
914.143	0.0165837
914.221	0.0165622
914.299	0.0165807
914.378	0.0167805
914.456	0.0168229
914.534	0.0168178
914.612	0.0168610
914.690	0.0168687
914.768	0.0168641
914.846	0.0169726
914.924	0.0167007
915.003	0.0167099
915.081	0.0167657
915.159	0.0165247
915.237	0.0162572
915.315	0.0161330
915.393	0.0161266
915.471	0.0160726
915.549	0.0160158
915.628	0.0159563
915.706	0.0159244
915.784	0.0159381
915.862	0.0159017
915.940	0.0161218
916.018	0.0161105
916.096	0.0162376
916.174	0.0164172
916.253	0.0163199
916.331	0.0164180
916.409	0.0163442
916.487	0.0165984
916.565	0.0164952
916.643	0.0165561
916.721	0.0165192
916.799	0.0166680
916.878	0.0166273
916.956	0.0166785
917.034	0.0166684
917.112	0.0166900
917.190	0.0166492
917.268	0.0166416
917.346	0.0167018
917.424	0.0166169
917.503	0.0165844
917.581	0.0167131
917.659	0.0165993
917.737	0.0166417
917.815	0.0165141
917.893	0.0163575
917.971	0.0163590
918.049	0.0163722
918.128	0.0164186
918.206	0.0163503
918.284	0.0163277
918.362	0.0163124
918.440	0.0161882
918.518	0.0160896
918.596	0.0162646
918.674	0.0163113
918.753	0.0163923
918.831	0.0162962
918.909	0.0163141
918.987	0.0164353
919.065	0.0163451
919.143	0.0163209
919.221	0.0163812
919.299	0.0164091
919.378	0.0165536
919.456	0.0162768
919.534	0.0163764
919.612	0.0164610
919.690	0.0163768
919.768	0.0165172
919.846	0.0165394
919.924	0.0165096
920.003	0.0165311
920.081	0.0164614
920.159	0.0165695
920.237	0.0163586
920.315	0.0164874
920.393	0.0165253
920.471	0.0164892
920.549	0.0163494
920.628	0.0163699
920.706	0.0162878
920.784	0.0164149
920.862	0.0164044
920.940	0.0162242
921.018	0.0162452
921.096	0.0162967
921.174	0.0162418
921.253	0.0162132
921.331	0.0163178
921.409	0.0163779
921.487	0.0163405
921.565	0.0163329
921.643	0.0163463
921.721	0.0162455
921.799	0.0163067
921.878	0.0164523
921.956	0.0165041
922.034	0.0163784
922.112	0.0164462
922.190	0.0165200
922.268	0.0165202
922.346	0.0165725
922.424	0.0164822
922.503	0.0165447
922.581	0.0164001
922.659	0.0164046
922.737	0.0165256
922.815	0.0164972
922.893	0.0162971
922.971	0.0164026
923.049	0.0164072
923.128	0.0163831
923.206	0.0163168
923.284	0.0162563
923.362	0.0162934
923.440	0.0161806
923.518	0.0162723
923.596	0.0163618
923.674	0.0163138
923.753	0.0162627
923.831	0.0163078
923.909	0.0164043
923.987	0.0164417
924.065	0.0164639
924.143	0.0162589
924.221	0.0164572
924.299	0.0164164
924.378	0.0164735
924.456	0.0164480
924.534	0.0163557
924.612	0.0164817
924.690	0.0165643
924.768	0.0164796
924.846	0.0163074
924.924	0.0162254
925.003	0.0163963
925.081	0.0163362
925.159	0.0164152
925.237	0.0163239
925.315	0.0163815
925.393	0.0164261
925.471	0.0164288
925.549	0.0163028
925.628	0.0162937
925.706	0.0164751
925.784	0.0164480
925.862	0.0164838
925.940	0.0165149
926.018	0.0163886
926.096	0.0163443
926.174	0.0164484
926.253	0.0164567
926.331	0.0164248
926.409	0.0164665
926.487	0.0164009
926.565	0.0163573
926.643	0.0162699
926.721	0.0162638
926.799	0.0163539
926.878	0.0163657
926.956	0.0163348
927.034	0.0164561
927.112	0.0164355
927.190	0.0164111
927.268	0.0163959
927.346	0.0162903
927.424	0.0164556
927.503	0.0164098
927.581	0.0162956
927.659	0.0162053
927.737	0.0164155
927.815	0.0162432
927.893	0.0162072
927.971	0.0163313
928.049	0.0162589
928.128	0.0162568
928.206	0.0162885
928.284	0.0162792
928.362	0.0163704
928.440	0.0165610
928.518	0.0164110
928.596	0.0166377
928.674	0.0166087
928.753	0.0166780
928.831	0.0166003
928.909	0.0167239
928.987	0.0166248
929.065	0.0166793
929.143	0.0166113
929.221	0.0165603
929.299	0.0165945
929.378	0.0164774
929.456	0.0164738
929.534	0.0163384
929.612	0.0163021
929.690	0.0162257
929.768	0.0164424
929.846	0.0162916
929.924	0.0162056
930.003	0.0161549
930.081	0.0162069
930.159	0.0162506
930.237	0.0161928
930.315	0.0161957
930.393	0.0163843
930.471	0.0164616
930.549	0.0162356
930.628	0.0162907
930.706	0.0163826
930.784	0.0164455
930.862	0.0164825
930.940	0.0166283
931.018	0.0166578
931.096	0.0166630
931.174	0.0165322
931.253	0.0166328
931.331	0.0166260
931.409	0.0165565
931.487	0.0165941
931.565	0.0165804
931.643	0.0165135
931.721	0.0164734
931.799	0.0164839
931.878	0.0164596
931.956	0.0164831
932.034	0.0163350
932.112	0.0164373
932.190	0.0163264
932.268	0.0163372
932.346	0.0163497
932.424	0.0163305
932.503	0.0162668
932.581	0.0163091
932.659	0.0164212
932.737	0.0163992
932.815	0.0165129
932.893	0.0163792
932.971	0.0163909
933.049	0.0164674
933.128	0.0162656
933.206	0.0163573
933.284	0.0164388
933.362	0.0164557
933.440	0.0164370
933.518	0.0163794
933.596	0.0164162
933.674	0.0164182
933.753	0.0164961
933.831	0.0163280
933.909	0.0165151
933.987	0.0164130
934.065	0.0165092
934.143	0.0164419
934.221	0.0164977
934.299	0.0164033
934.378	0.0165250
934.456	0.0164119
934.534	0.0165919
934.612	0.0164724
934.690	0.0164503
934.768	0.0164040
934.846	0.0164148
934.924	0.0164238
935.003	0.0165653
935.081	0.0163448
935.159	0.0164598
935.237	0.0163860
935.315	0.0163957
935.393	0.0164308
935.471	0.0164454
935.549	0.0165499
935.628	0.0165129
935.706	0.0164734
935.784	0.0165254
935.862	0.0165783
935.940	0.0164365
936.018	0.0164898
936.096	0.0165062
936.174	0.0165832
936.253	0.0164279
936.331	0.0163888
936.409	0.0164872
936.487	0.0164522
936.565	0.0163367
936.643	0.0163405
936.721	0.0163353
936.799	0.0161771
936.878	0.0163100
936.956	0.0162044
937.034	0.0162586
937.112	0.0161272
937.190	0.0161893
937.268	0.0161225
937.346	0.0161030
937.424	0.0162800
937.503	0.0163203
937.581	0.0162061
937.659	0.0162778
937.737	0.0163469
937.815	0.0164619
937.893	0.0164123
937.971	0.0163588
938.049	0.0164285
938.128	0.0164667
938.206	0.0165347
938.284	0.0166028
938.362	0.0166164
938.440	0.0165715
938.518	0.0167025
938.596	0.0165906
938.674	0.0165688
938.753	0.0165466
938.831	0.0166493
938.909	0.0165867
938.987	0.0166114
939.065	0.0165902
939.143	0.0166838
939.221	0.0166387
939.299	0.0164715
939.378	0.0167481
939.456	0.0165044
939.534	0.0164695
939.612	0.0163267
939.690	0.0164314
939.768	0.0164082
939.846	0.0163702
939.924	0.0163799
940.003	0.0163524
940.081	0.0163606
940.159	0.0163657
940.237	0.0162808
940.315	0.0163383
940.393	0.0163184
940.471	0.0163441
940.549	0.0164406
940.628	0.0162920
940.706	0.0163618
940.784	0.0163746
940.862	0.0163809
940.940	0.0162861
941.018	0.0162608
941.096	0.0164060
941.174	0.0163689
941.253	0.0162931
941.331	0.0163164
941.409	0.0165499
941.487	0.0164729
941.565	0.0164729
941.643	0.0163572
941.721	0.0164061
941.799	0.0164386
941.878	0.0164943
941.956	0.0163974
942.034	0.0163602
942.112	0.0164668
942.190	0.0163470
942.268	0.0164497
942.346	0.0164196
942.424	0.0164322
942.503	0.0163729
942.581	0.0164204
942.659	0.0163406
942.737	0.0163967
942.815	0.0164253
942.893	0.0164931
942.971	0.0164492
943.049	0.0166071
943.128	0.0165430
943.206	0.0161911
943.284	0.0164380
943.362	0.0164313
943.440	0.0163741
943.518	0.0164188
943.596	0.0165251
943.674	0.0164611
943.753	0.0163483
943.831	0.0163930
943.909	0.0163903
943.987	0.0164814
944.065	0.0164467
944.143	0.0164573
944.221	0.0164136
944.299	0.0163832
944.378	0.0166232
944.456	0.0164484
944.534	0.0163593
944.612	0.0164042
944.690	0.0163857
944.768	0.0163795
944.846	0.0163747
944.924	0.0163988
945.003	0.0162298
945.081	0.0164736
945.159	0.0164494
945.237	0.0163441
945.315	0.0163528
945.393	0.0164418
945.471	0.0165133
945.549	0.0165028
945.628	0.0164982
945.706	0.0165312
945.784	0.0165022
945.862	0.0167693
945.940	0.0164663
946.018	0.0165411
946.096	0.0166078
946.174	0.0165379
946.253	0.0165972
946.331	0.0164081
946.409	0.0164019
946.487	0.0164349
946.565	0.0165420
946.643	0.0165510
946.721	0.0164777
946.799	0.0164097
946.878	0.0165638
946.956	0.0163448
947.034	0.0162973
947.112	0.0163937
947.190	0.0163396
947.268	0.0164802
947.346	0.0165080
947.424	0.0163544
947.503	0.0163706
947.581	0.0162656
947.659	0.0163017
947.737	0.0164864
947.815	0.0164227
947.893	0.0164226
947.971	0.0165029
948.049	0.0163312
948.128	0.0163397
948.206	0.0164297
948.284	0.0165793
948.362	0.0164931
948.440	0.0164637
948.518	0.0165096
948.596	0.0164655
948.674	0.0165015
948.753	0.0164923
948.831	0.0164381
948.909	0.0164117
948.987	0.0163759
949.065	0.0165581
949.143	0.0163492
949.221	0.0164085
949.299	0.0164620
949.378	0.0164678
949.456	0.0165512
949.534	0.0164940
949.612	0.0163914
949.690	0.0163155
949.768	0.0163918
949.846	0.0162293
949.924	0.0163935
