06/29/2022	22:50:10	Ver.	4.1	UNKNOWN
Optical Delay	630.002507	Delta X		0.078125	Sweeps	1	Scan Rate	0/0
Coordinates	Axis 1	NaN	Axis 2	NaN	Axis 3	NaN	Axis 4	NaN	Axis 5	NaN	Axis 6	0.000000
TX Power	0.000000	RX Power	0.000000

630.003	0.0165185
630.081	0.0164124
630.159	0.0164848
630.237	0.0165279
630.315	0.0164190
630.393	0.0166053
630.471	0.0165446
630.549	0.0165636
630.628	0.0165626
630.706	0.0164610
630.784	0.0163986
630.862	0.0164871
630.940	0.0165120
631.018	0.0163614
631.096	0.0164527
631.174	0.0164919
631.253	0.0165808
631.331	0.0164287
631.409	0.0165978
631.487	0.0165219
631.565	0.0165071
631.643	0.0165537
631.721	0.0165314
631.799	0.0165620
631.878	0.0164558
631.956	0.0164472
632.034	0.0165506
632.112	0.0165532
632.190	0.0164348
632.268	0.0165434
632.346	0.0166029
632.424	0.0165855
632.503	0.0164906
632.581	0.0166283
632.659	0.0164445
632.737	0.0165340
632.815	0.0165939
632.893	0.0165504
632.971	0.0165706
633.049	0.0165144
633.128	0.0164401
633.206	0.0165202
633.284	0.0165125
633.362	0.0165105
633.440	0.0164203
633.518	0.0165573
633.596	0.0164045
633.674	0.0164178
633.753	0.0165215
633.831	0.0164732
633.909	0.0164827
633.987	0.0164553
634.065	0.0164687
634.143	0.0165487
634.221	0.0164343
634.299	0.0164773
634.378	0.0164540
634.456	0.0164644
634.534	0.0166089
634.612	0.0166645
634.690	0.0165210
634.768	0.0166205
634.846	0.0165635
634.924	0.0165305
635.003	0.0163962
635.081	0.0165617
635.159	0.0165464
635.237	0.0164396
635.315	0.0165047
635.393	0.0165842
635.471	0.0164466
635.549	0.0165084
635.628	0.0165700
635.706	0.0164817
635.784	0.0165054
635.862	0.0164913
635.940	0.0166286
636.018	0.0164841
636.096	0.0164256
636.174	0.0166656
636.253	0.0165000
636.331	0.0166402
636.409	0.0165773
636.487	0.0164962
636.565	0.0164783
636.643	0.0165479
636.721	0.0166955
636.799	0.0165227
636.878	0.0164874
636.956	0.0165795
637.034	0.0164031
637.112	0.0165000
637.190	0.0166100
637.268	0.0165482
637.346	0.0164594
637.424	0.0164334
637.503	0.0165269
637.581	0.0164345
637.659	0.0166231
637.737	0.0165844
637.815	0.0165069
637.893	0.0165584
637.971	0.0165399
638.049	0.0165078
638.128	0.0164394
638.206	0.0164589
638.284	0.0164679
638.362	0.0164386
638.440	0.0165152
638.518	0.0165270
638.596	0.0165691
638.674	0.0165125
638.753	0.0165079
638.831	0.0165630
638.909	0.0165867
638.987	0.0165842
639.065	0.0164547
639.143	0.0164855
639.221	0.0164790
639.299	0.0166180
639.378	0.0165916
639.456	0.0164085
639.534	0.0165776
639.612	0.0164882
639.690	0.0165631
639.768	0.0166161
639.846	0.0164189
639.924	0.0165088
640.003	0.0165007
640.081	0.0166103
640.159	0.0164675
640.237	0.0165241
640.315	0.0164827
640.393	0.0164029
640.471	0.0164679
640.549	0.0165355
640.628	0.0164863
640.706	0.0164398
640.784	0.0164874
640.862	0.0164563
640.940	0.0164741
641.018	0.0164055
641.096	0.0163450
641.174	0.0164919
641.253	0.0164748
641.331	0.0164634
641.409	0.0163735
641.487	0.0165662
641.565	0.0166438
641.643	0.0165796
641.721	0.0165877
641.799	0.0164767
641.878	0.0163844
641.956	0.0164690
642.034	0.0164338
642.112	0.0164252
642.190	0.0165460
642.268	0.0165513
642.346	0.0165598
642.424	0.0164721
642.503	0.0164530
642.581	0.0165688
642.659	0.0165583
642.737	0.0165253
642.815	0.0165382
642.893	0.0165367
642.971	0.0165145
643.049	0.0165173
643.128	0.0164758
643.206	0.0165205
643.284	0.0165194
643.362	0.0164857
643.440	0.0166065
643.518	0.0164798
643.596	0.0165075
643.674	0.0165179
643.753	0.0164141
643.831	0.0165511
643.909	0.0165062
643.987	0.0164349
644.065	0.0165432
644.143	0.0165478
644.221	0.0165273
644.299	0.0166080
644.378	0.0166306
644.456	0.0166045
644.534	0.0166026
644.612	0.0164460
644.690	0.0164213
644.768	0.0165377
644.846	0.0165549
644.924	0.0164964
645.003	0.0164621
645.081	0.0165421
645.159	0.0165627
645.237	0.0164766
645.315	0.0165184
645.393	0.0165849
645.471	0.0164619
645.549	0.0164796
645.628	0.0163488
645.706	0.0164576
645.784	0.0164519
645.862	0.0163969
645.940	0.0164294
646.018	0.0164279
646.096	0.0164886
646.174	0.0164781
646.253	0.0165094
646.331	0.0165992
646.409	0.0164015
646.487	0.0164974
646.565	0.0164371
646.643	0.0165196
646.721	0.0165563
646.799	0.0165628
646.878	0.0165633
646.956	0.0166595
647.034	0.0166514
647.112	0.0165343
647.190	0.0164543
647.268	0.0165070
647.346	0.0166344
647.424	0.0165422
647.503	0.0165990
647.581	0.0164622
647.659	0.0165534
647.737	0.0164176
647.815	0.0165061
647.893	0.0165699
647.971	0.0165575
648.049	0.0165360
648.128	0.0165395
648.206	0.0164384
648.284	0.0165691
648.362	0.0164526
648.440	0.0164948
648.518	0.0164014
648.596	0.0164128
648.674	0.0165495
648.753	0.0165300
648.831	0.0165057
648.909	0.0164674
648.987	0.0165377
649.065	0.0165258
649.143	0.0165925
649.221	0.0165485
649.299	0.0165127
649.378	0.0164173
649.456	0.0164068
649.534	0.0165411
649.612	0.0165202
649.690	0.0166018
649.768	0.0164213
649.846	0.0163513
649.924	0.0164387
650.003	0.0163469
650.081	0.0164834
650.159	0.0165842
650.237	0.0164455
650.315	0.0165293
650.393	0.0165257
650.471	0.0165494
650.549	0.0165865
650.628	0.0165647
650.706	0.0165005
650.784	0.0164912
650.862	0.0164932
650.940	0.0164608
651.018	0.0163691
651.096	0.0164235
651.174	0.0165797
651.253	0.0166640
651.331	0.0165752
651.409	0.0165912
651.487	0.0164893
651.565	0.0166293
651.643	0.0165343
651.721	0.0164491
651.799	0.0164867
651.878	0.0164964
651.956	0.0164115
652.034	0.0164952
652.112	0.0165076
652.190	0.0165028
652.268	0.0164742
652.346	0.0164877
652.424	0.0164854
652.503	0.0165211
652.581	0.0164687
652.659	0.0163982
652.737	0.0163747
652.815	0.0163586
652.893	0.0164925
652.971	0.0165723
653.049	0.0165112
653.128	0.0164032
653.206	0.0165468
653.284	0.0166688
653.362	0.0165520
653.440	0.0164725
653.518	0.0164758
653.596	0.0164777
653.674	0.0165760
653.753	0.0164693
653.831	0.0164288
653.909	0.0164946
653.987	0.0165249
654.065	0.0164999
654.143	0.0165842
654.221	0.0164344
654.299	0.0165509
654.378	0.0165366
654.456	0.0165294
654.534	0.0165778
654.612	0.0164894
654.690	0.0164964
654.768	0.0165315
654.846	0.0165740
654.924	0.0164577
655.003	0.0165308
655.081	0.0165409
655.159	0.0164886
655.237	0.0166437
655.315	0.0166560
655.393	0.0163855
655.471	0.0164738
655.549	0.0166164
655.628	0.0164791
655.706	0.0164335
655.784	0.0165829
655.862	0.0164795
655.940	0.0164639
656.018	0.0164913
656.096	0.0166415
656.174	0.0165244
656.253	0.0164442
656.331	0.0163593
656.409	0.0165280
656.487	0.0164964
656.565	0.0164655
656.643	0.0163988
656.721	0.0165456
656.799	0.0165304
656.878	0.0165195
656.956	0.0164642
657.034	0.0165015
657.112	0.0164153
657.190	0.0163532
657.268	0.0163677
657.346	0.0164788
657.424	0.0164809
657.503	0.0164380
657.581	0.0164201
657.659	0.0165755
657.737	0.0165582
657.815	0.0165174
657.893	0.0164165
657.971	0.0164027
658.049	0.0164133
658.128	0.0164434
658.206	0.0165403
658.284	0.0166313
658.362	0.0165681
658.440	0.0164559
658.518	0.0164347
658.596	0.0165470
658.674	0.0165549
658.753	0.0165533
658.831	0.0165879
658.909	0.0164008
658.987	0.0163945
659.065	0.0164777
659.143	0.0165044
659.221	0.0164285
659.299	0.0165759
659.378	0.0165955
659.456	0.0165788
659.534	0.0164123
659.612	0.0164760
659.690	0.0164530
659.768	0.0165482
659.846	0.0164979
659.924	0.0163982
660.003	0.0164795
660.081	0.0164751
660.159	0.0164994
660.237	0.0165902
660.315	0.0166367
660.393	0.0164385
660.471	0.0166066
660.549	0.0164372
660.628	0.0164413
660.706	0.0164610
660.784	0.0166032
660.862	0.0164458
660.940	0.0164522
661.018	0.0164743
661.096	0.0165311
661.174	0.0165101
661.253	0.0165207
661.331	0.0164732
661.409	0.0165555
661.487	0.0165232
661.565	0.0165542
661.643	0.0164735
661.721	0.0164951
661.799	0.0165971
661.878	0.0164050
661.956	0.0164862
662.034	0.0166444
662.112	0.0165166
662.190	0.0163667
662.268	0.0164738
662.346	0.0164825
662.424	0.0166008
662.503	0.0165476
662.581	0.0164938
662.659	0.0164987
662.737	0.0165895
662.815	0.0165444
662.893	0.0165948
662.971	0.0165102
663.049	0.0164991
663.128	0.0165067
663.206	0.0165289
663.284	0.0165733
663.362	0.0166531
663.440	0.0164761
663.518	0.0164455
663.596	0.0165560
663.674	0.0165752
663.753	0.0165584
663.831	0.0165157
663.909	0.0164188
663.987	0.0166444
664.065	0.0166676
664.143	0.0165470
664.221	0.0165173
664.299	0.0164503
664.378	0.0164067
664.456	0.0165322
664.534	0.0165830
664.612	0.0164471
664.690	0.0164611
664.768	0.0165235
664.846	0.0164423
664.924	0.0164836
665.003	0.0164727
665.081	0.0165428
665.159	0.0166394
665.237	0.0165148
665.315	0.0164751
665.393	0.0164895
665.471	0.0165166
665.549	0.0165728
665.628	0.0166418
665.706	0.0165649
665.784	0.0164803
665.862	0.0164855
665.940	0.0163761
666.018	0.0165056
666.096	0.0165801
666.174	0.0164375
666.253	0.0164250
666.331	0.0164861
666.409	0.0165585
666.487	0.0166399
666.565	0.0164816
666.643	0.0165136
666.721	0.0165282
666.799	0.0164755
666.878	0.0164994
666.956	0.0166092
667.034	0.0166435
667.112	0.0165981
667.190	0.0165003
667.268	0.0166714
667.346	0.0165167
667.424	0.0163692
667.503	0.0164251
667.581	0.0164485
667.659	0.0165752
667.737	0.0165559
667.815	0.0165073
667.893	0.0165079
667.971	0.0164851
668.049	0.0164770
668.128	0.0164742
668.206	0.0167098
668.284	0.0166711
668.362	0.0165394
668.440	0.0164779
668.518	0.0164522
668.596	0.0164645
668.674	0.0165208
668.753	0.0164942
668.831	0.0165591
668.909	0.0164639
668.987	0.0165383
669.065	0.0166109
669.143	0.0165533
669.221	0.0165746
669.299	0.0165062
669.378	0.0164883
669.456	0.0164824
669.534	0.0166310
669.612	0.0165024
669.690	0.0164574
669.768	0.0164692
669.846	0.0164597
669.924	0.0165872
670.003	0.0164507
670.081	0.0165967
670.159	0.0165904
670.237	0.0165759
670.315	0.0163793
670.393	0.0165628
670.471	0.0166412
670.549	0.0165187
670.628	0.0164485
670.706	0.0165328
670.784	0.0165794
670.862	0.0164823
670.940	0.0164515
671.018	0.0165378
671.096	0.0164784
671.174	0.0165520
671.253	0.0164476
671.331	0.0166215
671.409	0.0165788
671.487	0.0165398
671.565	0.0165693
671.643	0.0165402
671.721	0.0165424
671.799	0.0165459
671.878	0.0165971
671.956	0.0165838
672.034	0.0164275
672.112	0.0166332
672.190	0.0165407
672.268	0.0165345
672.346	0.0165311
672.424	0.0166480
672.503	0.0167244
672.581	0.0163549
672.659	0.0163636
672.737	0.0164230
672.815	0.0167571
672.893	0.0165040
672.971	0.0164558
673.049	0.0164520
673.128	0.0166641
673.206	0.0163579
673.284	0.0166235
673.362	0.0164906
673.440	0.0165530
673.518	0.0165636
673.596	0.0166371
673.674	0.0164953
673.753	0.0164684
673.831	0.0164172
673.909	0.0164516
673.987	0.0164658
674.065	0.0164700
674.143	0.0165236
674.221	0.0166003
674.299	0.0165041
674.378	0.0165336
674.456	0.0164957
674.534	0.0165438
674.612	0.0164915
674.690	0.0165729
674.768	0.0164964
674.846	0.0164186
674.924	0.0166024
675.003	0.0164799
675.081	0.0165273
675.159	0.0165068
675.237	0.0166161
675.315	0.0166427
675.393	0.0166081
675.471	0.0163212
675.549	0.0164716
675.628	0.0165941
675.706	0.0166183
675.784	0.0165002
675.862	0.0164805
675.940	0.0165360
676.018	0.0165276
676.096	0.0165020
676.174	0.0165266
676.253	0.0164986
676.331	0.0164750
676.409	0.0167015
676.487	0.0164691
676.565	0.0164083
676.643	0.0164430
676.721	0.0164845
676.799	0.0166116
676.878	0.0164519
676.956	0.0165475
677.034	0.0164188
677.112	0.0165760
677.190	0.0165464
677.268	0.0165147
677.346	0.0165022
677.424	0.0165342
677.503	0.0165163
677.581	0.0165281
677.659	0.0163931
677.737	0.0165487
677.815	0.0164983
677.893	0.0166431
677.971	0.0164973
678.049	0.0165593
678.128	0.0163347
678.206	0.0165952
678.284	0.0164628
678.362	0.0165717
678.440	0.0163899
678.518	0.0165140
678.596	0.0166074
678.674	0.0166590
678.753	0.0164948
678.831	0.0164611
678.909	0.0164849
678.987	0.0164262
679.065	0.0165883
679.143	0.0165471
679.221	0.0165931
679.299	0.0164619
679.378	0.0165430
679.456	0.0166175
679.534	0.0165701
679.612	0.0165578
679.690	0.0165890
679.768	0.0164594
679.846	0.0164532
679.924	0.0166313
680.003	0.0164826
680.081	0.0164879
680.159	0.0165350
680.237	0.0165595
680.315	0.0164362
680.393	0.0164127
680.471	0.0163578
680.549	0.0165483
680.628	0.0165678
680.706	0.0166042
680.784	0.0166564
680.862	0.0165497
680.940	0.0165190
681.018	0.0165660
681.096	0.0164612
681.174	0.0165485
681.253	0.0165798
681.331	0.0164906
681.409	0.0163569
681.487	0.0164911
681.565	0.0163090
681.643	0.0164800
681.721	0.0165684
681.799	0.0165733
681.878	0.0164373
681.956	0.0164785
682.034	0.0165531
682.112	0.0164796
682.190	0.0164384
682.268	0.0166577
682.346	0.0164674
682.424	0.0165205
682.503	0.0166006
682.581	0.0165367
682.659	0.0165762
682.737	0.0164866
682.815	0.0164711
682.893	0.0165765
682.971	0.0164387
683.049	0.0164394
683.128	0.0163719
683.206	0.0164629
683.284	0.0165720
683.362	0.0165251
683.440	0.0164368
683.518	0.0165981
683.596	0.0164700
683.674	0.0165908
683.753	0.0164906
683.831	0.0163815
683.909	0.0164803
683.987	0.0165955
684.065	0.0165351
684.143	0.0165063
684.221	0.0164600
684.299	0.0164616
684.378	0.0164945
684.456	0.0164972
684.534	0.0165904
684.612	0.0164652
684.690	0.0164399
684.768	0.0164378
684.846	0.0165178
684.924	0.0165457
685.003	0.0164944
685.081	0.0163925
685.159	0.0165266
685.237	0.0164864
685.315	0.0164366
685.393	0.0164218
685.471	0.0165469
685.549	0.0165279
685.628	0.0165238
685.706	0.0163618
685.784	0.0165622
685.862	0.0164217
685.940	0.0165498
686.018	0.0166098
686.096	0.0165580
686.174	0.0164893
686.253	0.0165619
686.331	0.0165582
686.409	0.0165237
686.487	0.0164141
686.565	0.0163900
686.643	0.0164140
686.721	0.0164523
686.799	0.0164914
686.878	0.0165162
686.956	0.0167175
687.034	0.0165157
687.112	0.0164445
687.190	0.0165508
687.268	0.0165049
687.346	0.0165173
687.424	0.0165250
687.503	0.0166026
687.581	0.0164538
687.659	0.0163470
687.737	0.0163719
687.815	0.0166084
687.893	0.0165221
687.971	0.0163576
688.049	0.0163404
688.128	0.0165224
688.206	0.0165134
688.284	0.0165485
688.362	0.0165524
688.440	0.0163957
688.518	0.0164868
688.596	0.0164526
688.674	0.0165220
688.753	0.0166186
688.831	0.0166483
688.909	0.0164508
688.987	0.0163479
689.065	0.0164249
689.143	0.0164733
689.221	0.0165915
689.299	0.0165853
689.378	0.0165302
689.456	0.0164796
689.534	0.0165215
689.612	0.0165839
689.690	0.0165794
689.768	0.0164539
689.846	0.0164152
689.924	0.0165328
690.003	0.0166150
690.081	0.0165677
690.159	0.0165800
690.237	0.0164671
690.315	0.0165510
690.393	0.0166190
690.471	0.0164982
690.549	0.0165047
690.628	0.0164190
690.706	0.0165428
690.784	0.0166194
690.862	0.0165053
690.940	0.0164995
691.018	0.0164571
691.096	0.0165604
691.174	0.0166168
691.253	0.0164426
691.331	0.0165759
691.409	0.0164870
691.487	0.0164704
691.565	0.0165694
691.643	0.0164917
691.721	0.0165147
691.799	0.0164848
691.878	0.0165160
691.956	0.0164490
692.034	0.0164743
692.112	0.0165250
692.190	0.0165726
692.268	0.0164116
692.346	0.0165121
692.424	0.0165118
692.503	0.0164642
692.581	0.0165357
692.659	0.0166454
692.737	0.0164652
692.815	0.0165746
692.893	0.0166442
692.971	0.0167635
693.049	0.0164579
693.128	0.0165190
693.206	0.0165144
693.284	0.0164482
693.362	0.0165516
693.440	0.0164761
693.518	0.0165906
693.596	0.0165065
693.674	0.0164651
693.753	0.0165218
693.831	0.0164117
693.909	0.0165334
693.987	0.0164988
694.065	0.0163468
694.143	0.0166293
694.221	0.0165876
694.299	0.0165434
694.378	0.0164794
694.456	0.0165743
694.534	0.0165300
694.612	0.0164753
694.690	0.0163762
694.768	0.0164728
694.846	0.0165990
694.924	0.0164790
695.003	0.0165649
695.081	0.0165958
695.159	0.0164195
695.237	0.0165878
695.315	0.0165726
695.393	0.0164877
695.471	0.0164986
695.549	0.0164651
695.628	0.0165859
695.706	0.0165221
695.784	0.0165441
695.862	0.0164472
695.940	0.0164950
696.018	0.0165678
696.096	0.0165604
696.174	0.0166407
696.253	0.0166312
696.331	0.0165379
696.409	0.0164275
696.487	0.0165120
696.565	0.0166347
696.643	0.0165596
696.721	0.0165543
696.799	0.0165633
696.878	0.0164544
696.956	0.0165812
697.034	0.0165273
697.112	0.0165479
697.190	0.0166497
697.268	0.0164194
697.346	0.0165644
697.424	0.0164897
697.503	0.0164591
697.581	0.0165350
697.659	0.0165161
697.737	0.0166691
697.815	0.0165977
697.893	0.0165468
697.971	0.0164237
698.049	0.0163362
698.128	0.0165198
698.206	0.0165768
698.284	0.0164757
698.362	0.0164625
698.440	0.0165112
698.518	0.0165187
698.596	0.0164222
698.674	0.0165614
698.753	0.0163930
698.831	0.0164493
698.909	0.0166377
698.987	0.0164564
699.065	0.0165615
699.143	0.0166125
699.221	0.0165424
699.299	0.0165522
699.378	0.0165511
699.456	0.0166566
699.534	0.0165784
699.612	0.0165031
699.690	0.0165066
699.768	0.0164780
699.846	0.0164690
699.924	0.0164211
700.003	0.0166459
700.081	0.0165718
700.159	0.0165445
700.237	0.0164790
700.315	0.0165137
700.393	0.0164414
700.471	0.0164397
700.549	0.0165406
700.628	0.0165630
700.706	0.0164462
700.784	0.0165883
700.862	0.0165002
700.940	0.0164893
701.018	0.0165247
701.096	0.0164848
701.174	0.0164877
701.253	0.0165793
701.331	0.0164993
701.409	0.0166302
701.487	0.0164905
701.565	0.0164764
701.643	0.0164152
701.721	0.0164761
701.799	0.0165083
701.878	0.0164451
701.956	0.0166347
702.034	0.0163636
702.112	0.0164364
702.190	0.0165199
702.268	0.0165588
702.346	0.0165575
702.424	0.0165446
702.503	0.0165436
702.581	0.0164989
702.659	0.0163223
702.737	0.0165306
702.815	0.0165604
702.893	0.0164883
702.971	0.0164751
703.049	0.0165304
703.128	0.0166473
703.206	0.0164568
703.284	0.0163869
703.362	0.0163895
703.440	0.0163956
703.518	0.0164449
703.596	0.0164518
703.674	0.0164136
703.753	0.0165129
703.831	0.0164997
703.909	0.0164394
703.987	0.0165334
704.065	0.0166419
704.143	0.0164546
704.221	0.0164453
704.299	0.0164888
704.378	0.0164911
704.456	0.0165005
704.534	0.0164319
704.612	0.0164749
704.690	0.0165013
704.768	0.0165997
704.846	0.0165768
704.924	0.0165105
705.003	0.0164696
705.081	0.0164843
705.159	0.0165022
705.237	0.0164825
705.315	0.0164709
705.393	0.0166310
705.471	0.0165286
705.549	0.0164743
705.628	0.0165077
705.706	0.0164358
705.784	0.0166087
705.862	0.0165591
705.940	0.0165424
706.018	0.0164892
706.096	0.0165362
706.174	0.0165241
706.253	0.0165297
706.331	0.0166008
706.409	0.0164840
706.487	0.0165242
706.565	0.0165018
706.643	0.0163769
706.721	0.0163127
706.799	0.0164455
706.878	0.0164303
706.956	0.0163858
707.034	0.0163848
707.112	0.0163627
707.190	0.0164874
707.268	0.0163416
707.346	0.0162255
707.424	0.0164093
707.503	0.0164770
707.581	0.0164211
707.659	0.0164047
707.737	0.0163448
707.815	0.0162910
707.893	0.0162592
707.971	0.0164539
708.049	0.0164740
708.128	0.0165454
708.206	0.0166081
708.284	0.0165490
708.362	0.0164268
708.440	0.0165768
708.518	0.0166000
708.596	0.0165047
708.674	0.0164194
708.753	0.0165755
708.831	0.0166813
708.909	0.0165932
708.987	0.0167372
709.065	0.0166149
709.143	0.0165399
709.221	0.0166658
709.299	0.0166872
709.378	0.0166454
709.456	0.0165668
709.534	0.0165910
709.612	0.0165918
709.690	0.0166148
709.768	0.0166870
709.846	0.0167863
709.924	0.0166699
710.003	0.0166729
710.081	0.0166317
710.159	0.0166473
710.237	0.0165433
710.315	0.0164985
710.393	0.0165636
710.471	0.0166496
710.549	0.0166318
710.628	0.0164885
710.706	0.0164309
710.784	0.0164593
710.862	0.0164965
710.940	0.0164553
711.018	0.0163989
711.096	0.0163094
711.174	0.0166061
711.253	0.0165118
711.331	0.0164701
711.409	0.0166231
711.487	0.0164716
711.565	0.0165581
711.643	0.0163866
711.721	0.0163985
711.799	0.0164925
711.878	0.0165639
711.956	0.0164567
712.034	0.0164664
712.112	0.0163277
712.190	0.0163654
712.268	0.0165015
712.346	0.0164555
712.424	0.0164123
712.503	0.0163406
712.581	0.0164223
712.659	0.0165326
712.737	0.0166042
712.815	0.0165255
712.893	0.0165018
712.971	0.0165431
713.049	0.0166273
713.128	0.0165624
713.206	0.0167617
713.284	0.0166765
713.362	0.0166589
713.440	0.0166068
713.518	0.0166042
713.596	0.0165501
713.674	0.0163934
713.753	0.0162489
713.831	0.0162695
713.909	0.0161156
713.987	0.0161257
714.065	0.0161599
714.143	0.0161695
714.221	0.0163345
714.299	0.0162701
714.378	0.0163953
714.456	0.0165733
714.534	0.0167038
714.612	0.0167128
714.690	0.0167054
714.768	0.0165836
714.846	0.0167309
714.924	0.0165738
715.003	0.0165500
715.081	0.0165506
715.159	0.0163309
715.237	0.0162578
715.315	0.0162711
715.393	0.0161364
715.471	0.0162337
715.549	0.0162288
715.628	0.0162579
715.706	0.0161894
715.784	0.0163907
715.862	0.0164250
715.940	0.0167148
716.018	0.0169708
716.096	0.0168979
716.174	0.0169723
716.253	0.0172186
716.331	0.0171710
716.409	0.0172516
716.487	0.0171458
716.565	0.0170199
716.643	0.0170037
716.721	0.0168513
716.799	0.0166222
716.878	0.0166615
716.956	0.0162861
717.034	0.0163371
717.112	0.0162164
717.190	0.0162226
717.268	0.0160130
717.346	0.0160751
717.424	0.0162190
717.503	0.0162295
717.581	0.0162696
717.659	0.0165028
717.737	0.0165329
717.815	0.0167867
717.893	0.0167654
717.971	0.0167678
718.049	0.0168288
718.128	0.0167640
718.206	0.0167068
718.284	0.0165837
718.362	0.0165610
718.440	0.0163491
718.518	0.0161258
718.596	0.0160930
718.674	0.0159936
718.753	0.0160252
718.831	0.0157266
718.909	0.0159399
718.987	0.0160020
719.065	0.0160570
719.143	0.0160320
719.221	0.0163196
719.299	0.0163614
719.378	0.0165321
719.456	0.0167575
719.534	0.0169765
719.612	0.0171567
719.690	0.0171944
719.768	0.0173476
719.846	0.0174892
719.924	0.0176447
720.003	0.0178025
720.081	0.0178931
720.159	0.0178386
720.237	0.0179059
720.315	0.0179743
720.393	0.0177913
720.471	0.0175763
720.549	0.0174474
720.628	0.0171705
720.706	0.0168089
720.784	0.0166670
720.862	0.0163999
720.940	0.0161308
721.018	0.0157817
721.096	0.0157726
721.174	0.0155836
721.253	0.0153495
721.331	0.0151605
721.409	0.0150530
721.487	0.0150555
721.565	0.0148194
721.643	0.0147594
721.721	0.0147073
721.799	0.0146500
721.878	0.0145639
721.956	0.0148266
722.034	0.0148669
722.112	0.0150092
722.190	0.0152548
722.268	0.0154981
722.346	0.0158536
722.424	0.0163030
722.503	0.0167021
722.581	0.0172752
722.659	0.0176061
722.737	0.0181015
722.815	0.0184212
722.893	0.0187663
722.971	0.0188351
723.049	0.0189716
723.128	0.0190115
723.206	0.0190365
723.284	0.0188387
723.362	0.0187086
723.440	0.0184883
723.518	0.0183474
723.596	0.0180482
723.674	0.0179387
723.753	0.0178362
723.831	0.0174727
723.909	0.0172720
723.987	0.0169808
724.065	0.0167706
724.143	0.0165876
724.221	0.0163338
724.299	0.0162064
724.378	0.0159071
724.456	0.0156001
724.534	0.0154802
724.612	0.0151285
724.690	0.0148557
724.768	0.0144862
724.846	0.0141307
724.924	0.0138311
725.003	0.0135134
725.081	0.0133088
725.159	0.0131580
725.237	0.0131703
725.315	0.0131773
725.393	0.0134052
725.471	0.0136979
725.549	0.0140948
725.628	0.0146214
725.706	0.0151200
725.784	0.0156414
725.862	0.0162892
725.940	0.0168381
726.018	0.0176649
726.096	0.0180463
726.174	0.0183915
726.253	0.0188511
726.331	0.0191696
726.409	0.0193213
726.487	0.0193720
726.565	0.0195182
726.643	0.0195742
726.721	0.0194004
726.799	0.0194635
726.878	0.0193929
726.956	0.0192002
727.034	0.0189912
727.112	0.0188895
727.190	0.0188114
727.268	0.0186382
727.346	0.0185040
727.424	0.0183662
727.503	0.0179838
727.581	0.0176938
727.659	0.0172040
727.737	0.0168166
727.815	0.0165945
727.893	0.0160461
727.971	0.0154883
728.049	0.0149989
728.128	0.0144762
728.206	0.0139400
728.284	0.0136581
728.362	0.0131865
728.440	0.0130398
728.518	0.0127396
728.596	0.0124938
728.674	0.0124374
728.753	0.0125953
728.831	0.0126281
728.909	0.0128851
728.987	0.0132192
729.065	0.0133814
729.143	0.0138660
729.221	0.0144365
729.299	0.0149493
729.378	0.0153864
729.456	0.0158843
729.534	0.0164123
729.612	0.0170338
729.690	0.0176054
729.768	0.0180413
729.846	0.0186457
729.924	0.0191042
730.003	0.0194412
730.081	0.0201024
730.159	0.0202938
730.237	0.0205836
730.315	0.0207903
730.393	0.0208831
730.471	0.0208633
730.549	0.0206216
730.628	0.0203758
730.706	0.0199999
730.784	0.0194025
730.862	0.0188503
730.940	0.0182536
731.018	0.0176568
731.096	0.0171632
731.174	0.0164771
731.253	0.0159035
731.331	0.0154887
731.409	0.0152366
731.487	0.0150632
731.565	0.0149194
731.643	0.0147021
731.721	0.0146947
731.799	0.0146145
731.878	0.0146649
731.956	0.0147360
732.034	0.0145996
732.112	0.0145927
732.190	0.0145368
732.268	0.0143620
732.346	0.0141981
732.424	0.0140306
732.503	0.0139703
732.581	0.0136755
732.659	0.0136520
732.737	0.0134969
732.815	0.0134165
732.893	0.0137321
732.971	0.0141474
733.049	0.0142652
733.128	0.0147851
733.206	0.0153560
733.284	0.0160188
733.362	0.0165697
733.440	0.0173892
733.518	0.0179133
733.596	0.0185742
733.674	0.0192367
733.753	0.0198331
733.831	0.0202692
733.909	0.0206113
733.987	0.0208984
734.065	0.0212767
734.143	0.0212010
734.221	0.0210270
734.299	0.0208646
734.378	0.0205235
734.456	0.0200655
734.534	0.0193169
734.612	0.0186426
734.690	0.0180453
734.768	0.0171657
734.846	0.0164563
734.924	0.0157684
735.003	0.0151262
735.081	0.0146629
735.159	0.0142372
735.237	0.0139004
735.315	0.0137823
735.393	0.0136399
735.471	0.0137016
735.549	0.0139575
735.628	0.0140997
735.706	0.0142230
735.784	0.0145619
735.862	0.0147758
735.940	0.0150668
736.018	0.0151081
736.096	0.0152190
736.174	0.0152366
736.253	0.0152398
736.331	0.0152234
736.409	0.0151737
736.487	0.0151248
736.565	0.0151009
736.643	0.0151591
736.721	0.0151614
736.799	0.0151518
736.878	0.0155422
736.956	0.0157549
737.034	0.0159431
737.112	0.0161916
737.190	0.0165529
737.268	0.0169444
737.346	0.0172510
737.424	0.0175940
737.503	0.0180914
737.581	0.0184185
737.659	0.0187730
737.737	0.0188074
737.815	0.0189658
737.893	0.0191500
737.971	0.0192464
738.049	0.0190251
738.128	0.0189455
738.206	0.0187436
738.284	0.0184379
738.362	0.0181750
738.440	0.0179187
738.518	0.0177118
738.596	0.0174728
738.674	0.0170652
738.753	0.0169028
738.831	0.0165588
738.909	0.0164660
738.987	0.0161894
739.065	0.0160766
739.143	0.0158601
739.221	0.0157137
739.299	0.0155746
739.378	0.0154120
739.456	0.0153976
739.534	0.0151530
739.612	0.0151210
739.690	0.0149959
739.768	0.0151708
739.846	0.0149669
739.924	0.0150230
740.003	0.0150939
740.081	0.0151382
740.159	0.0152321
740.237	0.0152252
740.315	0.0155196
740.393	0.0157456
740.471	0.0159016
740.549	0.0161634
740.628	0.0164548
740.706	0.0165437
740.784	0.0169402
740.862	0.0170975
740.940	0.0172598
741.018	0.0172234
741.096	0.0174358
741.174	0.0173164
741.253	0.0174335
741.331	0.0173520
741.409	0.0172322
741.487	0.0172973
741.565	0.0169746
741.643	0.0167336
741.721	0.0165996
741.799	0.0167484
741.878	0.0167603
741.956	0.0166178
742.034	0.0165133
742.112	0.0164019
742.190	0.0163383
742.268	0.0163850
742.346	0.0163150
742.424	0.0163228
742.503	0.0163505
742.581	0.0163960
742.659	0.0163841
742.737	0.0163771
742.815	0.0165113
742.893	0.0163484
742.971	0.0163430
743.049	0.0163279
743.128	0.0165089
743.206	0.0165610
743.284	0.0165051
743.362	0.0164513
743.440	0.0165369
743.518	0.0164800
743.596	0.0164828
743.674	0.0164265
743.753	0.0163385
743.831	0.0165119
743.909	0.0163724
743.987	0.0164760
744.065	0.0165176
744.143	0.0164835
744.221	0.0167004
744.299	0.0168391
744.378	0.0168554
744.456	0.0170428
744.534	0.0172620
744.612	0.0173209
744.690	0.0174297
744.768	0.0175955
744.846	0.0176558
744.924	0.0175076
745.003	0.0175974
745.081	0.0176362
745.159	0.0173020
745.237	0.0169684
745.315	0.0167345
745.393	0.0164890
745.471	0.0160155
745.549	0.0158842
745.628	0.0155769
745.706	0.0154024
745.784	0.0153281
745.862	0.0151347
745.940	0.0150278
746.018	0.0152122
746.096	0.0152042
746.174	0.0153117
746.253	0.0156200
746.331	0.0156870
746.409	0.0157619
746.487	0.0160103
746.565	0.0160739
746.643	0.0161503
746.721	0.0162697
746.799	0.0163496
746.878	0.0165279
746.956	0.0165022
747.034	0.0164870
747.112	0.0164783
747.190	0.0163309
747.268	0.0165197
747.346	0.0163592
747.424	0.0163910
747.503	0.0163772
747.581	0.0163358
747.659	0.0163828
747.737	0.0163947
747.815	0.0164249
747.893	0.0165458
747.971	0.0166440
748.049	0.0166221
748.128	0.0168438
748.206	0.0170058
748.284	0.0172099
748.362	0.0174776
748.440	0.0175088
748.518	0.0177464
748.596	0.0178452
748.674	0.0178162
748.753	0.0179947
748.831	0.0178766
748.909	0.0177333
748.987	0.0176747
749.065	0.0176017
749.143	0.0174168
749.221	0.0171788
749.299	0.0170245
749.378	0.0167205
749.456	0.0166682
749.534	0.0165902
749.612	0.0164291
749.690	0.0161787
749.768	0.0158891
749.846	0.0157469
749.924	0.0157195
750.003	0.0156193
750.081	0.0155339
750.159	0.0152996
750.237	0.0154187
750.315	0.0155378
750.393	0.0153295
750.471	0.0155483
750.549	0.0157475
750.628	0.0158408
750.706	0.0157185
750.784	0.0160422
750.862	0.0162434
750.940	0.0161683
751.018	0.0163142
751.096	0.0165234
751.174	0.0164847
751.253	0.0164811
751.331	0.0164265
751.409	0.0165017
751.487	0.0163762
751.565	0.0165143
751.643	0.0164109
751.721	0.0163585
751.799	0.0163943
751.878	0.0162774
751.956	0.0163080
752.034	0.0165107
752.112	0.0165169
752.190	0.0165120
752.268	0.0167458
752.346	0.0168912
752.424	0.0170153
752.503	0.0169962
752.581	0.0170522
752.659	0.0171872
752.737	0.0173038
752.815	0.0169752
752.893	0.0171185
752.971	0.0170143
753.049	0.0168006
753.128	0.0165766
753.206	0.0167006
753.284	0.0165773
753.362	0.0163737
753.440	0.0162900
753.518	0.0163658
753.596	0.0162061
753.674	0.0159917
753.753	0.0161062
753.831	0.0162679
753.909	0.0163144
753.987	0.0163701
754.065	0.0163802
754.143	0.0165444
754.221	0.0164661
754.299	0.0166850
754.378	0.0168751
754.456	0.0169673
754.534	0.0169606
754.612	0.0171827
754.690	0.0171345
754.768	0.0172137
754.846	0.0171602
754.924	0.0170730
755.003	0.0169371
755.081	0.0169563
755.159	0.0167245
755.237	0.0166018
755.315	0.0164881
755.393	0.0162684
755.471	0.0161964
755.549	0.0161475
755.628	0.0161615
755.706	0.0160462
755.784	0.0159486
755.862	0.0160394
755.940	0.0160616
756.018	0.0161927
756.096	0.0162234
756.174	0.0161903
756.253	0.0161654
756.331	0.0163565
756.409	0.0165147
756.487	0.0164978
756.565	0.0164367
756.643	0.0164278
756.721	0.0164609
756.799	0.0165318
756.878	0.0164257
756.956	0.0164679
757.034	0.0164305
757.112	0.0164569
757.190	0.0165074
757.268	0.0163723
757.346	0.0165166
757.424	0.0164722
757.503	0.0164833
757.581	0.0165392
757.659	0.0165133
757.737	0.0163962
757.815	0.0163290
757.893	0.0163295
757.971	0.0162773
758.049	0.0163361
758.128	0.0161763
758.206	0.0162546
758.284	0.0161176
758.362	0.0159780
758.440	0.0162686
758.518	0.0162077
758.596	0.0162613
758.674	0.0162881
758.753	0.0162789
758.831	0.0164376
758.909	0.0165303
758.987	0.0166114
759.065	0.0165406
759.143	0.0166855
759.221	0.0167455
759.299	0.0167978
759.378	0.0169618
759.456	0.0170637
759.534	0.0171058
759.612	0.0171157
759.690	0.0173428
759.768	0.0173008
759.846	0.0173446
759.924	0.0172831
760.003	0.0173263
760.081	0.0172322
760.159	0.0172220
760.237	0.0169894
760.315	0.0167179
760.393	0.0167016
760.471	0.0165928
760.549	0.0164517
760.628	0.0163043
760.706	0.0162312
760.784	0.0160490
760.862	0.0159046
760.940	0.0158652
761.018	0.0159046
761.096	0.0157743
761.174	0.0159058
761.253	0.0159930
761.331	0.0160936
761.409	0.0160573
761.487	0.0161900
761.565	0.0161227
761.643	0.0163967
761.721	0.0164545
761.799	0.0165218
761.878	0.0164986
761.956	0.0166758
762.034	0.0166349
762.112	0.0165630
762.190	0.0165820
762.268	0.0165876
762.346	0.0166304
762.424	0.0165298
762.503	0.0164971
762.581	0.0162070
762.659	0.0164307
762.737	0.0163937
762.815	0.0163721
762.893	0.0163390
762.971	0.0162859
763.049	0.0164352
763.128	0.0164712
763.206	0.0163411
763.284	0.0164832
763.362	0.0166283
763.440	0.0166428
763.518	0.0166330
763.596	0.0167667
763.674	0.0165694
763.753	0.0167080
763.831	0.0167358
763.909	0.0165974
763.987	0.0166251
764.065	0.0164594
764.143	0.0164240
764.221	0.0163509
764.299	0.0161474
764.378	0.0162635
764.456	0.0163438
764.534	0.0163242
764.612	0.0162304
764.690	0.0163165
764.768	0.0163599
764.846	0.0164146
764.924	0.0164436
765.003	0.0165014
765.081	0.0164482
765.159	0.0165707
765.237	0.0164998
765.315	0.0164201
765.393	0.0164970
765.471	0.0167003
765.549	0.0166394
765.628	0.0166998
765.706	0.0167150
765.784	0.0166286
765.862	0.0167641
765.940	0.0168218
766.018	0.0167484
766.096	0.0165648
766.174	0.0164717
766.253	0.0165060
766.331	0.0165650
766.409	0.0163811
766.487	0.0163101
766.565	0.0162453
766.643	0.0160975
766.721	0.0162192
766.799	0.0159520
766.878	0.0161594
766.956	0.0161827
767.034	0.0160680
767.112	0.0161876
767.190	0.0163092
767.268	0.0162847
767.346	0.0164462
767.424	0.0167382
767.503	0.0168874
767.581	0.0168059
767.659	0.0169388
767.737	0.0170787
767.815	0.0171346
767.893	0.0170728
767.971	0.0171316
768.049	0.0170247
768.128	0.0168284
768.206	0.0167671
768.284	0.0166264
768.362	0.0165829
768.440	0.0164380
768.518	0.0163190
768.596	0.0162595
768.674	0.0161693
768.753	0.0160187
768.831	0.0160225
768.909	0.0159360
768.987	0.0159391
769.065	0.0158784
769.143	0.0160514
769.221	0.0159563
769.299	0.0160899
769.378	0.0159229
769.456	0.0161565
769.534	0.0161594
769.612	0.0162360
769.690	0.0160956
769.768	0.0163114
769.846	0.0163602
769.924	0.0164006
770.003	0.0165264
770.081	0.0165128
770.159	0.0163683
770.237	0.0166048
770.315	0.0164777
770.393	0.0166463
770.471	0.0167355
770.549	0.0166737
770.628	0.0166547
770.706	0.0167998
770.784	0.0168658
770.862	0.0168060
770.940	0.0169125
771.018	0.0168196
771.096	0.0170027
771.174	0.0169860
771.253	0.0169469
771.331	0.0168285
771.409	0.0169213
771.487	0.0169894
771.565	0.0169428
771.643	0.0168922
771.721	0.0168433
771.799	0.0169154
771.878	0.0167924
771.956	0.0167365
772.034	0.0166734
772.112	0.0166133
772.190	0.0166133
772.268	0.0165234
772.346	0.0165405
772.424	0.0165536
772.503	0.0165759
772.581	0.0164046
772.659	0.0162846
772.737	0.0162371
772.815	0.0162107
772.893	0.0161396
772.971	0.0159870
773.049	0.0160077
773.128	0.0160468
773.206	0.0160004
773.284	0.0159584
773.362	0.0160725
773.440	0.0159604
773.518	0.0158680
773.596	0.0161106
773.674	0.0161752
773.753	0.0163570
773.831	0.0162241
773.909	0.0162284
773.987	0.0163628
774.065	0.0164803
774.143	0.0164788
774.221	0.0165933
774.299	0.0165721
774.378	0.0166646
774.456	0.0166336
774.534	0.0165357
774.612	0.0166639
774.690	0.0166888
774.768	0.0167436
774.846	0.0166865
774.924	0.0166380
775.003	0.0167184
775.081	0.0166440
775.159	0.0165692
775.237	0.0165752
775.315	0.0166676
775.393	0.0166261
775.471	0.0167428
775.549	0.0166007
775.628	0.0165907
775.706	0.0166470
775.784	0.0165120
775.862	0.0164201
775.940	0.0165849
776.018	0.0166366
776.096	0.0164789
776.174	0.0166856
776.253	0.0166019
776.331	0.0168631
776.409	0.0167696
776.487	0.0167912
776.565	0.0168316
776.643	0.0167750
776.721	0.0167460
776.799	0.0166805
776.878	0.0166984
776.956	0.0165134
777.034	0.0165871
777.112	0.0163798
777.190	0.0164402
777.268	0.0163840
777.346	0.0161887
777.424	0.0161883
777.503	0.0161237
777.581	0.0160939
777.659	0.0163123
777.737	0.0161407
777.815	0.0159542
777.893	0.0162347
777.971	0.0162467
778.049	0.0162274
778.128	0.0162048
778.206	0.0163438
778.284	0.0163049
778.362	0.0164285
778.440	0.0165989
778.518	0.0165119
778.596	0.0166676
778.674	0.0167866
778.753	0.0166193
778.831	0.0167216
778.909	0.0168398
778.987	0.0168594
779.065	0.0167757
779.143	0.0166450
779.221	0.0167105
779.299	0.0167593
779.378	0.0167123
779.456	0.0168559
779.534	0.0167237
779.612	0.0167480
779.690	0.0168224
779.768	0.0167082
779.846	0.0166593
779.924	0.0167657
780.003	0.0167188
780.081	0.0166221
780.159	0.0165774
780.237	0.0165453
780.315	0.0165729
780.393	0.0166206
780.471	0.0165489
780.549	0.0163821
780.628	0.0165451
780.706	0.0165527
780.784	0.0163738
780.862	0.0162443
780.940	0.0164687
781.018	0.0162199
781.096	0.0162046
781.174	0.0162495
781.253	0.0160626
781.331	0.0161048
781.409	0.0159956
781.487	0.0160680
781.565	0.0159778
781.643	0.0160270
781.721	0.0160653
781.799	0.0161213
781.878	0.0160599
781.956	0.0161642
782.034	0.0160515
782.112	0.0162511
782.190	0.0163773
782.268	0.0163271
782.346	0.0166307
782.424	0.0166991
782.503	0.0168027
782.581	0.0169820
782.659	0.0171279
782.737	0.0172174
782.815	0.0172808
782.893	0.0173076
782.971	0.0173297
783.049	0.0171870
783.128	0.0171814
783.206	0.0171426
783.284	0.0171199
783.362	0.0169973
783.440	0.0169709
783.518	0.0168800
783.596	0.0169219
783.674	0.0166939
783.753	0.0166216
783.831	0.0164440
783.909	0.0165010
783.987	0.0162036
784.065	0.0163206
784.143	0.0163116
784.221	0.0162910
784.299	0.0163263
784.378	0.0161744
784.456	0.0161987
784.534	0.0162033
784.612	0.0162893
784.690	0.0164854
784.768	0.0163789
784.846	0.0163426
784.924	0.0164649
785.003	0.0165267
785.081	0.0164462
785.159	0.0162720
785.237	0.0162817
785.315	0.0162920
785.393	0.0164039
785.471	0.0162257
785.549	0.0161199
785.628	0.0163300
785.706	0.0160442
785.784	0.0161794
785.862	0.0162150
785.940	0.0161990
786.018	0.0162036
786.096	0.0162227
786.174	0.0162572
786.253	0.0162908
786.331	0.0164439
786.409	0.0165314
786.487	0.0165662
786.565	0.0165720
786.643	0.0167283
786.721	0.0167963
786.799	0.0168958
786.878	0.0169422
786.956	0.0168974
787.034	0.0168879
787.112	0.0168182
787.190	0.0169724
787.268	0.0169313
787.346	0.0167458
787.424	0.0167652
787.503	0.0167094
787.581	0.0166277
787.659	0.0165065
787.737	0.0165211
787.815	0.0165662
787.893	0.0165268
787.971	0.0163268
788.049	0.0165182
788.128	0.0164554
788.206	0.0164172
788.284	0.0164044
788.362	0.0165308
788.440	0.0164574
788.518	0.0164290
788.596	0.0165012
788.674	0.0165989
788.753	0.0165831
788.831	0.0166334
788.909	0.0166063
788.987	0.0165336
789.065	0.0164555
789.143	0.0164574
789.221	0.0164185
789.299	0.0163508
789.378	0.0161725
789.456	0.0162382
789.534	0.0162440
789.612	0.0161772
789.690	0.0161091
789.768	0.0161712
789.846	0.0162247
789.924	0.0162215
790.003	0.0162211
790.081	0.0163577
790.159	0.0164895
790.237	0.0164239
790.315	0.0164285
790.393	0.0167448
790.471	0.0167105
790.549	0.0167945
790.628	0.0168439
790.706	0.0169370
790.784	0.0170431
790.862	0.0169852
790.940	0.0170450
791.018	0.0170592
791.096	0.0170560
791.174	0.0169306
791.253	0.0167865
791.331	0.0168387
791.409	0.0167840
791.487	0.0167092
791.565	0.0167619
791.643	0.0166798
791.721	0.0164877
791.799	0.0165265
791.878	0.0166915
791.956	0.0165633
792.034	0.0163716
792.112	0.0163509
792.190	0.0166168
792.268	0.0164438
792.346	0.0164610
792.424	0.0163634
792.503	0.0164317
792.581	0.0164132
792.659	0.0162000
792.737	0.0162233
792.815	0.0161202
792.893	0.0161910
792.971	0.0162621
793.049	0.0162504
793.128	0.0161406
793.206	0.0161515
793.284	0.0161138
793.362	0.0162955
793.440	0.0163742
793.518	0.0163151
793.596	0.0162887
793.674	0.0165065
793.753	0.0163759
793.831	0.0165289
793.909	0.0164952
793.987	0.0167014
794.065	0.0166923
794.143	0.0166623
794.221	0.0166837
794.299	0.0167340
794.378	0.0166207
794.456	0.0167322
794.534	0.0167435
794.612	0.0167151
794.690	0.0166286
794.768	0.0167708
794.846	0.0167020
794.924	0.0167689
795.003	0.0167818
795.081	0.0165717
795.159	0.0166541
795.237	0.0165122
795.315	0.0165453
795.393	0.0165898
795.471	0.0166296
795.549	0.0167773
795.628	0.0166119
795.706	0.0165041
795.784	0.0166565
795.862	0.0166915
795.940	0.0166792
796.018	0.0165756
796.096	0.0165923
796.174	0.0165657
796.253	0.0165405
796.331	0.0165790
796.409	0.0165147
796.487	0.0164797
796.565	0.0163799
796.643	0.0166422
796.721	0.0165336
796.799	0.0164861
796.878	0.0164865
796.956	0.0163728
797.034	0.0163461
797.112	0.0163470
797.190	0.0164999
797.268	0.0163680
797.346	0.0163470
797.424	0.0165379
797.503	0.0165097
797.581	0.0165571
797.659	0.0164899
797.737	0.0163890
797.815	0.0166468
797.893	0.0165543
797.971	0.0165353
798.049	0.0166739
798.128	0.0165976
798.206	0.0163381
798.284	0.0165580
798.362	0.0165372
798.440	0.0166310
798.518	0.0165286
798.596	0.0166123
798.674	0.0165794
798.753	0.0164996
798.831	0.0167290
798.909	0.0165414
798.987	0.0166821
799.065	0.0166991
799.143	0.0166448
799.221	0.0167262
799.299	0.0164851
799.378	0.0166147
799.456	0.0167294
799.534	0.0166693
799.612	0.0167334
799.690	0.0166644
799.768	0.0165996
799.846	0.0166417
799.924	0.0163953
800.003	0.0166217
800.081	0.0165304
800.159	0.0163876
800.237	0.0165275
800.315	0.0161991
800.393	0.0163604
800.471	0.0165291
800.549	0.0163762
800.628	0.0162142
800.706	0.0162698
800.784	0.0164143
800.862	0.0163343
800.940	0.0162455
801.018	0.0163785
801.096	0.0164860
801.174	0.0164203
801.253	0.0163937
801.331	0.0165267
801.409	0.0163647
801.487	0.0165242
801.565	0.0166043
801.643	0.0166048
801.721	0.0165028
801.799	0.0167036
801.878	0.0167762
801.956	0.0166240
802.034	0.0166345
802.112	0.0166444
802.190	0.0165143
802.268	0.0167240
802.346	0.0167152
802.424	0.0167043
802.503	0.0166739
802.581	0.0165206
802.659	0.0167796
802.737	0.0167845
802.815	0.0168283
802.893	0.0167773
802.971	0.0167213
803.049	0.0168044
803.128	0.0167342
803.206	0.0167682
803.284	0.0167860
803.362	0.0168011
803.440	0.0168273
803.518	0.0168033
803.596	0.0166331
803.674	0.0167757
803.753	0.0168311
803.831	0.0167494
803.909	0.0167175
803.987	0.0164816
804.065	0.0164333
804.143	0.0164629
804.221	0.0165155
804.299	0.0164329
804.378	0.0164705
804.456	0.0163823
804.534	0.0162936
804.612	0.0162824
804.690	0.0163636
804.768	0.0161864
804.846	0.0162912
804.924	0.0162648
805.003	0.0163652
805.081	0.0162505
805.159	0.0163155
805.237	0.0165812
805.315	0.0164064
805.393	0.0163559
805.471	0.0165972
805.549	0.0165891
805.628	0.0163606
805.706	0.0164013
805.784	0.0166763
805.862	0.0166051
805.940	0.0167203
806.018	0.0166013
806.096	0.0165556
806.174	0.0165183
806.253	0.0165696
806.331	0.0165752
806.409	0.0166879
806.487	0.0167194
806.565	0.0166386
806.643	0.0166215
806.721	0.0164706
806.799	0.0165768
806.878	0.0167740
806.956	0.0167408
807.034	0.0166779
807.112	0.0166984
807.190	0.0167477
807.268	0.0165923
807.346	0.0166875
807.424	0.0167175
807.503	0.0166682
807.581	0.0167222
807.659	0.0166054
807.737	0.0165364
807.815	0.0167120
807.893	0.0166866
807.971	0.0165237
808.049	0.0165067
808.128	0.0164595
808.206	0.0165111
808.284	0.0163601
808.362	0.0163356
808.440	0.0163411
808.518	0.0164922
808.596	0.0162985
808.674	0.0163031
808.753	0.0162577
808.831	0.0163560
808.909	0.0161642
808.987	0.0163984
809.065	0.0164466
809.143	0.0162806
809.221	0.0163760
809.299	0.0163255
809.378	0.0163875
809.456	0.0164937
809.534	0.0166074
809.612	0.0166029
809.690	0.0165558
809.768	0.0165790
809.846	0.0165923
809.924	0.0167014
810.003	0.0167810
810.081	0.0167711
810.159	0.0168117
810.237	0.0168340
810.315	0.0167614
810.393	0.0167812
810.471	0.0167163
810.549	0.0167357
810.628	0.0167481
810.706	0.0166438
810.784	0.0167663
810.862	0.0165885
810.940	0.0165966
811.018	0.0166652
811.096	0.0167371
811.174	0.0165559
811.253	0.0165459
811.331	0.0163554
811.409	0.0165148
811.487	0.0165920
811.565	0.0164394
811.643	0.0163609
811.721	0.0165320
811.799	0.0163525
811.878	0.0163513
811.956	0.0162916
812.034	0.0161960
812.112	0.0164760
812.190	0.0165040
812.268	0.0164324
812.346	0.0165248
812.424	0.0163326
812.503	0.0163461
812.581	0.0163332
812.659	0.0165551
812.737	0.0164255
812.815	0.0164977
812.893	0.0164177
812.971	0.0163550
813.049	0.0163369
813.128	0.0163770
813.206	0.0163384
813.284	0.0163299
813.362	0.0164559
813.440	0.0165567
813.518	0.0165813
813.596	0.0165359
813.674	0.0165041
813.753	0.0166705
813.831	0.0166060
813.909	0.0166962
813.987	0.0166315
814.065	0.0165992
814.143	0.0165721
814.221	0.0164959
814.299	0.0166846
814.378	0.0166444
814.456	0.0166091
814.534	0.0166720
814.612	0.0166328
814.690	0.0166010
814.768	0.0166850
814.846	0.0165985
814.924	0.0166664
815.003	0.0165220
815.081	0.0165160
815.159	0.0165481
815.237	0.0165106
815.315	0.0166519
815.393	0.0164397
815.471	0.0164034
815.549	0.0164730
815.628	0.0163528
815.706	0.0164524
815.784	0.0165195
815.862	0.0163819
815.940	0.0163979
816.018	0.0165054
816.096	0.0163882
816.174	0.0165253
816.253	0.0164180
816.331	0.0165688
816.409	0.0165463
816.487	0.0166454
816.565	0.0165879
816.643	0.0165389
816.721	0.0165768
816.799	0.0166363
816.878	0.0168500
816.956	0.0167424
817.034	0.0165858
817.112	0.0167165
817.190	0.0165351
817.268	0.0166824
817.346	0.0166710
817.424	0.0165858
817.503	0.0165107
817.581	0.0164970
817.659	0.0164648
817.737	0.0163456
817.815	0.0162386
817.893	0.0163973
817.971	0.0161587
818.049	0.0161269
818.128	0.0160928
818.206	0.0159704
818.284	0.0159080
818.362	0.0160210
818.440	0.0160403
818.518	0.0160587
818.596	0.0163033
818.674	0.0162544
818.753	0.0162617
818.831	0.0164252
818.909	0.0163062
818.987	0.0164767
819.065	0.0167278
819.143	0.0167188
819.221	0.0167482
819.299	0.0168218
819.378	0.0168903
819.456	0.0169261
819.534	0.0169788
819.612	0.0167758
819.690	0.0167888
819.768	0.0168867
819.846	0.0169200
819.924	0.0168015
820.003	0.0166983
820.081	0.0168472
820.159	0.0168323
820.237	0.0167844
820.315	0.0167899
820.393	0.0166104
820.471	0.0166544
820.549	0.0166729
820.628	0.0166054
820.706	0.0166285
820.784	0.0164367
820.862	0.0164645
820.940	0.0164688
821.018	0.0163689
821.096	0.0162942
821.174	0.0163107
821.253	0.0163937
821.331	0.0161153
821.409	0.0160339
821.487	0.0159979
821.565	0.0161031
821.643	0.0158591
821.721	0.0157751
821.799	0.0159396
821.878	0.0159196
821.956	0.0160059
822.034	0.0158585
822.112	0.0160085
822.190	0.0160262
822.268	0.0161885
822.346	0.0161798
822.424	0.0164255
822.503	0.0164432
822.581	0.0167290
822.659	0.0166901
822.737	0.0167944
822.815	0.0169335
822.893	0.0170248
822.971	0.0170017
823.049	0.0171564
823.128	0.0173293
823.206	0.0172791
823.284	0.0171776
823.362	0.0173643
823.440	0.0173266
823.518	0.0172190
823.596	0.0171768
823.674	0.0171910
823.753	0.0171955
823.831	0.0170947
823.909	0.0168867
823.987	0.0168527
824.065	0.0167986
824.143	0.0166547
824.221	0.0166133
824.299	0.0165794
824.378	0.0163515
824.456	0.0162325
824.534	0.0162775
824.612	0.0161990
824.690	0.0160876
824.768	0.0158652
824.846	0.0157534
824.924	0.0158325
825.003	0.0157286
825.081	0.0156767
825.159	0.0155904
825.237	0.0156331
825.315	0.0156965
825.393	0.0156727
825.471	0.0156799
825.549	0.0158833
825.628	0.0158987
825.706	0.0158549
825.784	0.0160815
825.862	0.0161144
825.940	0.0162609
826.018	0.0163753
826.096	0.0165099
826.174	0.0166287
826.253	0.0167058
826.331	0.0168365
826.409	0.0169195
826.487	0.0170175
826.565	0.0169949
826.643	0.0170563
826.721	0.0170988
826.799	0.0172475
826.878	0.0172833
826.956	0.0174356
827.034	0.0172382
827.112	0.0171962
827.190	0.0173860
827.268	0.0173451
827.346	0.0171771
827.424	0.0169984
827.503	0.0170144
827.581	0.0169695
827.659	0.0168973
827.737	0.0168274
827.815	0.0167578
827.893	0.0166758
827.971	0.0165253
828.049	0.0163804
828.128	0.0163538
828.206	0.0162801
828.284	0.0161754
828.362	0.0160947
828.440	0.0160312
828.518	0.0160700
828.596	0.0158582
828.674	0.0158611
828.753	0.0158430
828.831	0.0158379
828.909	0.0158219
828.987	0.0159784
829.065	0.0159104
829.143	0.0158179
829.221	0.0159502
829.299	0.0160255
829.378	0.0161241
829.456	0.0162408
829.534	0.0162163
829.612	0.0161688
829.690	0.0163740
829.768	0.0165549
829.846	0.0166319
829.924	0.0166279
830.003	0.0167708
830.081	0.0168233
830.159	0.0170109
830.237	0.0169055
830.315	0.0169937
830.393	0.0171610
830.471	0.0169815
830.549	0.0171505
830.628	0.0172655
830.706	0.0172121
830.784	0.0171300
830.862	0.0172868
830.940	0.0172668
831.018	0.0170996
831.096	0.0170710
831.174	0.0169521
831.253	0.0167566
831.331	0.0168657
831.409	0.0167891
831.487	0.0165887
831.565	0.0166273
831.643	0.0164722
831.721	0.0164194
831.799	0.0164470
831.878	0.0164429
831.956	0.0163844
832.034	0.0162504
832.112	0.0161745
832.190	0.0161396
832.268	0.0161557
832.346	0.0162687
832.424	0.0161062
832.503	0.0160623
832.581	0.0161012
832.659	0.0160468
832.737	0.0162093
832.815	0.0161124
832.893	0.0161459
832.971	0.0161059
833.049	0.0162039
833.128	0.0161912
833.206	0.0161732
833.284	0.0161588
833.362	0.0163307
833.440	0.0164379
833.518	0.0164834
833.596	0.0165173
833.674	0.0165311
833.753	0.0166117
833.831	0.0166928
833.909	0.0168227
833.987	0.0166431
834.065	0.0167590
834.143	0.0169320
834.221	0.0169673
834.299	0.0169669
834.378	0.0168941
834.456	0.0169691
834.534	0.0169661
834.612	0.0169124
834.690	0.0167850
834.768	0.0169924
834.846	0.0168691
834.924	0.0169312
835.003	0.0168639
835.081	0.0167245
835.159	0.0166843
835.237	0.0167936
835.315	0.0165936
835.393	0.0166572
835.471	0.0165431
835.549	0.0164653
835.628	0.0164728
835.706	0.0164659
835.784	0.0163577
835.862	0.0163957
835.940	0.0163885
836.018	0.0164269
836.096	0.0162294
836.174	0.0162227
836.253	0.0162292
836.331	0.0162677
836.409	0.0162601
836.487	0.0161987
836.565	0.0162461
836.643	0.0160806
836.721	0.0160806
836.799	0.0161533
836.878	0.0162106
836.956	0.0161662
837.034	0.0161858
837.112	0.0162844
837.190	0.0162193
837.268	0.0163791
837.346	0.0162209
837.424	0.0163839
837.503	0.0162648
837.581	0.0164207
837.659	0.0164545
837.737	0.0164579
837.815	0.0164325
837.893	0.0165133
837.971	0.0165375
838.049	0.0165115
838.128	0.0166728
838.206	0.0165520
838.284	0.0165306
838.362	0.0166521
838.440	0.0166270
838.518	0.0166296
838.596	0.0168764
838.674	0.0168604
838.753	0.0167549
838.831	0.0168846
838.909	0.0168351
838.987	0.0168376
839.065	0.0166529
839.143	0.0167844
839.221	0.0166982
839.299	0.0166560
839.378	0.0165385
839.456	0.0164536
839.534	0.0166000
839.612	0.0167432
839.690	0.0165008
839.768	0.0162823
839.846	0.0162737
839.924	0.0164155
840.003	0.0164259
840.081	0.0163982
840.159	0.0162202
840.237	0.0163563
840.315	0.0163843
840.393	0.0163687
840.471	0.0162775
840.549	0.0163808
840.628	0.0164616
840.706	0.0163354
840.784	0.0164591
840.862	0.0164500
840.940	0.0164584
841.018	0.0165871
841.096	0.0166647
841.174	0.0167907
841.253	0.0165964
841.331	0.0166673
841.409	0.0166981
841.487	0.0165926
841.565	0.0164941
841.643	0.0166413
841.721	0.0166689
841.799	0.0166616
841.878	0.0165585
841.956	0.0166825
842.034	0.0166399
842.112	0.0165579
842.190	0.0165608
842.268	0.0165116
842.346	0.0165829
842.424	0.0165694
842.503	0.0166564
842.581	0.0164935
842.659	0.0165690
842.737	0.0166230
842.815	0.0165310
842.893	0.0166010
842.971	0.0164620
843.049	0.0164983
843.128	0.0164198
843.206	0.0163493
843.284	0.0164640
843.362	0.0164722
843.440	0.0163737
843.518	0.0163900
843.596	0.0162994
843.674	0.0163290
843.753	0.0162810
843.831	0.0161938
843.909	0.0161420
843.987	0.0162864
844.065	0.0164237
844.143	0.0163781
844.221	0.0162996
844.299	0.0163605
844.378	0.0164065
844.456	0.0164358
844.534	0.0164797
844.612	0.0165508
844.690	0.0165562
844.768	0.0166495
844.846	0.0165884
844.924	0.0166187
845.003	0.0167670
845.081	0.0166006
845.159	0.0166341
845.237	0.0166595
845.315	0.0167062
845.393	0.0167963
845.471	0.0167346
845.549	0.0167436
845.628	0.0167406
845.706	0.0168951
845.784	0.0167743
845.862	0.0168497
845.940	0.0167318
846.018	0.0166935
846.096	0.0166860
846.174	0.0166644
846.253	0.0165056
846.331	0.0165799
846.409	0.0166669
846.487	0.0165355
846.565	0.0164423
846.643	0.0164767
846.721	0.0164517
846.799	0.0164688
846.878	0.0163145
846.956	0.0163046
847.034	0.0165479
847.112	0.0164383
847.190	0.0163026
847.268	0.0163253
847.346	0.0163473
847.424	0.0162943
847.503	0.0162350
847.581	0.0164137
847.659	0.0163446
847.737	0.0164011
847.815	0.0163479
847.893	0.0163308
847.971	0.0164011
848.049	0.0165524
848.128	0.0164944
848.206	0.0164613
848.284	0.0164917
848.362	0.0164863
848.440	0.0163465
848.518	0.0165895
848.596	0.0164577
848.674	0.0164233
848.753	0.0164700
848.831	0.0164903
848.909	0.0166209
848.987	0.0165736
849.065	0.0164794
849.143	0.0166693
849.221	0.0166704
849.299	0.0164973
849.378	0.0165897
849.456	0.0166818
849.534	0.0166427
849.612	0.0165586
849.690	0.0167712
849.768	0.0166905
849.846	0.0166316
849.924	0.0166615
850.003	0.0166964
850.081	0.0165812
850.159	0.0165386
850.237	0.0166727
850.315	0.0167973
850.393	0.0166113
850.471	0.0165485
850.549	0.0166551
850.628	0.0166676
850.706	0.0165587
850.784	0.0165992
850.862	0.0166419
850.940	0.0165050
851.018	0.0164683
851.096	0.0166192
851.174	0.0167152
851.253	0.0166016
851.331	0.0165839
851.409	0.0165681
851.487	0.0166573
851.565	0.0165740
851.643	0.0166845
851.721	0.0165900
851.799	0.0166455
851.878	0.0165230
851.956	0.0165392
852.034	0.0164770
852.112	0.0164438
852.190	0.0165989
852.268	0.0164718
852.346	0.0164354
852.424	0.0165080
852.503	0.0164467
852.581	0.0164998
852.659	0.0165507
852.737	0.0164371
852.815	0.0165075
852.893	0.0165574
852.971	0.0164526
853.049	0.0163709
853.128	0.0164290
853.206	0.0163599
853.284	0.0164041
853.362	0.0164083
853.440	0.0164330
853.518	0.0163856
853.596	0.0163351
853.674	0.0163914
853.753	0.0161907
853.831	0.0163900
853.909	0.0164645
853.987	0.0164872
854.065	0.0163574
854.143	0.0163155
854.221	0.0164378
854.299	0.0164955
854.378	0.0165877
854.456	0.0166022
854.534	0.0165279
854.612	0.0166013
854.690	0.0166924
854.768	0.0166300
854.846	0.0165430
854.924	0.0165954
855.003	0.0164767
855.081	0.0165775
855.159	0.0165642
855.237	0.0164632
855.315	0.0166377
855.393	0.0165398
855.471	0.0165736
855.549	0.0165744
855.628	0.0166245
855.706	0.0165940
855.784	0.0167310
855.862	0.0165958
855.940	0.0165913
856.018	0.0166761
856.096	0.0166074
856.174	0.0165942
856.253	0.0166009
856.331	0.0166579
856.409	0.0167185
856.487	0.0165911
856.565	0.0165195
856.643	0.0166175
856.721	0.0165813
856.799	0.0166217
856.878	0.0165719
856.956	0.0166834
857.034	0.0166912
857.112	0.0165671
857.190	0.0165049
857.268	0.0165925
857.346	0.0164214
857.424	0.0164969
857.503	0.0163950
857.581	0.0164883
857.659	0.0164219
857.737	0.0164128
857.815	0.0165051
857.893	0.0165440
857.971	0.0165591
858.049	0.0164530
858.128	0.0165264
858.206	0.0165860
858.284	0.0164697
858.362	0.0165867
858.440	0.0166829
858.518	0.0166582
858.596	0.0165604
858.674	0.0163696
858.753	0.0165676
858.831	0.0165096
858.909	0.0163259
858.987	0.0164121
859.065	0.0165288
859.143	0.0164199
859.221	0.0165874
859.299	0.0163744
859.378	0.0164272
859.456	0.0163875
859.534	0.0163239
859.612	0.0162019
859.690	0.0162208
859.768	0.0162664
859.846	0.0163483
859.924	0.0164078
860.003	0.0163006
860.081	0.0163713
860.159	0.0165627
860.237	0.0164003
860.315	0.0164996
860.393	0.0165096
860.471	0.0164638
860.549	0.0164035
860.628	0.0166290
860.706	0.0166495
860.784	0.0165632
860.862	0.0164264
860.940	0.0165688
861.018	0.0166065
861.096	0.0167046
861.174	0.0165663
861.253	0.0165433
861.331	0.0166376
861.409	0.0166414
861.487	0.0166330
861.565	0.0166045
861.643	0.0165957
861.721	0.0165298
861.799	0.0166205
861.878	0.0165942
861.956	0.0166241
862.034	0.0166035
862.112	0.0164899
862.190	0.0164893
862.268	0.0166476
862.346	0.0167727
862.424	0.0166785
862.503	0.0166350
862.581	0.0167329
862.659	0.0165701
862.737	0.0166015
862.815	0.0166585
862.893	0.0166254
862.971	0.0166533
863.049	0.0165858
863.128	0.0164101
863.206	0.0165221
863.284	0.0166447
863.362	0.0164721
863.440	0.0165241
863.518	0.0165053
863.596	0.0162897
863.674	0.0164353
863.753	0.0164828
863.831	0.0166058
863.909	0.0163428
863.987	0.0166789
864.065	0.0163708
864.143	0.0165636
864.221	0.0166058
864.299	0.0166071
864.378	0.0165833
864.456	0.0166325
864.534	0.0166927
864.612	0.0165092
864.690	0.0165041
864.768	0.0165397
864.846	0.0165590
864.924	0.0166206
865.003	0.0165302
865.081	0.0164477
865.159	0.0166016
865.237	0.0165258
865.315	0.0164948
865.393	0.0165355
865.471	0.0165840
865.549	0.0165103
865.628	0.0166054
865.706	0.0163991
865.784	0.0165181
865.862	0.0165221
865.940	0.0166042
866.018	0.0164694
866.096	0.0164098
866.174	0.0165611
866.253	0.0165494
866.331	0.0164317
866.409	0.0164489
866.487	0.0164783
866.565	0.0165077
866.643	0.0165385
866.721	0.0164768
866.799	0.0163488
866.878	0.0164354
866.956	0.0163629
867.034	0.0163940
867.112	0.0165074
867.190	0.0164236
867.268	0.0164911
867.346	0.0164493
867.424	0.0164635
867.503	0.0166725
867.581	0.0166261
867.659	0.0166402
867.737	0.0166164
867.815	0.0166841
867.893	0.0167163
867.971	0.0166547
868.049	0.0166679
868.128	0.0166057
868.206	0.0165402
868.284	0.0166517
868.362	0.0165965
868.440	0.0166329
868.518	0.0165316
868.596	0.0166055
868.674	0.0166337
868.753	0.0166040
868.831	0.0167205
868.909	0.0167889
868.987	0.0166315
869.065	0.0165252
869.143	0.0166574
869.221	0.0165791
869.299	0.0165923
869.378	0.0165327
869.456	0.0166430
869.534	0.0165322
869.612	0.0165622
869.690	0.0165813
869.768	0.0165416
869.846	0.0165718
869.924	0.0165202
870.003	0.0164573
870.081	0.0165218
870.159	0.0164964
870.237	0.0165958
870.315	0.0164738
870.393	0.0164888
870.471	0.0164413
870.549	0.0163996
870.628	0.0164679
870.706	0.0164349
870.784	0.0164512
870.862	0.0163787
870.940	0.0163809
871.018	0.0163494
871.096	0.0164686
871.174	0.0165507
871.253	0.0163449
871.331	0.0163550
871.409	0.0165459
871.487	0.0164526
871.565	0.0165668
871.643	0.0164624
871.721	0.0166039
871.799	0.0163674
871.878	0.0166158
871.956	0.0166112
872.034	0.0165689
872.112	0.0165952
872.190	0.0164749
872.268	0.0165885
872.346	0.0166094
872.424	0.0165845
872.503	0.0165572
872.581	0.0166267
872.659	0.0164632
872.737	0.0166132
872.815	0.0167307
872.893	0.0166251
872.971	0.0164579
873.049	0.0164560
873.128	0.0165988
873.206	0.0166298
873.284	0.0165670
873.362	0.0166445
873.440	0.0167099
873.518	0.0165102
873.596	0.0164877
873.674	0.0165472
873.753	0.0165942
873.831	0.0166219
873.909	0.0165122
873.987	0.0166986
874.065	0.0165686
874.143	0.0165376
874.221	0.0165735
874.299	0.0166306
874.378	0.0165588
874.456	0.0166657
874.534	0.0165445
874.612	0.0165338
874.690	0.0165087
874.768	0.0165514
874.846	0.0167146
874.924	0.0165920
875.003	0.0166166
875.081	0.0164489
875.159	0.0165730
875.237	0.0164670
875.315	0.0165578
875.393	0.0166059
875.471	0.0166620
875.549	0.0165591
875.628	0.0164854
875.706	0.0165924
875.784	0.0165772
875.862	0.0165546
875.940	0.0165168
876.018	0.0165598
876.096	0.0165966
876.174	0.0165266
876.253	0.0164844
876.331	0.0165070
876.409	0.0164688
876.487	0.0164231
876.565	0.0163712
876.643	0.0165472
876.721	0.0165731
876.799	0.0166081
876.878	0.0165515
876.956	0.0164953
877.034	0.0166007
877.112	0.0164790
877.190	0.0164436
877.268	0.0164326
877.346	0.0165618
877.424	0.0164980
877.503	0.0164561
877.581	0.0165775
877.659	0.0164592
877.737	0.0164787
877.815	0.0164693
877.893	0.0164649
877.971	0.0163770
878.049	0.0163788
878.128	0.0164373
878.206	0.0164829
878.284	0.0164637
878.362	0.0163879
878.440	0.0164492
878.518	0.0165780
878.596	0.0164518
878.674	0.0162968
878.753	0.0164414
878.831	0.0163869
878.909	0.0163736
878.987	0.0164252
879.065	0.0164635
879.143	0.0164527
879.221	0.0163482
879.299	0.0164550
879.378	0.0163734
879.456	0.0165109
879.534	0.0165868
879.612	0.0163836
879.690	0.0166077
879.768	0.0167393
879.846	0.0166170
879.924	0.0164846
880.003	0.0166819
880.081	0.0167088
880.159	0.0166148
880.237	0.0165829
880.315	0.0166276
880.393	0.0166920
880.471	0.0167482
880.549	0.0167494
880.628	0.0164877
880.706	0.0165191
880.784	0.0166551
880.862	0.0166264
880.940	0.0165755
881.018	0.0166948
881.096	0.0166786
881.174	0.0167130
881.253	0.0166910
881.331	0.0164855
881.409	0.0167013
881.487	0.0166630
881.565	0.0166393
881.643	0.0165723
881.721	0.0164476
881.799	0.0165284
881.878	0.0165218
881.956	0.0164371
882.034	0.0164643
882.112	0.0164787
882.190	0.0165248
882.268	0.0165659
882.346	0.0164334
882.424	0.0164199
882.503	0.0164993
882.581	0.0165407
882.659	0.0163962
882.737	0.0163700
882.815	0.0165557
882.893	0.0166174
882.971	0.0165483
883.049	0.0165689
883.128	0.0165079
883.206	0.0165501
883.284	0.0163980
883.362	0.0166611
883.440	0.0166148
883.518	0.0166240
883.596	0.0166710
883.674	0.0166315
883.753	0.0163997
883.831	0.0164596
883.909	0.0165862
883.987	0.0164526
884.065	0.0164153
884.143	0.0165063
884.221	0.0164084
884.299	0.0163791
884.378	0.0164250
884.456	0.0163859
884.534	0.0164121
884.612	0.0164378
884.690	0.0163747
884.768	0.0164618
884.846	0.0164587
884.924	0.0164554
885.003	0.0165228
885.081	0.0164615
885.159	0.0164931
885.237	0.0164149
885.315	0.0164951
885.393	0.0167338
885.471	0.0164907
885.549	0.0164238
885.628	0.0164356
885.706	0.0165166
885.784	0.0166351
885.862	0.0166524
885.940	0.0165261
886.018	0.0166167
886.096	0.0165592
886.174	0.0166046
886.253	0.0166577
886.331	0.0165495
886.409	0.0167657
886.487	0.0165843
886.565	0.0165174
886.643	0.0167580
886.721	0.0166624
886.799	0.0166335
886.878	0.0167316
886.956	0.0167358
887.034	0.0166795
887.112	0.0166988
887.190	0.0166441
887.268	0.0166637
887.346	0.0165510
887.424	0.0166383
887.503	0.0167244
887.581	0.0164590
887.659	0.0164798
887.737	0.0163997
887.815	0.0165154
887.893	0.0165333
887.971	0.0164013
888.049	0.0164703
888.128	0.0163580
888.206	0.0163974
888.284	0.0162865
888.362	0.0162966
888.440	0.0163942
888.518	0.0162585
888.596	0.0163803
888.674	0.0165003
888.753	0.0164566
888.831	0.0163972
888.909	0.0163882
888.987	0.0164645
889.065	0.0163583
889.143	0.0164542
889.221	0.0162938
889.299	0.0164013
889.378	0.0164317
889.456	0.0163573
889.534	0.0163988
889.612	0.0163904
889.690	0.0165173
889.768	0.0162750
889.846	0.0165253
889.924	0.0165197
890.003	0.0164915
890.081	0.0164486
890.159	0.0165911
890.237	0.0165646
890.315	0.0165962
890.393	0.0165466
890.471	0.0165651
890.549	0.0165839
890.628	0.0165718
890.706	0.0166813
890.784	0.0165038
890.862	0.0165511
890.940	0.0166281
891.018	0.0164902
891.096	0.0165321
891.174	0.0166959
891.253	0.0164768
891.331	0.0163864
891.409	0.0164986
891.487	0.0164542
891.565	0.0166109
891.643	0.0165821
891.721	0.0164907
891.799	0.0165428
891.878	0.0163437
891.956	0.0165160
892.034	0.0165717
892.112	0.0164412
892.190	0.0163849
892.268	0.0163436
892.346	0.0164837
892.424	0.0165991
892.503	0.0165010
892.581	0.0163635
892.659	0.0163506
892.737	0.0164651
892.815	0.0166311
892.893	0.0164995
892.971	0.0164296
893.049	0.0164659
893.128	0.0166093
893.206	0.0164268
893.284	0.0165233
893.362	0.0164447
893.440	0.0166202
893.518	0.0165071
893.596	0.0165144
893.674	0.0164799
893.753	0.0165170
893.831	0.0164137
893.909	0.0164127
893.987	0.0165768
894.065	0.0165238
894.143	0.0164510
894.221	0.0164382
894.299	0.0164028
894.378	0.0164857
894.456	0.0165250
894.534	0.0165271
894.612	0.0164758
894.690	0.0163096
894.768	0.0162626
894.846	0.0164413
894.924	0.0164556
895.003	0.0163107
895.081	0.0164365
895.159	0.0163676
895.237	0.0162171
895.315	0.0164725
895.393	0.0165211
895.471	0.0163652
895.549	0.0162888
895.628	0.0163613
895.706	0.0165363
895.784	0.0164444
895.862	0.0163590
895.940	0.0165033
896.018	0.0163671
896.096	0.0163470
896.174	0.0164802
896.253	0.0165749
896.331	0.0164346
896.409	0.0165919
896.487	0.0163698
896.565	0.0164254
896.643	0.0165582
896.721	0.0164577
896.799	0.0165895
896.878	0.0168099
896.956	0.0163647
897.034	0.0164735
897.112	0.0166986
897.190	0.0166881
897.268	0.0166918
897.346	0.0166727
897.424	0.0166003
897.503	0.0167136
897.581	0.0166685
897.659	0.0166846
897.737	0.0165407
897.815	0.0165533
897.893	0.0165707
897.971	0.0166676
898.049	0.0166527
898.128	0.0165099
898.206	0.0165560
898.284	0.0166305
898.362	0.0164619
898.440	0.0164179
898.518	0.0164523
898.596	0.0164270
898.674	0.0165158
898.753	0.0163643
898.831	0.0163712
898.909	0.0163605
898.987	0.0163416
899.065	0.0162085
899.143	0.0163727
899.221	0.0162875
899.299	0.0164551
899.378	0.0165296
899.456	0.0163866
899.534	0.0163273
899.612	0.0164489
899.690	0.0164375
899.768	0.0164048
899.846	0.0163742
899.924	0.0165311
900.003	0.0165025
900.081	0.0163686
900.159	0.0164972
900.237	0.0164919
900.315	0.0165793
900.393	0.0164761
900.471	0.0164008
900.549	0.0165563
900.628	0.0166039
900.706	0.0166041
900.784	0.0164450
900.862	0.0164754
900.940	0.0165923
901.018	0.0165508
901.096	0.0166307
901.174	0.0165837
901.253	0.0165956
901.331	0.0165641
901.409	0.0164371
901.487	0.0165534
901.565	0.0164693
901.643	0.0164657
901.721	0.0164507
901.799	0.0164723
901.878	0.0164302
901.956	0.0163643
902.034	0.0163988
902.112	0.0162964
902.190	0.0164172
902.268	0.0163799
902.346	0.0163387
902.424	0.0163457
902.503	0.0164159
902.581	0.0162061
902.659	0.0163332
902.737	0.0162679
902.815	0.0164673
902.893	0.0163538
902.971	0.0162852
903.049	0.0164762
903.128	0.0164026
903.206	0.0163617
903.284	0.0164072
903.362	0.0165167
903.440	0.0163473
903.518	0.0162556
903.596	0.0164417
903.674	0.0164884
903.753	0.0164779
903.831	0.0163615
903.909	0.0165302
903.987	0.0166058
904.065	0.0165018
904.143	0.0165909
904.221	0.0164651
904.299	0.0166039
904.378	0.0165547
904.456	0.0166402
904.534	0.0166276
904.612	0.0166171
904.690	0.0165031
904.768	0.0166043
904.846	0.0165421
904.924	0.0164030
905.003	0.0167076
905.081	0.0165303
905.159	0.0163197
905.237	0.0165591
905.315	0.0165275
905.393	0.0163754
905.471	0.0164986
905.549	0.0164494
905.628	0.0163290
905.706	0.0163710
905.784	0.0164542
905.862	0.0164316
905.940	0.0164000
906.018	0.0165025
906.096	0.0166077
906.174	0.0164942
906.253	0.0164457
906.331	0.0165860
906.409	0.0165355
906.487	0.0164241
906.565	0.0165108
906.643	0.0165517
906.721	0.0163403
906.799	0.0164697
906.878	0.0164732
906.956	0.0164548
907.034	0.0164851
907.112	0.0164538
907.190	0.0163092
907.268	0.0164969
907.346	0.0165009
907.424	0.0165098
907.503	0.0163658
907.581	0.0164522
907.659	0.0164975
907.737	0.0164669
907.815	0.0164793
907.893	0.0165498
907.971	0.0164664
908.049	0.0165446
908.128	0.0164875
908.206	0.0165144
908.284	0.0165350
908.362	0.0164851
908.440	0.0164725
908.518	0.0164368
908.596	0.0164397
908.674	0.0166026
908.753	0.0163570
908.831	0.0164165
908.909	0.0163637
908.987	0.0165395
909.065	0.0166306
909.143	0.0164338
909.221	0.0165070
909.299	0.0165350
909.378	0.0164828
909.456	0.0165981
909.534	0.0165246
909.612	0.0166212
909.690	0.0166938
909.768	0.0165540
909.846	0.0165788
909.924	0.0165981
910.003	0.0165853
910.081	0.0165917
910.159	0.0164845
910.237	0.0165308
910.315	0.0163920
910.393	0.0164268
910.471	0.0165189
910.549	0.0163480
910.628	0.0165304
910.706	0.0165828
910.784	0.0163460
910.862	0.0164186
910.940	0.0165098
911.018	0.0164095
911.096	0.0164495
911.174	0.0166324
911.253	0.0163880
911.331	0.0164547
911.409	0.0164639
911.487	0.0164565
911.565	0.0165974
911.643	0.0164896
911.721	0.0163618
911.799	0.0163678
911.878	0.0165380
911.956	0.0162973
912.034	0.0163336
912.112	0.0165034
912.190	0.0164823
912.268	0.0164467
912.346	0.0163370
912.424	0.0163969
912.503	0.0165088
912.581	0.0164943
912.659	0.0164781
912.737	0.0165874
912.815	0.0164722
912.893	0.0163517
912.971	0.0164686
913.049	0.0165403
913.128	0.0164514
913.206	0.0165055
913.284	0.0166161
913.362	0.0166243
913.440	0.0165542
913.518	0.0165023
913.596	0.0164883
913.674	0.0165910
913.753	0.0165494
913.831	0.0165672
913.909	0.0165627
913.987	0.0166252
914.065	0.0166917
914.143	0.0166299
914.221	0.0165538
914.299	0.0165260
914.378	0.0168041
914.456	0.0167915
914.534	0.0167620
914.612	0.0167317
914.690	0.0166340
914.768	0.0165336
914.846	0.0166074
914.924	0.0165873
915.003	0.0165009
915.081	0.0164042
915.159	0.0163949
915.237	0.0163512
915.315	0.0162676
915.393	0.0161626
915.471	0.0162856
915.549	0.0162248
915.628	0.0162302
915.706	0.0162176
915.784	0.0161166
915.862	0.0162434
915.940	0.0162504
916.018	0.0162611
916.096	0.0162680
916.174	0.0162846
916.253	0.0163586
916.331	0.0163364
916.409	0.0162427
916.487	0.0165007
916.565	0.0164575
916.643	0.0165284
916.721	0.0165398
916.799	0.0164478
916.878	0.0163603
916.956	0.0166244
917.034	0.0165202
917.112	0.0166239
917.190	0.0165760
917.268	0.0166766
917.346	0.0169366
917.424	0.0168675
917.503	0.0168061
917.581	0.0168511
917.659	0.0169750
917.737	0.0169630
917.815	0.0168456
917.893	0.0168457
917.971	0.0168204
918.049	0.0167681
918.128	0.0166933
918.206	0.0166531
918.284	0.0165981
918.362	0.0164027
918.440	0.0163836
918.518	0.0161565
918.596	0.0161492
918.674	0.0163013
918.753	0.0161456
918.831	0.0160379
918.909	0.0161720
918.987	0.0160965
919.065	0.0160646
919.143	0.0160370
919.221	0.0159784
919.299	0.0160822
919.378	0.0160616
919.456	0.0162263
919.534	0.0162006
919.612	0.0161665
919.690	0.0162292
919.768	0.0163016
919.846	0.0161797
919.924	0.0162840
920.003	0.0163519
920.081	0.0163963
920.159	0.0165116
920.237	0.0165891
920.315	0.0166158
920.393	0.0166131
920.471	0.0167123
920.549	0.0166738
920.628	0.0168234
920.706	0.0168841
920.784	0.0168240
920.862	0.0168529
920.940	0.0168488
921.018	0.0168626
921.096	0.0168948
921.174	0.0169013
921.253	0.0168380
921.331	0.0168575
921.409	0.0167358
921.487	0.0168584
921.565	0.0167872
921.643	0.0166309
921.721	0.0166580
921.799	0.0168352
921.878	0.0167165
921.956	0.0165910
922.034	0.0165693
922.112	0.0164886
922.190	0.0164313
922.268	0.0163972
922.346	0.0162941
922.424	0.0161734
922.503	0.0161638
922.581	0.0161333
922.659	0.0162122
922.737	0.0159846
922.815	0.0160276
922.893	0.0160140
922.971	0.0160149
923.049	0.0159894
923.128	0.0160374
923.206	0.0161690
923.284	0.0163084
923.362	0.0164462
923.440	0.0164017
923.518	0.0164182
923.596	0.0165818
923.674	0.0165441
923.753	0.0165528
923.831	0.0166154
923.909	0.0166501
923.987	0.0166302
924.065	0.0167728
924.143	0.0167381
924.221	0.0166354
924.299	0.0166863
924.378	0.0167485
924.456	0.0167352
924.534	0.0165735
924.612	0.0165276
924.690	0.0166132
924.768	0.0165584
924.846	0.0165510
924.924	0.0166487
925.003	0.0165105
925.081	0.0166398
925.159	0.0166711
925.237	0.0165960
925.315	0.0167599
925.393	0.0167455
925.471	0.0166421
925.549	0.0167211
925.628	0.0167780
925.706	0.0166719
925.784	0.0166286
925.862	0.0167348
925.940	0.0165885
926.018	0.0165633
926.096	0.0165543
926.174	0.0164540
926.253	0.0164646
926.331	0.0163254
926.409	0.0163005
926.487	0.0160806
926.565	0.0161554
926.643	0.0161722
926.721	0.0161082
926.799	0.0160065
926.878	0.0160330
926.956	0.0160408
927.034	0.0161521
927.112	0.0161984
927.190	0.0160896
927.268	0.0163585
927.346	0.0163367
927.424	0.0165253
927.503	0.0165330
927.581	0.0166276
927.659	0.0165749
927.737	0.0167021
927.815	0.0167547
927.893	0.0165953
927.971	0.0165520
928.049	0.0165385
928.128	0.0166882
928.206	0.0167071
928.284	0.0164577
928.362	0.0164919
928.440	0.0164958
928.518	0.0165314
928.596	0.0165548
928.674	0.0165532
928.753	0.0165272
928.831	0.0166350
928.909	0.0167224
928.987	0.0165983
929.065	0.0167183
929.143	0.0168011
929.221	0.0166463
929.299	0.0168117
929.378	0.0167374
929.456	0.0167272
929.534	0.0166937
929.612	0.0167516
929.690	0.0165712
929.768	0.0166212
929.846	0.0165942
929.924	0.0164935
930.003	0.0164363
930.081	0.0162988
930.159	0.0161705
930.237	0.0161894
930.315	0.0162397
930.393	0.0161988
930.471	0.0162892
930.549	0.0162095
930.628	0.0161810
930.706	0.0163432
930.784	0.0162562
930.862	0.0164031
930.940	0.0164568
931.018	0.0163933
931.096	0.0163178
931.174	0.0162907
931.253	0.0164292
931.331	0.0163821
931.409	0.0166323
931.487	0.0164998
931.565	0.0164748
931.643	0.0165729
931.721	0.0165298
931.799	0.0164401
931.878	0.0166266
931.956	0.0165363
932.034	0.0164088
932.112	0.0164877
932.190	0.0164983
932.268	0.0166310
932.346	0.0165475
932.424	0.0164508
932.503	0.0165191
932.581	0.0165945
932.659	0.0165684
932.737	0.0165105
932.815	0.0164629
932.893	0.0164127
932.971	0.0166056
933.049	0.0163190
933.128	0.0166457
933.206	0.0165079
933.284	0.0163187
933.362	0.0164248
933.440	0.0163927
933.518	0.0164397
933.596	0.0165070
933.674	0.0166243
933.753	0.0164753
933.831	0.0165595
933.909	0.0164847
933.987	0.0165524
934.065	0.0164951
934.143	0.0165361
934.221	0.0165244
934.299	0.0165783
934.378	0.0164140
934.456	0.0164585
934.534	0.0164527
934.612	0.0164242
934.690	0.0165015
934.768	0.0165231
934.846	0.0164085
934.924	0.0165067
935.003	0.0165786
935.081	0.0165000
935.159	0.0164659
935.237	0.0164080
935.315	0.0164398
935.393	0.0165580
935.471	0.0164276
935.549	0.0165198
935.628	0.0165069
935.706	0.0165545
935.784	0.0165114
935.862	0.0165158
935.940	0.0164600
936.018	0.0164237
936.096	0.0165202
936.174	0.0166724
936.253	0.0164583
936.331	0.0165018
936.409	0.0164199
936.487	0.0166062
936.565	0.0164268
936.643	0.0163194
936.721	0.0164722
936.799	0.0163457
936.878	0.0164330
936.956	0.0162935
937.034	0.0163921
937.112	0.0162171
937.190	0.0162389
937.268	0.0162679
937.346	0.0163482
937.424	0.0162674
937.503	0.0164443
937.581	0.0164368
937.659	0.0164955
937.737	0.0163782
937.815	0.0165013
937.893	0.0165578
937.971	0.0166019
938.049	0.0166946
938.128	0.0165474
938.206	0.0165552
938.284	0.0164761
938.362	0.0166652
938.440	0.0166243
938.518	0.0165536
938.596	0.0165272
938.674	0.0165765
938.753	0.0166299
938.831	0.0166243
938.909	0.0166176
938.987	0.0164790
939.065	0.0165504
939.143	0.0163496
939.221	0.0165258
939.299	0.0164309
939.378	0.0164174
939.456	0.0165570
939.534	0.0163831
939.612	0.0164182
939.690	0.0163673
939.768	0.0162668
939.846	0.0164522
939.924	0.0164415
940.003	0.0164087
940.081	0.0165009
940.159	0.0165609
940.237	0.0164783
940.315	0.0165536
940.393	0.0165038
940.471	0.0164155
940.549	0.0164759
940.628	0.0165745
940.706	0.0164229
940.784	0.0165099
940.862	0.0164665
940.940	0.0164062
941.018	0.0164649
941.096	0.0163374
941.174	0.0164833
941.253	0.0164514
941.331	0.0165512
941.409	0.0165182
941.487	0.0163886
941.565	0.0165436
941.643	0.0165350
941.721	0.0164495
941.799	0.0166644
941.878	0.0166428
941.956	0.0164818
942.034	0.0165058
942.112	0.0166763
942.190	0.0165363
942.268	0.0165918
942.346	0.0166096
942.424	0.0166412
942.503	0.0166659
942.581	0.0166351
942.659	0.0165263
942.737	0.0165450
942.815	0.0165735
942.893	0.0164430
942.971	0.0164894
943.049	0.0165142
943.128	0.0164617
943.206	0.0164303
943.284	0.0164085
943.362	0.0163060
943.440	0.0164288
943.518	0.0164727
943.596	0.0162967
943.674	0.0164846
943.753	0.0164301
943.831	0.0163113
943.909	0.0163976
943.987	0.0163869
944.065	0.0164622
944.143	0.0164615
944.221	0.0164841
944.299	0.0165338
944.378	0.0165476
944.456	0.0164922
944.534	0.0165934
944.612	0.0165409
944.690	0.0164963
944.768	0.0165086
944.846	0.0166011
944.924	0.0165392
945.003	0.0164281
945.081	0.0164541
945.159	0.0164286
945.237	0.0163722
945.315	0.0165168
945.393	0.0165903
945.471	0.0164828
945.549	0.0165630
945.628	0.0166013
945.706	0.0165647
945.784	0.0166103
945.862	0.0165624
945.940	0.0165656
946.018	0.0165916
946.096	0.0167093
946.174	0.0167706
946.253	0.0167578
946.331	0.0168382
946.409	0.0166859
946.487	0.0166640
946.565	0.0166839
946.643	0.0165497
946.721	0.0165052
946.799	0.0166878
946.878	0.0165584
946.956	0.0165632
947.034	0.0165026
947.112	0.0164192
947.190	0.0164086
947.268	0.0164445
947.346	0.0165007
947.424	0.0164558
947.503	0.0164517
947.581	0.0164205
947.659	0.0164469
947.737	0.0164632
947.815	0.0165466
947.893	0.0163833
947.971	0.0164024
948.049	0.0163986
948.128	0.0165498
948.206	0.0165977
948.284	0.0166014
948.362	0.0165749
948.440	0.0165336
948.518	0.0164705
948.596	0.0166241
948.674	0.0166006
948.753	0.0165325
948.831	0.0164259
948.909	0.0165272
948.987	0.0164887
949.065	0.0164239
949.143	0.0164515
949.221	0.0164976
949.299	0.0163828
949.378	0.0165774
949.456	0.0165125
949.534	0.0165575
949.612	0.0165079
949.690	0.0164714
949.768	0.0165881
949.846	0.0164319
949.924	0.0164554
