06/29/2022	22:51:45	Ver.	4.1	UNKNOWN
Optical Delay	630.002507	Delta X		0.078125	Sweeps	1	Scan Rate	0/0
Coordinates	Axis 1	NaN	Axis 2	NaN	Axis 3	NaN	Axis 4	NaN	Axis 5	NaN	Axis 6	0.000000
TX Power	0.000000	RX Power	0.000000

630.003	0.0159426
630.081	0.0160101
630.159	0.0160946
630.237	0.0158701
630.315	0.0158101
630.393	0.0159393
630.471	0.0159875
630.549	0.0158470
630.628	0.0159409
630.706	0.0159349
630.784	0.0159742
630.862	0.0159901
630.940	0.0159708
631.018	0.0160120
631.096	0.0159419
631.174	0.0160271
631.253	0.0158936
631.331	0.0157050
631.409	0.0158738
631.487	0.0160397
631.565	0.0160007
631.643	0.0158852
631.721	0.0159782
631.799	0.0159959
631.878	0.0159993
631.956	0.0159455
632.034	0.0160583
632.112	0.0161119
632.190	0.0158628
632.268	0.0159152
632.346	0.0159857
632.424	0.0159947
632.503	0.0159059
632.581	0.0158886
632.659	0.0160208
632.737	0.0159565
632.815	0.0159775
632.893	0.0159396
632.971	0.0158337
633.049	0.0160223
633.128	0.0158772
633.206	0.0159461
633.284	0.0159799
633.362	0.0159254
633.440	0.0158608
633.518	0.0159475
633.596	0.0159312
633.674	0.0159615
633.753	0.0159016
633.831	0.0159271
633.909	0.0158183
633.987	0.0159296
634.065	0.0159682
634.143	0.0159446
634.221	0.0158999
634.299	0.0160017
634.378	0.0158846
634.456	0.0161362
634.534	0.0160125
634.612	0.0157652
634.690	0.0160207
634.768	0.0159578
634.846	0.0158936
634.924	0.0159071
635.003	0.0159134
635.081	0.0159019
635.159	0.0160098
635.237	0.0159566
635.315	0.0160738
635.393	0.0159288
635.471	0.0158772
635.549	0.0160329
635.628	0.0159933
635.706	0.0158701
635.784	0.0159690
635.862	0.0159358
635.940	0.0159205
636.018	0.0160207
636.096	0.0160233
636.174	0.0158120
636.253	0.0159662
636.331	0.0160075
636.409	0.0159828
636.487	0.0159550
636.565	0.0160851
636.643	0.0160267
636.721	0.0160493
636.799	0.0160398
636.878	0.0160167
636.956	0.0160209
637.034	0.0158989
637.112	0.0158585
637.190	0.0158057
637.268	0.0159725
637.346	0.0159004
637.424	0.0158842
637.503	0.0158797
637.581	0.0159536
637.659	0.0158473
637.737	0.0159652
637.815	0.0159141
637.893	0.0160772
637.971	0.0159132
638.049	0.0159472
638.128	0.0159573
638.206	0.0160572
638.284	0.0158688
638.362	0.0159462
638.440	0.0158699
638.518	0.0159706
638.596	0.0158308
638.674	0.0159503
638.753	0.0159556
638.831	0.0158865
638.909	0.0160021
638.987	0.0160270
639.065	0.0157815
639.143	0.0159028
639.221	0.0158823
639.299	0.0159367
639.378	0.0157995
639.456	0.0158932
639.534	0.0160098
639.612	0.0160005
639.690	0.0158642
639.768	0.0159276
639.846	0.0158745
639.924	0.0160046
640.003	0.0159177
640.081	0.0160020
640.159	0.0159415
640.237	0.0159117
640.315	0.0158555
640.393	0.0159670
640.471	0.0159581
640.549	0.0158739
640.628	0.0160195
640.706	0.0159649
640.784	0.0159322
640.862	0.0158950
640.940	0.0158177
641.018	0.0159608
641.096	0.0158715
641.174	0.0157851
641.253	0.0159619
641.331	0.0159055
641.409	0.0158978
641.487	0.0157734
641.565	0.0159934
641.643	0.0160000
641.721	0.0160065
641.799	0.0159380
641.878	0.0158750
641.956	0.0159490
642.034	0.0159806
642.112	0.0158889
642.190	0.0159502
642.268	0.0160365
642.346	0.0159566
642.424	0.0159535
642.503	0.0159941
642.581	0.0158910
642.659	0.0158356
642.737	0.0159868
642.815	0.0159820
642.893	0.0159859
642.971	0.0160732
643.049	0.0159492
643.128	0.0159411
643.206	0.0159873
643.284	0.0159843
643.362	0.0159224
643.440	0.0160924
643.518	0.0158285
643.596	0.0158294
643.674	0.0160245
643.753	0.0161614
643.831	0.0159719
643.909	0.0161634
643.987	0.0159558
644.065	0.0158762
644.143	0.0159508
644.221	0.0160349
644.299	0.0159509
644.378	0.0159492
644.456	0.0160850
644.534	0.0158001
644.612	0.0159132
644.690	0.0159618
644.768	0.0161217
644.846	0.0159910
644.924	0.0158474
645.003	0.0159421
645.081	0.0160046
645.159	0.0157361
645.237	0.0159656
645.315	0.0159835
645.393	0.0160152
645.471	0.0160303
645.549	0.0158871
645.628	0.0158206
645.706	0.0159918
645.784	0.0160497
645.862	0.0159912
645.940	0.0159736
646.018	0.0158989
646.096	0.0158167
646.174	0.0159457
646.253	0.0160219
646.331	0.0160275
646.409	0.0160344
646.487	0.0159656
646.565	0.0159577
646.643	0.0162065
646.721	0.0159854
646.799	0.0159882
646.878	0.0160010
646.956	0.0158302
647.034	0.0159657
647.112	0.0160734
647.190	0.0159937
647.268	0.0159237
647.346	0.0160699
647.424	0.0159550
647.503	0.0158827
647.581	0.0159805
647.659	0.0158646
647.737	0.0158949
647.815	0.0159182
647.893	0.0160350
647.971	0.0159445
648.049	0.0159555
648.128	0.0159055
648.206	0.0159689
648.284	0.0160562
648.362	0.0159776
648.440	0.0160162
648.518	0.0159440
648.596	0.0159456
648.674	0.0159550
648.753	0.0159684
648.831	0.0158477
648.909	0.0158794
648.987	0.0159339
649.065	0.0159717
649.143	0.0159022
649.221	0.0159685
649.299	0.0160343
649.378	0.0158655
649.456	0.0159914
649.534	0.0159376
649.612	0.0159046
649.690	0.0159405
649.768	0.0159496
649.846	0.0158779
649.924	0.0159438
650.003	0.0160953
650.081	0.0159412
650.159	0.0158936
650.237	0.0158962
650.315	0.0158025
650.393	0.0158392
650.471	0.0159751
650.549	0.0159468
650.628	0.0160701
650.706	0.0159438
650.784	0.0160221
650.862	0.0159435
650.940	0.0160210
651.018	0.0159338
651.096	0.0160037
651.174	0.0159743
651.253	0.0159741
651.331	0.0159428
651.409	0.0158598
651.487	0.0158622
651.565	0.0159302
651.643	0.0159682
651.721	0.0158629
651.799	0.0158494
651.878	0.0160651
651.956	0.0159135
652.034	0.0160099
652.112	0.0159840
652.190	0.0158641
652.268	0.0159387
652.346	0.0159154
652.424	0.0159529
652.503	0.0159165
652.581	0.0159222
652.659	0.0160081
652.737	0.0159338
652.815	0.0159184
652.893	0.0160629
652.971	0.0158543
653.049	0.0158382
653.128	0.0159771
653.206	0.0159918
653.284	0.0158739
653.362	0.0159917
653.440	0.0159281
653.518	0.0158654
653.596	0.0158904
653.674	0.0158705
653.753	0.0160165
653.831	0.0160551
653.909	0.0158350
653.987	0.0158608
654.065	0.0158743
654.143	0.0159466
654.221	0.0159544
654.299	0.0159580
654.378	0.0158345
654.456	0.0160252
654.534	0.0159698
654.612	0.0159779
654.690	0.0159075
654.768	0.0159315
654.846	0.0160152
654.924	0.0158954
655.003	0.0159441
655.081	0.0160024
655.159	0.0160425
655.237	0.0160474
655.315	0.0158628
655.393	0.0159201
655.471	0.0159255
655.549	0.0159519
655.628	0.0159258
655.706	0.0158901
655.784	0.0160091
655.862	0.0158340
655.940	0.0159260
656.018	0.0159727
656.096	0.0159312
656.174	0.0158187
656.253	0.0159654
656.331	0.0159976
656.409	0.0159714
656.487	0.0159020
656.565	0.0159376
656.643	0.0160324
656.721	0.0159467
656.799	0.0158984
656.878	0.0159212
656.956	0.0159306
657.034	0.0159311
657.112	0.0159586
657.190	0.0157915
657.268	0.0159890
657.346	0.0159082
657.424	0.0158702
657.503	0.0160147
657.581	0.0158250
657.659	0.0157574
657.737	0.0159067
657.815	0.0159144
657.893	0.0158134
657.971	0.0159396
658.049	0.0158167
658.128	0.0158643
658.206	0.0160255
658.284	0.0159944
658.362	0.0158159
658.440	0.0159575
658.518	0.0160653
658.596	0.0158177
658.674	0.0160252
658.753	0.0160025
658.831	0.0159625
658.909	0.0159232
658.987	0.0161310
659.065	0.0160297
659.143	0.0157497
659.221	0.0160001
659.299	0.0159711
659.378	0.0158806
659.456	0.0158248
659.534	0.0158965
659.612	0.0159200
659.690	0.0160883
659.768	0.0159671
659.846	0.0159539
659.924	0.0159904
660.003	0.0159298
660.081	0.0158748
660.159	0.0160089
660.237	0.0160316
660.315	0.0159271
660.393	0.0159501
660.471	0.0160092
660.549	0.0161228
660.628	0.0159424
660.706	0.0160309
660.784	0.0160715
660.862	0.0158568
660.940	0.0159718
661.018	0.0159282
661.096	0.0159249
661.174	0.0159243
661.253	0.0159527
661.331	0.0160130
661.409	0.0159990
661.487	0.0159118
661.565	0.0161015
661.643	0.0159866
661.721	0.0158968
661.799	0.0159731
661.878	0.0159859
661.956	0.0158469
662.034	0.0158050
662.112	0.0161280
662.190	0.0159763
662.268	0.0158946
662.346	0.0159777
662.424	0.0159270
662.503	0.0159319
662.581	0.0159088
662.659	0.0158764
662.737	0.0160157
662.815	0.0159219
662.893	0.0159649
662.971	0.0160849
663.049	0.0159780
663.128	0.0161588
663.206	0.0160149
663.284	0.0159991
663.362	0.0160188
663.440	0.0160424
663.518	0.0160302
663.596	0.0158494
663.674	0.0159082
663.753	0.0159337
663.831	0.0159972
663.909	0.0158572
663.987	0.0159779
664.065	0.0159627
664.143	0.0159676
664.221	0.0159190
664.299	0.0159178
664.378	0.0160149
664.456	0.0159177
664.534	0.0159241
664.612	0.0159396
664.690	0.0158932
664.768	0.0159921
664.846	0.0159818
664.924	0.0160374
665.003	0.0159869
665.081	0.0160267
665.159	0.0160128
665.237	0.0160514
665.315	0.0160831
665.393	0.0159399
665.471	0.0159328
665.549	0.0159843
665.628	0.0160107
665.706	0.0159055
665.784	0.0159138
665.862	0.0160914
665.940	0.0158327
666.018	0.0160771
666.096	0.0160967
666.174	0.0159489
666.253	0.0159010
666.331	0.0159999
666.409	0.0160022
666.487	0.0159350
666.565	0.0160546
666.643	0.0158479
666.721	0.0159412
666.799	0.0158859
666.878	0.0159992
666.956	0.0161465
667.034	0.0158555
667.112	0.0160330
667.190	0.0160785
667.268	0.0158530
667.346	0.0158722
667.424	0.0161690
667.503	0.0159764
667.581	0.0158146
667.659	0.0160223
667.737	0.0158846
667.815	0.0159736
667.893	0.0158883
667.971	0.0159053
668.049	0.0160495
668.128	0.0159615
668.206	0.0160208
668.284	0.0159991
668.362	0.0159817
668.440	0.0159917
668.518	0.0159906
668.596	0.0159470
668.674	0.0159991
668.753	0.0158444
668.831	0.0158953
668.909	0.0159564
668.987	0.0159646
669.065	0.0158062
669.143	0.0160236
669.221	0.0160246
669.299	0.0159834
669.378	0.0159047
669.456	0.0157482
669.534	0.0160045
669.612	0.0160901
669.690	0.0159210
669.768	0.0159141
669.846	0.0159733
669.924	0.0160748
670.003	0.0159935
670.081	0.0157598
670.159	0.0159287
670.237	0.0160143
670.315	0.0159373
670.393	0.0159128
670.471	0.0158719
670.549	0.0159726
670.628	0.0159514
670.706	0.0161059
670.784	0.0159171
670.862	0.0160513
670.940	0.0160964
671.018	0.0159357
671.096	0.0159303
671.174	0.0160394
671.253	0.0160355
671.331	0.0158616
671.409	0.0160420
671.487	0.0160666
671.565	0.0160443
671.643	0.0159204
671.721	0.0159824
671.799	0.0160673
671.878	0.0159465
671.956	0.0160283
672.034	0.0158987
672.112	0.0159669
672.190	0.0160093
672.268	0.0160284
672.346	0.0159224
672.424	0.0158656
672.503	0.0158972
672.581	0.0160297
672.659	0.0159476
672.737	0.0159270
672.815	0.0158537
672.893	0.0160415
672.971	0.0159896
673.049	0.0158435
673.128	0.0159866
673.206	0.0159816
673.284	0.0160165
673.362	0.0159525
673.440	0.0159222
673.518	0.0159430
673.596	0.0159891
673.674	0.0158446
673.753	0.0158990
673.831	0.0159008
673.909	0.0159832
673.987	0.0158604
674.065	0.0159631
674.143	0.0160133
674.221	0.0159006
674.299	0.0159630
674.378	0.0159567
674.456	0.0158982
674.534	0.0158014
674.612	0.0159306
674.690	0.0159771
674.768	0.0159761
674.846	0.0160020
674.924	0.0159900
675.003	0.0159261
675.081	0.0160090
675.159	0.0160336
675.237	0.0159573
675.315	0.0158876
675.393	0.0159958
675.471	0.0158753
675.549	0.0160596
675.628	0.0160202
675.706	0.0158572
675.784	0.0160269
675.862	0.0161045
675.940	0.0159533
676.018	0.0158720
676.096	0.0160988
676.174	0.0161012
676.253	0.0159589
676.331	0.0159752
676.409	0.0160163
676.487	0.0161333
676.565	0.0160729
676.643	0.0160561
676.721	0.0160017
676.799	0.0159943
676.878	0.0160918
676.956	0.0158681
677.034	0.0159133
677.112	0.0160528
677.190	0.0159245
677.268	0.0158891
677.346	0.0159109
677.424	0.0160233
677.503	0.0159457
677.581	0.0159267
677.659	0.0160159
677.737	0.0158497
677.815	0.0158627
677.893	0.0159282
677.971	0.0159673
678.049	0.0159399
678.128	0.0159748
678.206	0.0159341
678.284	0.0160654
678.362	0.0159871
678.440	0.0159095
678.518	0.0159087
678.596	0.0159579
678.674	0.0159444
678.753	0.0159485
678.831	0.0159086
678.909	0.0159437
678.987	0.0160188
679.065	0.0159856
679.143	0.0158989
679.221	0.0159698
679.299	0.0159480
679.378	0.0159782
679.456	0.0158885
679.534	0.0159207
679.612	0.0159108
679.690	0.0160146
679.768	0.0159348
679.846	0.0158074
679.924	0.0159878
680.003	0.0160162
680.081	0.0160826
680.159	0.0159570
680.237	0.0159698
680.315	0.0158459
680.393	0.0159354
680.471	0.0159582
680.549	0.0160499
680.628	0.0160764
680.706	0.0160361
680.784	0.0159623
680.862	0.0158194
680.940	0.0158865
681.018	0.0160849
681.096	0.0159128
681.174	0.0159358
681.253	0.0160033
681.331	0.0160561
681.409	0.0159366
681.487	0.0158416
681.565	0.0160033
681.643	0.0159682
681.721	0.0159662
681.799	0.0158136
681.878	0.0159648
681.956	0.0159233
682.034	0.0159956
682.112	0.0159904
682.190	0.0159019
682.268	0.0158725
682.346	0.0160524
682.424	0.0160757
682.503	0.0159873
682.581	0.0159204
682.659	0.0158002
682.737	0.0158926
682.815	0.0159239
682.893	0.0160074
682.971	0.0159057
683.049	0.0158418
683.128	0.0159048
683.206	0.0158891
683.284	0.0159763
683.362	0.0158429
683.440	0.0158791
683.518	0.0159290
683.596	0.0158472
683.674	0.0159106
683.753	0.0158757
683.831	0.0159525
683.909	0.0157558
683.987	0.0159258
684.065	0.0159779
684.143	0.0158501
684.221	0.0158888
684.299	0.0159259
684.378	0.0160386
684.456	0.0159887
684.534	0.0158260
684.612	0.0158903
684.690	0.0159534
684.768	0.0158166
684.846	0.0158851
684.924	0.0158997
685.003	0.0159257
685.081	0.0160553
685.159	0.0159138
685.237	0.0159168
685.315	0.0160300
685.393	0.0159917
685.471	0.0159470
685.549	0.0159452
685.628	0.0159867
685.706	0.0158656
685.784	0.0160283
685.862	0.0159630
685.940	0.0159736
686.018	0.0158228
686.096	0.0159019
686.174	0.0159097
686.253	0.0158434
686.331	0.0159358
686.409	0.0159417
686.487	0.0160278
686.565	0.0159673
686.643	0.0159748
686.721	0.0159068
686.799	0.0158683
686.878	0.0159162
686.956	0.0158758
687.034	0.0159104
687.112	0.0159823
687.190	0.0158437
687.268	0.0160948
687.346	0.0159100
687.424	0.0158871
687.503	0.0158715
687.581	0.0160257
687.659	0.0159353
687.737	0.0159521
687.815	0.0159517
687.893	0.0159821
687.971	0.0159692
688.049	0.0159534
688.128	0.0158374
688.206	0.0157999
688.284	0.0159956
688.362	0.0159655
688.440	0.0160232
688.518	0.0160203
688.596	0.0159002
688.674	0.0157918
688.753	0.0159245
688.831	0.0159572
688.909	0.0159318
688.987	0.0158655
689.065	0.0158717
689.143	0.0157386
689.221	0.0158942
689.299	0.0160188
689.378	0.0158757
689.456	0.0158299
689.534	0.0160645
689.612	0.0159978
689.690	0.0159010
689.768	0.0157690
689.846	0.0159374
689.924	0.0160549
690.003	0.0159915
690.081	0.0159624
690.159	0.0158474
690.237	0.0159887
690.315	0.0158328
690.393	0.0158326
690.471	0.0159951
690.549	0.0159284
690.628	0.0158091
690.706	0.0159091
690.784	0.0159015
690.862	0.0158556
690.940	0.0159375
691.018	0.0159991
691.096	0.0160753
691.174	0.0159477
691.253	0.0160271
691.331	0.0159695
691.409	0.0159771
691.487	0.0159034
691.565	0.0159265
691.643	0.0158926
691.721	0.0160756
691.799	0.0160139
691.878	0.0159605
691.956	0.0159191
692.034	0.0160413
692.112	0.0160171
692.190	0.0160210
692.268	0.0159564
692.346	0.0160192
692.424	0.0160313
692.503	0.0158941
692.581	0.0159177
692.659	0.0158753
692.737	0.0159579
692.815	0.0159658
692.893	0.0159650
692.971	0.0159473
693.049	0.0159631
693.128	0.0159402
693.206	0.0159100
693.284	0.0158761
693.362	0.0159545
693.440	0.0159917
693.518	0.0160017
693.596	0.0160401
693.674	0.0158972
693.753	0.0158286
693.831	0.0158749
693.909	0.0158714
693.987	0.0158746
694.065	0.0159947
694.143	0.0160013
694.221	0.0158794
694.299	0.0159525
694.378	0.0158572
694.456	0.0159865
694.534	0.0159418
694.612	0.0160012
694.690	0.0160140
694.768	0.0159624
694.846	0.0159119
694.924	0.0159096
695.003	0.0159570
695.081	0.0160428
695.159	0.0159634
695.237	0.0159161
695.315	0.0159503
695.393	0.0158818
695.471	0.0158949
695.549	0.0158875
695.628	0.0158509
695.706	0.0159425
695.784	0.0158661
695.862	0.0158939
695.940	0.0160554
696.018	0.0158733
696.096	0.0159154
696.174	0.0158527
696.253	0.0158904
696.331	0.0159777
696.409	0.0160136
696.487	0.0160108
696.565	0.0158572
696.643	0.0158531
696.721	0.0159521
696.799	0.0159362
696.878	0.0160609
696.956	0.0158983
697.034	0.0160548
697.112	0.0159408
697.190	0.0159861
697.268	0.0158743
697.346	0.0158537
697.424	0.0159911
697.503	0.0158750
697.581	0.0158914
697.659	0.0159007
697.737	0.0159375
697.815	0.0159860
697.893	0.0160075
697.971	0.0159393
698.049	0.0159401
698.128	0.0160215
698.206	0.0160341
698.284	0.0159689
698.362	0.0161008
698.440	0.0159609
698.518	0.0159222
698.596	0.0159995
698.674	0.0158997
698.753	0.0160855
698.831	0.0160934
698.909	0.0159308
698.987	0.0158784
699.065	0.0159957
699.143	0.0159270
699.221	0.0159713
699.299	0.0159129
699.378	0.0160390
699.456	0.0161027
699.534	0.0159554
699.612	0.0159793
699.690	0.0159111
699.768	0.0159340
699.846	0.0160215
699.924	0.0161050
700.003	0.0161040
700.081	0.0159377
700.159	0.0158788
700.237	0.0160181
700.315	0.0159931
700.393	0.0159261
700.471	0.0159335
700.549	0.0160129
700.628	0.0160966
700.706	0.0160494
700.784	0.0160179
700.862	0.0158728
700.940	0.0160043
701.018	0.0160715
701.096	0.0160783
701.174	0.0159153
701.253	0.0159630
701.331	0.0160260
701.409	0.0157996
701.487	0.0159691
701.565	0.0159589
701.643	0.0160470
701.721	0.0159470
701.799	0.0161234
701.878	0.0160303
701.956	0.0159156
702.034	0.0161453
702.112	0.0158401
702.190	0.0159026
702.268	0.0160842
702.346	0.0158672
702.424	0.0159190
702.503	0.0159337
702.581	0.0158533
702.659	0.0157922
702.737	0.0159621
702.815	0.0158835
702.893	0.0159582
702.971	0.0159344
703.049	0.0158735
703.128	0.0159068
703.206	0.0159000
703.284	0.0158795
703.362	0.0159834
703.440	0.0160669
703.518	0.0158440
703.596	0.0159443
703.674	0.0159040
703.753	0.0158567
703.831	0.0158906
703.909	0.0157934
703.987	0.0159856
704.065	0.0159711
704.143	0.0158996
704.221	0.0160426
704.299	0.0159628
704.378	0.0159135
704.456	0.0159187
704.534	0.0159267
704.612	0.0161061
704.690	0.0160651
704.768	0.0160715
704.846	0.0160117
704.924	0.0160451
705.003	0.0159542
705.081	0.0161095
705.159	0.0160915
705.237	0.0159484
705.315	0.0160269
705.393	0.0160112
705.471	0.0160744
705.549	0.0160901
705.628	0.0160652
705.706	0.0160625
705.784	0.0161314
705.862	0.0160310
705.940	0.0161279
706.018	0.0160191
706.096	0.0161211
706.174	0.0161285
706.253	0.0159919
706.331	0.0160576
706.409	0.0160360
706.487	0.0160007
706.565	0.0159229
706.643	0.0159032
706.721	0.0160133
706.799	0.0160322
706.878	0.0158528
706.956	0.0159127
707.034	0.0159490
707.112	0.0158469
707.190	0.0160227
707.268	0.0159679
707.346	0.0159682
707.424	0.0159203
707.503	0.0159261
707.581	0.0160399
707.659	0.0159837
707.737	0.0158890
707.815	0.0157802
707.893	0.0158548
707.971	0.0158318
708.049	0.0158681
708.128	0.0158891
708.206	0.0157979
708.284	0.0159673
708.362	0.0158233
708.440	0.0158662
708.518	0.0158462
708.596	0.0158770
708.674	0.0158964
708.753	0.0158508
708.831	0.0159837
708.909	0.0158533
708.987	0.0160630
709.065	0.0159956
709.143	0.0160476
709.221	0.0162670
709.299	0.0160431
709.378	0.0160651
709.456	0.0161306
709.534	0.0160908
709.612	0.0159777
709.690	0.0158038
709.768	0.0158447
709.846	0.0157121
709.924	0.0155312
710.003	0.0156068
710.081	0.0156280
710.159	0.0155896
710.237	0.0156320
710.315	0.0158176
710.393	0.0159434
710.471	0.0159866
710.549	0.0161497
710.628	0.0163335
710.706	0.0163905
710.784	0.0163403
710.862	0.0161644
710.940	0.0162159
711.018	0.0162202
711.096	0.0161107
711.174	0.0159370
711.253	0.0158823
711.331	0.0157133
711.409	0.0156847
711.487	0.0156376
711.565	0.0156101
711.643	0.0155686
711.721	0.0155999
711.799	0.0156607
711.878	0.0155636
711.956	0.0159588
712.034	0.0161463
712.112	0.0162473
712.190	0.0163727
712.268	0.0163763
712.346	0.0166293
712.424	0.0164451
712.503	0.0164619
712.581	0.0164378
712.659	0.0161230
712.737	0.0161779
712.815	0.0160286
712.893	0.0157526
712.971	0.0156020
713.049	0.0155399
713.128	0.0152969
713.206	0.0151831
713.284	0.0151579
713.362	0.0153672
713.440	0.0154800
713.518	0.0155534
713.596	0.0156086
713.674	0.0158437
713.753	0.0159390
713.831	0.0162187
713.909	0.0164432
713.987	0.0163056
714.065	0.0165517
714.143	0.0164861
714.221	0.0164736
714.299	0.0164162
714.378	0.0163573
714.456	0.0161285
714.534	0.0159750
714.612	0.0159568
714.690	0.0158270
714.768	0.0157174
714.846	0.0157495
714.924	0.0156161
715.003	0.0157044
715.081	0.0157870
715.159	0.0158162
715.237	0.0158192
715.315	0.0160278
715.393	0.0162106
715.471	0.0162757
715.549	0.0160081
715.628	0.0163341
715.706	0.0162538
715.784	0.0162527
715.862	0.0161751
715.940	0.0162994
716.018	0.0163754
716.096	0.0161990
716.174	0.0163167
716.253	0.0162799
716.331	0.0160376
716.409	0.0160472
716.487	0.0158088
716.565	0.0157020
716.643	0.0155016
716.721	0.0154659
716.799	0.0154201
716.878	0.0154208
716.956	0.0153141
717.034	0.0153241
717.112	0.0154251
717.190	0.0156248
717.268	0.0157210
717.346	0.0158634
717.424	0.0162117
717.503	0.0162608
717.581	0.0165306
717.659	0.0165059
717.737	0.0166969
717.815	0.0167527
717.893	0.0166960
717.971	0.0164727
718.049	0.0163718
718.128	0.0162080
718.206	0.0161073
718.284	0.0159104
718.362	0.0156448
718.440	0.0154517
718.518	0.0153928
718.596	0.0153442
718.674	0.0152746
718.753	0.0152975
718.831	0.0153391
718.909	0.0154123
718.987	0.0157104
719.065	0.0158707
719.143	0.0161337
719.221	0.0163393
719.299	0.0164502
719.378	0.0166624
719.456	0.0169572
719.534	0.0169144
719.612	0.0171165
719.690	0.0169758
719.768	0.0169994
719.846	0.0169542
719.924	0.0167128
720.003	0.0163297
720.081	0.0162486
720.159	0.0158197
720.237	0.0155943
720.315	0.0152843
720.393	0.0150352
720.471	0.0148459
720.549	0.0146976
720.628	0.0145446
720.706	0.0144466
720.784	0.0143840
720.862	0.0144357
720.940	0.0145982
721.018	0.0147308
721.096	0.0147429
721.174	0.0150056
721.253	0.0153720
721.331	0.0155653
721.409	0.0159409
721.487	0.0160819
721.565	0.0163930
721.643	0.0165115
721.721	0.0167177
721.799	0.0168992
721.878	0.0171509
721.956	0.0173535
722.034	0.0171815
722.112	0.0171536
722.190	0.0170319
722.268	0.0168482
722.346	0.0167602
722.424	0.0165166
722.503	0.0163195
722.581	0.0162024
722.659	0.0160963
722.737	0.0162170
722.815	0.0162222
722.893	0.0162881
722.971	0.0164324
723.049	0.0164966
723.128	0.0166523
723.206	0.0168354
723.284	0.0170997
723.362	0.0169527
723.440	0.0170571
723.518	0.0169822
723.596	0.0169651
723.674	0.0166734
723.753	0.0164566
723.831	0.0162254
723.909	0.0159043
723.987	0.0153892
724.065	0.0150467
724.143	0.0146468
724.221	0.0143787
724.299	0.0140131
724.378	0.0135025
724.456	0.0136569
724.534	0.0134656
724.612	0.0133010
724.690	0.0133677
724.768	0.0133552
724.846	0.0133706
724.924	0.0138361
725.003	0.0142290
725.081	0.0143506
725.159	0.0147398
725.237	0.0149531
725.315	0.0153960
725.393	0.0156705
725.471	0.0162210
725.549	0.0164799
725.628	0.0169283
725.706	0.0173483
725.784	0.0177875
725.862	0.0181973
725.940	0.0185036
726.018	0.0187017
726.096	0.0190620
726.174	0.0191003
726.253	0.0192431
726.331	0.0190165
726.409	0.0188057
726.487	0.0184258
726.565	0.0179908
726.643	0.0176330
726.721	0.0170908
726.799	0.0167543
726.878	0.0161906
726.956	0.0156488
727.034	0.0154702
727.112	0.0150390
727.190	0.0148365
727.268	0.0149770
727.346	0.0149234
727.424	0.0149871
727.503	0.0152235
727.581	0.0152836
727.659	0.0156411
727.737	0.0160121
727.815	0.0162730
727.893	0.0163422
727.971	0.0165068
728.049	0.0165257
728.128	0.0163521
728.206	0.0160925
728.284	0.0155273
728.362	0.0150510
728.440	0.0143864
728.518	0.0135857
728.596	0.0130651
728.674	0.0126985
728.753	0.0121083
728.831	0.0118874
728.909	0.0116949
728.987	0.0118385
729.065	0.0120388
729.143	0.0123409
729.221	0.0129482
729.299	0.0135992
729.378	0.0141647
729.456	0.0148985
729.534	0.0157906
729.612	0.0164019
729.690	0.0172190
729.768	0.0181163
729.846	0.0185450
729.924	0.0190853
730.003	0.0196648
730.081	0.0199315
730.159	0.0201940
730.237	0.0203118
730.315	0.0202997
730.393	0.0200895
730.471	0.0199369
730.549	0.0196864
730.628	0.0192737
730.706	0.0186809
730.784	0.0180897
730.862	0.0175829
730.940	0.0171371
731.018	0.0165393
731.096	0.0161139
731.174	0.0156615
731.253	0.0153903
731.331	0.0152641
731.409	0.0152336
731.487	0.0154115
731.565	0.0153276
731.643	0.0155229
731.721	0.0156620
731.799	0.0157052
731.878	0.0156257
731.956	0.0156782
732.034	0.0156585
732.112	0.0155302
732.190	0.0152943
732.268	0.0149589
732.346	0.0144526
732.424	0.0138791
732.503	0.0133858
732.581	0.0127865
732.659	0.0121246
732.737	0.0117240
732.815	0.0113170
732.893	0.0110397
732.971	0.0110473
733.049	0.0111332
733.128	0.0112637
733.206	0.0118457
733.284	0.0124203
733.362	0.0132137
733.440	0.0139188
733.518	0.0148622
733.596	0.0157010
733.674	0.0166846
733.753	0.0175707
733.831	0.0184362
733.909	0.0189623
733.987	0.0196581
734.065	0.0201897
734.143	0.0205989
734.221	0.0206953
734.299	0.0208380
734.378	0.0206255
734.456	0.0203246
734.534	0.0199917
734.612	0.0195097
734.690	0.0189025
734.768	0.0183688
734.846	0.0178417
734.924	0.0173578
735.003	0.0167541
735.081	0.0164369
735.159	0.0159172
735.237	0.0156682
735.315	0.0156034
735.393	0.0155295
735.471	0.0155670
735.549	0.0156307
735.628	0.0155508
735.706	0.0155017
735.784	0.0156011
735.862	0.0157070
735.940	0.0155981
736.018	0.0154616
736.096	0.0154022
736.174	0.0151793
736.253	0.0149746
736.331	0.0150224
736.409	0.0148247
736.487	0.0145799
736.565	0.0143551
736.643	0.0141714
736.721	0.0139252
736.799	0.0136773
736.878	0.0133231
736.956	0.0129419
737.034	0.0126749
737.112	0.0124923
737.190	0.0123473
737.268	0.0124678
737.346	0.0125887
737.424	0.0128532
737.503	0.0131357
737.581	0.0136945
737.659	0.0144562
737.737	0.0150636
737.815	0.0159109
737.893	0.0168147
737.971	0.0175294
738.049	0.0183383
738.128	0.0189668
738.206	0.0194703
738.284	0.0199938
738.362	0.0204841
738.440	0.0204402
738.518	0.0204961
738.596	0.0204016
738.674	0.0199872
738.753	0.0196264
738.831	0.0192252
738.909	0.0185449
738.987	0.0180078
739.065	0.0173256
739.143	0.0166164
739.221	0.0160520
739.299	0.0155055
739.378	0.0150191
739.456	0.0145944
739.534	0.0143726
739.612	0.0141515
739.690	0.0140008
739.768	0.0142155
739.846	0.0142752
739.924	0.0143510
740.003	0.0144822
740.081	0.0147667
740.159	0.0151563
740.237	0.0152188
740.315	0.0155557
740.393	0.0158926
740.471	0.0160558
740.549	0.0163683
740.628	0.0165149
740.706	0.0164776
740.784	0.0165541
740.862	0.0164847
740.940	0.0161707
741.018	0.0157620
741.096	0.0155280
741.174	0.0150152
741.253	0.0145692
741.331	0.0141766
741.409	0.0134992
741.487	0.0133119
741.565	0.0130011
741.643	0.0128913
741.721	0.0130055
741.799	0.0131830
741.878	0.0134029
741.956	0.0136871
742.034	0.0143440
742.112	0.0148095
742.190	0.0157294
742.268	0.0162262
742.346	0.0169220
742.424	0.0175257
742.503	0.0180675
742.581	0.0184472
742.659	0.0186857
742.737	0.0191043
742.815	0.0191278
742.893	0.0191793
742.971	0.0189931
743.049	0.0186150
743.128	0.0184921
743.206	0.0180569
743.284	0.0176586
743.362	0.0171194
743.440	0.0166016
743.518	0.0162433
743.596	0.0157368
743.674	0.0153713
743.753	0.0152070
743.831	0.0149580
743.909	0.0147591
743.987	0.0147372
744.065	0.0148809
744.143	0.0150717
744.221	0.0153588
744.299	0.0155910
744.378	0.0158593
744.456	0.0161101
744.534	0.0163510
744.612	0.0166569
744.690	0.0167466
744.768	0.0168401
744.846	0.0168522
744.924	0.0169056
745.003	0.0168027
745.081	0.0166808
745.159	0.0165130
745.237	0.0162572
745.315	0.0157735
745.393	0.0152573
745.471	0.0149949
745.549	0.0146713
745.628	0.0144632
745.706	0.0140130
745.784	0.0138937
745.862	0.0137929
745.940	0.0134657
746.018	0.0135723
746.096	0.0136605
746.174	0.0136985
746.253	0.0139002
746.331	0.0143861
746.409	0.0147716
746.487	0.0150259
746.565	0.0156375
746.643	0.0158724
746.721	0.0162470
746.799	0.0166429
746.878	0.0169976
746.956	0.0172208
747.034	0.0172179
747.112	0.0171592
747.190	0.0172743
747.268	0.0172208
747.346	0.0169693
747.424	0.0167988
747.503	0.0165575
747.581	0.0164121
747.659	0.0160830
747.737	0.0159294
747.815	0.0157875
747.893	0.0156956
747.971	0.0157576
748.049	0.0157759
748.128	0.0160433
748.206	0.0163250
748.284	0.0165406
748.362	0.0167909
748.440	0.0171655
748.518	0.0173642
748.596	0.0176169
748.674	0.0176175
748.753	0.0178839
748.831	0.0178729
748.909	0.0179693
748.987	0.0177888
749.065	0.0176261
749.143	0.0174335
749.221	0.0170913
749.299	0.0166991
749.378	0.0163544
749.456	0.0159936
749.534	0.0153928
749.612	0.0151460
749.690	0.0147932
749.768	0.0143551
749.846	0.0140309
749.924	0.0138650
750.003	0.0137878
750.081	0.0135612
750.159	0.0137975
750.237	0.0136755
750.315	0.0138315
750.393	0.0141689
750.471	0.0143439
750.549	0.0147057
750.628	0.0149600
750.706	0.0153451
750.784	0.0154883
750.862	0.0157798
750.940	0.0159689
751.018	0.0162063
751.096	0.0162994
751.174	0.0163968
751.253	0.0163643
751.331	0.0164176
751.409	0.0164837
751.487	0.0163795
751.565	0.0161413
751.643	0.0162695
751.721	0.0163094
751.799	0.0161822
751.878	0.0161167
751.956	0.0161814
752.034	0.0160941
752.112	0.0160873
752.190	0.0159647
752.268	0.0160227
752.346	0.0160549
752.424	0.0162528
752.503	0.0162478
752.581	0.0163412
752.659	0.0164337
752.737	0.0164048
752.815	0.0165974
752.893	0.0167509
752.971	0.0167085
753.049	0.0167673
753.128	0.0169507
753.206	0.0170031
753.284	0.0170268
753.362	0.0172102
753.440	0.0169162
753.518	0.0170537
753.596	0.0168017
753.674	0.0166691
753.753	0.0163879
753.831	0.0162792
753.909	0.0160143
753.987	0.0156963
754.065	0.0154764
754.143	0.0152642
754.221	0.0150204
754.299	0.0148885
754.378	0.0149646
754.456	0.0150056
754.534	0.0149221
754.612	0.0151084
754.690	0.0150759
754.768	0.0151650
754.846	0.0153991
754.924	0.0153979
755.003	0.0155866
755.081	0.0155861
755.159	0.0157667
755.237	0.0158367
755.315	0.0158465
755.393	0.0157199
755.471	0.0159077
755.549	0.0160531
755.628	0.0160332
755.706	0.0159926
755.784	0.0160999
755.862	0.0159673
755.940	0.0159981
756.018	0.0161061
756.096	0.0160915
756.174	0.0159967
756.253	0.0159718
756.331	0.0160164
756.409	0.0159927
756.487	0.0160850
756.565	0.0160101
756.643	0.0161655
756.721	0.0160568
756.799	0.0159453
756.878	0.0160886
756.956	0.0159727
757.034	0.0160375
757.112	0.0161469
757.190	0.0161816
757.268	0.0161030
757.346	0.0161163
757.424	0.0160738
757.503	0.0160137
757.581	0.0160595
757.659	0.0161505
757.737	0.0159746
757.815	0.0158745
757.893	0.0159608
757.971	0.0157458
758.049	0.0157233
758.128	0.0155035
758.206	0.0155890
758.284	0.0155267
758.362	0.0153969
758.440	0.0153944
758.518	0.0153112
758.596	0.0153133
758.674	0.0153992
758.753	0.0154195
758.831	0.0154794
758.909	0.0157467
758.987	0.0158167
759.065	0.0158376
759.143	0.0162500
759.221	0.0164973
759.299	0.0166611
759.378	0.0167212
759.456	0.0170831
759.534	0.0171886
759.612	0.0172402
759.690	0.0173086
759.768	0.0174004
759.846	0.0172098
759.924	0.0171870
760.003	0.0170462
760.081	0.0169761
760.159	0.0167048
760.237	0.0164234
760.315	0.0162313
760.393	0.0158789
760.471	0.0156493
760.549	0.0154887
760.628	0.0152538
760.706	0.0152365
760.784	0.0149359
760.862	0.0148836
760.940	0.0150284
761.018	0.0150677
761.096	0.0150906
761.174	0.0152367
761.253	0.0150449
761.331	0.0153131
761.409	0.0155026
761.487	0.0155682
761.565	0.0158539
761.643	0.0156293
761.721	0.0157314
761.799	0.0157401
761.878	0.0159826
761.956	0.0159854
762.034	0.0158972
762.112	0.0158388
762.190	0.0157465
762.268	0.0156629
762.346	0.0155530
762.424	0.0154527
762.503	0.0154855
762.581	0.0152960
762.659	0.0153559
762.737	0.0154395
762.815	0.0154075
762.893	0.0154295
762.971	0.0157335
763.049	0.0157838
763.128	0.0160272
763.206	0.0161925
763.284	0.0162991
763.362	0.0165258
763.440	0.0167747
763.518	0.0167761
763.596	0.0168516
763.674	0.0167046
763.753	0.0168417
763.831	0.0168726
763.909	0.0167190
763.987	0.0166801
764.065	0.0165679
764.143	0.0164484
764.221	0.0161732
764.299	0.0161549
764.378	0.0158125
764.456	0.0158414
764.534	0.0159603
764.612	0.0157447
764.690	0.0156242
764.768	0.0157973
764.846	0.0156832
764.924	0.0156297
765.003	0.0157403
765.081	0.0157320
765.159	0.0160639
765.237	0.0161093
765.315	0.0161308
765.393	0.0162041
765.471	0.0163622
765.549	0.0163966
765.628	0.0162504
765.706	0.0162620
765.784	0.0164095
765.862	0.0161731
765.940	0.0160924
766.018	0.0160945
766.096	0.0160020
766.174	0.0160115
766.253	0.0158165
766.331	0.0155891
766.409	0.0157008
766.487	0.0155622
766.565	0.0155462
766.643	0.0155595
766.721	0.0155931
766.799	0.0156757
766.878	0.0157040
766.956	0.0155927
767.034	0.0157129
767.112	0.0157497
767.190	0.0157907
767.268	0.0158401
767.346	0.0159313
767.424	0.0160165
767.503	0.0160406
767.581	0.0159994
767.659	0.0161161
767.737	0.0162523
767.815	0.0162139
767.893	0.0161009
767.971	0.0159644
768.049	0.0161323
768.128	0.0162510
768.206	0.0161523
768.284	0.0162271
768.362	0.0160720
768.440	0.0160538
768.518	0.0162143
768.596	0.0162646
768.674	0.0162357
768.753	0.0163729
768.831	0.0161525
768.909	0.0161463
768.987	0.0162001
769.065	0.0160537
769.143	0.0159396
769.221	0.0158273
769.299	0.0157123
769.378	0.0155149
769.456	0.0153349
769.534	0.0154233
769.612	0.0153664
769.690	0.0152147
769.768	0.0152901
769.846	0.0153499
769.924	0.0153783
770.003	0.0153101
770.081	0.0153543
770.159	0.0155130
770.237	0.0157021
770.315	0.0157660
770.393	0.0157909
770.471	0.0159318
770.549	0.0162013
770.628	0.0160745
770.706	0.0162505
770.784	0.0162128
770.862	0.0163895
770.940	0.0164606
771.018	0.0164354
771.096	0.0165900
771.174	0.0164473
771.253	0.0164830
771.331	0.0165703
771.409	0.0165005
771.487	0.0165299
771.565	0.0164227
771.643	0.0162360
771.721	0.0163970
771.799	0.0164938
771.878	0.0164236
771.956	0.0165240
772.034	0.0164492
772.112	0.0165620
772.190	0.0163563
772.268	0.0163477
772.346	0.0162404
772.424	0.0162578
772.503	0.0161163
772.581	0.0161056
772.659	0.0159029
772.737	0.0158428
772.815	0.0156923
772.893	0.0156934
772.971	0.0155701
773.049	0.0155389
773.128	0.0154955
773.206	0.0155074
773.284	0.0154579
773.362	0.0153861
773.440	0.0153632
773.518	0.0153722
773.596	0.0155557
773.674	0.0156171
773.753	0.0157053
773.831	0.0156810
773.909	0.0156074
773.987	0.0155742
774.065	0.0157253
774.143	0.0157271
774.221	0.0156987
774.299	0.0158746
774.378	0.0160956
774.456	0.0160308
774.534	0.0158031
774.612	0.0158968
774.690	0.0161023
774.768	0.0161601
774.846	0.0162054
774.924	0.0161240
775.003	0.0161031
775.081	0.0161333
775.159	0.0162583
775.237	0.0160992
775.315	0.0160230
775.393	0.0160080
775.471	0.0160134
775.549	0.0158762
775.628	0.0160117
775.706	0.0160368
775.784	0.0161259
775.862	0.0162014
775.940	0.0162029
776.018	0.0162089
776.096	0.0162704
776.174	0.0163027
776.253	0.0163556
776.331	0.0163416
776.409	0.0164387
776.487	0.0161274
776.565	0.0162930
776.643	0.0163904
776.721	0.0163566
776.799	0.0162148
776.878	0.0162869
776.956	0.0163043
777.034	0.0161393
777.112	0.0160088
777.190	0.0160189
777.268	0.0158452
777.346	0.0159921
777.424	0.0159906
777.503	0.0157951
777.581	0.0157390
777.659	0.0156493
777.737	0.0156020
777.815	0.0153867
777.893	0.0154227
777.971	0.0155851
778.049	0.0155453
778.128	0.0155191
778.206	0.0154899
778.284	0.0152946
778.362	0.0153802
778.440	0.0155592
778.518	0.0156097
778.596	0.0156362
778.674	0.0156874
778.753	0.0158440
778.831	0.0160233
778.909	0.0158440
778.987	0.0160812
779.065	0.0161815
779.143	0.0164168
779.221	0.0164478
779.299	0.0163985
779.378	0.0165525
779.456	0.0166730
779.534	0.0166003
779.612	0.0167097
779.690	0.0166492
779.768	0.0166904
779.846	0.0166388
779.924	0.0163546
780.003	0.0163022
780.081	0.0163248
780.159	0.0163130
780.237	0.0161493
780.315	0.0159970
780.393	0.0159832
780.471	0.0159908
780.549	0.0158887
780.628	0.0158745
780.706	0.0158365
780.784	0.0157771
780.862	0.0156210
780.940	0.0158348
781.018	0.0156896
781.096	0.0157845
781.174	0.0156610
781.253	0.0157275
781.331	0.0155029
781.409	0.0155805
781.487	0.0154482
781.565	0.0153495
781.643	0.0154323
781.721	0.0154421
781.799	0.0153755
781.878	0.0154354
781.956	0.0153398
782.034	0.0154451
782.112	0.0155482
782.190	0.0155971
782.268	0.0157837
782.346	0.0157936
782.424	0.0159617
782.503	0.0161048
782.581	0.0160619
782.659	0.0162524
782.737	0.0164449
782.815	0.0163885
782.893	0.0164474
782.971	0.0164754
783.049	0.0166130
783.128	0.0166529
783.206	0.0166649
783.284	0.0167821
783.362	0.0166764
783.440	0.0165821
783.518	0.0165875
783.596	0.0165327
783.674	0.0161942
783.753	0.0163009
783.831	0.0162840
783.909	0.0162083
783.987	0.0162716
784.065	0.0160809
784.143	0.0159908
784.221	0.0160782
784.299	0.0158904
784.378	0.0158440
784.456	0.0157427
784.534	0.0158219
784.612	0.0156326
784.690	0.0155482
784.768	0.0156158
784.846	0.0157353
784.924	0.0156626
785.003	0.0156001
785.081	0.0154745
785.159	0.0155168
785.237	0.0154643
785.315	0.0154495
785.393	0.0155843
785.471	0.0154092
785.549	0.0154308
785.628	0.0155722
785.706	0.0155795
785.784	0.0155864
785.862	0.0153936
785.940	0.0155866
786.018	0.0156512
786.096	0.0156522
786.174	0.0157765
786.253	0.0159843
786.331	0.0159012
786.409	0.0160871
786.487	0.0158935
786.565	0.0161323
786.643	0.0163512
786.721	0.0162968
786.799	0.0163966
786.878	0.0162256
786.956	0.0163020
787.034	0.0165121
787.112	0.0163338
787.190	0.0163267
787.268	0.0164156
787.346	0.0162881
787.424	0.0161510
787.503	0.0162181
787.581	0.0161901
787.659	0.0161369
787.737	0.0162130
787.815	0.0159895
787.893	0.0158975
787.971	0.0159388
788.049	0.0160005
788.128	0.0160357
788.206	0.0160424
788.284	0.0161224
788.362	0.0161779
788.440	0.0160680
788.518	0.0160462
788.596	0.0161037
788.674	0.0160723
788.753	0.0159441
788.831	0.0158253
788.909	0.0157800
788.987	0.0157567
789.065	0.0157552
789.143	0.0157662
789.221	0.0157562
789.299	0.0157051
789.378	0.0156735
789.456	0.0157887
789.534	0.0158134
789.612	0.0156103
789.690	0.0156021
789.768	0.0157259
789.846	0.0158878
789.924	0.0156261
790.003	0.0156721
790.081	0.0159507
790.159	0.0158472
790.237	0.0159738
790.315	0.0160782
790.393	0.0159534
790.471	0.0162511
790.549	0.0159934
790.628	0.0159463
790.706	0.0158694
790.784	0.0160149
790.862	0.0160684
790.940	0.0160349
791.018	0.0158685
791.096	0.0158731
791.174	0.0159563
791.253	0.0159262
791.331	0.0159087
791.409	0.0160147
791.487	0.0160847
791.565	0.0159650
791.643	0.0160654
791.721	0.0159416
791.799	0.0161607
791.878	0.0162392
791.956	0.0160709
792.034	0.0160400
792.112	0.0161176
792.190	0.0162234
792.268	0.0161981
792.346	0.0161579
792.424	0.0161284
792.503	0.0161532
792.581	0.0159298
792.659	0.0159909
792.737	0.0158859
792.815	0.0158613
792.893	0.0157009
792.971	0.0157912
793.049	0.0156930
793.128	0.0155672
793.206	0.0154927
793.284	0.0154604
793.362	0.0154304
793.440	0.0154590
793.518	0.0153728
793.596	0.0155238
793.674	0.0154977
793.753	0.0155418
793.831	0.0154803
793.909	0.0155629
793.987	0.0158049
794.065	0.0157040
794.143	0.0158226
794.221	0.0158128
794.299	0.0158525
794.378	0.0159734
794.456	0.0158747
794.534	0.0158819
794.612	0.0160844
794.690	0.0160995
794.768	0.0160905
794.846	0.0163185
794.924	0.0162910
795.003	0.0162804
795.081	0.0162669
795.159	0.0162579
795.237	0.0162672
795.315	0.0163812
795.393	0.0164486
795.471	0.0163737
795.549	0.0163294
795.628	0.0163545
795.706	0.0162688
795.784	0.0163096
795.862	0.0163510
795.940	0.0163514
796.018	0.0162547
796.096	0.0163197
796.174	0.0161545
796.253	0.0160686
796.331	0.0161221
796.409	0.0160913
796.487	0.0159995
796.565	0.0159987
796.643	0.0159327
796.721	0.0158517
796.799	0.0158232
796.878	0.0158084
796.956	0.0157797
797.034	0.0157311
797.112	0.0156848
797.190	0.0156927
797.268	0.0157140
797.346	0.0156840
797.424	0.0154752
797.503	0.0155256
797.581	0.0154105
797.659	0.0155170
797.737	0.0154510
797.815	0.0154891
797.893	0.0154507
797.971	0.0156123
798.049	0.0157304
798.128	0.0157452
798.206	0.0157909
798.284	0.0157990
798.362	0.0159769
798.440	0.0160526
798.518	0.0161013
798.596	0.0161342
798.674	0.0162852
798.753	0.0162398
798.831	0.0163035
798.909	0.0161559
798.987	0.0161815
799.065	0.0163183
799.143	0.0163821
799.221	0.0163635
799.299	0.0162830
799.378	0.0162026
799.456	0.0163023
799.534	0.0162521
799.612	0.0162354
799.690	0.0161131
799.768	0.0161069
799.846	0.0161676
799.924	0.0161411
800.003	0.0161296
800.081	0.0161858
800.159	0.0160175
800.237	0.0160406
800.315	0.0160174
800.393	0.0160681
800.471	0.0160064
800.549	0.0159002
800.628	0.0158278
800.706	0.0159068
800.784	0.0158980
800.862	0.0158220
800.940	0.0157766
801.018	0.0158667
801.096	0.0156966
801.174	0.0156786
801.253	0.0157606
801.331	0.0156055
801.409	0.0155965
801.487	0.0158072
801.565	0.0157377
801.643	0.0157469
801.721	0.0157606
801.799	0.0158524
801.878	0.0158466
801.956	0.0159384
802.034	0.0159401
802.112	0.0160027
802.190	0.0159569
802.268	0.0158492
802.346	0.0159572
802.424	0.0160749
802.503	0.0162173
802.581	0.0162034
802.659	0.0162676
802.737	0.0163030
802.815	0.0162903
802.893	0.0162685
802.971	0.0163072
803.049	0.0164082
803.128	0.0163602
803.206	0.0162949
803.284	0.0161987
803.362	0.0160995
803.440	0.0163028
803.518	0.0162653
803.596	0.0162170
803.674	0.0160854
803.753	0.0160260
803.831	0.0160823
803.909	0.0159739
803.987	0.0158918
804.065	0.0159341
804.143	0.0158465
804.221	0.0159084
804.299	0.0158723
804.378	0.0158686
804.456	0.0159181
804.534	0.0159544
804.612	0.0157584
804.690	0.0157076
804.768	0.0157793
804.846	0.0158922
804.924	0.0157670
805.003	0.0156969
805.081	0.0156620
805.159	0.0158825
805.237	0.0155925
805.315	0.0156955
805.393	0.0157699
805.471	0.0157070
805.549	0.0156599
805.628	0.0157659
805.706	0.0157668
805.784	0.0158486
805.862	0.0160744
805.940	0.0160304
806.018	0.0160154
806.096	0.0160303
806.174	0.0161231
806.253	0.0162041
806.331	0.0160689
806.409	0.0160770
806.487	0.0161234
806.565	0.0162251
806.643	0.0161455
806.721	0.0162775
806.799	0.0161079
806.878	0.0160509
806.956	0.0162868
807.034	0.0161926
807.112	0.0162889
807.190	0.0163035
807.268	0.0161339
807.346	0.0161398
807.424	0.0162009
807.503	0.0162386
807.581	0.0163335
807.659	0.0161293
807.737	0.0162402
807.815	0.0162258
807.893	0.0161952
807.971	0.0162490
808.049	0.0160910
808.128	0.0160151
808.206	0.0160237
808.284	0.0159535
808.362	0.0158592
808.440	0.0158653
808.518	0.0159441
808.596	0.0160254
808.674	0.0158196
808.753	0.0158661
808.831	0.0158768
808.909	0.0156953
808.987	0.0157555
809.065	0.0156989
809.143	0.0157999
809.221	0.0156306
809.299	0.0156880
809.378	0.0157976
809.456	0.0157418
809.534	0.0158024
809.612	0.0158285
809.690	0.0158968
809.768	0.0158456
809.846	0.0158590
809.924	0.0159443
810.003	0.0161369
810.081	0.0160546
810.159	0.0159485
810.237	0.0161127
810.315	0.0160490
810.393	0.0161468
810.471	0.0161987
810.549	0.0162089
810.628	0.0160210
810.706	0.0159656
810.784	0.0159498
810.862	0.0160553
810.940	0.0161087
811.018	0.0160365
811.096	0.0160580
811.174	0.0161144
811.253	0.0161686
811.331	0.0160583
811.409	0.0159506
811.487	0.0160929
811.565	0.0160468
811.643	0.0159077
811.721	0.0160410
811.799	0.0160983
811.878	0.0160255
811.956	0.0159214
812.034	0.0158361
812.112	0.0159264
812.190	0.0160163
812.268	0.0160539
812.346	0.0157864
812.424	0.0158507
812.503	0.0159543
812.581	0.0158326
812.659	0.0158765
812.737	0.0157503
812.815	0.0157522
812.893	0.0158749
812.971	0.0157446
813.049	0.0157643
813.128	0.0157819
813.206	0.0158143
813.284	0.0157378
813.362	0.0157551
813.440	0.0158362
813.518	0.0160179
813.596	0.0158867
813.674	0.0158816
813.753	0.0159582
813.831	0.0160667
813.909	0.0158901
813.987	0.0159606
814.065	0.0161903
814.143	0.0161191
814.221	0.0160178
814.299	0.0160210
814.378	0.0161192
814.456	0.0160158
814.534	0.0159872
814.612	0.0159476
814.690	0.0159871
814.768	0.0159696
814.846	0.0159235
814.924	0.0159496
815.003	0.0159315
815.081	0.0160332
815.159	0.0161276
815.237	0.0161026
815.315	0.0161346
815.393	0.0159725
815.471	0.0158494
815.549	0.0160396
815.628	0.0161052
815.706	0.0160268
815.784	0.0159927
815.862	0.0160648
815.940	0.0159958
816.018	0.0160216
816.096	0.0159505
816.174	0.0158702
816.253	0.0159064
816.331	0.0158982
816.409	0.0159087
816.487	0.0159115
816.565	0.0158138
816.643	0.0158705
816.721	0.0158250
816.799	0.0157076
816.878	0.0157764
816.956	0.0157234
817.034	0.0157658
817.112	0.0157144
817.190	0.0156461
817.268	0.0156306
817.346	0.0157340
817.424	0.0157620
817.503	0.0156028
817.581	0.0155747
817.659	0.0158049
817.737	0.0158205
817.815	0.0157664
817.893	0.0158138
817.971	0.0156992
818.049	0.0157775
818.128	0.0158873
818.206	0.0160249
818.284	0.0160411
818.362	0.0159889
818.440	0.0161083
818.518	0.0162814
818.596	0.0162870
818.674	0.0163029
818.753	0.0163860
818.831	0.0163905
818.909	0.0164292
818.987	0.0165300
819.065	0.0164789
819.143	0.0164086
819.221	0.0164957
819.299	0.0165102
819.378	0.0164833
819.456	0.0165046
819.534	0.0163627
819.612	0.0162994
819.690	0.0162546
819.768	0.0163187
819.846	0.0160491
819.924	0.0160395
820.003	0.0160957
820.081	0.0159734
820.159	0.0160244
820.237	0.0159737
820.315	0.0156284
820.393	0.0158199
820.471	0.0156400
820.549	0.0156650
820.628	0.0156577
820.706	0.0155251
820.784	0.0153912
820.862	0.0154097
820.940	0.0151154
821.018	0.0152425
821.096	0.0151942
821.174	0.0151871
821.253	0.0153194
821.331	0.0153310
821.409	0.0153724
821.487	0.0153427
821.565	0.0152605
821.643	0.0155165
821.721	0.0155930
821.799	0.0156809
821.878	0.0159184
821.956	0.0158829
822.034	0.0158974
822.112	0.0162849
822.190	0.0162843
822.268	0.0163035
822.346	0.0164658
822.424	0.0164976
822.503	0.0165861
822.581	0.0167702
822.659	0.0167913
822.737	0.0167297
822.815	0.0167959
822.893	0.0166808
822.971	0.0167988
823.049	0.0168253
823.128	0.0167062
823.206	0.0166225
823.284	0.0164927
823.362	0.0166620
823.440	0.0165665
823.518	0.0164544
823.596	0.0163865
823.674	0.0162703
823.753	0.0161880
823.831	0.0161244
823.909	0.0161438
823.987	0.0159177
824.065	0.0159026
824.143	0.0157697
824.221	0.0157409
824.299	0.0156526
824.378	0.0155636
824.456	0.0155083
824.534	0.0153311
824.612	0.0152662
824.690	0.0151989
824.768	0.0153447
824.846	0.0152290
824.924	0.0152832
825.003	0.0151385
825.081	0.0149831
825.159	0.0150721
825.237	0.0151331
825.315	0.0151501
825.393	0.0151792
825.471	0.0151675
825.549	0.0153241
825.628	0.0153299
825.706	0.0154143
825.784	0.0155669
825.862	0.0155734
825.940	0.0156522
826.018	0.0158123
826.096	0.0159599
826.174	0.0161095
826.253	0.0161122
826.331	0.0164304
826.409	0.0163648
826.487	0.0165071
826.565	0.0167307
826.643	0.0168926
826.721	0.0167908
826.799	0.0168113
826.878	0.0167741
826.956	0.0169016
827.034	0.0170832
827.112	0.0169683
827.190	0.0169643
827.268	0.0168068
827.346	0.0169095
827.424	0.0168089
827.503	0.0167255
827.581	0.0167455
827.659	0.0164462
827.737	0.0163734
827.815	0.0163931
827.893	0.0162682
827.971	0.0161902
828.049	0.0160402
828.128	0.0159995
828.206	0.0158833
828.284	0.0157453
828.362	0.0156933
828.440	0.0156104
828.518	0.0154370
828.596	0.0153723
828.674	0.0153434
828.753	0.0153114
828.831	0.0153219
828.909	0.0151936
828.987	0.0150981
829.065	0.0152559
829.143	0.0152278
829.221	0.0150896
829.299	0.0152258
829.378	0.0152528
829.456	0.0153356
829.534	0.0151595
829.612	0.0153101
829.690	0.0153647
829.768	0.0155107
829.846	0.0156293
829.924	0.0156466
830.003	0.0156711
830.081	0.0158993
830.159	0.0159549
830.237	0.0160567
830.315	0.0161756
830.393	0.0161961
830.471	0.0162992
830.549	0.0164190
830.628	0.0164980
830.706	0.0165946
830.784	0.0166931
830.862	0.0167590
830.940	0.0167883
831.018	0.0166808
831.096	0.0167042
831.174	0.0167366
831.253	0.0168252
831.331	0.0167483
831.409	0.0169904
831.487	0.0166476
831.565	0.0166497
831.643	0.0165958
831.721	0.0165847
831.799	0.0164812
831.878	0.0163561
831.956	0.0162010
832.034	0.0161679
832.112	0.0161318
832.190	0.0159766
832.268	0.0159677
832.346	0.0158514
832.424	0.0155507
832.503	0.0155434
832.581	0.0156158
832.659	0.0154964
832.737	0.0154944
832.815	0.0153568
832.893	0.0154259
832.971	0.0154966
833.049	0.0153947
833.128	0.0153948
833.206	0.0153795
833.284	0.0154043
833.362	0.0154337
833.440	0.0154972
833.518	0.0154966
833.596	0.0155695
833.674	0.0155966
833.753	0.0156881
833.831	0.0157265
833.909	0.0156412
833.987	0.0157736
834.065	0.0157548
834.143	0.0158162
834.221	0.0159155
834.299	0.0159706
834.378	0.0161411
834.456	0.0160390
834.534	0.0161201
834.612	0.0161200
834.690	0.0162273
834.768	0.0166111
834.846	0.0165575
834.924	0.0164851
835.003	0.0165117
835.081	0.0163950
835.159	0.0164636
835.237	0.0164802
835.315	0.0165611
835.393	0.0165034
835.471	0.0165150
835.549	0.0164912
835.628	0.0165289
835.706	0.0163094
835.784	0.0163349
835.862	0.0162874
835.940	0.0161021
836.018	0.0162497
836.096	0.0160676
836.174	0.0159487
836.253	0.0157521
836.331	0.0158968
836.409	0.0158288
836.487	0.0156436
836.565	0.0157792
836.643	0.0154965
836.721	0.0155953
836.799	0.0156297
836.878	0.0155086
836.956	0.0155164
837.034	0.0155359
837.112	0.0155894
837.190	0.0154692
837.268	0.0156626
837.346	0.0155732
837.424	0.0155561
837.503	0.0156590
837.581	0.0156374
837.659	0.0154110
837.737	0.0155512
837.815	0.0155367
837.893	0.0158086
837.971	0.0158498
838.049	0.0156908
838.128	0.0157488
838.206	0.0159800
838.284	0.0158690
838.362	0.0160179
838.440	0.0160659
838.518	0.0161266
838.596	0.0161353
838.674	0.0161521
838.753	0.0161791
838.831	0.0161260
838.909	0.0161913
838.987	0.0162168
839.065	0.0164855
839.143	0.0165105
839.221	0.0163599
839.299	0.0164643
839.378	0.0163581
839.456	0.0162754
839.534	0.0161558
839.612	0.0163311
839.690	0.0163139
839.768	0.0163347
839.846	0.0162616
839.924	0.0162053
840.003	0.0161617
840.081	0.0161015
840.159	0.0161778
840.237	0.0161398
840.315	0.0160670
840.393	0.0160866
840.471	0.0160269
840.549	0.0160101
840.628	0.0159338
840.706	0.0159319
840.784	0.0159726
840.862	0.0158949
840.940	0.0159161
841.018	0.0158584
841.096	0.0158768
841.174	0.0157009
841.253	0.0157063
841.331	0.0157076
841.409	0.0157967
841.487	0.0157756
841.565	0.0158372
841.643	0.0157848
841.721	0.0157185
841.799	0.0158613
841.878	0.0156755
841.956	0.0156744
842.034	0.0157574
842.112	0.0158376
842.190	0.0158087
842.268	0.0158830
842.346	0.0157067
842.424	0.0158661
842.503	0.0158701
842.581	0.0158300
842.659	0.0159196
842.737	0.0159563
842.815	0.0161436
842.893	0.0160538
842.971	0.0159220
843.049	0.0159600
843.128	0.0160581
843.206	0.0160040
843.284	0.0160387
843.362	0.0160329
843.440	0.0160764
843.518	0.0160333
843.596	0.0160455
843.674	0.0160432
843.753	0.0161584
843.831	0.0161335
843.909	0.0161552
843.987	0.0160502
844.065	0.0160741
844.143	0.0162155
844.221	0.0161485
844.299	0.0161579
844.378	0.0159443
844.456	0.0161947
844.534	0.0159547
844.612	0.0160243
844.690	0.0160462
844.768	0.0159708
844.846	0.0158831
844.924	0.0160270
845.003	0.0160337
845.081	0.0159698
845.159	0.0159888
845.237	0.0159982
845.315	0.0159097
845.393	0.0159885
845.471	0.0159482
845.549	0.0159556
845.628	0.0160509
845.706	0.0160207
845.784	0.0161015
845.862	0.0159125
845.940	0.0159671
846.018	0.0159624
846.096	0.0160137
846.174	0.0159362
846.253	0.0158797
846.331	0.0158299
846.409	0.0159262
846.487	0.0159626
846.565	0.0159186
846.643	0.0158916
846.721	0.0159148
846.799	0.0158897
846.878	0.0159663
846.956	0.0158083
847.034	0.0158124
847.112	0.0158784
847.190	0.0159161
847.268	0.0159023
847.346	0.0160085
847.424	0.0159321
847.503	0.0158376
847.581	0.0158252
847.659	0.0159102
847.737	0.0158910
847.815	0.0159071
847.893	0.0157850
847.971	0.0158646
848.049	0.0158042
848.128	0.0158068
848.206	0.0157523
848.284	0.0158215
848.362	0.0157641
848.440	0.0157276
848.518	0.0159270
848.596	0.0159678
848.674	0.0159470
848.753	0.0159541
848.831	0.0159235
848.909	0.0159884
848.987	0.0159470
849.065	0.0161107
849.143	0.0160143
849.221	0.0161675
849.299	0.0163143
849.378	0.0162510
849.456	0.0161647
849.534	0.0163014
849.612	0.0162579
849.690	0.0162485
849.768	0.0163896
849.846	0.0163985
849.924	0.0162807
850.003	0.0164370
850.081	0.0162570
850.159	0.0161870
850.237	0.0163215
850.315	0.0160947
850.393	0.0162488
850.471	0.0161919
850.549	0.0160739
850.628	0.0161572
850.706	0.0160029
850.784	0.0161607
850.862	0.0160829
850.940	0.0161729
851.018	0.0160700
851.096	0.0160330
851.174	0.0160353
851.253	0.0159132
851.331	0.0159361
851.409	0.0158950
851.487	0.0159742
851.565	0.0157692
851.643	0.0160375
851.721	0.0159777
851.799	0.0157714
851.878	0.0158305
851.956	0.0157158
852.034	0.0157585
852.112	0.0157014
852.190	0.0156873
852.268	0.0158135
852.346	0.0157262
852.424	0.0158492
852.503	0.0156885
852.581	0.0157504
852.659	0.0157809
852.737	0.0158394
852.815	0.0158768
852.893	0.0158324
852.971	0.0160371
853.049	0.0160533
853.128	0.0159970
853.206	0.0159327
853.284	0.0159489
853.362	0.0159131
853.440	0.0160191
853.518	0.0161093
853.596	0.0159670
853.674	0.0159675
853.753	0.0158900
853.831	0.0158504
853.909	0.0158040
853.987	0.0159013
854.065	0.0159237
854.143	0.0158942
854.221	0.0159052
854.299	0.0159803
854.378	0.0160011
854.456	0.0159624
854.534	0.0158173
854.612	0.0159742
854.690	0.0160402
854.768	0.0160416
854.846	0.0159291
854.924	0.0160003
855.003	0.0159808
855.081	0.0159850
855.159	0.0160851
855.237	0.0159784
855.315	0.0160967
855.393	0.0158755
855.471	0.0160664
855.549	0.0161060
855.628	0.0161227
855.706	0.0160324
855.784	0.0161372
855.862	0.0162827
855.940	0.0160919
856.018	0.0161044
856.096	0.0162157
856.174	0.0162039
856.253	0.0161506
856.331	0.0160736
856.409	0.0160222
856.487	0.0160641
856.565	0.0160860
856.643	0.0161045
856.721	0.0161362
856.799	0.0159866
856.878	0.0161215
856.956	0.0159318
857.034	0.0160613
857.112	0.0160039
857.190	0.0160281
857.268	0.0159571
857.346	0.0161457
857.424	0.0159866
857.503	0.0159446
857.581	0.0159827
857.659	0.0159367
857.737	0.0159732
857.815	0.0158546
857.893	0.0158900
857.971	0.0159799
858.049	0.0159435
858.128	0.0158793
858.206	0.0158533
858.284	0.0159874
858.362	0.0159008
858.440	0.0158545
858.518	0.0159719
858.596	0.0157951
858.674	0.0158398
858.753	0.0158945
858.831	0.0158920
858.909	0.0157616
858.987	0.0157624
859.065	0.0158894
859.143	0.0158300
859.221	0.0158763
859.299	0.0157356
859.378	0.0158476
859.456	0.0157754
859.534	0.0157984
859.612	0.0159409
859.690	0.0159159
859.768	0.0158289
859.846	0.0157883
859.924	0.0158524
860.003	0.0158940
860.081	0.0159531
860.159	0.0158682
860.237	0.0159476
860.315	0.0159708
860.393	0.0159596
860.471	0.0159850
860.549	0.0159497
860.628	0.0160663
860.706	0.0160776
860.784	0.0160204
860.862	0.0158707
860.940	0.0160812
861.018	0.0160703
861.096	0.0161633
861.174	0.0160376
861.253	0.0160123
861.331	0.0159763
861.409	0.0159492
861.487	0.0159830
861.565	0.0159100
861.643	0.0160235
861.721	0.0160103
861.799	0.0160712
861.878	0.0160370
861.956	0.0160897
862.034	0.0160941
862.112	0.0159465
862.190	0.0159073
862.268	0.0159423
862.346	0.0159932
862.424	0.0159563
862.503	0.0161100
862.581	0.0160046
862.659	0.0161096
862.737	0.0159622
862.815	0.0159732
862.893	0.0159397
862.971	0.0159985
863.049	0.0160252
863.128	0.0162227
863.206	0.0161085
863.284	0.0159171
863.362	0.0160551
863.440	0.0161110
863.518	0.0160786
863.596	0.0159353
863.674	0.0159078
863.753	0.0159271
863.831	0.0159334
863.909	0.0159236
863.987	0.0158677
864.065	0.0158342
864.143	0.0158695
864.221	0.0158482
864.299	0.0158369
864.378	0.0159271
864.456	0.0157204
864.534	0.0158503
864.612	0.0158993
864.690	0.0157429
864.768	0.0158229
864.846	0.0158566
864.924	0.0158118
865.003	0.0156871
865.081	0.0158321
865.159	0.0158991
865.237	0.0157727
865.315	0.0158294
865.393	0.0158179
865.471	0.0157040
865.549	0.0158646
865.628	0.0160136
865.706	0.0159061
865.784	0.0157441
865.862	0.0158575
865.940	0.0159779
866.018	0.0158195
866.096	0.0159379
866.174	0.0159381
866.253	0.0160121
866.331	0.0159380
866.409	0.0159940
866.487	0.0158640
866.565	0.0159450
866.643	0.0159850
866.721	0.0159144
866.799	0.0159106
866.878	0.0160981
866.956	0.0161556
867.034	0.0160992
867.112	0.0160212
867.190	0.0160786
867.268	0.0162364
867.346	0.0162582
867.424	0.0161474
867.503	0.0161182
867.581	0.0161697
867.659	0.0162633
867.737	0.0161940
867.815	0.0160368
867.893	0.0161202
867.971	0.0163565
868.049	0.0160849
868.128	0.0160003
868.206	0.0161433
868.284	0.0160635
868.362	0.0161855
868.440	0.0160474
868.518	0.0160643
868.596	0.0161567
868.674	0.0159720
868.753	0.0159880
868.831	0.0159420
868.909	0.0160313
868.987	0.0159539
869.065	0.0159367
869.143	0.0159027
869.221	0.0159120
869.299	0.0159281
869.378	0.0158678
869.456	0.0158383
869.534	0.0158971
869.612	0.0158279
869.690	0.0157474
869.768	0.0158163
869.846	0.0158036
869.924	0.0157739
870.003	0.0156633
870.081	0.0158419
870.159	0.0158239
870.237	0.0157811
870.315	0.0157086
870.393	0.0158147
870.471	0.0157888
870.549	0.0156664
870.628	0.0158244
870.706	0.0159261
870.784	0.0157953
870.862	0.0159177
870.940	0.0159322
871.018	0.0158523
871.096	0.0159221
871.174	0.0159061
871.253	0.0159695
871.331	0.0159106
871.409	0.0160535
871.487	0.0160598
871.565	0.0159921
871.643	0.0160210
871.721	0.0159597
871.799	0.0160030
871.878	0.0159769
871.956	0.0160085
872.034	0.0160577
872.112	0.0161649
872.190	0.0160311
872.268	0.0159673
872.346	0.0159998
872.424	0.0161075
872.503	0.0161974
872.581	0.0161538
872.659	0.0161035
872.737	0.0161069
872.815	0.0161565
872.893	0.0161156
872.971	0.0160136
873.049	0.0159289
873.128	0.0161110
873.206	0.0161253
873.284	0.0161022
873.362	0.0161746
873.440	0.0161362
873.518	0.0160573
873.596	0.0160674
873.674	0.0160705
873.753	0.0159882
873.831	0.0159293
873.909	0.0158192
873.987	0.0159367
874.065	0.0160546
874.143	0.0158649
874.221	0.0158902
874.299	0.0159251
874.378	0.0159892
874.456	0.0158985
874.534	0.0158648
874.612	0.0158739
874.690	0.0158318
874.768	0.0160706
874.846	0.0161012
874.924	0.0158273
875.003	0.0159481
875.081	0.0158572
875.159	0.0158265
875.237	0.0157974
875.315	0.0159634
875.393	0.0159152
875.471	0.0158156
875.549	0.0157993
875.628	0.0161604
875.706	0.0158720
875.784	0.0158688
875.862	0.0159855
875.940	0.0159830
876.018	0.0158890
876.096	0.0158164
876.174	0.0159823
876.253	0.0160567
876.331	0.0159573
876.409	0.0158369
876.487	0.0158844
876.565	0.0160022
876.643	0.0159587
876.721	0.0160153
876.799	0.0160387
876.878	0.0160403
876.956	0.0160472
877.034	0.0160425
877.112	0.0159297
877.190	0.0159579
877.268	0.0159718
877.346	0.0162052
877.424	0.0159611
877.503	0.0158998
877.581	0.0159174
877.659	0.0159193
877.737	0.0158961
877.815	0.0159184
877.893	0.0158126
877.971	0.0159510
878.049	0.0158595
878.128	0.0157874
878.206	0.0157864
878.284	0.0159761
878.362	0.0159798
878.440	0.0158250
878.518	0.0158923
878.596	0.0158372
878.674	0.0159247
878.753	0.0158702
878.831	0.0160418
878.909	0.0158298
878.987	0.0158445
879.065	0.0160095
879.143	0.0160377
879.221	0.0159163
879.299	0.0159798
879.378	0.0159544
879.456	0.0159465
879.534	0.0159840
879.612	0.0159302
879.690	0.0160853
879.768	0.0159485
879.846	0.0159937
879.924	0.0160336
880.003	0.0161359
880.081	0.0159854
880.159	0.0159528
880.237	0.0159962
880.315	0.0160039
880.393	0.0160752
880.471	0.0159204
880.549	0.0158809
880.628	0.0160041
880.706	0.0158422
880.784	0.0159732
880.862	0.0159823
880.940	0.0161578
881.018	0.0160457
881.096	0.0160435
881.174	0.0160327
881.253	0.0160917
881.331	0.0160802
881.409	0.0160408
881.487	0.0160783
881.565	0.0160573
881.643	0.0159465
881.721	0.0159465
881.799	0.0160419
881.878	0.0159418
881.956	0.0159641
882.034	0.0159496
882.112	0.0159306
882.190	0.0159528
882.268	0.0161238
882.346	0.0158653
882.424	0.0159769
882.503	0.0160967
882.581	0.0160742
882.659	0.0160129
882.737	0.0158595
882.815	0.0160856
882.893	0.0160832
882.971	0.0158738
883.049	0.0159128
883.128	0.0159201
883.206	0.0158558
883.284	0.0159110
883.362	0.0159529
883.440	0.0158564
883.518	0.0158091
883.596	0.0159072
883.674	0.0158143
883.753	0.0159544
883.831	0.0159297
883.909	0.0158391
883.987	0.0158253
884.065	0.0158676
884.143	0.0158356
884.221	0.0159035
884.299	0.0158728
884.378	0.0159229
884.456	0.0160214
884.534	0.0158771
884.612	0.0158271
884.690	0.0160874
884.768	0.0160480
884.846	0.0160032
884.924	0.0159513
885.003	0.0160029
885.081	0.0158858
885.159	0.0159206
885.237	0.0159206
885.315	0.0159849
885.393	0.0159679
885.471	0.0160480
885.549	0.0159766
885.628	0.0160268
885.706	0.0160598
885.784	0.0159886
885.862	0.0159328
885.940	0.0160369
886.018	0.0159921
886.096	0.0160220
886.174	0.0159512
886.253	0.0158727
886.331	0.0160738
886.409	0.0160740
886.487	0.0158792
886.565	0.0159509
886.643	0.0159856
886.721	0.0160167
886.799	0.0159215
886.878	0.0158867
886.956	0.0158697
887.034	0.0159534
887.112	0.0160357
887.190	0.0159940
887.268	0.0158468
887.346	0.0157877
887.424	0.0159007
887.503	0.0158002
887.581	0.0158963
887.659	0.0159435
887.737	0.0156587
887.815	0.0158119
887.893	0.0158730
887.971	0.0157886
888.049	0.0158813
888.128	0.0158119
888.206	0.0157154
888.284	0.0158955
888.362	0.0158654
888.440	0.0157993
888.518	0.0159333
888.596	0.0160565
888.674	0.0159541
888.753	0.0158919
888.831	0.0160571
888.909	0.0159590
888.987	0.0161651
889.065	0.0158440
889.143	0.0160651
889.221	0.0160184
889.299	0.0161047
889.378	0.0160996
889.456	0.0160117
889.534	0.0160744
889.612	0.0160741
889.690	0.0160753
889.768	0.0160098
889.846	0.0160301
889.924	0.0159713
890.003	0.0159574
890.081	0.0159267
890.159	0.0158985
890.237	0.0158505
890.315	0.0157821
890.393	0.0159513
890.471	0.0160257
890.549	0.0160603
890.628	0.0158731
890.706	0.0157679
890.784	0.0158041
890.862	0.0158727
890.940	0.0158201
891.018	0.0159427
891.096	0.0159460
891.174	0.0159515
891.253	0.0157795
891.331	0.0159767
891.409	0.0160419
891.487	0.0158386
891.565	0.0158443
891.643	0.0160298
891.721	0.0159550
891.799	0.0159367
891.878	0.0158869
891.956	0.0159958
892.034	0.0159877
892.112	0.0159187
892.190	0.0160368
892.268	0.0160397
892.346	0.0159255
892.424	0.0159222
892.503	0.0159537
892.581	0.0159876
892.659	0.0159624
892.737	0.0159785
892.815	0.0159679
892.893	0.0159353
892.971	0.0159828
893.049	0.0160129
893.128	0.0160179
893.206	0.0159322
893.284	0.0159441
893.362	0.0160014
893.440	0.0159497
893.518	0.0160261
893.596	0.0159615
893.674	0.0159547
893.753	0.0159206
893.831	0.0159676
893.909	0.0158994
893.987	0.0159792
894.065	0.0159808
894.143	0.0159616
894.221	0.0158531
894.299	0.0158279
894.378	0.0158559
894.456	0.0157442
894.534	0.0157475
894.612	0.0158382
894.690	0.0157446
894.768	0.0158215
894.846	0.0160577
894.924	0.0159190
895.003	0.0157838
895.081	0.0158212
895.159	0.0159122
895.237	0.0159216
895.315	0.0158192
895.393	0.0158886
895.471	0.0158298
895.549	0.0157661
895.628	0.0158396
895.706	0.0158681
895.784	0.0158763
895.862	0.0157884
895.940	0.0158355
896.018	0.0160007
896.096	0.0159859
896.174	0.0158797
896.253	0.0159657
896.331	0.0160387
896.409	0.0159995
896.487	0.0160731
896.565	0.0159064
896.643	0.0161229
896.721	0.0160869
896.799	0.0159721
896.878	0.0160172
896.956	0.0161270
897.034	0.0160949
897.112	0.0159503
897.190	0.0159387
897.268	0.0160633
897.346	0.0159824
897.424	0.0159307
897.503	0.0160476
897.581	0.0161308
897.659	0.0159670
897.737	0.0159975
897.815	0.0158605
897.893	0.0159969
897.971	0.0159502
898.049	0.0159595
898.128	0.0159076
898.206	0.0159316
898.284	0.0158468
898.362	0.0159099
898.440	0.0159675
898.518	0.0159096
898.596	0.0158733
898.674	0.0157410
898.753	0.0159232
898.831	0.0159987
898.909	0.0158141
898.987	0.0158484
899.065	0.0159483
899.143	0.0158126
899.221	0.0158195
899.299	0.0159521
899.378	0.0158638
899.456	0.0158728
899.534	0.0156783
899.612	0.0158111
899.690	0.0158189
899.768	0.0156776
899.846	0.0157813
899.924	0.0157579
900.003	0.0158891
900.081	0.0159334
900.159	0.0159463
900.237	0.0160055
900.315	0.0161069
900.393	0.0158540
900.471	0.0158556
900.549	0.0160056
900.628	0.0159689
900.706	0.0160448
900.784	0.0161272
900.862	0.0161619
900.940	0.0158973
901.018	0.0161047
901.096	0.0161083
901.174	0.0159850
901.253	0.0160452
901.331	0.0160788
901.409	0.0160158
901.487	0.0159832
901.565	0.0159722
901.643	0.0159669
901.721	0.0160693
901.799	0.0159929
901.878	0.0159712
901.956	0.0158683
902.034	0.0159803
902.112	0.0161246
902.190	0.0160564
902.268	0.0160919
902.346	0.0160839
902.424	0.0161138
902.503	0.0159261
902.581	0.0160352
902.659	0.0160319
902.737	0.0159347
902.815	0.0158482
902.893	0.0159659
902.971	0.0158336
903.049	0.0159119
903.128	0.0159010
903.206	0.0158762
903.284	0.0157605
903.362	0.0159013
903.440	0.0160175
903.518	0.0159538
903.596	0.0159301
903.674	0.0160122
903.753	0.0159589
903.831	0.0158997
903.909	0.0159649
903.987	0.0159109
904.065	0.0158462
904.143	0.0158979
904.221	0.0159452
904.299	0.0158627
904.378	0.0158797
904.456	0.0158744
904.534	0.0159067
904.612	0.0158085
904.690	0.0157935
904.768	0.0159702
904.846	0.0159099
904.924	0.0159998
905.003	0.0160424
905.081	0.0160595
905.159	0.0160265
905.237	0.0161617
905.315	0.0160500
905.393	0.0161245
905.471	0.0160409
905.549	0.0160655
905.628	0.0162271
905.706	0.0160320
905.784	0.0159982
905.862	0.0159261
905.940	0.0159874
906.018	0.0159358
906.096	0.0159497
906.174	0.0159056
906.253	0.0161253
906.331	0.0159349
906.409	0.0159516
906.487	0.0159359
906.565	0.0159389
906.643	0.0159545
906.721	0.0158035
906.799	0.0158707
906.878	0.0160723
906.956	0.0160001
907.034	0.0159599
907.112	0.0157860
907.190	0.0159241
907.268	0.0159619
907.346	0.0158749
907.424	0.0159104
907.503	0.0158028
907.581	0.0156622
907.659	0.0158658
907.737	0.0158804
907.815	0.0159439
907.893	0.0157752
907.971	0.0159913
908.049	0.0160236
908.128	0.0159406
908.206	0.0160450
908.284	0.0160069
908.362	0.0159570
908.440	0.0158945
908.518	0.0158447
908.596	0.0158508
908.674	0.0159348
908.753	0.0159585
908.831	0.0159796
908.909	0.0161105
908.987	0.0162244
909.065	0.0160741
909.143	0.0160737
909.221	0.0161170
909.299	0.0161250
909.378	0.0162315
909.456	0.0161363
909.534	0.0161858
909.612	0.0161086
909.690	0.0160412
909.768	0.0160900
909.846	0.0161694
909.924	0.0159968
910.003	0.0158884
910.081	0.0159861
910.159	0.0160744
910.237	0.0158766
910.315	0.0159004
910.393	0.0159826
910.471	0.0159528
910.549	0.0160269
910.628	0.0158592
910.706	0.0159740
910.784	0.0158340
910.862	0.0160130
910.940	0.0159269
911.018	0.0159805
911.096	0.0158426
911.174	0.0158452
911.253	0.0159155
911.331	0.0158877
911.409	0.0159052
911.487	0.0158522
911.565	0.0158183
911.643	0.0158611
911.721	0.0157716
911.799	0.0156624
911.878	0.0157527
911.956	0.0157484
912.034	0.0157140
912.112	0.0156947
912.190	0.0156819
912.268	0.0158858
912.346	0.0158266
912.424	0.0158666
912.503	0.0159299
912.581	0.0158797
912.659	0.0159234
912.737	0.0158990
912.815	0.0161190
912.893	0.0160451
912.971	0.0159664
913.049	0.0160206
913.128	0.0160915
913.206	0.0161881
913.284	0.0161687
913.362	0.0161739
913.440	0.0162489
913.518	0.0162002
913.596	0.0162627
913.674	0.0161758
913.753	0.0162043
913.831	0.0162548
913.909	0.0161951
913.987	0.0161497
914.065	0.0158747
914.143	0.0160612
914.221	0.0160001
914.299	0.0158250
914.378	0.0158985
914.456	0.0158031
914.534	0.0157445
914.612	0.0157774
914.690	0.0158426
914.768	0.0157902
914.846	0.0158390
914.924	0.0157423
915.003	0.0158315
915.081	0.0157729
915.159	0.0158386
915.237	0.0158367
915.315	0.0158784
915.393	0.0157047
915.471	0.0159949
915.549	0.0159356
915.628	0.0158250
915.706	0.0157658
915.784	0.0159127
915.862	0.0158441
915.940	0.0157922
916.018	0.0157298
916.096	0.0157821
916.174	0.0158312
916.253	0.0158445
916.331	0.0159010
916.409	0.0160216
916.487	0.0158913
916.565	0.0159714
916.643	0.0160107
916.721	0.0160534
916.799	0.0160948
916.878	0.0161019
916.956	0.0161902
917.034	0.0160670
917.112	0.0160960
917.190	0.0161874
917.268	0.0163448
917.346	0.0161792
917.424	0.0162524
917.503	0.0161438
917.581	0.0160960
917.659	0.0161124
917.737	0.0162934
917.815	0.0161808
917.893	0.0160592
917.971	0.0161058
918.049	0.0160085
918.128	0.0159748
918.206	0.0160072
918.284	0.0158072
918.362	0.0157645
918.440	0.0157492
918.518	0.0155063
918.596	0.0155241
918.674	0.0154662
918.753	0.0155411
918.831	0.0156037
918.909	0.0155667
918.987	0.0154742
919.065	0.0156622
919.143	0.0157899
919.221	0.0156808
919.299	0.0157805
919.378	0.0160694
919.456	0.0159006
919.534	0.0159895
919.612	0.0160647
919.690	0.0161813
919.768	0.0160914
919.846	0.0160309
919.924	0.0160353
920.003	0.0160539
920.081	0.0160558
920.159	0.0159367
920.237	0.0160545
920.315	0.0158806
920.393	0.0158289
920.471	0.0158371
920.549	0.0159945
920.628	0.0158961
920.706	0.0158092
920.784	0.0158701
920.862	0.0158936
920.940	0.0160634
921.018	0.0160033
921.096	0.0160316
921.174	0.0161908
921.253	0.0161781
921.331	0.0162675
921.409	0.0162719
921.487	0.0162034
921.565	0.0163657
921.643	0.0163164
921.721	0.0164011
921.799	0.0163556
921.878	0.0162585
921.956	0.0163120
922.034	0.0161529
922.112	0.0161678
922.190	0.0161247
922.268	0.0160740
922.346	0.0158498
922.424	0.0158353
922.503	0.0156455
922.581	0.0154675
922.659	0.0154624
922.737	0.0155140
922.815	0.0152981
922.893	0.0153730
922.971	0.0154979
923.049	0.0154940
923.128	0.0154863
923.206	0.0155405
923.284	0.0156077
923.362	0.0156949
923.440	0.0156840
923.518	0.0159408
923.596	0.0159593
923.674	0.0161570
923.753	0.0161639
923.831	0.0160051
923.909	0.0159468
923.987	0.0160831
924.065	0.0161410
924.143	0.0160470
924.221	0.0160426
924.299	0.0160641
924.378	0.0159504
924.456	0.0159600
924.534	0.0158557
924.612	0.0159275
924.690	0.0158474
924.768	0.0158385
924.846	0.0159367
924.924	0.0159107
925.003	0.0160143
925.081	0.0159660
925.159	0.0160071
925.237	0.0160841
925.315	0.0162255
925.393	0.0162851
925.471	0.0163355
925.549	0.0163161
925.628	0.0162778
925.706	0.0162833
925.784	0.0164260
925.862	0.0164133
925.940	0.0164490
926.018	0.0162413
926.096	0.0162259
926.174	0.0161382
926.253	0.0160675
926.331	0.0159425
926.409	0.0158961
926.487	0.0158388
926.565	0.0155178
926.643	0.0154993
926.721	0.0156465
926.799	0.0155247
926.878	0.0156661
926.956	0.0155828
927.034	0.0155335
927.112	0.0155956
927.190	0.0156228
927.268	0.0157622
927.346	0.0158375
927.424	0.0158294
927.503	0.0159305
927.581	0.0159573
927.659	0.0159150
927.737	0.0161237
927.815	0.0161418
927.893	0.0162540
927.971	0.0161657
928.049	0.0160750
928.128	0.0161183
928.206	0.0161992
928.284	0.0162297
928.362	0.0161359
928.440	0.0162237
928.518	0.0160899
928.596	0.0161561
928.674	0.0160896
928.753	0.0161679
928.831	0.0160162
928.909	0.0158317
928.987	0.0161031
929.065	0.0158856
929.143	0.0158665
929.221	0.0158019
929.299	0.0158077
929.378	0.0159721
929.456	0.0159254
929.534	0.0160007
929.612	0.0161006
929.690	0.0162909
929.768	0.0161511
929.846	0.0161780
929.924	0.0161895
930.003	0.0163117
930.081	0.0163354
930.159	0.0162769
930.237	0.0162119
930.315	0.0162827
930.393	0.0160846
930.471	0.0162064
930.549	0.0158710
930.628	0.0158626
930.706	0.0157740
930.784	0.0156104
930.862	0.0154722
930.940	0.0155994
931.018	0.0155879
931.096	0.0155320
931.174	0.0154790
931.253	0.0156110
931.331	0.0155776
931.409	0.0157909
931.487	0.0158080
931.565	0.0158324
931.643	0.0159242
931.721	0.0160814
931.799	0.0160921
931.878	0.0161012
931.956	0.0158883
932.034	0.0161932
932.112	0.0163136
932.190	0.0163599
932.268	0.0162836
932.346	0.0161996
932.424	0.0163239
932.503	0.0162508
932.581	0.0161855
932.659	0.0161679
932.737	0.0159843
932.815	0.0160473
932.893	0.0159498
932.971	0.0158799
933.049	0.0158681
933.128	0.0158340
933.206	0.0157259
933.284	0.0157726
933.362	0.0158228
933.440	0.0157324
933.518	0.0155756
933.596	0.0157668
933.674	0.0156687
933.753	0.0158995
933.831	0.0158694
933.909	0.0159361
933.987	0.0161160
934.065	0.0160091
934.143	0.0160384
934.221	0.0159755
934.299	0.0162086
934.378	0.0161755
934.456	0.0160367
934.534	0.0160860
934.612	0.0160624
934.690	0.0161694
934.768	0.0161319
934.846	0.0159531
934.924	0.0161014
935.003	0.0159329
935.081	0.0159515
935.159	0.0159360
935.237	0.0157761
935.315	0.0158762
935.393	0.0159733
935.471	0.0159050
935.549	0.0159690
935.628	0.0157530
935.706	0.0160553
935.784	0.0160552
935.862	0.0161262
935.940	0.0160227
936.018	0.0161677
936.096	0.0160229
936.174	0.0160044
936.253	0.0161190
936.331	0.0161749
936.409	0.0161565
936.487	0.0162646
936.565	0.0161891
936.643	0.0163129
936.721	0.0161920
936.799	0.0161575
936.878	0.0160594
936.956	0.0159947
937.034	0.0158967
937.112	0.0160201
937.190	0.0159964
937.268	0.0158141
937.346	0.0158495
937.424	0.0156650
937.503	0.0157217
937.581	0.0158278
937.659	0.0156382
937.737	0.0156943
937.815	0.0157475
937.893	0.0157501
937.971	0.0159310
938.049	0.0158239
938.128	0.0158897
938.206	0.0159389
938.284	0.0159688
938.362	0.0160223
938.440	0.0160336
938.518	0.0161148
938.596	0.0161604
938.674	0.0160907
938.753	0.0161508
938.831	0.0161775
938.909	0.0162528
938.987	0.0161807
939.065	0.0159858
939.143	0.0158741
939.221	0.0159294
939.299	0.0160409
939.378	0.0158309
939.456	0.0159524
939.534	0.0158320
939.612	0.0159890
939.690	0.0158973
939.768	0.0159152
939.846	0.0158724
939.924	0.0160307
940.003	0.0160069
940.081	0.0161485
940.159	0.0160280
940.237	0.0160251
940.315	0.0159924
940.393	0.0161069
940.471	0.0160684
940.549	0.0160523
940.628	0.0160134
940.706	0.0160785
940.784	0.0161507
940.862	0.0160579
940.940	0.0159735
941.018	0.0161146
941.096	0.0160480
941.174	0.0160541
941.253	0.0159491
941.331	0.0158397
941.409	0.0159781
941.487	0.0159686
941.565	0.0159661
941.643	0.0159226
941.721	0.0158275
941.799	0.0157951
941.878	0.0159702
941.956	0.0159928
942.034	0.0159780
942.112	0.0158482
942.190	0.0158231
942.268	0.0160119
942.346	0.0159353
942.424	0.0160329
942.503	0.0159379
942.581	0.0158739
942.659	0.0159911
942.737	0.0160800
942.815	0.0160168
942.893	0.0160452
942.971	0.0160440
943.049	0.0159545
943.128	0.0159668
943.206	0.0160177
943.284	0.0160588
943.362	0.0160033
943.440	0.0159623
943.518	0.0159064
943.596	0.0160006
943.674	0.0159222
943.753	0.0160613
943.831	0.0159680
943.909	0.0159265
943.987	0.0161022
944.065	0.0159689
944.143	0.0159778
944.221	0.0159971
944.299	0.0159661
944.378	0.0159645
944.456	0.0159295
944.534	0.0159956
944.612	0.0159167
944.690	0.0159864
944.768	0.0160507
944.846	0.0160736
944.924	0.0160487
945.003	0.0160961
945.081	0.0159614
945.159	0.0161011
945.237	0.0161472
945.315	0.0160503
945.393	0.0160048
945.471	0.0160528
945.549	0.0159039
945.628	0.0160445
945.706	0.0160134
945.784	0.0160174
945.862	0.0159524
945.940	0.0159648
946.018	0.0160063
946.096	0.0159499
946.174	0.0160518
946.253	0.0160607
946.331	0.0159679
946.409	0.0159789
946.487	0.0159502
946.565	0.0160934
946.643	0.0160513
946.721	0.0160194
946.799	0.0160122
946.878	0.0160184
946.956	0.0160714
947.034	0.0160316
947.112	0.0158543
947.190	0.0159179
947.268	0.0160439
947.346	0.0160834
947.424	0.0158982
947.503	0.0158738
947.581	0.0159742
947.659	0.0159550
947.737	0.0159903
947.815	0.0159809
947.893	0.0159039
947.971	0.0158536
948.049	0.0159239
948.128	0.0159567
948.206	0.0159732
948.284	0.0158640
948.362	0.0159251
948.440	0.0158786
948.518	0.0159214
948.596	0.0158355
948.674	0.0160207
948.753	0.0161719
948.831	0.0159789
948.909	0.0159934
948.987	0.0160964
949.065	0.0160735
949.143	0.0160682
949.221	0.0159980
949.299	0.0160856
949.378	0.0160520
949.456	0.0158616
949.534	0.0160688
949.612	0.0159771
949.690	0.0160757
949.768	0.0159894
949.846	0.0159731
949.924	0.0158997
