06/29/2022	22:52:35	Ver.	4.1	UNKNOWN
Optical Delay	630.002507	Delta X		0.078125	Sweeps	1	Scan Rate	0/0
Coordinates	Axis 1	NaN	Axis 2	NaN	Axis 3	NaN	Axis 4	NaN	Axis 5	NaN	Axis 6	0.000000
TX Power	0.000000	RX Power	0.000000

630.003	0.0157683
630.081	0.0158072
630.159	0.0158706
630.237	0.0157088
630.315	0.0158063
630.393	0.0158009
630.471	0.0156752
630.549	0.0159246
630.628	0.0157288
630.706	0.0158242
630.784	0.0157523
630.862	0.0159029
630.940	0.0157478
631.018	0.0158197
631.096	0.0157476
631.174	0.0158193
631.253	0.0157425
631.331	0.0157766
631.409	0.0156930
631.487	0.0159171
631.565	0.0157177
631.643	0.0157662
631.721	0.0158564
631.799	0.0158062
631.878	0.0157663
631.956	0.0158537
632.034	0.0158629
632.112	0.0157787
632.190	0.0156926
632.268	0.0158786
632.346	0.0158640
632.424	0.0157652
632.503	0.0157579
632.581	0.0157398
632.659	0.0157304
632.737	0.0157203
632.815	0.0156937
632.893	0.0157111
632.971	0.0157345
633.049	0.0158327
633.128	0.0157822
633.206	0.0156592
633.284	0.0157165
633.362	0.0158289
633.440	0.0157403
633.518	0.0156458
633.596	0.0158060
633.674	0.0157281
633.753	0.0158864
633.831	0.0157352
633.909	0.0158010
633.987	0.0157526
634.065	0.0156477
634.143	0.0156652
634.221	0.0157822
634.299	0.0156109
634.378	0.0157568
634.456	0.0157587
634.534	0.0158046
634.612	0.0157430
634.690	0.0158742
634.768	0.0158572
634.846	0.0158719
634.924	0.0157697
635.003	0.0158304
635.081	0.0157329
635.159	0.0157783
635.237	0.0156464
635.315	0.0157991
635.393	0.0157423
635.471	0.0157977
635.549	0.0157326
635.628	0.0158913
635.706	0.0157573
635.784	0.0158703
635.862	0.0158160
635.940	0.0157079
636.018	0.0156924
636.096	0.0156976
636.174	0.0158911
636.253	0.0157404
636.331	0.0157513
636.409	0.0158134
636.487	0.0156851
636.565	0.0157739
636.643	0.0156858
636.721	0.0156986
636.799	0.0157557
636.878	0.0157432
636.956	0.0159060
637.034	0.0157113
637.112	0.0157361
637.190	0.0156528
637.268	0.0156833
637.346	0.0156592
637.424	0.0157765
637.503	0.0157778
637.581	0.0157642
637.659	0.0157599
637.737	0.0156767
637.815	0.0156886
637.893	0.0158482
637.971	0.0158475
638.049	0.0158195
638.128	0.0158421
638.206	0.0157784
638.284	0.0157971
638.362	0.0157807
638.440	0.0155981
638.518	0.0158039
638.596	0.0158573
638.674	0.0157876
638.753	0.0157850
638.831	0.0157230
638.909	0.0157612
638.987	0.0157109
639.065	0.0156470
639.143	0.0157549
639.221	0.0157877
639.299	0.0157626
639.378	0.0157420
639.456	0.0157727
639.534	0.0158951
639.612	0.0157581
639.690	0.0158092
639.768	0.0158008
639.846	0.0157642
639.924	0.0157161
640.003	0.0157076
640.081	0.0157761
640.159	0.0156961
640.237	0.0156992
640.315	0.0157981
640.393	0.0157455
640.471	0.0156734
640.549	0.0157739
640.628	0.0157910
640.706	0.0158930
640.784	0.0159059
640.862	0.0158150
640.940	0.0157934
641.018	0.0158256
641.096	0.0158020
641.174	0.0157061
641.253	0.0157641
641.331	0.0157922
641.409	0.0158561
641.487	0.0158163
641.565	0.0157578
641.643	0.0157448
641.721	0.0158499
641.799	0.0157742
641.878	0.0157460
641.956	0.0157235
642.034	0.0158322
642.112	0.0157739
642.190	0.0157507
642.268	0.0157098
642.346	0.0158370
642.424	0.0157813
642.503	0.0158418
642.581	0.0157314
642.659	0.0157276
642.737	0.0158217
642.815	0.0157764
642.893	0.0157732
642.971	0.0157531
643.049	0.0158478
643.128	0.0157762
643.206	0.0158293
643.284	0.0157703
643.362	0.0156015
643.440	0.0157465
643.518	0.0159669
643.596	0.0157791
643.674	0.0157227
643.753	0.0157809
643.831	0.0157557
643.909	0.0157851
643.987	0.0157166
644.065	0.0157967
644.143	0.0157194
644.221	0.0157829
644.299	0.0158640
644.378	0.0156469
644.456	0.0157294
644.534	0.0158241
644.612	0.0156526
644.690	0.0157951
644.768	0.0157465
644.846	0.0157027
644.924	0.0156702
645.003	0.0157537
645.081	0.0157240
645.159	0.0155493
645.237	0.0156043
645.315	0.0157694
645.393	0.0156831
645.471	0.0157155
645.549	0.0157468
645.628	0.0156912
645.706	0.0158027
645.784	0.0157459
645.862	0.0157524
645.940	0.0157956
646.018	0.0156718
646.096	0.0156857
646.174	0.0158213
646.253	0.0155926
646.331	0.0158177
646.409	0.0158617
646.487	0.0157879
646.565	0.0157446
646.643	0.0158647
646.721	0.0158195
646.799	0.0157464
646.878	0.0157317
646.956	0.0158264
647.034	0.0157272
647.112	0.0156884
647.190	0.0158121
647.268	0.0156344
647.346	0.0156519
647.424	0.0157478
647.503	0.0157154
647.581	0.0158275
647.659	0.0158034
647.737	0.0157695
647.815	0.0157607
647.893	0.0157938
647.971	0.0157671
648.049	0.0158628
648.128	0.0157818
648.206	0.0157703
648.284	0.0157486
648.362	0.0155301
648.440	0.0155621
648.518	0.0158308
648.596	0.0157827
648.674	0.0157455
648.753	0.0158560
648.831	0.0157285
648.909	0.0157617
648.987	0.0156892
649.065	0.0157623
649.143	0.0157567
649.221	0.0157154
649.299	0.0156294
649.378	0.0157514
649.456	0.0156561
649.534	0.0156824
649.612	0.0156455
649.690	0.0156155
649.768	0.0157850
649.846	0.0158008
649.924	0.0156348
650.003	0.0156360
650.081	0.0157699
650.159	0.0158585
650.237	0.0156879
650.315	0.0157684
650.393	0.0157502
650.471	0.0157556
650.549	0.0157422
650.628	0.0156821
650.706	0.0158325
650.784	0.0157179
650.862	0.0157730
650.940	0.0156432
651.018	0.0157874
651.096	0.0158025
651.174	0.0157253
651.253	0.0157991
651.331	0.0157426
651.409	0.0158068
651.487	0.0157664
651.565	0.0157957
651.643	0.0158157
651.721	0.0157101
651.799	0.0157088
651.878	0.0157238
651.956	0.0158179
652.034	0.0157155
652.112	0.0156997
652.190	0.0158322
652.268	0.0157635
652.346	0.0159306
652.424	0.0157471
652.503	0.0156510
652.581	0.0157104
652.659	0.0158160
652.737	0.0157064
652.815	0.0156759
652.893	0.0158617
652.971	0.0157198
653.049	0.0158559
653.128	0.0157075
653.206	0.0156898
653.284	0.0156664
653.362	0.0156503
653.440	0.0156553
653.518	0.0157998
653.596	0.0157800
653.674	0.0157638
653.753	0.0156966
653.831	0.0157979
653.909	0.0158175
653.987	0.0158785
654.065	0.0157205
654.143	0.0156940
654.221	0.0157494
654.299	0.0156522
654.378	0.0158080
654.456	0.0158587
654.534	0.0157777
654.612	0.0156546
654.690	0.0156856
654.768	0.0156429
654.846	0.0158591
654.924	0.0158434
655.003	0.0156496
655.081	0.0157932
655.159	0.0157690
655.237	0.0157588
655.315	0.0157938
655.393	0.0157468
655.471	0.0158007
655.549	0.0159165
655.628	0.0158271
655.706	0.0157014
655.784	0.0157256
655.862	0.0158685
655.940	0.0157255
656.018	0.0157215
656.096	0.0157323
656.174	0.0157613
656.253	0.0156602
656.331	0.0158023
656.409	0.0158360
656.487	0.0156855
656.565	0.0157175
656.643	0.0157607
656.721	0.0158262
656.799	0.0156907
656.878	0.0157507
656.956	0.0157890
657.034	0.0157066
657.112	0.0157079
657.190	0.0157062
657.268	0.0156676
657.346	0.0157419
657.424	0.0157390
657.503	0.0156839
657.581	0.0157663
657.659	0.0156688
657.737	0.0157349
657.815	0.0159290
657.893	0.0157561
657.971	0.0156950
658.049	0.0157207
658.128	0.0157457
658.206	0.0157742
658.284	0.0158101
658.362	0.0157321
658.440	0.0157101
658.518	0.0158304
658.596	0.0158614
658.674	0.0158096
658.753	0.0157400
658.831	0.0157150
658.909	0.0158119
658.987	0.0158759
659.065	0.0158415
659.143	0.0158388
659.221	0.0158430
659.299	0.0157519
659.378	0.0157974
659.456	0.0158083
659.534	0.0158057
659.612	0.0158811
659.690	0.0157775
659.768	0.0157449
659.846	0.0158913
659.924	0.0158850
660.003	0.0157722
660.081	0.0157750
660.159	0.0157940
660.237	0.0157793
660.315	0.0157019
660.393	0.0157465
660.471	0.0159075
660.549	0.0156896
660.628	0.0157427
660.706	0.0157253
660.784	0.0156346
660.862	0.0156051
660.940	0.0157711
661.018	0.0156400
661.096	0.0157738
661.174	0.0157742
661.253	0.0157964
661.331	0.0158794
661.409	0.0158174
661.487	0.0157333
661.565	0.0156572
661.643	0.0157902
661.721	0.0158786
661.799	0.0157214
661.878	0.0157030
661.956	0.0157317
662.034	0.0156817
662.112	0.0157458
662.190	0.0156886
662.268	0.0157507
662.346	0.0157675
662.424	0.0156200
662.503	0.0158104
662.581	0.0158281
662.659	0.0157385
662.737	0.0158548
662.815	0.0157157
662.893	0.0156347
662.971	0.0158435
663.049	0.0157925
663.128	0.0158794
663.206	0.0157799
663.284	0.0155124
663.362	0.0158797
663.440	0.0157895
663.518	0.0157618
663.596	0.0158007
663.674	0.0156942
663.753	0.0156536
663.831	0.0158754
663.909	0.0157594
663.987	0.0157362
664.065	0.0157990
664.143	0.0157391
664.221	0.0157400
664.299	0.0158352
664.378	0.0157516
664.456	0.0157741
664.534	0.0158125
664.612	0.0156597
664.690	0.0157571
664.768	0.0158501
664.846	0.0156239
664.924	0.0155690
665.003	0.0157558
665.081	0.0158450
665.159	0.0156892
665.237	0.0157867
665.315	0.0156777
665.393	0.0155285
665.471	0.0158107
665.549	0.0157737
665.628	0.0157735
665.706	0.0158044
665.784	0.0157349
665.862	0.0157977
665.940	0.0158844
666.018	0.0157439
666.096	0.0157532
666.174	0.0157493
666.253	0.0157034
666.331	0.0157623
666.409	0.0156766
666.487	0.0157449
666.565	0.0156828
666.643	0.0157669
666.721	0.0156924
666.799	0.0158310
666.878	0.0156396
666.956	0.0155844
667.034	0.0157130
667.112	0.0156633
667.190	0.0158722
667.268	0.0157046
667.346	0.0157149
667.424	0.0157357
667.503	0.0157539
667.581	0.0157692
667.659	0.0157668
667.737	0.0156369
667.815	0.0157301
667.893	0.0158183
667.971	0.0157148
668.049	0.0157816
668.128	0.0156953
668.206	0.0158497
668.284	0.0157852
668.362	0.0157304
668.440	0.0157999
668.518	0.0157545
668.596	0.0157172
668.674	0.0157408
668.753	0.0157570
668.831	0.0157212
668.909	0.0156818
668.987	0.0158345
669.065	0.0158383
669.143	0.0158374
669.221	0.0157677
669.299	0.0156559
669.378	0.0156905
669.456	0.0156757
669.534	0.0157294
669.612	0.0157118
669.690	0.0157926
669.768	0.0156864
669.846	0.0158987
669.924	0.0159153
670.003	0.0157368
670.081	0.0158440
670.159	0.0155338
670.237	0.0156380
670.315	0.0158920
670.393	0.0158059
670.471	0.0158370
670.549	0.0156706
670.628	0.0157601
670.706	0.0158560
670.784	0.0158743
670.862	0.0156707
670.940	0.0157056
671.018	0.0157272
671.096	0.0157111
671.174	0.0158018
671.253	0.0155759
671.331	0.0157642
671.409	0.0158594
671.487	0.0157677
671.565	0.0157352
671.643	0.0156023
671.721	0.0157929
671.799	0.0157891
671.878	0.0157260
671.956	0.0158195
672.034	0.0157158
672.112	0.0158397
672.190	0.0158048
672.268	0.0157207
672.346	0.0156174
672.424	0.0156445
672.503	0.0159386
672.581	0.0157386
672.659	0.0157194
672.737	0.0158056
672.815	0.0158276
672.893	0.0156457
672.971	0.0157472
673.049	0.0156837
673.128	0.0158754
673.206	0.0157463
673.284	0.0159003
673.362	0.0156769
673.440	0.0157367
673.518	0.0157241
673.596	0.0157082
673.674	0.0157371
673.753	0.0158679
673.831	0.0157889
673.909	0.0156698
673.987	0.0158386
674.065	0.0156162
674.143	0.0158624
674.221	0.0158177
674.299	0.0158070
674.378	0.0158718
674.456	0.0157562
674.534	0.0157826
674.612	0.0157669
674.690	0.0159492
674.768	0.0157784
674.846	0.0157070
674.924	0.0158383
675.003	0.0157906
675.081	0.0157829
675.159	0.0157555
675.237	0.0157202
675.315	0.0158326
675.393	0.0157193
675.471	0.0157762
675.549	0.0156857
675.628	0.0157946
675.706	0.0156143
675.784	0.0157091
675.862	0.0157589
675.940	0.0156860
676.018	0.0157793
676.096	0.0157913
676.174	0.0157559
676.253	0.0158392
676.331	0.0156040
676.409	0.0157192
676.487	0.0157711
676.565	0.0157276
676.643	0.0157689
676.721	0.0158034
676.799	0.0157274
676.878	0.0157123
676.956	0.0158357
677.034	0.0157005
677.112	0.0156071
677.190	0.0157454
677.268	0.0157995
677.346	0.0156844
677.424	0.0157306
677.503	0.0158761
677.581	0.0158546
677.659	0.0157816
677.737	0.0157495
677.815	0.0158372
677.893	0.0156750
677.971	0.0157443
678.049	0.0157837
678.128	0.0157939
678.206	0.0157827
678.284	0.0158141
678.362	0.0157614
678.440	0.0157806
678.518	0.0158671
678.596	0.0156974
678.674	0.0156881
678.753	0.0157584
678.831	0.0158216
678.909	0.0158363
678.987	0.0157494
679.065	0.0158497
679.143	0.0157132
679.221	0.0157317
679.299	0.0157481
679.378	0.0159307
679.456	0.0157611
679.534	0.0157611
679.612	0.0157584
679.690	0.0156898
679.768	0.0157642
679.846	0.0158292
679.924	0.0158511
680.003	0.0156236
680.081	0.0157292
680.159	0.0156715
680.237	0.0158534
680.315	0.0157486
680.393	0.0156361
680.471	0.0158604
680.549	0.0158047
680.628	0.0157495
680.706	0.0159147
680.784	0.0158297
680.862	0.0158685
680.940	0.0158279
681.018	0.0157848
681.096	0.0158042
681.174	0.0156577
681.253	0.0157571
681.331	0.0156973
681.409	0.0157635
681.487	0.0158068
681.565	0.0157042
681.643	0.0158572
681.721	0.0158233
681.799	0.0156645
681.878	0.0157924
681.956	0.0158326
682.034	0.0157733
682.112	0.0158047
682.190	0.0159045
682.268	0.0158746
682.346	0.0155986
682.424	0.0157705
682.503	0.0157296
682.581	0.0157417
682.659	0.0157574
682.737	0.0157684
682.815	0.0156535
682.893	0.0157514
682.971	0.0156831
683.049	0.0157603
683.128	0.0157431
683.206	0.0159319
683.284	0.0159084
683.362	0.0158550
683.440	0.0156934
683.518	0.0157507
683.596	0.0158326
683.674	0.0157661
683.753	0.0157620
683.831	0.0157031
683.909	0.0158859
683.987	0.0157269
684.065	0.0157223
684.143	0.0158238
684.221	0.0157478
684.299	0.0157453
684.378	0.0157151
684.456	0.0157001
684.534	0.0156557
684.612	0.0156164
684.690	0.0157961
684.768	0.0158237
684.846	0.0157777
684.924	0.0157368
685.003	0.0157740
685.081	0.0158491
685.159	0.0158401
685.237	0.0158223
685.315	0.0157635
685.393	0.0156316
685.471	0.0157330
685.549	0.0160195
685.628	0.0158742
685.706	0.0157056
685.784	0.0158043
685.862	0.0158216
685.940	0.0158126
686.018	0.0157713
686.096	0.0157184
686.174	0.0156816
686.253	0.0157141
686.331	0.0158318
686.409	0.0157709
686.487	0.0158305
686.565	0.0158202
686.643	0.0157929
686.721	0.0157294
686.799	0.0158456
686.878	0.0157866
686.956	0.0158131
687.034	0.0156495
687.112	0.0157726
687.190	0.0157839
687.268	0.0158695
687.346	0.0158094
687.424	0.0157248
687.503	0.0158550
687.581	0.0158140
687.659	0.0157383
687.737	0.0157938
687.815	0.0157405
687.893	0.0157944
687.971	0.0158071
688.049	0.0157757
688.128	0.0157352
688.206	0.0156095
688.284	0.0157688
688.362	0.0157140
688.440	0.0158072
688.518	0.0157974
688.596	0.0157631
688.674	0.0156849
688.753	0.0157143
688.831	0.0158441
688.909	0.0157585
688.987	0.0157810
689.065	0.0158826
689.143	0.0157318
689.221	0.0157713
689.299	0.0157311
689.378	0.0157562
689.456	0.0157430
689.534	0.0156779
689.612	0.0156953
689.690	0.0156293
689.768	0.0156379
689.846	0.0159225
689.924	0.0157209
690.003	0.0157195
690.081	0.0157940
690.159	0.0157675
690.237	0.0156255
690.315	0.0158112
690.393	0.0156842
690.471	0.0157845
690.549	0.0156546
690.628	0.0158231
690.706	0.0157310
690.784	0.0157857
690.862	0.0157237
690.940	0.0158694
691.018	0.0158858
691.096	0.0157507
691.174	0.0157651
691.253	0.0158872
691.331	0.0157847
691.409	0.0158501
691.487	0.0156953
691.565	0.0157442
691.643	0.0157699
691.721	0.0157790
691.799	0.0158663
691.878	0.0158756
691.956	0.0156326
692.034	0.0158574
692.112	0.0157800
692.190	0.0157253
692.268	0.0158466
692.346	0.0158001
692.424	0.0157939
692.503	0.0158942
692.581	0.0157356
692.659	0.0157458
692.737	0.0158356
692.815	0.0158105
692.893	0.0157591
692.971	0.0158041
693.049	0.0156077
693.128	0.0158595
693.206	0.0157652
693.284	0.0158985
693.362	0.0158529
693.440	0.0157230
693.518	0.0156586
693.596	0.0158614
693.674	0.0158882
693.753	0.0158923
693.831	0.0158320
693.909	0.0158398
693.987	0.0157932
694.065	0.0157940
694.143	0.0157643
694.221	0.0157458
694.299	0.0158141
694.378	0.0158771
694.456	0.0157665
694.534	0.0157506
694.612	0.0157803
694.690	0.0157408
694.768	0.0158988
694.846	0.0158116
694.924	0.0158788
695.003	0.0158034
695.081	0.0158676
695.159	0.0157287
695.237	0.0156646
695.315	0.0158161
695.393	0.0159611
695.471	0.0158784
695.549	0.0159194
695.628	0.0157998
695.706	0.0158211
695.784	0.0158685
695.862	0.0158344
695.940	0.0157224
696.018	0.0157320
696.096	0.0158389
696.174	0.0156394
696.253	0.0157611
696.331	0.0157041
696.409	0.0158492
696.487	0.0157533
696.565	0.0157196
696.643	0.0157932
696.721	0.0158896
696.799	0.0158285
696.878	0.0157693
696.956	0.0157980
697.034	0.0157613
697.112	0.0157446
697.190	0.0158739
697.268	0.0156499
697.346	0.0158131
697.424	0.0156696
697.503	0.0158008
697.581	0.0156523
697.659	0.0156797
697.737	0.0157306
697.815	0.0157620
697.893	0.0157785
697.971	0.0157443
698.049	0.0156462
698.128	0.0157933
698.206	0.0156914
698.284	0.0158532
698.362	0.0158329
698.440	0.0158598
698.518	0.0158449
698.596	0.0158018
698.674	0.0158334
698.753	0.0158281
698.831	0.0157516
698.909	0.0158330
698.987	0.0158531
699.065	0.0157204
699.143	0.0158345
699.221	0.0158981
699.299	0.0158004
699.378	0.0158105
699.456	0.0157887
699.534	0.0157041
699.612	0.0157430
699.690	0.0157571
699.768	0.0158707
699.846	0.0158117
699.924	0.0158382
700.003	0.0156704
700.081	0.0157635
700.159	0.0157214
700.237	0.0158416
700.315	0.0159582
700.393	0.0156431
700.471	0.0158073
700.549	0.0158046
700.628	0.0157550
700.706	0.0157289
700.784	0.0157642
700.862	0.0158350
700.940	0.0158168
701.018	0.0156488
701.096	0.0156846
701.174	0.0157977
701.253	0.0156702
701.331	0.0157695
701.409	0.0157004
701.487	0.0156979
701.565	0.0155571
701.643	0.0157266
701.721	0.0156706
701.799	0.0157505
701.878	0.0156466
701.956	0.0157836
702.034	0.0156094
702.112	0.0156101
702.190	0.0156157
702.268	0.0156528
702.346	0.0158389
702.424	0.0157698
702.503	0.0157212
702.581	0.0155730
702.659	0.0159164
702.737	0.0158445
702.815	0.0157624
702.893	0.0158009
702.971	0.0156156
703.049	0.0158540
703.128	0.0158414
703.206	0.0158445
703.284	0.0158957
703.362	0.0157616
703.440	0.0157632
703.518	0.0156750
703.596	0.0156540
703.674	0.0158315
703.753	0.0157598
703.831	0.0158015
703.909	0.0157905
703.987	0.0158092
704.065	0.0159084
704.143	0.0158511
704.221	0.0158281
704.299	0.0159238
704.378	0.0159191
704.456	0.0156731
704.534	0.0156578
704.612	0.0158336
704.690	0.0157314
704.768	0.0156520
704.846	0.0155080
704.924	0.0156854
705.003	0.0156253
705.081	0.0156657
705.159	0.0156998
705.237	0.0156794
705.315	0.0156950
705.393	0.0157427
705.471	0.0157784
705.549	0.0157622
705.628	0.0156780
705.706	0.0157526
705.784	0.0156193
705.862	0.0155671
705.940	0.0156013
706.018	0.0155043
706.096	0.0155241
706.174	0.0155720
706.253	0.0157193
706.331	0.0155801
706.409	0.0156461
706.487	0.0157014
706.565	0.0155339
706.643	0.0155717
706.721	0.0158019
706.799	0.0157111
706.878	0.0158197
706.956	0.0158081
707.034	0.0157228
707.112	0.0159247
707.190	0.0159101
707.268	0.0158940
707.346	0.0158894
707.424	0.0158463
707.503	0.0159121
707.581	0.0157835
707.659	0.0156908
707.737	0.0155649
707.815	0.0155175
707.893	0.0154004
707.971	0.0154476
708.049	0.0154615
708.128	0.0154185
708.206	0.0154710
708.284	0.0156390
708.362	0.0156150
708.440	0.0158794
708.518	0.0160727
708.596	0.0159734
708.674	0.0162151
708.753	0.0161094
708.831	0.0161366
708.909	0.0161121
708.987	0.0159125
709.065	0.0158795
709.143	0.0157191
709.221	0.0156268
709.299	0.0154211
709.378	0.0154279
709.456	0.0154204
709.534	0.0154579
709.612	0.0153822
709.690	0.0153082
709.768	0.0155804
709.846	0.0154967
709.924	0.0157134
710.003	0.0160700
710.081	0.0160297
710.159	0.0163072
710.237	0.0163915
710.315	0.0163344
710.393	0.0163591
710.471	0.0162380
710.549	0.0162841
710.628	0.0162017
710.706	0.0160581
710.784	0.0158813
710.862	0.0158050
710.940	0.0156770
711.018	0.0154672
711.096	0.0154678
711.174	0.0152719
711.253	0.0152623
711.331	0.0154408
711.409	0.0153645
711.487	0.0154948
711.565	0.0155971
711.643	0.0156673
711.721	0.0159609
711.799	0.0162188
711.878	0.0162402
711.956	0.0162312
712.034	0.0162002
712.112	0.0163456
712.190	0.0161623
712.268	0.0158896
712.346	0.0158818
712.424	0.0157562
712.503	0.0157222
712.581	0.0154996
712.659	0.0155154
712.737	0.0152373
712.815	0.0152097
712.893	0.0151896
712.971	0.0153698
713.049	0.0154266
713.128	0.0156390
713.206	0.0155891
713.284	0.0157739
713.362	0.0158033
713.440	0.0158463
713.518	0.0158717
713.596	0.0159701
713.674	0.0160535
713.753	0.0160156
713.831	0.0159655
713.909	0.0161385
713.987	0.0159760
714.065	0.0160294
714.143	0.0161340
714.221	0.0162402
714.299	0.0160528
714.378	0.0160976
714.456	0.0158517
714.534	0.0157310
714.612	0.0156890
714.690	0.0155975
714.768	0.0155150
714.846	0.0153563
714.924	0.0153912
715.003	0.0154188
715.081	0.0154792
715.159	0.0154550
715.237	0.0154753
715.315	0.0155538
715.393	0.0158082
715.471	0.0159387
715.549	0.0160620
715.628	0.0160408
715.706	0.0161278
715.784	0.0162568
715.862	0.0161493
715.940	0.0160036
716.018	0.0161140
716.096	0.0158487
716.174	0.0157594
716.253	0.0156386
716.331	0.0154594
716.409	0.0154331
716.487	0.0152953
716.565	0.0152495
716.643	0.0153733
716.721	0.0154270
716.799	0.0154630
716.878	0.0155074
716.956	0.0156889
717.034	0.0157973
717.112	0.0159776
717.190	0.0160594
717.268	0.0160670
717.346	0.0162701
717.424	0.0163026
717.503	0.0165735
717.581	0.0164915
717.659	0.0162633
717.737	0.0162971
717.815	0.0163570
717.893	0.0161299
717.971	0.0161537
718.049	0.0158349
718.128	0.0156805
718.206	0.0155172
718.284	0.0154418
718.362	0.0153649
718.440	0.0150525
718.518	0.0148518
718.596	0.0149617
718.674	0.0149641
718.753	0.0149918
718.831	0.0151078
718.909	0.0153642
718.987	0.0152844
719.065	0.0154205
719.143	0.0155262
719.221	0.0158029
719.299	0.0159000
719.378	0.0161253
719.456	0.0164126
719.534	0.0164968
719.612	0.0163995
719.690	0.0165556
719.768	0.0166347
719.846	0.0164890
719.924	0.0166230
720.003	0.0163012
720.081	0.0161369
720.159	0.0158180
720.237	0.0157912
720.315	0.0155232
720.393	0.0153242
720.471	0.0149561
720.549	0.0147918
720.628	0.0145743
720.706	0.0146354
720.784	0.0147411
720.862	0.0148401
720.940	0.0149975
721.018	0.0151496
721.096	0.0154052
721.174	0.0153754
721.253	0.0158328
721.331	0.0159724
721.409	0.0160004
721.487	0.0161627
721.565	0.0163841
721.643	0.0162952
721.721	0.0162910
721.799	0.0164050
721.878	0.0162566
721.956	0.0162498
722.034	0.0163943
722.112	0.0161741
722.190	0.0162537
722.268	0.0163760
722.346	0.0163881
722.424	0.0162698
722.503	0.0165019
722.581	0.0167108
722.659	0.0166116
722.737	0.0166965
722.815	0.0166066
722.893	0.0166129
722.971	0.0164434
723.049	0.0163794
723.128	0.0161681
723.206	0.0158494
723.284	0.0155765
723.362	0.0153699
723.440	0.0152245
723.518	0.0149503
723.596	0.0147870
723.674	0.0146663
723.753	0.0148002
723.831	0.0147432
723.909	0.0145561
723.987	0.0146621
724.065	0.0148844
724.143	0.0150572
724.221	0.0150661
724.299	0.0150909
724.378	0.0150214
724.456	0.0151680
724.534	0.0149488
724.612	0.0150452
724.690	0.0149683
724.768	0.0149316
724.846	0.0149896
724.924	0.0148689
725.003	0.0148029
725.081	0.0149411
725.159	0.0151680
725.237	0.0153515
725.315	0.0156489
725.393	0.0159045
725.471	0.0160545
725.549	0.0164587
725.628	0.0167681
725.706	0.0172571
725.784	0.0172700
725.862	0.0174547
725.940	0.0178004
726.018	0.0179703
726.096	0.0179992
726.174	0.0178302
726.253	0.0177183
726.331	0.0174933
726.409	0.0173090
726.487	0.0168794
726.565	0.0166432
726.643	0.0162576
726.721	0.0162997
726.799	0.0160722
726.878	0.0159683
726.956	0.0157813
727.034	0.0158489
727.112	0.0159751
727.190	0.0158977
727.268	0.0158163
727.346	0.0160017
727.424	0.0160010
727.503	0.0158575
727.581	0.0159241
727.659	0.0160007
727.737	0.0158746
727.815	0.0156308
727.893	0.0154145
727.971	0.0152016
728.049	0.0148509
728.128	0.0145491
728.206	0.0141732
728.284	0.0139331
728.362	0.0134890
728.440	0.0132674
728.518	0.0128574
728.596	0.0125390
728.674	0.0123852
728.753	0.0123853
728.831	0.0124208
728.909	0.0125291
728.987	0.0126073
729.065	0.0131705
729.143	0.0135201
729.221	0.0139843
729.299	0.0146722
729.378	0.0152554
729.456	0.0161227
729.534	0.0168449
729.612	0.0175001
729.690	0.0181259
729.768	0.0186884
729.846	0.0192709
729.924	0.0197332
730.003	0.0198579
730.081	0.0199442
730.159	0.0197543
730.237	0.0195122
730.315	0.0190047
730.393	0.0185060
730.471	0.0179873
730.549	0.0173094
730.628	0.0167105
730.706	0.0162605
730.784	0.0158148
730.862	0.0154382
730.940	0.0150752
731.018	0.0149014
731.096	0.0149001
731.174	0.0150964
731.253	0.0152230
731.331	0.0155066
731.409	0.0160008
731.487	0.0160850
731.565	0.0163268
731.643	0.0167027
731.721	0.0168613
731.799	0.0168350
731.878	0.0168492
731.956	0.0166587
732.034	0.0164821
732.112	0.0161971
732.190	0.0159330
732.268	0.0154463
732.346	0.0148776
732.424	0.0141946
732.503	0.0138090
732.581	0.0131435
732.659	0.0126239
732.737	0.0121798
732.815	0.0116354
732.893	0.0113950
732.971	0.0110928
733.049	0.0111377
733.128	0.0111445
733.206	0.0113641
733.284	0.0118641
733.362	0.0122174
733.440	0.0130085
733.518	0.0134844
733.596	0.0143343
733.674	0.0151137
733.753	0.0158793
733.831	0.0166615
733.909	0.0173105
733.987	0.0179890
734.065	0.0185212
734.143	0.0192023
734.221	0.0197142
734.299	0.0199754
734.378	0.0202000
734.456	0.0203835
734.534	0.0202859
734.612	0.0201149
734.690	0.0198958
734.768	0.0194576
734.846	0.0190612
734.924	0.0185636
735.003	0.0179820
735.081	0.0174807
735.159	0.0169009
735.237	0.0163747
735.315	0.0159685
735.393	0.0157214
735.471	0.0154292
735.549	0.0152680
735.628	0.0153149
735.706	0.0154936
735.784	0.0154419
735.862	0.0156404
735.940	0.0156339
736.018	0.0157326
736.096	0.0158946
736.174	0.0156826
736.253	0.0154552
736.331	0.0153779
736.409	0.0152201
736.487	0.0149874
736.565	0.0146880
736.643	0.0144068
736.721	0.0141575
736.799	0.0138081
736.878	0.0133864
736.956	0.0130170
737.034	0.0127995
737.112	0.0124074
737.190	0.0121470
737.268	0.0119908
737.346	0.0119975
737.424	0.0121267
737.503	0.0124392
737.581	0.0126460
737.659	0.0127982
737.737	0.0133495
737.815	0.0138638
737.893	0.0145856
737.971	0.0151762
738.049	0.0158895
738.128	0.0164619
738.206	0.0170306
738.284	0.0175689
738.362	0.0182145
738.440	0.0189158
738.518	0.0192297
738.596	0.0195486
738.674	0.0197952
738.753	0.0197667
738.831	0.0196795
738.909	0.0195318
738.987	0.0189774
739.065	0.0186707
739.143	0.0180322
739.221	0.0175758
739.299	0.0170033
739.378	0.0165240
739.456	0.0161383
739.534	0.0157765
739.612	0.0154044
739.690	0.0152732
739.768	0.0151562
739.846	0.0152641
739.924	0.0153092
740.003	0.0152682
740.081	0.0153622
740.159	0.0155724
740.237	0.0157115
740.315	0.0159827
740.393	0.0160146
740.471	0.0162181
740.549	0.0163895
740.628	0.0164584
740.706	0.0163929
740.784	0.0164655
740.862	0.0162987
740.940	0.0160895
741.018	0.0160711
741.096	0.0158499
741.174	0.0152946
741.253	0.0148894
741.331	0.0145538
741.409	0.0138696
741.487	0.0135538
741.565	0.0130638
741.643	0.0126838
741.721	0.0124194
741.799	0.0119886
741.878	0.0120200
741.956	0.0120050
742.034	0.0122491
742.112	0.0126212
742.190	0.0130169
742.268	0.0134025
742.346	0.0140668
742.424	0.0148517
742.503	0.0153528
742.581	0.0161156
742.659	0.0168372
742.737	0.0174178
742.815	0.0179486
742.893	0.0184829
742.971	0.0185895
743.049	0.0189316
743.128	0.0189857
743.206	0.0189570
743.284	0.0188464
743.362	0.0186950
743.440	0.0183385
743.518	0.0181136
743.596	0.0178197
743.674	0.0171584
743.753	0.0168620
743.831	0.0162760
743.909	0.0158900
743.987	0.0155212
744.065	0.0154261
744.143	0.0151139
744.221	0.0150281
744.299	0.0149655
744.378	0.0150119
744.456	0.0152867
744.534	0.0155168
744.612	0.0157173
744.690	0.0159315
744.768	0.0161987
744.846	0.0162436
744.924	0.0166138
745.003	0.0167968
745.081	0.0167854
745.159	0.0168256
745.237	0.0167661
745.315	0.0165694
745.393	0.0165326
745.471	0.0162916
745.549	0.0157396
745.628	0.0157194
745.706	0.0155859
745.784	0.0151203
745.862	0.0146561
745.940	0.0144828
746.018	0.0141739
746.096	0.0136635
746.174	0.0133871
746.253	0.0134014
746.331	0.0133799
746.409	0.0134227
746.487	0.0135676
746.565	0.0135483
746.643	0.0138501
746.721	0.0140901
746.799	0.0143027
746.878	0.0145417
746.956	0.0148392
747.034	0.0152002
747.112	0.0153375
747.190	0.0156660
747.268	0.0158532
747.346	0.0160535
747.424	0.0163442
747.503	0.0165697
747.581	0.0165887
747.659	0.0167879
747.737	0.0167352
747.815	0.0169523
747.893	0.0170659
747.971	0.0171222
748.049	0.0170615
748.128	0.0173082
748.206	0.0170642
748.284	0.0171680
748.362	0.0170819
748.440	0.0171647
748.518	0.0172189
748.596	0.0170009
748.674	0.0169138
748.753	0.0168454
748.831	0.0167261
748.909	0.0167062
748.987	0.0165970
749.065	0.0164239
749.143	0.0163560
749.221	0.0162614
749.299	0.0162337
749.378	0.0162370
749.456	0.0161263
749.534	0.0159576
749.612	0.0159660
749.690	0.0158862
749.768	0.0156329
749.846	0.0156480
749.924	0.0154068
750.003	0.0153775
750.081	0.0153385
750.159	0.0153530
750.237	0.0149767
750.315	0.0148740
750.393	0.0149838
750.471	0.0148040
750.549	0.0147234
750.628	0.0146802
750.706	0.0145503
750.784	0.0143164
750.862	0.0143336
750.940	0.0142533
751.018	0.0142636
751.096	0.0142457
751.174	0.0143285
751.253	0.0143685
751.331	0.0145142
751.409	0.0145504
751.487	0.0147797
751.565	0.0148994
751.643	0.0151928
751.721	0.0154107
751.799	0.0153981
751.878	0.0156988
751.956	0.0160406
752.034	0.0161855
752.112	0.0162353
752.190	0.0165666
752.268	0.0165838
752.346	0.0168002
752.424	0.0170567
752.503	0.0169086
752.581	0.0169358
752.659	0.0168751
752.737	0.0168922
752.815	0.0168829
752.893	0.0166724
752.971	0.0166106
753.049	0.0165797
753.128	0.0161839
753.206	0.0162966
753.284	0.0161939
753.362	0.0161920
753.440	0.0161059
753.518	0.0163332
753.596	0.0164912
753.674	0.0163955
753.753	0.0164551
753.831	0.0165169
753.909	0.0165329
753.987	0.0163932
754.065	0.0161954
754.143	0.0162749
754.221	0.0163350
754.299	0.0160842
754.378	0.0158196
754.456	0.0157803
754.534	0.0157784
754.612	0.0154413
754.690	0.0155122
754.768	0.0152618
754.846	0.0151131
754.924	0.0150825
755.003	0.0149728
755.081	0.0147749
755.159	0.0148310
755.237	0.0148798
755.315	0.0148354
755.393	0.0148269
755.471	0.0147279
755.549	0.0148898
755.628	0.0152288
755.706	0.0151488
755.784	0.0152029
755.862	0.0153545
755.940	0.0154761
756.018	0.0156684
756.096	0.0157001
756.174	0.0158696
756.253	0.0158522
756.331	0.0157339
756.409	0.0158652
756.487	0.0159251
756.565	0.0159775
756.643	0.0159641
756.721	0.0158736
756.799	0.0158213
756.878	0.0158119
756.956	0.0157912
757.034	0.0157878
757.112	0.0157556
757.190	0.0157076
757.268	0.0157976
757.346	0.0155111
757.424	0.0155604
757.503	0.0155787
757.581	0.0155444
757.659	0.0156878
757.737	0.0158258
757.815	0.0158880
757.893	0.0157852
757.971	0.0159429
758.049	0.0160824
758.128	0.0160092
758.206	0.0158858
758.284	0.0159968
758.362	0.0158778
758.440	0.0159404
758.518	0.0160225
758.596	0.0158332
758.674	0.0159547
758.753	0.0159526
758.831	0.0157872
758.909	0.0160824
758.987	0.0162424
759.065	0.0163054
759.143	0.0162526
759.221	0.0163995
759.299	0.0163154
759.378	0.0165058
759.456	0.0165524
759.534	0.0165733
759.612	0.0165243
759.690	0.0162920
759.768	0.0163898
759.846	0.0162897
759.924	0.0161488
760.003	0.0160165
760.081	0.0156667
760.159	0.0155642
760.237	0.0153950
760.315	0.0153873
760.393	0.0153079
760.471	0.0151036
760.549	0.0149598
760.628	0.0148752
760.706	0.0149704
760.784	0.0149795
760.862	0.0150455
760.940	0.0151337
761.018	0.0152373
761.096	0.0152312
761.174	0.0151968
761.253	0.0154454
761.331	0.0155309
761.409	0.0155245
761.487	0.0155055
761.565	0.0156061
761.643	0.0157046
761.721	0.0156042
761.799	0.0157081
761.878	0.0156794
761.956	0.0154041
762.034	0.0154622
762.112	0.0154232
762.190	0.0153799
762.268	0.0153474
762.346	0.0153029
762.424	0.0154179
762.503	0.0155389
762.581	0.0153809
762.659	0.0154554
762.737	0.0154800
762.815	0.0154728
762.893	0.0158080
762.971	0.0157444
763.049	0.0158751
763.128	0.0160878
763.206	0.0162151
763.284	0.0161974
763.362	0.0164020
763.440	0.0163129
763.518	0.0164495
763.596	0.0163725
763.674	0.0164064
763.753	0.0163582
763.831	0.0163301
763.909	0.0160032
763.987	0.0160417
764.065	0.0160036
764.143	0.0158374
764.221	0.0157114
764.299	0.0158025
764.378	0.0155548
764.456	0.0156209
764.534	0.0155959
764.612	0.0155726
764.690	0.0155863
764.768	0.0155072
764.846	0.0154808
764.924	0.0156640
765.003	0.0157329
765.081	0.0157599
765.159	0.0158291
765.237	0.0158964
765.315	0.0159790
765.393	0.0161035
765.471	0.0159617
765.549	0.0161234
765.628	0.0161040
765.706	0.0160448
765.784	0.0159599
765.862	0.0160581
765.940	0.0158292
766.018	0.0157274
766.096	0.0157365
766.174	0.0157006
766.253	0.0157339
766.331	0.0154211
766.409	0.0154533
766.487	0.0154790
766.565	0.0155717
766.643	0.0154905
766.721	0.0153548
766.799	0.0154580
766.878	0.0154645
766.956	0.0154434
767.034	0.0155695
767.112	0.0154336
767.190	0.0155396
767.268	0.0157014
767.346	0.0154240
767.424	0.0155147
767.503	0.0156395
767.581	0.0157011
767.659	0.0156327
767.737	0.0156817
767.815	0.0156622
767.893	0.0158099
767.971	0.0158447
768.049	0.0157821
768.128	0.0160269
768.206	0.0160921
768.284	0.0159072
768.362	0.0160143
768.440	0.0160442
768.518	0.0160626
768.596	0.0162344
768.674	0.0161689
768.753	0.0162019
768.831	0.0160949
768.909	0.0160072
768.987	0.0160671
769.065	0.0157952
769.143	0.0158159
769.221	0.0158021
769.299	0.0156539
769.378	0.0155457
769.456	0.0153229
769.534	0.0152441
769.612	0.0151412
769.690	0.0150018
769.768	0.0148685
769.846	0.0150613
769.924	0.0150954
770.003	0.0151286
770.081	0.0152718
770.159	0.0153274
770.237	0.0154679
770.315	0.0154642
770.393	0.0157717
770.471	0.0158443
770.549	0.0158250
770.628	0.0159750
770.706	0.0161768
770.784	0.0160878
770.862	0.0162752
770.940	0.0163892
771.018	0.0163087
771.096	0.0164417
771.174	0.0164227
771.253	0.0164344
771.331	0.0164095
771.409	0.0164408
771.487	0.0164636
771.565	0.0163446
771.643	0.0163833
771.721	0.0163590
771.799	0.0163405
771.878	0.0161977
771.956	0.0163819
772.034	0.0162797
772.112	0.0161449
772.190	0.0160842
772.268	0.0160292
772.346	0.0160231
772.424	0.0159505
772.503	0.0160149
772.581	0.0155334
772.659	0.0154961
772.737	0.0153011
772.815	0.0152222
772.893	0.0151790
772.971	0.0152092
773.049	0.0152513
773.128	0.0152943
773.206	0.0151193
773.284	0.0150365
773.362	0.0150936
773.440	0.0151314
773.518	0.0152367
773.596	0.0150401
773.674	0.0153787
773.753	0.0153877
773.831	0.0153296
773.909	0.0155969
773.987	0.0154212
774.065	0.0156483
774.143	0.0157509
774.221	0.0158361
774.299	0.0157713
774.378	0.0159873
774.456	0.0160400
774.534	0.0160203
774.612	0.0160958
774.690	0.0161145
774.768	0.0161203
774.846	0.0160517
774.924	0.0160260
775.003	0.0160718
775.081	0.0160363
775.159	0.0160359
775.237	0.0159602
775.315	0.0159173
775.393	0.0159356
775.471	0.0158269
775.549	0.0156625
775.628	0.0156674
775.706	0.0158072
775.784	0.0158029
775.862	0.0157952
775.940	0.0158013
776.018	0.0158428
776.096	0.0158941
776.174	0.0159969
776.253	0.0159549
776.331	0.0162825
776.409	0.0160207
776.487	0.0162000
776.565	0.0162069
776.643	0.0160154
776.721	0.0160453
776.799	0.0158887
776.878	0.0159658
776.956	0.0160083
777.034	0.0158711
777.112	0.0158956
777.190	0.0157098
777.268	0.0157247
777.346	0.0156242
777.424	0.0154154
777.503	0.0154967
777.581	0.0155477
777.659	0.0155116
777.737	0.0155215
777.815	0.0154182
777.893	0.0154966
777.971	0.0154416
778.049	0.0155088
778.128	0.0154027
778.206	0.0156406
778.284	0.0156369
778.362	0.0155551
778.440	0.0154790
778.518	0.0155782
778.596	0.0154910
778.674	0.0156969
778.753	0.0155842
778.831	0.0154809
778.909	0.0156121
778.987	0.0154669
779.065	0.0158212
779.143	0.0157159
779.221	0.0157938
779.299	0.0157394
779.378	0.0159365
779.456	0.0159684
779.534	0.0160763
779.612	0.0161339
779.690	0.0161493
779.768	0.0161081
779.846	0.0162970
779.924	0.0162125
780.003	0.0161558
780.081	0.0162345
780.159	0.0161301
780.237	0.0160187
780.315	0.0159212
780.393	0.0159412
780.471	0.0159289
780.549	0.0156659
780.628	0.0157672
780.706	0.0156992
780.784	0.0155760
780.862	0.0155984
780.940	0.0156526
781.018	0.0154675
781.096	0.0156596
781.174	0.0155715
781.253	0.0154858
781.331	0.0154559
781.409	0.0154111
781.487	0.0153616
781.565	0.0154723
781.643	0.0152528
781.721	0.0153487
781.799	0.0153580
781.878	0.0153826
781.956	0.0152911
782.034	0.0153931
782.112	0.0155370
782.190	0.0155161
782.268	0.0156047
782.346	0.0157128
782.424	0.0157726
782.503	0.0156422
782.581	0.0158438
782.659	0.0159879
782.737	0.0159184
782.815	0.0159806
782.893	0.0160608
782.971	0.0161586
783.049	0.0163519
783.128	0.0162991
783.206	0.0162193
783.284	0.0163384
783.362	0.0163143
783.440	0.0161770
783.518	0.0163266
783.596	0.0160275
783.674	0.0162691
783.753	0.0161547
783.831	0.0161493
783.909	0.0161319
783.987	0.0160258
784.065	0.0159953
784.143	0.0160111
784.221	0.0159355
784.299	0.0158828
784.378	0.0157796
784.456	0.0158890
784.534	0.0156284
784.612	0.0154655
784.690	0.0155202
784.768	0.0153795
784.846	0.0154170
784.924	0.0153611
785.003	0.0153313
785.081	0.0152310
785.159	0.0151115
785.237	0.0151131
785.315	0.0151848
785.393	0.0152701
785.471	0.0153305
785.549	0.0153256
785.628	0.0154300
785.706	0.0153387
785.784	0.0153954
785.862	0.0154823
785.940	0.0155180
786.018	0.0155272
786.096	0.0155575
786.174	0.0156261
786.253	0.0156287
786.331	0.0155843
786.409	0.0159093
786.487	0.0157247
786.565	0.0157050
786.643	0.0157352
786.721	0.0158340
786.799	0.0158205
786.878	0.0158589
786.956	0.0159481
787.034	0.0159735
787.112	0.0160197
787.190	0.0159808
787.268	0.0158756
787.346	0.0160043
787.424	0.0159822
787.503	0.0159487
787.581	0.0159267
787.659	0.0160770
787.737	0.0159949
787.815	0.0160661
787.893	0.0159815
787.971	0.0160625
788.049	0.0160262
788.128	0.0158113
788.206	0.0158437
788.284	0.0158604
788.362	0.0157562
788.440	0.0158950
788.518	0.0157078
788.596	0.0156773
788.674	0.0157059
788.753	0.0156378
788.831	0.0157005
788.909	0.0156237
788.987	0.0155582
789.065	0.0155334
789.143	0.0155598
789.221	0.0155221
789.299	0.0155453
789.378	0.0155856
789.456	0.0156626
789.534	0.0157148
789.612	0.0157953
789.690	0.0156299
789.768	0.0157104
789.846	0.0156749
789.924	0.0157518
790.003	0.0158073
790.081	0.0158871
790.159	0.0158820
790.237	0.0158150
790.315	0.0158614
790.393	0.0156840
790.471	0.0156525
790.549	0.0157139
790.628	0.0156162
790.706	0.0155482
790.784	0.0155205
790.862	0.0154865
790.940	0.0154078
791.018	0.0152612
791.096	0.0153857
791.174	0.0154095
791.253	0.0153983
791.331	0.0154407
791.409	0.0156513
791.487	0.0156586
791.565	0.0156246
791.643	0.0157976
791.721	0.0158679
791.799	0.0160065
791.878	0.0161562
791.956	0.0160809
792.034	0.0160926
792.112	0.0161438
792.190	0.0161172
792.268	0.0161360
792.346	0.0162017
792.424	0.0162004
792.503	0.0161452
792.581	0.0159104
792.659	0.0158403
792.737	0.0158494
792.815	0.0156852
792.893	0.0156309
792.971	0.0154961
793.049	0.0155690
793.128	0.0153976
793.206	0.0153381
793.284	0.0154278
793.362	0.0152765
793.440	0.0152994
793.518	0.0153307
793.596	0.0153379
793.674	0.0154156
793.753	0.0154372
793.831	0.0154781
793.909	0.0156419
793.987	0.0155231
794.065	0.0155952
794.143	0.0156150
794.221	0.0159172
794.299	0.0157271
794.378	0.0156997
794.456	0.0158157
794.534	0.0159163
794.612	0.0158657
794.690	0.0157756
794.768	0.0158816
794.846	0.0158289
794.924	0.0159034
795.003	0.0158852
795.081	0.0159022
795.159	0.0158565
795.237	0.0157838
795.315	0.0158997
795.393	0.0160091
795.471	0.0159777
795.549	0.0158864
795.628	0.0159195
795.706	0.0159803
795.784	0.0159805
795.862	0.0160353
795.940	0.0161756
796.018	0.0160178
796.096	0.0159521
796.174	0.0161181
796.253	0.0161665
796.331	0.0161019
796.409	0.0160183
796.487	0.0158853
796.565	0.0159421
796.643	0.0158340
796.721	0.0157085
796.799	0.0156301
796.878	0.0156189
796.956	0.0153522
797.034	0.0152922
797.112	0.0154462
797.190	0.0154257
797.268	0.0152746
797.346	0.0151933
797.424	0.0151243
797.503	0.0151761
797.581	0.0153640
797.659	0.0152713
797.737	0.0152120
797.815	0.0153140
797.893	0.0154724
797.971	0.0155644
798.049	0.0154510
798.128	0.0156709
798.206	0.0156498
798.284	0.0158823
798.362	0.0158420
798.440	0.0159155
798.518	0.0159399
798.596	0.0159717
798.674	0.0160650
798.753	0.0159086
798.831	0.0160506
798.909	0.0162630
798.987	0.0161563
799.065	0.0162244
799.143	0.0159419
799.221	0.0158706
799.299	0.0159686
799.378	0.0158315
799.456	0.0158923
799.534	0.0158082
799.612	0.0158755
799.690	0.0157537
799.768	0.0157141
799.846	0.0156747
799.924	0.0157138
800.003	0.0158313
800.081	0.0157415
800.159	0.0157172
800.237	0.0157498
800.315	0.0158646
800.393	0.0156905
800.471	0.0157983
800.549	0.0159220
800.628	0.0159071
800.706	0.0158289
800.784	0.0158031
800.862	0.0158636
800.940	0.0158469
801.018	0.0158163
801.096	0.0157408
801.174	0.0157850
801.253	0.0158648
801.331	0.0157886
801.409	0.0157420
801.487	0.0155686
801.565	0.0156562
801.643	0.0156405
801.721	0.0156008
801.799	0.0155972
801.878	0.0156015
801.956	0.0156349
802.034	0.0156474
802.112	0.0156510
802.190	0.0157226
802.268	0.0158093
802.346	0.0156107
802.424	0.0154857
802.503	0.0157766
802.581	0.0157858
802.659	0.0158155
802.737	0.0158109
802.815	0.0158006
802.893	0.0160390
802.971	0.0160641
803.049	0.0159833
803.128	0.0159325
803.206	0.0158722
803.284	0.0158595
803.362	0.0160574
803.440	0.0159127
803.518	0.0158611
803.596	0.0158934
803.674	0.0159558
803.753	0.0157434
803.831	0.0157163
803.909	0.0158157
803.987	0.0157092
804.065	0.0157706
804.143	0.0158401
804.221	0.0156844
804.299	0.0155515
804.378	0.0156887
804.456	0.0156672
804.534	0.0156805
804.612	0.0155963
804.690	0.0157650
804.768	0.0156216
804.846	0.0158107
804.924	0.0157949
805.003	0.0158561
805.081	0.0157495
805.159	0.0156615
805.237	0.0160082
805.315	0.0158383
805.393	0.0157835
805.471	0.0157729
805.549	0.0157201
805.628	0.0158538
805.706	0.0157993
805.784	0.0157132
805.862	0.0157878
805.940	0.0158630
806.018	0.0156794
806.096	0.0156769
806.174	0.0158647
806.253	0.0157904
806.331	0.0156988
806.409	0.0155148
806.487	0.0156725
806.565	0.0155426
806.643	0.0156334
806.721	0.0157295
806.799	0.0156474
806.878	0.0157247
806.956	0.0158550
807.034	0.0158859
807.112	0.0157590
807.190	0.0157385
807.268	0.0159277
807.346	0.0159244
807.424	0.0158704
807.503	0.0159570
807.581	0.0160465
807.659	0.0160512
807.737	0.0160461
807.815	0.0160227
807.893	0.0161628
807.971	0.0160609
808.049	0.0160810
808.128	0.0160682
808.206	0.0158950
808.284	0.0158308
808.362	0.0158750
808.440	0.0158246
808.518	0.0157613
808.596	0.0157830
808.674	0.0157072
808.753	0.0155485
808.831	0.0154787
808.909	0.0154688
808.987	0.0155508
809.065	0.0156473
809.143	0.0157073
809.221	0.0156412
809.299	0.0155984
809.378	0.0155459
809.456	0.0156625
809.534	0.0157745
809.612	0.0158621
809.690	0.0157023
809.768	0.0157278
809.846	0.0156446
809.924	0.0157218
810.003	0.0157526
810.081	0.0156617
810.159	0.0156480
810.237	0.0156905
810.315	0.0156528
810.393	0.0156967
810.471	0.0156955
810.549	0.0156322
810.628	0.0157619
810.706	0.0156817
810.784	0.0157709
810.862	0.0158026
810.940	0.0157857
811.018	0.0157312
811.096	0.0158903
811.174	0.0159926
811.253	0.0159702
811.331	0.0159649
811.409	0.0160597
811.487	0.0159362
811.565	0.0159014
811.643	0.0160249
811.721	0.0160046
811.799	0.0160347
811.878	0.0159583
811.956	0.0159084
812.034	0.0158540
812.112	0.0158900
812.190	0.0157393
812.268	0.0156782
812.346	0.0156317
812.424	0.0157188
812.503	0.0155891
812.581	0.0156252
812.659	0.0155791
812.737	0.0156075
812.815	0.0155599
812.893	0.0154901
812.971	0.0154346
813.049	0.0155749
813.128	0.0154601
813.206	0.0155466
813.284	0.0155589
813.362	0.0156368
813.440	0.0157498
813.518	0.0157141
813.596	0.0157547
813.674	0.0157319
813.753	0.0158215
813.831	0.0159111
813.909	0.0158997
813.987	0.0158714
814.065	0.0158354
814.143	0.0159584
814.221	0.0158130
814.299	0.0157661
814.378	0.0158540
814.456	0.0158276
814.534	0.0158207
814.612	0.0158901
814.690	0.0157969
814.768	0.0157947
814.846	0.0159007
814.924	0.0157388
815.003	0.0158070
815.081	0.0158066
815.159	0.0156904
815.237	0.0158956
815.315	0.0156925
815.393	0.0157844
815.471	0.0157582
815.549	0.0157038
815.628	0.0158025
815.706	0.0157176
815.784	0.0155457
815.862	0.0154898
815.940	0.0156249
816.018	0.0157057
816.096	0.0155685
816.174	0.0154832
816.253	0.0155406
816.331	0.0154814
816.409	0.0155418
816.487	0.0154954
816.565	0.0156994
816.643	0.0156660
816.721	0.0156419
816.799	0.0153726
816.878	0.0155326
816.956	0.0156388
817.034	0.0155727
817.112	0.0155256
817.190	0.0155943
817.268	0.0155708
817.346	0.0155538
817.424	0.0156396
817.503	0.0155306
817.581	0.0155791
817.659	0.0156112
817.737	0.0154772
817.815	0.0155123
817.893	0.0156417
817.971	0.0157731
818.049	0.0157672
818.128	0.0158119
818.206	0.0158695
818.284	0.0159129
818.362	0.0159570
818.440	0.0161701
818.518	0.0161044
818.596	0.0160751
818.674	0.0162119
818.753	0.0161805
818.831	0.0162744
818.909	0.0162109
818.987	0.0160914
819.065	0.0161719
819.143	0.0160759
819.221	0.0161128
819.299	0.0159959
819.378	0.0159200
819.456	0.0159287
819.534	0.0159454
819.612	0.0158736
819.690	0.0158241
819.768	0.0159257
819.846	0.0158625
819.924	0.0157276
820.003	0.0157447
820.081	0.0156268
820.159	0.0157380
820.237	0.0155468
820.315	0.0155868
820.393	0.0154617
820.471	0.0155815
820.549	0.0153409
820.628	0.0153829
820.706	0.0153125
820.784	0.0154343
820.862	0.0154459
820.940	0.0151273
821.018	0.0153134
821.096	0.0152694
821.174	0.0151974
821.253	0.0151635
821.331	0.0151971
821.409	0.0153107
821.487	0.0153095
821.565	0.0154523
821.643	0.0154579
821.721	0.0156531
821.799	0.0156246
821.878	0.0158594
821.956	0.0158006
822.034	0.0158035
822.112	0.0159486
822.190	0.0160384
822.268	0.0160963
822.346	0.0162068
822.424	0.0161487
822.503	0.0161435
822.581	0.0162062
822.659	0.0162612
822.737	0.0164056
822.815	0.0162497
822.893	0.0164692
822.971	0.0163905
823.049	0.0162874
823.128	0.0163491
823.206	0.0163286
823.284	0.0161469
823.362	0.0162484
823.440	0.0161906
823.518	0.0162302
823.596	0.0160596
823.674	0.0158965
823.753	0.0159738
823.831	0.0158410
823.909	0.0156896
823.987	0.0156559
824.065	0.0155584
824.143	0.0156541
824.221	0.0154694
824.299	0.0154716
824.378	0.0153293
824.456	0.0152888
824.534	0.0152667
824.612	0.0151645
824.690	0.0151681
824.768	0.0150350
824.846	0.0151977
824.924	0.0151882
825.003	0.0151002
825.081	0.0150316
825.159	0.0150389
825.237	0.0151354
825.315	0.0152705
825.393	0.0151321
825.471	0.0151675
825.549	0.0152894
825.628	0.0152433
825.706	0.0154785
825.784	0.0155685
825.862	0.0155011
825.940	0.0156891
826.018	0.0158694
826.096	0.0157481
826.174	0.0159772
826.253	0.0160726
826.331	0.0161189
826.409	0.0162060
826.487	0.0161612
826.565	0.0163005
826.643	0.0163496
826.721	0.0163892
826.799	0.0163482
826.878	0.0165578
826.956	0.0163024
827.034	0.0165604
827.112	0.0164294
827.190	0.0163961
827.268	0.0162767
827.346	0.0163292
827.424	0.0164071
827.503	0.0162311
827.581	0.0160664
827.659	0.0161063
827.737	0.0159947
827.815	0.0161485
827.893	0.0159372
827.971	0.0157758
828.049	0.0157832
828.128	0.0158276
828.206	0.0156895
828.284	0.0155540
828.362	0.0154750
828.440	0.0153263
828.518	0.0153629
828.596	0.0153962
828.674	0.0152319
828.753	0.0151817
828.831	0.0153619
828.909	0.0152711
828.987	0.0150294
829.065	0.0150290
829.143	0.0151710
829.221	0.0149975
829.299	0.0151019
829.378	0.0151723
829.456	0.0152406
829.534	0.0150467
829.612	0.0151444
829.690	0.0152980
829.768	0.0151952
829.846	0.0152108
829.924	0.0152810
830.003	0.0153593
830.081	0.0153267
830.159	0.0154122
830.237	0.0154698
830.315	0.0156412
830.393	0.0158542
830.471	0.0158199
830.549	0.0159485
830.628	0.0161076
830.706	0.0161607
830.784	0.0162461
830.862	0.0163588
830.940	0.0165282
831.018	0.0164941
831.096	0.0164616
831.174	0.0165849
831.253	0.0165050
831.331	0.0164740
831.409	0.0166230
831.487	0.0165466
831.565	0.0163043
831.643	0.0165555
831.721	0.0163564
831.799	0.0162672
831.878	0.0160947
831.956	0.0160550
832.034	0.0159641
832.112	0.0159012
832.190	0.0158241
832.268	0.0157417
832.346	0.0156879
832.424	0.0155257
832.503	0.0156649
832.581	0.0154972
832.659	0.0152520
832.737	0.0153632
832.815	0.0154102
832.893	0.0153792
832.971	0.0151038
833.049	0.0151346
833.128	0.0152303
833.206	0.0153956
833.284	0.0152218
833.362	0.0152411
833.440	0.0151112
833.518	0.0153503
833.596	0.0152979
833.674	0.0152352
833.753	0.0151004
833.831	0.0152345
833.909	0.0151542
833.987	0.0151585
834.065	0.0152477
834.143	0.0152299
834.221	0.0152581
834.299	0.0153306
834.378	0.0152743
834.456	0.0153491
834.534	0.0153724
834.612	0.0157263
834.690	0.0156422
834.768	0.0157581
834.846	0.0159515
834.924	0.0160001
835.003	0.0160787
835.081	0.0162212
835.159	0.0162495
835.237	0.0163439
835.315	0.0164516
835.393	0.0163004
835.471	0.0162476
835.549	0.0163763
835.628	0.0163605
835.706	0.0163358
835.784	0.0163141
835.862	0.0161497
835.940	0.0162299
836.018	0.0161023
836.096	0.0161251
836.174	0.0161326
836.253	0.0160050
836.331	0.0160448
836.409	0.0160493
836.487	0.0158277
836.565	0.0158035
836.643	0.0156725
836.721	0.0156271
836.799	0.0156000
836.878	0.0156357
836.956	0.0156724
837.034	0.0156985
837.112	0.0154543
837.190	0.0155241
837.268	0.0154552
837.346	0.0154627
837.424	0.0156501
837.503	0.0154189
837.581	0.0154669
837.659	0.0153981
837.737	0.0154777
837.815	0.0155054
837.893	0.0154298
837.971	0.0153807
838.049	0.0155314
838.128	0.0154942
838.206	0.0154350
838.284	0.0154224
838.362	0.0155355
838.440	0.0155681
838.518	0.0155098
838.596	0.0155256
838.674	0.0155596
838.753	0.0155660
838.831	0.0157092
838.909	0.0157626
838.987	0.0157316
839.065	0.0158002
839.143	0.0158634
839.221	0.0158496
839.299	0.0158222
839.378	0.0159059
839.456	0.0159825
839.534	0.0160635
839.612	0.0160986
839.690	0.0158343
839.768	0.0159387
839.846	0.0160454
839.924	0.0159907
840.003	0.0158541
840.081	0.0158768
840.159	0.0159724
840.237	0.0158760
840.315	0.0158706
840.393	0.0158579
840.471	0.0159029
840.549	0.0158292
840.628	0.0157676
840.706	0.0157304
840.784	0.0157500
840.862	0.0158144
840.940	0.0156804
841.018	0.0155907
841.096	0.0157710
841.174	0.0157315
841.253	0.0157534
841.331	0.0156689
841.409	0.0155137
841.487	0.0158560
841.565	0.0157229
841.643	0.0157351
841.721	0.0157440
841.799	0.0158810
841.878	0.0157348
841.956	0.0157069
842.034	0.0157639
842.112	0.0158270
842.190	0.0157957
842.268	0.0156911
842.346	0.0157480
842.424	0.0157902
842.503	0.0156966
842.581	0.0157401
842.659	0.0157994
842.737	0.0157319
842.815	0.0155113
842.893	0.0155496
842.971	0.0155720
843.049	0.0155357
843.128	0.0156577
843.206	0.0155676
843.284	0.0156789
843.362	0.0157086
843.440	0.0155699
843.518	0.0157602
843.596	0.0156720
843.674	0.0154625
843.753	0.0157410
843.831	0.0157460
843.909	0.0156260
843.987	0.0157748
844.065	0.0157043
844.143	0.0156759
844.221	0.0156851
844.299	0.0157348
844.378	0.0158070
844.456	0.0156656
844.534	0.0156617
844.612	0.0157975
844.690	0.0157801
844.768	0.0156244
844.846	0.0156438
844.924	0.0157290
845.003	0.0156675
845.081	0.0156288
845.159	0.0157912
845.237	0.0157521
845.315	0.0158329
845.393	0.0158683
845.471	0.0159919
845.549	0.0160330
845.628	0.0158110
845.706	0.0158944
845.784	0.0159399
845.862	0.0160104
845.940	0.0160120
846.018	0.0159172
846.096	0.0160144
846.174	0.0159570
846.253	0.0158389
846.331	0.0158595
846.409	0.0157043
846.487	0.0158343
846.565	0.0159484
846.643	0.0158418
846.721	0.0157670
846.799	0.0158848
846.878	0.0158017
846.956	0.0156512
847.034	0.0157267
847.112	0.0156412
847.190	0.0156981
847.268	0.0157411
847.346	0.0156272
847.424	0.0156319
847.503	0.0155671
847.581	0.0155370
847.659	0.0154878
847.737	0.0154566
847.815	0.0155399
847.893	0.0154510
847.971	0.0156332
848.049	0.0153765
848.128	0.0153852
848.206	0.0155862
848.284	0.0156625
848.362	0.0155531
848.440	0.0155742
848.518	0.0156290
848.596	0.0157291
848.674	0.0158259
848.753	0.0157401
848.831	0.0157568
848.909	0.0157652
848.987	0.0158183
849.065	0.0158981
849.143	0.0159771
849.221	0.0158018
849.299	0.0158739
849.378	0.0158820
849.456	0.0159361
849.534	0.0159731
849.612	0.0159824
849.690	0.0159664
849.768	0.0159499
849.846	0.0159686
849.924	0.0158923
850.003	0.0160073
850.081	0.0160065
850.159	0.0159518
850.237	0.0159587
850.315	0.0159792
850.393	0.0160202
850.471	0.0159007
850.549	0.0158708
850.628	0.0159888
850.706	0.0158443
850.784	0.0159882
850.862	0.0158659
850.940	0.0159362
851.018	0.0158751
851.096	0.0157339
851.174	0.0157097
851.253	0.0157656
851.331	0.0157833
851.409	0.0156633
851.487	0.0157227
851.565	0.0156376
851.643	0.0156770
851.721	0.0156093
851.799	0.0155331
851.878	0.0155919
851.956	0.0157520
852.034	0.0156954
852.112	0.0156367
852.190	0.0155128
852.268	0.0156721
852.346	0.0155933
852.424	0.0156019
852.503	0.0157121
852.581	0.0156744
852.659	0.0156921
852.737	0.0157161
852.815	0.0155968
852.893	0.0155221
852.971	0.0156818
853.049	0.0156409
853.128	0.0155878
853.206	0.0155719
853.284	0.0157053
853.362	0.0155977
853.440	0.0156123
853.518	0.0157088
853.596	0.0157074
853.674	0.0157307
853.753	0.0155920
853.831	0.0156689
853.909	0.0156969
853.987	0.0157342
854.065	0.0157951
854.143	0.0157806
854.221	0.0157785
854.299	0.0157664
854.378	0.0157183
854.456	0.0157384
854.534	0.0158992
854.612	0.0158056
854.690	0.0157645
854.768	0.0156686
854.846	0.0157692
854.924	0.0159063
855.003	0.0159206
855.081	0.0158712
855.159	0.0159235
855.237	0.0159683
855.315	0.0160202
855.393	0.0159541
855.471	0.0159482
855.549	0.0159879
855.628	0.0160568
855.706	0.0159229
855.784	0.0158596
855.862	0.0158573
855.940	0.0159388
856.018	0.0159463
856.096	0.0159918
856.174	0.0157446
856.253	0.0157614
856.331	0.0158273
856.409	0.0158456
856.487	0.0158270
856.565	0.0158389
856.643	0.0157683
856.721	0.0158174
856.799	0.0158091
856.878	0.0157459
856.956	0.0157127
857.034	0.0157121
857.112	0.0155994
857.190	0.0156943
857.268	0.0158021
857.346	0.0155365
857.424	0.0156940
857.503	0.0156552
857.581	0.0157272
857.659	0.0155811
857.737	0.0156632
857.815	0.0154265
857.893	0.0156419
857.971	0.0156435
858.049	0.0156036
858.128	0.0155463
858.206	0.0155357
858.284	0.0156570
858.362	0.0154913
858.440	0.0156188
858.518	0.0155927
858.596	0.0156742
858.674	0.0157493
858.753	0.0156833
858.831	0.0157168
858.909	0.0157770
858.987	0.0156685
859.065	0.0157817
859.143	0.0157584
859.221	0.0157382
859.299	0.0157636
859.378	0.0157835
859.456	0.0158124
859.534	0.0157307
859.612	0.0158167
859.690	0.0158651
859.768	0.0158295
859.846	0.0157538
859.924	0.0157766
860.003	0.0158329
860.081	0.0158148
860.159	0.0158780
860.237	0.0156615
860.315	0.0158041
860.393	0.0157764
860.471	0.0158469
860.549	0.0158473
860.628	0.0156671
860.706	0.0156452
860.784	0.0158910
860.862	0.0157657
860.940	0.0157858
861.018	0.0157613
861.096	0.0156532
861.174	0.0156139
861.253	0.0156577
861.331	0.0158352
861.409	0.0158034
861.487	0.0156206
861.565	0.0158510
861.643	0.0159019
861.721	0.0157843
861.799	0.0157392
861.878	0.0158112
861.956	0.0158025
862.034	0.0159425
862.112	0.0157143
862.190	0.0158312
862.268	0.0156667
862.346	0.0158676
862.424	0.0158502
862.503	0.0158703
862.581	0.0156687
862.659	0.0156944
862.737	0.0156949
862.815	0.0156710
862.893	0.0157460
862.971	0.0155381
863.049	0.0156468
863.128	0.0158119
863.206	0.0157864
863.284	0.0157240
863.362	0.0157198
863.440	0.0156910
863.518	0.0158018
863.596	0.0158002
863.674	0.0158358
863.753	0.0157110
863.831	0.0157997
863.909	0.0158809
863.987	0.0158430
864.065	0.0158703
864.143	0.0157061
864.221	0.0157142
864.299	0.0158751
864.378	0.0157744
864.456	0.0156168
864.534	0.0156432
864.612	0.0156558
864.690	0.0156742
864.768	0.0157056
864.846	0.0155967
864.924	0.0155648
865.003	0.0155737
865.081	0.0155698
865.159	0.0155643
865.237	0.0154745
865.315	0.0155223
865.393	0.0156452
865.471	0.0156400
865.549	0.0154953
865.628	0.0155595
865.706	0.0156106
865.784	0.0156565
865.862	0.0156047
865.940	0.0156229
866.018	0.0157124
866.096	0.0156643
866.174	0.0158221
866.253	0.0157098
866.331	0.0156289
866.409	0.0157260
866.487	0.0157426
866.565	0.0159060
866.643	0.0156883
866.721	0.0156539
866.799	0.0158542
866.878	0.0157621
866.956	0.0156281
867.034	0.0157086
867.112	0.0159779
867.190	0.0159551
867.268	0.0157665
867.346	0.0159306
867.424	0.0160325
867.503	0.0159001
867.581	0.0160524
867.659	0.0158813
867.737	0.0158945
867.815	0.0159026
867.893	0.0158550
867.971	0.0160851
868.049	0.0160648
868.128	0.0159196
868.206	0.0159500
868.284	0.0159222
868.362	0.0158752
868.440	0.0157751
868.518	0.0159030
868.596	0.0160257
868.674	0.0158242
868.753	0.0157620
868.831	0.0158272
868.909	0.0156812
868.987	0.0155437
869.065	0.0155566
869.143	0.0156570
869.221	0.0155841
869.299	0.0153929
869.378	0.0154841
869.456	0.0154609
869.534	0.0154999
869.612	0.0153787
869.690	0.0154883
869.768	0.0154797
869.846	0.0154810
869.924	0.0154284
870.003	0.0154539
870.081	0.0155253
870.159	0.0155511
870.237	0.0154535
870.315	0.0155733
870.393	0.0156470
870.471	0.0156776
870.549	0.0156416
870.628	0.0157934
870.706	0.0156750
870.784	0.0157053
870.862	0.0158505
870.940	0.0156055
871.018	0.0157449
871.096	0.0157227
871.174	0.0158070
871.253	0.0158567
871.331	0.0158490
871.409	0.0158059
871.487	0.0156686
871.565	0.0157796
871.643	0.0157703
871.721	0.0157317
871.799	0.0157468
871.878	0.0157083
871.956	0.0158192
872.034	0.0158441
872.112	0.0158009
872.190	0.0156806
872.268	0.0158451
872.346	0.0158105
872.424	0.0158751
872.503	0.0158944
872.581	0.0159467
872.659	0.0158316
872.737	0.0159479
872.815	0.0159412
872.893	0.0159039
872.971	0.0159390
873.049	0.0159886
873.128	0.0159329
873.206	0.0160261
873.284	0.0158971
873.362	0.0158233
873.440	0.0158720
873.518	0.0159322
873.596	0.0158167
873.674	0.0157401
873.753	0.0158437
873.831	0.0157796
873.909	0.0156306
873.987	0.0155977
874.065	0.0158121
874.143	0.0155259
874.221	0.0155831
874.299	0.0156895
874.378	0.0156277
874.456	0.0155436
874.534	0.0155837
874.612	0.0156090
874.690	0.0156522
874.768	0.0156460
874.846	0.0155106
874.924	0.0156488
875.003	0.0156738
875.081	0.0154578
875.159	0.0156885
875.237	0.0156799
875.315	0.0155556
875.393	0.0156337
875.471	0.0157208
875.549	0.0155955
875.628	0.0156541
875.706	0.0156476
875.784	0.0156045
875.862	0.0156190
875.940	0.0156470
876.018	0.0155873
876.096	0.0155599
876.174	0.0156007
876.253	0.0155247
876.331	0.0156897
876.409	0.0156916
876.487	0.0157281
876.565	0.0157558
876.643	0.0158840
876.721	0.0156638
876.799	0.0157593
876.878	0.0158997
876.956	0.0158123
877.034	0.0158281
877.112	0.0158836
877.190	0.0158414
877.268	0.0159444
877.346	0.0159654
877.424	0.0159184
877.503	0.0158524
877.581	0.0157956
877.659	0.0159682
877.737	0.0159254
877.815	0.0158485
877.893	0.0156972
877.971	0.0156799
878.049	0.0157061
878.128	0.0157168
878.206	0.0156801
878.284	0.0157271
878.362	0.0157690
878.440	0.0157145
878.518	0.0156731
878.596	0.0157287
878.674	0.0155340
878.753	0.0156297
878.831	0.0156229
878.909	0.0156462
878.987	0.0156794
879.065	0.0156232
879.143	0.0156033
879.221	0.0157234
879.299	0.0157461
879.378	0.0156309
879.456	0.0157081
879.534	0.0156472
879.612	0.0158381
879.690	0.0157912
879.768	0.0157231
879.846	0.0157065
879.924	0.0157819
880.003	0.0156755
880.081	0.0156400
880.159	0.0156903
880.237	0.0157803
880.315	0.0158466
880.393	0.0156997
880.471	0.0157451
880.549	0.0157821
880.628	0.0158820
880.706	0.0157707
880.784	0.0158822
880.862	0.0158637
880.940	0.0157481
881.018	0.0158525
881.096	0.0158624
881.174	0.0157774
881.253	0.0160440
881.331	0.0158478
881.409	0.0157746
881.487	0.0157959
881.565	0.0157873
881.643	0.0158215
881.721	0.0158095
881.799	0.0157912
881.878	0.0158067
881.956	0.0157631
882.034	0.0156791
882.112	0.0159245
882.190	0.0157159
882.268	0.0157198
882.346	0.0157541
882.424	0.0158180
882.503	0.0157869
882.581	0.0157542
882.659	0.0157686
882.737	0.0157004
882.815	0.0157579
882.893	0.0156969
882.971	0.0156437
883.049	0.0155613
883.128	0.0156194
883.206	0.0155704
883.284	0.0156551
883.362	0.0155978
883.440	0.0155131
883.518	0.0155063
883.596	0.0154976
883.674	0.0156471
883.753	0.0155877
883.831	0.0157318
883.909	0.0157001
883.987	0.0155806
884.065	0.0157288
884.143	0.0157678
884.221	0.0155647
884.299	0.0156811
884.378	0.0156694
884.456	0.0158366
884.534	0.0156976
884.612	0.0157399
884.690	0.0157643
884.768	0.0158075
884.846	0.0156722
884.924	0.0157507
885.003	0.0157207
885.081	0.0157120
885.159	0.0155447
885.237	0.0156850
885.315	0.0156078
885.393	0.0157632
885.471	0.0156646
885.549	0.0157589
885.628	0.0157466
885.706	0.0157903
885.784	0.0156927
885.862	0.0157190
885.940	0.0156355
886.018	0.0158038
886.096	0.0158250
886.174	0.0156454
886.253	0.0157682
886.331	0.0157920
886.409	0.0158839
886.487	0.0157668
886.565	0.0158401
886.643	0.0157646
886.721	0.0158501
886.799	0.0156543
886.878	0.0156794
886.956	0.0158119
887.034	0.0157771
887.112	0.0156884
887.190	0.0158137
887.268	0.0156533
887.346	0.0156093
887.424	0.0154984
887.503	0.0156699
887.581	0.0156402
887.659	0.0155403
887.737	0.0157061
887.815	0.0156475
887.893	0.0156832
887.971	0.0156354
888.049	0.0156689
888.128	0.0155589
888.206	0.0157182
888.284	0.0156531
888.362	0.0156528
888.440	0.0156046
888.518	0.0157116
888.596	0.0157390
888.674	0.0156589
888.753	0.0156742
888.831	0.0156919
888.909	0.0156791
888.987	0.0156467
889.065	0.0158170
889.143	0.0156189
889.221	0.0156589
889.299	0.0157673
889.378	0.0157430
889.456	0.0158084
889.534	0.0158764
889.612	0.0157151
889.690	0.0158902
889.768	0.0158105
889.846	0.0158793
889.924	0.0156896
890.003	0.0157038
890.081	0.0158023
890.159	0.0156560
890.237	0.0155893
890.315	0.0156572
890.393	0.0157674
890.471	0.0157465
890.549	0.0157777
890.628	0.0157649
890.706	0.0157823
890.784	0.0156789
890.862	0.0156531
890.940	0.0158099
891.018	0.0158337
891.096	0.0156364
891.174	0.0156763
891.253	0.0157195
891.331	0.0157307
891.409	0.0158945
891.487	0.0157806
891.565	0.0156508
891.643	0.0157285
891.721	0.0155788
891.799	0.0156030
891.878	0.0157459
891.956	0.0156269
892.034	0.0157014
892.112	0.0156398
892.190	0.0155727
892.268	0.0157032
892.346	0.0157206
892.424	0.0155919
892.503	0.0155875
892.581	0.0156323
892.659	0.0156818
892.737	0.0156546
892.815	0.0157966
892.893	0.0156783
892.971	0.0158213
893.049	0.0157053
893.128	0.0157262
893.206	0.0158008
893.284	0.0158629
893.362	0.0156585
893.440	0.0156519
893.518	0.0157685
893.596	0.0158456
893.674	0.0156366
893.753	0.0156379
893.831	0.0157129
893.909	0.0156456
893.987	0.0156508
894.065	0.0157109
894.143	0.0155866
894.221	0.0156046
894.299	0.0156622
894.378	0.0155917
894.456	0.0155505
894.534	0.0155849
894.612	0.0156965
894.690	0.0156508
894.768	0.0156697
894.846	0.0157760
894.924	0.0158019
895.003	0.0155859
895.081	0.0157111
895.159	0.0158002
895.237	0.0157259
895.315	0.0156857
895.393	0.0156490
895.471	0.0158401
895.549	0.0158020
895.628	0.0156492
895.706	0.0157806
895.784	0.0157816
895.862	0.0157580
895.940	0.0158323
896.018	0.0157111
896.096	0.0157507
896.174	0.0156983
896.253	0.0157265
896.331	0.0157346
896.409	0.0155849
896.487	0.0154846
896.565	0.0156530
896.643	0.0156643
896.721	0.0156284
896.799	0.0156654
896.878	0.0157291
896.956	0.0157055
897.034	0.0157615
897.112	0.0156767
897.190	0.0157359
897.268	0.0156518
897.346	0.0157032
897.424	0.0157122
897.503	0.0157592
897.581	0.0156474
897.659	0.0157050
897.737	0.0158181
897.815	0.0157150
897.893	0.0157900
897.971	0.0157326
898.049	0.0157000
898.128	0.0157498
898.206	0.0157848
898.284	0.0156863
898.362	0.0158402
898.440	0.0156944
898.518	0.0156049
898.596	0.0156834
898.674	0.0157149
898.753	0.0156651
898.831	0.0157326
898.909	0.0155964
898.987	0.0156546
899.065	0.0156198
899.143	0.0156567
899.221	0.0156647
899.299	0.0156770
899.378	0.0156183
899.456	0.0156466
899.534	0.0157002
899.612	0.0155752
899.690	0.0156506
899.768	0.0154640
899.846	0.0156219
899.924	0.0156776
900.003	0.0157689
900.081	0.0156802
900.159	0.0158179
900.237	0.0157030
900.315	0.0156961
900.393	0.0157572
900.471	0.0157047
900.549	0.0158421
900.628	0.0157603
900.706	0.0157224
900.784	0.0156544
900.862	0.0158749
900.940	0.0158580
901.018	0.0158324
901.096	0.0155935
901.174	0.0157592
901.253	0.0157931
901.331	0.0157865
901.409	0.0158315
901.487	0.0160608
901.565	0.0158136
901.643	0.0157880
901.721	0.0159882
901.799	0.0158220
901.878	0.0159113
901.956	0.0158398
902.034	0.0157927
902.112	0.0157685
902.190	0.0158321
902.268	0.0158804
902.346	0.0158261
902.424	0.0156858
902.503	0.0156440
902.581	0.0157499
902.659	0.0157912
902.737	0.0155843
902.815	0.0156244
902.893	0.0155654
902.971	0.0157182
903.049	0.0157213
903.128	0.0155791
903.206	0.0156966
903.284	0.0156832
903.362	0.0155470
903.440	0.0155991
903.518	0.0157465
903.596	0.0156665
903.674	0.0154972
903.753	0.0158066
903.831	0.0158566
903.909	0.0156910
903.987	0.0157486
904.065	0.0158480
904.143	0.0158266
904.221	0.0157421
904.299	0.0156797
904.378	0.0157469
904.456	0.0158392
904.534	0.0157924
904.612	0.0156795
904.690	0.0157841
904.768	0.0157197
904.846	0.0156441
904.924	0.0158065
905.003	0.0158672
905.081	0.0158097
905.159	0.0157220
905.237	0.0158112
905.315	0.0158974
905.393	0.0158277
905.471	0.0157303
905.549	0.0156815
905.628	0.0156980
905.706	0.0156807
905.784	0.0158121
905.862	0.0158464
905.940	0.0158523
906.018	0.0158708
906.096	0.0157610
906.174	0.0156566
906.253	0.0157178
906.331	0.0158066
906.409	0.0158089
906.487	0.0156536
906.565	0.0155569
906.643	0.0156064
906.721	0.0157497
906.799	0.0158560
906.878	0.0157430
906.956	0.0156818
907.034	0.0158022
907.112	0.0157148
907.190	0.0156993
907.268	0.0157811
907.346	0.0156561
907.424	0.0156142
907.503	0.0157327
907.581	0.0157468
907.659	0.0156895
907.737	0.0155499
907.815	0.0157231
907.893	0.0157137
907.971	0.0156738
908.049	0.0156618
908.128	0.0156282
908.206	0.0158812
908.284	0.0157075
908.362	0.0157359
908.440	0.0157033
908.518	0.0157802
908.596	0.0157489
908.674	0.0157864
908.753	0.0158564
908.831	0.0158767
908.909	0.0158009
908.987	0.0157445
909.065	0.0157770
909.143	0.0158154
909.221	0.0158475
909.299	0.0156612
909.378	0.0155747
909.456	0.0155094
909.534	0.0156613
909.612	0.0155415
909.690	0.0157117
909.768	0.0155272
909.846	0.0156657
909.924	0.0156066
910.003	0.0156361
910.081	0.0155519
910.159	0.0156728
910.237	0.0156094
910.315	0.0157931
910.393	0.0157664
910.471	0.0157559
910.549	0.0155414
910.628	0.0157513
910.706	0.0159007
910.784	0.0157475
910.862	0.0157792
910.940	0.0156984
911.018	0.0157056
911.096	0.0157851
911.174	0.0157189
911.253	0.0156414
911.331	0.0157430
911.409	0.0157883
911.487	0.0157355
911.565	0.0156288
911.643	0.0156318
911.721	0.0158005
911.799	0.0156461
911.878	0.0156638
911.956	0.0155524
912.034	0.0156936
912.112	0.0156433
912.190	0.0156174
912.268	0.0155566
912.346	0.0156868
912.424	0.0156550
912.503	0.0157185
912.581	0.0156777
912.659	0.0156103
912.737	0.0156297
912.815	0.0156792
912.893	0.0155788
912.971	0.0158781
913.049	0.0158115
913.128	0.0159200
913.206	0.0158534
913.284	0.0158684
913.362	0.0158741
913.440	0.0159538
913.518	0.0159144
913.596	0.0158527
913.674	0.0157948
913.753	0.0158685
913.831	0.0158338
913.909	0.0158516
913.987	0.0157355
914.065	0.0157843
914.143	0.0157912
914.221	0.0157110
914.299	0.0156597
914.378	0.0157786
914.456	0.0156768
914.534	0.0155430
914.612	0.0156050
914.690	0.0155766
914.768	0.0156307
914.846	0.0156895
914.924	0.0155654
915.003	0.0155424
915.081	0.0156173
915.159	0.0155180
915.237	0.0154441
915.315	0.0157171
915.393	0.0157339
915.471	0.0156741
915.549	0.0157584
915.628	0.0157162
915.706	0.0156098
915.784	0.0157579
915.862	0.0158128
915.940	0.0156588
916.018	0.0156330
916.096	0.0157009
916.174	0.0156882
916.253	0.0156800
916.331	0.0156300
916.409	0.0156945
916.487	0.0156698
916.565	0.0157572
916.643	0.0157899
916.721	0.0156855
916.799	0.0157863
916.878	0.0156803
916.956	0.0159175
917.034	0.0158553
917.112	0.0159514
917.190	0.0159415
917.268	0.0159496
917.346	0.0161539
917.424	0.0160889
917.503	0.0159621
917.581	0.0159745
917.659	0.0159984
917.737	0.0157751
917.815	0.0159300
917.893	0.0157983
917.971	0.0158038
918.049	0.0155858
918.128	0.0155431
918.206	0.0156308
918.284	0.0155328
918.362	0.0156392
918.440	0.0154807
918.518	0.0155105
918.596	0.0154716
918.674	0.0155350
918.753	0.0154703
918.831	0.0154836
918.909	0.0155482
918.987	0.0156105
919.065	0.0155026
919.143	0.0155737
919.221	0.0156826
919.299	0.0157804
919.378	0.0157138
919.456	0.0157275
919.534	0.0157436
919.612	0.0157964
919.690	0.0157423
919.768	0.0157647
919.846	0.0158652
919.924	0.0157145
920.003	0.0157322
920.081	0.0157220
920.159	0.0155708
920.237	0.0157161
920.315	0.0158582
920.393	0.0156768
920.471	0.0156188
920.549	0.0157616
920.628	0.0156423
920.706	0.0156911
920.784	0.0156525
920.862	0.0156361
920.940	0.0158448
921.018	0.0158322
921.096	0.0157044
921.174	0.0159562
921.253	0.0159325
921.331	0.0159382
921.409	0.0160685
921.487	0.0162453
921.565	0.0161625
921.643	0.0162322
921.721	0.0162029
921.799	0.0162225
921.878	0.0161421
921.956	0.0160773
922.034	0.0159022
922.112	0.0158713
922.190	0.0157472
922.268	0.0156271
922.346	0.0155728
922.424	0.0154930
922.503	0.0153874
922.581	0.0152982
922.659	0.0153726
922.737	0.0153406
922.815	0.0154491
922.893	0.0153846
922.971	0.0152454
923.049	0.0154041
923.128	0.0154565
923.206	0.0154945
923.284	0.0155945
923.362	0.0155634
923.440	0.0156774
923.518	0.0158214
923.596	0.0157960
923.674	0.0159519
923.753	0.0159089
923.831	0.0160110
923.909	0.0159383
923.987	0.0159605
924.065	0.0158514
924.143	0.0158109
924.221	0.0158526
924.299	0.0158231
924.378	0.0156380
924.456	0.0156924
924.534	0.0157267
924.612	0.0156849
924.690	0.0154432
924.768	0.0156763
924.846	0.0157003
924.924	0.0157088
925.003	0.0157317
925.081	0.0156782
925.159	0.0157608
925.237	0.0157949
925.315	0.0158429
925.393	0.0160574
925.471	0.0159734
925.549	0.0160441
925.628	0.0161601
925.706	0.0162594
925.784	0.0160592
925.862	0.0161660
925.940	0.0161602
926.018	0.0161270
926.096	0.0161932
926.174	0.0160190
926.253	0.0159316
926.331	0.0158939
926.409	0.0158679
926.487	0.0157361
926.565	0.0157048
926.643	0.0154559
926.721	0.0154630
926.799	0.0155626
926.878	0.0154215
926.956	0.0153432
927.034	0.0153211
927.112	0.0154644
927.190	0.0153287
927.268	0.0153460
927.346	0.0155203
927.424	0.0154818
927.503	0.0155362
927.581	0.0156741
927.659	0.0155944
927.737	0.0157260
927.815	0.0158656
927.893	0.0158817
927.971	0.0159480
928.049	0.0159368
928.128	0.0159501
928.206	0.0160175
928.284	0.0160271
928.362	0.0158416
928.440	0.0159100
928.518	0.0158795
928.596	0.0159058
928.674	0.0157040
928.753	0.0158517
928.831	0.0158001
928.909	0.0157863
928.987	0.0156530
929.065	0.0156437
929.143	0.0153988
929.221	0.0155534
929.299	0.0156204
929.378	0.0155948
929.456	0.0157173
929.534	0.0154951
929.612	0.0156528
929.690	0.0157729
929.768	0.0158627
929.846	0.0158314
929.924	0.0160004
930.003	0.0160927
930.081	0.0160873
930.159	0.0161620
930.237	0.0161485
930.315	0.0162193
930.393	0.0161596
930.471	0.0161072
930.549	0.0160789
930.628	0.0158499
930.706	0.0158910
930.784	0.0157857
930.862	0.0157327
930.940	0.0155240
931.018	0.0155910
931.096	0.0155505
931.174	0.0153497
931.253	0.0152397
931.331	0.0153759
931.409	0.0153623
931.487	0.0153581
931.565	0.0154683
931.643	0.0155113
931.721	0.0156865
931.799	0.0158178
931.878	0.0157086
931.956	0.0157132
932.034	0.0158299
932.112	0.0158632
932.190	0.0158462
932.268	0.0158778
932.346	0.0159447
932.424	0.0158682
932.503	0.0159219
932.581	0.0159240
932.659	0.0160162
932.737	0.0158299
932.815	0.0158152
932.893	0.0158652
932.971	0.0158685
933.049	0.0158951
933.128	0.0157587
933.206	0.0157766
933.284	0.0157130
933.362	0.0156675
933.440	0.0156519
933.518	0.0156924
933.596	0.0157069
933.674	0.0156104
933.753	0.0154546
933.831	0.0155414
933.909	0.0155551
933.987	0.0155309
934.065	0.0156133
934.143	0.0154536
934.221	0.0155257
934.299	0.0157016
934.378	0.0157167
934.456	0.0157709
934.534	0.0157834
934.612	0.0158820
934.690	0.0160591
934.768	0.0159232
934.846	0.0158367
934.924	0.0158887
935.003	0.0158454
935.081	0.0157507
935.159	0.0158224
935.237	0.0156728
935.315	0.0156592
935.393	0.0156284
935.471	0.0157153
935.549	0.0155874
935.628	0.0154921
935.706	0.0154920
935.784	0.0153939
935.862	0.0155209
935.940	0.0155557
936.018	0.0156221
936.096	0.0155538
936.174	0.0158400
936.253	0.0157980
936.331	0.0159026
936.409	0.0159868
936.487	0.0158186
936.565	0.0158611
936.643	0.0158823
936.721	0.0159396
936.799	0.0159657
936.878	0.0158910
936.956	0.0157287
937.034	0.0159172
937.112	0.0158234
937.190	0.0156979
937.268	0.0158023
937.346	0.0157481
937.424	0.0157144
937.503	0.0155399
937.581	0.0155686
937.659	0.0156665
937.737	0.0155963
937.815	0.0156940
937.893	0.0156524
937.971	0.0155743
938.049	0.0155988
938.128	0.0157173
938.206	0.0155901
938.284	0.0155838
938.362	0.0157501
938.440	0.0157072
938.518	0.0156239
938.596	0.0157166
938.674	0.0157919
938.753	0.0156771
938.831	0.0156348
938.909	0.0156191
938.987	0.0158379
939.065	0.0157720
939.143	0.0156937
939.221	0.0156626
939.299	0.0157898
939.378	0.0158279
939.456	0.0157281
939.534	0.0158305
939.612	0.0158237
939.690	0.0158979
939.768	0.0158083
939.846	0.0158897
939.924	0.0158232
940.003	0.0156942
940.081	0.0157914
940.159	0.0157114
940.237	0.0158416
940.315	0.0156944
940.393	0.0156776
940.471	0.0157233
940.549	0.0158731
940.628	0.0156666
940.706	0.0158238
940.784	0.0158022
940.862	0.0156989
940.940	0.0157806
941.018	0.0159480
941.096	0.0157452
941.174	0.0157136
941.253	0.0158379
941.331	0.0158987
941.409	0.0157696
941.487	0.0157162
941.565	0.0157632
941.643	0.0156979
941.721	0.0158218
941.799	0.0156723
941.878	0.0158253
941.956	0.0157411
942.034	0.0155680
942.112	0.0157141
942.190	0.0157785
942.268	0.0156688
942.346	0.0157043
942.424	0.0156555
942.503	0.0157854
942.581	0.0158091
942.659	0.0157256
942.737	0.0156108
942.815	0.0156757
942.893	0.0157848
942.971	0.0158278
943.049	0.0156900
943.128	0.0157714
943.206	0.0156576
943.284	0.0156013
943.362	0.0157805
943.440	0.0157358
943.518	0.0157591
943.596	0.0156873
943.674	0.0158683
943.753	0.0157988
943.831	0.0157658
943.909	0.0158778
943.987	0.0156673
944.065	0.0156924
944.143	0.0157497
944.221	0.0157932
944.299	0.0157147
944.378	0.0156928
944.456	0.0157925
944.534	0.0156199
944.612	0.0158001
944.690	0.0157427
944.768	0.0157691
944.846	0.0156497
944.924	0.0155576
945.003	0.0157274
945.081	0.0155939
945.159	0.0156592
945.237	0.0157355
945.315	0.0158031
945.393	0.0157224
945.471	0.0157358
945.549	0.0156173
945.628	0.0157120
945.706	0.0157258
945.784	0.0157789
945.862	0.0155840
945.940	0.0157141
946.018	0.0156609
946.096	0.0157508
946.174	0.0156026
946.253	0.0157314
946.331	0.0155794
946.409	0.0157439
946.487	0.0156033
946.565	0.0156509
946.643	0.0157771
946.721	0.0158703
946.799	0.0158076
946.878	0.0157128
946.956	0.0157037
947.034	0.0156805
947.112	0.0157915
947.190	0.0157542
947.268	0.0158094
947.346	0.0157246
947.424	0.0157800
947.503	0.0157656
947.581	0.0156863
947.659	0.0156782
947.737	0.0156094
947.815	0.0156129
947.893	0.0156944
947.971	0.0157189
948.049	0.0157575
948.128	0.0157565
948.206	0.0158200
948.284	0.0157191
948.362	0.0157073
948.440	0.0158527
948.518	0.0157936
948.596	0.0157777
948.674	0.0157251
948.753	0.0157864
948.831	0.0157803
948.909	0.0157652
948.987	0.0155297
949.065	0.0157825
949.143	0.0157106
949.221	0.0157160
949.299	0.0156968
949.378	0.0157648
949.456	0.0155997
949.534	0.0156638
949.612	0.0157300
949.690	0.0157071
949.768	0.0157994
949.846	0.0156796
949.924	0.0156882
