06/29/2022	22:53:00	Ver.	4.1	UNKNOWN
Optical Delay	630.002507	Delta X		0.078125	Sweeps	1	Scan Rate	0/0
Coordinates	Axis 1	NaN	Axis 2	NaN	Axis 3	NaN	Axis 4	NaN	Axis 5	NaN	Axis 6	0.000000
TX Power	0.000000	RX Power	0.000000

630.003	0.0160067
630.081	0.0159654
630.159	0.0160400
630.237	0.0159744
630.315	0.0159503
630.393	0.0159522
630.471	0.0160693
630.549	0.0158981
630.628	0.0159149
630.706	0.0159930
630.784	0.0159748
630.862	0.0159905
630.940	0.0159913
631.018	0.0160018
631.096	0.0160515
631.174	0.0159187
631.253	0.0160562
631.331	0.0160347
631.409	0.0159547
631.487	0.0160944
631.565	0.0159515
631.643	0.0159479
631.721	0.0159140
631.799	0.0160142
631.878	0.0159779
631.956	0.0161309
632.034	0.0161267
632.112	0.0160229
632.190	0.0160453
632.268	0.0159441
632.346	0.0161073
632.424	0.0158961
632.503	0.0159478
632.581	0.0159747
632.659	0.0159267
632.737	0.0159934
632.815	0.0159492
632.893	0.0159618
632.971	0.0159399
633.049	0.0160375
633.128	0.0160198
633.206	0.0159354
633.284	0.0159489
633.362	0.0158887
633.440	0.0159750
633.518	0.0160347
633.596	0.0160662
633.674	0.0160281
633.753	0.0159679
633.831	0.0159935
633.909	0.0161282
633.987	0.0160168
634.065	0.0160509
634.143	0.0160863
634.221	0.0161685
634.299	0.0159894
634.378	0.0158372
634.456	0.0160271
634.534	0.0161137
634.612	0.0159559
634.690	0.0159895
634.768	0.0159188
634.846	0.0159908
634.924	0.0159363
635.003	0.0160590
635.081	0.0160210
635.159	0.0160976
635.237	0.0160252
635.315	0.0159260
635.393	0.0160912
635.471	0.0158701
635.549	0.0159113
635.628	0.0161161
635.706	0.0160728
635.784	0.0159528
635.862	0.0159966
635.940	0.0160315
636.018	0.0160452
636.096	0.0159857
636.174	0.0160462
636.253	0.0160480
636.331	0.0160942
636.409	0.0159159
636.487	0.0159526
636.565	0.0160941
636.643	0.0160664
636.721	0.0159924
636.799	0.0160029
636.878	0.0160177
636.956	0.0160772
637.034	0.0159321
637.112	0.0160318
637.190	0.0160945
637.268	0.0159956
637.346	0.0160674
637.424	0.0160023
637.503	0.0159849
637.581	0.0159970
637.659	0.0160957
637.737	0.0159227
637.815	0.0159872
637.893	0.0160429
637.971	0.0159990
638.049	0.0158567
638.128	0.0160708
638.206	0.0159865
638.284	0.0159331
638.362	0.0159202
638.440	0.0160647
638.518	0.0159947
638.596	0.0160399
638.674	0.0160086
638.753	0.0159949
638.831	0.0159166
638.909	0.0159763
638.987	0.0160970
639.065	0.0160787
639.143	0.0160732
639.221	0.0160941
639.299	0.0159808
639.378	0.0159275
639.456	0.0159341
639.534	0.0160825
639.612	0.0159464
639.690	0.0158674
639.768	0.0159676
639.846	0.0159449
639.924	0.0160535
640.003	0.0159794
640.081	0.0159857
640.159	0.0160441
640.237	0.0159781
640.315	0.0160162
640.393	0.0160394
640.471	0.0158541
640.549	0.0160522
640.628	0.0159184
640.706	0.0158267
640.784	0.0160520
640.862	0.0160825
640.940	0.0159933
641.018	0.0160368
641.096	0.0161156
641.174	0.0161324
641.253	0.0159789
641.331	0.0160186
641.409	0.0159715
641.487	0.0158887
641.565	0.0159966
641.643	0.0160040
641.721	0.0159261
641.799	0.0159669
641.878	0.0160486
641.956	0.0158824
642.034	0.0160137
642.112	0.0160684
642.190	0.0159872
642.268	0.0158031
642.346	0.0159742
642.424	0.0159588
642.503	0.0159386
642.581	0.0161206
642.659	0.0161002
642.737	0.0159805
642.815	0.0159611
642.893	0.0160809
642.971	0.0160097
643.049	0.0160019
643.128	0.0161610
643.206	0.0160861
643.284	0.0160020
643.362	0.0160317
643.440	0.0159885
643.518	0.0159444
643.596	0.0161757
643.674	0.0161399
643.753	0.0160070
643.831	0.0159599
643.909	0.0159008
643.987	0.0159608
644.065	0.0160217
644.143	0.0160439
644.221	0.0161534
644.299	0.0160116
644.378	0.0159792
644.456	0.0160378
644.534	0.0160695
644.612	0.0159651
644.690	0.0159978
644.768	0.0160744
644.846	0.0159821
644.924	0.0159184
645.003	0.0159930
645.081	0.0159725
645.159	0.0160900
645.237	0.0160567
645.315	0.0159405
645.393	0.0160207
645.471	0.0159999
645.549	0.0160268
645.628	0.0159512
645.706	0.0159020
645.784	0.0160690
645.862	0.0160243
645.940	0.0159564
646.018	0.0159971
646.096	0.0159637
646.174	0.0160537
646.253	0.0160724
646.331	0.0160771
646.409	0.0159501
646.487	0.0159372
646.565	0.0159853
646.643	0.0161115
646.721	0.0160633
646.799	0.0160433
646.878	0.0159548
646.956	0.0158686
647.034	0.0161070
647.112	0.0160065
647.190	0.0160813
647.268	0.0160404
647.346	0.0159892
647.424	0.0159230
647.503	0.0159869
647.581	0.0160169
647.659	0.0160121
647.737	0.0160548
647.815	0.0159463
647.893	0.0158535
647.971	0.0161067
648.049	0.0160835
648.128	0.0159270
648.206	0.0161332
648.284	0.0159982
648.362	0.0159482
648.440	0.0159868
648.518	0.0160087
648.596	0.0159998
648.674	0.0159271
648.753	0.0160954
648.831	0.0160488
648.909	0.0159758
648.987	0.0159839
649.065	0.0159937
649.143	0.0160484
649.221	0.0161367
649.299	0.0159703
649.378	0.0159644
649.456	0.0159283
649.534	0.0159030
649.612	0.0160583
649.690	0.0159512
649.768	0.0159500
649.846	0.0160357
649.924	0.0161315
650.003	0.0159256
650.081	0.0159277
650.159	0.0160558
650.237	0.0160260
650.315	0.0159689
650.393	0.0160563
650.471	0.0161660
650.549	0.0158750
650.628	0.0160543
650.706	0.0160741
650.784	0.0159836
650.862	0.0161130
650.940	0.0159914
651.018	0.0160477
651.096	0.0160954
651.174	0.0160127
651.253	0.0160900
651.331	0.0160426
651.409	0.0159441
651.487	0.0159144
651.565	0.0160202
651.643	0.0159649
651.721	0.0161227
651.799	0.0160186
651.878	0.0160335
651.956	0.0160766
652.034	0.0161402
652.112	0.0161720
652.190	0.0159592
652.268	0.0159233
652.346	0.0160706
652.424	0.0160292
652.503	0.0161353
652.581	0.0160677
652.659	0.0160289
652.737	0.0159921
652.815	0.0160883
652.893	0.0159935
652.971	0.0160918
653.049	0.0160815
653.128	0.0158890
653.206	0.0160990
653.284	0.0158908
653.362	0.0157964
653.440	0.0160110
653.518	0.0159872
653.596	0.0160072
653.674	0.0160785
653.753	0.0160027
653.831	0.0159634
653.909	0.0159667
653.987	0.0159338
654.065	0.0159605
654.143	0.0161297
654.221	0.0160199
654.299	0.0160093
654.378	0.0159761
654.456	0.0159130
654.534	0.0160238
654.612	0.0161081
654.690	0.0161089
654.768	0.0160949
654.846	0.0160791
654.924	0.0160786
655.003	0.0161866
655.081	0.0161362
655.159	0.0162003
655.237	0.0160573
655.315	0.0160197
655.393	0.0161849
655.471	0.0161228
655.549	0.0160684
655.628	0.0160735
655.706	0.0160246
655.784	0.0159358
655.862	0.0162513
655.940	0.0159936
656.018	0.0158978
656.096	0.0160689
656.174	0.0160295
656.253	0.0160562
656.331	0.0159254
656.409	0.0160783
656.487	0.0162152
656.565	0.0160747
656.643	0.0160610
656.721	0.0161749
656.799	0.0161069
656.878	0.0160337
656.956	0.0161546
657.034	0.0158770
657.112	0.0159845
657.190	0.0160660
657.268	0.0159686
657.346	0.0159688
657.424	0.0159484
657.503	0.0161645
657.581	0.0160550
657.659	0.0161075
657.737	0.0161436
657.815	0.0158835
657.893	0.0159398
657.971	0.0160085
658.049	0.0160760
658.128	0.0160712
658.206	0.0160231
658.284	0.0159778
658.362	0.0159318
658.440	0.0159198
658.518	0.0160801
658.596	0.0160605
658.674	0.0161906
658.753	0.0160141
658.831	0.0160382
658.909	0.0160120
658.987	0.0159686
659.065	0.0160999
659.143	0.0160796
659.221	0.0161166
659.299	0.0160524
659.378	0.0161871
659.456	0.0160268
659.534	0.0161829
659.612	0.0160957
659.690	0.0161134
659.768	0.0160674
659.846	0.0161102
659.924	0.0160463
660.003	0.0160317
660.081	0.0159649
660.159	0.0160750
660.237	0.0160696
660.315	0.0161913
660.393	0.0159259
660.471	0.0159755
660.549	0.0159490
660.628	0.0161275
660.706	0.0161503
660.784	0.0161361
660.862	0.0159831
660.940	0.0159652
661.018	0.0161288
661.096	0.0160583
661.174	0.0160372
661.253	0.0158872
661.331	0.0160106
661.409	0.0161736
661.487	0.0161290
661.565	0.0160397
661.643	0.0159453
661.721	0.0160696
661.799	0.0160215
661.878	0.0160255
661.956	0.0160059
662.034	0.0160727
662.112	0.0161015
662.190	0.0161052
662.268	0.0160359
662.346	0.0160172
662.424	0.0160061
662.503	0.0160075
662.581	0.0159212
662.659	0.0161206
662.737	0.0160571
662.815	0.0158415
662.893	0.0159951
662.971	0.0158890
663.049	0.0159658
663.128	0.0161012
663.206	0.0159991
663.284	0.0160957
663.362	0.0160990
663.440	0.0161021
663.518	0.0160074
663.596	0.0159320
663.674	0.0159760
663.753	0.0160387
663.831	0.0159932
663.909	0.0161071
663.987	0.0160489
664.065	0.0160098
664.143	0.0159864
664.221	0.0160804
664.299	0.0160847
664.378	0.0160796
664.456	0.0160979
664.534	0.0159113
664.612	0.0159457
664.690	0.0159265
664.768	0.0160433
664.846	0.0161095
664.924	0.0159961
665.003	0.0159941
665.081	0.0160419
665.159	0.0159205
665.237	0.0159346
665.315	0.0160352
665.393	0.0159999
665.471	0.0159238
665.549	0.0159544
665.628	0.0161019
665.706	0.0159672
665.784	0.0160770
665.862	0.0160516
665.940	0.0159450
666.018	0.0159798
666.096	0.0161516
666.174	0.0159131
666.253	0.0158887
666.331	0.0159960
666.409	0.0160947
666.487	0.0160149
666.565	0.0160986
666.643	0.0160191
666.721	0.0160568
666.799	0.0160802
666.878	0.0159473
666.956	0.0159687
667.034	0.0159061
667.112	0.0160878
667.190	0.0160361
667.268	0.0160471
667.346	0.0160260
667.424	0.0160695
667.503	0.0159484
667.581	0.0160273
667.659	0.0159499
667.737	0.0159255
667.815	0.0160091
667.893	0.0159721
667.971	0.0160350
668.049	0.0160168
668.128	0.0160667
668.206	0.0160680
668.284	0.0159361
668.362	0.0160091
668.440	0.0161706
668.518	0.0159885
668.596	0.0160575
668.674	0.0161356
668.753	0.0160232
668.831	0.0159908
668.909	0.0160993
668.987	0.0160780
669.065	0.0160117
669.143	0.0161030
669.221	0.0160563
669.299	0.0159903
669.378	0.0161178
669.456	0.0161094
669.534	0.0160903
669.612	0.0159747
669.690	0.0161330
669.768	0.0161665
669.846	0.0159124
669.924	0.0160696
670.003	0.0159824
670.081	0.0160976
670.159	0.0159948
670.237	0.0160794
670.315	0.0160028
670.393	0.0159954
670.471	0.0160973
670.549	0.0159974
670.628	0.0159339
670.706	0.0160931
670.784	0.0159445
670.862	0.0160570
670.940	0.0159595
671.018	0.0160153
671.096	0.0160061
671.174	0.0161142
671.253	0.0161015
671.331	0.0160114
671.409	0.0159610
671.487	0.0159532
671.565	0.0159429
671.643	0.0160035
671.721	0.0160115
671.799	0.0160960
671.878	0.0160673
671.956	0.0160027
672.034	0.0159491
672.112	0.0160777
672.190	0.0160220
672.268	0.0161484
672.346	0.0161204
672.424	0.0160995
672.503	0.0160639
672.581	0.0160120
672.659	0.0160372
672.737	0.0159129
672.815	0.0160305
672.893	0.0159979
672.971	0.0160014
673.049	0.0159667
673.128	0.0159969
673.206	0.0161404
673.284	0.0160163
673.362	0.0160796
673.440	0.0159950
673.518	0.0160352
673.596	0.0159953
673.674	0.0159146
673.753	0.0160101
673.831	0.0160415
673.909	0.0159276
673.987	0.0160780
674.065	0.0160601
674.143	0.0159701
674.221	0.0161228
674.299	0.0160339
674.378	0.0159959
674.456	0.0159565
674.534	0.0159769
674.612	0.0159933
674.690	0.0160130
674.768	0.0159943
674.846	0.0160337
674.924	0.0160384
675.003	0.0159843
675.081	0.0159810
675.159	0.0159875
675.237	0.0160538
675.315	0.0160158
675.393	0.0160309
675.471	0.0161739
675.549	0.0159586
675.628	0.0159699
675.706	0.0160799
675.784	0.0160563
675.862	0.0160622
675.940	0.0160567
676.018	0.0159773
676.096	0.0159892
676.174	0.0161114
676.253	0.0160221
676.331	0.0160376
676.409	0.0161919
676.487	0.0161567
676.565	0.0160142
676.643	0.0160676
676.721	0.0159090
676.799	0.0160685
676.878	0.0161440
676.956	0.0161533
677.034	0.0160942
677.112	0.0161291
677.190	0.0160195
677.268	0.0159843
677.346	0.0160210
677.424	0.0160726
677.503	0.0159998
677.581	0.0159557
677.659	0.0159572
677.737	0.0160457
677.815	0.0161269
677.893	0.0159444
677.971	0.0160658
678.049	0.0160029
678.128	0.0160545
678.206	0.0160672
678.284	0.0160568
678.362	0.0160219
678.440	0.0160871
678.518	0.0160253
678.596	0.0159779
678.674	0.0160764
678.753	0.0159949
678.831	0.0159656
678.909	0.0160108
678.987	0.0160152
679.065	0.0160826
679.143	0.0160320
679.221	0.0159083
679.299	0.0160212
679.378	0.0161435
679.456	0.0161675
679.534	0.0160094
679.612	0.0160389
679.690	0.0160252
679.768	0.0161264
679.846	0.0160635
679.924	0.0161380
680.003	0.0160987
680.081	0.0159710
680.159	0.0160248
680.237	0.0160406
680.315	0.0160678
680.393	0.0159113
680.471	0.0159618
680.549	0.0161799
680.628	0.0159551
680.706	0.0160507
680.784	0.0160741
680.862	0.0159932
680.940	0.0159376
681.018	0.0160339
681.096	0.0161597
681.174	0.0159444
681.253	0.0160702
681.331	0.0160558
681.409	0.0161081
681.487	0.0161358
681.565	0.0161107
681.643	0.0159245
681.721	0.0160477
681.799	0.0160690
681.878	0.0161433
681.956	0.0159723
682.034	0.0160545
682.112	0.0159951
682.190	0.0160591
682.268	0.0158891
682.346	0.0160795
682.424	0.0159830
682.503	0.0160571
682.581	0.0160226
682.659	0.0159245
682.737	0.0160157
682.815	0.0159846
682.893	0.0160416
682.971	0.0159415
683.049	0.0160532
683.128	0.0160482
683.206	0.0160394
683.284	0.0160280
683.362	0.0160594
683.440	0.0159642
683.518	0.0160347
683.596	0.0161260
683.674	0.0159420
683.753	0.0158803
683.831	0.0160898
683.909	0.0160330
683.987	0.0158961
684.065	0.0160770
684.143	0.0160257
684.221	0.0159773
684.299	0.0159119
684.378	0.0158646
684.456	0.0160145
684.534	0.0160043
684.612	0.0159894
684.690	0.0161031
684.768	0.0161678
684.846	0.0159667
684.924	0.0159776
685.003	0.0159526
685.081	0.0158730
685.159	0.0161584
685.237	0.0161386
685.315	0.0161066
685.393	0.0159438
685.471	0.0160130
685.549	0.0160237
685.628	0.0160159
685.706	0.0160699
685.784	0.0160213
685.862	0.0158794
685.940	0.0160217
686.018	0.0160856
686.096	0.0160320
686.174	0.0159879
686.253	0.0160269
686.331	0.0159436
686.409	0.0160003
686.487	0.0159859
686.565	0.0159866
686.643	0.0161233
686.721	0.0160807
686.799	0.0161048
686.878	0.0159216
686.956	0.0161983
687.034	0.0160938
687.112	0.0160525
687.190	0.0160387
687.268	0.0159431
687.346	0.0160369
687.424	0.0161337
687.503	0.0160641
687.581	0.0160080
687.659	0.0160574
687.737	0.0160255
687.815	0.0160014
687.893	0.0161176
687.971	0.0160124
688.049	0.0160383
688.128	0.0157966
688.206	0.0159924
688.284	0.0161135
688.362	0.0161115
688.440	0.0161668
688.518	0.0159348
688.596	0.0159496
688.674	0.0160566
688.753	0.0161995
688.831	0.0159541
688.909	0.0158474
688.987	0.0159990
689.065	0.0161061
689.143	0.0159693
689.221	0.0160689
689.299	0.0160701
689.378	0.0159534
689.456	0.0159804
689.534	0.0160159
689.612	0.0160309
689.690	0.0161050
689.768	0.0159625
689.846	0.0159693
689.924	0.0159426
690.003	0.0159675
690.081	0.0160291
690.159	0.0159258
690.237	0.0160206
690.315	0.0159202
690.393	0.0160857
690.471	0.0160040
690.549	0.0161018
690.628	0.0158003
690.706	0.0159856
690.784	0.0160344
690.862	0.0161466
690.940	0.0160460
691.018	0.0159321
691.096	0.0160535
691.174	0.0160347
691.253	0.0160458
691.331	0.0158617
691.409	0.0159004
691.487	0.0160091
691.565	0.0159579
691.643	0.0160072
691.721	0.0159497
691.799	0.0160124
691.878	0.0159901
691.956	0.0160497
692.034	0.0161721
692.112	0.0160059
692.190	0.0160233
692.268	0.0160861
692.346	0.0161173
692.424	0.0160634
692.503	0.0159645
692.581	0.0160251
692.659	0.0160661
692.737	0.0159358
692.815	0.0157970
692.893	0.0161067
692.971	0.0160732
693.049	0.0158894
693.128	0.0159467
693.206	0.0160890
693.284	0.0158634
693.362	0.0160289
693.440	0.0160806
693.518	0.0159647
693.596	0.0158539
693.674	0.0158980
693.753	0.0159705
693.831	0.0160476
693.909	0.0159038
693.987	0.0159380
694.065	0.0160475
694.143	0.0159126
694.221	0.0158878
694.299	0.0160698
694.378	0.0160629
694.456	0.0160542
694.534	0.0159832
694.612	0.0160092
694.690	0.0160023
694.768	0.0159521
694.846	0.0160602
694.924	0.0159438
695.003	0.0160088
695.081	0.0160565
695.159	0.0160151
695.237	0.0160650
695.315	0.0160579
695.393	0.0159549
695.471	0.0160246
695.549	0.0160207
695.628	0.0160431
695.706	0.0160181
695.784	0.0160133
695.862	0.0159525
695.940	0.0158683
696.018	0.0159513
696.096	0.0161181
696.174	0.0161545
696.253	0.0160007
696.331	0.0158505
696.409	0.0160243
696.487	0.0160295
696.565	0.0159717
696.643	0.0159155
696.721	0.0160917
696.799	0.0160816
696.878	0.0160425
696.956	0.0160295
697.034	0.0160838
697.112	0.0160301
697.190	0.0160567
697.268	0.0160226
697.346	0.0160190
697.424	0.0159648
697.503	0.0159966
697.581	0.0159899
697.659	0.0159585
697.737	0.0160870
697.815	0.0160574
697.893	0.0159865
697.971	0.0160201
698.049	0.0159779
698.128	0.0159512
698.206	0.0160764
698.284	0.0160875
698.362	0.0159918
698.440	0.0160946
698.518	0.0161203
698.596	0.0160396
698.674	0.0159107
698.753	0.0161046
698.831	0.0159394
698.909	0.0158691
698.987	0.0161095
699.065	0.0159287
699.143	0.0160926
699.221	0.0161347
699.299	0.0159731
699.378	0.0160060
699.456	0.0159392
699.534	0.0159507
699.612	0.0159631
699.690	0.0161106
699.768	0.0160832
699.846	0.0159532
699.924	0.0159884
700.003	0.0160448
700.081	0.0158084
700.159	0.0159548
700.237	0.0160126
700.315	0.0159677
700.393	0.0160152
700.471	0.0159689
700.549	0.0158640
700.628	0.0159275
700.706	0.0158969
700.784	0.0157645
700.862	0.0159903
700.940	0.0159242
701.018	0.0158320
701.096	0.0159296
701.174	0.0160349
701.253	0.0158861
701.331	0.0159293
701.409	0.0159731
701.487	0.0158992
701.565	0.0160365
701.643	0.0160569
701.721	0.0160655
701.799	0.0159917
701.878	0.0159617
701.956	0.0160253
702.034	0.0160468
702.112	0.0160770
702.190	0.0160296
702.268	0.0159673
702.346	0.0160306
702.424	0.0160828
702.503	0.0160782
702.581	0.0160973
702.659	0.0159769
702.737	0.0159840
702.815	0.0162181
702.893	0.0161955
702.971	0.0161011
703.049	0.0161929
703.128	0.0159509
703.206	0.0161428
703.284	0.0162187
703.362	0.0161018
703.440	0.0161598
703.518	0.0161934
703.596	0.0160445
703.674	0.0160064
703.753	0.0160912
703.831	0.0159164
703.909	0.0158010
703.987	0.0159087
704.065	0.0160186
704.143	0.0157771
704.221	0.0159425
704.299	0.0159380
704.378	0.0160598
704.456	0.0159856
704.534	0.0161071
704.612	0.0160836
704.690	0.0159700
704.768	0.0159315
704.846	0.0159396
704.924	0.0159628
705.003	0.0157976
705.081	0.0158524
705.159	0.0158849
705.237	0.0157821
705.315	0.0158280
705.393	0.0158492
705.471	0.0157870
705.549	0.0159171
705.628	0.0159217
705.706	0.0159772
705.784	0.0159956
705.862	0.0156832
705.940	0.0159615
706.018	0.0159241
706.096	0.0159196
706.174	0.0159299
706.253	0.0159175
706.331	0.0161195
706.409	0.0160878
706.487	0.0161533
706.565	0.0161851
706.643	0.0160924
706.721	0.0160852
706.799	0.0160277
706.878	0.0158302
706.956	0.0158674
707.034	0.0158969
707.112	0.0156767
707.190	0.0155154
707.268	0.0155142
707.346	0.0156479
707.424	0.0156403
707.503	0.0156940
707.581	0.0159564
707.659	0.0160680
707.737	0.0162045
707.815	0.0162501
707.893	0.0163789
707.971	0.0163632
708.049	0.0162765
708.128	0.0165433
708.206	0.0163329
708.284	0.0162754
708.362	0.0159583
708.440	0.0158734
708.518	0.0158161
708.596	0.0157839
708.674	0.0156075
708.753	0.0155774
708.831	0.0154471
708.909	0.0157111
708.987	0.0156324
709.065	0.0158342
709.143	0.0160469
709.221	0.0160165
709.299	0.0162953
709.378	0.0164000
709.456	0.0164734
709.534	0.0165453
709.612	0.0165307
709.690	0.0162624
709.768	0.0163997
709.846	0.0164263
709.924	0.0162801
710.003	0.0161484
710.081	0.0160229
710.159	0.0158783
710.237	0.0157142
710.315	0.0157090
710.393	0.0155266
710.471	0.0155624
710.549	0.0155673
710.628	0.0155505
710.706	0.0158105
710.784	0.0159656
710.862	0.0160132
710.940	0.0161961
711.018	0.0162679
711.096	0.0164697
711.174	0.0165080
711.253	0.0164924
711.331	0.0166512
711.409	0.0165089
711.487	0.0164199
711.565	0.0162031
711.643	0.0159739
711.721	0.0159356
711.799	0.0157037
711.878	0.0156803
711.956	0.0155927
712.034	0.0156425
712.112	0.0155759
712.190	0.0155264
712.268	0.0155527
712.346	0.0156696
712.424	0.0157323
712.503	0.0159741
712.581	0.0160418
712.659	0.0160553
712.737	0.0160783
712.815	0.0161288
712.893	0.0161253
712.971	0.0161003
713.049	0.0161252
713.128	0.0162173
713.206	0.0162384
713.284	0.0163300
713.362	0.0165195
713.440	0.0164561
713.518	0.0162457
713.596	0.0161912
713.674	0.0161105
713.753	0.0159177
713.831	0.0158778
713.909	0.0158856
713.987	0.0158537
714.065	0.0158126
714.143	0.0156090
714.221	0.0157230
714.299	0.0156246
714.378	0.0158738
714.456	0.0157840
714.534	0.0159077
714.612	0.0161194
714.690	0.0161716
714.768	0.0164804
714.846	0.0165472
714.924	0.0164932
715.003	0.0163891
715.081	0.0165768
715.159	0.0165411
715.237	0.0163038
715.315	0.0161367
715.393	0.0160189
715.471	0.0160264
715.549	0.0158797
715.628	0.0156144
715.706	0.0154295
715.784	0.0154958
715.862	0.0154998
715.940	0.0154052
716.018	0.0155476
716.096	0.0156450
716.174	0.0156299
716.253	0.0157351
716.331	0.0159238
716.409	0.0160493
716.487	0.0160844
716.565	0.0163021
716.643	0.0162716
716.721	0.0163952
716.799	0.0165418
716.878	0.0163927
716.956	0.0165083
717.034	0.0164082
717.112	0.0164256
717.190	0.0163375
717.268	0.0165038
717.346	0.0163048
717.424	0.0161334
717.503	0.0161295
717.581	0.0160728
717.659	0.0159959
717.737	0.0158497
717.815	0.0157222
717.893	0.0157750
717.971	0.0155819
718.049	0.0156123
718.128	0.0156664
718.206	0.0155801
718.284	0.0155685
718.362	0.0156590
718.440	0.0156564
718.518	0.0158021
718.596	0.0157445
718.674	0.0158754
718.753	0.0160650
718.831	0.0159724
718.909	0.0161282
718.987	0.0161500
719.065	0.0163175
719.143	0.0161536
719.221	0.0161124
719.299	0.0160223
719.378	0.0162328
719.456	0.0159892
719.534	0.0158904
719.612	0.0158978
719.690	0.0157839
719.768	0.0156041
719.846	0.0156915
719.924	0.0156477
720.003	0.0160466
720.081	0.0159642
720.159	0.0160958
720.237	0.0161864
720.315	0.0162379
720.393	0.0165025
720.471	0.0165879
720.549	0.0166905
720.628	0.0167117
720.706	0.0165437
720.784	0.0162327
720.862	0.0161885
720.940	0.0159957
721.018	0.0157832
721.096	0.0155065
721.174	0.0152298
721.253	0.0150611
721.331	0.0148347
721.409	0.0148860
721.487	0.0149637
721.565	0.0150481
721.643	0.0152550
721.721	0.0155146
721.799	0.0158424
721.878	0.0162326
721.956	0.0166788
722.034	0.0169353
722.112	0.0171976
722.190	0.0174261
722.268	0.0176429
722.346	0.0176452
722.424	0.0174744
722.503	0.0175072
722.581	0.0172205
722.659	0.0168130
722.737	0.0165568
722.815	0.0164880
722.893	0.0160684
722.971	0.0158054
723.049	0.0156913
723.128	0.0156039
723.206	0.0153854
723.284	0.0154590
723.362	0.0152893
723.440	0.0153322
723.518	0.0153374
723.596	0.0153857
723.674	0.0153176
723.753	0.0152648
723.831	0.0152534
723.909	0.0152270
723.987	0.0152314
724.065	0.0150103
724.143	0.0149323
724.221	0.0149630
724.299	0.0147305
724.378	0.0145998
724.456	0.0146313
724.534	0.0146304
724.612	0.0147982
724.690	0.0150645
724.768	0.0151663
724.846	0.0156219
724.924	0.0160201
725.003	0.0162820
725.081	0.0168208
725.159	0.0172377
725.237	0.0174502
725.315	0.0177031
725.393	0.0177418
725.471	0.0178262
725.549	0.0177824
725.628	0.0176933
725.706	0.0173760
725.784	0.0170829
725.862	0.0168098
725.940	0.0167714
726.018	0.0162908
726.096	0.0162421
726.174	0.0162367
726.253	0.0160928
726.331	0.0159502
726.409	0.0161352
726.487	0.0161967
726.565	0.0160857
726.643	0.0163792
726.721	0.0165567
726.799	0.0168874
726.878	0.0168758
726.956	0.0168819
727.034	0.0170621
727.112	0.0170782
727.190	0.0170741
727.268	0.0170358
727.346	0.0168893
727.424	0.0168188
727.503	0.0166995
727.581	0.0163754
727.659	0.0160903
727.737	0.0157206
727.815	0.0153386
727.893	0.0148988
727.971	0.0144638
728.049	0.0140044
728.128	0.0136348
728.206	0.0131482
728.284	0.0126981
728.362	0.0125880
728.440	0.0124315
728.518	0.0123129
728.596	0.0126196
728.674	0.0128722
728.753	0.0130399
728.831	0.0135836
728.909	0.0140794
728.987	0.0146971
729.065	0.0152985
729.143	0.0158826
729.221	0.0165848
729.299	0.0169412
729.378	0.0174700
729.456	0.0176976
729.534	0.0178984
729.612	0.0183765
729.690	0.0183851
729.768	0.0186606
729.846	0.0185664
729.924	0.0186221
730.003	0.0186714
730.081	0.0185768
730.159	0.0184639
730.237	0.0182908
730.315	0.0180357
730.393	0.0177401
730.471	0.0176072
730.549	0.0172992
730.628	0.0172175
730.706	0.0170899
730.784	0.0168197
730.862	0.0166100
730.940	0.0162282
731.018	0.0159643
731.096	0.0159294
731.174	0.0158861
731.253	0.0158704
731.331	0.0157539
731.409	0.0159225
731.487	0.0160648
731.565	0.0161917
731.643	0.0163155
731.721	0.0163814
731.799	0.0163322
731.878	0.0162489
731.956	0.0160255
732.034	0.0161518
732.112	0.0157893
732.190	0.0154152
732.268	0.0149852
732.346	0.0148139
732.424	0.0142123
732.503	0.0137365
732.581	0.0133200
732.659	0.0129363
732.737	0.0124729
732.815	0.0123313
732.893	0.0121917
732.971	0.0120547
733.049	0.0121532
733.128	0.0122152
733.206	0.0125057
733.284	0.0128631
733.362	0.0133036
733.440	0.0139328
733.518	0.0145195
733.596	0.0153564
733.674	0.0160945
733.753	0.0168254
733.831	0.0173997
733.909	0.0181666
733.987	0.0187718
734.065	0.0191385
734.143	0.0197242
734.221	0.0199858
734.299	0.0201221
734.378	0.0200448
734.456	0.0197487
734.534	0.0194117
734.612	0.0192745
734.690	0.0189827
734.768	0.0186108
734.846	0.0182062
734.924	0.0177460
735.003	0.0176105
735.081	0.0174573
735.159	0.0170144
735.237	0.0169912
735.315	0.0168781
735.393	0.0166032
735.471	0.0164993
735.549	0.0163726
735.628	0.0162903
735.706	0.0161629
735.784	0.0160722
735.862	0.0159698
735.940	0.0159937
736.018	0.0158067
736.096	0.0157838
736.174	0.0153665
736.253	0.0154594
736.331	0.0153061
736.409	0.0151266
736.487	0.0149886
736.565	0.0148665
736.643	0.0145482
736.721	0.0143378
736.799	0.0140876
736.878	0.0138479
736.956	0.0133350
737.034	0.0129799
737.112	0.0126070
737.190	0.0124331
737.268	0.0122678
737.346	0.0121352
737.424	0.0123467
737.503	0.0124532
737.581	0.0128500
737.659	0.0134254
737.737	0.0139371
737.815	0.0144144
737.893	0.0150896
737.971	0.0157585
738.049	0.0165382
738.128	0.0169938
738.206	0.0175981
738.284	0.0181754
738.362	0.0187785
738.440	0.0191508
738.518	0.0193030
738.596	0.0194878
738.674	0.0195346
738.753	0.0194353
738.831	0.0194476
738.909	0.0191667
738.987	0.0187461
739.065	0.0185638
739.143	0.0180778
739.221	0.0175349
739.299	0.0170763
739.378	0.0166213
739.456	0.0165547
739.534	0.0161930
739.612	0.0161643
739.690	0.0160076
739.768	0.0159621
739.846	0.0159129
739.924	0.0160773
740.003	0.0162109
740.081	0.0163652
740.159	0.0165601
740.237	0.0165968
740.315	0.0166321
740.393	0.0167194
740.471	0.0166759
740.549	0.0167096
740.628	0.0165346
740.706	0.0165811
740.784	0.0163066
740.862	0.0162214
740.940	0.0156952
741.018	0.0155529
741.096	0.0152341
741.174	0.0148608
741.253	0.0145586
741.331	0.0142667
741.409	0.0139292
741.487	0.0135544
741.565	0.0131306
741.643	0.0128555
741.721	0.0125876
741.799	0.0125027
741.878	0.0125755
741.956	0.0125681
742.034	0.0126958
742.112	0.0131649
742.190	0.0134891
742.268	0.0138033
742.346	0.0145412
742.424	0.0151682
742.503	0.0157879
742.581	0.0164082
742.659	0.0169462
742.737	0.0175462
742.815	0.0180500
742.893	0.0184010
742.971	0.0185400
743.049	0.0189185
743.128	0.0188094
743.206	0.0186716
743.284	0.0185710
743.362	0.0184812
743.440	0.0182114
743.518	0.0178665
743.596	0.0176707
743.674	0.0171418
743.753	0.0167700
743.831	0.0165245
743.909	0.0163068
743.987	0.0161723
744.065	0.0159640
744.143	0.0158713
744.221	0.0159071
744.299	0.0159258
744.378	0.0160092
744.456	0.0160338
744.534	0.0164059
744.612	0.0161768
744.690	0.0164662
744.768	0.0165364
744.846	0.0165333
744.924	0.0165901
745.003	0.0164111
745.081	0.0164265
745.159	0.0165014
745.237	0.0163891
745.315	0.0162326
745.393	0.0163461
745.471	0.0162413
745.549	0.0161898
745.628	0.0161121
745.706	0.0160567
745.784	0.0158808
745.862	0.0156564
745.940	0.0156043
746.018	0.0153619
746.096	0.0148286
746.174	0.0146710
746.253	0.0142999
746.331	0.0140549
746.409	0.0139822
746.487	0.0137758
746.565	0.0137502
746.643	0.0136665
746.721	0.0136772
746.799	0.0136655
746.878	0.0138484
746.956	0.0140740
747.034	0.0141976
747.112	0.0146115
747.190	0.0150328
747.268	0.0153170
747.346	0.0157836
747.424	0.0161845
747.503	0.0164519
747.581	0.0168266
747.659	0.0172543
747.737	0.0175175
747.815	0.0175543
747.893	0.0176724
747.971	0.0178767
748.049	0.0180312
748.128	0.0181683
748.206	0.0181049
748.284	0.0178168
748.362	0.0177403
748.440	0.0174494
748.518	0.0173893
748.596	0.0173860
748.674	0.0171209
748.753	0.0168410
748.831	0.0166031
748.909	0.0165914
748.987	0.0163753
749.065	0.0162759
749.143	0.0163241
749.221	0.0163950
749.299	0.0163039
749.378	0.0163964
749.456	0.0162419
749.534	0.0162362
749.612	0.0161867
749.690	0.0161651
749.768	0.0162239
749.846	0.0159417
749.924	0.0159291
750.003	0.0157260
750.081	0.0159949
750.159	0.0159087
750.237	0.0157831
750.315	0.0156771
750.393	0.0156094
750.471	0.0156958
750.549	0.0154815
750.628	0.0152564
750.706	0.0151381
750.784	0.0149008
750.862	0.0147985
750.940	0.0146344
751.018	0.0145457
751.096	0.0143449
751.174	0.0143397
751.253	0.0140360
751.331	0.0142864
751.409	0.0144610
751.487	0.0146442
751.565	0.0148563
751.643	0.0149194
751.721	0.0152924
751.799	0.0154377
751.878	0.0157170
751.956	0.0161195
752.034	0.0163303
752.112	0.0165092
752.190	0.0165454
752.268	0.0167311
752.346	0.0168306
752.424	0.0168512
752.503	0.0168790
752.581	0.0170151
752.659	0.0171063
752.737	0.0169817
752.815	0.0168320
752.893	0.0169350
752.971	0.0167683
753.049	0.0166837
753.128	0.0167545
753.206	0.0166736
753.284	0.0166448
753.362	0.0166988
753.440	0.0166502
753.518	0.0167061
753.596	0.0166708
753.674	0.0167043
753.753	0.0166789
753.831	0.0165132
753.909	0.0164632
753.987	0.0164587
754.065	0.0161639
754.143	0.0162298
754.221	0.0162189
754.299	0.0161640
754.378	0.0161051
754.456	0.0161295
754.534	0.0159483
754.612	0.0161054
754.690	0.0160085
754.768	0.0158865
754.846	0.0159473
754.924	0.0159032
755.003	0.0158716
755.081	0.0158875
755.159	0.0157413
755.237	0.0157463
755.315	0.0156752
755.393	0.0156206
755.471	0.0154779
755.549	0.0153216
755.628	0.0152730
755.706	0.0151195
755.784	0.0152116
755.862	0.0151481
755.940	0.0151022
756.018	0.0151453
756.096	0.0152222
756.174	0.0153016
756.253	0.0153716
756.331	0.0155475
756.409	0.0156136
756.487	0.0156891
756.565	0.0159772
756.643	0.0160899
756.721	0.0161637
756.799	0.0162167
756.878	0.0165251
756.956	0.0164645
757.034	0.0164449
757.112	0.0164017
757.190	0.0162628
757.268	0.0160408
757.346	0.0161467
757.424	0.0158815
757.503	0.0160759
757.581	0.0156855
757.659	0.0156938
757.737	0.0157798
757.815	0.0157215
757.893	0.0156602
757.971	0.0158412
758.049	0.0158747
758.128	0.0159099
758.206	0.0161716
758.284	0.0160667
758.362	0.0162869
758.440	0.0164271
758.518	0.0164561
758.596	0.0166910
758.674	0.0165214
758.753	0.0168221
758.831	0.0168710
758.909	0.0168665
758.987	0.0169828
759.065	0.0168594
759.143	0.0169505
759.221	0.0169022
759.299	0.0169083
759.378	0.0168304
759.456	0.0168221
759.534	0.0167951
759.612	0.0165580
759.690	0.0163813
759.768	0.0163499
759.846	0.0162074
759.924	0.0159657
760.003	0.0159078
760.081	0.0157188
760.159	0.0154911
760.237	0.0152941
760.315	0.0152663
760.393	0.0151340
760.471	0.0150565
760.549	0.0151002
760.628	0.0149995
760.706	0.0151076
760.784	0.0152586
760.862	0.0152158
760.940	0.0153414
761.018	0.0155756
761.096	0.0155574
761.174	0.0156857
761.253	0.0158635
761.331	0.0157946
761.409	0.0158000
761.487	0.0159026
761.565	0.0159129
761.643	0.0158250
761.721	0.0156788
761.799	0.0157217
761.878	0.0156905
761.956	0.0157555
762.034	0.0156828
762.112	0.0156776
762.190	0.0157413
762.268	0.0156509
762.346	0.0156532
762.424	0.0155704
762.503	0.0158350
762.581	0.0159213
762.659	0.0159354
762.737	0.0158640
762.815	0.0161810
762.893	0.0162093
762.971	0.0161819
763.049	0.0161999
763.128	0.0163299
763.206	0.0165100
763.284	0.0165451
763.362	0.0164325
763.440	0.0165308
763.518	0.0164889
763.596	0.0164831
763.674	0.0163032
763.753	0.0162009
763.831	0.0161662
763.909	0.0161532
763.987	0.0162470
764.065	0.0161174
764.143	0.0159865
764.221	0.0161282
764.299	0.0160041
764.378	0.0159711
764.456	0.0161474
764.534	0.0160350
764.612	0.0160931
764.690	0.0160744
764.768	0.0160049
764.846	0.0160670
764.924	0.0161804
765.003	0.0161110
765.081	0.0162011
765.159	0.0162667
765.237	0.0161829
765.315	0.0162670
765.393	0.0162740
765.471	0.0162192
765.549	0.0161449
765.628	0.0162139
765.706	0.0161504
765.784	0.0160803
765.862	0.0159396
765.940	0.0159995
766.018	0.0160007
766.096	0.0158392
766.174	0.0158257
766.253	0.0157961
766.331	0.0157017
766.409	0.0155629
766.487	0.0156904
766.565	0.0156745
766.643	0.0157121
766.721	0.0155944
766.799	0.0155978
766.878	0.0156005
766.956	0.0157853
767.034	0.0158047
767.112	0.0159300
767.190	0.0160091
767.268	0.0159987
767.346	0.0159485
767.424	0.0160497
767.503	0.0160001
767.581	0.0161053
767.659	0.0161025
767.737	0.0161166
767.815	0.0160284
767.893	0.0159559
767.971	0.0159519
768.049	0.0161040
768.128	0.0159490
768.206	0.0159612
768.284	0.0160841
768.362	0.0160034
768.440	0.0160123
768.518	0.0160674
768.596	0.0159511
768.674	0.0160061
768.753	0.0161835
768.831	0.0161839
768.909	0.0160016
768.987	0.0161782
769.065	0.0161045
769.143	0.0160581
769.221	0.0159436
769.299	0.0159351
769.378	0.0158434
769.456	0.0158600
769.534	0.0156860
769.612	0.0155323
769.690	0.0155492
769.768	0.0154482
769.846	0.0153277
769.924	0.0153390
770.003	0.0153635
770.081	0.0155100
770.159	0.0154690
770.237	0.0156283
770.315	0.0155646
770.393	0.0158641
770.471	0.0159332
770.549	0.0159526
770.628	0.0160971
770.706	0.0162623
770.784	0.0162020
770.862	0.0165054
770.940	0.0166093
771.018	0.0166269
771.096	0.0168949
771.174	0.0169082
771.253	0.0170641
771.331	0.0169348
771.409	0.0168179
771.487	0.0165966
771.565	0.0166194
771.643	0.0167410
771.721	0.0165755
771.799	0.0163352
771.878	0.0164281
771.956	0.0163290
772.034	0.0162238
772.112	0.0161882
772.190	0.0159997
772.268	0.0160454
772.346	0.0159462
772.424	0.0157910
772.503	0.0156169
772.581	0.0156281
772.659	0.0155434
772.737	0.0154993
772.815	0.0154899
772.893	0.0152813
772.971	0.0154762
773.049	0.0154669
773.128	0.0154755
773.206	0.0154649
773.284	0.0154475
773.362	0.0154867
773.440	0.0155660
773.518	0.0156299
773.596	0.0155872
773.674	0.0157549
773.753	0.0157586
773.831	0.0159216
773.909	0.0159519
773.987	0.0160763
774.065	0.0161240
774.143	0.0160776
774.221	0.0162478
774.299	0.0162618
774.378	0.0161734
774.456	0.0162619
774.534	0.0163219
774.612	0.0163301
774.690	0.0162474
774.768	0.0161610
774.846	0.0162543
774.924	0.0161696
775.003	0.0161016
775.081	0.0161091
775.159	0.0161262
775.237	0.0159039
775.315	0.0161028
775.393	0.0160410
775.471	0.0159934
775.549	0.0159167
775.628	0.0160307
775.706	0.0161490
775.784	0.0159995
775.862	0.0160806
775.940	0.0161287
776.018	0.0161856
776.096	0.0162624
776.174	0.0162357
776.253	0.0162687
776.331	0.0163675
776.409	0.0164034
776.487	0.0163935
776.565	0.0162777
776.643	0.0162370
776.721	0.0161833
776.799	0.0162807
776.878	0.0161755
776.956	0.0161425
777.034	0.0161301
777.112	0.0161195
777.190	0.0158968
777.268	0.0158991
777.346	0.0158120
777.424	0.0159708
777.503	0.0157465
777.581	0.0157405
777.659	0.0157824
777.737	0.0158488
777.815	0.0158634
777.893	0.0157918
777.971	0.0158361
778.049	0.0156853
778.128	0.0159207
778.206	0.0159788
778.284	0.0158880
778.362	0.0158443
778.440	0.0158233
778.518	0.0158579
778.596	0.0159011
778.674	0.0159039
778.753	0.0157780
778.831	0.0160016
778.909	0.0158980
778.987	0.0158225
779.065	0.0159116
779.143	0.0158754
779.221	0.0159362
779.299	0.0158080
779.378	0.0159636
779.456	0.0161131
779.534	0.0161262
779.612	0.0161321
779.690	0.0162773
779.768	0.0161331
779.846	0.0163910
779.924	0.0163896
780.003	0.0163242
780.081	0.0163398
780.159	0.0161922
780.237	0.0163451
780.315	0.0164209
780.393	0.0163885
780.471	0.0162034
780.549	0.0162223
780.628	0.0161827
780.706	0.0161246
780.784	0.0159473
780.862	0.0160024
780.940	0.0160287
781.018	0.0157605
781.096	0.0157918
781.174	0.0156721
781.253	0.0155313
781.331	0.0156042
781.409	0.0156158
781.487	0.0153833
781.565	0.0153901
781.643	0.0155434
781.721	0.0154829
781.799	0.0155423
781.878	0.0157384
781.956	0.0157518
782.034	0.0158009
782.112	0.0158468
782.190	0.0159409
782.268	0.0160855
782.346	0.0161173
782.424	0.0162868
782.503	0.0160361
782.581	0.0162016
782.659	0.0162443
782.737	0.0163014
782.815	0.0162560
782.893	0.0163017
782.971	0.0162992
783.049	0.0163863
783.128	0.0161820
783.206	0.0163205
783.284	0.0162144
783.362	0.0163034
783.440	0.0164263
783.518	0.0164516
783.596	0.0163139
783.674	0.0163989
783.753	0.0163442
783.831	0.0164407
783.909	0.0164946
783.987	0.0164615
784.065	0.0164075
784.143	0.0163639
784.221	0.0162907
784.299	0.0161832
784.378	0.0162106
784.456	0.0160860
784.534	0.0159312
784.612	0.0157412
784.690	0.0157165
784.768	0.0156990
784.846	0.0155540
784.924	0.0154521
785.003	0.0154341
785.081	0.0153119
785.159	0.0153357
785.237	0.0153828
785.315	0.0152263
785.393	0.0155837
785.471	0.0155067
785.549	0.0155219
785.628	0.0157679
785.706	0.0156618
785.784	0.0157164
785.862	0.0158928
785.940	0.0158907
786.018	0.0159419
786.096	0.0159345
786.174	0.0160807
786.253	0.0158257
786.331	0.0159764
786.409	0.0160399
786.487	0.0160544
786.565	0.0159569
786.643	0.0161167
786.721	0.0160915
786.799	0.0161018
786.878	0.0161019
786.956	0.0160267
787.034	0.0161002
787.112	0.0160943
787.190	0.0162354
787.268	0.0162406
787.346	0.0163287
787.424	0.0162598
787.503	0.0163461
787.581	0.0163705
787.659	0.0163284
787.737	0.0161643
787.815	0.0161720
787.893	0.0161682
787.971	0.0162188
788.049	0.0160229
788.128	0.0159436
788.206	0.0161369
788.284	0.0160007
788.362	0.0158914
788.440	0.0159131
788.518	0.0159564
788.596	0.0160007
788.674	0.0159782
788.753	0.0157768
788.831	0.0158500
788.909	0.0159070
788.987	0.0160966
789.065	0.0160609
789.143	0.0158165
789.221	0.0159486
789.299	0.0159535
789.378	0.0159324
789.456	0.0160884
789.534	0.0161427
789.612	0.0160841
789.690	0.0160084
789.768	0.0160656
789.846	0.0159199
789.924	0.0160066
790.003	0.0159775
790.081	0.0159402
790.159	0.0159541
790.237	0.0159445
790.315	0.0159241
790.393	0.0158921
790.471	0.0157338
790.549	0.0156753
790.628	0.0158513
790.706	0.0157088
790.784	0.0155893
790.862	0.0158083
790.940	0.0157227
791.018	0.0157710
791.096	0.0156779
791.174	0.0158550
791.253	0.0157933
791.331	0.0158287
791.409	0.0159749
791.487	0.0159953
791.565	0.0159459
791.643	0.0161131
791.721	0.0161680
791.799	0.0161320
791.878	0.0162524
791.956	0.0163731
792.034	0.0162399
792.112	0.0163086
792.190	0.0163818
792.268	0.0162163
792.346	0.0163079
792.424	0.0163080
792.503	0.0163023
792.581	0.0161749
792.659	0.0162663
792.737	0.0159761
792.815	0.0157975
792.893	0.0159196
792.971	0.0158713
793.049	0.0158179
793.128	0.0158688
793.206	0.0157685
793.284	0.0155594
793.362	0.0156915
793.440	0.0156187
793.518	0.0155662
793.596	0.0157550
793.674	0.0157925
793.753	0.0157899
793.831	0.0159211
793.909	0.0158059
793.987	0.0158718
794.065	0.0160088
794.143	0.0159246
794.221	0.0160269
794.299	0.0159905
794.378	0.0159837
794.456	0.0159658
794.534	0.0161225
794.612	0.0161188
794.690	0.0161450
794.768	0.0161713
794.846	0.0163474
794.924	0.0161947
795.003	0.0161374
795.081	0.0161624
795.159	0.0162811
795.237	0.0162186
795.315	0.0161469
795.393	0.0162969
795.471	0.0161978
795.549	0.0163268
795.628	0.0162978
795.706	0.0162157
795.784	0.0163145
795.862	0.0162767
795.940	0.0161586
796.018	0.0161422
796.096	0.0162090
796.174	0.0162175
796.253	0.0161727
796.331	0.0161833
796.409	0.0162612
796.487	0.0161095
796.565	0.0160677
796.643	0.0159504
796.721	0.0160692
796.799	0.0158658
796.878	0.0157516
796.956	0.0157315
797.034	0.0157850
797.112	0.0156101
797.190	0.0154693
797.268	0.0154082
797.346	0.0153650
797.424	0.0152335
797.503	0.0154055
797.581	0.0154685
797.659	0.0155337
797.737	0.0156413
797.815	0.0154716
797.893	0.0156947
797.971	0.0157135
798.049	0.0159273
798.128	0.0159161
798.206	0.0160427
798.284	0.0162626
798.362	0.0160702
798.440	0.0162573
798.518	0.0164182
798.596	0.0162581
798.674	0.0164256
798.753	0.0164468
798.831	0.0162747
798.909	0.0162493
798.987	0.0162363
799.065	0.0162514
799.143	0.0162514
799.221	0.0161526
799.299	0.0160404
799.378	0.0160854
799.456	0.0159153
799.534	0.0159844
799.612	0.0160121
799.690	0.0159849
799.768	0.0157906
799.846	0.0159878
799.924	0.0157720
800.003	0.0159223
800.081	0.0158865
800.159	0.0159027
800.237	0.0161437
800.315	0.0158920
800.393	0.0160995
800.471	0.0160765
800.549	0.0160468
800.628	0.0162192
800.706	0.0160533
800.784	0.0160309
800.862	0.0160246
800.940	0.0159641
801.018	0.0160680
801.096	0.0161733
801.174	0.0160673
801.253	0.0161381
801.331	0.0161221
801.409	0.0159065
801.487	0.0159113
801.565	0.0160172
801.643	0.0159339
801.721	0.0160001
801.799	0.0158665
801.878	0.0159263
801.956	0.0158833
802.034	0.0158541
802.112	0.0159927
802.190	0.0158696
802.268	0.0159409
802.346	0.0159068
802.424	0.0158533
802.503	0.0159790
802.581	0.0161121
802.659	0.0159840
802.737	0.0161330
802.815	0.0160737
802.893	0.0160302
802.971	0.0161004
803.049	0.0160601
803.128	0.0160105
803.206	0.0160810
803.284	0.0161282
803.362	0.0160244
803.440	0.0161084
803.518	0.0162339
803.596	0.0160999
803.674	0.0160275
803.753	0.0160281
803.831	0.0159113
803.909	0.0158728
803.987	0.0160037
804.065	0.0159515
804.143	0.0159740
804.221	0.0159722
804.299	0.0158828
804.378	0.0158942
804.456	0.0159252
804.534	0.0157845
804.612	0.0159676
804.690	0.0158721
804.768	0.0159419
804.846	0.0159583
804.924	0.0160122
805.003	0.0160894
805.081	0.0159367
805.159	0.0159947
805.237	0.0161400
805.315	0.0160313
805.393	0.0159335
805.471	0.0159592
805.549	0.0159526
805.628	0.0160054
805.706	0.0160243
805.784	0.0159883
805.862	0.0159072
805.940	0.0159603
806.018	0.0159551
806.096	0.0158546
806.174	0.0159258
806.253	0.0160113
806.331	0.0159762
806.409	0.0158600
806.487	0.0157986
806.565	0.0158382
806.643	0.0158392
806.721	0.0158705
806.799	0.0159515
806.878	0.0161645
806.956	0.0160138
807.034	0.0161364
807.112	0.0160774
807.190	0.0159563
807.268	0.0160535
807.346	0.0161301
807.424	0.0162533
807.503	0.0162405
807.581	0.0161908
807.659	0.0163139
807.737	0.0162508
807.815	0.0161444
807.893	0.0161961
807.971	0.0162127
808.049	0.0161189
808.128	0.0161952
808.206	0.0161826
808.284	0.0160991
808.362	0.0160468
808.440	0.0160352
808.518	0.0160045
808.596	0.0159606
808.674	0.0159551
808.753	0.0159864
808.831	0.0159689
808.909	0.0157885
808.987	0.0159613
809.065	0.0159245
809.143	0.0159870
809.221	0.0159209
809.299	0.0159579
809.378	0.0160720
809.456	0.0160148
809.534	0.0159507
809.612	0.0159911
809.690	0.0159212
809.768	0.0158499
809.846	0.0158084
809.924	0.0159291
810.003	0.0158123
810.081	0.0158750
810.159	0.0160450
810.237	0.0158773
810.315	0.0158499
810.393	0.0158634
810.471	0.0158477
810.549	0.0158617
810.628	0.0160001
810.706	0.0158583
810.784	0.0160348
810.862	0.0159341
810.940	0.0159946
811.018	0.0160635
811.096	0.0160892
811.174	0.0159716
811.253	0.0160291
811.331	0.0160637
811.409	0.0161429
811.487	0.0161476
811.565	0.0160293
811.643	0.0159413
811.721	0.0161279
811.799	0.0161518
811.878	0.0159734
811.956	0.0160813
812.034	0.0162431
812.112	0.0160405
812.190	0.0161179
812.268	0.0160919
812.346	0.0159942
812.424	0.0161036
812.503	0.0161060
812.581	0.0159607
812.659	0.0159918
812.737	0.0160014
812.815	0.0158016
812.893	0.0159600
812.971	0.0159245
813.049	0.0157270
813.128	0.0158983
813.206	0.0159451
813.284	0.0158113
813.362	0.0159582
813.440	0.0159197
813.518	0.0158833
813.596	0.0159441
813.674	0.0159024
813.753	0.0158459
813.831	0.0158712
813.909	0.0159486
813.987	0.0161895
814.065	0.0161377
814.143	0.0161879
814.221	0.0161649
814.299	0.0161748
814.378	0.0161205
814.456	0.0161460
814.534	0.0162403
814.612	0.0160969
814.690	0.0161133
814.768	0.0161089
814.846	0.0160320
814.924	0.0159956
815.003	0.0160526
815.081	0.0159818
815.159	0.0157897
815.237	0.0158089
815.315	0.0159482
815.393	0.0158083
815.471	0.0158048
815.549	0.0158679
815.628	0.0156443
815.706	0.0157445
815.784	0.0158178
815.862	0.0157631
815.940	0.0158562
816.018	0.0158945
816.096	0.0159309
816.174	0.0159368
816.253	0.0160365
816.331	0.0161116
816.409	0.0160892
816.487	0.0158858
816.565	0.0158978
816.643	0.0159864
816.721	0.0160461
816.799	0.0159137
816.878	0.0159655
816.956	0.0158275
817.034	0.0158423
817.112	0.0158736
817.190	0.0159215
817.268	0.0158132
817.346	0.0158311
817.424	0.0158034
817.503	0.0158165
817.581	0.0158339
817.659	0.0159943
817.737	0.0159109
817.815	0.0160052
817.893	0.0161060
817.971	0.0161414
818.049	0.0161060
818.128	0.0161962
818.206	0.0163194
818.284	0.0163907
818.362	0.0164457
818.440	0.0163351
818.518	0.0164462
818.596	0.0163808
818.674	0.0163671
818.753	0.0162959
818.831	0.0163084
818.909	0.0163984
818.987	0.0164028
819.065	0.0162844
819.143	0.0162580
819.221	0.0163685
819.299	0.0163300
819.378	0.0161084
819.456	0.0160813
819.534	0.0161631
819.612	0.0161195
819.690	0.0160335
819.768	0.0160699
819.846	0.0160305
819.924	0.0158452
820.003	0.0160001
820.081	0.0159229
820.159	0.0157288
820.237	0.0158141
820.315	0.0158137
820.393	0.0156025
820.471	0.0156599
820.549	0.0156840
820.628	0.0155206
820.706	0.0155685
820.784	0.0155818
820.862	0.0156185
820.940	0.0155828
821.018	0.0155971
821.096	0.0156226
821.174	0.0156622
821.253	0.0157112
821.331	0.0157684
821.409	0.0157708
821.487	0.0157290
821.565	0.0159924
821.643	0.0157440
821.721	0.0159827
821.799	0.0160183
821.878	0.0161246
821.956	0.0161722
822.034	0.0162254
822.112	0.0162638
822.190	0.0163741
822.268	0.0164146
822.346	0.0164470
822.424	0.0164279
822.503	0.0164885
822.581	0.0165161
822.659	0.0165453
822.737	0.0166133
822.815	0.0166134
822.893	0.0165343
822.971	0.0166799
823.049	0.0165997
823.128	0.0166068
823.206	0.0165524
823.284	0.0164049
823.362	0.0165057
823.440	0.0163818
823.518	0.0163196
823.596	0.0162928
823.674	0.0161906
823.753	0.0161089
823.831	0.0160568
823.909	0.0159943
823.987	0.0159866
824.065	0.0158311
824.143	0.0157387
824.221	0.0157561
824.299	0.0156090
824.378	0.0156963
824.456	0.0154962
824.534	0.0156039
824.612	0.0155595
824.690	0.0154004
824.768	0.0153817
824.846	0.0154887
824.924	0.0154565
825.003	0.0153472
825.081	0.0154501
825.159	0.0155547
825.237	0.0155205
825.315	0.0155459
825.393	0.0155403
825.471	0.0154551
825.549	0.0155702
825.628	0.0157771
825.706	0.0157150
825.784	0.0156026
825.862	0.0158837
825.940	0.0159874
826.018	0.0160413
826.096	0.0162330
826.174	0.0162360
826.253	0.0163276
826.331	0.0164606
826.409	0.0164517
826.487	0.0163487
826.565	0.0165331
826.643	0.0166375
826.721	0.0167991
826.799	0.0167648
826.878	0.0166730
826.956	0.0166510
827.034	0.0167458
827.112	0.0169661
827.190	0.0166262
827.268	0.0165542
827.346	0.0167128
827.424	0.0166084
827.503	0.0166755
827.581	0.0162502
827.659	0.0163506
827.737	0.0162106
827.815	0.0161865
827.893	0.0159464
827.971	0.0158456
828.049	0.0159908
828.128	0.0158839
828.206	0.0158355
828.284	0.0157498
828.362	0.0155942
828.440	0.0157363
828.518	0.0157203
828.596	0.0156824
828.674	0.0155168
828.753	0.0156102
828.831	0.0155967
828.909	0.0156566
828.987	0.0156358
829.065	0.0155155
829.143	0.0155172
829.221	0.0154127
829.299	0.0154592
829.378	0.0154369
829.456	0.0153685
829.534	0.0153968
829.612	0.0152200
829.690	0.0153539
829.768	0.0154441
829.846	0.0155388
829.924	0.0155938
830.003	0.0155461
830.081	0.0156779
830.159	0.0157718
830.237	0.0159517
830.315	0.0159197
830.393	0.0160312
830.471	0.0162160
830.549	0.0163864
830.628	0.0164371
830.706	0.0164137
830.784	0.0167045
830.862	0.0167285
830.940	0.0167458
831.018	0.0168175
831.096	0.0168384
831.174	0.0167502
831.253	0.0168806
831.331	0.0166943
831.409	0.0166512
831.487	0.0166412
831.565	0.0164664
831.643	0.0166121
831.721	0.0166405
831.799	0.0165633
831.878	0.0164233
831.956	0.0162238
832.034	0.0161295
832.112	0.0161359
832.190	0.0161264
832.268	0.0159106
832.346	0.0160018
832.424	0.0158545
832.503	0.0158476
832.581	0.0157547
832.659	0.0157271
832.737	0.0154879
832.815	0.0156853
832.893	0.0155576
832.971	0.0156146
833.049	0.0156920
833.128	0.0155497
833.206	0.0156041
833.284	0.0154731
833.362	0.0154370
833.440	0.0155492
833.518	0.0154401
833.596	0.0154398
833.674	0.0154135
833.753	0.0154555
833.831	0.0153464
833.909	0.0154830
833.987	0.0154306
834.065	0.0155378
834.143	0.0154713
834.221	0.0154474
834.299	0.0155558
834.378	0.0154687
834.456	0.0157927
834.534	0.0158109
834.612	0.0159003
834.690	0.0160464
834.768	0.0160060
834.846	0.0161172
834.924	0.0161272
835.003	0.0163718
835.081	0.0163477
835.159	0.0163454
835.237	0.0165942
835.315	0.0164458
835.393	0.0164642
835.471	0.0166699
835.549	0.0166633
835.628	0.0165948
835.706	0.0167170
835.784	0.0166733
835.862	0.0165609
835.940	0.0166312
836.018	0.0165430
836.096	0.0163686
836.174	0.0165095
836.253	0.0163046
836.331	0.0162621
836.409	0.0162848
836.487	0.0161269
836.565	0.0160821
836.643	0.0160134
836.721	0.0159782
836.799	0.0159343
836.878	0.0159104
836.956	0.0157162
837.034	0.0157548
837.112	0.0158588
837.190	0.0157675
837.268	0.0157664
837.346	0.0157757
837.424	0.0158056
837.503	0.0157558
837.581	0.0157348
837.659	0.0158604
837.737	0.0156297
837.815	0.0157463
837.893	0.0157494
837.971	0.0157441
838.049	0.0158534
838.128	0.0157520
838.206	0.0157758
838.284	0.0156327
838.362	0.0157104
838.440	0.0156393
838.518	0.0155753
838.596	0.0156520
838.674	0.0157994
838.753	0.0157034
838.831	0.0155913
838.909	0.0157665
838.987	0.0158659
839.065	0.0159389
839.143	0.0159898
839.221	0.0158798
839.299	0.0158974
839.378	0.0160155
839.456	0.0160146
839.534	0.0162750
839.612	0.0163902
839.690	0.0162501
839.768	0.0164108
839.846	0.0164362
839.924	0.0163380
840.003	0.0163450
840.081	0.0163773
840.159	0.0162507
840.237	0.0161520
840.315	0.0161729
840.393	0.0161982
840.471	0.0162997
840.549	0.0160871
840.628	0.0159709
840.706	0.0159463
840.784	0.0160147
840.862	0.0159880
840.940	0.0159928
841.018	0.0161551
841.096	0.0159704
841.174	0.0161250
841.253	0.0161036
841.331	0.0161399
841.409	0.0160988
841.487	0.0162208
841.565	0.0161846
841.643	0.0162004
841.721	0.0162213
841.799	0.0162730
841.878	0.0162565
841.956	0.0161687
842.034	0.0161137
842.112	0.0160892
842.190	0.0160231
842.268	0.0161539
842.346	0.0158144
842.424	0.0158669
842.503	0.0158714
842.581	0.0157899
842.659	0.0159156
842.737	0.0157896
842.815	0.0156855
842.893	0.0157488
842.971	0.0156229
843.049	0.0156709
843.128	0.0156606
843.206	0.0156152
843.284	0.0156367
843.362	0.0157867
843.440	0.0157510
843.518	0.0155656
843.596	0.0156895
843.674	0.0157731
843.753	0.0158597
843.831	0.0157973
843.909	0.0159425
843.987	0.0157867
844.065	0.0159941
844.143	0.0159733
844.221	0.0160139
844.299	0.0160964
844.378	0.0160502
844.456	0.0161187
844.534	0.0161718
844.612	0.0161117
844.690	0.0161281
844.768	0.0161304
844.846	0.0161138
844.924	0.0159966
845.003	0.0160465
845.081	0.0161251
845.159	0.0161113
845.237	0.0160616
845.315	0.0160300
845.393	0.0160543
845.471	0.0161375
845.549	0.0161253
845.628	0.0161574
845.706	0.0162054
845.784	0.0161304
845.862	0.0162405
845.940	0.0163049
846.018	0.0161727
846.096	0.0162749
846.174	0.0161533
846.253	0.0163247
846.331	0.0163452
846.409	0.0161852
846.487	0.0162760
846.565	0.0161335
846.643	0.0161068
846.721	0.0160778
846.799	0.0159313
846.878	0.0158771
846.956	0.0158693
847.034	0.0158953
847.112	0.0158141
847.190	0.0157310
847.268	0.0156749
847.346	0.0156880
847.424	0.0157071
847.503	0.0156636
847.581	0.0157411
847.659	0.0156940
847.737	0.0157719
847.815	0.0156756
847.893	0.0156860
847.971	0.0156343
848.049	0.0156055
848.128	0.0157742
848.206	0.0157962
848.284	0.0158087
848.362	0.0158687
848.440	0.0159651
848.518	0.0159159
848.596	0.0158419
848.674	0.0159674
848.753	0.0160273
848.831	0.0159795
848.909	0.0161227
848.987	0.0160348
849.065	0.0160085
849.143	0.0162682
849.221	0.0161144
849.299	0.0161092
849.378	0.0161794
849.456	0.0162031
849.534	0.0163186
849.612	0.0162173
849.690	0.0162213
849.768	0.0162025
849.846	0.0162431
849.924	0.0162914
850.003	0.0162471
850.081	0.0162292
850.159	0.0162054
850.237	0.0163125
850.315	0.0162704
850.393	0.0162486
850.471	0.0163552
850.549	0.0162753
850.628	0.0161285
850.706	0.0160796
850.784	0.0160229
850.862	0.0161113
850.940	0.0162370
851.018	0.0161428
851.096	0.0160671
851.174	0.0160325
851.253	0.0160465
851.331	0.0158330
851.409	0.0160813
851.487	0.0159517
851.565	0.0157699
851.643	0.0160599
851.721	0.0159766
851.799	0.0157389
851.878	0.0158399
851.956	0.0159244
852.034	0.0158564
852.112	0.0158920
852.190	0.0159357
852.268	0.0160159
852.346	0.0159248
852.424	0.0158842
852.503	0.0158829
852.581	0.0158530
852.659	0.0158141
852.737	0.0159037
852.815	0.0160368
852.893	0.0159163
852.971	0.0159418
853.049	0.0159248
853.128	0.0159158
853.206	0.0158839
853.284	0.0157620
853.362	0.0158530
853.440	0.0158153
853.518	0.0159855
853.596	0.0157744
853.674	0.0159315
853.753	0.0159715
853.831	0.0158553
853.909	0.0159087
853.987	0.0159322
854.065	0.0158261
854.143	0.0159792
854.221	0.0161025
854.299	0.0161613
854.378	0.0160410
854.456	0.0161260
854.534	0.0161120
854.612	0.0162682
854.690	0.0162624
854.768	0.0161554
854.846	0.0159924
854.924	0.0161979
855.003	0.0163013
855.081	0.0160606
855.159	0.0161843
855.237	0.0162704
855.315	0.0162141
855.393	0.0160753
855.471	0.0162590
855.549	0.0161913
855.628	0.0162339
855.706	0.0162231
855.784	0.0162995
855.862	0.0162125
855.940	0.0161616
856.018	0.0161883
856.096	0.0161982
856.174	0.0161255
856.253	0.0160875
856.331	0.0161563
856.409	0.0161083
856.487	0.0160610
856.565	0.0160486
856.643	0.0160484
856.721	0.0159891
856.799	0.0158524
856.878	0.0160089
856.956	0.0159271
857.034	0.0159498
857.112	0.0159213
857.190	0.0158939
857.268	0.0159416
857.346	0.0158606
857.424	0.0158804
857.503	0.0158717
857.581	0.0158757
857.659	0.0158415
857.737	0.0159512
857.815	0.0157954
857.893	0.0157348
857.971	0.0158337
858.049	0.0157742
858.128	0.0159077
858.206	0.0158073
858.284	0.0158364
858.362	0.0159561
858.440	0.0158858
858.518	0.0158010
858.596	0.0158651
858.674	0.0159827
858.753	0.0159126
858.831	0.0160505
858.909	0.0158551
858.987	0.0161566
859.065	0.0161071
859.143	0.0160446
859.221	0.0160018
859.299	0.0160289
859.378	0.0161306
859.456	0.0160259
859.534	0.0160632
859.612	0.0159864
859.690	0.0161034
859.768	0.0160749
859.846	0.0160751
859.924	0.0161713
860.003	0.0162868
860.081	0.0160335
860.159	0.0161899
860.237	0.0159483
860.315	0.0159780
860.393	0.0159605
860.471	0.0159578
860.549	0.0159036
860.628	0.0160153
860.706	0.0158379
860.784	0.0160257
860.862	0.0158976
860.940	0.0159782
861.018	0.0160628
861.096	0.0160402
861.174	0.0160357
861.253	0.0158577
861.331	0.0158720
861.409	0.0159076
861.487	0.0158302
861.565	0.0161432
861.643	0.0161729
861.721	0.0162401
861.799	0.0162269
861.878	0.0161275
861.956	0.0161222
862.034	0.0161868
862.112	0.0159662
862.190	0.0161215
862.268	0.0160678
862.346	0.0161493
862.424	0.0161341
862.503	0.0161061
862.581	0.0160263
862.659	0.0160462
862.737	0.0160886
862.815	0.0160150
862.893	0.0160515
862.971	0.0160178
863.049	0.0159975
863.128	0.0159866
863.206	0.0158611
863.284	0.0158437
863.362	0.0158498
863.440	0.0160007
863.518	0.0160117
863.596	0.0161269
863.674	0.0161050
863.753	0.0160561
863.831	0.0159979
863.909	0.0160157
863.987	0.0161333
864.065	0.0159982
864.143	0.0161412
864.221	0.0159803
864.299	0.0160006
864.378	0.0159693
864.456	0.0159932
864.534	0.0160065
864.612	0.0160767
864.690	0.0158823
864.768	0.0159140
864.846	0.0159079
864.924	0.0158772
865.003	0.0157738
865.081	0.0159169
865.159	0.0158793
865.237	0.0158453
865.315	0.0158675
865.393	0.0159437
865.471	0.0158180
865.549	0.0157580
865.628	0.0158556
865.706	0.0158141
865.784	0.0159095
865.862	0.0158809
865.940	0.0159381
866.018	0.0159454
866.096	0.0158487
866.174	0.0158942
866.253	0.0159626
866.331	0.0160603
866.409	0.0158159
866.487	0.0160973
866.565	0.0161624
866.643	0.0159570
866.721	0.0160463
866.799	0.0159996
866.878	0.0161389
866.956	0.0161326
867.034	0.0162627
867.112	0.0161433
867.190	0.0160925
867.268	0.0161172
867.346	0.0161304
867.424	0.0161734
867.503	0.0161892
867.581	0.0160419
867.659	0.0160537
867.737	0.0161384
867.815	0.0161469
867.893	0.0162016
867.971	0.0162292
868.049	0.0163173
868.128	0.0161382
868.206	0.0162114
868.284	0.0164315
868.362	0.0162542
868.440	0.0163181
868.518	0.0162229
868.596	0.0163251
868.674	0.0162607
868.753	0.0160585
868.831	0.0159873
868.909	0.0159523
868.987	0.0159692
869.065	0.0158546
869.143	0.0159211
869.221	0.0159090
869.299	0.0159223
869.378	0.0158719
869.456	0.0157594
869.534	0.0157778
869.612	0.0158375
869.690	0.0158285
869.768	0.0156489
869.846	0.0156261
869.924	0.0157310
870.003	0.0156857
870.081	0.0156761
870.159	0.0158160
870.237	0.0157880
870.315	0.0157922
870.393	0.0158270
870.471	0.0159896
870.549	0.0158702
870.628	0.0159656
870.706	0.0159651
870.784	0.0161141
870.862	0.0159161
870.940	0.0160829
871.018	0.0160114
871.096	0.0162122
871.174	0.0159925
871.253	0.0160005
871.331	0.0159936
871.409	0.0158674
871.487	0.0158869
871.565	0.0159036
871.643	0.0160925
871.721	0.0159940
871.799	0.0160461
871.878	0.0159121
871.956	0.0159745
872.034	0.0161491
872.112	0.0160266
872.190	0.0160574
872.268	0.0160203
872.346	0.0160043
872.424	0.0161082
872.503	0.0160596
872.581	0.0159958
872.659	0.0161403
872.737	0.0162171
872.815	0.0161671
872.893	0.0161153
872.971	0.0161250
873.049	0.0160901
873.128	0.0162790
873.206	0.0162083
873.284	0.0162272
873.362	0.0161951
873.440	0.0161519
873.518	0.0161135
873.596	0.0161888
873.674	0.0161282
873.753	0.0159776
873.831	0.0160245
873.909	0.0158661
873.987	0.0160004
874.065	0.0159806
874.143	0.0159727
874.221	0.0159110
874.299	0.0159148
874.378	0.0158366
874.456	0.0158307
874.534	0.0161382
874.612	0.0160737
874.690	0.0159039
874.768	0.0159072
874.846	0.0159086
874.924	0.0158556
875.003	0.0159421
875.081	0.0159502
875.159	0.0159734
875.237	0.0159325
875.315	0.0159885
875.393	0.0158630
875.471	0.0160020
875.549	0.0159482
875.628	0.0158236
875.706	0.0159903
875.784	0.0158993
875.862	0.0160542
875.940	0.0160265
876.018	0.0160752
876.096	0.0160641
876.174	0.0159310
876.253	0.0160358
876.331	0.0158760
876.409	0.0160702
876.487	0.0161312
876.565	0.0160471
876.643	0.0159959
876.721	0.0161964
876.799	0.0161576
876.878	0.0160305
876.956	0.0162364
877.034	0.0161410
877.112	0.0161443
877.190	0.0163009
877.268	0.0162011
877.346	0.0161659
877.424	0.0161607
877.503	0.0161803
877.581	0.0161655
877.659	0.0161415
877.737	0.0162397
877.815	0.0158869
877.893	0.0159908
877.971	0.0161048
878.049	0.0160927
878.128	0.0160818
878.206	0.0159389
878.284	0.0159914
878.362	0.0159966
878.440	0.0159442
878.518	0.0159479
878.596	0.0158368
878.674	0.0158563
878.753	0.0157143
878.831	0.0158444
878.909	0.0158616
878.987	0.0158458
879.065	0.0159901
879.143	0.0158035
879.221	0.0159912
879.299	0.0158576
879.378	0.0157240
879.456	0.0159094
879.534	0.0159180
879.612	0.0159428
879.690	0.0159971
879.768	0.0158454
879.846	0.0159433
879.924	0.0159522
880.003	0.0160037
880.081	0.0159634
880.159	0.0160284
880.237	0.0160903
880.315	0.0160748
880.393	0.0160511
880.471	0.0160797
880.549	0.0161449
880.628	0.0161639
880.706	0.0159969
880.784	0.0159083
880.862	0.0160182
880.940	0.0161097
881.018	0.0160709
881.096	0.0160551
881.174	0.0160527
881.253	0.0159867
881.331	0.0161406
881.409	0.0160273
881.487	0.0161672
881.565	0.0158847
881.643	0.0160280
881.721	0.0162075
881.799	0.0161232
881.878	0.0160826
881.956	0.0159908
882.034	0.0161236
882.112	0.0161211
882.190	0.0160487
882.268	0.0160890
882.346	0.0162082
882.424	0.0159945
882.503	0.0160323
882.581	0.0160344
882.659	0.0159406
882.737	0.0161920
882.815	0.0160719
882.893	0.0159650
882.971	0.0159728
883.049	0.0159245
883.128	0.0159570
883.206	0.0159662
883.284	0.0158832
883.362	0.0158629
883.440	0.0158658
883.518	0.0160158
883.596	0.0158650
883.674	0.0159526
883.753	0.0159470
883.831	0.0158276
883.909	0.0158822
883.987	0.0160232
884.065	0.0160036
884.143	0.0158555
884.221	0.0160941
884.299	0.0158975
884.378	0.0158888
884.456	0.0158268
884.534	0.0159032
884.612	0.0159807
884.690	0.0159341
884.768	0.0158895
884.846	0.0159209
884.924	0.0160157
885.003	0.0161491
885.081	0.0159050
885.159	0.0159613
885.237	0.0159090
885.315	0.0160086
885.393	0.0159843
885.471	0.0159879
885.549	0.0160452
885.628	0.0160248
885.706	0.0159721
885.784	0.0161857
885.862	0.0159557
885.940	0.0160168
886.018	0.0161120
886.096	0.0158517
886.174	0.0159260
886.253	0.0160591
886.331	0.0159406
886.409	0.0160716
886.487	0.0160692
886.565	0.0160301
886.643	0.0159911
886.721	0.0160653
886.799	0.0160193
886.878	0.0160107
886.956	0.0159643
887.034	0.0159579
887.112	0.0157543
887.190	0.0159124
887.268	0.0159410
887.346	0.0159341
887.424	0.0158161
887.503	0.0159138
887.581	0.0158140
887.659	0.0158646
887.737	0.0158781
887.815	0.0157432
887.893	0.0159857
887.971	0.0158830
888.049	0.0158504
888.128	0.0157753
888.206	0.0158241
888.284	0.0158576
888.362	0.0159338
888.440	0.0157834
888.518	0.0159768
888.596	0.0158212
888.674	0.0159243
888.753	0.0159460
888.831	0.0157935
888.909	0.0160380
888.987	0.0160099
889.065	0.0158911
889.143	0.0161001
889.221	0.0160326
889.299	0.0159971
889.378	0.0160370
889.456	0.0159933
889.534	0.0159642
889.612	0.0159820
889.690	0.0160937
889.768	0.0160578
889.846	0.0160119
889.924	0.0160741
890.003	0.0160754
890.081	0.0160637
890.159	0.0161186
890.237	0.0160503
890.315	0.0159218
890.393	0.0159863
890.471	0.0161037
890.549	0.0160093
890.628	0.0161192
890.706	0.0160181
890.784	0.0159847
890.862	0.0161626
890.940	0.0160388
891.018	0.0160488
891.096	0.0159549
891.174	0.0160032
891.253	0.0160102
891.331	0.0159937
891.409	0.0159814
891.487	0.0160132
891.565	0.0158434
891.643	0.0159485
891.721	0.0160570
891.799	0.0158822
891.878	0.0158854
891.956	0.0159079
892.034	0.0160080
892.112	0.0159912
892.190	0.0160315
892.268	0.0160038
892.346	0.0159398
892.424	0.0159078
892.503	0.0160190
892.581	0.0159595
892.659	0.0158884
892.737	0.0158640
892.815	0.0160184
892.893	0.0160420
892.971	0.0160110
893.049	0.0159882
893.128	0.0160806
893.206	0.0159358
893.284	0.0160157
893.362	0.0160918
893.440	0.0159408
893.518	0.0159342
893.596	0.0159602
893.674	0.0158813
893.753	0.0158849
893.831	0.0160374
893.909	0.0159956
893.987	0.0159408
894.065	0.0158983
894.143	0.0159960
894.221	0.0159317
894.299	0.0158696
894.378	0.0159364
894.456	0.0157980
894.534	0.0159379
894.612	0.0160199
894.690	0.0159090
894.768	0.0159135
894.846	0.0159498
894.924	0.0159093
895.003	0.0160580
895.081	0.0159921
895.159	0.0160049
895.237	0.0160408
895.315	0.0160518
895.393	0.0160329
895.471	0.0159193
895.549	0.0159760
895.628	0.0159808
895.706	0.0158644
895.784	0.0159715
895.862	0.0160889
895.940	0.0160675
896.018	0.0159402
896.096	0.0159068
896.174	0.0159835
896.253	0.0158871
896.331	0.0159187
896.409	0.0159938
896.487	0.0160414
896.565	0.0159808
896.643	0.0160493
896.721	0.0159214
896.799	0.0158933
896.878	0.0159653
896.956	0.0158429
897.034	0.0159366
897.112	0.0160586
897.190	0.0159850
897.268	0.0160536
897.346	0.0160892
897.424	0.0160044
897.503	0.0160641
897.581	0.0160158
897.659	0.0163120
897.737	0.0161160
897.815	0.0160939
897.893	0.0160799
897.971	0.0159153
898.049	0.0158920
898.128	0.0160951
898.206	0.0161535
898.284	0.0160359
898.362	0.0158904
898.440	0.0159021
898.518	0.0158932
898.596	0.0159070
898.674	0.0159550
898.753	0.0160799
898.831	0.0159142
898.909	0.0158550
898.987	0.0158959
899.065	0.0159910
899.143	0.0159840
899.221	0.0158719
899.299	0.0159015
899.378	0.0159715
899.456	0.0161804
899.534	0.0159170
899.612	0.0157868
899.690	0.0158463
899.768	0.0157702
899.846	0.0158350
899.924	0.0159495
900.003	0.0158408
900.081	0.0157470
900.159	0.0158340
900.237	0.0158713
900.315	0.0159969
900.393	0.0158279
900.471	0.0158502
900.549	0.0159493
900.628	0.0159914
900.706	0.0159167
900.784	0.0160096
900.862	0.0161131
900.940	0.0160253
901.018	0.0161568
901.096	0.0161099
901.174	0.0159415
901.253	0.0160627
901.331	0.0161818
901.409	0.0162855
901.487	0.0160307
901.565	0.0160860
901.643	0.0160876
901.721	0.0161185
901.799	0.0159847
901.878	0.0160065
901.956	0.0160357
902.034	0.0161219
902.112	0.0159599
902.190	0.0161782
902.268	0.0161446
902.346	0.0158250
902.424	0.0159985
902.503	0.0159885
902.581	0.0160206
902.659	0.0159715
902.737	0.0160754
902.815	0.0159642
902.893	0.0160976
902.971	0.0159246
903.049	0.0158914
903.128	0.0160103
903.206	0.0159108
903.284	0.0158743
903.362	0.0159361
903.440	0.0159062
903.518	0.0158770
903.596	0.0159925
903.674	0.0160844
903.753	0.0159576
903.831	0.0159097
903.909	0.0159477
903.987	0.0159034
904.065	0.0162011
904.143	0.0159364
904.221	0.0158793
904.299	0.0160230
904.378	0.0160213
904.456	0.0160767
904.534	0.0159612
904.612	0.0160628
904.690	0.0160630
904.768	0.0159114
904.846	0.0159843
904.924	0.0160439
905.003	0.0159480
905.081	0.0160902
905.159	0.0160857
905.237	0.0159534
905.315	0.0159589
905.393	0.0159940
905.471	0.0160333
905.549	0.0160464
905.628	0.0159113
905.706	0.0159554
905.784	0.0159206
905.862	0.0160145
905.940	0.0159215
906.018	0.0160656
906.096	0.0159531
906.174	0.0160008
906.253	0.0159665
906.331	0.0158754
906.409	0.0159766
906.487	0.0161594
906.565	0.0160559
906.643	0.0159575
906.721	0.0161102
906.799	0.0161604
906.878	0.0158592
906.956	0.0159008
907.034	0.0159102
907.112	0.0158447
907.190	0.0158325
907.268	0.0158476
907.346	0.0159874
907.424	0.0158513
907.503	0.0158498
907.581	0.0158803
907.659	0.0159476
907.737	0.0158913
907.815	0.0160244
907.893	0.0160265
907.971	0.0159438
908.049	0.0160162
908.128	0.0160869
908.206	0.0161384
908.284	0.0161945
908.362	0.0161293
908.440	0.0161240
908.518	0.0160741
908.596	0.0160912
908.674	0.0159864
908.753	0.0159943
908.831	0.0159557
908.909	0.0160609
908.987	0.0160985
909.065	0.0161150
909.143	0.0161280
909.221	0.0160234
909.299	0.0159600
909.378	0.0159532
909.456	0.0159151
909.534	0.0158729
909.612	0.0158959
909.690	0.0158897
909.768	0.0159190
909.846	0.0159595
909.924	0.0158962
910.003	0.0157824
910.081	0.0158727
910.159	0.0158501
910.237	0.0156361
910.315	0.0159270
910.393	0.0160001
910.471	0.0160420
910.549	0.0160175
910.628	0.0160223
910.706	0.0159644
910.784	0.0160240
910.862	0.0161412
910.940	0.0160126
911.018	0.0160672
911.096	0.0161793
911.174	0.0160090
911.253	0.0159801
911.331	0.0159290
911.409	0.0159222
911.487	0.0158627
911.565	0.0158119
911.643	0.0157967
911.721	0.0159193
911.799	0.0158887
911.878	0.0159077
911.956	0.0158947
912.034	0.0157529
912.112	0.0160218
912.190	0.0159929
912.268	0.0159036
912.346	0.0159974
912.424	0.0159264
912.503	0.0158496
912.581	0.0159582
912.659	0.0160339
912.737	0.0159933
912.815	0.0158061
912.893	0.0160346
912.971	0.0160275
913.049	0.0159476
913.128	0.0159227
913.206	0.0159591
913.284	0.0160700
913.362	0.0160575
913.440	0.0160867
913.518	0.0161129
913.596	0.0160284
913.674	0.0160165
913.753	0.0162446
913.831	0.0162133
913.909	0.0162696
913.987	0.0160952
914.065	0.0161962
914.143	0.0161153
914.221	0.0161009
914.299	0.0160043
914.378	0.0159254
914.456	0.0159922
914.534	0.0158976
914.612	0.0159593
914.690	0.0158900
914.768	0.0157959
914.846	0.0159074
914.924	0.0158554
915.003	0.0158407
915.081	0.0159357
915.159	0.0160232
915.237	0.0160335
915.315	0.0159321
915.393	0.0159899
915.471	0.0159318
915.549	0.0160107
915.628	0.0159867
915.706	0.0158242
915.784	0.0159687
915.862	0.0160324
915.940	0.0158985
916.018	0.0158513
916.096	0.0159304
916.174	0.0160030
916.253	0.0160394
916.331	0.0158539
916.409	0.0160575
916.487	0.0160445
916.565	0.0160773
916.643	0.0160603
916.721	0.0161585
916.799	0.0163877
916.878	0.0162418
916.956	0.0161983
917.034	0.0162217
917.112	0.0162263
917.190	0.0162883
917.268	0.0162340
917.346	0.0161381
917.424	0.0162053
917.503	0.0161881
917.581	0.0160032
917.659	0.0160143
917.737	0.0159926
917.815	0.0158464
917.893	0.0159456
917.971	0.0159771
918.049	0.0158733
918.128	0.0157336
918.206	0.0157262
918.284	0.0158122
918.362	0.0158773
918.440	0.0159297
918.518	0.0157899
918.596	0.0157403
918.674	0.0157884
918.753	0.0159314
918.831	0.0159885
918.909	0.0159792
918.987	0.0160808
919.065	0.0160757
919.143	0.0159997
919.221	0.0159551
919.299	0.0158518
919.378	0.0158643
919.456	0.0160409
919.534	0.0160250
919.612	0.0158499
919.690	0.0158413
919.768	0.0157461
919.846	0.0160046
919.924	0.0158454
920.003	0.0157782
920.081	0.0157439
920.159	0.0157545
920.237	0.0158219
920.315	0.0158847
920.393	0.0160325
920.471	0.0158999
920.549	0.0159934
920.628	0.0160886
920.706	0.0161409
920.784	0.0161909
920.862	0.0161214
920.940	0.0163781
921.018	0.0163664
921.096	0.0162743
921.174	0.0162533
921.253	0.0161864
921.331	0.0162586
921.409	0.0162428
921.487	0.0163286
921.565	0.0162032
921.643	0.0161779
921.721	0.0163142
921.799	0.0160973
921.878	0.0160114
921.956	0.0161698
922.034	0.0159942
922.112	0.0159697
922.190	0.0160670
922.268	0.0159203
922.346	0.0158085
922.424	0.0157515
922.503	0.0158380
922.581	0.0156733
922.659	0.0157595
922.737	0.0157206
922.815	0.0157706
922.893	0.0156830
922.971	0.0156835
923.049	0.0157309
923.128	0.0157063
923.206	0.0158244
923.284	0.0158006
923.362	0.0160040
923.440	0.0159017
923.518	0.0159826
923.596	0.0160167
923.674	0.0161559
923.753	0.0159615
923.831	0.0161656
923.909	0.0160365
923.987	0.0160162
924.065	0.0160893
924.143	0.0159686
924.221	0.0160468
924.299	0.0159615
924.378	0.0160874
924.456	0.0159229
924.534	0.0158989
924.612	0.0159477
924.690	0.0160560
924.768	0.0159613
924.846	0.0159718
924.924	0.0161198
925.003	0.0158968
925.081	0.0161032
925.159	0.0161218
925.237	0.0162356
925.315	0.0161811
925.393	0.0161756
925.471	0.0162365
925.549	0.0163528
925.628	0.0164398
925.706	0.0163484
925.784	0.0164404
925.862	0.0163209
925.940	0.0162562
926.018	0.0162486
926.096	0.0161591
926.174	0.0162231
926.253	0.0161923
926.331	0.0159930
926.409	0.0158716
926.487	0.0159324
926.565	0.0158522
926.643	0.0158588
926.721	0.0156591
926.799	0.0158105
926.878	0.0157720
926.956	0.0158239
927.034	0.0155627
927.112	0.0157774
927.190	0.0157117
927.268	0.0157159
927.346	0.0158057
927.424	0.0157386
927.503	0.0157704
927.581	0.0158810
927.659	0.0158194
927.737	0.0157852
927.815	0.0160696
927.893	0.0160320
927.971	0.0160328
928.049	0.0160442
928.128	0.0162048
928.206	0.0163976
928.284	0.0162331
928.362	0.0162962
928.440	0.0161661
928.518	0.0161539
928.596	0.0160999
928.674	0.0160463
928.753	0.0160764
928.831	0.0160180
928.909	0.0158972
928.987	0.0159403
929.065	0.0157161
929.143	0.0156281
929.221	0.0157296
929.299	0.0155339
929.378	0.0156641
929.456	0.0158292
929.534	0.0157864
929.612	0.0159084
929.690	0.0158215
929.768	0.0158936
929.846	0.0160210
929.924	0.0160880
930.003	0.0160952
930.081	0.0162823
930.159	0.0161670
930.237	0.0162805
930.315	0.0162751
930.393	0.0161755
930.471	0.0161651
930.549	0.0162408
930.628	0.0159888
930.706	0.0159570
930.784	0.0159139
930.862	0.0159360
930.940	0.0156054
931.018	0.0157484
931.096	0.0158434
931.174	0.0154725
931.253	0.0156061
931.331	0.0156229
931.409	0.0157406
931.487	0.0158363
931.565	0.0158392
931.643	0.0157890
931.721	0.0158804
931.799	0.0159343
931.878	0.0159907
931.956	0.0159770
932.034	0.0159357
932.112	0.0160841
932.190	0.0161280
932.268	0.0160696
932.346	0.0161165
932.424	0.0160800
932.503	0.0161623
932.581	0.0161279
932.659	0.0161237
932.737	0.0161250
932.815	0.0160570
932.893	0.0160719
932.971	0.0159445
933.049	0.0161262
933.128	0.0159835
933.206	0.0160177
933.284	0.0160191
933.362	0.0160474
933.440	0.0159703
933.518	0.0157554
933.596	0.0158778
933.674	0.0157516
933.753	0.0158487
933.831	0.0158038
933.909	0.0157912
933.987	0.0159051
934.065	0.0158306
934.143	0.0158123
934.221	0.0158873
934.299	0.0159580
934.378	0.0160119
934.456	0.0159219
934.534	0.0161816
934.612	0.0160674
934.690	0.0161227
934.768	0.0160130
934.846	0.0161670
934.924	0.0161996
935.003	0.0160564
935.081	0.0160988
935.159	0.0159808
935.237	0.0159024
935.315	0.0158433
935.393	0.0157846
935.471	0.0159617
935.549	0.0158308
935.628	0.0157763
935.706	0.0157737
935.784	0.0157764
935.862	0.0159122
935.940	0.0158856
936.018	0.0159186
936.096	0.0160973
936.174	0.0161961
936.253	0.0161347
936.331	0.0161042
936.409	0.0161736
936.487	0.0162531
936.565	0.0161114
936.643	0.0162248
936.721	0.0160748
936.799	0.0161752
936.878	0.0161253
936.956	0.0160488
937.034	0.0161831
937.112	0.0159504
937.190	0.0160133
937.268	0.0159659
937.346	0.0159683
937.424	0.0159808
937.503	0.0159429
937.581	0.0158266
937.659	0.0159333
937.737	0.0158960
937.815	0.0159084
937.893	0.0160270
937.971	0.0159824
938.049	0.0158154
938.128	0.0158482
938.206	0.0158672
938.284	0.0159360
938.362	0.0159838
938.440	0.0160904
938.518	0.0158457
938.596	0.0158173
938.674	0.0159325
938.753	0.0158634
938.831	0.0159157
938.909	0.0159573
938.987	0.0158981
939.065	0.0159989
939.143	0.0160245
939.221	0.0160631
939.299	0.0160744
939.378	0.0159477
939.456	0.0161134
939.534	0.0161116
939.612	0.0159484
939.690	0.0162061
939.768	0.0160493
939.846	0.0160080
939.924	0.0160294
940.003	0.0160201
940.081	0.0159129
940.159	0.0159006
940.237	0.0159314
940.315	0.0160085
940.393	0.0160254
940.471	0.0159401
940.549	0.0161570
940.628	0.0160120
940.706	0.0161031
940.784	0.0160995
940.862	0.0160260
940.940	0.0159155
941.018	0.0161764
941.096	0.0160892
941.174	0.0161399
941.253	0.0160669
941.331	0.0161267
941.409	0.0160702
941.487	0.0159682
941.565	0.0160094
941.643	0.0159520
941.721	0.0159214
941.799	0.0159804
941.878	0.0158965
941.956	0.0158817
942.034	0.0159915
942.112	0.0158889
942.190	0.0159143
942.268	0.0158972
942.346	0.0158589
942.424	0.0158601
942.503	0.0160284
942.581	0.0158952
942.659	0.0159949
942.737	0.0160401
942.815	0.0158923
942.893	0.0159293
942.971	0.0160359
943.049	0.0159660
943.128	0.0158086
943.206	0.0159275
943.284	0.0160718
943.362	0.0159779
943.440	0.0160905
943.518	0.0160323
943.596	0.0158360
943.674	0.0160149
943.753	0.0159702
943.831	0.0161310
943.909	0.0160411
943.987	0.0159442
944.065	0.0159222
944.143	0.0160320
944.221	0.0159926
944.299	0.0159671
944.378	0.0159835
944.456	0.0159841
944.534	0.0159546
944.612	0.0160541
944.690	0.0159808
944.768	0.0160702
944.846	0.0160175
944.924	0.0160786
945.003	0.0159141
945.081	0.0159357
945.159	0.0159165
945.237	0.0159100
945.315	0.0159536
945.393	0.0159697
945.471	0.0159161
945.549	0.0159513
945.628	0.0159856
945.706	0.0160628
945.784	0.0159521
945.862	0.0159947
945.940	0.0159406
946.018	0.0160435
946.096	0.0159018
946.174	0.0161234
946.253	0.0162046
946.331	0.0159427
946.409	0.0160631
946.487	0.0158878
946.565	0.0159616
946.643	0.0160432
946.721	0.0160664
946.799	0.0160757
946.878	0.0160211
946.956	0.0160204
947.034	0.0159111
947.112	0.0160534
947.190	0.0160515
947.268	0.0158511
947.346	0.0158869
947.424	0.0159502
947.503	0.0160332
947.581	0.0159260
947.659	0.0159709
947.737	0.0161047
947.815	0.0159762
947.893	0.0160256
947.971	0.0160208
948.049	0.0158933
948.128	0.0160314
948.206	0.0159007
948.284	0.0160300
948.362	0.0159239
948.440	0.0159018
948.518	0.0160471
948.596	0.0161881
948.674	0.0160448
948.753	0.0160728
948.831	0.0159240
948.909	0.0160057
948.987	0.0160516
949.065	0.0159389
949.143	0.0160513
949.221	0.0160282
949.299	0.0159057
949.378	0.0160152
949.456	0.0161441
949.534	0.0159316
949.612	0.0161239
949.690	0.0160740
949.768	0.0160320
949.846	0.0159616
949.924	0.0161383
