06/29/2022	22:53:15	Ver.	4.1	UNKNOWN
Optical Delay	630.002507	Delta X		0.078125	Sweeps	1	Scan Rate	0/0
Coordinates	Axis 1	NaN	Axis 2	NaN	Axis 3	NaN	Axis 4	NaN	Axis 5	NaN	Axis 6	0.000000
TX Power	0.000000	RX Power	0.000000

630.003	0.0157076
630.081	0.0156270
630.159	0.0154944
630.237	0.0157404
630.315	0.0157263
630.393	0.0156583
630.471	0.0156541
630.549	0.0156256
630.628	0.0157253
630.706	0.0157073
630.784	0.0157671
630.862	0.0157694
630.940	0.0156828
631.018	0.0157628
631.096	0.0156950
631.174	0.0155754
631.253	0.0156312
631.331	0.0156420
631.409	0.0157856
631.487	0.0157093
631.565	0.0157053
631.643	0.0156556
631.721	0.0154800
631.799	0.0157178
631.878	0.0158755
631.956	0.0156621
632.034	0.0157118
632.112	0.0157052
632.190	0.0156345
632.268	0.0156953
632.346	0.0156219
632.424	0.0157030
632.503	0.0156426
632.581	0.0156504
632.659	0.0156200
632.737	0.0156109
632.815	0.0155690
632.893	0.0155717
632.971	0.0157654
633.049	0.0157114
633.128	0.0156970
633.206	0.0157245
633.284	0.0157437
633.362	0.0156091
633.440	0.0157218
633.518	0.0158008
633.596	0.0156212
633.674	0.0157050
633.753	0.0158074
633.831	0.0157843
633.909	0.0157557
633.987	0.0157305
634.065	0.0156827
634.143	0.0155789
634.221	0.0156060
634.299	0.0157156
634.378	0.0156143
634.456	0.0156709
634.534	0.0156241
634.612	0.0157216
634.690	0.0157305
634.768	0.0157788
634.846	0.0155452
634.924	0.0155718
635.003	0.0156896
635.081	0.0157475
635.159	0.0157319
635.237	0.0155082
635.315	0.0157466
635.393	0.0156649
635.471	0.0157462
635.549	0.0156105
635.628	0.0156034
635.706	0.0157239
635.784	0.0157098
635.862	0.0156042
635.940	0.0155798
636.018	0.0156023
636.096	0.0155431
636.174	0.0156943
636.253	0.0156450
636.331	0.0157430
636.409	0.0157814
636.487	0.0156889
636.565	0.0157149
636.643	0.0156930
636.721	0.0157001
636.799	0.0156816
636.878	0.0157629
636.956	0.0156912
637.034	0.0157111
637.112	0.0157294
637.190	0.0156660
637.268	0.0156776
637.346	0.0156297
637.424	0.0159857
637.503	0.0156942
637.581	0.0156060
637.659	0.0157417
637.737	0.0156560
637.815	0.0156517
637.893	0.0155965
637.971	0.0156991
638.049	0.0157475
638.128	0.0156838
638.206	0.0155921
638.284	0.0157524
638.362	0.0156181
638.440	0.0157504
638.518	0.0156995
638.596	0.0157222
638.674	0.0156827
638.753	0.0156696
638.831	0.0157483
638.909	0.0157425
638.987	0.0157205
639.065	0.0157028
639.143	0.0156631
639.221	0.0156456
639.299	0.0156866
639.378	0.0156483
639.456	0.0156400
639.534	0.0157013
639.612	0.0156392
639.690	0.0156723
639.768	0.0158510
639.846	0.0158118
639.924	0.0156298
640.003	0.0157195
640.081	0.0156589
640.159	0.0157006
640.237	0.0156407
640.315	0.0156744
640.393	0.0156789
640.471	0.0157569
640.549	0.0156603
640.628	0.0155954
640.706	0.0157188
640.784	0.0157288
640.862	0.0156010
640.940	0.0155963
641.018	0.0158490
641.096	0.0157297
641.174	0.0157123
641.253	0.0157502
641.331	0.0156557
641.409	0.0157694
641.487	0.0157802
641.565	0.0157376
641.643	0.0157509
641.721	0.0156592
641.799	0.0156775
641.878	0.0156918
641.956	0.0156135
642.034	0.0158025
642.112	0.0156110
642.190	0.0157182
642.268	0.0157806
642.346	0.0157137
642.424	0.0155997
642.503	0.0157209
642.581	0.0157628
642.659	0.0155972
642.737	0.0155734
642.815	0.0158221
642.893	0.0157869
642.971	0.0157349
643.049	0.0156553
643.128	0.0156227
643.206	0.0157950
643.284	0.0157799
643.362	0.0157244
643.440	0.0155952
643.518	0.0156657
643.596	0.0157481
643.674	0.0157643
643.753	0.0157727
643.831	0.0157452
643.909	0.0156463
643.987	0.0157720
644.065	0.0157670
644.143	0.0156506
644.221	0.0156728
644.299	0.0158328
644.378	0.0157610
644.456	0.0155782
644.534	0.0156380
644.612	0.0157367
644.690	0.0156763
644.768	0.0156889
644.846	0.0156975
644.924	0.0156564
645.003	0.0156480
645.081	0.0158061
645.159	0.0156180
645.237	0.0156905
645.315	0.0157629
645.393	0.0157531
645.471	0.0157663
645.549	0.0157156
645.628	0.0157668
645.706	0.0156680
645.784	0.0157212
645.862	0.0157870
645.940	0.0156824
646.018	0.0157283
646.096	0.0156161
646.174	0.0157040
646.253	0.0157722
646.331	0.0156573
646.409	0.0157579
646.487	0.0158484
646.565	0.0157249
646.643	0.0157291
646.721	0.0157555
646.799	0.0157000
646.878	0.0157735
646.956	0.0156841
647.034	0.0157911
647.112	0.0157538
647.190	0.0157532
647.268	0.0158008
647.346	0.0156030
647.424	0.0157919
647.503	0.0157932
647.581	0.0157372
647.659	0.0157626
647.737	0.0156871
647.815	0.0158098
647.893	0.0158579
647.971	0.0156130
648.049	0.0156319
648.128	0.0158160
648.206	0.0157909
648.284	0.0158707
648.362	0.0157028
648.440	0.0156969
648.518	0.0157278
648.596	0.0156713
648.674	0.0156776
648.753	0.0156755
648.831	0.0157845
648.909	0.0157331
648.987	0.0155750
649.065	0.0157081
649.143	0.0157314
649.221	0.0156191
649.299	0.0157171
649.378	0.0156982
649.456	0.0156154
649.534	0.0156937
649.612	0.0157212
649.690	0.0157018
649.768	0.0157367
649.846	0.0157482
649.924	0.0157221
650.003	0.0158829
650.081	0.0158656
650.159	0.0157660
650.237	0.0155791
650.315	0.0157165
650.393	0.0158234
650.471	0.0157485
650.549	0.0156724
650.628	0.0156890
650.706	0.0158016
650.784	0.0155761
650.862	0.0156794
650.940	0.0156818
651.018	0.0157967
651.096	0.0157471
651.174	0.0157512
651.253	0.0157059
651.331	0.0157088
651.409	0.0156190
651.487	0.0157108
651.565	0.0157684
651.643	0.0157014
651.721	0.0157310
651.799	0.0156856
651.878	0.0157574
651.956	0.0157838
652.034	0.0157001
652.112	0.0157140
652.190	0.0156775
652.268	0.0156651
652.346	0.0155204
652.424	0.0157824
652.503	0.0157040
652.581	0.0157108
652.659	0.0156664
652.737	0.0156086
652.815	0.0156237
652.893	0.0156959
652.971	0.0157133
653.049	0.0157698
653.128	0.0156479
653.206	0.0156718
653.284	0.0156118
653.362	0.0155478
653.440	0.0155690
653.518	0.0156392
653.596	0.0157164
653.674	0.0157200
653.753	0.0157227
653.831	0.0157050
653.909	0.0155659
653.987	0.0156316
654.065	0.0157156
654.143	0.0155769
654.221	0.0158119
654.299	0.0156432
654.378	0.0155818
654.456	0.0157392
654.534	0.0156893
654.612	0.0157316
654.690	0.0157844
654.768	0.0157505
654.846	0.0156286
654.924	0.0157387
655.003	0.0156337
655.081	0.0157489
655.159	0.0156408
655.237	0.0157464
655.315	0.0158605
655.393	0.0158281
655.471	0.0157107
655.549	0.0157738
655.628	0.0158373
655.706	0.0156763
655.784	0.0156544
655.862	0.0156940
655.940	0.0157746
656.018	0.0157587
656.096	0.0155672
656.174	0.0155073
656.253	0.0157107
656.331	0.0157251
656.409	0.0156236
656.487	0.0158144
656.565	0.0157901
656.643	0.0157772
656.721	0.0156988
656.799	0.0157738
656.878	0.0157565
656.956	0.0156603
657.034	0.0158929
657.112	0.0157910
657.190	0.0156317
657.268	0.0157879
657.346	0.0156177
657.424	0.0155840
657.503	0.0157420
657.581	0.0157104
657.659	0.0157614
657.737	0.0156149
657.815	0.0157283
657.893	0.0155819
657.971	0.0157308
658.049	0.0156551
658.128	0.0156697
658.206	0.0157033
658.284	0.0155904
658.362	0.0157259
658.440	0.0158143
658.518	0.0157272
658.596	0.0157142
658.674	0.0157835
658.753	0.0158043
658.831	0.0156291
658.909	0.0156716
658.987	0.0157214
659.065	0.0156756
659.143	0.0157101
659.221	0.0157931
659.299	0.0158267
659.378	0.0158060
659.456	0.0155435
659.534	0.0155704
659.612	0.0155975
659.690	0.0156313
659.768	0.0156371
659.846	0.0157133
659.924	0.0157618
660.003	0.0155865
660.081	0.0157153
660.159	0.0154642
660.237	0.0156246
660.315	0.0158186
660.393	0.0157551
660.471	0.0157478
660.549	0.0158625
660.628	0.0157600
660.706	0.0156525
660.784	0.0155898
660.862	0.0156355
660.940	0.0156885
661.018	0.0156814
661.096	0.0158323
661.174	0.0158134
661.253	0.0155447
661.331	0.0156023
661.409	0.0157748
661.487	0.0156956
661.565	0.0157365
661.643	0.0156100
661.721	0.0156186
661.799	0.0158713
661.878	0.0157396
661.956	0.0156480
662.034	0.0156089
662.112	0.0157394
662.190	0.0157265
662.268	0.0155699
662.346	0.0156091
662.424	0.0157569
662.503	0.0157329
662.581	0.0156789
662.659	0.0156635
662.737	0.0156259
662.815	0.0155309
662.893	0.0157249
662.971	0.0158066
663.049	0.0156093
663.128	0.0157221
663.206	0.0157867
663.284	0.0156921
663.362	0.0157172
663.440	0.0157989
663.518	0.0157861
663.596	0.0157661
663.674	0.0157365
663.753	0.0156689
663.831	0.0157099
663.909	0.0157637
663.987	0.0157380
664.065	0.0156129
664.143	0.0156877
664.221	0.0156029
664.299	0.0157764
664.378	0.0157956
664.456	0.0157249
664.534	0.0157590
664.612	0.0156663
664.690	0.0157327
664.768	0.0157085
664.846	0.0155801
664.924	0.0157151
665.003	0.0158089
665.081	0.0157163
665.159	0.0157747
665.237	0.0156402
665.315	0.0156181
665.393	0.0156161
665.471	0.0157622
665.549	0.0157054
665.628	0.0156732
665.706	0.0156596
665.784	0.0158201
665.862	0.0157134
665.940	0.0157421
666.018	0.0158315
666.096	0.0156382
666.174	0.0155453
666.253	0.0157380
666.331	0.0157787
666.409	0.0157661
666.487	0.0156878
666.565	0.0155878
666.643	0.0157119
666.721	0.0157063
666.799	0.0157422
666.878	0.0157088
666.956	0.0156357
667.034	0.0157618
667.112	0.0156069
667.190	0.0157183
667.268	0.0155994
667.346	0.0156380
667.424	0.0158114
667.503	0.0156656
667.581	0.0156069
667.659	0.0157658
667.737	0.0156502
667.815	0.0158257
667.893	0.0156203
667.971	0.0156762
668.049	0.0157066
668.128	0.0156133
668.206	0.0156960
668.284	0.0155778
668.362	0.0157031
668.440	0.0157695
668.518	0.0157394
668.596	0.0157581
668.674	0.0157641
668.753	0.0157666
668.831	0.0157109
668.909	0.0157751
668.987	0.0158049
669.065	0.0157041
669.143	0.0157570
669.221	0.0158303
669.299	0.0157928
669.378	0.0158151
669.456	0.0155384
669.534	0.0157903
669.612	0.0158147
669.690	0.0157745
669.768	0.0156535
669.846	0.0156490
669.924	0.0157129
670.003	0.0157928
670.081	0.0157607
670.159	0.0157114
670.237	0.0156950
670.315	0.0157727
670.393	0.0156225
670.471	0.0156652
670.549	0.0156984
670.628	0.0157094
670.706	0.0157236
670.784	0.0156040
670.862	0.0158034
670.940	0.0158537
671.018	0.0156462
671.096	0.0156885
671.174	0.0155801
671.253	0.0156551
671.331	0.0156475
671.409	0.0157209
671.487	0.0156197
671.565	0.0156903
671.643	0.0157776
671.721	0.0157818
671.799	0.0156541
671.878	0.0156457
671.956	0.0156039
672.034	0.0157410
672.112	0.0158048
672.190	0.0157654
672.268	0.0156736
672.346	0.0156964
672.424	0.0157297
672.503	0.0157476
672.581	0.0158662
672.659	0.0157242
672.737	0.0157153
672.815	0.0158052
672.893	0.0156478
672.971	0.0157673
673.049	0.0158086
673.128	0.0156068
673.206	0.0156393
673.284	0.0157058
673.362	0.0156471
673.440	0.0156989
673.518	0.0157130
673.596	0.0156404
673.674	0.0157587
673.753	0.0157094
673.831	0.0156617
673.909	0.0158391
673.987	0.0156931
674.065	0.0157195
674.143	0.0157822
674.221	0.0156583
674.299	0.0157678
674.378	0.0157580
674.456	0.0155810
674.534	0.0157423
674.612	0.0156965
674.690	0.0157391
674.768	0.0157073
674.846	0.0156882
674.924	0.0157767
675.003	0.0158936
675.081	0.0156231
675.159	0.0157504
675.237	0.0157997
675.315	0.0156660
675.393	0.0156915
675.471	0.0157259
675.549	0.0157248
675.628	0.0157774
675.706	0.0156104
675.784	0.0158072
675.862	0.0157429
675.940	0.0158125
676.018	0.0158297
676.096	0.0157307
676.174	0.0156203
676.253	0.0157092
676.331	0.0157030
676.409	0.0156702
676.487	0.0156891
676.565	0.0156670
676.643	0.0156516
676.721	0.0156952
676.799	0.0157102
676.878	0.0157362
676.956	0.0157919
677.034	0.0157847
677.112	0.0157050
677.190	0.0156640
677.268	0.0157372
677.346	0.0157227
677.424	0.0157755
677.503	0.0157776
677.581	0.0157498
677.659	0.0157929
677.737	0.0157613
677.815	0.0157383
677.893	0.0158946
677.971	0.0157841
678.049	0.0155943
678.128	0.0157218
678.206	0.0157632
678.284	0.0157260
678.362	0.0157566
678.440	0.0158921
678.518	0.0157253
678.596	0.0156404
678.674	0.0155991
678.753	0.0157933
678.831	0.0157024
678.909	0.0157516
678.987	0.0157256
679.065	0.0156874
679.143	0.0156425
679.221	0.0157285
679.299	0.0157842
679.378	0.0155699
679.456	0.0156498
679.534	0.0157100
679.612	0.0157303
679.690	0.0156667
679.768	0.0157589
679.846	0.0156682
679.924	0.0156313
680.003	0.0156345
680.081	0.0157739
680.159	0.0157237
680.237	0.0156065
680.315	0.0158001
680.393	0.0157526
680.471	0.0156986
680.549	0.0156635
680.628	0.0157114
680.706	0.0156540
680.784	0.0157532
680.862	0.0157849
680.940	0.0157039
681.018	0.0155524
681.096	0.0155177
681.174	0.0155566
681.253	0.0156740
681.331	0.0156574
681.409	0.0157365
681.487	0.0156401
681.565	0.0157645
681.643	0.0156246
681.721	0.0156326
681.799	0.0156040
681.878	0.0157274
681.956	0.0157011
682.034	0.0156206
682.112	0.0157085
682.190	0.0155980
682.268	0.0156593
682.346	0.0157447
682.424	0.0158126
682.503	0.0156382
682.581	0.0155647
682.659	0.0156808
682.737	0.0156699
682.815	0.0157359
682.893	0.0157576
682.971	0.0155566
683.049	0.0156353
683.128	0.0157978
683.206	0.0156378
683.284	0.0157211
683.362	0.0158821
683.440	0.0157323
683.518	0.0157399
683.596	0.0157832
683.674	0.0157127
683.753	0.0158640
683.831	0.0157806
683.909	0.0158418
683.987	0.0156966
684.065	0.0157381
684.143	0.0158659
684.221	0.0157296
684.299	0.0156290
684.378	0.0157938
684.456	0.0157632
684.534	0.0157296
684.612	0.0157867
684.690	0.0156214
684.768	0.0156940
684.846	0.0156880
684.924	0.0157585
685.003	0.0157874
685.081	0.0158017
685.159	0.0158772
685.237	0.0158102
685.315	0.0157638
685.393	0.0156628
685.471	0.0157401
685.549	0.0158237
685.628	0.0158075
685.706	0.0158146
685.784	0.0158000
685.862	0.0158228
685.940	0.0156516
686.018	0.0157533
686.096	0.0156308
686.174	0.0157353
686.253	0.0157504
686.331	0.0157088
686.409	0.0157119
686.487	0.0157089
686.565	0.0156066
686.643	0.0156327
686.721	0.0157459
686.799	0.0156936
686.878	0.0156297
686.956	0.0159011
687.034	0.0156039
687.112	0.0155924
687.190	0.0157376
687.268	0.0158538
687.346	0.0157012
687.424	0.0156743
687.503	0.0156829
687.581	0.0157745
687.659	0.0157178
687.737	0.0158160
687.815	0.0157014
687.893	0.0157610
687.971	0.0157380
688.049	0.0158744
688.128	0.0157096
688.206	0.0156921
688.284	0.0156509
688.362	0.0158612
688.440	0.0157431
688.518	0.0156874
688.596	0.0157543
688.674	0.0157654
688.753	0.0157609
688.831	0.0157437
688.909	0.0157356
688.987	0.0157629
689.065	0.0159119
689.143	0.0156760
689.221	0.0156757
689.299	0.0156687
689.378	0.0157816
689.456	0.0158461
689.534	0.0158154
689.612	0.0157568
689.690	0.0157732
689.768	0.0157145
689.846	0.0157462
689.924	0.0157765
690.003	0.0157344
690.081	0.0156680
690.159	0.0159188
690.237	0.0158725
690.315	0.0155886
690.393	0.0157320
690.471	0.0157893
690.549	0.0157732
690.628	0.0156606
690.706	0.0156690
690.784	0.0157002
690.862	0.0157316
690.940	0.0157288
691.018	0.0156834
691.096	0.0158340
691.174	0.0157461
691.253	0.0158175
691.331	0.0155855
691.409	0.0157365
691.487	0.0157625
691.565	0.0157931
691.643	0.0156637
691.721	0.0155417
691.799	0.0158005
691.878	0.0156476
691.956	0.0155989
692.034	0.0157729
692.112	0.0157350
692.190	0.0156291
692.268	0.0154748
692.346	0.0157462
692.424	0.0156912
692.503	0.0157636
692.581	0.0155730
692.659	0.0155724
692.737	0.0156655
692.815	0.0156755
692.893	0.0157055
692.971	0.0156343
693.049	0.0157133
693.128	0.0156979
693.206	0.0158248
693.284	0.0157101
693.362	0.0156834
693.440	0.0157674
693.518	0.0157278
693.596	0.0154878
693.674	0.0156944
693.753	0.0158049
693.831	0.0157340
693.909	0.0157446
693.987	0.0156916
694.065	0.0157201
694.143	0.0157773
694.221	0.0156667
694.299	0.0157206
694.378	0.0157947
694.456	0.0156755
694.534	0.0156207
694.612	0.0157357
694.690	0.0157616
694.768	0.0157944
694.846	0.0156538
694.924	0.0156858
695.003	0.0156531
695.081	0.0157049
695.159	0.0157661
695.237	0.0157983
695.315	0.0156448
695.393	0.0157343
695.471	0.0158135
695.549	0.0156350
695.628	0.0157664
695.706	0.0157049
695.784	0.0157370
695.862	0.0157627
695.940	0.0156821
696.018	0.0157256
696.096	0.0156857
696.174	0.0157624
696.253	0.0157643
696.331	0.0158251
696.409	0.0157900
696.487	0.0155366
696.565	0.0158141
696.643	0.0158321
696.721	0.0156071
696.799	0.0155817
696.878	0.0156576
696.956	0.0156797
697.034	0.0157418
697.112	0.0158982
697.190	0.0157034
697.268	0.0156371
697.346	0.0156848
697.424	0.0158527
697.503	0.0158813
697.581	0.0157047
697.659	0.0156277
697.737	0.0157266
697.815	0.0157089
697.893	0.0156260
697.971	0.0157699
698.049	0.0156906
698.128	0.0156352
698.206	0.0156503
698.284	0.0156783
698.362	0.0155817
698.440	0.0156505
698.518	0.0157141
698.596	0.0158318
698.674	0.0157069
698.753	0.0157014
698.831	0.0157882
698.909	0.0156300
698.987	0.0156456
699.065	0.0155939
699.143	0.0157872
699.221	0.0155554
699.299	0.0156490
699.378	0.0155980
699.456	0.0156032
699.534	0.0155880
699.612	0.0156384
699.690	0.0157612
699.768	0.0155427
699.846	0.0155617
699.924	0.0155624
700.003	0.0156789
700.081	0.0156503
700.159	0.0156693
700.237	0.0156905
700.315	0.0156303
700.393	0.0154785
700.471	0.0157033
700.549	0.0158315
700.628	0.0155501
700.706	0.0156867
700.784	0.0157716
700.862	0.0155680
700.940	0.0157776
701.018	0.0157208
701.096	0.0157187
701.174	0.0157774
701.253	0.0157807
701.331	0.0156303
701.409	0.0157051
701.487	0.0156347
701.565	0.0157450
701.643	0.0158427
701.721	0.0157548
701.799	0.0156292
701.878	0.0157121
701.956	0.0157027
702.034	0.0157601
702.112	0.0159001
702.190	0.0156853
702.268	0.0157624
702.346	0.0157801
702.424	0.0157668
702.503	0.0157908
702.581	0.0158805
702.659	0.0158318
702.737	0.0157728
702.815	0.0157108
702.893	0.0157567
702.971	0.0157121
703.049	0.0158164
703.128	0.0157200
703.206	0.0156664
703.284	0.0156438
703.362	0.0155303
703.440	0.0154884
703.518	0.0155386
703.596	0.0156634
703.674	0.0154923
703.753	0.0156633
703.831	0.0156831
703.909	0.0157420
703.987	0.0156133
704.065	0.0156699
704.143	0.0156337
704.221	0.0156008
704.299	0.0155255
704.378	0.0155288
704.456	0.0154214
704.534	0.0155369
704.612	0.0155320
704.690	0.0154577
704.768	0.0154826
704.846	0.0154837
704.924	0.0155297
705.003	0.0156538
705.081	0.0156284
705.159	0.0154647
705.237	0.0155217
705.315	0.0155964
705.393	0.0156506
705.471	0.0156448
705.549	0.0157897
705.628	0.0157156
705.706	0.0157355
705.784	0.0158262
705.862	0.0158996
705.940	0.0157410
706.018	0.0157162
706.096	0.0158014
706.174	0.0157681
706.253	0.0156956
706.331	0.0154495
706.409	0.0154969
706.487	0.0153900
706.565	0.0154687
706.643	0.0152224
706.721	0.0152003
706.799	0.0153188
706.878	0.0154227
706.956	0.0155714
707.034	0.0157299
707.112	0.0159023
707.190	0.0159569
707.268	0.0159815
707.346	0.0160777
707.424	0.0162509
707.503	0.0160305
707.581	0.0159282
707.659	0.0160030
707.737	0.0158115
707.815	0.0155908
707.893	0.0155838
707.971	0.0154903
708.049	0.0153242
708.128	0.0152870
708.206	0.0152249
708.284	0.0151802
708.362	0.0153616
708.440	0.0155039
708.518	0.0156721
708.596	0.0156441
708.674	0.0157844
708.753	0.0159771
708.831	0.0162658
708.909	0.0161993
708.987	0.0162529
709.065	0.0163515
709.143	0.0161455
709.221	0.0161534
709.299	0.0158884
709.378	0.0158474
709.456	0.0157235
709.534	0.0155235
709.612	0.0154946
709.690	0.0154008
709.768	0.0152827
709.846	0.0151553
709.924	0.0152385
710.003	0.0154424
710.081	0.0153420
710.159	0.0154874
710.237	0.0156619
710.315	0.0158833
710.393	0.0158678
710.471	0.0160190
710.549	0.0162225
710.628	0.0163558
710.706	0.0162991
710.784	0.0162373
710.862	0.0161366
710.940	0.0160241
711.018	0.0159007
711.096	0.0158701
711.174	0.0157734
711.253	0.0155526
711.331	0.0156421
711.409	0.0152425
711.487	0.0152386
711.565	0.0153339
711.643	0.0152893
711.721	0.0154734
711.799	0.0155164
711.878	0.0156155
711.956	0.0155882
712.034	0.0156397
712.112	0.0158719
712.190	0.0159333
712.268	0.0157919
712.346	0.0159119
712.424	0.0157096
712.503	0.0158152
712.581	0.0160449
712.659	0.0159151
712.737	0.0159599
712.815	0.0160196
712.893	0.0160542
712.971	0.0159699
713.049	0.0159085
713.128	0.0158153
713.206	0.0155299
713.284	0.0156362
713.362	0.0155258
713.440	0.0155058
713.518	0.0154227
713.596	0.0154442
713.674	0.0153385
713.753	0.0152830
713.831	0.0155274
713.909	0.0157513
713.987	0.0158019
714.065	0.0159747
714.143	0.0160619
714.221	0.0162875
714.299	0.0162865
714.378	0.0163166
714.456	0.0163150
714.534	0.0159896
714.612	0.0161726
714.690	0.0159936
714.768	0.0158122
714.846	0.0156864
714.924	0.0156695
715.003	0.0154446
715.081	0.0153982
715.159	0.0152925
715.237	0.0152551
715.315	0.0151347
715.393	0.0152332
715.471	0.0152348
715.549	0.0152108
715.628	0.0153441
715.706	0.0155302
715.784	0.0155869
715.862	0.0157054
715.940	0.0156479
716.018	0.0156838
716.096	0.0158236
716.174	0.0158479
716.253	0.0159745
716.331	0.0160397
716.409	0.0159687
716.487	0.0159372
716.565	0.0159338
716.643	0.0160432
716.721	0.0158889
716.799	0.0158881
716.878	0.0157005
716.956	0.0158144
717.034	0.0156884
717.112	0.0158277
717.190	0.0156945
717.268	0.0157069
717.346	0.0156606
717.424	0.0156147
717.503	0.0159441
717.581	0.0157077
717.659	0.0157423
717.737	0.0158617
717.815	0.0157723
717.893	0.0157486
717.971	0.0156812
718.049	0.0158889
718.128	0.0158457
718.206	0.0158381
718.284	0.0158838
718.362	0.0157908
718.440	0.0156602
718.518	0.0156489
718.596	0.0156717
718.674	0.0154794
718.753	0.0153300
718.831	0.0153417
718.909	0.0151304
718.987	0.0150156
719.065	0.0148540
719.143	0.0149088
719.221	0.0148280
719.299	0.0147816
719.378	0.0149973
719.456	0.0152881
719.534	0.0154266
719.612	0.0156126
719.690	0.0158224
719.768	0.0162641
719.846	0.0164433
719.924	0.0165175
720.003	0.0168954
720.081	0.0168986
720.159	0.0170869
720.237	0.0167854
720.315	0.0165814
720.393	0.0164811
720.471	0.0162171
720.549	0.0160249
720.628	0.0157882
720.706	0.0153345
720.784	0.0150386
720.862	0.0149191
720.940	0.0148547
721.018	0.0148106
721.096	0.0146924
721.174	0.0147342
721.253	0.0147707
721.331	0.0150322
721.409	0.0151085
721.487	0.0153937
721.565	0.0155048
721.643	0.0157040
721.721	0.0157574
721.799	0.0159080
721.878	0.0160768
721.956	0.0161085
722.034	0.0162456
722.112	0.0162725
722.190	0.0162785
722.268	0.0165099
722.346	0.0163918
722.424	0.0164219
722.503	0.0164676
722.581	0.0167435
722.659	0.0166499
722.737	0.0166634
722.815	0.0165525
722.893	0.0166202
722.971	0.0166340
723.049	0.0163468
723.128	0.0159794
723.206	0.0158576
723.284	0.0154837
723.362	0.0152944
723.440	0.0149123
723.518	0.0147409
723.596	0.0144919
723.674	0.0142563
723.753	0.0140555
723.831	0.0139079
723.909	0.0138751
723.987	0.0140199
724.065	0.0140855
724.143	0.0143143
724.221	0.0145692
724.299	0.0146497
724.378	0.0150579
724.456	0.0153656
724.534	0.0156287
724.612	0.0158480
724.690	0.0161292
724.768	0.0161423
724.846	0.0163193
724.924	0.0164346
725.003	0.0164204
725.081	0.0163766
725.159	0.0164552
725.237	0.0163520
725.315	0.0164626
725.393	0.0164363
725.471	0.0165462
725.549	0.0164085
725.628	0.0164400
725.706	0.0164418
725.784	0.0164767
725.862	0.0164502
725.940	0.0165884
726.018	0.0164463
726.096	0.0166081
726.174	0.0165820
726.253	0.0162098
726.331	0.0164089
726.409	0.0162186
726.487	0.0162359
726.565	0.0159901
726.643	0.0161054
726.721	0.0160755
726.799	0.0160748
726.878	0.0162495
726.956	0.0163019
727.034	0.0163834
727.112	0.0164115
727.190	0.0161998
727.268	0.0161716
727.346	0.0160730
727.424	0.0159180
727.503	0.0157349
727.581	0.0155239
727.659	0.0151169
727.737	0.0147607
727.815	0.0146212
727.893	0.0144040
727.971	0.0141618
728.049	0.0139335
728.128	0.0138245
728.206	0.0137659
728.284	0.0137149
728.362	0.0137548
728.440	0.0136818
728.518	0.0137146
728.596	0.0136547
728.674	0.0137756
728.753	0.0137196
728.831	0.0137682
728.909	0.0140415
728.987	0.0142225
729.065	0.0144453
729.143	0.0147350
729.221	0.0150233
729.299	0.0154369
729.378	0.0159275
729.456	0.0163425
729.534	0.0165461
729.612	0.0170510
729.690	0.0175814
729.768	0.0179272
729.846	0.0183018
729.924	0.0184560
730.003	0.0187677
730.081	0.0188316
730.159	0.0189235
730.237	0.0188164
730.315	0.0186088
730.393	0.0182814
730.471	0.0178118
730.549	0.0174839
730.628	0.0170166
730.706	0.0167570
730.784	0.0164725
730.862	0.0162310
730.940	0.0157605
731.018	0.0156884
731.096	0.0154504
731.174	0.0153532
731.253	0.0153659
731.331	0.0154353
731.409	0.0153478
731.487	0.0154707
731.565	0.0155485
731.643	0.0156341
731.721	0.0156490
731.799	0.0156516
731.878	0.0155852
731.956	0.0155923
732.034	0.0154816
732.112	0.0152300
732.190	0.0150882
732.268	0.0147771
732.346	0.0144363
732.424	0.0141471
732.503	0.0136774
732.581	0.0132601
732.659	0.0128096
732.737	0.0126476
732.815	0.0122716
732.893	0.0121797
732.971	0.0120792
733.049	0.0121956
733.128	0.0124677
733.206	0.0127061
733.284	0.0131054
733.362	0.0136162
733.440	0.0143127
733.518	0.0148855
733.596	0.0152917
733.674	0.0158913
733.753	0.0166080
733.831	0.0171579
733.909	0.0175593
733.987	0.0181107
734.065	0.0185303
734.143	0.0188844
734.221	0.0191537
734.299	0.0192424
734.378	0.0191953
734.456	0.0193104
734.534	0.0190525
734.612	0.0189558
734.690	0.0186491
734.768	0.0183180
734.846	0.0180020
734.924	0.0176212
735.003	0.0172386
735.081	0.0169086
735.159	0.0165382
735.237	0.0164679
735.315	0.0162283
735.393	0.0159092
735.471	0.0159052
735.549	0.0158454
735.628	0.0158221
735.706	0.0159940
735.784	0.0160820
735.862	0.0160172
735.940	0.0161257
736.018	0.0160229
736.096	0.0159451
736.174	0.0158683
736.253	0.0157085
736.331	0.0154428
736.409	0.0154205
736.487	0.0149607
736.565	0.0145423
736.643	0.0142062
736.721	0.0140254
736.799	0.0135265
736.878	0.0133794
736.956	0.0129855
737.034	0.0127869
737.112	0.0123991
737.190	0.0121514
737.268	0.0120073
737.346	0.0120497
737.424	0.0121534
737.503	0.0122904
737.581	0.0126383
737.659	0.0129093
737.737	0.0132860
737.815	0.0140546
737.893	0.0143922
737.971	0.0151517
738.049	0.0157960
738.128	0.0163171
738.206	0.0169548
738.284	0.0174228
738.362	0.0179521
738.440	0.0182258
738.518	0.0186875
738.596	0.0187055
738.674	0.0188531
738.753	0.0189792
738.831	0.0187824
738.909	0.0187466
738.987	0.0184251
739.065	0.0181258
739.143	0.0177771
739.221	0.0175401
739.299	0.0170792
739.378	0.0167869
739.456	0.0164439
739.534	0.0165376
739.612	0.0163417
739.690	0.0161491
739.768	0.0162968
739.846	0.0162352
739.924	0.0162495
740.003	0.0163680
740.081	0.0163152
740.159	0.0163821
740.237	0.0162315
740.315	0.0163399
740.393	0.0162430
740.471	0.0161517
740.549	0.0159743
740.628	0.0161279
740.706	0.0159762
740.784	0.0159056
740.862	0.0157008
740.940	0.0155031
741.018	0.0153114
741.096	0.0150495
741.174	0.0147059
741.253	0.0145478
741.331	0.0141191
741.409	0.0137640
741.487	0.0135587
741.565	0.0133475
741.643	0.0130603
741.721	0.0129019
741.799	0.0126484
741.878	0.0124510
741.956	0.0125946
742.034	0.0126517
742.112	0.0129302
742.190	0.0131108
742.268	0.0134414
742.346	0.0139956
742.424	0.0144714
742.503	0.0148360
742.581	0.0153562
742.659	0.0158689
742.737	0.0163061
742.815	0.0167540
742.893	0.0171539
742.971	0.0174593
743.049	0.0180029
743.128	0.0180489
743.206	0.0182539
743.284	0.0185252
743.362	0.0184159
743.440	0.0184454
743.518	0.0182453
743.596	0.0181858
743.674	0.0179181
743.753	0.0175652
743.831	0.0171333
743.909	0.0167208
743.987	0.0163514
744.065	0.0160719
744.143	0.0157727
744.221	0.0155971
744.299	0.0155369
744.378	0.0152912
744.456	0.0153429
744.534	0.0154328
744.612	0.0154973
744.690	0.0158857
744.768	0.0159850
744.846	0.0160311
744.924	0.0161803
745.003	0.0164915
745.081	0.0166502
745.159	0.0166978
745.237	0.0166324
745.315	0.0167054
745.393	0.0166680
745.471	0.0167249
745.549	0.0166149
745.628	0.0164188
745.706	0.0161524
745.784	0.0160468
745.862	0.0157479
745.940	0.0155842
746.018	0.0152616
746.096	0.0148457
746.174	0.0145855
746.253	0.0142219
746.331	0.0140155
746.409	0.0136075
746.487	0.0135732
746.565	0.0132493
746.643	0.0131519
746.721	0.0130113
746.799	0.0131248
746.878	0.0130962
746.956	0.0134348
747.034	0.0136693
747.112	0.0138736
747.190	0.0143123
747.268	0.0147452
747.346	0.0150637
747.424	0.0154230
747.503	0.0159318
747.581	0.0162261
747.659	0.0165694
747.737	0.0168041
747.815	0.0170268
747.893	0.0172241
747.971	0.0173701
748.049	0.0174618
748.128	0.0175179
748.206	0.0175797
748.284	0.0174574
748.362	0.0174680
748.440	0.0174826
748.518	0.0172912
748.596	0.0171422
748.674	0.0170316
748.753	0.0169151
748.831	0.0167304
748.909	0.0165841
748.987	0.0163605
749.065	0.0162254
749.143	0.0162686
749.221	0.0162201
749.299	0.0160728
749.378	0.0161768
749.456	0.0159349
749.534	0.0159860
749.612	0.0159798
749.690	0.0158331
749.768	0.0156811
749.846	0.0155314
749.924	0.0156123
750.003	0.0155939
750.081	0.0155430
750.159	0.0154414
750.237	0.0153863
750.315	0.0154206
750.393	0.0153616
750.471	0.0153699
750.549	0.0155100
750.628	0.0154087
750.706	0.0153156
750.784	0.0151391
750.862	0.0150996
750.940	0.0150234
751.018	0.0147768
751.096	0.0147564
751.174	0.0147178
751.253	0.0144258
751.331	0.0145538
751.409	0.0142923
751.487	0.0142672
751.565	0.0143017
751.643	0.0143829
751.721	0.0143590
751.799	0.0144932
751.878	0.0144955
751.956	0.0147298
752.034	0.0150726
752.112	0.0152953
752.190	0.0154394
752.268	0.0156551
752.346	0.0160080
752.424	0.0163492
752.503	0.0163895
752.581	0.0165073
752.659	0.0168445
752.737	0.0169516
752.815	0.0169060
752.893	0.0168611
752.971	0.0170607
753.049	0.0168414
753.128	0.0165844
753.206	0.0166288
753.284	0.0164601
753.362	0.0163135
753.440	0.0161674
753.518	0.0161233
753.596	0.0160314
753.674	0.0160732
753.753	0.0160513
753.831	0.0161781
753.909	0.0162424
753.987	0.0161687
754.065	0.0160209
754.143	0.0160974
754.221	0.0162805
754.299	0.0160864
754.378	0.0161571
754.456	0.0162537
754.534	0.0162507
754.612	0.0163673
754.690	0.0162766
754.768	0.0161781
754.846	0.0160790
754.924	0.0159863
755.003	0.0158693
755.081	0.0158410
755.159	0.0154952
755.237	0.0153338
755.315	0.0151823
755.393	0.0150417
755.471	0.0150026
755.549	0.0149361
755.628	0.0147624
755.706	0.0146706
755.784	0.0147169
755.862	0.0146379
755.940	0.0148312
756.018	0.0148853
756.096	0.0150162
756.174	0.0149783
756.253	0.0150727
756.331	0.0150640
756.409	0.0152612
756.487	0.0152847
756.565	0.0154948
756.643	0.0155705
756.721	0.0154987
756.799	0.0156226
756.878	0.0155793
756.956	0.0157727
757.034	0.0156267
757.112	0.0156439
757.190	0.0158879
757.268	0.0157539
757.346	0.0156674
757.424	0.0156717
757.503	0.0156296
757.581	0.0155923
757.659	0.0154949
757.737	0.0156683
757.815	0.0155365
757.893	0.0155909
757.971	0.0155632
758.049	0.0157567
758.128	0.0156474
758.206	0.0157339
758.284	0.0157977
758.362	0.0159964
758.440	0.0161845
758.518	0.0161755
758.596	0.0162555
758.674	0.0164995
758.753	0.0165865
758.831	0.0164971
758.909	0.0165156
758.987	0.0166816
759.065	0.0165417
759.143	0.0165536
759.221	0.0165640
759.299	0.0165643
759.378	0.0165255
759.456	0.0164060
759.534	0.0163107
759.612	0.0162405
759.690	0.0161935
759.768	0.0161598
759.846	0.0160481
759.924	0.0159718
760.003	0.0158852
760.081	0.0158104
760.159	0.0156986
760.237	0.0154099
760.315	0.0153823
760.393	0.0149852
760.471	0.0149287
760.549	0.0148777
760.628	0.0147726
760.706	0.0145981
760.784	0.0146576
760.862	0.0144564
760.940	0.0146641
761.018	0.0147246
761.096	0.0146701
761.174	0.0148338
761.253	0.0149516
761.331	0.0151794
761.409	0.0153163
761.487	0.0153493
761.565	0.0155479
761.643	0.0157190
761.721	0.0156349
761.799	0.0156252
761.878	0.0158562
761.956	0.0159012
762.034	0.0158620
762.112	0.0156973
762.190	0.0158773
762.268	0.0157966
762.346	0.0156631
762.424	0.0157053
762.503	0.0155173
762.581	0.0154826
762.659	0.0155506
762.737	0.0155578
762.815	0.0154257
762.893	0.0155349
762.971	0.0156821
763.049	0.0157233
763.128	0.0158247
763.206	0.0158239
763.284	0.0160201
763.362	0.0161745
763.440	0.0161510
763.518	0.0161490
763.596	0.0162929
763.674	0.0160967
763.753	0.0161197
763.831	0.0160960
763.909	0.0159666
763.987	0.0159186
764.065	0.0159267
764.143	0.0158919
764.221	0.0157252
764.299	0.0157182
764.378	0.0157873
764.456	0.0157314
764.534	0.0156351
764.612	0.0156635
764.690	0.0157208
764.768	0.0159005
764.846	0.0159065
764.924	0.0158712
765.003	0.0158646
765.081	0.0158478
765.159	0.0159232
765.237	0.0159768
765.315	0.0159412
765.393	0.0158131
765.471	0.0160488
765.549	0.0159556
765.628	0.0159481
765.706	0.0156608
765.784	0.0156599
765.862	0.0155127
765.940	0.0156796
766.018	0.0154074
766.096	0.0153041
766.174	0.0153307
766.253	0.0154263
766.331	0.0154160
766.409	0.0152801
766.487	0.0151385
766.565	0.0153465
766.643	0.0154164
766.721	0.0153895
766.799	0.0154461
766.878	0.0155985
766.956	0.0154937
767.034	0.0156696
767.112	0.0156477
767.190	0.0157549
767.268	0.0157451
767.346	0.0157753
767.424	0.0158640
767.503	0.0158083
767.581	0.0157965
767.659	0.0156550
767.737	0.0155617
767.815	0.0157371
767.893	0.0157128
767.971	0.0156104
768.049	0.0156751
768.128	0.0156746
768.206	0.0156093
768.284	0.0156415
768.362	0.0154901
768.440	0.0155236
768.518	0.0156305
768.596	0.0156834
768.674	0.0156094
768.753	0.0156491
768.831	0.0157192
768.909	0.0156514
768.987	0.0157905
769.065	0.0158236
769.143	0.0157803
769.221	0.0158570
769.299	0.0157868
769.378	0.0157404
769.456	0.0155862
769.534	0.0156024
769.612	0.0154797
769.690	0.0154095
769.768	0.0154081
769.846	0.0151679
769.924	0.0151728
770.003	0.0150826
770.081	0.0152669
770.159	0.0152103
770.237	0.0152989
770.315	0.0153802
770.393	0.0153580
770.471	0.0154749
770.549	0.0157936
770.628	0.0157966
770.706	0.0159550
770.784	0.0160634
770.862	0.0160777
770.940	0.0162874
771.018	0.0165556
771.096	0.0166428
771.174	0.0166281
771.253	0.0165622
771.331	0.0165417
771.409	0.0166169
771.487	0.0165137
771.565	0.0164590
771.643	0.0161979
771.721	0.0161357
771.799	0.0161197
771.878	0.0160308
771.956	0.0159615
772.034	0.0158218
772.112	0.0156340
772.190	0.0156465
772.268	0.0156522
772.346	0.0153766
772.424	0.0153031
772.503	0.0152713
772.581	0.0152579
772.659	0.0151297
772.737	0.0150888
772.815	0.0151591
772.893	0.0149809
772.971	0.0151675
773.049	0.0151063
773.128	0.0150497
773.206	0.0150860
773.284	0.0151738
773.362	0.0151752
773.440	0.0153081
773.518	0.0153878
773.596	0.0153837
773.674	0.0154949
773.753	0.0154799
773.831	0.0155740
773.909	0.0156459
773.987	0.0156626
774.065	0.0157097
774.143	0.0158717
774.221	0.0159477
774.299	0.0159963
774.378	0.0157943
774.456	0.0159455
774.534	0.0160101
774.612	0.0159137
774.690	0.0159980
774.768	0.0158559
774.846	0.0158995
774.924	0.0159486
775.003	0.0160259
775.081	0.0159370
775.159	0.0158177
775.237	0.0158455
775.315	0.0157915
775.393	0.0156341
775.471	0.0156255
775.549	0.0157639
775.628	0.0154612
775.706	0.0155051
775.784	0.0155769
775.862	0.0155848
775.940	0.0156809
776.018	0.0157046
776.096	0.0157336
776.174	0.0158784
776.253	0.0159106
776.331	0.0160045
776.409	0.0160338
776.487	0.0159936
776.565	0.0161078
776.643	0.0161697
776.721	0.0161365
776.799	0.0160239
776.878	0.0158999
776.956	0.0156937
777.034	0.0157222
777.112	0.0156821
777.190	0.0157782
777.268	0.0156897
777.346	0.0154717
777.424	0.0154641
777.503	0.0155739
777.581	0.0154603
777.659	0.0154643
777.737	0.0153654
777.815	0.0154273
777.893	0.0155252
777.971	0.0154121
778.049	0.0154288
778.128	0.0157200
778.206	0.0156079
778.284	0.0155395
778.362	0.0155847
778.440	0.0156486
778.518	0.0156705
778.596	0.0156594
778.674	0.0156444
778.753	0.0156085
778.831	0.0155649
778.909	0.0154572
778.987	0.0154957
779.065	0.0154942
779.143	0.0154633
779.221	0.0155628
779.299	0.0155901
779.378	0.0156422
779.456	0.0157379
779.534	0.0157206
779.612	0.0157538
779.690	0.0159187
779.768	0.0159507
779.846	0.0162313
779.924	0.0161649
780.003	0.0159699
780.081	0.0159947
780.159	0.0160600
780.237	0.0158592
780.315	0.0160300
780.393	0.0158884
780.471	0.0159554
780.549	0.0158717
780.628	0.0157561
780.706	0.0155882
780.784	0.0156225
780.862	0.0156461
780.940	0.0155403
781.018	0.0155422
781.096	0.0153678
781.174	0.0154949
781.253	0.0154015
781.331	0.0153716
781.409	0.0155040
781.487	0.0153133
781.565	0.0154080
781.643	0.0153702
781.721	0.0155062
781.799	0.0154220
781.878	0.0155556
781.956	0.0154594
782.034	0.0154643
782.112	0.0156557
782.190	0.0155943
782.268	0.0156024
782.346	0.0156532
782.424	0.0156823
782.503	0.0156316
782.581	0.0157207
782.659	0.0157446
782.737	0.0157985
782.815	0.0157623
782.893	0.0158466
782.971	0.0159526
783.049	0.0159167
783.128	0.0160222
783.206	0.0160262
783.284	0.0159537
783.362	0.0161518
783.440	0.0159441
783.518	0.0158609
783.596	0.0159444
783.674	0.0159813
783.753	0.0160082
783.831	0.0159738
783.909	0.0160493
783.987	0.0158618
784.065	0.0160243
784.143	0.0161347
784.221	0.0160672
784.299	0.0159571
784.378	0.0158239
784.456	0.0158254
784.534	0.0157539
784.612	0.0155906
784.690	0.0154448
784.768	0.0154609
784.846	0.0151838
784.924	0.0153221
785.003	0.0150667
785.081	0.0150207
785.159	0.0149481
785.237	0.0150471
785.315	0.0150173
785.393	0.0149903
785.471	0.0150957
785.549	0.0152516
785.628	0.0151446
785.706	0.0152242
785.784	0.0154428
785.862	0.0154024
785.940	0.0154714
786.018	0.0154247
786.096	0.0156380
786.174	0.0156857
786.253	0.0156055
786.331	0.0157838
786.409	0.0157443
786.487	0.0157177
786.565	0.0158134
786.643	0.0157801
786.721	0.0156792
786.799	0.0157218
786.878	0.0157572
786.956	0.0157568
787.034	0.0158156
787.112	0.0159264
787.190	0.0158307
787.268	0.0158494
787.346	0.0158687
787.424	0.0159118
787.503	0.0158876
787.581	0.0159892
787.659	0.0160049
787.737	0.0158679
787.815	0.0159123
787.893	0.0158424
787.971	0.0158681
788.049	0.0158124
788.128	0.0157561
788.206	0.0157557
788.284	0.0156905
788.362	0.0157774
788.440	0.0156236
788.518	0.0156042
788.596	0.0156161
788.674	0.0156098
788.753	0.0156709
788.831	0.0156833
788.909	0.0156239
788.987	0.0156239
789.065	0.0154994
789.143	0.0156374
789.221	0.0157024
789.299	0.0157677
789.378	0.0155934
789.456	0.0156425
789.534	0.0158141
789.612	0.0156844
789.690	0.0156319
789.768	0.0156931
789.846	0.0157074
789.924	0.0154993
790.003	0.0156372
790.081	0.0155328
790.159	0.0156441
790.237	0.0157527
790.315	0.0156629
790.393	0.0155541
790.471	0.0155844
790.549	0.0156148
790.628	0.0154498
790.706	0.0154945
790.784	0.0155610
790.862	0.0154819
790.940	0.0154202
791.018	0.0153737
791.096	0.0154497
791.174	0.0154813
791.253	0.0154760
791.331	0.0156020
791.409	0.0156139
791.487	0.0155697
791.565	0.0157605
791.643	0.0158026
791.721	0.0158412
791.799	0.0159033
791.878	0.0160236
791.956	0.0159033
792.034	0.0160387
792.112	0.0159073
792.190	0.0159572
792.268	0.0161082
792.346	0.0159254
792.424	0.0158765
792.503	0.0157631
792.581	0.0158282
792.659	0.0158465
792.737	0.0157149
792.815	0.0155920
792.893	0.0155853
792.971	0.0156184
793.049	0.0156081
793.128	0.0153876
793.206	0.0154571
793.284	0.0155037
793.362	0.0155260
793.440	0.0154402
793.518	0.0155273
793.596	0.0154157
793.674	0.0155784
793.753	0.0155581
793.831	0.0155341
793.909	0.0155032
793.987	0.0156144
794.065	0.0155898
794.143	0.0156429
794.221	0.0157082
794.299	0.0157189
794.378	0.0156109
794.456	0.0157809
794.534	0.0158655
794.612	0.0159596
794.690	0.0158015
794.768	0.0159707
794.846	0.0159525
794.924	0.0159001
795.003	0.0159896
795.081	0.0159759
795.159	0.0159755
795.237	0.0159400
795.315	0.0159949
795.393	0.0158167
795.471	0.0158647
795.549	0.0159727
795.628	0.0157956
795.706	0.0157686
795.784	0.0160198
795.862	0.0158410
795.940	0.0159898
796.018	0.0158038
796.096	0.0158447
796.174	0.0158323
796.253	0.0158735
796.331	0.0158677
796.409	0.0158134
796.487	0.0158205
796.565	0.0159074
796.643	0.0158347
796.721	0.0156558
796.799	0.0156593
796.878	0.0155249
796.956	0.0155193
797.034	0.0154474
797.112	0.0154388
797.190	0.0153356
797.268	0.0151776
797.346	0.0152668
797.424	0.0153341
797.503	0.0151981
797.581	0.0150653
797.659	0.0151299
797.737	0.0152111
797.815	0.0151276
797.893	0.0154171
797.971	0.0155034
798.049	0.0155482
798.128	0.0156507
798.206	0.0156779
798.284	0.0156759
798.362	0.0159508
798.440	0.0160078
798.518	0.0161031
798.596	0.0160000
798.674	0.0160754
798.753	0.0161240
798.831	0.0159956
798.909	0.0159847
798.987	0.0158179
799.065	0.0159252
799.143	0.0158704
799.221	0.0157491
799.299	0.0157430
799.378	0.0156541
799.456	0.0156152
799.534	0.0157040
799.612	0.0155859
799.690	0.0155500
799.768	0.0155737
799.846	0.0156909
799.924	0.0156444
800.003	0.0156187
800.081	0.0155963
800.159	0.0156200
800.237	0.0156804
800.315	0.0157001
800.393	0.0156647
800.471	0.0157697
800.549	0.0158218
800.628	0.0157927
800.706	0.0158599
800.784	0.0158910
800.862	0.0157677
800.940	0.0157552
801.018	0.0158511
801.096	0.0158108
801.174	0.0158110
801.253	0.0157133
801.331	0.0156796
801.409	0.0157073
801.487	0.0157403
801.565	0.0155989
801.643	0.0153913
801.721	0.0156287
801.799	0.0155676
801.878	0.0154650
801.956	0.0155622
802.034	0.0155440
802.112	0.0155196
802.190	0.0154799
802.268	0.0154950
802.346	0.0154072
802.424	0.0154910
802.503	0.0155014
802.581	0.0155986
802.659	0.0157828
802.737	0.0158055
802.815	0.0157015
802.893	0.0157317
802.971	0.0158073
803.049	0.0157706
803.128	0.0158576
803.206	0.0158127
803.284	0.0157471
803.362	0.0158006
803.440	0.0158863
803.518	0.0157462
803.596	0.0157681
803.674	0.0156462
803.753	0.0156502
803.831	0.0157256
803.909	0.0155810
803.987	0.0155917
804.065	0.0157797
804.143	0.0157051
804.221	0.0156317
804.299	0.0155741
804.378	0.0158707
804.456	0.0158786
804.534	0.0158093
804.612	0.0157510
804.690	0.0157042
804.768	0.0158295
804.846	0.0158659
804.924	0.0158936
805.003	0.0158393
805.081	0.0158273
805.159	0.0156477
805.237	0.0157452
805.315	0.0156644
805.393	0.0156464
805.471	0.0157285
805.549	0.0157114
805.628	0.0157585
805.706	0.0156225
805.784	0.0155194
805.862	0.0157066
805.940	0.0155771
806.018	0.0157822
806.096	0.0155651
806.174	0.0156179
806.253	0.0155893
806.331	0.0156707
806.409	0.0155991
806.487	0.0155659
806.565	0.0156683
806.643	0.0156514
806.721	0.0156204
806.799	0.0156854
806.878	0.0156121
806.956	0.0155254
807.034	0.0157884
807.112	0.0158468
807.190	0.0156266
807.268	0.0156266
807.346	0.0157628
807.424	0.0158445
807.503	0.0159190
807.581	0.0157171
807.659	0.0158370
807.737	0.0158786
807.815	0.0158012
807.893	0.0158916
807.971	0.0159142
808.049	0.0158925
808.128	0.0159337
808.206	0.0158688
808.284	0.0158411
808.362	0.0156699
808.440	0.0156899
808.518	0.0157942
808.596	0.0156369
808.674	0.0157134
808.753	0.0157144
808.831	0.0156354
808.909	0.0157314
808.987	0.0155674
809.065	0.0157104
809.143	0.0155800
809.221	0.0156099
809.299	0.0154813
809.378	0.0156355
809.456	0.0155292
809.534	0.0154772
809.612	0.0156329
809.690	0.0156575
809.768	0.0156136
809.846	0.0155052
809.924	0.0155538
810.003	0.0156460
810.081	0.0156432
810.159	0.0155314
810.237	0.0155144
810.315	0.0155788
810.393	0.0156205
810.471	0.0155078
810.549	0.0156612
810.628	0.0155789
810.706	0.0154338
810.784	0.0154619
810.862	0.0156728
810.940	0.0156198
811.018	0.0157113
811.096	0.0156219
811.174	0.0157874
811.253	0.0157780
811.331	0.0158150
811.409	0.0159306
811.487	0.0157809
811.565	0.0157922
811.643	0.0158734
811.721	0.0158273
811.799	0.0159907
811.878	0.0158983
811.956	0.0158895
812.034	0.0159579
812.112	0.0158015
812.190	0.0158394
812.268	0.0158577
812.346	0.0158880
812.424	0.0156046
812.503	0.0156727
812.581	0.0156894
812.659	0.0155674
812.737	0.0155827
812.815	0.0155942
812.893	0.0154935
812.971	0.0155543
813.049	0.0154533
813.128	0.0155318
813.206	0.0154506
813.284	0.0154997
813.362	0.0156532
813.440	0.0154946
813.518	0.0155811
813.596	0.0155724
813.674	0.0156335
813.753	0.0157790
813.831	0.0157246
813.909	0.0158125
813.987	0.0158279
814.065	0.0158243
814.143	0.0158191
814.221	0.0159459
814.299	0.0158560
814.378	0.0157561
814.456	0.0157254
814.534	0.0157935
814.612	0.0158023
814.690	0.0154687
814.768	0.0156021
814.846	0.0156282
814.924	0.0156931
815.003	0.0156556
815.081	0.0156544
815.159	0.0154660
815.237	0.0155256
815.315	0.0155495
815.393	0.0156419
815.471	0.0155760
815.549	0.0156039
815.628	0.0156001
815.706	0.0156172
815.784	0.0155771
815.862	0.0155128
815.940	0.0156684
816.018	0.0156697
816.096	0.0155964
816.174	0.0156758
816.253	0.0155941
816.331	0.0155972
816.409	0.0154914
816.487	0.0156365
816.565	0.0155919
816.643	0.0155141
816.721	0.0156248
816.799	0.0156936
816.878	0.0155190
816.956	0.0155656
817.034	0.0154469
817.112	0.0155080
817.190	0.0155155
817.268	0.0156531
817.346	0.0156248
817.424	0.0155701
817.503	0.0156332
817.581	0.0157924
817.659	0.0156340
817.737	0.0157511
817.815	0.0157670
817.893	0.0158168
817.971	0.0158887
818.049	0.0158630
818.128	0.0158192
818.206	0.0158911
818.284	0.0158142
818.362	0.0159235
818.440	0.0160728
818.518	0.0159005
818.596	0.0160133
818.674	0.0160545
818.753	0.0160366
818.831	0.0158861
818.909	0.0158907
818.987	0.0160767
819.065	0.0159544
819.143	0.0159161
819.221	0.0158327
819.299	0.0159157
819.378	0.0158866
819.456	0.0158142
819.534	0.0156729
819.612	0.0156638
819.690	0.0155611
819.768	0.0155244
819.846	0.0156232
819.924	0.0155432
820.003	0.0153596
820.081	0.0153828
820.159	0.0154287
820.237	0.0155323
820.315	0.0152779
820.393	0.0151306
820.471	0.0152081
820.549	0.0152554
820.628	0.0152044
820.706	0.0152293
820.784	0.0153995
820.862	0.0153074
820.940	0.0152132
821.018	0.0151651
821.096	0.0152634
821.174	0.0154189
821.253	0.0155508
821.331	0.0154303
821.409	0.0155582
821.487	0.0157057
821.565	0.0155231
821.643	0.0156504
821.721	0.0158607
821.799	0.0159621
821.878	0.0159856
821.956	0.0158298
822.034	0.0160131
822.112	0.0160725
822.190	0.0159944
822.268	0.0162163
822.346	0.0162326
822.424	0.0162061
822.503	0.0162058
822.581	0.0163022
822.659	0.0161510
822.737	0.0161873
822.815	0.0162189
822.893	0.0161472
822.971	0.0162347
823.049	0.0160711
823.128	0.0161951
823.206	0.0160284
823.284	0.0161311
823.362	0.0159890
823.440	0.0158554
823.518	0.0157901
823.596	0.0158660
823.674	0.0159050
823.753	0.0157501
823.831	0.0156966
823.909	0.0156579
823.987	0.0157079
824.065	0.0156164
824.143	0.0153937
824.221	0.0154130
824.299	0.0153337
824.378	0.0153677
824.456	0.0153173
824.534	0.0154426
824.612	0.0152788
824.690	0.0152179
824.768	0.0151787
824.846	0.0153031
824.924	0.0154372
825.003	0.0153078
825.081	0.0151687
825.159	0.0152935
825.237	0.0152451
825.315	0.0152211
825.393	0.0151845
825.471	0.0152686
825.549	0.0153046
825.628	0.0153407
825.706	0.0154740
825.784	0.0155246
825.862	0.0156716
825.940	0.0156955
826.018	0.0156177
826.096	0.0156516
826.174	0.0158480
826.253	0.0158916
826.331	0.0162037
826.409	0.0162532
826.487	0.0160966
826.565	0.0161263
826.643	0.0163671
826.721	0.0163438
826.799	0.0163782
826.878	0.0162945
826.956	0.0163884
827.034	0.0164004
827.112	0.0162923
827.190	0.0162485
827.268	0.0163509
827.346	0.0162153
827.424	0.0162354
827.503	0.0160519
827.581	0.0159997
827.659	0.0158440
827.737	0.0157156
827.815	0.0158331
827.893	0.0158222
827.971	0.0158121
828.049	0.0156824
828.128	0.0156004
828.206	0.0155999
828.284	0.0155763
828.362	0.0154896
828.440	0.0154853
828.518	0.0153668
828.596	0.0155558
828.674	0.0154105
828.753	0.0153143
828.831	0.0154331
828.909	0.0152419
828.987	0.0151691
829.065	0.0152815
829.143	0.0152265
829.221	0.0150636
829.299	0.0151492
829.378	0.0151517
829.456	0.0150490
829.534	0.0149996
829.612	0.0150150
829.690	0.0152986
829.768	0.0151649
829.846	0.0152113
829.924	0.0152206
830.003	0.0152806
830.081	0.0154670
830.159	0.0154830
830.237	0.0154906
830.315	0.0156586
830.393	0.0157754
830.471	0.0157887
830.549	0.0160429
830.628	0.0162000
830.706	0.0161121
830.784	0.0161905
830.862	0.0162327
830.940	0.0162083
831.018	0.0162036
831.096	0.0164117
831.174	0.0164515
831.253	0.0163439
831.331	0.0163516
831.409	0.0163960
831.487	0.0164972
831.565	0.0163522
831.643	0.0160704
831.721	0.0162178
831.799	0.0161777
831.878	0.0160416
831.956	0.0159849
832.034	0.0160023
832.112	0.0158863
832.190	0.0158306
832.268	0.0157300
832.346	0.0156264
832.424	0.0156788
832.503	0.0156568
832.581	0.0156206
832.659	0.0154865
832.737	0.0154436
832.815	0.0152983
832.893	0.0152827
832.971	0.0153243
833.049	0.0154404
833.128	0.0153814
833.206	0.0153967
833.284	0.0153184
833.362	0.0153492
833.440	0.0153043
833.518	0.0152952
833.596	0.0152488
833.674	0.0152490
833.753	0.0152528
833.831	0.0151736
833.909	0.0151300
833.987	0.0152999
834.065	0.0152155
834.143	0.0152110
834.221	0.0151891
834.299	0.0153366
834.378	0.0152876
834.456	0.0152515
834.534	0.0153886
834.612	0.0155753
834.690	0.0155216
834.768	0.0155885
834.846	0.0157584
834.924	0.0158646
835.003	0.0159192
835.081	0.0160175
835.159	0.0162795
835.237	0.0163056
835.315	0.0163352
835.393	0.0163118
835.471	0.0163322
835.549	0.0162051
835.628	0.0164552
835.706	0.0162987
835.784	0.0163203
835.862	0.0163187
835.940	0.0160706
836.018	0.0161704
836.096	0.0161739
836.174	0.0160406
836.253	0.0159785
836.331	0.0160470
836.409	0.0159116
836.487	0.0157555
836.565	0.0155845
836.643	0.0157764
836.721	0.0156815
836.799	0.0156028
836.878	0.0155560
836.956	0.0156189
837.034	0.0156261
837.112	0.0155615
837.190	0.0155234
837.268	0.0155852
837.346	0.0155430
837.424	0.0155132
837.503	0.0154826
837.581	0.0155675
837.659	0.0154475
837.737	0.0155110
837.815	0.0153878
837.893	0.0153544
837.971	0.0153770
838.049	0.0154671
838.128	0.0154636
838.206	0.0153124
838.284	0.0152422
838.362	0.0153313
838.440	0.0151903
838.518	0.0153782
838.596	0.0153292
838.674	0.0152770
838.753	0.0154438
838.831	0.0153531
838.909	0.0154639
838.987	0.0154857
839.065	0.0155753
839.143	0.0155385
839.221	0.0155082
839.299	0.0156916
839.378	0.0158615
839.456	0.0157740
839.534	0.0158038
839.612	0.0157993
839.690	0.0159384
839.768	0.0159277
839.846	0.0158870
839.924	0.0159099
840.003	0.0159675
840.081	0.0159699
840.159	0.0159285
840.237	0.0158074
840.315	0.0158926
840.393	0.0159282
840.471	0.0158238
840.549	0.0158379
840.628	0.0158518
840.706	0.0159661
840.784	0.0159132
840.862	0.0160195
840.940	0.0159216
841.018	0.0157260
841.096	0.0158554
841.174	0.0160107
841.253	0.0158939
841.331	0.0158069
841.409	0.0158440
841.487	0.0157681
841.565	0.0159373
841.643	0.0158700
841.721	0.0157031
841.799	0.0157456
841.878	0.0159334
841.956	0.0158395
842.034	0.0157938
842.112	0.0156100
842.190	0.0156645
842.268	0.0157841
842.346	0.0156422
842.424	0.0156830
842.503	0.0156316
842.581	0.0155778
842.659	0.0153924
842.737	0.0154325
842.815	0.0153168
842.893	0.0151789
842.971	0.0153857
843.049	0.0152701
843.128	0.0151493
843.206	0.0152457
843.284	0.0152541
843.362	0.0152491
843.440	0.0152647
843.518	0.0153146
843.596	0.0153009
843.674	0.0154311
843.753	0.0154582
843.831	0.0154421
843.909	0.0153690
843.987	0.0155813
844.065	0.0156017
844.143	0.0156457
844.221	0.0157038
844.299	0.0158408
844.378	0.0157321
844.456	0.0157045
844.534	0.0158701
844.612	0.0159721
844.690	0.0158868
844.768	0.0158071
844.846	0.0158101
844.924	0.0158311
845.003	0.0158287
845.081	0.0157932
845.159	0.0158224
845.237	0.0158494
845.315	0.0158089
845.393	0.0159097
845.471	0.0160040
845.549	0.0159711
845.628	0.0158653
845.706	0.0160088
845.784	0.0160931
845.862	0.0159467
845.940	0.0160853
846.018	0.0160766
846.096	0.0159081
846.174	0.0160424
846.253	0.0160818
846.331	0.0159616
846.409	0.0159147
846.487	0.0158082
846.565	0.0158143
846.643	0.0158559
846.721	0.0158878
846.799	0.0156474
846.878	0.0157488
846.956	0.0156673
847.034	0.0155978
847.112	0.0154922
847.190	0.0155221
847.268	0.0154817
847.346	0.0154151
847.424	0.0153899
847.503	0.0154349
847.581	0.0153504
847.659	0.0152563
847.737	0.0153352
847.815	0.0154939
847.893	0.0153910
847.971	0.0153094
848.049	0.0153070
848.128	0.0152629
848.206	0.0153505
848.284	0.0153078
848.362	0.0154041
848.440	0.0154443
848.518	0.0154179
848.596	0.0154650
848.674	0.0154585
848.753	0.0155211
848.831	0.0156047
848.909	0.0155771
848.987	0.0157060
849.065	0.0159528
849.143	0.0157561
849.221	0.0158411
849.299	0.0158579
849.378	0.0158511
849.456	0.0158963
849.534	0.0157954
849.612	0.0159876
849.690	0.0159254
849.768	0.0159846
849.846	0.0158293
849.924	0.0157700
850.003	0.0160072
850.081	0.0159315
850.159	0.0159196
850.237	0.0158690
850.315	0.0159556
850.393	0.0159047
850.471	0.0158856
850.549	0.0159057
850.628	0.0160265
850.706	0.0159576
850.784	0.0158721
850.862	0.0158962
850.940	0.0159654
851.018	0.0159228
851.096	0.0158346
851.174	0.0159123
851.253	0.0158345
851.331	0.0159149
851.409	0.0157781
851.487	0.0157404
851.565	0.0156797
851.643	0.0156216
851.721	0.0156133
851.799	0.0155885
851.878	0.0155764
851.956	0.0156316
852.034	0.0156229
852.112	0.0155885
852.190	0.0155103
852.268	0.0154513
852.346	0.0154756
852.424	0.0154989
852.503	0.0155400
852.581	0.0155260
852.659	0.0154327
852.737	0.0155817
852.815	0.0154790
852.893	0.0154391
852.971	0.0154807
853.049	0.0155647
853.128	0.0154882
853.206	0.0154247
853.284	0.0157186
853.362	0.0155247
853.440	0.0155455
853.518	0.0155846
853.596	0.0155199
853.674	0.0155398
853.753	0.0156166
853.831	0.0156773
853.909	0.0154967
853.987	0.0155505
854.065	0.0155682
854.143	0.0156025
854.221	0.0155526
854.299	0.0156667
854.378	0.0155814
854.456	0.0156916
854.534	0.0155885
854.612	0.0156409
854.690	0.0157425
854.768	0.0158087
854.846	0.0157402
854.924	0.0159013
855.003	0.0157757
855.081	0.0158487
855.159	0.0158498
855.237	0.0158580
855.315	0.0158591
855.393	0.0159444
855.471	0.0159196
855.549	0.0159550
855.628	0.0158746
855.706	0.0159901
855.784	0.0159417
855.862	0.0159500
855.940	0.0159320
856.018	0.0158727
856.096	0.0157939
856.174	0.0159248
856.253	0.0157199
856.331	0.0157397
856.409	0.0158071
856.487	0.0157954
856.565	0.0157613
856.643	0.0156974
856.721	0.0158422
856.799	0.0154923
856.878	0.0157838
856.956	0.0157034
857.034	0.0156638
857.112	0.0156881
857.190	0.0156410
857.268	0.0157823
857.346	0.0156036
857.424	0.0156538
857.503	0.0155884
857.581	0.0156441
857.659	0.0157005
857.737	0.0155849
857.815	0.0155626
857.893	0.0154988
857.971	0.0155544
858.049	0.0156418
858.128	0.0155722
858.206	0.0154975
858.284	0.0155403
858.362	0.0155486
858.440	0.0155461
858.518	0.0155484
858.596	0.0155172
858.674	0.0155335
858.753	0.0155893
858.831	0.0155676
858.909	0.0154883
858.987	0.0157465
859.065	0.0158015
859.143	0.0157323
859.221	0.0157954
859.299	0.0156572
859.378	0.0157767
859.456	0.0159284
859.534	0.0157851
859.612	0.0157785
859.690	0.0157688
859.768	0.0159389
859.846	0.0157021
859.924	0.0157724
860.003	0.0157207
860.081	0.0157579
860.159	0.0157025
860.237	0.0156683
860.315	0.0156974
860.393	0.0155979
860.471	0.0156844
860.549	0.0155627
860.628	0.0156054
860.706	0.0156170
860.784	0.0156419
860.862	0.0155910
860.940	0.0156956
861.018	0.0157565
861.096	0.0157081
861.174	0.0156617
861.253	0.0155206
861.331	0.0157543
861.409	0.0157384
861.487	0.0156128
861.565	0.0157021
861.643	0.0157743
861.721	0.0159077
861.799	0.0158512
861.878	0.0158338
861.956	0.0158758
862.034	0.0158801
862.112	0.0157859
862.190	0.0158022
862.268	0.0158271
862.346	0.0159299
862.424	0.0158063
862.503	0.0155753
862.581	0.0156857
862.659	0.0158745
862.737	0.0156136
862.815	0.0157600
862.893	0.0157846
862.971	0.0155878
863.049	0.0156202
863.128	0.0156465
863.206	0.0157702
863.284	0.0157271
863.362	0.0155730
863.440	0.0156238
863.518	0.0157936
863.596	0.0157024
863.674	0.0157883
863.753	0.0156744
863.831	0.0157601
863.909	0.0156672
863.987	0.0156274
864.065	0.0157902
864.143	0.0157091
864.221	0.0157119
864.299	0.0155784
864.378	0.0156178
864.456	0.0157423
864.534	0.0156795
864.612	0.0155798
864.690	0.0156563
864.768	0.0156214
864.846	0.0155433
864.924	0.0156108
865.003	0.0154800
865.081	0.0154198
865.159	0.0153628
865.237	0.0153092
865.315	0.0154079
865.393	0.0153054
865.471	0.0152733
865.549	0.0153893
865.628	0.0155321
865.706	0.0155641
865.784	0.0155308
865.862	0.0155843
865.940	0.0155746
866.018	0.0155267
866.096	0.0156272
866.174	0.0157287
866.253	0.0155119
866.331	0.0155998
866.409	0.0155713
866.487	0.0156985
866.565	0.0156427
866.643	0.0157557
866.721	0.0158499
866.799	0.0158311
866.878	0.0157996
866.956	0.0157462
867.034	0.0157435
867.112	0.0157987
867.190	0.0157599
867.268	0.0157053
867.346	0.0157775
867.424	0.0157115
867.503	0.0157602
867.581	0.0158167
867.659	0.0157637
867.737	0.0157906
867.815	0.0158786
867.893	0.0158791
867.971	0.0157715
868.049	0.0158401
868.128	0.0159296
868.206	0.0158179
868.284	0.0156777
868.362	0.0158876
868.440	0.0158450
868.518	0.0156927
868.596	0.0158048
868.674	0.0158560
868.753	0.0157619
868.831	0.0158576
868.909	0.0158656
868.987	0.0156815
869.065	0.0157408
869.143	0.0156299
869.221	0.0155101
869.299	0.0155724
869.378	0.0154736
869.456	0.0155465
869.534	0.0154971
869.612	0.0153565
869.690	0.0155111
869.768	0.0155128
869.846	0.0155499
869.924	0.0153957
870.003	0.0155774
870.081	0.0155660
870.159	0.0153947
870.237	0.0154751
870.315	0.0154796
870.393	0.0155464
870.471	0.0155591
870.549	0.0154570
870.628	0.0157848
870.706	0.0156661
870.784	0.0155597
870.862	0.0155990
870.940	0.0156849
871.018	0.0158074
871.096	0.0156752
871.174	0.0157055
871.253	0.0156039
871.331	0.0156813
871.409	0.0156821
871.487	0.0157104
871.565	0.0157410
871.643	0.0158067
871.721	0.0156445
871.799	0.0157806
871.878	0.0156765
871.956	0.0157566
872.034	0.0157752
872.112	0.0157480
872.190	0.0156858
872.268	0.0158805
872.346	0.0158021
872.424	0.0157844
872.503	0.0157950
872.581	0.0157693
872.659	0.0157600
872.737	0.0158722
872.815	0.0158409
872.893	0.0159485
872.971	0.0159046
873.049	0.0158361
873.128	0.0159732
873.206	0.0158170
873.284	0.0158326
873.362	0.0157630
873.440	0.0157674
873.518	0.0158758
873.596	0.0157465
873.674	0.0157674
873.753	0.0157530
873.831	0.0160438
873.909	0.0158060
873.987	0.0156459
874.065	0.0157350
874.143	0.0156766
874.221	0.0156807
874.299	0.0155437
874.378	0.0156210
874.456	0.0156755
874.534	0.0157094
874.612	0.0156477
874.690	0.0154356
874.768	0.0156339
874.846	0.0155936
874.924	0.0156326
875.003	0.0156546
875.081	0.0155349
875.159	0.0156007
875.237	0.0155435
875.315	0.0157211
875.393	0.0157192
875.471	0.0157456
875.549	0.0155723
875.628	0.0157645
875.706	0.0156718
875.784	0.0157051
875.862	0.0156762
875.940	0.0157166
876.018	0.0156648
876.096	0.0156721
876.174	0.0157301
876.253	0.0156897
876.331	0.0156699
876.409	0.0157381
876.487	0.0157147
876.565	0.0156962
876.643	0.0156892
876.721	0.0156525
876.799	0.0156515
876.878	0.0157091
876.956	0.0157547
877.034	0.0158155
877.112	0.0157945
877.190	0.0157644
877.268	0.0157484
877.346	0.0157202
877.424	0.0159457
877.503	0.0159478
877.581	0.0159382
877.659	0.0158786
877.737	0.0159570
877.815	0.0157844
877.893	0.0158141
877.971	0.0158177
878.049	0.0159693
878.128	0.0157636
878.206	0.0158411
878.284	0.0157497
878.362	0.0156691
878.440	0.0156404
878.518	0.0155830
878.596	0.0156134
878.674	0.0156136
878.753	0.0155482
878.831	0.0155403
878.909	0.0154503
878.987	0.0156533
879.065	0.0155035
879.143	0.0155307
879.221	0.0156184
879.299	0.0156336
879.378	0.0156212
879.456	0.0156238
879.534	0.0156377
879.612	0.0154993
879.690	0.0157174
879.768	0.0156828
879.846	0.0157531
879.924	0.0158763
880.003	0.0157017
880.081	0.0157329
880.159	0.0156473
880.237	0.0157114
880.315	0.0157637
880.393	0.0157916
880.471	0.0157068
880.549	0.0157335
880.628	0.0157929
880.706	0.0155898
880.784	0.0157484
880.862	0.0158814
880.940	0.0156892
881.018	0.0157403
881.096	0.0158262
881.174	0.0157219
881.253	0.0157388
881.331	0.0156793
881.409	0.0158300
881.487	0.0157914
881.565	0.0158032
881.643	0.0156723
881.721	0.0157418
881.799	0.0158258
881.878	0.0157759
881.956	0.0158385
882.034	0.0157874
882.112	0.0158112
882.190	0.0157185
882.268	0.0158344
882.346	0.0157811
882.424	0.0158056
882.503	0.0159186
882.581	0.0158039
882.659	0.0158281
882.737	0.0157156
882.815	0.0158121
882.893	0.0158414
882.971	0.0158027
883.049	0.0159218
883.128	0.0157621
883.206	0.0155508
883.284	0.0157205
883.362	0.0156453
883.440	0.0156475
883.518	0.0155485
883.596	0.0157328
883.674	0.0155978
883.753	0.0155614
883.831	0.0157630
883.909	0.0157607
883.987	0.0156154
884.065	0.0156349
884.143	0.0155242
884.221	0.0155708
884.299	0.0157861
884.378	0.0157206
884.456	0.0157647
884.534	0.0155965
884.612	0.0157711
884.690	0.0157628
884.768	0.0157478
884.846	0.0156918
884.924	0.0157151
885.003	0.0156167
885.081	0.0156377
885.159	0.0157459
885.237	0.0157141
885.315	0.0156516
885.393	0.0156828
885.471	0.0157139
885.549	0.0156084
885.628	0.0155643
885.706	0.0156445
885.784	0.0156600
885.862	0.0156603
885.940	0.0158256
886.018	0.0156903
886.096	0.0156651
886.174	0.0157568
886.253	0.0157870
886.331	0.0157249
886.409	0.0158101
886.487	0.0157648
886.565	0.0157539
886.643	0.0157809
886.721	0.0158427
886.799	0.0157970
886.878	0.0159141
886.956	0.0159361
887.034	0.0157101
887.112	0.0158403
887.190	0.0158196
887.268	0.0155977
887.346	0.0155318
887.424	0.0156498
887.503	0.0156773
887.581	0.0155843
887.659	0.0155841
887.737	0.0156998
887.815	0.0156816
887.893	0.0155840
887.971	0.0155350
888.049	0.0157024
888.128	0.0156911
888.206	0.0157031
888.284	0.0157419
888.362	0.0156291
888.440	0.0156173
888.518	0.0157379
888.596	0.0158241
888.674	0.0157593
888.753	0.0155767
888.831	0.0157407
888.909	0.0155386
888.987	0.0157597
889.065	0.0158298
889.143	0.0157496
889.221	0.0157545
889.299	0.0157206
889.378	0.0156164
889.456	0.0157639
889.534	0.0157563
889.612	0.0156718
889.690	0.0154993
889.768	0.0156828
889.846	0.0157323
889.924	0.0157954
890.003	0.0157661
890.081	0.0156953
890.159	0.0157493
890.237	0.0157249
890.315	0.0156676
890.393	0.0157331
890.471	0.0158118
890.549	0.0157483
890.628	0.0156575
890.706	0.0156210
890.784	0.0157158
890.862	0.0158083
890.940	0.0156799
891.018	0.0156647
891.096	0.0156161
891.174	0.0157746
891.253	0.0157050
891.331	0.0157390
891.409	0.0156787
891.487	0.0154372
891.565	0.0156826
891.643	0.0158957
891.721	0.0157415
891.799	0.0156184
891.878	0.0156244
891.956	0.0157864
892.034	0.0156973
892.112	0.0156797
892.190	0.0155964
892.268	0.0156542
892.346	0.0157664
892.424	0.0158181
892.503	0.0158044
892.581	0.0155508
892.659	0.0157188
892.737	0.0157870
892.815	0.0156687
892.893	0.0156123
892.971	0.0155837
893.049	0.0156549
893.128	0.0157647
893.206	0.0156027
893.284	0.0157485
893.362	0.0157877
893.440	0.0157333
893.518	0.0157207
893.596	0.0156770
893.674	0.0157768
893.753	0.0156535
893.831	0.0157991
893.909	0.0156857
893.987	0.0156393
894.065	0.0156545
894.143	0.0156572
894.221	0.0156695
894.299	0.0156635
894.378	0.0157880
894.456	0.0157236
894.534	0.0156052
894.612	0.0155473
894.690	0.0156070
894.768	0.0156902
894.846	0.0157330
894.924	0.0156248
895.003	0.0156070
895.081	0.0157927
895.159	0.0157475
895.237	0.0157973
895.315	0.0156762
895.393	0.0156729
895.471	0.0156850
895.549	0.0157159
895.628	0.0157047
895.706	0.0156560
895.784	0.0156849
895.862	0.0155742
895.940	0.0156308
896.018	0.0156950
896.096	0.0156583
896.174	0.0156039
896.253	0.0158136
896.331	0.0156736
896.409	0.0157130
896.487	0.0157001
896.565	0.0157983
896.643	0.0158656
896.721	0.0156942
896.799	0.0156699
896.878	0.0159251
896.956	0.0158492
897.034	0.0157412
897.112	0.0157965
897.190	0.0157068
897.268	0.0158397
897.346	0.0157555
897.424	0.0157787
897.503	0.0159608
897.581	0.0158824
897.659	0.0157540
897.737	0.0155939
897.815	0.0158257
897.893	0.0158477
897.971	0.0157131
898.049	0.0156904
898.128	0.0157018
898.206	0.0156681
898.284	0.0157686
898.362	0.0157516
898.440	0.0158244
898.518	0.0157152
898.596	0.0156017
898.674	0.0157117
898.753	0.0157619
898.831	0.0157500
898.909	0.0157293
898.987	0.0157788
899.065	0.0157119
899.143	0.0156568
899.221	0.0157446
899.299	0.0156551
899.378	0.0155263
899.456	0.0156840
899.534	0.0157182
899.612	0.0155199
899.690	0.0155441
899.768	0.0156227
899.846	0.0156807
899.924	0.0156774
900.003	0.0157167
900.081	0.0154993
900.159	0.0155045
900.237	0.0155911
900.315	0.0156841
900.393	0.0156850
900.471	0.0158221
900.549	0.0158401
900.628	0.0156852
900.706	0.0157925
900.784	0.0156765
900.862	0.0157015
900.940	0.0158412
901.018	0.0157813
901.096	0.0157421
901.174	0.0157674
901.253	0.0158122
901.331	0.0157994
901.409	0.0157610
901.487	0.0157558
901.565	0.0157677
901.643	0.0157902
901.721	0.0157389
901.799	0.0158344
901.878	0.0158460
901.956	0.0158194
902.034	0.0156852
902.112	0.0157780
902.190	0.0158632
902.268	0.0158130
902.346	0.0156604
902.424	0.0158232
902.503	0.0157253
902.581	0.0156968
902.659	0.0158046
902.737	0.0155355
902.815	0.0155670
902.893	0.0158759
902.971	0.0157406
903.049	0.0156554
903.128	0.0156583
903.206	0.0156881
903.284	0.0157761
903.362	0.0156356
903.440	0.0156737
903.518	0.0156760
903.596	0.0156942
903.674	0.0157752
903.753	0.0157629
903.831	0.0157035
903.909	0.0157346
903.987	0.0158016
904.065	0.0158121
904.143	0.0157389
904.221	0.0157674
904.299	0.0156760
904.378	0.0158236
904.456	0.0157195
904.534	0.0157485
904.612	0.0156493
904.690	0.0157391
904.768	0.0157375
904.846	0.0156142
904.924	0.0156639
905.003	0.0157370
905.081	0.0157326
905.159	0.0155537
905.237	0.0156919
905.315	0.0156200
905.393	0.0155535
905.471	0.0154955
905.549	0.0156857
905.628	0.0156510
905.706	0.0155637
905.784	0.0157346
905.862	0.0158553
905.940	0.0158508
906.018	0.0157616
906.096	0.0157777
906.174	0.0159009
906.253	0.0158196
906.331	0.0156393
906.409	0.0156447
906.487	0.0156789
906.565	0.0157111
906.643	0.0156223
906.721	0.0156252
906.799	0.0158356
906.878	0.0156974
906.956	0.0156190
907.034	0.0157352
907.112	0.0157101
907.190	0.0156995
907.268	0.0157262
907.346	0.0156638
907.424	0.0156181
907.503	0.0156291
907.581	0.0158435
907.659	0.0157246
907.737	0.0158127
907.815	0.0157954
907.893	0.0156754
907.971	0.0157755
908.049	0.0158953
908.128	0.0157575
908.206	0.0157207
908.284	0.0157353
908.362	0.0157014
908.440	0.0156796
908.518	0.0158340
908.596	0.0157764
908.674	0.0158422
908.753	0.0157934
908.831	0.0158763
908.909	0.0157730
908.987	0.0156969
909.065	0.0158975
909.143	0.0157302
909.221	0.0156535
909.299	0.0157070
909.378	0.0155595
909.456	0.0156559
909.534	0.0156224
909.612	0.0155184
909.690	0.0158559
909.768	0.0156255
909.846	0.0155598
909.924	0.0156245
910.003	0.0156530
910.081	0.0156786
910.159	0.0156625
910.237	0.0157473
910.315	0.0156438
910.393	0.0155300
910.471	0.0156205
910.549	0.0155904
910.628	0.0156883
910.706	0.0156732
910.784	0.0157344
910.862	0.0156326
910.940	0.0156456
911.018	0.0156628
911.096	0.0157127
911.174	0.0156869
911.253	0.0156877
911.331	0.0158076
911.409	0.0157211
911.487	0.0156761
911.565	0.0156853
911.643	0.0157321
911.721	0.0157395
911.799	0.0158397
911.878	0.0158454
911.956	0.0157594
912.034	0.0156736
912.112	0.0154702
912.190	0.0157394
912.268	0.0156081
912.346	0.0155364
912.424	0.0156027
912.503	0.0155869
912.581	0.0156149
912.659	0.0156577
912.737	0.0155785
912.815	0.0155962
912.893	0.0155885
912.971	0.0156563
913.049	0.0156596
913.128	0.0157404
913.206	0.0157310
913.284	0.0157222
913.362	0.0157372
913.440	0.0157269
913.518	0.0158852
913.596	0.0158206
913.674	0.0159093
913.753	0.0158308
913.831	0.0159299
913.909	0.0157765
913.987	0.0159091
914.065	0.0159556
914.143	0.0158953
914.221	0.0158123
914.299	0.0159247
914.378	0.0157613
914.456	0.0158493
914.534	0.0157893
914.612	0.0157611
914.690	0.0157622
914.768	0.0156907
914.846	0.0156203
914.924	0.0156712
915.003	0.0155746
915.081	0.0155870
915.159	0.0154389
915.237	0.0155283
915.315	0.0155477
915.393	0.0154173
915.471	0.0155258
915.549	0.0155920
915.628	0.0155473
915.706	0.0156225
915.784	0.0156351
915.862	0.0159589
915.940	0.0158662
916.018	0.0156676
916.096	0.0158186
916.174	0.0158070
916.253	0.0158655
916.331	0.0158376
916.409	0.0158404
916.487	0.0157115
916.565	0.0157893
916.643	0.0158430
916.721	0.0158972
916.799	0.0158640
916.878	0.0158282
916.956	0.0158855
917.034	0.0158080
917.112	0.0157001
917.190	0.0157850
917.268	0.0157518
917.346	0.0159721
917.424	0.0156948
917.503	0.0157360
917.581	0.0156512
917.659	0.0157559
917.737	0.0156525
917.815	0.0157561
917.893	0.0156893
917.971	0.0155022
918.049	0.0154539
918.128	0.0156161
918.206	0.0156181
918.284	0.0155190
918.362	0.0156380
918.440	0.0156324
918.518	0.0156448
918.596	0.0156512
918.674	0.0155719
918.753	0.0157520
918.831	0.0157104
918.909	0.0157488
918.987	0.0156357
919.065	0.0156377
919.143	0.0157108
919.221	0.0158463
919.299	0.0157446
919.378	0.0155864
919.456	0.0156588
919.534	0.0156120
919.612	0.0155688
919.690	0.0156292
919.768	0.0156127
919.846	0.0156905
919.924	0.0156704
920.003	0.0156199
920.081	0.0155717
920.159	0.0157580
920.237	0.0157350
920.315	0.0157053
920.393	0.0158044
920.471	0.0159818
920.549	0.0158749
920.628	0.0158495
920.706	0.0159547
920.784	0.0159350
920.862	0.0159399
920.940	0.0158867
921.018	0.0157502
921.096	0.0159205
921.174	0.0160671
921.253	0.0160186
921.331	0.0157978
921.409	0.0159551
921.487	0.0159205
921.565	0.0158529
921.643	0.0158607
921.721	0.0159027
921.799	0.0158730
921.878	0.0159187
921.956	0.0158094
922.034	0.0158195
922.112	0.0157166
922.190	0.0156361
922.268	0.0156312
922.346	0.0155448
922.424	0.0154948
922.503	0.0154990
922.581	0.0155287
922.659	0.0154589
922.737	0.0153653
922.815	0.0153353
922.893	0.0155093
922.971	0.0155391
923.049	0.0155592
923.128	0.0154936
923.206	0.0155370
923.284	0.0155817
923.362	0.0155286
923.440	0.0156317
923.518	0.0157307
923.596	0.0156629
923.674	0.0157400
923.753	0.0157458
923.831	0.0157983
923.909	0.0158413
923.987	0.0156990
924.065	0.0157894
924.143	0.0156796
924.221	0.0157748
924.299	0.0159225
924.378	0.0157068
924.456	0.0156075
924.534	0.0156970
924.612	0.0157877
924.690	0.0156411
924.768	0.0156517
924.846	0.0155463
924.924	0.0155975
925.003	0.0157087
925.081	0.0156464
925.159	0.0157507
925.237	0.0157591
925.315	0.0157797
925.393	0.0159766
925.471	0.0160732
925.549	0.0159654
925.628	0.0158926
925.706	0.0161268
925.784	0.0159293
925.862	0.0158415
925.940	0.0159052
926.018	0.0159211
926.096	0.0158780
926.174	0.0159158
926.253	0.0158280
926.331	0.0157207
926.409	0.0157091
926.487	0.0156789
926.565	0.0156435
926.643	0.0155481
926.721	0.0155574
926.799	0.0153538
926.878	0.0154845
926.956	0.0154970
927.034	0.0154417
927.112	0.0153463
927.190	0.0153728
927.268	0.0155495
927.346	0.0155154
927.424	0.0153708
927.503	0.0153594
927.581	0.0155492
927.659	0.0156036
927.737	0.0156392
927.815	0.0157545
927.893	0.0158364
927.971	0.0159116
928.049	0.0157253
928.128	0.0157684
928.206	0.0158482
928.284	0.0157669
928.362	0.0159169
928.440	0.0159978
928.518	0.0157832
928.596	0.0157889
928.674	0.0157923
928.753	0.0156147
928.831	0.0158228
928.909	0.0157011
928.987	0.0154716
929.065	0.0154999
929.143	0.0155109
929.221	0.0156531
929.299	0.0153957
929.378	0.0154300
929.456	0.0155157
929.534	0.0154728
929.612	0.0154749
929.690	0.0156833
929.768	0.0155214
929.846	0.0156271
929.924	0.0156641
930.003	0.0158086
930.081	0.0159279
930.159	0.0159146
930.237	0.0160826
930.315	0.0158075
930.393	0.0160293
930.471	0.0159472
930.549	0.0159176
930.628	0.0157908
930.706	0.0158186
930.784	0.0157294
930.862	0.0155918
930.940	0.0155858
931.018	0.0156423
931.096	0.0155857
931.174	0.0155178
931.253	0.0156525
931.331	0.0156118
931.409	0.0155635
931.487	0.0156160
931.565	0.0157449
931.643	0.0155509
931.721	0.0156831
931.799	0.0157859
931.878	0.0156807
931.956	0.0157108
932.034	0.0157975
932.112	0.0157189
932.190	0.0156593
932.268	0.0157654
932.346	0.0157604
932.424	0.0157996
932.503	0.0158606
932.581	0.0157584
932.659	0.0158246
932.737	0.0157442
932.815	0.0157922
932.893	0.0158426
932.971	0.0157563
933.049	0.0155900
933.128	0.0157069
933.206	0.0156986
933.284	0.0158785
933.362	0.0156766
933.440	0.0155642
933.518	0.0155323
933.596	0.0155732
933.674	0.0157391
933.753	0.0156777
933.831	0.0155529
933.909	0.0155374
933.987	0.0156712
934.065	0.0156290
934.143	0.0155660
934.221	0.0157154
934.299	0.0158247
934.378	0.0157619
934.456	0.0158183
934.534	0.0157594
934.612	0.0158508
934.690	0.0158952
934.768	0.0158535
934.846	0.0158948
934.924	0.0160070
935.003	0.0157912
935.081	0.0158112
935.159	0.0157432
935.237	0.0157887
935.315	0.0156992
935.393	0.0158812
935.471	0.0157435
935.549	0.0156690
935.628	0.0154809
935.706	0.0155442
935.784	0.0155574
935.862	0.0154745
935.940	0.0156004
936.018	0.0155838
936.096	0.0156111
936.174	0.0156551
936.253	0.0156280
936.331	0.0157321
936.409	0.0158070
936.487	0.0158844
936.565	0.0158889
936.643	0.0159090
936.721	0.0158065
936.799	0.0158923
936.878	0.0158636
936.956	0.0157965
937.034	0.0158132
937.112	0.0157173
937.190	0.0157138
937.268	0.0157272
937.346	0.0155880
937.424	0.0156129
937.503	0.0157556
937.581	0.0156888
937.659	0.0157410
937.737	0.0156199
937.815	0.0158389
937.893	0.0157128
937.971	0.0157268
938.049	0.0157799
938.128	0.0157561
938.206	0.0157121
938.284	0.0158031
938.362	0.0156968
938.440	0.0158553
938.518	0.0156699
938.596	0.0156731
938.674	0.0156923
938.753	0.0156776
938.831	0.0154972
938.909	0.0155693
938.987	0.0157251
939.065	0.0155981
939.143	0.0156464
939.221	0.0156744
939.299	0.0157409
939.378	0.0156801
939.456	0.0157195
939.534	0.0156721
939.612	0.0157707
939.690	0.0157159
939.768	0.0158716
939.846	0.0158712
939.924	0.0157222
940.003	0.0158171
940.081	0.0158484
940.159	0.0156947
940.237	0.0156018
940.315	0.0156668
940.393	0.0157195
940.471	0.0157259
940.549	0.0156686
940.628	0.0156858
940.706	0.0158829
940.784	0.0157712
940.862	0.0156639
940.940	0.0156895
941.018	0.0157546
941.096	0.0158785
941.174	0.0157687
941.253	0.0158353
941.331	0.0159061
941.409	0.0159052
941.487	0.0157652
941.565	0.0158036
941.643	0.0157051
941.721	0.0156387
941.799	0.0156885
941.878	0.0156337
941.956	0.0155280
942.034	0.0154996
942.112	0.0156307
942.190	0.0156321
942.268	0.0156937
942.346	0.0157412
942.424	0.0157226
942.503	0.0157283
942.581	0.0157378
942.659	0.0158235
942.737	0.0158353
942.815	0.0157931
942.893	0.0157642
942.971	0.0158165
943.049	0.0156647
943.128	0.0157264
943.206	0.0156039
943.284	0.0156793
943.362	0.0156999
943.440	0.0155888
943.518	0.0155690
943.596	0.0156622
943.674	0.0157050
943.753	0.0157121
943.831	0.0159245
943.909	0.0157583
943.987	0.0157718
944.065	0.0157401
944.143	0.0157375
944.221	0.0156927
944.299	0.0158266
944.378	0.0158105
944.456	0.0157842
944.534	0.0157980
944.612	0.0157867
944.690	0.0157101
944.768	0.0158483
944.846	0.0156870
944.924	0.0156497
945.003	0.0156741
945.081	0.0158041
945.159	0.0156886
945.237	0.0157328
945.315	0.0156756
945.393	0.0157440
945.471	0.0158139
945.549	0.0156583
945.628	0.0157639
945.706	0.0157245
945.784	0.0157177
945.862	0.0156610
945.940	0.0158215
946.018	0.0158077
946.096	0.0156626
946.174	0.0156254
946.253	0.0157770
946.331	0.0158640
946.409	0.0157536
946.487	0.0157745
946.565	0.0157389
946.643	0.0156778
946.721	0.0156248
946.799	0.0156663
946.878	0.0156007
946.956	0.0156767
947.034	0.0157317
947.112	0.0156493
947.190	0.0156431
947.268	0.0156545
947.346	0.0156146
947.424	0.0157465
947.503	0.0157426
947.581	0.0157175
947.659	0.0157491
947.737	0.0155846
947.815	0.0156206
947.893	0.0155892
947.971	0.0156950
948.049	0.0157735
948.128	0.0156943
948.206	0.0157141
948.284	0.0157613
948.362	0.0157787
948.440	0.0157236
948.518	0.0157062
948.596	0.0157957
948.674	0.0157526
948.753	0.0157699
948.831	0.0156776
948.909	0.0158315
948.987	0.0157809
949.065	0.0157922
949.143	0.0157783
949.221	0.0157786
949.299	0.0157738
949.378	0.0158816
949.456	0.0158759
949.534	0.0157199
949.612	0.0157446
949.690	0.0157522
949.768	0.0156315
949.846	0.0157629
949.924	0.0156551
