06/29/2022	22:54:50	Ver.	4.1	UNKNOWN
Optical Delay	630.002507	Delta X		0.078125	Sweeps	1	Scan Rate	0/0
Coordinates	Axis 1	NaN	Axis 2	NaN	Axis 3	NaN	Axis 4	NaN	Axis 5	NaN	Axis 6	0.000000
TX Power	0.000000	RX Power	0.000000

630.003	0.0158563
630.081	0.0160056
630.159	0.0158804
630.237	0.0159212
630.315	0.0157999
630.393	0.0159720
630.471	0.0158745
630.549	0.0157956
630.628	0.0157741
630.706	0.0159324
630.784	0.0159155
630.862	0.0158191
630.940	0.0158623
631.018	0.0158199
631.096	0.0158576
631.174	0.0159605
631.253	0.0158991
631.331	0.0158640
631.409	0.0158615
631.487	0.0159492
631.565	0.0158995
631.643	0.0158720
631.721	0.0158386
631.799	0.0157895
631.878	0.0158403
631.956	0.0159621
632.034	0.0158843
632.112	0.0157662
632.190	0.0158604
632.268	0.0158263
632.346	0.0157543
632.424	0.0158636
632.503	0.0159229
632.581	0.0157697
632.659	0.0157870
632.737	0.0158358
632.815	0.0159267
632.893	0.0158086
632.971	0.0159579
633.049	0.0157558
633.128	0.0158991
633.206	0.0159892
633.284	0.0158638
633.362	0.0159397
633.440	0.0158433
633.518	0.0159399
633.596	0.0157411
633.674	0.0158910
633.753	0.0159876
633.831	0.0157848
633.909	0.0158630
633.987	0.0157498
634.065	0.0158521
634.143	0.0158639
634.221	0.0159216
634.299	0.0158128
634.378	0.0158977
634.456	0.0158493
634.534	0.0158287
634.612	0.0159432
634.690	0.0158317
634.768	0.0160110
634.846	0.0158064
634.924	0.0158982
635.003	0.0159106
635.081	0.0158849
635.159	0.0158012
635.237	0.0159800
635.315	0.0159116
635.393	0.0159216
635.471	0.0159081
635.549	0.0159210
635.628	0.0159340
635.706	0.0158441
635.784	0.0158386
635.862	0.0158757
635.940	0.0157778
636.018	0.0158866
636.096	0.0159336
636.174	0.0157502
636.253	0.0159013
636.331	0.0158954
636.409	0.0158154
636.487	0.0158540
636.565	0.0159063
636.643	0.0157426
636.721	0.0158521
636.799	0.0159241
636.878	0.0158513
636.956	0.0159146
637.034	0.0158295
637.112	0.0159253
637.190	0.0157659
637.268	0.0158537
637.346	0.0158844
637.424	0.0159412
637.503	0.0158112
637.581	0.0158421
637.659	0.0158328
637.737	0.0158415
637.815	0.0158710
637.893	0.0157117
637.971	0.0157928
638.049	0.0158434
638.128	0.0158344
638.206	0.0159119
638.284	0.0158758
638.362	0.0158956
638.440	0.0159708
638.518	0.0158254
638.596	0.0158302
638.674	0.0159172
638.753	0.0158685
638.831	0.0158240
638.909	0.0158299
638.987	0.0158495
639.065	0.0159223
639.143	0.0158234
639.221	0.0158181
639.299	0.0159695
639.378	0.0158433
639.456	0.0158318
639.534	0.0158276
639.612	0.0157827
639.690	0.0158705
639.768	0.0158678
639.846	0.0158329
639.924	0.0159361
640.003	0.0159175
640.081	0.0157889
640.159	0.0157475
640.237	0.0159650
640.315	0.0158926
640.393	0.0157665
640.471	0.0158334
640.549	0.0159733
640.628	0.0159662
640.706	0.0157620
640.784	0.0157909
640.862	0.0156640
640.940	0.0158383
641.018	0.0158504
641.096	0.0158248
641.174	0.0158249
641.253	0.0158441
641.331	0.0159029
641.409	0.0158160
641.487	0.0159174
641.565	0.0158739
641.643	0.0157420
641.721	0.0157087
641.799	0.0159253
641.878	0.0159219
641.956	0.0158295
642.034	0.0158893
642.112	0.0158730
642.190	0.0158836
642.268	0.0157458
642.346	0.0157393
642.424	0.0157944
642.503	0.0157861
642.581	0.0158513
642.659	0.0159089
642.737	0.0158598
642.815	0.0158128
642.893	0.0158069
642.971	0.0157180
643.049	0.0157081
643.128	0.0158408
643.206	0.0158704
643.284	0.0157495
643.362	0.0158178
643.440	0.0158009
643.518	0.0158638
643.596	0.0157947
643.674	0.0158077
643.753	0.0158663
643.831	0.0157294
643.909	0.0157893
643.987	0.0157870
644.065	0.0158118
644.143	0.0159233
644.221	0.0158939
644.299	0.0158898
644.378	0.0158044
644.456	0.0158524
644.534	0.0158271
644.612	0.0157222
644.690	0.0159254
644.768	0.0159721
644.846	0.0158412
644.924	0.0158788
645.003	0.0157160
645.081	0.0157628
645.159	0.0158376
645.237	0.0159104
645.315	0.0157822
645.393	0.0158308
645.471	0.0158616
645.549	0.0158351
645.628	0.0158740
645.706	0.0157855
645.784	0.0157693
645.862	0.0158462
645.940	0.0159444
646.018	0.0158031
646.096	0.0159123
646.174	0.0158219
646.253	0.0158645
646.331	0.0158251
646.409	0.0158614
646.487	0.0157872
646.565	0.0158904
646.643	0.0158589
646.721	0.0159341
646.799	0.0159773
646.878	0.0157138
646.956	0.0158006
647.034	0.0158627
647.112	0.0158446
647.190	0.0158528
647.268	0.0157944
647.346	0.0158526
647.424	0.0159016
647.503	0.0156911
647.581	0.0159064
647.659	0.0159382
647.737	0.0158155
647.815	0.0157870
647.893	0.0158268
647.971	0.0158092
648.049	0.0159916
648.128	0.0159789
648.206	0.0157080
648.284	0.0157911
648.362	0.0158224
648.440	0.0157303
648.518	0.0158811
648.596	0.0158614
648.674	0.0158587
648.753	0.0157629
648.831	0.0158831
648.909	0.0157314
648.987	0.0158044
649.065	0.0157702
649.143	0.0157450
649.221	0.0157804
649.299	0.0158619
649.378	0.0158654
649.456	0.0157610
649.534	0.0156516
649.612	0.0158087
649.690	0.0157501
649.768	0.0158353
649.846	0.0158949
649.924	0.0158417
650.003	0.0156644
650.081	0.0158401
650.159	0.0159258
650.237	0.0159093
650.315	0.0158547
650.393	0.0157486
650.471	0.0157095
650.549	0.0158444
650.628	0.0159447
650.706	0.0157449
650.784	0.0158598
650.862	0.0159143
650.940	0.0158392
651.018	0.0157665
651.096	0.0159196
651.174	0.0158000
651.253	0.0158292
651.331	0.0157926
651.409	0.0157747
651.487	0.0159645
651.565	0.0158162
651.643	0.0158293
651.721	0.0159383
651.799	0.0159486
651.878	0.0159086
651.956	0.0158798
652.034	0.0160600
652.112	0.0158481
652.190	0.0157507
652.268	0.0158515
652.346	0.0158372
652.424	0.0159000
652.503	0.0157867
652.581	0.0158157
652.659	0.0158221
652.737	0.0157773
652.815	0.0156818
652.893	0.0158247
652.971	0.0159070
653.049	0.0157957
653.128	0.0158139
653.206	0.0159128
653.284	0.0158435
653.362	0.0157909
653.440	0.0157377
653.518	0.0157677
653.596	0.0157957
653.674	0.0156915
653.753	0.0157998
653.831	0.0159563
653.909	0.0158778
653.987	0.0157960
654.065	0.0157526
654.143	0.0158221
654.221	0.0158528
654.299	0.0158438
654.378	0.0158652
654.456	0.0158815
654.534	0.0157939
654.612	0.0158931
654.690	0.0159557
654.768	0.0160220
654.846	0.0157627
654.924	0.0158144
655.003	0.0158435
655.081	0.0159019
655.159	0.0158382
655.237	0.0157713
655.315	0.0158771
655.393	0.0158481
655.471	0.0158178
655.549	0.0158340
655.628	0.0158425
655.706	0.0159177
655.784	0.0157514
655.862	0.0156799
655.940	0.0158714
656.018	0.0158854
656.096	0.0158414
656.174	0.0158347
656.253	0.0158887
656.331	0.0159104
656.409	0.0157844
656.487	0.0158889
656.565	0.0158647
656.643	0.0158135
656.721	0.0157836
656.799	0.0157701
656.878	0.0159177
656.956	0.0159029
657.034	0.0158697
657.112	0.0159285
657.190	0.0158052
657.268	0.0158888
657.346	0.0157667
657.424	0.0158742
657.503	0.0158379
657.581	0.0159087
657.659	0.0159043
657.737	0.0159103
657.815	0.0157156
657.893	0.0158842
657.971	0.0156794
658.049	0.0159260
658.128	0.0157607
658.206	0.0158062
658.284	0.0157649
658.362	0.0157931
658.440	0.0158465
658.518	0.0158778
658.596	0.0157721
658.674	0.0158997
658.753	0.0157640
658.831	0.0159721
658.909	0.0158021
658.987	0.0159057
659.065	0.0160203
659.143	0.0158385
659.221	0.0157626
659.299	0.0158907
659.378	0.0158508
659.456	0.0159029
659.534	0.0158857
659.612	0.0158534
659.690	0.0159524
659.768	0.0158901
659.846	0.0157814
659.924	0.0158645
660.003	0.0158578
660.081	0.0159041
660.159	0.0158168
660.237	0.0158154
660.315	0.0158839
660.393	0.0158490
660.471	0.0157491
660.549	0.0158479
660.628	0.0157816
660.706	0.0158332
660.784	0.0157505
660.862	0.0157930
660.940	0.0158225
661.018	0.0159110
661.096	0.0158509
661.174	0.0158556
661.253	0.0158521
661.331	0.0157917
661.409	0.0157862
661.487	0.0157200
661.565	0.0158664
661.643	0.0158968
661.721	0.0157870
661.799	0.0159203
661.878	0.0158423
661.956	0.0159085
662.034	0.0158273
662.112	0.0156927
662.190	0.0158496
662.268	0.0158821
662.346	0.0158926
662.424	0.0159196
662.503	0.0158064
662.581	0.0157184
662.659	0.0158605
662.737	0.0158322
662.815	0.0158305
662.893	0.0157490
662.971	0.0158124
663.049	0.0158486
663.128	0.0158117
663.206	0.0158666
663.284	0.0157907
663.362	0.0159072
663.440	0.0158916
663.518	0.0159004
663.596	0.0159560
663.674	0.0158173
663.753	0.0158636
663.831	0.0160142
663.909	0.0158297
663.987	0.0159354
664.065	0.0158692
664.143	0.0157441
664.221	0.0157414
664.299	0.0157683
664.378	0.0159606
664.456	0.0158211
664.534	0.0157422
664.612	0.0157122
664.690	0.0157339
664.768	0.0157681
664.846	0.0158688
664.924	0.0157931
665.003	0.0159477
665.081	0.0158281
665.159	0.0158741
665.237	0.0158704
665.315	0.0158307
665.393	0.0159676
665.471	0.0159109
665.549	0.0157493
665.628	0.0159232
665.706	0.0158286
665.784	0.0157266
665.862	0.0157346
665.940	0.0158698
666.018	0.0158952
666.096	0.0158399
666.174	0.0157874
666.253	0.0157657
666.331	0.0158620
666.409	0.0157706
666.487	0.0158733
666.565	0.0158682
666.643	0.0158671
666.721	0.0158080
666.799	0.0158101
666.878	0.0158410
666.956	0.0158352
667.034	0.0158675
667.112	0.0158600
667.190	0.0159708
667.268	0.0159546
667.346	0.0158051
667.424	0.0157238
667.503	0.0158105
667.581	0.0158824
667.659	0.0159240
667.737	0.0157198
667.815	0.0158651
667.893	0.0158456
667.971	0.0159035
668.049	0.0158752
668.128	0.0158191
668.206	0.0158065
668.284	0.0157891
668.362	0.0159011
668.440	0.0158342
668.518	0.0157375
668.596	0.0158418
668.674	0.0158347
668.753	0.0157432
668.831	0.0157738
668.909	0.0159772
668.987	0.0158862
669.065	0.0158082
669.143	0.0156542
669.221	0.0158140
669.299	0.0159794
669.378	0.0160215
669.456	0.0156963
669.534	0.0158598
669.612	0.0158575
669.690	0.0159498
669.768	0.0159420
669.846	0.0157722
669.924	0.0158041
670.003	0.0158084
670.081	0.0158787
670.159	0.0158622
670.237	0.0158650
670.315	0.0159804
670.393	0.0159230
670.471	0.0157600
670.549	0.0158125
670.628	0.0160141
670.706	0.0158121
670.784	0.0158567
670.862	0.0158298
670.940	0.0158112
671.018	0.0159509
671.096	0.0158147
671.174	0.0158774
671.253	0.0157362
671.331	0.0157856
671.409	0.0159739
671.487	0.0158627
671.565	0.0157907
671.643	0.0158666
671.721	0.0158821
671.799	0.0158852
671.878	0.0158926
671.956	0.0159134
672.034	0.0157312
672.112	0.0159040
672.190	0.0157652
672.268	0.0159053
672.346	0.0157894
672.424	0.0159843
672.503	0.0159119
672.581	0.0158582
672.659	0.0158550
672.737	0.0158040
672.815	0.0158025
672.893	0.0157884
672.971	0.0157782
673.049	0.0157682
673.128	0.0159077
673.206	0.0158758
673.284	0.0158254
673.362	0.0159097
673.440	0.0159014
673.518	0.0159227
673.596	0.0158223
673.674	0.0158427
673.753	0.0157336
673.831	0.0157838
673.909	0.0158028
673.987	0.0157745
674.065	0.0158616
674.143	0.0158582
674.221	0.0158849
674.299	0.0157954
674.378	0.0157571
674.456	0.0158511
674.534	0.0158947
674.612	0.0158539
674.690	0.0159655
674.768	0.0159797
674.846	0.0159445
674.924	0.0157475
675.003	0.0156307
675.081	0.0159017
675.159	0.0158424
675.237	0.0157967
675.315	0.0158393
675.393	0.0157823
675.471	0.0157986
675.549	0.0157614
675.628	0.0157330
675.706	0.0157823
675.784	0.0158532
675.862	0.0157471
675.940	0.0157982
676.018	0.0158437
676.096	0.0158414
676.174	0.0158318
676.253	0.0158790
676.331	0.0157411
676.409	0.0157146
676.487	0.0158757
676.565	0.0159513
676.643	0.0157920
676.721	0.0157905
676.799	0.0158482
676.878	0.0159605
676.956	0.0157995
677.034	0.0157858
677.112	0.0158514
677.190	0.0157728
677.268	0.0158334
677.346	0.0157756
677.424	0.0158710
677.503	0.0158894
677.581	0.0157843
677.659	0.0158054
677.737	0.0158173
677.815	0.0158435
677.893	0.0158455
677.971	0.0158163
678.049	0.0157298
678.128	0.0158469
678.206	0.0159519
678.284	0.0158216
678.362	0.0157073
678.440	0.0157704
678.518	0.0157855
678.596	0.0157737
678.674	0.0159148
678.753	0.0160189
678.831	0.0157986
678.909	0.0157842
678.987	0.0158536
679.065	0.0158012
679.143	0.0158890
679.221	0.0158777
679.299	0.0158669
679.378	0.0157954
679.456	0.0158257
679.534	0.0159595
679.612	0.0158969
679.690	0.0157820
679.768	0.0156889
679.846	0.0159369
679.924	0.0159072
680.003	0.0158312
680.081	0.0158546
680.159	0.0157364
680.237	0.0158427
680.315	0.0157892
680.393	0.0158363
680.471	0.0159805
680.549	0.0158973
680.628	0.0158720
680.706	0.0158397
680.784	0.0158740
680.862	0.0157967
680.940	0.0158714
681.018	0.0159023
681.096	0.0159454
681.174	0.0159062
681.253	0.0158176
681.331	0.0158163
681.409	0.0157600
681.487	0.0158440
681.565	0.0158643
681.643	0.0157862
681.721	0.0158727
681.799	0.0158899
681.878	0.0158121
681.956	0.0158717
682.034	0.0158179
682.112	0.0158455
682.190	0.0159177
682.268	0.0156334
682.346	0.0156995
682.424	0.0159148
682.503	0.0158359
682.581	0.0158556
682.659	0.0158597
682.737	0.0157368
682.815	0.0157683
682.893	0.0157628
682.971	0.0158285
683.049	0.0159175
683.128	0.0158814
683.206	0.0158852
683.284	0.0158349
683.362	0.0159177
683.440	0.0156695
683.518	0.0158556
683.596	0.0158595
683.674	0.0157742
683.753	0.0157964
683.831	0.0157747
683.909	0.0158737
683.987	0.0157510
684.065	0.0158450
684.143	0.0157481
684.221	0.0158131
684.299	0.0159020
684.378	0.0158323
684.456	0.0158787
684.534	0.0159001
684.612	0.0159119
684.690	0.0157906
684.768	0.0156572
684.846	0.0159286
684.924	0.0158153
685.003	0.0158545
685.081	0.0158508
685.159	0.0158733
685.237	0.0158107
685.315	0.0158640
685.393	0.0158978
685.471	0.0157927
685.549	0.0159219
685.628	0.0158267
685.706	0.0158548
685.784	0.0158682
685.862	0.0157766
685.940	0.0159162
686.018	0.0159412
686.096	0.0158781
686.174	0.0158369
686.253	0.0158857
686.331	0.0159032
686.409	0.0157796
686.487	0.0158255
686.565	0.0159185
686.643	0.0159601
686.721	0.0160564
686.799	0.0160265
686.878	0.0159034
686.956	0.0158233
687.034	0.0157871
687.112	0.0158698
687.190	0.0159056
687.268	0.0159507
687.346	0.0158311
687.424	0.0158190
687.503	0.0157897
687.581	0.0158389
687.659	0.0157251
687.737	0.0157777
687.815	0.0159341
687.893	0.0158997
687.971	0.0157172
688.049	0.0158062
688.128	0.0157429
688.206	0.0157970
688.284	0.0158127
688.362	0.0159129
688.440	0.0159840
688.518	0.0158981
688.596	0.0157544
688.674	0.0158748
688.753	0.0159485
688.831	0.0158267
688.909	0.0159499
688.987	0.0159446
689.065	0.0158579
689.143	0.0158674
689.221	0.0159114
689.299	0.0159106
689.378	0.0158765
689.456	0.0158737
689.534	0.0158649
689.612	0.0158832
689.690	0.0158756
689.768	0.0158350
689.846	0.0158599
689.924	0.0158635
690.003	0.0158371
690.081	0.0157720
690.159	0.0158969
690.237	0.0157954
690.315	0.0158228
690.393	0.0158270
690.471	0.0158695
690.549	0.0158495
690.628	0.0159307
690.706	0.0158319
690.784	0.0157748
690.862	0.0158802
690.940	0.0158710
691.018	0.0160232
691.096	0.0158913
691.174	0.0158868
691.253	0.0158188
691.331	0.0157801
691.409	0.0159148
691.487	0.0158726
691.565	0.0158401
691.643	0.0158850
691.721	0.0158078
691.799	0.0158146
691.878	0.0158870
691.956	0.0158275
692.034	0.0158544
692.112	0.0159605
692.190	0.0158601
692.268	0.0158682
692.346	0.0159023
692.424	0.0158765
692.503	0.0159497
692.581	0.0158172
692.659	0.0158131
692.737	0.0158788
692.815	0.0158514
692.893	0.0158756
692.971	0.0158703
693.049	0.0156725
693.128	0.0157330
693.206	0.0158572
693.284	0.0158784
693.362	0.0159015
693.440	0.0158097
693.518	0.0159157
693.596	0.0158106
693.674	0.0157268
693.753	0.0157793
693.831	0.0157601
693.909	0.0157684
693.987	0.0157249
694.065	0.0159760
694.143	0.0158720
694.221	0.0157841
694.299	0.0158666
694.378	0.0159110
694.456	0.0158107
694.534	0.0157034
694.612	0.0158268
694.690	0.0158338
694.768	0.0158935
694.846	0.0159693
694.924	0.0158618
695.003	0.0157588
695.081	0.0159225
695.159	0.0159223
695.237	0.0158466
695.315	0.0157658
695.393	0.0158458
695.471	0.0158620
695.549	0.0159269
695.628	0.0157957
695.706	0.0158136
695.784	0.0157838
695.862	0.0159039
695.940	0.0158220
696.018	0.0158428
696.096	0.0157986
696.174	0.0158126
696.253	0.0157901
696.331	0.0157075
696.409	0.0158347
696.487	0.0157773
696.565	0.0156795
696.643	0.0159261
696.721	0.0157771
696.799	0.0157616
696.878	0.0155788
696.956	0.0157925
697.034	0.0156944
697.112	0.0157324
697.190	0.0156863
697.268	0.0158599
697.346	0.0158993
697.424	0.0157113
697.503	0.0156799
697.581	0.0158828
697.659	0.0158735
697.737	0.0158855
697.815	0.0157238
697.893	0.0158367
697.971	0.0158022
698.049	0.0158505
698.128	0.0157977
698.206	0.0158083
698.284	0.0158022
698.362	0.0158170
698.440	0.0158705
698.518	0.0158799
698.596	0.0158540
698.674	0.0158845
698.753	0.0158905
698.831	0.0158949
698.909	0.0158566
698.987	0.0157954
699.065	0.0158543
699.143	0.0158811
699.221	0.0158826
699.299	0.0158849
699.378	0.0158773
699.456	0.0159242
699.534	0.0158715
699.612	0.0159602
699.690	0.0160690
699.768	0.0159116
699.846	0.0158723
699.924	0.0160236
700.003	0.0158760
700.081	0.0157697
700.159	0.0158016
700.237	0.0158379
700.315	0.0158713
700.393	0.0158172
700.471	0.0158883
700.549	0.0156415
700.628	0.0157346
700.706	0.0158463
700.784	0.0159335
700.862	0.0159028
700.940	0.0158333
701.018	0.0157967
701.096	0.0158518
701.174	0.0158163
701.253	0.0158982
701.331	0.0158040
701.409	0.0156866
701.487	0.0157419
701.565	0.0157390
701.643	0.0156867
701.721	0.0156441
701.799	0.0156850
701.878	0.0158003
701.956	0.0157747
702.034	0.0156963
702.112	0.0157055
702.190	0.0158081
702.268	0.0156771
702.346	0.0156728
702.424	0.0158235
702.503	0.0158722
702.581	0.0159204
702.659	0.0157809
702.737	0.0158324
702.815	0.0160892
702.893	0.0160010
702.971	0.0161166
703.049	0.0161321
703.128	0.0159927
703.206	0.0160537
703.284	0.0159222
703.362	0.0158157
703.440	0.0157805
703.518	0.0156214
703.596	0.0156218
703.674	0.0154241
703.753	0.0154436
703.831	0.0154340
703.909	0.0155237
703.987	0.0157372
704.065	0.0159019
704.143	0.0159939
704.221	0.0160941
704.299	0.0162194
704.378	0.0161469
704.456	0.0162607
704.534	0.0161690
704.612	0.0161143
704.690	0.0160349
704.768	0.0160039
704.846	0.0157442
704.924	0.0154967
705.003	0.0156268
705.081	0.0155728
705.159	0.0152688
705.237	0.0154309
705.315	0.0153909
705.393	0.0153895
705.471	0.0155563
705.549	0.0157257
705.628	0.0159377
705.706	0.0160661
705.784	0.0161225
705.862	0.0162344
705.940	0.0163351
706.018	0.0164535
706.096	0.0163273
706.174	0.0162496
706.253	0.0163007
706.331	0.0161461
706.409	0.0160685
706.487	0.0158206
706.565	0.0158449
706.643	0.0156284
706.721	0.0155499
706.799	0.0152665
706.878	0.0152720
706.956	0.0153779
707.034	0.0153795
707.112	0.0155777
707.190	0.0155698
707.268	0.0155353
707.346	0.0158595
707.424	0.0160945
707.503	0.0161651
707.581	0.0164120
707.659	0.0163080
707.737	0.0163016
707.815	0.0163109
707.893	0.0162379
707.971	0.0161704
708.049	0.0159723
708.128	0.0157597
708.206	0.0157064
708.284	0.0156797
708.362	0.0155708
708.440	0.0154932
708.518	0.0155196
708.596	0.0154023
708.674	0.0153507
708.753	0.0155288
708.831	0.0156071
708.909	0.0157327
708.987	0.0158627
709.065	0.0158434
709.143	0.0159589
709.221	0.0160090
709.299	0.0160825
709.378	0.0160062
709.456	0.0159074
709.534	0.0161095
709.612	0.0161041
709.690	0.0161240
709.768	0.0161909
709.846	0.0162341
709.924	0.0162067
710.003	0.0161654
710.081	0.0160693
710.159	0.0158994
710.237	0.0159340
710.315	0.0156197
710.393	0.0155682
710.471	0.0155196
710.549	0.0155147
710.628	0.0153889
710.706	0.0152799
710.784	0.0153060
710.862	0.0155357
710.940	0.0155480
711.018	0.0158444
711.096	0.0158907
711.174	0.0160439
711.253	0.0162218
711.331	0.0161948
711.409	0.0164285
711.487	0.0163396
711.565	0.0163490
711.643	0.0163300
711.721	0.0162604
711.799	0.0160103
711.878	0.0160133
711.956	0.0157104
712.034	0.0156552
712.112	0.0154926
712.190	0.0154633
712.268	0.0153654
712.346	0.0155430
712.424	0.0153362
712.503	0.0153887
712.581	0.0155833
712.659	0.0156844
712.737	0.0158237
712.815	0.0158961
712.893	0.0159894
712.971	0.0160538
713.049	0.0161224
713.128	0.0161720
713.206	0.0163088
713.284	0.0163976
713.362	0.0162844
713.440	0.0162271
713.518	0.0159900
713.596	0.0159364
713.674	0.0159540
713.753	0.0158820
713.831	0.0156779
713.909	0.0156983
713.987	0.0156309
714.065	0.0154868
714.143	0.0155328
714.221	0.0154605
714.299	0.0155126
714.378	0.0155865
714.456	0.0155920
714.534	0.0157102
714.612	0.0156284
714.690	0.0158463
714.768	0.0157652
714.846	0.0159263
714.924	0.0160117
715.003	0.0159815
715.081	0.0160348
715.159	0.0161107
715.237	0.0160879
715.315	0.0161832
715.393	0.0162289
715.471	0.0161661
715.549	0.0161927
715.628	0.0160503
715.706	0.0160755
715.784	0.0160436
715.862	0.0158968
715.940	0.0159206
716.018	0.0157266
716.096	0.0155189
716.174	0.0154431
716.253	0.0153735
716.331	0.0154356
716.409	0.0154948
716.487	0.0157069
716.565	0.0159435
716.643	0.0159988
716.721	0.0162652
716.799	0.0165550
716.878	0.0167223
716.956	0.0166875
717.034	0.0168103
717.112	0.0166202
717.190	0.0165639
717.268	0.0166236
717.346	0.0164894
717.424	0.0161455
717.503	0.0159331
717.581	0.0155272
717.659	0.0152831
717.737	0.0150006
717.815	0.0149657
717.893	0.0146816
717.971	0.0146268
718.049	0.0146766
718.128	0.0147325
718.206	0.0148148
718.284	0.0149505
718.362	0.0151498
718.440	0.0154893
718.518	0.0157103
718.596	0.0158529
718.674	0.0160097
718.753	0.0161998
718.831	0.0161547
718.909	0.0160847
718.987	0.0160361
719.065	0.0159354
719.143	0.0161629
719.221	0.0160056
719.299	0.0158961
719.378	0.0158829
719.456	0.0158786
719.534	0.0158960
719.612	0.0160310
719.690	0.0160608
719.768	0.0163300
719.846	0.0164180
719.924	0.0167085
720.003	0.0167755
720.081	0.0167926
720.159	0.0170584
720.237	0.0170816
720.315	0.0168468
720.393	0.0165603
720.471	0.0165369
720.549	0.0162852
720.628	0.0159411
720.706	0.0157996
720.784	0.0154585
720.862	0.0153807
720.940	0.0151732
721.018	0.0149859
721.096	0.0146900
721.174	0.0149191
721.253	0.0149426
721.331	0.0149828
721.409	0.0150813
721.487	0.0153534
721.565	0.0155515
721.643	0.0156578
721.721	0.0157510
721.799	0.0158171
721.878	0.0159226
721.956	0.0158839
722.034	0.0159869
722.112	0.0157633
722.190	0.0157961
722.268	0.0156557
722.346	0.0156363
722.424	0.0158179
722.503	0.0158908
722.581	0.0159666
722.659	0.0160741
722.737	0.0161481
722.815	0.0163705
722.893	0.0163718
722.971	0.0163970
723.049	0.0166071
723.128	0.0165804
723.206	0.0165227
723.284	0.0165059
723.362	0.0164436
723.440	0.0162103
723.518	0.0161471
723.596	0.0160300
723.674	0.0157369
723.753	0.0154115
723.831	0.0154947
723.909	0.0152859
723.987	0.0150376
724.065	0.0149546
724.143	0.0148176
724.221	0.0150052
724.299	0.0147625
724.378	0.0146828
724.456	0.0146283
724.534	0.0147053
724.612	0.0146752
724.690	0.0149033
724.768	0.0149552
724.846	0.0152545
724.924	0.0154811
725.003	0.0158493
725.081	0.0161459
725.159	0.0165418
725.237	0.0169054
725.315	0.0172801
725.393	0.0175876
725.471	0.0179176
725.549	0.0180760
725.628	0.0182388
725.706	0.0183671
725.784	0.0180726
725.862	0.0179256
725.940	0.0175053
726.018	0.0169525
726.096	0.0167934
726.174	0.0163191
726.253	0.0157578
726.331	0.0154170
726.409	0.0149638
726.487	0.0145609
726.565	0.0145797
726.643	0.0142294
726.721	0.0143129
726.799	0.0141699
726.878	0.0142870
726.956	0.0144238
727.034	0.0146600
727.112	0.0148130
727.190	0.0147625
727.268	0.0150507
727.346	0.0151141
727.424	0.0150755
727.503	0.0150914
727.581	0.0152212
727.659	0.0153143
727.737	0.0152704
727.815	0.0151965
727.893	0.0152275
727.971	0.0151376
728.049	0.0152627
728.128	0.0154037
728.206	0.0153667
728.284	0.0155192
728.362	0.0155360
728.440	0.0155836
728.518	0.0158141
728.596	0.0158481
728.674	0.0160838
728.753	0.0161617
728.831	0.0162240
728.909	0.0162457
728.987	0.0163588
729.065	0.0165978
729.143	0.0164776
729.221	0.0168591
729.299	0.0169125
729.378	0.0168115
729.456	0.0168917
729.534	0.0167721
729.612	0.0167149
729.690	0.0167886
729.768	0.0166489
729.846	0.0165073
729.924	0.0164585
730.003	0.0164457
730.081	0.0163516
730.159	0.0163190
730.237	0.0163341
730.315	0.0163213
730.393	0.0163136
730.471	0.0164228
730.549	0.0164695
730.628	0.0164285
730.706	0.0164544
730.784	0.0162920
730.862	0.0163874
730.940	0.0164717
731.018	0.0163980
731.096	0.0163348
731.174	0.0165182
731.253	0.0166265
731.331	0.0166190
731.409	0.0165850
731.487	0.0166264
731.565	0.0165344
731.643	0.0162422
731.721	0.0158852
731.799	0.0156401
731.878	0.0150458
731.956	0.0146852
732.034	0.0141055
732.112	0.0136904
732.190	0.0132935
732.268	0.0128410
732.346	0.0124948
732.424	0.0124217
732.503	0.0123544
732.581	0.0123524
732.659	0.0123891
732.737	0.0127647
732.815	0.0130236
732.893	0.0135107
732.971	0.0138491
733.049	0.0144789
733.128	0.0149780
733.206	0.0154637
733.284	0.0159956
733.362	0.0165651
733.440	0.0169508
733.518	0.0173053
733.596	0.0174800
733.674	0.0178719
733.753	0.0179093
733.831	0.0179880
733.909	0.0181194
733.987	0.0182073
734.065	0.0181725
734.143	0.0180817
734.221	0.0180114
734.299	0.0179395
734.378	0.0178471
734.456	0.0176414
734.534	0.0176083
734.612	0.0174210
734.690	0.0174039
734.768	0.0172283
734.846	0.0169546
734.924	0.0168060
735.003	0.0166112
735.081	0.0163596
735.159	0.0164561
735.237	0.0164192
735.315	0.0163882
735.393	0.0163621
735.471	0.0161458
735.549	0.0161759
735.628	0.0162392
735.706	0.0161111
735.784	0.0158728
735.862	0.0157640
735.940	0.0156599
736.018	0.0155229
736.096	0.0154616
736.174	0.0153910
736.253	0.0151912
736.331	0.0150697
736.409	0.0149838
736.487	0.0146147
736.565	0.0145212
736.643	0.0143027
736.721	0.0140517
736.799	0.0139389
736.878	0.0137489
736.956	0.0133638
737.034	0.0133611
737.112	0.0131510
737.190	0.0129363
737.268	0.0128506
737.346	0.0130673
737.424	0.0131554
737.503	0.0132833
737.581	0.0134727
737.659	0.0139558
737.737	0.0142383
737.815	0.0147368
737.893	0.0150822
737.971	0.0157326
738.049	0.0162059
738.128	0.0165623
738.206	0.0169551
738.284	0.0172061
738.362	0.0175872
738.440	0.0178185
738.518	0.0181363
738.596	0.0183851
738.674	0.0184111
738.753	0.0185063
738.831	0.0184193
738.909	0.0183128
738.987	0.0181422
739.065	0.0181294
739.143	0.0179243
739.221	0.0178104
739.299	0.0175959
739.378	0.0172238
739.456	0.0170716
739.534	0.0167233
739.612	0.0166865
739.690	0.0165497
739.768	0.0162814
739.846	0.0161265
739.924	0.0163398
740.003	0.0163810
740.081	0.0161765
740.159	0.0161635
740.237	0.0162562
740.315	0.0161475
740.393	0.0160569
740.471	0.0161186
740.549	0.0159785
740.628	0.0159082
740.706	0.0159815
740.784	0.0159103
740.862	0.0157829
740.940	0.0156915
741.018	0.0155556
741.096	0.0155331
741.174	0.0154461
741.253	0.0152353
741.331	0.0149146
741.409	0.0147448
741.487	0.0143674
741.565	0.0140375
741.643	0.0138290
741.721	0.0135737
741.799	0.0133060
741.878	0.0131949
741.956	0.0131230
742.034	0.0130391
742.112	0.0131583
742.190	0.0131549
742.268	0.0135314
742.346	0.0139498
742.424	0.0140397
742.503	0.0145461
742.581	0.0150562
742.659	0.0153148
742.737	0.0156660
742.815	0.0162286
742.893	0.0166051
742.971	0.0170383
743.049	0.0172829
743.128	0.0173698
743.206	0.0175746
743.284	0.0176357
743.362	0.0175167
743.440	0.0175157
743.518	0.0175178
743.596	0.0172047
743.674	0.0170113
743.753	0.0167807
743.831	0.0168134
743.909	0.0164233
743.987	0.0164710
744.065	0.0165241
744.143	0.0166416
744.221	0.0166346
744.299	0.0166789
744.378	0.0169767
744.456	0.0170300
744.534	0.0172287
744.612	0.0173827
744.690	0.0173558
744.768	0.0173430
744.846	0.0173500
744.924	0.0173671
745.003	0.0173141
745.081	0.0170277
745.159	0.0168314
745.237	0.0167809
745.315	0.0164435
745.393	0.0163869
745.471	0.0161253
745.549	0.0158814
745.628	0.0158247
745.706	0.0157660
745.784	0.0155814
745.862	0.0156779
745.940	0.0155439
746.018	0.0153792
746.096	0.0155686
746.174	0.0153185
746.253	0.0152483
746.331	0.0150522
746.409	0.0148830
746.487	0.0147005
746.565	0.0145174
746.643	0.0142923
746.721	0.0138740
746.799	0.0135662
746.878	0.0134557
746.956	0.0131756
747.034	0.0131016
747.112	0.0129924
747.190	0.0129813
747.268	0.0131325
747.346	0.0132996
747.424	0.0137223
747.503	0.0139863
747.581	0.0142780
747.659	0.0146435
747.737	0.0152396
747.815	0.0156399
747.893	0.0161658
747.971	0.0166049
748.049	0.0171347
748.128	0.0175010
748.206	0.0178042
748.284	0.0180065
748.362	0.0181124
748.440	0.0182749
748.518	0.0182367
748.596	0.0180486
748.674	0.0179667
748.753	0.0176231
748.831	0.0173625
748.909	0.0170867
748.987	0.0167950
749.065	0.0165417
749.143	0.0163956
749.221	0.0162423
749.299	0.0162981
749.378	0.0161146
749.456	0.0163133
749.534	0.0162009
749.612	0.0161463
749.690	0.0163203
749.768	0.0162925
749.846	0.0162203
749.924	0.0161354
750.003	0.0161555
750.081	0.0162214
750.159	0.0162232
750.237	0.0160677
750.315	0.0160822
750.393	0.0160155
750.471	0.0160844
750.549	0.0161182
750.628	0.0162053
750.706	0.0160387
750.784	0.0159755
750.862	0.0160482
750.940	0.0160352
751.018	0.0160762
751.096	0.0161607
751.174	0.0161005
751.253	0.0159863
751.331	0.0158588
751.409	0.0157865
751.487	0.0156767
751.565	0.0154475
751.643	0.0151810
751.721	0.0148685
751.799	0.0146322
751.878	0.0144659
751.956	0.0142191
752.034	0.0140089
752.112	0.0138336
752.190	0.0136770
752.268	0.0136530
752.346	0.0137654
752.424	0.0137434
752.503	0.0138980
752.581	0.0140633
752.659	0.0143630
752.737	0.0146333
752.815	0.0150934
752.893	0.0153372
752.971	0.0156662
753.049	0.0159711
753.128	0.0165300
753.206	0.0167820
753.284	0.0168931
753.362	0.0171957
753.440	0.0174126
753.518	0.0176333
753.596	0.0177158
753.674	0.0178123
753.753	0.0177477
753.831	0.0176303
753.909	0.0173907
753.987	0.0172927
754.065	0.0172726
754.143	0.0169048
754.221	0.0168879
754.299	0.0166929
754.378	0.0165971
754.456	0.0164630
754.534	0.0163035
754.612	0.0160809
754.690	0.0159608
754.768	0.0158178
754.846	0.0158100
754.924	0.0156045
755.003	0.0155997
755.081	0.0155986
755.159	0.0156971
755.237	0.0157602
755.315	0.0157755
755.393	0.0158047
755.471	0.0157843
755.549	0.0159123
755.628	0.0159464
755.706	0.0160242
755.784	0.0160943
755.862	0.0161264
755.940	0.0162367
756.018	0.0162508
756.096	0.0162524
756.174	0.0161929
756.253	0.0161182
756.331	0.0162611
756.409	0.0159753
756.487	0.0159026
756.565	0.0158427
756.643	0.0155722
756.721	0.0155948
756.799	0.0152120
756.878	0.0151539
756.956	0.0150622
757.034	0.0148310
757.112	0.0148264
757.190	0.0146425
757.268	0.0145113
757.346	0.0144440
757.424	0.0145591
757.503	0.0145849
757.581	0.0146961
757.659	0.0146493
757.737	0.0148779
757.815	0.0148740
757.893	0.0150884
757.971	0.0150093
758.049	0.0152268
758.128	0.0153072
758.206	0.0154777
758.284	0.0155511
758.362	0.0158134
758.440	0.0158455
758.518	0.0160480
758.596	0.0161814
758.674	0.0162845
758.753	0.0165258
758.831	0.0163957
758.909	0.0167072
758.987	0.0169704
759.065	0.0170628
759.143	0.0172509
759.221	0.0174348
759.299	0.0173794
759.378	0.0174014
759.456	0.0172720
759.534	0.0174695
759.612	0.0173743
759.690	0.0170744
759.768	0.0170260
759.846	0.0169501
759.924	0.0167157
760.003	0.0163071
760.081	0.0160947
760.159	0.0159702
760.237	0.0156627
760.315	0.0153737
760.393	0.0152287
760.471	0.0149889
760.549	0.0149145
760.628	0.0149483
760.706	0.0148712
760.784	0.0151220
760.862	0.0150541
760.940	0.0153215
761.018	0.0154391
761.096	0.0154643
761.174	0.0156655
761.253	0.0157141
761.331	0.0158076
761.409	0.0159460
761.487	0.0159964
761.565	0.0159869
761.643	0.0158842
761.721	0.0158682
761.799	0.0157138
761.878	0.0156358
761.956	0.0155614
762.034	0.0153123
762.112	0.0152775
762.190	0.0151258
762.268	0.0149866
762.346	0.0149902
762.424	0.0150225
762.503	0.0149815
762.581	0.0148438
762.659	0.0150227
762.737	0.0151046
762.815	0.0148960
762.893	0.0150699
762.971	0.0152172
763.049	0.0151827
763.128	0.0153234
763.206	0.0153371
763.284	0.0155283
763.362	0.0156821
763.440	0.0157931
763.518	0.0159837
763.596	0.0160252
763.674	0.0160947
763.753	0.0163352
763.831	0.0162694
763.909	0.0164333
763.987	0.0164842
764.065	0.0165559
764.143	0.0166125
764.221	0.0167273
764.299	0.0165294
764.378	0.0166388
764.456	0.0167519
764.534	0.0166554
764.612	0.0166343
764.690	0.0165178
764.768	0.0165524
764.846	0.0164024
764.924	0.0163359
765.003	0.0163892
765.081	0.0162369
765.159	0.0161561
765.237	0.0160531
765.315	0.0159196
765.393	0.0158546
765.471	0.0158630
765.549	0.0158337
765.628	0.0156200
765.706	0.0156944
765.784	0.0156938
765.862	0.0155353
765.940	0.0156718
766.018	0.0156881
766.096	0.0157408
766.174	0.0157891
766.253	0.0158647
766.331	0.0158138
766.409	0.0158792
766.487	0.0159735
766.565	0.0160362
766.643	0.0160110
766.721	0.0158853
766.799	0.0159928
766.878	0.0158121
766.956	0.0157303
767.034	0.0159669
767.112	0.0157632
767.190	0.0156282
767.268	0.0155642
767.346	0.0154962
767.424	0.0154062
767.503	0.0153429
767.581	0.0153306
767.659	0.0153635
767.737	0.0154176
767.815	0.0152372
767.893	0.0152281
767.971	0.0152036
768.049	0.0152954
768.128	0.0154646
768.206	0.0154236
768.284	0.0154888
768.362	0.0155663
768.440	0.0155173
768.518	0.0156233
768.596	0.0155872
768.674	0.0157159
768.753	0.0155882
768.831	0.0158070
768.909	0.0159923
768.987	0.0159343
769.065	0.0158870
769.143	0.0159261
769.221	0.0160024
769.299	0.0158440
769.378	0.0158955
769.456	0.0160114
769.534	0.0159638
769.612	0.0160371
769.690	0.0159634
769.768	0.0159992
769.846	0.0162520
769.924	0.0160555
770.003	0.0160455
770.081	0.0161063
770.159	0.0161313
770.237	0.0159928
770.315	0.0162138
770.393	0.0162971
770.471	0.0161151
770.549	0.0161586
770.628	0.0161793
770.706	0.0163545
770.784	0.0161691
770.862	0.0161761
770.940	0.0164133
771.018	0.0163680
771.096	0.0164270
771.174	0.0163931
771.253	0.0163239
771.331	0.0163449
771.409	0.0164166
771.487	0.0163857
771.565	0.0162153
771.643	0.0160336
771.721	0.0159545
771.799	0.0159735
771.878	0.0159426
771.956	0.0157573
772.034	0.0157390
772.112	0.0155143
772.190	0.0154244
772.268	0.0155019
772.346	0.0152679
772.424	0.0153075
772.503	0.0152452
772.581	0.0151385
772.659	0.0151669
772.737	0.0153020
772.815	0.0152276
772.893	0.0151004
772.971	0.0150980
773.049	0.0153416
773.128	0.0155087
773.206	0.0155613
773.284	0.0156065
773.362	0.0155597
773.440	0.0157966
773.518	0.0157243
773.596	0.0155437
773.674	0.0158884
773.753	0.0158810
773.831	0.0158676
773.909	0.0159357
773.987	0.0158511
774.065	0.0159731
774.143	0.0160354
774.221	0.0160474
774.299	0.0161259
774.378	0.0161205
774.456	0.0161903
774.534	0.0161767
774.612	0.0160724
774.690	0.0161945
774.768	0.0160406
774.846	0.0159527
774.924	0.0160327
775.003	0.0159492
775.081	0.0159081
775.159	0.0158227
775.237	0.0157100
775.315	0.0156950
775.393	0.0155898
775.471	0.0155986
775.549	0.0153452
775.628	0.0152501
775.706	0.0153246
775.784	0.0154863
775.862	0.0156052
775.940	0.0155209
776.018	0.0155883
776.096	0.0156928
776.174	0.0158203
776.253	0.0158723
776.331	0.0162076
776.409	0.0164274
776.487	0.0163092
776.565	0.0163982
776.643	0.0166192
776.721	0.0166965
776.799	0.0167760
776.878	0.0165926
776.956	0.0168038
777.034	0.0167610
777.112	0.0166013
777.190	0.0164816
777.268	0.0164497
777.346	0.0162331
777.424	0.0161646
777.503	0.0160129
777.581	0.0156704
777.659	0.0156695
777.737	0.0156120
777.815	0.0154323
777.893	0.0152938
777.971	0.0153021
778.049	0.0153468
778.128	0.0153798
778.206	0.0151795
778.284	0.0153376
778.362	0.0152967
778.440	0.0152835
778.518	0.0155222
778.596	0.0156229
778.674	0.0154889
778.753	0.0157525
778.831	0.0157737
778.909	0.0158488
778.987	0.0159053
779.065	0.0161342
779.143	0.0161608
779.221	0.0163034
779.299	0.0162956
779.378	0.0163406
779.456	0.0164140
779.534	0.0163345
779.612	0.0161535
779.690	0.0160471
779.768	0.0159387
779.846	0.0160199
779.924	0.0158293
780.003	0.0157039
780.081	0.0157834
780.159	0.0157388
780.237	0.0156849
780.315	0.0155876
780.393	0.0156016
780.471	0.0155125
780.549	0.0154736
780.628	0.0154514
780.706	0.0156058
780.784	0.0154306
780.862	0.0154729
780.940	0.0154042
781.018	0.0155887
781.096	0.0156564
781.174	0.0157001
781.253	0.0155641
781.331	0.0157494
781.409	0.0158737
781.487	0.0158143
781.565	0.0157655
781.643	0.0158206
781.721	0.0159811
781.799	0.0160789
781.878	0.0159438
781.956	0.0161029
782.034	0.0160777
782.112	0.0161260
782.190	0.0161001
782.268	0.0161395
782.346	0.0161276
782.424	0.0160002
782.503	0.0160041
782.581	0.0160496
782.659	0.0160017
782.737	0.0159946
782.815	0.0159621
782.893	0.0158756
782.971	0.0159149
783.049	0.0159178
783.128	0.0158728
783.206	0.0158296
783.284	0.0159074
783.362	0.0159294
783.440	0.0158907
783.518	0.0158734
783.596	0.0159766
783.674	0.0159869
783.753	0.0160625
783.831	0.0159521
783.909	0.0159430
783.987	0.0160345
784.065	0.0158774
784.143	0.0158497
784.221	0.0159919
784.299	0.0158442
784.378	0.0159694
784.456	0.0157023
784.534	0.0157295
784.612	0.0156978
784.690	0.0157150
784.768	0.0156673
784.846	0.0155956
784.924	0.0156413
785.003	0.0154196
785.081	0.0153825
785.159	0.0154330
785.237	0.0152473
785.315	0.0154601
785.393	0.0152275
785.471	0.0153436
785.549	0.0153453
785.628	0.0153940
785.706	0.0153638
785.784	0.0154686
785.862	0.0154393
785.940	0.0153294
786.018	0.0155811
786.096	0.0157304
786.174	0.0155840
786.253	0.0157106
786.331	0.0156875
786.409	0.0156851
786.487	0.0159862
786.565	0.0159923
786.643	0.0160345
786.721	0.0160680
786.799	0.0160664
786.878	0.0159930
786.956	0.0160095
787.034	0.0161369
787.112	0.0163538
787.190	0.0162614
787.268	0.0161673
787.346	0.0160867
787.424	0.0164179
787.503	0.0161886
787.581	0.0159925
787.659	0.0161977
787.737	0.0161037
787.815	0.0160521
787.893	0.0160744
787.971	0.0159302
788.049	0.0159134
788.128	0.0158530
788.206	0.0156902
788.284	0.0157008
788.362	0.0155965
788.440	0.0155557
788.518	0.0157720
788.596	0.0155836
788.674	0.0156152
788.753	0.0155416
788.831	0.0154416
788.909	0.0155611
788.987	0.0155794
789.065	0.0157151
789.143	0.0157359
789.221	0.0157755
789.299	0.0158757
789.378	0.0159715
789.456	0.0159109
789.534	0.0160922
789.612	0.0161099
789.690	0.0160401
789.768	0.0160989
789.846	0.0162275
789.924	0.0161378
790.003	0.0161688
790.081	0.0161841
790.159	0.0161749
790.237	0.0160557
790.315	0.0160972
790.393	0.0160428
790.471	0.0160358
790.549	0.0158748
790.628	0.0158791
790.706	0.0157305
790.784	0.0156341
790.862	0.0154562
790.940	0.0155761
791.018	0.0155767
791.096	0.0154808
791.174	0.0154073
791.253	0.0154788
791.331	0.0154855
791.409	0.0156077
791.487	0.0156009
791.565	0.0155248
791.643	0.0156555
791.721	0.0159267
791.799	0.0159296
791.878	0.0158205
791.956	0.0161523
792.034	0.0160873
792.112	0.0160627
792.190	0.0162032
792.268	0.0161677
792.346	0.0160677
792.424	0.0161171
792.503	0.0161219
792.581	0.0161362
792.659	0.0160583
792.737	0.0159086
792.815	0.0159215
792.893	0.0158792
792.971	0.0159400
793.049	0.0159911
793.128	0.0158726
793.206	0.0156833
793.284	0.0156377
793.362	0.0157304
793.440	0.0155742
793.518	0.0157627
793.596	0.0157439
793.674	0.0156564
793.753	0.0156043
793.831	0.0156628
793.909	0.0156723
793.987	0.0157295
794.065	0.0158315
794.143	0.0157246
794.221	0.0158113
794.299	0.0158810
794.378	0.0157951
794.456	0.0159350
794.534	0.0159914
794.612	0.0159428
794.690	0.0158932
794.768	0.0160526
794.846	0.0160464
794.924	0.0160728
795.003	0.0160450
795.081	0.0160388
795.159	0.0162109
795.237	0.0161692
795.315	0.0160708
795.393	0.0159820
795.471	0.0160028
795.549	0.0160844
795.628	0.0160360
795.706	0.0160184
795.784	0.0160604
795.862	0.0159803
795.940	0.0159573
796.018	0.0159975
796.096	0.0161478
796.174	0.0160033
796.253	0.0159896
796.331	0.0160267
796.409	0.0160611
796.487	0.0160190
796.565	0.0161041
796.643	0.0159915
796.721	0.0158129
796.799	0.0158316
796.878	0.0158100
796.956	0.0158060
797.034	0.0156855
797.112	0.0155698
797.190	0.0157194
797.268	0.0155533
797.346	0.0155132
797.424	0.0154292
797.503	0.0156419
797.581	0.0156216
797.659	0.0156752
797.737	0.0156555
797.815	0.0156655
797.893	0.0156306
797.971	0.0157837
798.049	0.0158115
798.128	0.0157613
798.206	0.0158376
798.284	0.0158736
798.362	0.0158200
798.440	0.0159837
798.518	0.0158205
798.596	0.0160975
798.674	0.0159467
798.753	0.0159449
798.831	0.0158422
798.909	0.0159583
798.987	0.0159538
799.065	0.0159126
799.143	0.0158343
799.221	0.0159250
799.299	0.0159619
799.378	0.0157890
799.456	0.0158016
799.534	0.0159148
799.612	0.0158286
799.690	0.0159145
799.768	0.0158206
799.846	0.0158234
799.924	0.0159027
800.003	0.0157193
800.081	0.0158205
800.159	0.0157920
800.237	0.0158801
800.315	0.0159645
800.393	0.0157951
800.471	0.0157535
800.549	0.0158195
800.628	0.0159082
800.706	0.0157764
800.784	0.0158874
800.862	0.0158329
800.940	0.0157273
801.018	0.0158906
801.096	0.0158400
801.174	0.0157334
801.253	0.0158254
801.331	0.0158775
801.409	0.0159303
801.487	0.0158837
801.565	0.0158296
801.643	0.0158397
801.721	0.0158054
801.799	0.0158758
801.878	0.0159792
801.956	0.0159814
802.034	0.0159882
802.112	0.0158948
802.190	0.0157998
802.268	0.0159670
802.346	0.0160303
802.424	0.0159415
802.503	0.0158070
802.581	0.0159478
802.659	0.0160664
802.737	0.0158279
802.815	0.0160080
802.893	0.0159281
802.971	0.0157986
803.049	0.0159846
803.128	0.0160274
803.206	0.0158956
803.284	0.0160094
803.362	0.0159235
803.440	0.0159887
803.518	0.0158133
803.596	0.0157950
803.674	0.0158833
803.753	0.0158459
803.831	0.0158369
803.909	0.0158160
803.987	0.0155917
804.065	0.0158707
804.143	0.0158481
804.221	0.0156934
804.299	0.0156324
804.378	0.0157218
804.456	0.0157726
804.534	0.0158216
804.612	0.0160092
804.690	0.0158279
804.768	0.0159535
804.846	0.0159987
804.924	0.0157604
805.003	0.0159382
805.081	0.0159933
805.159	0.0158366
805.237	0.0157766
805.315	0.0159280
805.393	0.0158794
805.471	0.0157359
805.549	0.0158757
805.628	0.0159002
805.706	0.0158031
805.784	0.0158611
805.862	0.0158496
805.940	0.0158648
806.018	0.0159483
806.096	0.0158381
806.174	0.0157391
806.253	0.0157137
806.331	0.0157109
806.409	0.0156986
806.487	0.0157099
806.565	0.0156932
806.643	0.0157096
806.721	0.0157829
806.799	0.0157238
806.878	0.0157726
806.956	0.0156925
807.034	0.0158653
807.112	0.0158915
807.190	0.0158248
807.268	0.0159866
807.346	0.0159543
807.424	0.0160126
807.503	0.0161053
807.581	0.0158385
807.659	0.0159660
807.737	0.0160561
807.815	0.0159894
807.893	0.0159460
807.971	0.0158361
808.049	0.0160015
808.128	0.0158815
808.206	0.0159736
808.284	0.0159123
808.362	0.0158684
808.440	0.0159373
808.518	0.0160265
808.596	0.0160582
808.674	0.0159804
808.753	0.0159648
808.831	0.0160214
808.909	0.0159161
808.987	0.0158350
809.065	0.0160211
809.143	0.0159517
809.221	0.0159346
809.299	0.0160230
809.378	0.0158456
809.456	0.0159547
809.534	0.0158221
809.612	0.0159164
809.690	0.0158236
809.768	0.0157414
809.846	0.0157537
809.924	0.0158592
810.003	0.0156573
810.081	0.0156335
810.159	0.0155797
810.237	0.0156947
810.315	0.0156522
810.393	0.0155876
810.471	0.0157407
810.549	0.0157645
810.628	0.0157212
810.706	0.0157037
810.784	0.0157948
810.862	0.0156967
810.940	0.0159530
811.018	0.0159337
811.096	0.0158202
811.174	0.0158986
811.253	0.0158258
811.331	0.0158440
811.409	0.0157889
811.487	0.0158472
811.565	0.0158727
811.643	0.0158936
811.721	0.0159702
811.799	0.0158907
811.878	0.0160036
811.956	0.0158426
812.034	0.0158172
812.112	0.0157972
812.190	0.0158151
812.268	0.0158154
812.346	0.0158544
812.424	0.0159529
812.503	0.0159647
812.581	0.0158057
812.659	0.0159869
812.737	0.0159505
812.815	0.0160040
812.893	0.0161170
812.971	0.0160273
813.049	0.0159185
813.128	0.0160329
813.206	0.0158317
813.284	0.0159053
813.362	0.0159358
813.440	0.0159073
813.518	0.0159590
813.596	0.0160752
813.674	0.0158472
813.753	0.0159254
813.831	0.0159534
813.909	0.0158479
813.987	0.0158037
814.065	0.0156777
814.143	0.0158143
814.221	0.0159798
814.299	0.0158651
814.378	0.0158192
814.456	0.0158653
814.534	0.0157982
814.612	0.0157302
814.690	0.0157900
814.768	0.0157802
814.846	0.0156712
814.924	0.0158144
815.003	0.0157951
815.081	0.0156517
815.159	0.0157693
815.237	0.0157986
815.315	0.0157313
815.393	0.0156831
815.471	0.0157667
815.549	0.0157800
815.628	0.0157701
815.706	0.0156837
815.784	0.0157985
815.862	0.0158645
815.940	0.0157872
816.018	0.0158080
816.096	0.0157330
816.174	0.0157131
816.253	0.0158426
816.331	0.0157392
816.409	0.0157811
816.487	0.0157753
816.565	0.0158937
816.643	0.0158506
816.721	0.0158817
816.799	0.0159143
816.878	0.0159201
816.956	0.0159109
817.034	0.0159045
817.112	0.0159603
817.190	0.0158925
817.268	0.0159555
817.346	0.0158738
817.424	0.0160262
817.503	0.0159628
817.581	0.0161362
817.659	0.0159561
817.737	0.0159184
817.815	0.0160475
817.893	0.0159259
817.971	0.0159323
818.049	0.0158485
818.128	0.0158154
818.206	0.0157321
818.284	0.0158673
818.362	0.0159200
818.440	0.0158915
818.518	0.0157633
818.596	0.0158706
818.674	0.0158858
818.753	0.0158713
818.831	0.0160851
818.909	0.0159077
818.987	0.0160547
819.065	0.0159593
819.143	0.0160175
819.221	0.0160226
819.299	0.0161132
819.378	0.0158394
819.456	0.0159795
819.534	0.0159449
819.612	0.0158064
819.690	0.0158987
819.768	0.0158678
819.846	0.0158840
819.924	0.0158157
820.003	0.0157545
820.081	0.0156671
820.159	0.0156380
820.237	0.0156711
820.315	0.0156039
820.393	0.0155640
820.471	0.0157131
820.549	0.0156419
820.628	0.0155327
820.706	0.0155142
820.784	0.0155128
820.862	0.0155834
820.940	0.0154507
821.018	0.0156081
821.096	0.0156628
821.174	0.0156131
821.253	0.0158040
821.331	0.0157888
821.409	0.0156975
821.487	0.0158472
821.565	0.0158268
821.643	0.0159917
821.721	0.0158529
821.799	0.0160236
821.878	0.0160426
821.956	0.0160941
822.034	0.0160314
822.112	0.0161132
822.190	0.0161620
822.268	0.0161003
822.346	0.0161360
822.424	0.0160278
822.503	0.0161404
822.581	0.0161127
822.659	0.0159916
822.737	0.0161090
822.815	0.0159153
822.893	0.0160989
822.971	0.0158724
823.049	0.0158437
823.128	0.0157862
823.206	0.0158106
823.284	0.0159016
823.362	0.0158102
823.440	0.0156864
823.518	0.0157314
823.596	0.0157909
823.674	0.0158113
823.753	0.0157114
823.831	0.0158094
823.909	0.0157673
823.987	0.0155311
824.065	0.0158165
824.143	0.0157816
824.221	0.0156588
824.299	0.0156319
824.378	0.0155241
824.456	0.0156378
824.534	0.0156305
824.612	0.0157104
824.690	0.0157012
824.768	0.0156245
824.846	0.0157192
824.924	0.0158323
825.003	0.0158173
825.081	0.0157271
825.159	0.0158624
825.237	0.0157681
825.315	0.0157276
825.393	0.0157288
825.471	0.0157931
825.549	0.0158484
825.628	0.0158698
825.706	0.0157024
825.784	0.0158894
825.862	0.0159924
825.940	0.0160047
826.018	0.0159171
826.096	0.0159930
826.174	0.0159560
826.253	0.0159885
826.331	0.0158907
826.409	0.0160181
826.487	0.0161259
826.565	0.0162054
826.643	0.0161121
826.721	0.0160602
826.799	0.0161758
826.878	0.0161916
826.956	0.0162118
827.034	0.0162211
827.112	0.0162076
827.190	0.0161047
827.268	0.0160996
827.346	0.0160941
827.424	0.0162259
827.503	0.0160026
827.581	0.0160673
827.659	0.0159813
827.737	0.0158532
827.815	0.0157873
827.893	0.0157404
827.971	0.0157442
828.049	0.0157803
828.128	0.0157229
828.206	0.0155699
828.284	0.0156660
828.362	0.0156677
828.440	0.0156615
828.518	0.0153565
828.596	0.0153636
828.674	0.0153858
828.753	0.0152950
828.831	0.0153243
828.909	0.0153584
828.987	0.0154240
829.065	0.0154118
829.143	0.0152956
829.221	0.0154187
829.299	0.0155041
829.378	0.0154810
829.456	0.0154263
829.534	0.0153952
829.612	0.0155309
829.690	0.0155663
829.768	0.0156292
829.846	0.0157034
829.924	0.0157539
830.003	0.0155497
830.081	0.0158842
830.159	0.0159673
830.237	0.0159151
830.315	0.0160526
830.393	0.0161742
830.471	0.0162096
830.549	0.0161875
830.628	0.0163380
830.706	0.0163046
830.784	0.0163928
830.862	0.0164777
830.940	0.0163353
831.018	0.0164892
831.096	0.0163480
831.174	0.0163921
831.253	0.0164022
831.331	0.0163542
831.409	0.0162982
831.487	0.0163558
831.565	0.0162457
831.643	0.0162267
831.721	0.0161474
831.799	0.0159726
831.878	0.0158669
831.956	0.0160130
832.034	0.0158779
832.112	0.0158575
832.190	0.0158749
832.268	0.0158657
832.346	0.0157201
832.424	0.0156613
832.503	0.0156559
832.581	0.0155316
832.659	0.0155676
832.737	0.0155422
832.815	0.0154362
832.893	0.0153961
832.971	0.0153777
833.049	0.0153619
833.128	0.0152099
833.206	0.0152813
833.284	0.0152097
833.362	0.0152931
833.440	0.0152022
833.518	0.0151698
833.596	0.0152637
833.674	0.0151251
833.753	0.0150791
833.831	0.0152888
833.909	0.0151756
833.987	0.0153784
834.065	0.0155048
834.143	0.0153965
834.221	0.0155930
834.299	0.0156670
834.378	0.0157617
834.456	0.0157548
834.534	0.0159181
834.612	0.0159646
834.690	0.0160113
834.768	0.0160229
834.846	0.0161703
834.924	0.0164360
835.003	0.0163075
835.081	0.0163010
835.159	0.0164589
835.237	0.0164438
835.315	0.0164416
835.393	0.0164565
835.471	0.0165312
835.549	0.0166017
835.628	0.0163887
835.706	0.0163805
835.784	0.0165495
835.862	0.0163644
835.940	0.0164041
836.018	0.0163774
836.096	0.0162991
836.174	0.0163256
836.253	0.0162360
836.331	0.0161919
836.409	0.0161213
836.487	0.0160517
836.565	0.0159905
836.643	0.0157991
836.721	0.0158817
836.799	0.0157426
836.878	0.0157050
836.956	0.0155701
837.034	0.0157193
837.112	0.0155579
837.190	0.0155547
837.268	0.0156268
837.346	0.0155589
837.424	0.0154835
837.503	0.0154762
837.581	0.0155962
837.659	0.0157011
837.737	0.0157075
837.815	0.0155698
837.893	0.0156300
837.971	0.0155396
838.049	0.0155060
838.128	0.0154793
838.206	0.0155241
838.284	0.0154751
838.362	0.0153957
838.440	0.0154671
838.518	0.0155074
838.596	0.0154373
838.674	0.0153571
838.753	0.0154179
838.831	0.0154427
838.909	0.0155045
838.987	0.0155231
839.065	0.0156145
839.143	0.0154347
839.221	0.0155747
839.299	0.0156390
839.378	0.0156755
839.456	0.0157361
839.534	0.0160558
839.612	0.0160056
839.690	0.0160384
839.768	0.0159397
839.846	0.0160468
839.924	0.0160024
840.003	0.0160345
840.081	0.0161555
840.159	0.0160801
840.237	0.0161411
840.315	0.0161297
840.393	0.0161050
840.471	0.0161555
840.549	0.0162505
840.628	0.0162672
840.706	0.0161747
840.784	0.0161863
840.862	0.0163335
840.940	0.0160815
841.018	0.0162115
841.096	0.0163962
841.174	0.0162759
841.253	0.0162521
841.331	0.0162880
841.409	0.0161595
841.487	0.0161924
841.565	0.0161579
841.643	0.0161400
841.721	0.0161182
841.799	0.0159576
841.878	0.0159826
841.956	0.0158614
842.034	0.0160026
842.112	0.0159749
842.190	0.0158829
842.268	0.0156407
842.346	0.0157211
842.424	0.0156976
842.503	0.0156407
842.581	0.0155514
842.659	0.0155497
842.737	0.0155231
842.815	0.0155239
842.893	0.0152537
842.971	0.0153230
843.049	0.0153070
843.128	0.0153472
843.206	0.0152464
843.284	0.0152638
843.362	0.0151756
843.440	0.0151302
843.518	0.0152296
843.596	0.0151146
843.674	0.0152443
843.753	0.0151559
843.831	0.0153710
843.909	0.0155034
843.987	0.0155238
844.065	0.0154974
844.143	0.0154330
844.221	0.0154813
844.299	0.0156446
844.378	0.0157172
844.456	0.0158621
844.534	0.0158418
844.612	0.0159772
844.690	0.0160375
844.768	0.0160146
844.846	0.0159613
844.924	0.0160995
845.003	0.0160874
845.081	0.0161884
845.159	0.0160734
845.237	0.0160740
845.315	0.0160886
845.393	0.0161212
845.471	0.0160531
845.549	0.0161199
845.628	0.0160237
845.706	0.0160826
845.784	0.0161584
845.862	0.0162331
845.940	0.0162074
846.018	0.0162030
846.096	0.0161440
846.174	0.0159741
846.253	0.0162180
846.331	0.0161821
846.409	0.0161377
846.487	0.0161263
846.565	0.0160536
846.643	0.0161140
846.721	0.0162428
846.799	0.0161250
846.878	0.0159628
846.956	0.0160669
847.034	0.0159613
847.112	0.0159640
847.190	0.0158611
847.268	0.0158022
847.346	0.0157343
847.424	0.0154871
847.503	0.0155124
847.581	0.0156361
847.659	0.0156460
847.737	0.0155126
847.815	0.0154305
847.893	0.0153480
847.971	0.0154472
848.049	0.0154257
848.128	0.0153453
848.206	0.0153168
848.284	0.0153625
848.362	0.0154853
848.440	0.0154691
848.518	0.0154385
848.596	0.0155499
848.674	0.0156284
848.753	0.0155968
848.831	0.0155472
848.909	0.0155310
848.987	0.0155633
849.065	0.0156641
849.143	0.0155830
849.221	0.0157165
849.299	0.0157455
849.378	0.0157721
849.456	0.0158340
849.534	0.0156570
849.612	0.0157941
849.690	0.0157651
849.768	0.0156202
849.846	0.0157362
849.924	0.0157355
850.003	0.0158959
850.081	0.0157815
850.159	0.0157521
850.237	0.0157935
850.315	0.0158728
850.393	0.0160224
850.471	0.0159442
850.549	0.0158997
850.628	0.0159783
850.706	0.0160894
850.784	0.0161333
850.862	0.0160668
850.940	0.0160332
851.018	0.0161748
851.096	0.0161828
851.174	0.0161979
851.253	0.0162856
851.331	0.0161941
851.409	0.0162074
851.487	0.0161713
851.565	0.0161879
851.643	0.0161209
851.721	0.0160759
851.799	0.0161833
851.878	0.0160589
851.956	0.0160048
852.034	0.0160073
852.112	0.0161109
852.190	0.0157609
852.268	0.0158659
852.346	0.0157909
852.424	0.0157421
852.503	0.0159731
852.581	0.0157935
852.659	0.0156952
852.737	0.0156830
852.815	0.0157848
852.893	0.0156034
852.971	0.0156534
853.049	0.0156533
853.128	0.0156917
853.206	0.0155466
853.284	0.0155322
853.362	0.0156271
853.440	0.0156318
853.518	0.0156159
853.596	0.0155373
853.674	0.0155208
853.753	0.0156166
853.831	0.0156482
853.909	0.0155698
853.987	0.0155697
854.065	0.0156896
854.143	0.0157071
854.221	0.0156133
854.299	0.0157247
854.378	0.0158955
854.456	0.0157049
854.534	0.0154088
854.612	0.0157123
854.690	0.0158636
854.768	0.0158100
854.846	0.0158252
854.924	0.0157466
855.003	0.0158857
855.081	0.0159898
855.159	0.0159261
855.237	0.0159284
855.315	0.0160209
855.393	0.0158144
855.471	0.0159718
855.549	0.0160494
855.628	0.0159056
855.706	0.0159277
855.784	0.0159076
855.862	0.0159963
855.940	0.0160048
856.018	0.0158749
856.096	0.0159126
856.174	0.0158760
856.253	0.0160165
856.331	0.0159827
856.409	0.0159296
856.487	0.0159741
856.565	0.0158112
856.643	0.0159696
856.721	0.0159959
856.799	0.0159690
856.878	0.0160424
856.956	0.0158640
857.034	0.0158242
857.112	0.0159406
857.190	0.0159725
857.268	0.0159445
857.346	0.0159744
857.424	0.0160747
857.503	0.0158698
857.581	0.0157238
857.659	0.0158447
857.737	0.0159300
857.815	0.0157569
857.893	0.0156938
857.971	0.0157428
858.049	0.0158121
858.128	0.0158103
858.206	0.0157483
858.284	0.0157392
858.362	0.0157750
858.440	0.0158192
858.518	0.0158452
858.596	0.0159478
858.674	0.0158103
858.753	0.0158113
858.831	0.0157941
858.909	0.0158337
858.987	0.0157504
859.065	0.0156071
859.143	0.0156872
859.221	0.0156927
859.299	0.0157515
859.378	0.0157188
859.456	0.0157304
859.534	0.0156588
859.612	0.0157761
859.690	0.0157226
859.768	0.0156844
859.846	0.0157600
859.924	0.0157523
860.003	0.0157398
860.081	0.0157226
860.159	0.0157590
860.237	0.0155589
860.315	0.0157348
860.393	0.0157871
860.471	0.0156750
860.549	0.0156236
860.628	0.0160056
860.706	0.0157038
860.784	0.0159466
860.862	0.0159763
860.940	0.0159679
861.018	0.0159265
861.096	0.0160081
861.174	0.0159286
861.253	0.0159383
861.331	0.0159545
861.409	0.0159938
861.487	0.0159013
861.565	0.0159481
861.643	0.0161560
861.721	0.0160158
861.799	0.0160563
861.878	0.0159994
861.956	0.0159253
862.034	0.0160146
862.112	0.0160915
862.190	0.0160378
862.268	0.0159089
862.346	0.0159295
862.424	0.0158680
862.503	0.0156907
862.581	0.0158944
862.659	0.0158692
862.737	0.0159503
862.815	0.0157373
862.893	0.0158196
862.971	0.0159702
863.049	0.0157245
863.128	0.0157825
863.206	0.0157544
863.284	0.0158138
863.362	0.0158482
863.440	0.0156920
863.518	0.0158118
863.596	0.0159234
863.674	0.0157915
863.753	0.0158193
863.831	0.0158328
863.909	0.0158425
863.987	0.0157724
864.065	0.0158600
864.143	0.0158852
864.221	0.0158353
864.299	0.0156835
864.378	0.0157217
864.456	0.0157276
864.534	0.0158533
864.612	0.0156232
864.690	0.0156768
864.768	0.0157222
864.846	0.0158352
864.924	0.0157537
865.003	0.0156887
865.081	0.0156610
865.159	0.0156255
865.237	0.0156355
865.315	0.0157510
865.393	0.0157413
865.471	0.0158466
865.549	0.0156046
865.628	0.0157872
865.706	0.0156049
865.784	0.0157525
865.862	0.0158036
865.940	0.0156468
866.018	0.0158096
866.096	0.0160213
866.174	0.0160095
866.253	0.0159355
866.331	0.0157822
866.409	0.0159352
866.487	0.0158428
866.565	0.0158817
866.643	0.0159816
866.721	0.0159761
866.799	0.0159345
866.878	0.0160765
866.956	0.0161017
867.034	0.0160800
867.112	0.0159067
867.190	0.0159090
867.268	0.0160066
867.346	0.0161172
867.424	0.0159999
867.503	0.0158512
867.581	0.0158724
867.659	0.0158614
867.737	0.0159320
867.815	0.0159502
867.893	0.0159450
867.971	0.0159412
868.049	0.0158780
868.128	0.0159793
868.206	0.0158906
868.284	0.0159708
868.362	0.0159045
868.440	0.0159547
868.518	0.0159371
868.596	0.0158140
868.674	0.0159702
868.753	0.0157919
868.831	0.0158566
868.909	0.0157814
868.987	0.0157932
869.065	0.0157655
869.143	0.0157755
869.221	0.0157584
869.299	0.0156412
869.378	0.0156783
869.456	0.0157578
869.534	0.0157406
869.612	0.0156157
869.690	0.0156259
869.768	0.0156956
869.846	0.0155333
869.924	0.0154933
870.003	0.0155909
870.081	0.0156572
870.159	0.0157314
870.237	0.0156953
870.315	0.0155466
870.393	0.0156213
870.471	0.0157875
870.549	0.0158411
870.628	0.0157780
870.706	0.0156796
870.784	0.0158525
870.862	0.0158833
870.940	0.0159776
871.018	0.0159411
871.096	0.0159326
871.174	0.0158881
871.253	0.0159356
871.331	0.0157549
871.409	0.0159972
871.487	0.0160873
871.565	0.0159561
871.643	0.0159502
871.721	0.0160549
871.799	0.0159380
871.878	0.0157857
871.956	0.0159600
872.034	0.0159517
872.112	0.0159853
872.190	0.0159126
872.268	0.0158704
872.346	0.0160839
872.424	0.0160853
872.503	0.0160774
872.581	0.0158630
872.659	0.0160672
872.737	0.0159197
872.815	0.0159346
872.893	0.0160378
872.971	0.0162390
873.049	0.0160195
873.128	0.0159998
873.206	0.0159814
873.284	0.0159564
873.362	0.0161035
873.440	0.0161311
873.518	0.0158266
873.596	0.0158696
873.674	0.0158789
873.753	0.0157875
873.831	0.0158705
873.909	0.0157503
873.987	0.0156584
874.065	0.0158014
874.143	0.0156821
874.221	0.0156313
874.299	0.0155954
874.378	0.0157434
874.456	0.0156986
874.534	0.0157143
874.612	0.0157044
874.690	0.0156855
874.768	0.0157319
874.846	0.0158724
874.924	0.0156892
875.003	0.0157001
875.081	0.0158157
875.159	0.0156960
875.237	0.0157121
875.315	0.0157722
875.393	0.0158730
875.471	0.0158575
875.549	0.0158004
875.628	0.0158688
875.706	0.0158734
875.784	0.0158621
875.862	0.0159208
875.940	0.0158093
876.018	0.0158815
876.096	0.0158198
876.174	0.0159755
876.253	0.0159289
876.331	0.0159039
876.409	0.0160091
876.487	0.0160332
876.565	0.0159908
876.643	0.0159845
876.721	0.0160298
876.799	0.0158918
876.878	0.0159370
876.956	0.0160731
877.034	0.0160321
877.112	0.0158316
877.190	0.0158707
877.268	0.0160626
877.346	0.0160608
877.424	0.0160717
877.503	0.0158059
877.581	0.0159930
877.659	0.0158671
877.737	0.0159328
877.815	0.0159599
877.893	0.0159930
877.971	0.0158911
878.049	0.0159096
878.128	0.0157381
878.206	0.0157455
878.284	0.0157175
878.362	0.0159129
878.440	0.0158733
878.518	0.0158052
878.596	0.0158379
878.674	0.0158571
878.753	0.0158026
878.831	0.0157962
878.909	0.0157677
878.987	0.0157873
879.065	0.0156998
879.143	0.0157059
879.221	0.0157819
879.299	0.0157130
879.378	0.0156509
879.456	0.0154406
879.534	0.0156767
879.612	0.0157543
879.690	0.0156654
879.768	0.0156587
879.846	0.0157497
879.924	0.0158409
880.003	0.0156927
880.081	0.0157973
880.159	0.0158339
880.237	0.0158528
880.315	0.0157532
880.393	0.0158951
880.471	0.0157832
880.549	0.0158253
880.628	0.0158282
880.706	0.0157624
880.784	0.0158132
880.862	0.0159291
880.940	0.0158190
881.018	0.0158152
881.096	0.0157414
881.174	0.0159039
881.253	0.0157717
881.331	0.0157497
881.409	0.0159279
881.487	0.0158615
881.565	0.0158380
881.643	0.0158778
881.721	0.0159112
881.799	0.0157629
881.878	0.0158328
881.956	0.0158694
882.034	0.0159053
882.112	0.0157520
882.190	0.0158649
882.268	0.0158966
882.346	0.0158801
882.424	0.0158522
882.503	0.0158064
882.581	0.0159827
882.659	0.0158006
882.737	0.0159301
882.815	0.0157488
882.893	0.0159145
882.971	0.0158656
883.049	0.0158672
883.128	0.0157887
883.206	0.0158634
883.284	0.0159177
883.362	0.0157807
883.440	0.0158041
883.518	0.0160414
883.596	0.0159174
883.674	0.0158515
883.753	0.0158998
883.831	0.0158530
883.909	0.0159367
883.987	0.0158397
884.065	0.0159300
884.143	0.0159692
884.221	0.0157479
884.299	0.0156614
884.378	0.0158718
884.456	0.0157461
884.534	0.0158222
884.612	0.0157813
884.690	0.0157103
884.768	0.0158042
884.846	0.0157661
884.924	0.0157371
885.003	0.0156958
885.081	0.0157469
885.159	0.0157535
885.237	0.0157022
885.315	0.0158483
885.393	0.0157056
885.471	0.0156963
885.549	0.0158059
885.628	0.0157912
885.706	0.0158568
885.784	0.0158205
885.862	0.0159046
885.940	0.0158578
886.018	0.0157465
886.096	0.0158195
886.174	0.0159112
886.253	0.0159257
886.331	0.0159094
886.409	0.0159431
886.487	0.0158855
886.565	0.0158592
886.643	0.0157671
886.721	0.0159068
886.799	0.0158625
886.878	0.0159010
886.956	0.0160918
887.034	0.0159213
887.112	0.0158852
887.190	0.0158301
887.268	0.0158865
887.346	0.0158809
887.424	0.0158206
887.503	0.0157518
887.581	0.0157225
887.659	0.0158568
887.737	0.0158319
887.815	0.0158391
887.893	0.0157755
887.971	0.0158118
888.049	0.0157749
888.128	0.0157218
888.206	0.0158773
888.284	0.0158838
888.362	0.0158051
888.440	0.0157973
888.518	0.0158968
888.596	0.0158469
888.674	0.0159512
888.753	0.0159282
888.831	0.0158817
888.909	0.0159814
888.987	0.0158226
889.065	0.0158611
889.143	0.0159131
889.221	0.0159031
889.299	0.0159193
889.378	0.0158095
889.456	0.0157949
889.534	0.0159496
889.612	0.0158047
889.690	0.0157669
889.768	0.0157574
889.846	0.0158545
889.924	0.0158212
890.003	0.0157849
890.081	0.0156595
890.159	0.0157294
890.237	0.0158246
890.315	0.0158229
890.393	0.0157834
890.471	0.0156504
890.549	0.0156273
890.628	0.0157224
890.706	0.0157317
890.784	0.0157793
890.862	0.0157275
890.940	0.0158901
891.018	0.0157561
891.096	0.0157477
891.174	0.0156184
891.253	0.0158354
891.331	0.0159002
891.409	0.0158078
891.487	0.0158905
891.565	0.0156837
891.643	0.0157864
891.721	0.0159224
891.799	0.0156699
891.878	0.0158442
891.956	0.0158887
892.034	0.0158793
892.112	0.0157420
892.190	0.0157794
892.268	0.0159907
892.346	0.0157281
892.424	0.0157329
892.503	0.0160207
892.581	0.0159430
892.659	0.0157870
892.737	0.0157300
892.815	0.0158311
892.893	0.0158791
892.971	0.0158929
893.049	0.0159548
893.128	0.0158641
893.206	0.0158486
893.284	0.0158256
893.362	0.0157713
893.440	0.0158237
893.518	0.0158064
893.596	0.0158795
893.674	0.0157588
893.753	0.0156965
893.831	0.0158045
893.909	0.0157554
893.987	0.0158155
894.065	0.0158207
894.143	0.0158519
894.221	0.0157455
894.299	0.0159529
894.378	0.0159092
894.456	0.0157399
894.534	0.0158257
894.612	0.0157703
894.690	0.0158380
894.768	0.0157576
894.846	0.0157937
894.924	0.0158264
895.003	0.0158179
895.081	0.0157616
895.159	0.0158418
895.237	0.0158565
895.315	0.0157568
895.393	0.0157596
895.471	0.0158444
895.549	0.0158164
895.628	0.0159324
895.706	0.0158783
895.784	0.0158589
895.862	0.0158291
895.940	0.0158115
896.018	0.0159411
896.096	0.0158320
896.174	0.0159330
896.253	0.0157659
896.331	0.0157296
896.409	0.0159296
896.487	0.0158665
896.565	0.0158416
896.643	0.0157400
896.721	0.0157504
896.799	0.0158100
896.878	0.0158021
896.956	0.0158781
897.034	0.0157272
897.112	0.0158254
897.190	0.0159138
897.268	0.0160011
897.346	0.0159541
897.424	0.0158631
897.503	0.0158990
897.581	0.0159930
897.659	0.0159806
897.737	0.0159858
897.815	0.0158549
897.893	0.0157077
897.971	0.0159343
898.049	0.0159403
898.128	0.0158124
898.206	0.0159662
898.284	0.0158091
898.362	0.0159455
898.440	0.0159644
898.518	0.0158135
898.596	0.0157998
898.674	0.0159918
898.753	0.0158958
898.831	0.0158983
898.909	0.0158663
898.987	0.0160069
899.065	0.0159143
899.143	0.0158897
899.221	0.0158567
899.299	0.0160209
899.378	0.0159872
899.456	0.0158743
899.534	0.0159705
899.612	0.0157293
899.690	0.0157816
899.768	0.0158672
899.846	0.0157409
899.924	0.0159188
900.003	0.0159210
900.081	0.0158686
900.159	0.0158111
900.237	0.0157353
900.315	0.0157887
900.393	0.0158437
900.471	0.0159129
900.549	0.0159186
900.628	0.0158214
900.706	0.0157984
900.784	0.0158686
900.862	0.0156583
900.940	0.0158356
901.018	0.0157664
901.096	0.0158018
901.174	0.0157845
901.253	0.0157977
901.331	0.0156702
901.409	0.0158419
901.487	0.0158219
901.565	0.0157881
901.643	0.0158620
901.721	0.0157523
901.799	0.0157823
901.878	0.0157471
901.956	0.0159079
902.034	0.0157178
902.112	0.0157540
902.190	0.0157680
902.268	0.0157503
902.346	0.0157906
902.424	0.0158709
902.503	0.0158781
902.581	0.0157915
902.659	0.0158528
902.737	0.0156965
902.815	0.0158919
902.893	0.0159108
902.971	0.0158557
903.049	0.0160097
903.128	0.0160112
903.206	0.0159013
903.284	0.0158958
903.362	0.0158962
903.440	0.0158375
903.518	0.0157344
903.596	0.0158057
903.674	0.0158843
903.753	0.0159510
903.831	0.0158753
903.909	0.0159039
903.987	0.0158688
904.065	0.0157928
904.143	0.0158793
904.221	0.0158012
904.299	0.0157935
904.378	0.0158523
904.456	0.0158092
904.534	0.0158162
904.612	0.0158050
904.690	0.0156737
904.768	0.0157964
904.846	0.0157540
904.924	0.0157732
905.003	0.0157170
905.081	0.0158794
905.159	0.0156579
905.237	0.0158704
905.315	0.0158109
905.393	0.0157133
905.471	0.0157307
905.549	0.0157068
905.628	0.0158188
905.706	0.0157046
905.784	0.0159272
905.862	0.0157385
905.940	0.0158371
906.018	0.0158437
906.096	0.0157938
906.174	0.0158571
906.253	0.0158355
906.331	0.0158294
906.409	0.0157883
906.487	0.0158852
906.565	0.0159646
906.643	0.0159456
906.721	0.0157401
906.799	0.0157536
906.878	0.0159419
906.956	0.0157980
907.034	0.0159028
907.112	0.0158260
907.190	0.0157280
907.268	0.0157635
907.346	0.0158762
907.424	0.0159624
907.503	0.0158142
907.581	0.0155777
907.659	0.0156728
907.737	0.0156441
907.815	0.0156680
907.893	0.0158129
907.971	0.0158116
908.049	0.0157088
908.128	0.0157737
908.206	0.0157773
908.284	0.0159126
908.362	0.0157855
908.440	0.0157883
908.518	0.0158080
908.596	0.0159407
908.674	0.0159154
908.753	0.0159251
908.831	0.0159594
908.909	0.0158913
908.987	0.0159740
909.065	0.0160371
909.143	0.0158360
909.221	0.0158439
909.299	0.0159222
909.378	0.0158827
909.456	0.0157770
909.534	0.0158235
909.612	0.0157805
909.690	0.0157215
909.768	0.0157395
909.846	0.0158529
909.924	0.0158183
910.003	0.0156833
910.081	0.0157040
910.159	0.0158309
910.237	0.0158308
910.315	0.0157147
910.393	0.0159010
910.471	0.0158810
910.549	0.0157548
910.628	0.0156676
910.706	0.0156901
910.784	0.0158875
910.862	0.0157316
910.940	0.0157656
911.018	0.0159261
911.096	0.0158669
911.174	0.0159763
911.253	0.0159525
911.331	0.0160532
911.409	0.0158662
911.487	0.0159300
911.565	0.0159977
911.643	0.0160281
911.721	0.0161151
911.799	0.0158862
911.878	0.0158916
911.956	0.0159128
912.034	0.0157706
912.112	0.0159148
912.190	0.0157168
912.268	0.0155809
912.346	0.0157456
912.424	0.0157130
912.503	0.0156610
912.581	0.0157385
912.659	0.0157263
912.737	0.0156081
912.815	0.0156595
912.893	0.0156039
912.971	0.0157413
913.049	0.0158446
913.128	0.0158652
913.206	0.0160815
913.284	0.0160430
913.362	0.0159304
913.440	0.0159310
913.518	0.0159985
913.596	0.0160838
913.674	0.0159803
913.753	0.0158076
913.831	0.0159378
913.909	0.0160220
913.987	0.0159816
914.065	0.0159302
914.143	0.0159372
914.221	0.0159174
914.299	0.0159696
914.378	0.0160593
914.456	0.0158719
914.534	0.0160024
914.612	0.0159396
914.690	0.0158923
914.768	0.0159017
914.846	0.0158177
914.924	0.0158202
915.003	0.0157993
915.081	0.0156723
915.159	0.0157829
915.237	0.0157626
915.315	0.0156925
915.393	0.0157337
915.471	0.0156929
915.549	0.0158410
915.628	0.0156878
915.706	0.0158136
915.784	0.0158205
915.862	0.0158994
915.940	0.0157937
916.018	0.0159085
916.096	0.0159266
916.174	0.0159387
916.253	0.0159966
916.331	0.0159957
916.409	0.0159929
916.487	0.0159033
916.565	0.0159641
916.643	0.0160870
916.721	0.0159819
916.799	0.0159737
916.878	0.0160294
916.956	0.0160936
917.034	0.0160561
917.112	0.0160392
917.190	0.0160168
917.268	0.0160363
917.346	0.0161459
917.424	0.0158653
917.503	0.0158581
917.581	0.0158861
917.659	0.0158000
917.737	0.0157655
917.815	0.0156947
917.893	0.0156615
917.971	0.0156875
918.049	0.0155412
918.128	0.0155370
918.206	0.0155463
918.284	0.0155267
918.362	0.0155366
918.440	0.0155748
918.518	0.0155817
918.596	0.0156168
918.674	0.0157716
918.753	0.0158478
918.831	0.0157130
918.909	0.0159139
918.987	0.0157993
919.065	0.0158823
919.143	0.0159561
919.221	0.0159013
919.299	0.0158819
919.378	0.0158878
919.456	0.0159306
919.534	0.0158878
919.612	0.0159096
919.690	0.0159537
919.768	0.0158915
919.846	0.0160048
919.924	0.0160103
920.003	0.0159035
920.081	0.0157822
920.159	0.0158405
920.237	0.0159976
920.315	0.0158884
920.393	0.0157951
920.471	0.0157327
920.549	0.0158382
920.628	0.0159892
920.706	0.0158673
920.784	0.0157227
920.862	0.0158276
920.940	0.0158990
921.018	0.0160073
921.096	0.0158511
921.174	0.0157816
921.253	0.0159380
921.331	0.0160783
921.409	0.0160114
921.487	0.0158722
921.565	0.0160686
921.643	0.0158829
921.721	0.0159252
921.799	0.0158704
921.878	0.0158633
921.956	0.0159951
922.034	0.0159415
922.112	0.0157614
922.190	0.0157307
922.268	0.0158383
922.346	0.0157635
922.424	0.0157809
922.503	0.0157653
922.581	0.0157443
922.659	0.0156321
922.737	0.0156453
922.815	0.0159020
922.893	0.0158128
922.971	0.0157040
923.049	0.0157380
923.128	0.0157284
923.206	0.0157269
923.284	0.0158535
923.362	0.0158212
923.440	0.0157252
923.518	0.0159055
923.596	0.0157703
923.674	0.0157896
923.753	0.0157450
923.831	0.0158463
923.909	0.0157936
923.987	0.0157565
924.065	0.0158409
924.143	0.0158374
924.221	0.0157561
924.299	0.0158069
924.378	0.0158154
924.456	0.0157968
924.534	0.0159217
924.612	0.0160357
924.690	0.0159035
924.768	0.0159259
924.846	0.0160848
924.924	0.0161079
925.003	0.0159423
925.081	0.0160197
925.159	0.0160167
925.237	0.0160710
925.315	0.0159064
925.393	0.0159813
925.471	0.0160361
925.549	0.0159344
925.628	0.0159586
925.706	0.0161235
925.784	0.0160094
925.862	0.0158334
925.940	0.0158260
926.018	0.0159266
926.096	0.0159377
926.174	0.0158417
926.253	0.0158026
926.331	0.0158656
926.409	0.0157098
926.487	0.0156570
926.565	0.0157946
926.643	0.0157197
926.721	0.0158090
926.799	0.0157619
926.878	0.0157543
926.956	0.0157626
927.034	0.0157874
927.112	0.0158659
927.190	0.0158762
927.268	0.0158013
927.346	0.0157247
927.424	0.0158079
927.503	0.0159450
927.581	0.0156966
927.659	0.0157323
927.737	0.0158918
927.815	0.0156444
927.893	0.0157743
927.971	0.0157710
928.049	0.0158208
928.128	0.0159552
928.206	0.0159054
928.284	0.0157922
928.362	0.0159011
928.440	0.0157963
928.518	0.0157724
928.596	0.0158853
928.674	0.0157925
928.753	0.0158308
928.831	0.0156599
928.909	0.0157480
928.987	0.0156212
929.065	0.0158232
929.143	0.0157600
929.221	0.0157818
929.299	0.0157352
929.378	0.0155743
929.456	0.0157133
929.534	0.0156408
929.612	0.0156379
929.690	0.0157511
929.768	0.0158544
929.846	0.0159875
929.924	0.0159435
930.003	0.0158612
930.081	0.0158695
930.159	0.0160357
930.237	0.0159057
930.315	0.0159209
930.393	0.0159554
930.471	0.0158543
930.549	0.0158842
930.628	0.0158194
930.706	0.0158699
930.784	0.0157498
930.862	0.0158376
930.940	0.0156970
931.018	0.0158481
931.096	0.0156641
931.174	0.0158265
931.253	0.0158827
931.331	0.0158907
931.409	0.0158707
931.487	0.0159278
931.565	0.0159065
931.643	0.0158750
931.721	0.0158621
931.799	0.0159120
931.878	0.0160177
931.956	0.0160519
932.034	0.0159158
932.112	0.0159546
932.190	0.0159846
932.268	0.0158192
932.346	0.0158246
932.424	0.0158999
932.503	0.0158613
932.581	0.0159152
932.659	0.0159042
932.737	0.0158133
932.815	0.0160642
932.893	0.0160441
932.971	0.0158085
933.049	0.0160092
933.128	0.0158873
933.206	0.0157726
933.284	0.0158539
933.362	0.0157891
933.440	0.0158527
933.518	0.0157079
933.596	0.0157632
933.674	0.0156902
933.753	0.0157943
933.831	0.0156546
933.909	0.0157184
933.987	0.0154962
934.065	0.0155383
934.143	0.0158504
934.221	0.0156815
934.299	0.0157220
934.378	0.0157249
934.456	0.0156862
934.534	0.0156845
934.612	0.0158241
934.690	0.0158918
934.768	0.0159557
934.846	0.0157270
934.924	0.0159154
935.003	0.0157330
935.081	0.0159657
935.159	0.0159686
935.237	0.0159699
935.315	0.0159332
935.393	0.0159361
935.471	0.0158437
935.549	0.0157935
935.628	0.0158188
935.706	0.0158214
935.784	0.0158923
935.862	0.0157664
935.940	0.0158177
936.018	0.0160155
936.096	0.0158852
936.174	0.0159207
936.253	0.0159367
936.331	0.0160221
936.409	0.0159530
936.487	0.0158539
936.565	0.0159113
936.643	0.0159566
936.721	0.0158958
936.799	0.0159192
936.878	0.0158391
936.956	0.0158302
937.034	0.0157455
937.112	0.0157579
937.190	0.0157400
937.268	0.0157310
937.346	0.0157339
937.424	0.0157343
937.503	0.0156496
937.581	0.0157798
937.659	0.0159229
937.737	0.0157746
937.815	0.0158526
937.893	0.0159106
937.971	0.0159004
938.049	0.0158994
938.128	0.0159776
938.206	0.0158434
938.284	0.0159559
938.362	0.0159300
938.440	0.0159895
938.518	0.0159449
938.596	0.0159155
938.674	0.0157562
938.753	0.0156871
938.831	0.0157410
938.909	0.0157214
938.987	0.0157133
939.065	0.0156872
939.143	0.0157516
939.221	0.0157624
939.299	0.0157768
939.378	0.0159522
939.456	0.0158843
939.534	0.0158458
939.612	0.0158648
939.690	0.0159579
939.768	0.0158308
939.846	0.0160025
939.924	0.0159456
940.003	0.0159467
940.081	0.0159551
940.159	0.0159873
940.237	0.0160026
940.315	0.0158556
940.393	0.0158010
940.471	0.0156153
940.549	0.0157039
940.628	0.0156790
940.706	0.0157652
940.784	0.0158445
940.862	0.0158294
940.940	0.0157268
941.018	0.0157599
941.096	0.0157358
941.174	0.0158298
941.253	0.0159476
941.331	0.0159366
941.409	0.0157804
941.487	0.0157441
941.565	0.0158190
941.643	0.0158466
941.721	0.0157500
941.799	0.0157848
941.878	0.0156912
941.956	0.0158460
942.034	0.0157156
942.112	0.0157207
942.190	0.0156485
942.268	0.0156476
942.346	0.0157294
942.424	0.0156947
942.503	0.0156740
942.581	0.0155311
942.659	0.0157480
942.737	0.0157580
942.815	0.0158154
942.893	0.0158276
942.971	0.0157664
943.049	0.0158289
943.128	0.0158342
943.206	0.0159153
943.284	0.0159451
943.362	0.0159504
943.440	0.0158394
943.518	0.0159076
943.596	0.0158772
943.674	0.0159426
943.753	0.0159267
943.831	0.0158665
943.909	0.0159530
943.987	0.0158186
944.065	0.0157867
944.143	0.0159841
944.221	0.0157661
944.299	0.0159446
944.378	0.0160275
944.456	0.0159270
944.534	0.0158900
944.612	0.0158984
944.690	0.0158535
944.768	0.0160760
944.846	0.0159456
944.924	0.0159587
945.003	0.0161155
945.081	0.0160432
945.159	0.0160486
945.237	0.0158988
945.315	0.0158696
945.393	0.0158514
945.471	0.0159170
945.549	0.0158986
945.628	0.0159544
945.706	0.0158968
945.784	0.0158100
945.862	0.0159019
945.940	0.0158407
946.018	0.0159415
946.096	0.0159044
946.174	0.0158287
946.253	0.0159537
946.331	0.0158877
946.409	0.0158585
946.487	0.0159040
946.565	0.0157544
946.643	0.0157514
946.721	0.0157203
946.799	0.0157398
946.878	0.0155900
946.956	0.0156530
947.034	0.0155730
947.112	0.0155104
947.190	0.0155013
947.268	0.0156053
947.346	0.0156436
947.424	0.0156480
947.503	0.0156293
947.581	0.0156626
947.659	0.0156673
947.737	0.0157522
947.815	0.0158765
947.893	0.0159535
947.971	0.0158167
948.049	0.0157794
948.128	0.0159339
948.206	0.0159071
948.284	0.0158810
948.362	0.0159120
948.440	0.0160447
948.518	0.0159639
948.596	0.0159225
948.674	0.0157696
948.753	0.0160313
948.831	0.0158819
948.909	0.0158640
948.987	0.0159673
949.065	0.0158776
949.143	0.0159632
949.221	0.0158422
949.299	0.0159378
949.378	0.0159506
949.456	0.0159131
949.534	0.0158921
949.612	0.0159154
949.690	0.0159809
949.768	0.0158721
949.846	0.0159506
949.924	0.0159828
