06/29/2022	22:55:05	Ver.	4.1	UNKNOWN
Optical Delay	630.002507	Delta X		0.078125	Sweeps	1	Scan Rate	0/0
Coordinates	Axis 1	NaN	Axis 2	NaN	Axis 3	NaN	Axis 4	NaN	Axis 5	NaN	Axis 6	0.000000
TX Power	0.000000	RX Power	0.000000

630.003	0.0162172
630.081	0.0162506
630.159	0.0161443
630.237	0.0162182
630.315	0.0162229
630.393	0.0162170
630.471	0.0162495
630.549	0.0163181
630.628	0.0162296
630.706	0.0162604
630.784	0.0161404
630.862	0.0162179
630.940	0.0160400
631.018	0.0161017
631.096	0.0160951
631.174	0.0162122
631.253	0.0162792
631.331	0.0162584
631.409	0.0162028
631.487	0.0161979
631.565	0.0163206
631.643	0.0162733
631.721	0.0162650
631.799	0.0162243
631.878	0.0162205
631.956	0.0161589
632.034	0.0161517
632.112	0.0163687
632.190	0.0162232
632.268	0.0162072
632.346	0.0162173
632.424	0.0161908
632.503	0.0162149
632.581	0.0162605
632.659	0.0162544
632.737	0.0162357
632.815	0.0161713
632.893	0.0162756
632.971	0.0163797
633.049	0.0162851
633.128	0.0163364
633.206	0.0163026
633.284	0.0163516
633.362	0.0163145
633.440	0.0162106
633.518	0.0162262
633.596	0.0163110
633.674	0.0163075
633.753	0.0162163
633.831	0.0162297
633.909	0.0161720
633.987	0.0161708
634.065	0.0163163
634.143	0.0160418
634.221	0.0162192
634.299	0.0163380
634.378	0.0161998
634.456	0.0161802
634.534	0.0162115
634.612	0.0161163
634.690	0.0161833
634.768	0.0163132
634.846	0.0162566
634.924	0.0162837
635.003	0.0161819
635.081	0.0162893
635.159	0.0161580
635.237	0.0162226
635.315	0.0161845
635.393	0.0162208
635.471	0.0162350
635.549	0.0161362
635.628	0.0161877
635.706	0.0161318
635.784	0.0161586
635.862	0.0163652
635.940	0.0162901
636.018	0.0160427
636.096	0.0160806
636.174	0.0162324
636.253	0.0161274
636.331	0.0161436
636.409	0.0161722
636.487	0.0161512
636.565	0.0162099
636.643	0.0163388
636.721	0.0161983
636.799	0.0163383
636.878	0.0162674
636.956	0.0162791
637.034	0.0160835
637.112	0.0162615
637.190	0.0161737
637.268	0.0161591
637.346	0.0161897
637.424	0.0161993
637.503	0.0162730
637.581	0.0161321
637.659	0.0160516
637.737	0.0162223
637.815	0.0161443
637.893	0.0162308
637.971	0.0163235
638.049	0.0160836
638.128	0.0162213
638.206	0.0163889
638.284	0.0161677
638.362	0.0161807
638.440	0.0161946
638.518	0.0162593
638.596	0.0162757
638.674	0.0162563
638.753	0.0162051
638.831	0.0161608
638.909	0.0161868
638.987	0.0162151
639.065	0.0162019
639.143	0.0160876
639.221	0.0161214
639.299	0.0162218
639.378	0.0162133
639.456	0.0161369
639.534	0.0161809
639.612	0.0162112
639.690	0.0163152
639.768	0.0162000
639.846	0.0162018
639.924	0.0161073
640.003	0.0162619
640.081	0.0162199
640.159	0.0162695
640.237	0.0163117
640.315	0.0162631
640.393	0.0164094
640.471	0.0161785
640.549	0.0160961
640.628	0.0162682
640.706	0.0162898
640.784	0.0163000
640.862	0.0162523
640.940	0.0162123
641.018	0.0161744
641.096	0.0160777
641.174	0.0161826
641.253	0.0162331
641.331	0.0162950
641.409	0.0162815
641.487	0.0162029
641.565	0.0164078
641.643	0.0162431
641.721	0.0160582
641.799	0.0162022
641.878	0.0162488
641.956	0.0161726
642.034	0.0161932
642.112	0.0162870
642.190	0.0162148
642.268	0.0162656
642.346	0.0161912
642.424	0.0162134
642.503	0.0163009
642.581	0.0162778
642.659	0.0161330
642.737	0.0161270
642.815	0.0162632
642.893	0.0162425
642.971	0.0160384
643.049	0.0161966
643.128	0.0162174
643.206	0.0162960
643.284	0.0161777
643.362	0.0161497
643.440	0.0161276
643.518	0.0162182
643.596	0.0161295
643.674	0.0163014
643.753	0.0161561
643.831	0.0162399
643.909	0.0161453
643.987	0.0162393
644.065	0.0162181
644.143	0.0161912
644.221	0.0161842
644.299	0.0163161
644.378	0.0161349
644.456	0.0162869
644.534	0.0162659
644.612	0.0162193
644.690	0.0162333
644.768	0.0162347
644.846	0.0161031
644.924	0.0163223
645.003	0.0161433
645.081	0.0161765
645.159	0.0163210
645.237	0.0162310
645.315	0.0161229
645.393	0.0162351
645.471	0.0163421
645.549	0.0161758
645.628	0.0160949
645.706	0.0162103
645.784	0.0161882
645.862	0.0161686
645.940	0.0162524
646.018	0.0162036
646.096	0.0161068
646.174	0.0162084
646.253	0.0161986
646.331	0.0162403
646.409	0.0162457
646.487	0.0161212
646.565	0.0161857
646.643	0.0163407
646.721	0.0162247
646.799	0.0163044
646.878	0.0162648
646.956	0.0161820
647.034	0.0162309
647.112	0.0163552
647.190	0.0162017
647.268	0.0162037
647.346	0.0162076
647.424	0.0161791
647.503	0.0163178
647.581	0.0161877
647.659	0.0162226
647.737	0.0163338
647.815	0.0162295
647.893	0.0163228
647.971	0.0163020
648.049	0.0161863
648.128	0.0163183
648.206	0.0163428
648.284	0.0160670
648.362	0.0161870
648.440	0.0162274
648.518	0.0161958
648.596	0.0163115
648.674	0.0161841
648.753	0.0162146
648.831	0.0161847
648.909	0.0161614
648.987	0.0162573
649.065	0.0162563
649.143	0.0162363
649.221	0.0161784
649.299	0.0161421
649.378	0.0162718
649.456	0.0163316
649.534	0.0162556
649.612	0.0161188
649.690	0.0161721
649.768	0.0162066
649.846	0.0161522
649.924	0.0162202
650.003	0.0160783
650.081	0.0162390
650.159	0.0162038
650.237	0.0162468
650.315	0.0162516
650.393	0.0161667
650.471	0.0161980
650.549	0.0161575
650.628	0.0162411
650.706	0.0161929
650.784	0.0163339
650.862	0.0162267
650.940	0.0162251
651.018	0.0162481
651.096	0.0162069
651.174	0.0162793
651.253	0.0161842
651.331	0.0161333
651.409	0.0162164
651.487	0.0161092
651.565	0.0161903
651.643	0.0162227
651.721	0.0162875
651.799	0.0162904
651.878	0.0161557
651.956	0.0162796
652.034	0.0163568
652.112	0.0161303
652.190	0.0162968
652.268	0.0162454
652.346	0.0160764
652.424	0.0161198
652.503	0.0161793
652.581	0.0161947
652.659	0.0162338
652.737	0.0161882
652.815	0.0161387
652.893	0.0161703
652.971	0.0162355
653.049	0.0161929
653.128	0.0162426
653.206	0.0162505
653.284	0.0162075
653.362	0.0161740
653.440	0.0162145
653.518	0.0161964
653.596	0.0161862
653.674	0.0161563
653.753	0.0161658
653.831	0.0161160
653.909	0.0162978
653.987	0.0163464
654.065	0.0162263
654.143	0.0161871
654.221	0.0162829
654.299	0.0162576
654.378	0.0162988
654.456	0.0161474
654.534	0.0162650
654.612	0.0163657
654.690	0.0162157
654.768	0.0159813
654.846	0.0161134
654.924	0.0162332
655.003	0.0162000
655.081	0.0161514
655.159	0.0161770
655.237	0.0161893
655.315	0.0160838
655.393	0.0162533
655.471	0.0162714
655.549	0.0161223
655.628	0.0161920
655.706	0.0163293
655.784	0.0161804
655.862	0.0162781
655.940	0.0161926
656.018	0.0162231
656.096	0.0163407
656.174	0.0161891
656.253	0.0161813
656.331	0.0162074
656.409	0.0160928
656.487	0.0161710
656.565	0.0162169
656.643	0.0162251
656.721	0.0162125
656.799	0.0162339
656.878	0.0161201
656.956	0.0162405
657.034	0.0162313
657.112	0.0162217
657.190	0.0161841
657.268	0.0161421
657.346	0.0161374
657.424	0.0162498
657.503	0.0163554
657.581	0.0161197
657.659	0.0162111
657.737	0.0162229
657.815	0.0162627
657.893	0.0162722
657.971	0.0161871
658.049	0.0162814
658.128	0.0160938
658.206	0.0161983
658.284	0.0161189
658.362	0.0162861
658.440	0.0161144
658.518	0.0161207
658.596	0.0161572
658.674	0.0161798
658.753	0.0161763
658.831	0.0161827
658.909	0.0162440
658.987	0.0163531
659.065	0.0162669
659.143	0.0161202
659.221	0.0162467
659.299	0.0162617
659.378	0.0160446
659.456	0.0162159
659.534	0.0162624
659.612	0.0161624
659.690	0.0161091
659.768	0.0161067
659.846	0.0161211
659.924	0.0162663
660.003	0.0163852
660.081	0.0162597
660.159	0.0162742
660.237	0.0162046
660.315	0.0162836
660.393	0.0161356
660.471	0.0160796
660.549	0.0163052
660.628	0.0162640
660.706	0.0161166
660.784	0.0162024
660.862	0.0161137
660.940	0.0162864
661.018	0.0160873
661.096	0.0161117
661.174	0.0161604
661.253	0.0161457
661.331	0.0162764
661.409	0.0162148
661.487	0.0162460
661.565	0.0162314
661.643	0.0163402
661.721	0.0163141
661.799	0.0161926
661.878	0.0161871
661.956	0.0162181
662.034	0.0162050
662.112	0.0162057
662.190	0.0162745
662.268	0.0161810
662.346	0.0161296
662.424	0.0162881
662.503	0.0161914
662.581	0.0159916
662.659	0.0161857
662.737	0.0162827
662.815	0.0162396
662.893	0.0161259
662.971	0.0161150
663.049	0.0161499
663.128	0.0161922
663.206	0.0160699
663.284	0.0162148
663.362	0.0162042
663.440	0.0161302
663.518	0.0163154
663.596	0.0161932
663.674	0.0162997
663.753	0.0161345
663.831	0.0161204
663.909	0.0162107
663.987	0.0161753
664.065	0.0162547
664.143	0.0162836
664.221	0.0162286
664.299	0.0163004
664.378	0.0162671
664.456	0.0161595
664.534	0.0161749
664.612	0.0161887
664.690	0.0163970
664.768	0.0162500
664.846	0.0161444
664.924	0.0162450
665.003	0.0161774
665.081	0.0161800
665.159	0.0161934
665.237	0.0162582
665.315	0.0162601
665.393	0.0161640
665.471	0.0162231
665.549	0.0161195
665.628	0.0161839
665.706	0.0162893
665.784	0.0163273
665.862	0.0161416
665.940	0.0161343
666.018	0.0161560
666.096	0.0160801
666.174	0.0161564
666.253	0.0162002
666.331	0.0161602
666.409	0.0161777
666.487	0.0162174
666.565	0.0162434
666.643	0.0162322
666.721	0.0160799
666.799	0.0161290
666.878	0.0163487
666.956	0.0162306
667.034	0.0162773
667.112	0.0161179
667.190	0.0161224
667.268	0.0162752
667.346	0.0162050
667.424	0.0161537
667.503	0.0162907
667.581	0.0161231
667.659	0.0162365
667.737	0.0162547
667.815	0.0162450
667.893	0.0161950
667.971	0.0161501
668.049	0.0161854
668.128	0.0161468
668.206	0.0162685
668.284	0.0162798
668.362	0.0161652
668.440	0.0162107
668.518	0.0164312
668.596	0.0161916
668.674	0.0160400
668.753	0.0161918
668.831	0.0163151
668.909	0.0162492
668.987	0.0163162
669.065	0.0162488
669.143	0.0161408
669.221	0.0160730
669.299	0.0162597
669.378	0.0162543
669.456	0.0161480
669.534	0.0161390
669.612	0.0162514
669.690	0.0163120
669.768	0.0162195
669.846	0.0161741
669.924	0.0162675
670.003	0.0163151
670.081	0.0162502
670.159	0.0161996
670.237	0.0162550
670.315	0.0162410
670.393	0.0163300
670.471	0.0160791
670.549	0.0162125
670.628	0.0161131
670.706	0.0163286
670.784	0.0162488
670.862	0.0161297
670.940	0.0162601
671.018	0.0163307
671.096	0.0161991
671.174	0.0162818
671.253	0.0161612
671.331	0.0162036
671.409	0.0161981
671.487	0.0161713
671.565	0.0161890
671.643	0.0162310
671.721	0.0162473
671.799	0.0162928
671.878	0.0162467
671.956	0.0161169
672.034	0.0162521
672.112	0.0163216
672.190	0.0161739
672.268	0.0162259
672.346	0.0161697
672.424	0.0162263
672.503	0.0160428
672.581	0.0163020
672.659	0.0161814
672.737	0.0161611
672.815	0.0161264
672.893	0.0162806
672.971	0.0163309
673.049	0.0163239
673.128	0.0162175
673.206	0.0161462
673.284	0.0162920
673.362	0.0162054
673.440	0.0162251
673.518	0.0161234
673.596	0.0161481
673.674	0.0161813
673.753	0.0161839
673.831	0.0162917
673.909	0.0162399
673.987	0.0163446
674.065	0.0162074
674.143	0.0162033
674.221	0.0161876
674.299	0.0162650
674.378	0.0160851
674.456	0.0161703
674.534	0.0161246
674.612	0.0161860
674.690	0.0162943
674.768	0.0162559
674.846	0.0162717
674.924	0.0163165
675.003	0.0162749
675.081	0.0162115
675.159	0.0160312
675.237	0.0161322
675.315	0.0163865
675.393	0.0162125
675.471	0.0161436
675.549	0.0160947
675.628	0.0162444
675.706	0.0161487
675.784	0.0162109
675.862	0.0162534
675.940	0.0162258
676.018	0.0162401
676.096	0.0161068
676.174	0.0163086
676.253	0.0163021
676.331	0.0162593
676.409	0.0162273
676.487	0.0162642
676.565	0.0160881
676.643	0.0161976
676.721	0.0160438
676.799	0.0161284
676.878	0.0160632
676.956	0.0162012
677.034	0.0162383
677.112	0.0162165
677.190	0.0161686
677.268	0.0161853
677.346	0.0163805
677.424	0.0162422
677.503	0.0161378
677.581	0.0162399
677.659	0.0162926
677.737	0.0161780
677.815	0.0162099
677.893	0.0161514
677.971	0.0162701
678.049	0.0162750
678.128	0.0161390
678.206	0.0162067
678.284	0.0162340
678.362	0.0163068
678.440	0.0163409
678.518	0.0161354
678.596	0.0161200
678.674	0.0162691
678.753	0.0162684
678.831	0.0162174
678.909	0.0162151
678.987	0.0161167
679.065	0.0161616
679.143	0.0160572
679.221	0.0161475
679.299	0.0162352
679.378	0.0162333
679.456	0.0162217
679.534	0.0162278
679.612	0.0161954
679.690	0.0161476
679.768	0.0161729
679.846	0.0162807
679.924	0.0160492
680.003	0.0160587
680.081	0.0161353
680.159	0.0161626
680.237	0.0161526
680.315	0.0162531
680.393	0.0161848
680.471	0.0161801
680.549	0.0161284
680.628	0.0161591
680.706	0.0161211
680.784	0.0161666
680.862	0.0162511
680.940	0.0162399
681.018	0.0162064
681.096	0.0162229
681.174	0.0162943
681.253	0.0163078
681.331	0.0161287
681.409	0.0160812
681.487	0.0162835
681.565	0.0160715
681.643	0.0160650
681.721	0.0162057
681.799	0.0161797
681.878	0.0160866
681.956	0.0162202
682.034	0.0162167
682.112	0.0162803
682.190	0.0160940
682.268	0.0162791
682.346	0.0162405
682.424	0.0161681
682.503	0.0161768
682.581	0.0161545
682.659	0.0162079
682.737	0.0160529
682.815	0.0161713
682.893	0.0162544
682.971	0.0162115
683.049	0.0161072
683.128	0.0161846
683.206	0.0161266
683.284	0.0160651
683.362	0.0161961
683.440	0.0162367
683.518	0.0161849
683.596	0.0161005
683.674	0.0162077
683.753	0.0162470
683.831	0.0162572
683.909	0.0161818
683.987	0.0161539
684.065	0.0161975
684.143	0.0163019
684.221	0.0159745
684.299	0.0161777
684.378	0.0161710
684.456	0.0161945
684.534	0.0161446
684.612	0.0163177
684.690	0.0161854
684.768	0.0162160
684.846	0.0162919
684.924	0.0162315
685.003	0.0160749
685.081	0.0161221
685.159	0.0162262
685.237	0.0161726
685.315	0.0162663
685.393	0.0161633
685.471	0.0162601
685.549	0.0162331
685.628	0.0161559
685.706	0.0162457
685.784	0.0161865
685.862	0.0162412
685.940	0.0161883
686.018	0.0161399
686.096	0.0162962
686.174	0.0160739
686.253	0.0161555
686.331	0.0162350
686.409	0.0162218
686.487	0.0161311
686.565	0.0163171
686.643	0.0163486
686.721	0.0161422
686.799	0.0162311
686.878	0.0162149
686.956	0.0162061
687.034	0.0162292
687.112	0.0162701
687.190	0.0159763
687.268	0.0161977
687.346	0.0162347
687.424	0.0161363
687.503	0.0162377
687.581	0.0162638
687.659	0.0162434
687.737	0.0162003
687.815	0.0163734
687.893	0.0162392
687.971	0.0160856
688.049	0.0162119
688.128	0.0163017
688.206	0.0161285
688.284	0.0161636
688.362	0.0162155
688.440	0.0162592
688.518	0.0163128
688.596	0.0163445
688.674	0.0162957
688.753	0.0161482
688.831	0.0160695
688.909	0.0162659
688.987	0.0160754
689.065	0.0160720
689.143	0.0162439
689.221	0.0162121
689.299	0.0162575
689.378	0.0162107
689.456	0.0161529
689.534	0.0161932
689.612	0.0161242
689.690	0.0163147
689.768	0.0161987
689.846	0.0162700
689.924	0.0162346
690.003	0.0162282
690.081	0.0162850
690.159	0.0162254
690.237	0.0162556
690.315	0.0162632
690.393	0.0161700
690.471	0.0160815
690.549	0.0162392
690.628	0.0163014
690.706	0.0162173
690.784	0.0161057
690.862	0.0162987
690.940	0.0161118
691.018	0.0161401
691.096	0.0161539
691.174	0.0162376
691.253	0.0163030
691.331	0.0161418
691.409	0.0162032
691.487	0.0161924
691.565	0.0162447
691.643	0.0161505
691.721	0.0161361
691.799	0.0162203
691.878	0.0161317
691.956	0.0162470
692.034	0.0161150
692.112	0.0161595
692.190	0.0161549
692.268	0.0162107
692.346	0.0161165
692.424	0.0161529
692.503	0.0162717
692.581	0.0160963
692.659	0.0161672
692.737	0.0160585
692.815	0.0161160
692.893	0.0162290
692.971	0.0161812
693.049	0.0162265
693.128	0.0161130
693.206	0.0162096
693.284	0.0162044
693.362	0.0162359
693.440	0.0161191
693.518	0.0161774
693.596	0.0160351
693.674	0.0162505
693.753	0.0162495
693.831	0.0162553
693.909	0.0162216
693.987	0.0162220
694.065	0.0162694
694.143	0.0161398
694.221	0.0161820
694.299	0.0163111
694.378	0.0162344
694.456	0.0161246
694.534	0.0161958
694.612	0.0161929
694.690	0.0161400
694.768	0.0161900
694.846	0.0162289
694.924	0.0163400
695.003	0.0162891
695.081	0.0161891
695.159	0.0161512
695.237	0.0161594
695.315	0.0160593
695.393	0.0162122
695.471	0.0162336
695.549	0.0160828
695.628	0.0163080
695.706	0.0162064
695.784	0.0160870
695.862	0.0161993
695.940	0.0162463
696.018	0.0161276
696.096	0.0162090
696.174	0.0161224
696.253	0.0160619
696.331	0.0160053
696.409	0.0161262
696.487	0.0161845
696.565	0.0162080
696.643	0.0162505
696.721	0.0161680
696.799	0.0161805
696.878	0.0162357
696.956	0.0163134
697.034	0.0162043
697.112	0.0161462
697.190	0.0161914
697.268	0.0162667
697.346	0.0161996
697.424	0.0163081
697.503	0.0161133
697.581	0.0161866
697.659	0.0162146
697.737	0.0162270
697.815	0.0162003
697.893	0.0162661
697.971	0.0163199
698.049	0.0161384
698.128	0.0163254
698.206	0.0161104
698.284	0.0160490
698.362	0.0161113
698.440	0.0161057
698.518	0.0164262
698.596	0.0163181
698.674	0.0162727
698.753	0.0163803
698.831	0.0162806
698.909	0.0163423
698.987	0.0163273
699.065	0.0163829
699.143	0.0162760
699.221	0.0162201
699.299	0.0162097
699.378	0.0162088
699.456	0.0162681
699.534	0.0161224
699.612	0.0160644
699.690	0.0163000
699.768	0.0162434
699.846	0.0160565
699.924	0.0162749
700.003	0.0164007
700.081	0.0163365
700.159	0.0161109
700.237	0.0162453
700.315	0.0162727
700.393	0.0159422
700.471	0.0160899
700.549	0.0161167
700.628	0.0158764
700.706	0.0160840
700.784	0.0160156
700.862	0.0159704
700.940	0.0160037
701.018	0.0160207
701.096	0.0159855
701.174	0.0161125
701.253	0.0160820
701.331	0.0161177
701.409	0.0161131
701.487	0.0161369
701.565	0.0161350
701.643	0.0161734
701.721	0.0162025
701.799	0.0161254
701.878	0.0162828
701.956	0.0162907
702.034	0.0164365
702.112	0.0163797
702.190	0.0163580
702.268	0.0163126
702.346	0.0162066
702.424	0.0162317
702.503	0.0160483
702.581	0.0160065
702.659	0.0157703
702.737	0.0157340
702.815	0.0158090
702.893	0.0158997
702.971	0.0158228
703.049	0.0159680
703.128	0.0162419
703.206	0.0163099
703.284	0.0163625
703.362	0.0165469
703.440	0.0166212
703.518	0.0165585
703.596	0.0164053
703.674	0.0164810
703.753	0.0164111
703.831	0.0163017
703.909	0.0159513
703.987	0.0160626
704.065	0.0158063
704.143	0.0158897
704.221	0.0157290
704.299	0.0156984
704.378	0.0157226
704.456	0.0157768
704.534	0.0159990
704.612	0.0161147
704.690	0.0161913
704.768	0.0162965
704.846	0.0164407
704.924	0.0164309
705.003	0.0164934
705.081	0.0166202
705.159	0.0166242
705.237	0.0166265
705.315	0.0164055
705.393	0.0164989
705.471	0.0163345
705.549	0.0161956
705.628	0.0160293
705.706	0.0159256
705.784	0.0157956
705.862	0.0157117
705.940	0.0158802
706.018	0.0156663
706.096	0.0156964
706.174	0.0158648
706.253	0.0157574
706.331	0.0160349
706.409	0.0163031
706.487	0.0163628
706.565	0.0164997
706.643	0.0165916
706.721	0.0167035
706.799	0.0167335
706.878	0.0166478
706.956	0.0165967
707.034	0.0165680
707.112	0.0163898
707.190	0.0162850
707.268	0.0161654
707.346	0.0159363
707.424	0.0158149
707.503	0.0159396
707.581	0.0160217
707.659	0.0158398
707.737	0.0157825
707.815	0.0159856
707.893	0.0160609
707.971	0.0159406
708.049	0.0161604
708.128	0.0163542
708.206	0.0165854
708.284	0.0165012
708.362	0.0164088
708.440	0.0164471
708.518	0.0164198
708.596	0.0164027
708.674	0.0163973
708.753	0.0164477
708.831	0.0164613
708.909	0.0165535
708.987	0.0166195
709.065	0.0166679
709.143	0.0165144
709.221	0.0163039
709.299	0.0161977
709.378	0.0161107
709.456	0.0159581
709.534	0.0159597
709.612	0.0158047
709.690	0.0156464
709.768	0.0158610
709.846	0.0159079
709.924	0.0158109
710.003	0.0160187
710.081	0.0162151
710.159	0.0164225
710.237	0.0164427
710.315	0.0164900
710.393	0.0166771
710.471	0.0166540
710.549	0.0165733
710.628	0.0166946
710.706	0.0165257
710.784	0.0163749
710.862	0.0164014
710.940	0.0161052
711.018	0.0160220
711.096	0.0157508
711.174	0.0160136
711.253	0.0158183
711.331	0.0156973
711.409	0.0159309
711.487	0.0156969
711.565	0.0157120
711.643	0.0158443
711.721	0.0160088
711.799	0.0161312
711.878	0.0162648
711.956	0.0162517
712.034	0.0165059
712.112	0.0165688
712.190	0.0166013
712.268	0.0165725
712.346	0.0165494
712.424	0.0166074
712.503	0.0165762
712.581	0.0164443
712.659	0.0163255
712.737	0.0163248
712.815	0.0162171
712.893	0.0161327
712.971	0.0160559
713.049	0.0158846
713.128	0.0157993
713.206	0.0159216
713.284	0.0158569
713.362	0.0158764
713.440	0.0158823
713.518	0.0159137
713.596	0.0159943
713.674	0.0159674
713.753	0.0160256
713.831	0.0162392
713.909	0.0161028
713.987	0.0162415
714.065	0.0162508
714.143	0.0163661
714.221	0.0164734
714.299	0.0165817
714.378	0.0165357
714.456	0.0165015
714.534	0.0166534
714.612	0.0165723
714.690	0.0165029
714.768	0.0165255
714.846	0.0163803
714.924	0.0160828
715.003	0.0160506
715.081	0.0159527
715.159	0.0157130
715.237	0.0155588
715.315	0.0154623
715.393	0.0155753
715.471	0.0156197
715.549	0.0157800
715.628	0.0159707
715.706	0.0159713
715.784	0.0162135
715.862	0.0163815
715.940	0.0166358
716.018	0.0169395
716.096	0.0168653
716.174	0.0169991
716.253	0.0170800
716.331	0.0169445
716.409	0.0169320
716.487	0.0168686
716.565	0.0166024
716.643	0.0164563
716.721	0.0162689
716.799	0.0161080
716.878	0.0159462
716.956	0.0157699
717.034	0.0156504
717.112	0.0155199
717.190	0.0156284
717.268	0.0157477
717.346	0.0156574
717.424	0.0158399
717.503	0.0158005
717.581	0.0160017
717.659	0.0160908
717.737	0.0159908
717.815	0.0161219
717.893	0.0159624
717.971	0.0158974
718.049	0.0158614
718.128	0.0158829
718.206	0.0156824
718.284	0.0157416
718.362	0.0157365
718.440	0.0156391
718.518	0.0157079
718.596	0.0158027
718.674	0.0160118
718.753	0.0161227
718.831	0.0164253
718.909	0.0165040
718.987	0.0166933
719.065	0.0167750
719.143	0.0170448
719.221	0.0171242
719.299	0.0169155
719.378	0.0168434
719.456	0.0167213
719.534	0.0166182
719.612	0.0163724
719.690	0.0163381
719.768	0.0162378
719.846	0.0161578
719.924	0.0161014
720.003	0.0160410
720.081	0.0160098
720.159	0.0160877
720.237	0.0160471
720.315	0.0164952
720.393	0.0165273
720.471	0.0165215
720.549	0.0168515
720.628	0.0168148
720.706	0.0168439
720.784	0.0169543
720.862	0.0167341
720.940	0.0165129
721.018	0.0162897
721.096	0.0160532
721.174	0.0157108
721.253	0.0154185
721.331	0.0152508
721.409	0.0150546
721.487	0.0149448
721.565	0.0147420
721.643	0.0147448
721.721	0.0147762
721.799	0.0149222
721.878	0.0151054
721.956	0.0154438
722.034	0.0156553
722.112	0.0158807
722.190	0.0163199
722.268	0.0164511
722.346	0.0167127
722.424	0.0169698
722.503	0.0170794
722.581	0.0173860
722.659	0.0174529
722.737	0.0175961
722.815	0.0174680
722.893	0.0173517
722.971	0.0172778
723.049	0.0171678
723.128	0.0169813
723.206	0.0167122
723.284	0.0166197
723.362	0.0164304
723.440	0.0159998
723.518	0.0156849
723.596	0.0155645
723.674	0.0152521
723.753	0.0150123
723.831	0.0147844
723.909	0.0147887
723.987	0.0146458
724.065	0.0147443
724.143	0.0148668
724.221	0.0148476
724.299	0.0150884
724.378	0.0154733
724.456	0.0156230
724.534	0.0159530
724.612	0.0163631
724.690	0.0165471
724.768	0.0167805
724.846	0.0169604
724.924	0.0169872
725.003	0.0171264
725.081	0.0171008
725.159	0.0172105
725.237	0.0170838
725.315	0.0170027
725.393	0.0171680
725.471	0.0170371
725.549	0.0170877
725.628	0.0171371
725.706	0.0172555
725.784	0.0171273
725.862	0.0171614
725.940	0.0171709
726.018	0.0170113
726.096	0.0170452
726.174	0.0169319
726.253	0.0168053
726.331	0.0165835
726.409	0.0161709
726.487	0.0158916
726.565	0.0156213
726.643	0.0153725
726.721	0.0150522
726.799	0.0148650
726.878	0.0148333
726.956	0.0145823
727.034	0.0144466
727.112	0.0145595
727.190	0.0143603
727.268	0.0144704
727.346	0.0148008
727.424	0.0149477
727.503	0.0149633
727.581	0.0150880
727.659	0.0153934
727.737	0.0154715
727.815	0.0156721
727.893	0.0158221
727.971	0.0158759
728.049	0.0160868
728.128	0.0161801
728.206	0.0164405
728.284	0.0164268
728.362	0.0165435
728.440	0.0167282
728.518	0.0167361
728.596	0.0169276
728.674	0.0169899
728.753	0.0169917
728.831	0.0170669
728.909	0.0170402
728.987	0.0170461
729.065	0.0172070
729.143	0.0173415
729.221	0.0173557
729.299	0.0173884
729.378	0.0173257
729.456	0.0173277
729.534	0.0175130
729.612	0.0174490
729.690	0.0172681
729.768	0.0170290
729.846	0.0167269
729.924	0.0167074
730.003	0.0164377
730.081	0.0161834
730.159	0.0161354
730.237	0.0159663
730.315	0.0158730
730.393	0.0159720
730.471	0.0159359
730.549	0.0161375
730.628	0.0162732
730.706	0.0162244
730.784	0.0164071
730.862	0.0165936
730.940	0.0167585
731.018	0.0169220
731.096	0.0169250
731.174	0.0166778
731.253	0.0166770
731.331	0.0167103
731.409	0.0163757
731.487	0.0163699
731.565	0.0158871
731.643	0.0155797
731.721	0.0151411
731.799	0.0151606
731.878	0.0147956
731.956	0.0145387
732.034	0.0143668
732.112	0.0140834
732.190	0.0140524
732.268	0.0141139
732.346	0.0138609
732.424	0.0139909
732.503	0.0139908
732.581	0.0138973
732.659	0.0141105
732.737	0.0141805
732.815	0.0144085
732.893	0.0146736
732.971	0.0151615
733.049	0.0155957
733.128	0.0160379
733.206	0.0164484
733.284	0.0168143
733.362	0.0171874
733.440	0.0176126
733.518	0.0179144
733.596	0.0181716
733.674	0.0181689
733.753	0.0181775
733.831	0.0184585
733.909	0.0184455
733.987	0.0183575
734.065	0.0182439
734.143	0.0180549
734.221	0.0179460
734.299	0.0179037
734.378	0.0176617
734.456	0.0174741
734.534	0.0174734
734.612	0.0174454
734.690	0.0172378
734.768	0.0171246
734.846	0.0171092
734.924	0.0169636
735.003	0.0170457
735.081	0.0170880
735.159	0.0168678
735.237	0.0170272
735.315	0.0167870
735.393	0.0169143
735.471	0.0168163
735.549	0.0165792
735.628	0.0164928
735.706	0.0162554
735.784	0.0162632
735.862	0.0159850
735.940	0.0159000
736.018	0.0155868
736.096	0.0153320
736.174	0.0152107
736.253	0.0148193
736.331	0.0146834
736.409	0.0143447
736.487	0.0140073
736.565	0.0139042
736.643	0.0135566
736.721	0.0134294
736.799	0.0134143
736.878	0.0132860
736.956	0.0131636
737.034	0.0132954
737.112	0.0133602
737.190	0.0133772
737.268	0.0136275
737.346	0.0140509
737.424	0.0143857
737.503	0.0147128
737.581	0.0150546
737.659	0.0154832
737.737	0.0160165
737.815	0.0165017
737.893	0.0168298
737.971	0.0172379
738.049	0.0175809
738.128	0.0178226
738.206	0.0181985
738.284	0.0182900
738.362	0.0183939
738.440	0.0186738
738.518	0.0186375
738.596	0.0185186
738.674	0.0182888
738.753	0.0181677
738.831	0.0179774
738.909	0.0179044
738.987	0.0177133
739.065	0.0176317
739.143	0.0174926
739.221	0.0173622
739.299	0.0173323
739.378	0.0170660
739.456	0.0170374
739.534	0.0170749
739.612	0.0170213
739.690	0.0169601
739.768	0.0169126
739.846	0.0168322
739.924	0.0168639
740.003	0.0167216
740.081	0.0165928
740.159	0.0163486
740.237	0.0161987
740.315	0.0159635
740.393	0.0156707
740.471	0.0156496
740.549	0.0155040
740.628	0.0155482
740.706	0.0154410
740.784	0.0155456
740.862	0.0155145
740.940	0.0156270
741.018	0.0157845
741.096	0.0157433
741.174	0.0155014
741.253	0.0154825
741.331	0.0153364
741.409	0.0152113
741.487	0.0149712
741.565	0.0147980
741.643	0.0144534
741.721	0.0141988
741.799	0.0140300
741.878	0.0140405
741.956	0.0137859
742.034	0.0136732
742.112	0.0137720
742.190	0.0138324
742.268	0.0139859
742.346	0.0142297
742.424	0.0145032
742.503	0.0148766
742.581	0.0153555
742.659	0.0155717
742.737	0.0161166
742.815	0.0166225
742.893	0.0169437
742.971	0.0174480
743.049	0.0176376
743.128	0.0178380
743.206	0.0180833
743.284	0.0181593
743.362	0.0181950
743.440	0.0180068
743.518	0.0179230
743.596	0.0176826
743.674	0.0175485
743.753	0.0172114
743.831	0.0170673
743.909	0.0170412
743.987	0.0171208
744.065	0.0171461
744.143	0.0171403
744.221	0.0171143
744.299	0.0173058
744.378	0.0173945
744.456	0.0174421
744.534	0.0175498
744.612	0.0175542
744.690	0.0175148
744.768	0.0174133
744.846	0.0173341
744.924	0.0172942
745.003	0.0171177
745.081	0.0168809
745.159	0.0166002
745.237	0.0166327
745.315	0.0166070
745.393	0.0162614
745.471	0.0162645
745.549	0.0161077
745.628	0.0160887
745.706	0.0161455
745.784	0.0160302
745.862	0.0159993
745.940	0.0161005
746.018	0.0159341
746.096	0.0157564
746.174	0.0157001
746.253	0.0154010
746.331	0.0152348
746.409	0.0148739
746.487	0.0145107
746.565	0.0142635
746.643	0.0140322
746.721	0.0137424
746.799	0.0133851
746.878	0.0131676
746.956	0.0131796
747.034	0.0132121
747.112	0.0133672
747.190	0.0136036
747.268	0.0139373
747.346	0.0143158
747.424	0.0147414
747.503	0.0150842
747.581	0.0153551
747.659	0.0158070
747.737	0.0161880
747.815	0.0166052
747.893	0.0168546
747.971	0.0171570
748.049	0.0173395
748.128	0.0176991
748.206	0.0177625
748.284	0.0179899
748.362	0.0179436
748.440	0.0180856
748.518	0.0179041
748.596	0.0179530
748.674	0.0178550
748.753	0.0174860
748.831	0.0174730
748.909	0.0174115
748.987	0.0173287
749.065	0.0173401
749.143	0.0173149
749.221	0.0170585
749.299	0.0169532
749.378	0.0168887
749.456	0.0169044
749.534	0.0168482
749.612	0.0167206
749.690	0.0166958
749.768	0.0166113
749.846	0.0164724
749.924	0.0164378
750.003	0.0164652
750.081	0.0164696
750.159	0.0163361
750.237	0.0165073
750.315	0.0163380
750.393	0.0164283
750.471	0.0165778
750.549	0.0165861
750.628	0.0165242
750.706	0.0165793
750.784	0.0165663
750.862	0.0165281
750.940	0.0164817
751.018	0.0164233
751.096	0.0163013
751.174	0.0161796
751.253	0.0160850
751.331	0.0159766
751.409	0.0157250
751.487	0.0154333
751.565	0.0152048
751.643	0.0150138
751.721	0.0146248
751.799	0.0143606
751.878	0.0141009
751.956	0.0140163
752.034	0.0139555
752.112	0.0139208
752.190	0.0138271
752.268	0.0139655
752.346	0.0141558
752.424	0.0144019
752.503	0.0145664
752.581	0.0148559
752.659	0.0150419
752.737	0.0154171
752.815	0.0157490
752.893	0.0162069
752.971	0.0162789
753.049	0.0167843
753.128	0.0170235
753.206	0.0172684
753.284	0.0176241
753.362	0.0178718
753.440	0.0181197
753.518	0.0181840
753.596	0.0180434
753.674	0.0181082
753.753	0.0179678
753.831	0.0177444
753.909	0.0177383
753.987	0.0175746
754.065	0.0173314
754.143	0.0171335
754.221	0.0169658
754.299	0.0168271
754.378	0.0167844
754.456	0.0163570
754.534	0.0162805
754.612	0.0161666
754.690	0.0159299
754.768	0.0160503
754.846	0.0159767
754.924	0.0158768
755.003	0.0159845
755.081	0.0159099
755.159	0.0159937
755.237	0.0159291
755.315	0.0159715
755.393	0.0159808
755.471	0.0160755
755.549	0.0162345
755.628	0.0163987
755.706	0.0165828
755.784	0.0167984
755.862	0.0167480
755.940	0.0167932
756.018	0.0170904
756.096	0.0171219
756.174	0.0171741
756.253	0.0170404
756.331	0.0169808
756.409	0.0168363
756.487	0.0166478
756.565	0.0163411
756.643	0.0162435
756.721	0.0160548
756.799	0.0154527
756.878	0.0151528
756.956	0.0149288
757.034	0.0146424
757.112	0.0145748
757.190	0.0143745
757.268	0.0141744
757.346	0.0143680
757.424	0.0142052
757.503	0.0145425
757.581	0.0144903
757.659	0.0145347
757.737	0.0147032
757.815	0.0147153
757.893	0.0150655
757.971	0.0152671
758.049	0.0154123
758.128	0.0156994
758.206	0.0159776
758.284	0.0160713
758.362	0.0162193
758.440	0.0164927
758.518	0.0166948
758.596	0.0167347
758.674	0.0169604
758.753	0.0171850
758.831	0.0173945
758.909	0.0173071
758.987	0.0174606
759.065	0.0175787
759.143	0.0176505
759.221	0.0176881
759.299	0.0176961
759.378	0.0176099
759.456	0.0176402
759.534	0.0176791
759.612	0.0175600
759.690	0.0173386
759.768	0.0171889
759.846	0.0170469
759.924	0.0167414
760.003	0.0165685
760.081	0.0162935
760.159	0.0162104
760.237	0.0157375
760.315	0.0156148
760.393	0.0155652
760.471	0.0154129
760.549	0.0155253
760.628	0.0153824
760.706	0.0154262
760.784	0.0154877
760.862	0.0156242
760.940	0.0157746
761.018	0.0157314
761.096	0.0161250
761.174	0.0164178
761.253	0.0166552
761.331	0.0165099
761.409	0.0166138
761.487	0.0166713
761.565	0.0168430
761.643	0.0165973
761.721	0.0165086
761.799	0.0162916
761.878	0.0160822
761.956	0.0158891
762.034	0.0157124
762.112	0.0153848
762.190	0.0152259
762.268	0.0150710
762.346	0.0149956
762.424	0.0146874
762.503	0.0148575
762.581	0.0146236
762.659	0.0147279
762.737	0.0147263
762.815	0.0149786
762.893	0.0151135
762.971	0.0151816
763.049	0.0152870
763.128	0.0156290
763.206	0.0158353
763.284	0.0159780
763.362	0.0162047
763.440	0.0163933
763.518	0.0164251
763.596	0.0165467
763.674	0.0166436
763.753	0.0167670
763.831	0.0167524
763.909	0.0167929
763.987	0.0168562
764.065	0.0170032
764.143	0.0170269
764.221	0.0168913
764.299	0.0170174
764.378	0.0170425
764.456	0.0171023
764.534	0.0169432
764.612	0.0170393
764.690	0.0170329
764.768	0.0170587
764.846	0.0170181
764.924	0.0168740
765.003	0.0168197
765.081	0.0168123
765.159	0.0165777
765.237	0.0164537
765.315	0.0165513
765.393	0.0163306
765.471	0.0162109
765.549	0.0161489
765.628	0.0159865
765.706	0.0160175
765.784	0.0159018
765.862	0.0157792
765.940	0.0159063
766.018	0.0158302
766.096	0.0158406
766.174	0.0160180
766.253	0.0161152
766.331	0.0161635
766.409	0.0163100
766.487	0.0164077
766.565	0.0164785
766.643	0.0166532
766.721	0.0166885
766.799	0.0165472
766.878	0.0164643
766.956	0.0164531
767.034	0.0163119
767.112	0.0162928
767.190	0.0160523
767.268	0.0159081
767.346	0.0156423
767.424	0.0156860
767.503	0.0154522
767.581	0.0153655
767.659	0.0153413
767.737	0.0152636
767.815	0.0153283
767.893	0.0153137
767.971	0.0152776
768.049	0.0154419
768.128	0.0154794
768.206	0.0155576
768.284	0.0155334
768.362	0.0156311
768.440	0.0158535
768.518	0.0159364
768.596	0.0160927
768.674	0.0161264
768.753	0.0162399
768.831	0.0163389
768.909	0.0164494
768.987	0.0164308
769.065	0.0162433
769.143	0.0164266
769.221	0.0165314
769.299	0.0165311
769.378	0.0163922
769.456	0.0164352
769.534	0.0163242
769.612	0.0163708
769.690	0.0164531
769.768	0.0164725
769.846	0.0165658
769.924	0.0164950
770.003	0.0166250
770.081	0.0164069
770.159	0.0166683
770.237	0.0165887
770.315	0.0165812
770.393	0.0165047
770.471	0.0166032
770.549	0.0166397
770.628	0.0165899
770.706	0.0166441
770.784	0.0165356
770.862	0.0165115
770.940	0.0165704
771.018	0.0165806
771.096	0.0163773
771.174	0.0164433
771.253	0.0164359
771.331	0.0163675
771.409	0.0164458
771.487	0.0164280
771.565	0.0163043
771.643	0.0164286
771.721	0.0163915
771.799	0.0164345
771.878	0.0164586
771.956	0.0163517
772.034	0.0162744
772.112	0.0162540
772.190	0.0160567
772.268	0.0160480
772.346	0.0158100
772.424	0.0158958
772.503	0.0157087
772.581	0.0156234
772.659	0.0155954
772.737	0.0154392
772.815	0.0154584
772.893	0.0154817
772.971	0.0156637
773.049	0.0154902
773.128	0.0156257
773.206	0.0157821
773.284	0.0158060
773.362	0.0157938
773.440	0.0158198
773.518	0.0160535
773.596	0.0161135
773.674	0.0160789
773.753	0.0163037
773.831	0.0163833
773.909	0.0162358
773.987	0.0164616
774.065	0.0164587
774.143	0.0163663
774.221	0.0164996
774.299	0.0166026
774.378	0.0165299
774.456	0.0164134
774.534	0.0163712
774.612	0.0164707
774.690	0.0162852
774.768	0.0163544
774.846	0.0162304
774.924	0.0160789
775.003	0.0160052
775.081	0.0160495
775.159	0.0159328
775.237	0.0159192
775.315	0.0157369
775.393	0.0157713
775.471	0.0156777
775.549	0.0156612
775.628	0.0157319
775.706	0.0157263
775.784	0.0158762
775.862	0.0158978
775.940	0.0160849
776.018	0.0162839
776.096	0.0163960
776.174	0.0165017
776.253	0.0165460
776.331	0.0167561
776.409	0.0167298
776.487	0.0168144
776.565	0.0169846
776.643	0.0168887
776.721	0.0169277
776.799	0.0170034
776.878	0.0170174
776.956	0.0169864
777.034	0.0169063
777.112	0.0167772
777.190	0.0166915
777.268	0.0166916
777.346	0.0164360
777.424	0.0164666
777.503	0.0162145
777.581	0.0160811
777.659	0.0160327
777.737	0.0157909
777.815	0.0156635
777.893	0.0156954
777.971	0.0155773
778.049	0.0155540
778.128	0.0155892
778.206	0.0155887
778.284	0.0155241
778.362	0.0155408
778.440	0.0155570
778.518	0.0159085
778.596	0.0158388
778.674	0.0158323
778.753	0.0158881
778.831	0.0160882
778.909	0.0161716
778.987	0.0162787
779.065	0.0164066
779.143	0.0165487
779.221	0.0163371
779.299	0.0166617
779.378	0.0166373
779.456	0.0165540
779.534	0.0166359
779.612	0.0165568
779.690	0.0164130
779.768	0.0164935
779.846	0.0164165
779.924	0.0164089
780.003	0.0161398
780.081	0.0159747
780.159	0.0159159
780.237	0.0158413
780.315	0.0158361
780.393	0.0157101
780.471	0.0156348
780.549	0.0156103
780.628	0.0155692
780.706	0.0156785
780.784	0.0157949
780.862	0.0157822
780.940	0.0158376
781.018	0.0158053
781.096	0.0159604
781.174	0.0158968
781.253	0.0158172
781.331	0.0161004
781.409	0.0161412
781.487	0.0162334
781.565	0.0161440
781.643	0.0163174
781.721	0.0164857
781.799	0.0164931
781.878	0.0164739
781.956	0.0164316
782.034	0.0165888
782.112	0.0166219
782.190	0.0166309
782.268	0.0166058
782.346	0.0166293
782.424	0.0167665
782.503	0.0166751
782.581	0.0166557
782.659	0.0166390
782.737	0.0164539
782.815	0.0164763
782.893	0.0163931
782.971	0.0164769
783.049	0.0162834
783.128	0.0162490
783.206	0.0162271
783.284	0.0161553
783.362	0.0161282
783.440	0.0161581
783.518	0.0160092
783.596	0.0160508
783.674	0.0160577
783.753	0.0160583
783.831	0.0162269
783.909	0.0160862
783.987	0.0162196
784.065	0.0160838
784.143	0.0161464
784.221	0.0161519
784.299	0.0161389
784.378	0.0160590
784.456	0.0161994
784.534	0.0160672
784.612	0.0159099
784.690	0.0160233
784.768	0.0160538
784.846	0.0160193
784.924	0.0159893
785.003	0.0159541
785.081	0.0160968
785.159	0.0160821
785.237	0.0159482
785.315	0.0158902
785.393	0.0159281
785.471	0.0159425
785.549	0.0158287
785.628	0.0159256
785.706	0.0158667
785.784	0.0158658
785.862	0.0157784
785.940	0.0157832
786.018	0.0159099
786.096	0.0157277
786.174	0.0159509
786.253	0.0159486
786.331	0.0160569
786.409	0.0160800
786.487	0.0162117
786.565	0.0160856
786.643	0.0164072
786.721	0.0164458
786.799	0.0164444
786.878	0.0164516
786.956	0.0165910
787.034	0.0165353
787.112	0.0165209
787.190	0.0165916
787.268	0.0166611
787.346	0.0165593
787.424	0.0166288
787.503	0.0166120
787.581	0.0164460
787.659	0.0164615
787.737	0.0164153
787.815	0.0163712
787.893	0.0163286
787.971	0.0162589
788.049	0.0162836
788.128	0.0160480
788.206	0.0161549
788.284	0.0159260
788.362	0.0157687
788.440	0.0158744
788.518	0.0157797
788.596	0.0159045
788.674	0.0159545
788.753	0.0158938
788.831	0.0159911
788.909	0.0160493
788.987	0.0159652
789.065	0.0161425
789.143	0.0163528
789.221	0.0162401
789.299	0.0163020
789.378	0.0163812
789.456	0.0165859
789.534	0.0166996
789.612	0.0165634
789.690	0.0166084
789.768	0.0165604
789.846	0.0167694
789.924	0.0165708
790.003	0.0166867
790.081	0.0165916
790.159	0.0163698
790.237	0.0164040
790.315	0.0163676
790.393	0.0162099
790.471	0.0161443
790.549	0.0159366
790.628	0.0160152
790.706	0.0159130
790.784	0.0158785
790.862	0.0156849
790.940	0.0157580
791.018	0.0157877
791.096	0.0157587
791.174	0.0157314
791.253	0.0157845
791.331	0.0157659
791.409	0.0159821
791.487	0.0161230
791.565	0.0160233
791.643	0.0160409
791.721	0.0162023
791.799	0.0161842
791.878	0.0161755
791.956	0.0162862
792.034	0.0164162
792.112	0.0163636
792.190	0.0164416
792.268	0.0165710
792.346	0.0165783
792.424	0.0165778
792.503	0.0165087
792.581	0.0164326
792.659	0.0164976
792.737	0.0164514
792.815	0.0163503
792.893	0.0162886
792.971	0.0163223
793.049	0.0161909
793.128	0.0161976
793.206	0.0162479
793.284	0.0161553
793.362	0.0159800
793.440	0.0159319
793.518	0.0160023
793.596	0.0159634
793.674	0.0160432
793.753	0.0159596
793.831	0.0160921
793.909	0.0159975
793.987	0.0161772
794.065	0.0159931
794.143	0.0162119
794.221	0.0160536
794.299	0.0160606
794.378	0.0162273
794.456	0.0161963
794.534	0.0161843
794.612	0.0162503
794.690	0.0162917
794.768	0.0163607
794.846	0.0163419
794.924	0.0163213
795.003	0.0164636
795.081	0.0166000
795.159	0.0164971
795.237	0.0165477
795.315	0.0164069
795.393	0.0164633
795.471	0.0164513
795.549	0.0166226
795.628	0.0164368
795.706	0.0165850
795.784	0.0163731
795.862	0.0165224
795.940	0.0164005
796.018	0.0164403
796.096	0.0164152
796.174	0.0163811
796.253	0.0162875
796.331	0.0162521
796.409	0.0162595
796.487	0.0161418
796.565	0.0162421
796.643	0.0159560
796.721	0.0160986
796.799	0.0160917
796.878	0.0159464
796.956	0.0159223
797.034	0.0159608
797.112	0.0159512
797.190	0.0158121
797.268	0.0158193
797.346	0.0157901
797.424	0.0157886
797.503	0.0159231
797.581	0.0157701
797.659	0.0160274
797.737	0.0160109
797.815	0.0159684
797.893	0.0159614
797.971	0.0160173
798.049	0.0162635
798.128	0.0161501
798.206	0.0161817
798.284	0.0162077
798.362	0.0162606
798.440	0.0163890
798.518	0.0164848
798.596	0.0162602
798.674	0.0163167
798.753	0.0164337
798.831	0.0163548
798.909	0.0163451
798.987	0.0163215
799.065	0.0162568
799.143	0.0161905
799.221	0.0163187
799.299	0.0162052
799.378	0.0161250
799.456	0.0161036
799.534	0.0162408
799.612	0.0162910
799.690	0.0160572
799.768	0.0160966
799.846	0.0162234
799.924	0.0160075
800.003	0.0161074
800.081	0.0161576
800.159	0.0162024
800.237	0.0161556
800.315	0.0161431
800.393	0.0161993
800.471	0.0162626
800.549	0.0162989
800.628	0.0162636
800.706	0.0163966
800.784	0.0164086
800.862	0.0161205
800.940	0.0162331
801.018	0.0164608
801.096	0.0162775
801.174	0.0161739
801.253	0.0163000
801.331	0.0161160
801.409	0.0161384
801.487	0.0161520
801.565	0.0160396
801.643	0.0160973
801.721	0.0160931
801.799	0.0161076
801.878	0.0162199
801.956	0.0160503
802.034	0.0160410
802.112	0.0160955
802.190	0.0162078
802.268	0.0161710
802.346	0.0162242
802.424	0.0161308
802.503	0.0162955
802.581	0.0164095
802.659	0.0163436
802.737	0.0162637
802.815	0.0164417
802.893	0.0164785
802.971	0.0164593
803.049	0.0164380
803.128	0.0162527
803.206	0.0163287
803.284	0.0162925
803.362	0.0162909
803.440	0.0161939
803.518	0.0161591
803.596	0.0161428
803.674	0.0160065
803.753	0.0161785
803.831	0.0160909
803.909	0.0160246
803.987	0.0161127
804.065	0.0162288
804.143	0.0160548
804.221	0.0160412
804.299	0.0160036
804.378	0.0161571
804.456	0.0161788
804.534	0.0160293
804.612	0.0160956
804.690	0.0160340
804.768	0.0160416
804.846	0.0160841
804.924	0.0162178
805.003	0.0160612
805.081	0.0160849
805.159	0.0161339
805.237	0.0160921
805.315	0.0160763
805.393	0.0162221
805.471	0.0162948
805.549	0.0160674
805.628	0.0161532
805.706	0.0161701
805.784	0.0162604
805.862	0.0162949
805.940	0.0162567
806.018	0.0161901
806.096	0.0161699
806.174	0.0163100
806.253	0.0162428
806.331	0.0161596
806.409	0.0162135
806.487	0.0162164
806.565	0.0162862
806.643	0.0162955
806.721	0.0162292
806.799	0.0163142
806.878	0.0161518
806.956	0.0160615
807.034	0.0162971
807.112	0.0161716
807.190	0.0160034
807.268	0.0161839
807.346	0.0162833
807.424	0.0161963
807.503	0.0162489
807.581	0.0162714
807.659	0.0163248
807.737	0.0162827
807.815	0.0163454
807.893	0.0163367
807.971	0.0162149
808.049	0.0162961
808.128	0.0163417
808.206	0.0162578
808.284	0.0162592
808.362	0.0161382
808.440	0.0162672
808.518	0.0162560
808.596	0.0162937
808.674	0.0161901
808.753	0.0163058
808.831	0.0162627
808.909	0.0161169
808.987	0.0161098
809.065	0.0161192
809.143	0.0161108
809.221	0.0161423
809.299	0.0161865
809.378	0.0161469
809.456	0.0161812
809.534	0.0160976
809.612	0.0161399
809.690	0.0161022
809.768	0.0160758
809.846	0.0162207
809.924	0.0161062
810.003	0.0162157
810.081	0.0160565
810.159	0.0160764
810.237	0.0162480
810.315	0.0160979
810.393	0.0160907
810.471	0.0161050
810.549	0.0160723
810.628	0.0159078
810.706	0.0160908
810.784	0.0160722
810.862	0.0160806
810.940	0.0161806
811.018	0.0160366
811.096	0.0160381
811.174	0.0161005
811.253	0.0161882
811.331	0.0162678
811.409	0.0163201
811.487	0.0162782
811.565	0.0163345
811.643	0.0164269
811.721	0.0163157
811.799	0.0163486
811.878	0.0163871
811.956	0.0163530
812.034	0.0162675
812.112	0.0162847
812.190	0.0161745
812.268	0.0161671
812.346	0.0161114
812.424	0.0160813
812.503	0.0160299
812.581	0.0162459
812.659	0.0160608
812.737	0.0161638
812.815	0.0161923
812.893	0.0161312
812.971	0.0160638
813.049	0.0162263
813.128	0.0161787
813.206	0.0162462
813.284	0.0162660
813.362	0.0163200
813.440	0.0163086
813.518	0.0162830
813.596	0.0163705
813.674	0.0164053
813.753	0.0163152
813.831	0.0164649
813.909	0.0163338
813.987	0.0164184
814.065	0.0163682
814.143	0.0162987
814.221	0.0161769
814.299	0.0160735
814.378	0.0160631
814.456	0.0162089
814.534	0.0160696
814.612	0.0160648
814.690	0.0159822
814.768	0.0160384
814.846	0.0159902
814.924	0.0160770
815.003	0.0161098
815.081	0.0159718
815.159	0.0160363
815.237	0.0160773
815.315	0.0160688
815.393	0.0161182
815.471	0.0160461
815.549	0.0161167
815.628	0.0161845
815.706	0.0159989
815.784	0.0160993
815.862	0.0161560
815.940	0.0160444
816.018	0.0160181
816.096	0.0160304
816.174	0.0159721
816.253	0.0161080
816.331	0.0160406
816.409	0.0160615
816.487	0.0161620
816.565	0.0161442
816.643	0.0161837
816.721	0.0162953
816.799	0.0162759
816.878	0.0162176
816.956	0.0162192
817.034	0.0163219
817.112	0.0163100
817.190	0.0162658
817.268	0.0162439
817.346	0.0163494
817.424	0.0164014
817.503	0.0163449
817.581	0.0163520
817.659	0.0163760
817.737	0.0163724
817.815	0.0163595
817.893	0.0163180
817.971	0.0163269
818.049	0.0160868
818.128	0.0162940
818.206	0.0163244
818.284	0.0163493
818.362	0.0161770
818.440	0.0161201
818.518	0.0161371
818.596	0.0162014
818.674	0.0161730
818.753	0.0161903
818.831	0.0161704
818.909	0.0162943
818.987	0.0164003
819.065	0.0162343
819.143	0.0162210
819.221	0.0162021
819.299	0.0163336
819.378	0.0164159
819.456	0.0163441
819.534	0.0163062
819.612	0.0162418
819.690	0.0160537
819.768	0.0160974
819.846	0.0160188
819.924	0.0161057
820.003	0.0161511
820.081	0.0160115
820.159	0.0158862
820.237	0.0159039
820.315	0.0159235
820.393	0.0158486
820.471	0.0158443
820.549	0.0159165
820.628	0.0158703
820.706	0.0158508
820.784	0.0158488
820.862	0.0160870
820.940	0.0160608
821.018	0.0161784
821.096	0.0160847
821.174	0.0161137
821.253	0.0160871
821.331	0.0161858
821.409	0.0162991
821.487	0.0161807
821.565	0.0162517
821.643	0.0164983
821.721	0.0164392
821.799	0.0163754
821.878	0.0164225
821.956	0.0165098
822.034	0.0166569
822.112	0.0165030
822.190	0.0164365
822.268	0.0165912
822.346	0.0164891
822.424	0.0165537
822.503	0.0164690
822.581	0.0163511
822.659	0.0162362
822.737	0.0163879
822.815	0.0162380
822.893	0.0163461
822.971	0.0162809
823.049	0.0162367
823.128	0.0162202
823.206	0.0161826
823.284	0.0162334
823.362	0.0160354
823.440	0.0160603
823.518	0.0159835
823.596	0.0158954
823.674	0.0159526
823.753	0.0160433
823.831	0.0160879
823.909	0.0159231
823.987	0.0159931
824.065	0.0158901
824.143	0.0159115
824.221	0.0159058
824.299	0.0159797
824.378	0.0159213
824.456	0.0160989
824.534	0.0160285
824.612	0.0159985
824.690	0.0160926
824.768	0.0160943
824.846	0.0161029
824.924	0.0160759
825.003	0.0160262
825.081	0.0160963
825.159	0.0161460
825.237	0.0162080
825.315	0.0160786
825.393	0.0160215
825.471	0.0160837
825.549	0.0162527
825.628	0.0162143
825.706	0.0160952
825.784	0.0162768
825.862	0.0163204
825.940	0.0163660
826.018	0.0163670
826.096	0.0164633
826.174	0.0164819
826.253	0.0165460
826.331	0.0164584
826.409	0.0164831
826.487	0.0164948
826.565	0.0165239
826.643	0.0165282
826.721	0.0165408
826.799	0.0165246
826.878	0.0164039
826.956	0.0165889
827.034	0.0165102
827.112	0.0164210
827.190	0.0164084
827.268	0.0162893
827.346	0.0161626
827.424	0.0162813
827.503	0.0162377
827.581	0.0161078
827.659	0.0160737
827.737	0.0161594
827.815	0.0160460
827.893	0.0159844
827.971	0.0159516
828.049	0.0160210
828.128	0.0160044
828.206	0.0159901
828.284	0.0159148
828.362	0.0158679
828.440	0.0158744
828.518	0.0159362
828.596	0.0158158
828.674	0.0158771
828.753	0.0157298
828.831	0.0158176
828.909	0.0156847
828.987	0.0158224
829.065	0.0158824
829.143	0.0158104
829.221	0.0158205
829.299	0.0159045
829.378	0.0159565
829.456	0.0160262
829.534	0.0159704
829.612	0.0160341
829.690	0.0160654
829.768	0.0161067
829.846	0.0163402
829.924	0.0162817
830.003	0.0163860
830.081	0.0164380
830.159	0.0162643
830.237	0.0164488
830.315	0.0164653
830.393	0.0165469
830.471	0.0166888
830.549	0.0166331
830.628	0.0165919
830.706	0.0166187
830.784	0.0166386
830.862	0.0165776
830.940	0.0166553
831.018	0.0166256
831.096	0.0165552
831.174	0.0165528
831.253	0.0167110
831.331	0.0165035
831.409	0.0164352
831.487	0.0164931
831.565	0.0164860
831.643	0.0163385
831.721	0.0162680
831.799	0.0163303
831.878	0.0162305
831.956	0.0162267
832.034	0.0161690
832.112	0.0159558
832.190	0.0161003
832.268	0.0160185
832.346	0.0159985
832.424	0.0158294
832.503	0.0158199
832.581	0.0159705
832.659	0.0158302
832.737	0.0157859
832.815	0.0158454
832.893	0.0157242
832.971	0.0157890
833.049	0.0156490
833.128	0.0156803
833.206	0.0157803
833.284	0.0157448
833.362	0.0156961
833.440	0.0157256
833.518	0.0157552
833.596	0.0157936
833.674	0.0157464
833.753	0.0156959
833.831	0.0156926
833.909	0.0157774
833.987	0.0157361
834.065	0.0158178
834.143	0.0159625
834.221	0.0161159
834.299	0.0161704
834.378	0.0162716
834.456	0.0164084
834.534	0.0164883
834.612	0.0164008
834.690	0.0167088
834.768	0.0166589
834.846	0.0165081
834.924	0.0166917
835.003	0.0169331
835.081	0.0168513
835.159	0.0169464
835.237	0.0170341
835.315	0.0170181
835.393	0.0169418
835.471	0.0169372
835.549	0.0168549
835.628	0.0168546
835.706	0.0168571
835.784	0.0167213
835.862	0.0165955
835.940	0.0165704
836.018	0.0165200
836.096	0.0163512
836.174	0.0163547
836.253	0.0162120
836.331	0.0161511
836.409	0.0161993
836.487	0.0162346
836.565	0.0161958
836.643	0.0159626
836.721	0.0159600
836.799	0.0160892
836.878	0.0159512
836.956	0.0158778
837.034	0.0160698
837.112	0.0159791
837.190	0.0160077
837.268	0.0159467
837.346	0.0160623
837.424	0.0158623
837.503	0.0159222
837.581	0.0158739
837.659	0.0161010
837.737	0.0159013
837.815	0.0157821
837.893	0.0159029
837.971	0.0158200
838.049	0.0157790
838.128	0.0158027
838.206	0.0158257
838.284	0.0158337
838.362	0.0158200
838.440	0.0157517
838.518	0.0156518
838.596	0.0157899
838.674	0.0157619
838.753	0.0158550
838.831	0.0158677
838.909	0.0159846
838.987	0.0160541
839.065	0.0159740
839.143	0.0160900
839.221	0.0161328
839.299	0.0163063
839.378	0.0162026
839.456	0.0162300
839.534	0.0162611
839.612	0.0163554
839.690	0.0165068
839.768	0.0165522
839.846	0.0165996
839.924	0.0166115
840.003	0.0165473
840.081	0.0164919
840.159	0.0165289
840.237	0.0166722
840.315	0.0166005
840.393	0.0165331
840.471	0.0166039
840.549	0.0166880
840.628	0.0165302
840.706	0.0163857
840.784	0.0166556
840.862	0.0166000
840.940	0.0165713
841.018	0.0165987
841.096	0.0166122
841.174	0.0164080
841.253	0.0164717
841.331	0.0166303
841.409	0.0165330
841.487	0.0164021
841.565	0.0163817
841.643	0.0164690
841.721	0.0162986
841.799	0.0163140
841.878	0.0163139
841.956	0.0162247
842.034	0.0160205
842.112	0.0159585
842.190	0.0159283
842.268	0.0160121
842.346	0.0159792
842.424	0.0158293
842.503	0.0157610
842.581	0.0158213
842.659	0.0156499
842.737	0.0156794
842.815	0.0157455
842.893	0.0156924
842.971	0.0157382
843.049	0.0158221
843.128	0.0156866
843.206	0.0155603
843.284	0.0157533
843.362	0.0156419
843.440	0.0157432
843.518	0.0156197
843.596	0.0155544
843.674	0.0158071
843.753	0.0159045
843.831	0.0158849
843.909	0.0159362
843.987	0.0160748
844.065	0.0160787
844.143	0.0159464
844.221	0.0162537
844.299	0.0162682
844.378	0.0162016
844.456	0.0163850
844.534	0.0164286
844.612	0.0164209
844.690	0.0163941
844.768	0.0164855
844.846	0.0165207
844.924	0.0164478
845.003	0.0164974
845.081	0.0163353
845.159	0.0163930
845.237	0.0166062
845.315	0.0164523
845.393	0.0165955
845.471	0.0166215
845.549	0.0165485
845.628	0.0165100
845.706	0.0166522
845.784	0.0165028
845.862	0.0165393
845.940	0.0166380
846.018	0.0165533
846.096	0.0166508
846.174	0.0166381
846.253	0.0164976
846.331	0.0165115
846.409	0.0163633
846.487	0.0164973
846.565	0.0165970
846.643	0.0165221
846.721	0.0163754
846.799	0.0163809
846.878	0.0164046
846.956	0.0162548
847.034	0.0162587
847.112	0.0162679
847.190	0.0163191
847.268	0.0161838
847.346	0.0161419
847.424	0.0160126
847.503	0.0159035
847.581	0.0161109
847.659	0.0158973
847.737	0.0158411
847.815	0.0159119
847.893	0.0158575
847.971	0.0158778
848.049	0.0157826
848.128	0.0156826
848.206	0.0158913
848.284	0.0159415
848.362	0.0158171
848.440	0.0159200
848.518	0.0158221
848.596	0.0158160
848.674	0.0158486
848.753	0.0158234
848.831	0.0159384
848.909	0.0160751
848.987	0.0160066
849.065	0.0160153
849.143	0.0160046
849.221	0.0161789
849.299	0.0160056
849.378	0.0160849
849.456	0.0162188
849.534	0.0160766
849.612	0.0159173
849.690	0.0161971
849.768	0.0161762
849.846	0.0160997
849.924	0.0162485
850.003	0.0161479
850.081	0.0163164
850.159	0.0162788
850.237	0.0162167
850.315	0.0163288
850.393	0.0163893
850.471	0.0163470
850.549	0.0165643
850.628	0.0165090
850.706	0.0165363
850.784	0.0165316
850.862	0.0164661
850.940	0.0165628
851.018	0.0166308
851.096	0.0165218
851.174	0.0167393
851.253	0.0165737
851.331	0.0165034
851.409	0.0165987
851.487	0.0165308
851.565	0.0164893
851.643	0.0165318
851.721	0.0166254
851.799	0.0164610
851.878	0.0164125
851.956	0.0163812
852.034	0.0163894
852.112	0.0162637
852.190	0.0162319
852.268	0.0161011
852.346	0.0160955
852.424	0.0161716
852.503	0.0162000
852.581	0.0160816
852.659	0.0160719
852.737	0.0160335
852.815	0.0159393
852.893	0.0159144
852.971	0.0159228
853.049	0.0158509
853.128	0.0158706
853.206	0.0159412
853.284	0.0158673
853.362	0.0158113
853.440	0.0158244
853.518	0.0159667
853.596	0.0158160
853.674	0.0158841
853.753	0.0159863
853.831	0.0158675
853.909	0.0159498
853.987	0.0158028
854.065	0.0159136
854.143	0.0158824
854.221	0.0159732
854.299	0.0161423
854.378	0.0160243
854.456	0.0160336
854.534	0.0161039
854.612	0.0162293
854.690	0.0160709
854.768	0.0161144
854.846	0.0162891
854.924	0.0162706
855.003	0.0162366
855.081	0.0162749
855.159	0.0161946
855.237	0.0162621
855.315	0.0162308
855.393	0.0162636
855.471	0.0164264
855.549	0.0162771
855.628	0.0162712
855.706	0.0162592
855.784	0.0164436
855.862	0.0164185
855.940	0.0162851
856.018	0.0163181
856.096	0.0163860
856.174	0.0164414
856.253	0.0163672
856.331	0.0162532
856.409	0.0164675
856.487	0.0164147
856.565	0.0162988
856.643	0.0163266
856.721	0.0163009
856.799	0.0163942
856.878	0.0162408
856.956	0.0162687
857.034	0.0163818
857.112	0.0163156
857.190	0.0162921
857.268	0.0161675
857.346	0.0160764
857.424	0.0161337
857.503	0.0163177
857.581	0.0163126
857.659	0.0161667
857.737	0.0162587
857.815	0.0163213
857.893	0.0162585
857.971	0.0162074
858.049	0.0162108
858.128	0.0161305
858.206	0.0162002
858.284	0.0161189
858.362	0.0161134
858.440	0.0160538
858.518	0.0160358
858.596	0.0160975
858.674	0.0160323
858.753	0.0158757
858.831	0.0160131
858.909	0.0160934
858.987	0.0158553
859.065	0.0159856
859.143	0.0159241
859.221	0.0159154
859.299	0.0159460
859.378	0.0159310
859.456	0.0159863
859.534	0.0159964
859.612	0.0160320
859.690	0.0161636
859.768	0.0162326
859.846	0.0160165
859.924	0.0161169
860.003	0.0161498
860.081	0.0160629
860.159	0.0160664
860.237	0.0161494
860.315	0.0161839
860.393	0.0162188
860.471	0.0161828
860.549	0.0163333
860.628	0.0162936
860.706	0.0162315
860.784	0.0163181
860.862	0.0163390
860.940	0.0162244
861.018	0.0163750
861.096	0.0164950
861.174	0.0162726
861.253	0.0163671
861.331	0.0163743
861.409	0.0163625
861.487	0.0164404
861.565	0.0164407
861.643	0.0164796
861.721	0.0163533
861.799	0.0165426
861.878	0.0164587
861.956	0.0163525
862.034	0.0162927
862.112	0.0163023
862.190	0.0163718
862.268	0.0163345
862.346	0.0163157
862.424	0.0162685
862.503	0.0162581
862.581	0.0162344
862.659	0.0161553
862.737	0.0162529
862.815	0.0161305
862.893	0.0162106
862.971	0.0160899
863.049	0.0162819
863.128	0.0161395
863.206	0.0160487
863.284	0.0160007
863.362	0.0160237
863.440	0.0160663
863.518	0.0160629
863.596	0.0160855
863.674	0.0160393
863.753	0.0160065
863.831	0.0160197
863.909	0.0161913
863.987	0.0160541
864.065	0.0159492
864.143	0.0160531
864.221	0.0160764
864.299	0.0161086
864.378	0.0161185
864.456	0.0159880
864.534	0.0161193
864.612	0.0159985
864.690	0.0160765
864.768	0.0161180
864.846	0.0159769
864.924	0.0160091
865.003	0.0161971
865.081	0.0161584
865.159	0.0161023
865.237	0.0160897
865.315	0.0161639
865.393	0.0159898
865.471	0.0161481
865.549	0.0162781
865.628	0.0161178
865.706	0.0161001
865.784	0.0161925
865.862	0.0162324
865.940	0.0161436
866.018	0.0162901
866.096	0.0163325
866.174	0.0162225
866.253	0.0162914
866.331	0.0162474
866.409	0.0163798
866.487	0.0165070
866.565	0.0164324
866.643	0.0164155
866.721	0.0164491
866.799	0.0164504
866.878	0.0163064
866.956	0.0162730
867.034	0.0164104
867.112	0.0165649
867.190	0.0164215
867.268	0.0164358
867.346	0.0165076
867.424	0.0164616
867.503	0.0164555
867.581	0.0162422
867.659	0.0164143
867.737	0.0163909
867.815	0.0163575
867.893	0.0164178
867.971	0.0162701
868.049	0.0164332
868.128	0.0163271
868.206	0.0161253
868.284	0.0163631
868.362	0.0162551
868.440	0.0163758
868.518	0.0162405
868.596	0.0161676
868.674	0.0161963
868.753	0.0161306
868.831	0.0162005
868.909	0.0160939
868.987	0.0159035
869.065	0.0159934
869.143	0.0160458
869.221	0.0159894
869.299	0.0160435
869.378	0.0159142
869.456	0.0158270
869.534	0.0158325
869.612	0.0158431
869.690	0.0158802
869.768	0.0159393
869.846	0.0158427
869.924	0.0159776
870.003	0.0158707
870.081	0.0159999
870.159	0.0161238
870.237	0.0161328
870.315	0.0161917
870.393	0.0161488
870.471	0.0161320
870.549	0.0162666
870.628	0.0162099
870.706	0.0163334
870.784	0.0162327
870.862	0.0162616
870.940	0.0163811
871.018	0.0163313
871.096	0.0164065
871.174	0.0163199
871.253	0.0163941
871.331	0.0164928
871.409	0.0163606
871.487	0.0162022
871.565	0.0164633
871.643	0.0163384
871.721	0.0164321
871.799	0.0163651
871.878	0.0164101
871.956	0.0165452
872.034	0.0163540
872.112	0.0163792
872.190	0.0163515
872.268	0.0164520
872.346	0.0163818
872.424	0.0162455
872.503	0.0162749
872.581	0.0163081
872.659	0.0163622
872.737	0.0163284
872.815	0.0162996
872.893	0.0163955
872.971	0.0164890
873.049	0.0162689
873.128	0.0162602
873.206	0.0163390
873.284	0.0163239
873.362	0.0161845
873.440	0.0161079
873.518	0.0161784
873.596	0.0161450
873.674	0.0160489
873.753	0.0161040
873.831	0.0161579
873.909	0.0161254
873.987	0.0160911
874.065	0.0160429
874.143	0.0160794
874.221	0.0160182
874.299	0.0159007
874.378	0.0160995
874.456	0.0160188
874.534	0.0159222
874.612	0.0160760
874.690	0.0161138
874.768	0.0160178
874.846	0.0160397
874.924	0.0158998
875.003	0.0159708
875.081	0.0160986
875.159	0.0161376
875.237	0.0161985
875.315	0.0160351
875.393	0.0161158
875.471	0.0160917
875.549	0.0160756
875.628	0.0162309
875.706	0.0161219
875.784	0.0162422
875.862	0.0162129
875.940	0.0164010
876.018	0.0163262
876.096	0.0162422
876.174	0.0163345
876.253	0.0162457
876.331	0.0162484
876.409	0.0162907
876.487	0.0164008
876.565	0.0162449
876.643	0.0161559
876.721	0.0162482
876.799	0.0163012
876.878	0.0162853
876.956	0.0162617
877.034	0.0163851
877.112	0.0162919
877.190	0.0162607
877.268	0.0163124
877.346	0.0162122
877.424	0.0162006
877.503	0.0162966
877.581	0.0162009
877.659	0.0163109
877.737	0.0162696
877.815	0.0162808
877.893	0.0163508
877.971	0.0162420
878.049	0.0161048
878.128	0.0161831
878.206	0.0159956
878.284	0.0160759
878.362	0.0162791
878.440	0.0160791
878.518	0.0161178
878.596	0.0161926
878.674	0.0162197
878.753	0.0161376
878.831	0.0160570
878.909	0.0161129
878.987	0.0160284
879.065	0.0161088
879.143	0.0159726
879.221	0.0160994
879.299	0.0160411
879.378	0.0161116
879.456	0.0162267
879.534	0.0159951
879.612	0.0160189
879.690	0.0161479
879.768	0.0162453
879.846	0.0161044
879.924	0.0161045
880.003	0.0159950
880.081	0.0162196
880.159	0.0161626
880.237	0.0160642
880.315	0.0162825
880.393	0.0163215
880.471	0.0161836
880.549	0.0161038
880.628	0.0160970
880.706	0.0161966
880.784	0.0160936
880.862	0.0161761
880.940	0.0162199
881.018	0.0162042
881.096	0.0161003
881.174	0.0162600
881.253	0.0162599
881.331	0.0162450
881.409	0.0162938
881.487	0.0162008
881.565	0.0160885
881.643	0.0162130
881.721	0.0162881
881.799	0.0162680
881.878	0.0162393
881.956	0.0162325
882.034	0.0162623
882.112	0.0162193
882.190	0.0162160
882.268	0.0162663
882.346	0.0162311
882.424	0.0162932
882.503	0.0162832
882.581	0.0161269
882.659	0.0162840
882.737	0.0161488
882.815	0.0162534
882.893	0.0162701
882.971	0.0162096
883.049	0.0163416
883.128	0.0161657
883.206	0.0163480
883.284	0.0161849
883.362	0.0162178
883.440	0.0161257
883.518	0.0162772
883.596	0.0162650
883.674	0.0160851
883.753	0.0161045
883.831	0.0161664
883.909	0.0161272
883.987	0.0160799
884.065	0.0161413
884.143	0.0160823
884.221	0.0162244
884.299	0.0161483
884.378	0.0161569
884.456	0.0162227
884.534	0.0162020
884.612	0.0161771
884.690	0.0161377
884.768	0.0160989
884.846	0.0162876
884.924	0.0162560
885.003	0.0160300
885.081	0.0160542
885.159	0.0159791
885.237	0.0162534
885.315	0.0161742
885.393	0.0161092
885.471	0.0162066
885.549	0.0162847
885.628	0.0162342
885.706	0.0161240
885.784	0.0161143
885.862	0.0162064
885.940	0.0162638
886.018	0.0162511
886.096	0.0162923
886.174	0.0162599
886.253	0.0161998
886.331	0.0163205
886.409	0.0162735
886.487	0.0163165
886.565	0.0162808
886.643	0.0163696
886.721	0.0162368
886.799	0.0160316
886.878	0.0160664
886.956	0.0161951
887.034	0.0162661
887.112	0.0161523
887.190	0.0161645
887.268	0.0161617
887.346	0.0161834
887.424	0.0160369
887.503	0.0159966
887.581	0.0162884
887.659	0.0161486
887.737	0.0160831
887.815	0.0162366
887.893	0.0161413
887.971	0.0162687
888.049	0.0162707
888.128	0.0161878
888.206	0.0162265
888.284	0.0162706
888.362	0.0161852
888.440	0.0162286
888.518	0.0162820
888.596	0.0161054
888.674	0.0161774
888.753	0.0163860
888.831	0.0162549
888.909	0.0161823
888.987	0.0163265
889.065	0.0161686
889.143	0.0161974
889.221	0.0161960
889.299	0.0162380
889.378	0.0161438
889.456	0.0161382
889.534	0.0161926
889.612	0.0162083
889.690	0.0160637
889.768	0.0161118
889.846	0.0161073
889.924	0.0163141
890.003	0.0162277
890.081	0.0160951
890.159	0.0160321
890.237	0.0160688
890.315	0.0161399
890.393	0.0162006
890.471	0.0162845
890.549	0.0161806
890.628	0.0161677
890.706	0.0161055
890.784	0.0162429
890.862	0.0161564
890.940	0.0160557
891.018	0.0161868
891.096	0.0161003
891.174	0.0161212
891.253	0.0161909
891.331	0.0161198
891.409	0.0161510
891.487	0.0161433
891.565	0.0161132
891.643	0.0162329
891.721	0.0163453
891.799	0.0163084
891.878	0.0162204
891.956	0.0163346
892.034	0.0162954
892.112	0.0162830
892.190	0.0162575
892.268	0.0162644
892.346	0.0163464
892.424	0.0164289
892.503	0.0162708
892.581	0.0163381
892.659	0.0163721
892.737	0.0163404
892.815	0.0163419
892.893	0.0164086
892.971	0.0162543
893.049	0.0161835
893.128	0.0162362
893.206	0.0161664
893.284	0.0161776
893.362	0.0162319
893.440	0.0161886
893.518	0.0160976
893.596	0.0160770
893.674	0.0161555
893.753	0.0160879
893.831	0.0160501
893.909	0.0162450
893.987	0.0162141
894.065	0.0160728
894.143	0.0161348
894.221	0.0162052
894.299	0.0160401
894.378	0.0161235
894.456	0.0161749
894.534	0.0160583
894.612	0.0161460
894.690	0.0161816
894.768	0.0161409
894.846	0.0161540
894.924	0.0161657
895.003	0.0161976
895.081	0.0163107
895.159	0.0161829
895.237	0.0161024
895.315	0.0161514
895.393	0.0161160
895.471	0.0162474
895.549	0.0161816
895.628	0.0161388
895.706	0.0161283
895.784	0.0161465
895.862	0.0162271
895.940	0.0162732
896.018	0.0163064
896.096	0.0163031
896.174	0.0162482
896.253	0.0163123
896.331	0.0162823
896.409	0.0162280
896.487	0.0163303
896.565	0.0163089
896.643	0.0164184
896.721	0.0162093
896.799	0.0163095
896.878	0.0162590
896.956	0.0162328
897.034	0.0162280
897.112	0.0161963
897.190	0.0161750
897.268	0.0162448
897.346	0.0162240
897.424	0.0160983
897.503	0.0162552
897.581	0.0161296
897.659	0.0160900
897.737	0.0161821
897.815	0.0162344
897.893	0.0163074
897.971	0.0161689
898.049	0.0162295
898.128	0.0161784
898.206	0.0162791
898.284	0.0162614
898.362	0.0162851
898.440	0.0164323
898.518	0.0163174
898.596	0.0161771
898.674	0.0163171
898.753	0.0163611
898.831	0.0162955
898.909	0.0163369
898.987	0.0162251
899.065	0.0162641
899.143	0.0162408
899.221	0.0162457
899.299	0.0162774
899.378	0.0163511
899.456	0.0163588
899.534	0.0164100
899.612	0.0163255
899.690	0.0164083
899.768	0.0162016
899.846	0.0163509
899.924	0.0162601
900.003	0.0162032
900.081	0.0162399
900.159	0.0162114
900.237	0.0164778
900.315	0.0162698
900.393	0.0162240
900.471	0.0161940
900.549	0.0162572
900.628	0.0162289
900.706	0.0162613
900.784	0.0162486
900.862	0.0161353
900.940	0.0160816
901.018	0.0162868
901.096	0.0161644
901.174	0.0160705
901.253	0.0160556
901.331	0.0160734
901.409	0.0160637
901.487	0.0160461
901.565	0.0161127
901.643	0.0160880
901.721	0.0160920
901.799	0.0161944
901.878	0.0160504
901.956	0.0161581
902.034	0.0163194
902.112	0.0162518
902.190	0.0161523
902.268	0.0161288
902.346	0.0162006
902.424	0.0162511
902.503	0.0161348
902.581	0.0161520
902.659	0.0162572
902.737	0.0162785
902.815	0.0160953
902.893	0.0162566
902.971	0.0161709
903.049	0.0161690
903.128	0.0162321
903.206	0.0162160
903.284	0.0163605
903.362	0.0163268
903.440	0.0163205
903.518	0.0164099
903.596	0.0162448
903.674	0.0163189
903.753	0.0162926
903.831	0.0162678
903.909	0.0162846
903.987	0.0162585
904.065	0.0164130
904.143	0.0163885
904.221	0.0162713
904.299	0.0163165
904.378	0.0162605
904.456	0.0161301
904.534	0.0161692
904.612	0.0160983
904.690	0.0161195
904.768	0.0162450
904.846	0.0162257
904.924	0.0162096
905.003	0.0160365
905.081	0.0160594
905.159	0.0161538
905.237	0.0160826
905.315	0.0160997
905.393	0.0161490
905.471	0.0160989
905.549	0.0161429
905.628	0.0161891
905.706	0.0161430
905.784	0.0163464
905.862	0.0163837
905.940	0.0163858
906.018	0.0162301
906.096	0.0162489
906.174	0.0162513
906.253	0.0161251
906.331	0.0163445
906.409	0.0163446
906.487	0.0164935
906.565	0.0161847
906.643	0.0162079
906.721	0.0162479
906.799	0.0161602
906.878	0.0160672
906.956	0.0161459
907.034	0.0162527
907.112	0.0160029
907.190	0.0159568
907.268	0.0161314
907.346	0.0160297
907.424	0.0160213
907.503	0.0161082
907.581	0.0161250
907.659	0.0160231
907.737	0.0160145
907.815	0.0162360
907.893	0.0162161
907.971	0.0161846
908.049	0.0161336
908.128	0.0162399
908.206	0.0161729
908.284	0.0162125
908.362	0.0161499
908.440	0.0162263
908.518	0.0162218
908.596	0.0162617
908.674	0.0161773
908.753	0.0161925
908.831	0.0161974
908.909	0.0160966
908.987	0.0160957
909.065	0.0162749
909.143	0.0161705
909.221	0.0161338
909.299	0.0161090
909.378	0.0161874
909.456	0.0161341
909.534	0.0161935
909.612	0.0162047
909.690	0.0160509
909.768	0.0160212
909.846	0.0162001
909.924	0.0161812
910.003	0.0161197
910.081	0.0161258
910.159	0.0161393
910.237	0.0161696
910.315	0.0162084
910.393	0.0162649
910.471	0.0161799
910.549	0.0162885
910.628	0.0163044
910.706	0.0163178
910.784	0.0161710
910.862	0.0162440
910.940	0.0163046
911.018	0.0160910
911.096	0.0160926
911.174	0.0162076
911.253	0.0162400
911.331	0.0161684
911.409	0.0161511
911.487	0.0161977
911.565	0.0161524
911.643	0.0161510
911.721	0.0162391
911.799	0.0162364
911.878	0.0160349
911.956	0.0161148
912.034	0.0162283
912.112	0.0163059
912.190	0.0162345
912.268	0.0161350
912.346	0.0160287
912.424	0.0161581
912.503	0.0161559
912.581	0.0161139
912.659	0.0161747
912.737	0.0161703
912.815	0.0160097
912.893	0.0160386
912.971	0.0160538
913.049	0.0161826
913.128	0.0160251
913.206	0.0160849
913.284	0.0161508
913.362	0.0160639
913.440	0.0160956
913.518	0.0161949
913.596	0.0162399
913.674	0.0162665
913.753	0.0163205
913.831	0.0163060
913.909	0.0163364
913.987	0.0163243
914.065	0.0163538
914.143	0.0164885
914.221	0.0164231
914.299	0.0161947
914.378	0.0163868
914.456	0.0163741
914.534	0.0164007
914.612	0.0162959
914.690	0.0163446
914.768	0.0161170
914.846	0.0161322
914.924	0.0161034
915.003	0.0161835
915.081	0.0160305
915.159	0.0159541
915.237	0.0159189
915.315	0.0160069
915.393	0.0160305
915.471	0.0159937
915.549	0.0159566
915.628	0.0160907
915.706	0.0160571
915.784	0.0160974
915.862	0.0160529
915.940	0.0161771
916.018	0.0163622
916.096	0.0161896
916.174	0.0162975
916.253	0.0164358
916.331	0.0164351
916.409	0.0164790
916.487	0.0163337
916.565	0.0164868
916.643	0.0162284
916.721	0.0162572
916.799	0.0162950
916.878	0.0162691
916.956	0.0162541
917.034	0.0161784
917.112	0.0162821
917.190	0.0161773
917.268	0.0161832
917.346	0.0160268
917.424	0.0160608
917.503	0.0160953
917.581	0.0162666
917.659	0.0161144
917.737	0.0161398
917.815	0.0161000
917.893	0.0160027
917.971	0.0161375
918.049	0.0160574
918.128	0.0160715
918.206	0.0158999
918.284	0.0159144
918.362	0.0160116
918.440	0.0161246
918.518	0.0160979
918.596	0.0160645
918.674	0.0161310
918.753	0.0161202
918.831	0.0161840
918.909	0.0161061
918.987	0.0163029
919.065	0.0160884
919.143	0.0161902
919.221	0.0163243
919.299	0.0163296
919.378	0.0161247
919.456	0.0162241
919.534	0.0163737
919.612	0.0163694
919.690	0.0163503
919.768	0.0161501
919.846	0.0163179
919.924	0.0162749
920.003	0.0162089
920.081	0.0162934
920.159	0.0164226
920.237	0.0163155
920.315	0.0162691
920.393	0.0163167
920.471	0.0163734
920.549	0.0161870
920.628	0.0161279
920.706	0.0161354
920.784	0.0161921
920.862	0.0162813
920.940	0.0162064
921.018	0.0161858
921.096	0.0161902
921.174	0.0160120
921.253	0.0160464
921.331	0.0161691
921.409	0.0162805
921.487	0.0161532
921.565	0.0163265
921.643	0.0161504
921.721	0.0162320
921.799	0.0161556
921.878	0.0161351
921.956	0.0160583
922.034	0.0161684
922.112	0.0161983
922.190	0.0162156
922.268	0.0161023
922.346	0.0161058
922.424	0.0162100
922.503	0.0161008
922.581	0.0159595
922.659	0.0160999
922.737	0.0162099
922.815	0.0161219
922.893	0.0161194
922.971	0.0161085
923.049	0.0160484
923.128	0.0160052
923.206	0.0160863
923.284	0.0161548
923.362	0.0160662
923.440	0.0161079
923.518	0.0161817
923.596	0.0161228
923.674	0.0160378
923.753	0.0159555
923.831	0.0161570
923.909	0.0161150
923.987	0.0161445
924.065	0.0159498
924.143	0.0160446
924.221	0.0162141
924.299	0.0161392
924.378	0.0161943
924.456	0.0162268
924.534	0.0162025
924.612	0.0162033
924.690	0.0161759
924.768	0.0165248
924.846	0.0164708
924.924	0.0163787
925.003	0.0163937
925.081	0.0164574
925.159	0.0163321
925.237	0.0163126
925.315	0.0164390
925.393	0.0164611
925.471	0.0165137
925.549	0.0164195
925.628	0.0163747
925.706	0.0162911
925.784	0.0163802
925.862	0.0163663
925.940	0.0161625
926.018	0.0162372
926.096	0.0161487
926.174	0.0161593
926.253	0.0161494
926.331	0.0162043
926.409	0.0162701
926.487	0.0161417
926.565	0.0160861
926.643	0.0161594
926.721	0.0161962
926.799	0.0160710
926.878	0.0163021
926.956	0.0162054
927.034	0.0161859
927.112	0.0162821
927.190	0.0161639
927.268	0.0160930
927.346	0.0161752
927.424	0.0160867
927.503	0.0162452
927.581	0.0161712
927.659	0.0161053
927.737	0.0161155
927.815	0.0162083
927.893	0.0161618
927.971	0.0162956
928.049	0.0161804
928.128	0.0161861
928.206	0.0162547
928.284	0.0162810
928.362	0.0160859
928.440	0.0161753
928.518	0.0161443
928.596	0.0160784
928.674	0.0160217
928.753	0.0160594
928.831	0.0159618
928.909	0.0159570
928.987	0.0158709
929.065	0.0159569
929.143	0.0160321
929.221	0.0160804
929.299	0.0160689
929.378	0.0161640
929.456	0.0161885
929.534	0.0162708
929.612	0.0162609
929.690	0.0162235
929.768	0.0163893
929.846	0.0163509
929.924	0.0164544
930.003	0.0163801
930.081	0.0163242
930.159	0.0164667
930.237	0.0164705
930.315	0.0162915
930.393	0.0162178
930.471	0.0162611
930.549	0.0161066
930.628	0.0160750
930.706	0.0161297
930.784	0.0161967
930.862	0.0160758
930.940	0.0160616
931.018	0.0162381
931.096	0.0162818
931.174	0.0162800
931.253	0.0163211
931.331	0.0163702
931.409	0.0162428
931.487	0.0163436
931.565	0.0164153
931.643	0.0163158
931.721	0.0161835
931.799	0.0162421
931.878	0.0162405
931.956	0.0162302
932.034	0.0161996
932.112	0.0162367
932.190	0.0162005
932.268	0.0162286
932.346	0.0161662
932.424	0.0163499
932.503	0.0162119
932.581	0.0163309
932.659	0.0163982
932.737	0.0162959
932.815	0.0165283
932.893	0.0163725
932.971	0.0162400
933.049	0.0163143
933.128	0.0163747
933.206	0.0161473
933.284	0.0163257
933.362	0.0162569
933.440	0.0160761
933.518	0.0160126
933.596	0.0160121
933.674	0.0161218
933.753	0.0160551
933.831	0.0158360
933.909	0.0160417
933.987	0.0161722
934.065	0.0159390
934.143	0.0159399
934.221	0.0160409
934.299	0.0159501
934.378	0.0160284
934.456	0.0160637
934.534	0.0161205
934.612	0.0162231
934.690	0.0161927
934.768	0.0163357
934.846	0.0161424
934.924	0.0162352
935.003	0.0162467
935.081	0.0161557
935.159	0.0161619
935.237	0.0161620
935.315	0.0162389
935.393	0.0160557
935.471	0.0162145
935.549	0.0160332
935.628	0.0161472
935.706	0.0161437
935.784	0.0160296
935.862	0.0162678
935.940	0.0162626
936.018	0.0162993
936.096	0.0162364
936.174	0.0162296
936.253	0.0163827
936.331	0.0163658
936.409	0.0162424
936.487	0.0163949
936.565	0.0163335
936.643	0.0161799
936.721	0.0161361
936.799	0.0161998
936.878	0.0162363
936.956	0.0161449
937.034	0.0161407
937.112	0.0161252
937.190	0.0162181
937.268	0.0159560
937.346	0.0161655
937.424	0.0161558
937.503	0.0161881
937.581	0.0160845
937.659	0.0161550
937.737	0.0162059
937.815	0.0162228
937.893	0.0162648
937.971	0.0162626
938.049	0.0162875
938.128	0.0163681
938.206	0.0162741
938.284	0.0162146
938.362	0.0162514
938.440	0.0162164
938.518	0.0161672
938.596	0.0161929
938.674	0.0160616
938.753	0.0162598
938.831	0.0159995
938.909	0.0160742
938.987	0.0161441
939.065	0.0159401
939.143	0.0161091
939.221	0.0161065
939.299	0.0159538
939.378	0.0160789
939.456	0.0162361
939.534	0.0162128
939.612	0.0162735
939.690	0.0161259
939.768	0.0162707
939.846	0.0163517
939.924	0.0163634
940.003	0.0162312
940.081	0.0163154
940.159	0.0162595
940.237	0.0162049
940.315	0.0162170
940.393	0.0161902
940.471	0.0162144
940.549	0.0161926
940.628	0.0162223
940.706	0.0161367
940.784	0.0162334
940.862	0.0161423
940.940	0.0159921
941.018	0.0161119
941.096	0.0161842
941.174	0.0162767
941.253	0.0162807
941.331	0.0163348
941.409	0.0162122
941.487	0.0162500
941.565	0.0162830
941.643	0.0162208
941.721	0.0161388
941.799	0.0160002
941.878	0.0161656
941.956	0.0160220
942.034	0.0160148
942.112	0.0160442
942.190	0.0161213
942.268	0.0160470
942.346	0.0160425
942.424	0.0160099
942.503	0.0160422
942.581	0.0161246
942.659	0.0160855
942.737	0.0162520
942.815	0.0160784
942.893	0.0161214
942.971	0.0160992
943.049	0.0162394
943.128	0.0162611
943.206	0.0162180
943.284	0.0163134
943.362	0.0162981
943.440	0.0162630
943.518	0.0162652
943.596	0.0164422
943.674	0.0163510
943.753	0.0162267
943.831	0.0163180
943.909	0.0161545
943.987	0.0161169
944.065	0.0163507
944.143	0.0163926
944.221	0.0161874
944.299	0.0161772
944.378	0.0162621
944.456	0.0163400
944.534	0.0161971
944.612	0.0163126
944.690	0.0163580
944.768	0.0161489
944.846	0.0163600
944.924	0.0163826
945.003	0.0164014
945.081	0.0163689
945.159	0.0162617
945.237	0.0163026
945.315	0.0163355
945.393	0.0161778
945.471	0.0161208
945.549	0.0162523
945.628	0.0162653
945.706	0.0161961
945.784	0.0161512
945.862	0.0160209
945.940	0.0160480
946.018	0.0161065
946.096	0.0162012
946.174	0.0162413
946.253	0.0160690
946.331	0.0160883
946.409	0.0160638
946.487	0.0161615
946.565	0.0161476
946.643	0.0160404
946.721	0.0161639
946.799	0.0160566
946.878	0.0160044
946.956	0.0161849
947.034	0.0160529
947.112	0.0160542
947.190	0.0160409
947.268	0.0159488
947.346	0.0160322
947.424	0.0160772
947.503	0.0160921
947.581	0.0159923
947.659	0.0162093
947.737	0.0160649
947.815	0.0161507
947.893	0.0160920
947.971	0.0162207
948.049	0.0161529
948.128	0.0162375
948.206	0.0162576
948.284	0.0161787
948.362	0.0163084
948.440	0.0161973
948.518	0.0163318
948.596	0.0162334
948.674	0.0161620
948.753	0.0163426
948.831	0.0162684
948.909	0.0163286
948.987	0.0161944
949.065	0.0163581
949.143	0.0163362
949.221	0.0162572
949.299	0.0162330
949.378	0.0161707
949.456	0.0161258
949.534	0.0163304
949.612	0.0162935
949.690	0.0161526
949.768	0.0162331
949.846	0.0161793
949.924	0.0163093
