06/29/2022	22:55:45	Ver.	4.1	UNKNOWN
Optical Delay	630.002507	Delta X		0.078125	Sweeps	1	Scan Rate	0/0
Coordinates	Axis 1	NaN	Axis 2	NaN	Axis 3	NaN	Axis 4	NaN	Axis 5	NaN	Axis 6	0.000000
TX Power	0.000000	RX Power	0.000000

630.003	0.0153838
630.081	0.0154365
630.159	0.0153229
630.237	0.0152581
630.315	0.0154871
630.393	0.0153261
630.471	0.0154236
630.549	0.0154774
630.628	0.0152850
630.706	0.0154739
630.784	0.0154404
630.862	0.0153283
630.940	0.0153170
631.018	0.0153545
631.096	0.0154019
631.174	0.0154226
631.253	0.0153963
631.331	0.0153308
631.409	0.0154295
631.487	0.0153140
631.565	0.0153663
631.643	0.0154751
631.721	0.0154210
631.799	0.0153023
631.878	0.0152240
631.956	0.0154247
632.034	0.0153880
632.112	0.0153088
632.190	0.0154411
632.268	0.0153790
632.346	0.0153131
632.424	0.0153695
632.503	0.0154031
632.581	0.0153419
632.659	0.0153906
632.737	0.0154330
632.815	0.0152817
632.893	0.0154165
632.971	0.0154269
633.049	0.0154105
633.128	0.0153919
633.206	0.0152909
633.284	0.0153133
633.362	0.0154755
633.440	0.0153882
633.518	0.0153981
633.596	0.0153017
633.674	0.0151920
633.753	0.0153987
633.831	0.0152753
633.909	0.0153831
633.987	0.0154463
634.065	0.0154391
634.143	0.0152917
634.221	0.0153985
634.299	0.0154536
634.378	0.0154593
634.456	0.0153040
634.534	0.0152538
634.612	0.0153349
634.690	0.0154001
634.768	0.0153536
634.846	0.0153650
634.924	0.0154212
635.003	0.0154012
635.081	0.0154119
635.159	0.0154324
635.237	0.0155090
635.315	0.0154427
635.393	0.0152889
635.471	0.0153165
635.549	0.0155025
635.628	0.0153738
635.706	0.0152605
635.784	0.0154403
635.862	0.0154118
635.940	0.0153764
636.018	0.0155199
636.096	0.0153810
636.174	0.0153851
636.253	0.0153200
636.331	0.0155106
636.409	0.0154707
636.487	0.0154272
636.565	0.0153406
636.643	0.0154205
636.721	0.0155314
636.799	0.0152911
636.878	0.0152669
636.956	0.0152682
637.034	0.0154469
637.112	0.0154305
637.190	0.0153442
637.268	0.0152196
637.346	0.0155063
637.424	0.0154501
637.503	0.0153391
637.581	0.0153117
637.659	0.0153522
637.737	0.0152554
637.815	0.0152186
637.893	0.0153342
637.971	0.0154162
638.049	0.0154895
638.128	0.0154087
638.206	0.0153131
638.284	0.0153846
638.362	0.0152922
638.440	0.0153352
638.518	0.0153529
638.596	0.0154117
638.674	0.0153030
638.753	0.0153699
638.831	0.0154092
638.909	0.0153876
638.987	0.0154305
639.065	0.0154971
639.143	0.0153860
639.221	0.0153795
639.299	0.0152974
639.378	0.0153717
639.456	0.0152507
639.534	0.0153017
639.612	0.0152557
639.690	0.0153916
639.768	0.0152779
639.846	0.0153395
639.924	0.0153707
640.003	0.0154699
640.081	0.0154801
640.159	0.0154002
640.237	0.0154855
640.315	0.0152867
640.393	0.0154315
640.471	0.0153280
640.549	0.0152547
640.628	0.0154173
640.706	0.0154242
640.784	0.0153455
640.862	0.0155019
640.940	0.0153027
641.018	0.0153783
641.096	0.0154194
641.174	0.0154243
641.253	0.0152776
641.331	0.0153559
641.409	0.0154244
641.487	0.0153722
641.565	0.0153543
641.643	0.0153364
641.721	0.0153806
641.799	0.0153820
641.878	0.0153101
641.956	0.0153354
642.034	0.0153562
642.112	0.0151847
642.190	0.0154240
642.268	0.0153935
642.346	0.0155573
642.424	0.0153925
642.503	0.0153094
642.581	0.0153091
642.659	0.0153487
642.737	0.0154166
642.815	0.0152885
642.893	0.0153600
642.971	0.0154794
643.049	0.0154239
643.128	0.0154361
643.206	0.0153812
643.284	0.0153741
643.362	0.0154564
643.440	0.0154806
643.518	0.0153810
643.596	0.0153375
643.674	0.0154278
643.753	0.0154234
643.831	0.0153667
643.909	0.0153295
643.987	0.0152639
644.065	0.0153104
644.143	0.0153839
644.221	0.0153503
644.299	0.0153633
644.378	0.0153693
644.456	0.0151931
644.534	0.0153126
644.612	0.0153515
644.690	0.0155396
644.768	0.0154150
644.846	0.0152665
644.924	0.0152991
645.003	0.0153999
645.081	0.0154643
645.159	0.0154132
645.237	0.0153542
645.315	0.0152484
645.393	0.0154158
645.471	0.0153396
645.549	0.0152513
645.628	0.0153166
645.706	0.0152383
645.784	0.0153779
645.862	0.0154646
645.940	0.0153703
646.018	0.0152828
646.096	0.0153091
646.174	0.0154366
646.253	0.0153761
646.331	0.0154161
646.409	0.0154815
646.487	0.0153993
646.565	0.0153631
646.643	0.0154649
646.721	0.0154683
646.799	0.0154359
646.878	0.0154117
646.956	0.0153507
647.034	0.0154195
647.112	0.0154631
647.190	0.0153761
647.268	0.0153883
647.346	0.0154382
647.424	0.0154081
647.503	0.0153869
647.581	0.0153979
647.659	0.0153355
647.737	0.0154053
647.815	0.0153587
647.893	0.0152928
647.971	0.0153073
648.049	0.0152622
648.128	0.0154470
648.206	0.0154402
648.284	0.0153572
648.362	0.0153590
648.440	0.0153706
648.518	0.0153469
648.596	0.0154504
648.674	0.0154273
648.753	0.0154463
648.831	0.0152876
648.909	0.0154023
648.987	0.0153265
649.065	0.0153884
649.143	0.0154308
649.221	0.0153436
649.299	0.0153378
649.378	0.0154861
649.456	0.0154179
649.534	0.0154828
649.612	0.0153357
649.690	0.0154572
649.768	0.0153821
649.846	0.0153272
649.924	0.0154836
650.003	0.0154095
650.081	0.0152876
650.159	0.0154123
650.237	0.0153068
650.315	0.0153955
650.393	0.0153581
650.471	0.0152431
650.549	0.0153329
650.628	0.0154395
650.706	0.0152492
650.784	0.0153574
650.862	0.0154141
650.940	0.0154819
651.018	0.0154589
651.096	0.0154298
651.174	0.0154132
651.253	0.0153375
651.331	0.0154635
651.409	0.0153675
651.487	0.0152622
651.565	0.0153513
651.643	0.0154126
651.721	0.0154095
651.799	0.0154086
651.878	0.0152454
651.956	0.0153264
652.034	0.0153399
652.112	0.0153082
652.190	0.0155541
652.268	0.0155038
652.346	0.0153929
652.424	0.0152995
652.503	0.0153369
652.581	0.0154962
652.659	0.0154066
652.737	0.0154173
652.815	0.0153886
652.893	0.0153864
652.971	0.0153641
653.049	0.0154369
653.128	0.0153545
653.206	0.0153215
653.284	0.0152769
653.362	0.0154128
653.440	0.0153666
653.518	0.0153391
653.596	0.0154042
653.674	0.0153348
653.753	0.0153879
653.831	0.0154639
653.909	0.0152793
653.987	0.0153593
654.065	0.0154120
654.143	0.0154039
654.221	0.0152966
654.299	0.0152649
654.378	0.0153875
654.456	0.0153503
654.534	0.0154088
654.612	0.0153993
654.690	0.0153167
654.768	0.0153556
654.846	0.0153486
654.924	0.0154217
655.003	0.0153875
655.081	0.0153059
655.159	0.0153807
655.237	0.0154792
655.315	0.0153652
655.393	0.0154676
655.471	0.0154362
655.549	0.0152953
655.628	0.0153214
655.706	0.0153378
655.784	0.0154066
655.862	0.0153252
655.940	0.0152882
656.018	0.0154894
656.096	0.0153806
656.174	0.0154456
656.253	0.0156016
656.331	0.0154256
656.409	0.0153505
656.487	0.0154427
656.565	0.0153192
656.643	0.0153206
656.721	0.0154690
656.799	0.0153842
656.878	0.0153740
656.956	0.0153585
657.034	0.0153082
657.112	0.0153891
657.190	0.0153661
657.268	0.0154664
657.346	0.0152876
657.424	0.0153351
657.503	0.0152636
657.581	0.0154008
657.659	0.0153902
657.737	0.0153146
657.815	0.0153987
657.893	0.0154078
657.971	0.0153144
658.049	0.0153558
658.128	0.0153804
658.206	0.0153613
658.284	0.0153687
658.362	0.0153600
658.440	0.0154156
658.518	0.0152959
658.596	0.0155038
658.674	0.0154281
658.753	0.0153060
658.831	0.0154535
658.909	0.0154471
658.987	0.0153359
659.065	0.0153113
659.143	0.0154429
659.221	0.0153307
659.299	0.0153148
659.378	0.0155273
659.456	0.0154588
659.534	0.0152316
659.612	0.0154166
659.690	0.0154003
659.768	0.0154604
659.846	0.0153738
659.924	0.0153534
660.003	0.0152480
660.081	0.0154387
660.159	0.0154008
660.237	0.0152823
660.315	0.0152865
660.393	0.0154887
660.471	0.0154716
660.549	0.0153761
660.628	0.0153719
660.706	0.0154530
660.784	0.0153690
660.862	0.0154409
660.940	0.0154288
661.018	0.0153551
661.096	0.0154520
661.174	0.0152705
661.253	0.0153539
661.331	0.0154341
661.409	0.0153452
661.487	0.0153835
661.565	0.0152073
661.643	0.0153345
661.721	0.0153806
661.799	0.0153878
661.878	0.0154276
661.956	0.0153446
662.034	0.0152753
662.112	0.0153158
662.190	0.0152657
662.268	0.0153246
662.346	0.0154533
662.424	0.0154317
662.503	0.0152698
662.581	0.0151776
662.659	0.0154327
662.737	0.0152620
662.815	0.0153290
662.893	0.0152924
662.971	0.0155650
663.049	0.0154298
663.128	0.0152686
663.206	0.0153432
663.284	0.0153470
663.362	0.0154221
663.440	0.0154390
663.518	0.0151687
663.596	0.0152795
663.674	0.0155057
663.753	0.0154687
663.831	0.0152949
663.909	0.0153764
663.987	0.0154953
664.065	0.0153765
664.143	0.0152364
664.221	0.0153088
664.299	0.0153271
664.378	0.0152990
664.456	0.0154327
664.534	0.0154752
664.612	0.0153217
664.690	0.0153519
664.768	0.0153922
664.846	0.0153608
664.924	0.0152963
665.003	0.0153230
665.081	0.0154043
665.159	0.0154650
665.237	0.0154387
665.315	0.0153957
665.393	0.0154239
665.471	0.0153323
665.549	0.0155119
665.628	0.0154419
665.706	0.0154227
665.784	0.0153629
665.862	0.0154355
665.940	0.0154040
666.018	0.0153059
666.096	0.0152534
666.174	0.0152847
666.253	0.0154406
666.331	0.0154179
666.409	0.0154266
666.487	0.0154485
666.565	0.0155186
666.643	0.0154414
666.721	0.0153471
666.799	0.0154992
666.878	0.0154293
666.956	0.0153413
667.034	0.0154057
667.112	0.0153726
667.190	0.0153558
667.268	0.0154820
667.346	0.0154160
667.424	0.0153501
667.503	0.0152657
667.581	0.0152657
667.659	0.0153908
667.737	0.0154569
667.815	0.0154202
667.893	0.0152635
667.971	0.0152948
668.049	0.0152662
668.128	0.0154086
668.206	0.0153784
668.284	0.0154408
668.362	0.0153681
668.440	0.0153663
668.518	0.0153033
668.596	0.0153986
668.674	0.0153883
668.753	0.0154589
668.831	0.0153878
668.909	0.0153210
668.987	0.0154319
669.065	0.0153496
669.143	0.0153853
669.221	0.0153880
669.299	0.0154417
669.378	0.0153550
669.456	0.0153013
669.534	0.0153625
669.612	0.0154503
669.690	0.0153416
669.768	0.0153779
669.846	0.0154511
669.924	0.0153039
670.003	0.0153754
670.081	0.0153724
670.159	0.0153735
670.237	0.0154121
670.315	0.0153403
670.393	0.0154122
670.471	0.0153938
670.549	0.0154667
670.628	0.0153001
670.706	0.0154970
670.784	0.0155056
670.862	0.0153136
670.940	0.0153326
671.018	0.0154827
671.096	0.0155114
671.174	0.0154229
671.253	0.0153866
671.331	0.0154604
671.409	0.0154443
671.487	0.0154398
671.565	0.0153559
671.643	0.0153943
671.721	0.0153809
671.799	0.0154574
671.878	0.0153603
671.956	0.0154172
672.034	0.0154578
672.112	0.0153673
672.190	0.0154446
672.268	0.0154391
672.346	0.0154430
672.424	0.0153789
672.503	0.0153727
672.581	0.0154023
672.659	0.0153526
672.737	0.0153762
672.815	0.0153970
672.893	0.0154530
672.971	0.0154468
673.049	0.0153119
673.128	0.0153284
673.206	0.0153469
673.284	0.0154261
673.362	0.0154483
673.440	0.0154601
673.518	0.0153565
673.596	0.0154461
673.674	0.0153324
673.753	0.0153534
673.831	0.0153161
673.909	0.0154495
673.987	0.0154327
674.065	0.0154937
674.143	0.0153224
674.221	0.0153943
674.299	0.0154046
674.378	0.0153786
674.456	0.0153720
674.534	0.0153441
674.612	0.0154107
674.690	0.0154884
674.768	0.0153547
674.846	0.0154305
674.924	0.0153747
675.003	0.0154133
675.081	0.0154215
675.159	0.0154583
675.237	0.0152827
675.315	0.0152583
675.393	0.0155124
675.471	0.0154049
675.549	0.0153378
675.628	0.0152747
675.706	0.0152786
675.784	0.0153955
675.862	0.0154198
675.940	0.0153485
676.018	0.0153465
676.096	0.0152616
676.174	0.0153930
676.253	0.0154027
676.331	0.0154305
676.409	0.0152882
676.487	0.0153005
676.565	0.0153901
676.643	0.0153236
676.721	0.0154545
676.799	0.0153640
676.878	0.0152722
676.956	0.0154247
677.034	0.0153464
677.112	0.0153657
677.190	0.0153652
677.268	0.0153371
677.346	0.0153065
677.424	0.0152374
677.503	0.0152965
677.581	0.0153628
677.659	0.0153641
677.737	0.0153765
677.815	0.0152573
677.893	0.0153285
677.971	0.0152824
678.049	0.0153377
678.128	0.0152925
678.206	0.0152603
678.284	0.0152906
678.362	0.0152699
678.440	0.0152341
678.518	0.0153465
678.596	0.0152981
678.674	0.0153319
678.753	0.0152843
678.831	0.0154682
678.909	0.0154056
678.987	0.0151955
679.065	0.0153498
679.143	0.0153072
679.221	0.0154162
679.299	0.0154592
679.378	0.0154562
679.456	0.0152529
679.534	0.0153680
679.612	0.0154591
679.690	0.0152617
679.768	0.0153812
679.846	0.0153989
679.924	0.0154137
680.003	0.0153042
680.081	0.0154015
680.159	0.0154163
680.237	0.0153848
680.315	0.0152895
680.393	0.0154711
680.471	0.0153484
680.549	0.0154769
680.628	0.0153249
680.706	0.0153007
680.784	0.0154030
680.862	0.0154268
680.940	0.0155620
681.018	0.0153520
681.096	0.0154453
681.174	0.0153922
681.253	0.0155022
681.331	0.0153965
681.409	0.0152030
681.487	0.0154394
681.565	0.0154881
681.643	0.0153702
681.721	0.0152804
681.799	0.0152943
681.878	0.0154283
681.956	0.0153519
682.034	0.0154137
682.112	0.0153331
682.190	0.0153903
682.268	0.0153663
682.346	0.0152180
682.424	0.0153829
682.503	0.0152496
682.581	0.0154012
682.659	0.0154192
682.737	0.0152162
682.815	0.0153969
682.893	0.0155690
682.971	0.0153888
683.049	0.0152502
683.128	0.0153690
683.206	0.0154801
683.284	0.0153033
683.362	0.0152972
683.440	0.0153500
683.518	0.0154256
683.596	0.0153095
683.674	0.0153291
683.753	0.0153820
683.831	0.0153239
683.909	0.0154539
683.987	0.0154058
684.065	0.0152665
684.143	0.0153510
684.221	0.0152536
684.299	0.0153782
684.378	0.0154518
684.456	0.0153484
684.534	0.0154153
684.612	0.0153732
684.690	0.0153252
684.768	0.0153787
684.846	0.0153617
684.924	0.0152404
685.003	0.0154529
685.081	0.0154098
685.159	0.0152699
685.237	0.0154139
685.315	0.0153313
685.393	0.0154537
685.471	0.0153683
685.549	0.0154557
685.628	0.0154772
685.706	0.0152921
685.784	0.0152858
685.862	0.0152946
685.940	0.0153565
686.018	0.0153924
686.096	0.0154559
686.174	0.0154376
686.253	0.0153414
686.331	0.0153970
686.409	0.0154594
686.487	0.0153763
686.565	0.0153586
686.643	0.0153291
686.721	0.0154484
686.799	0.0154538
686.878	0.0152551
686.956	0.0153948
687.034	0.0154388
687.112	0.0153124
687.190	0.0152857
687.268	0.0153846
687.346	0.0154520
687.424	0.0153211
687.503	0.0153463
687.581	0.0153208
687.659	0.0153589
687.737	0.0154074
687.815	0.0154006
687.893	0.0152290
687.971	0.0153168
688.049	0.0153697
688.128	0.0153708
688.206	0.0153172
688.284	0.0153026
688.362	0.0151862
688.440	0.0152484
688.518	0.0152810
688.596	0.0152745
688.674	0.0153015
688.753	0.0152697
688.831	0.0154755
688.909	0.0154145
688.987	0.0153257
689.065	0.0153938
689.143	0.0153548
689.221	0.0153414
689.299	0.0153305
689.378	0.0153425
689.456	0.0154062
689.534	0.0154086
689.612	0.0153307
689.690	0.0152989
689.768	0.0152280
689.846	0.0153397
689.924	0.0154160
690.003	0.0152115
690.081	0.0153831
690.159	0.0154215
690.237	0.0154911
690.315	0.0153352
690.393	0.0153645
690.471	0.0153300
690.549	0.0153014
690.628	0.0153889
690.706	0.0153905
690.784	0.0153806
690.862	0.0153799
690.940	0.0154329
691.018	0.0153860
691.096	0.0154233
691.174	0.0154346
691.253	0.0153307
691.331	0.0154691
691.409	0.0153357
691.487	0.0153572
691.565	0.0153114
691.643	0.0152377
691.721	0.0152569
691.799	0.0153783
691.878	0.0154026
691.956	0.0153248
692.034	0.0153486
692.112	0.0154387
692.190	0.0155486
692.268	0.0155870
692.346	0.0152712
692.424	0.0152954
692.503	0.0153256
692.581	0.0154038
692.659	0.0152663
692.737	0.0153168
692.815	0.0154120
692.893	0.0153270
692.971	0.0154012
693.049	0.0155888
693.128	0.0154161
693.206	0.0152850
693.284	0.0153464
693.362	0.0152313
693.440	0.0153129
693.518	0.0153993
693.596	0.0154552
693.674	0.0153741
693.753	0.0153914
693.831	0.0152552
693.909	0.0152633
693.987	0.0153833
694.065	0.0154250
694.143	0.0153391
694.221	0.0153142
694.299	0.0152084
694.378	0.0153963
694.456	0.0152925
694.534	0.0154111
694.612	0.0152960
694.690	0.0152808
694.768	0.0152843
694.846	0.0152106
694.924	0.0152921
695.003	0.0152864
695.081	0.0153778
695.159	0.0153448
695.237	0.0155563
695.315	0.0153737
695.393	0.0153179
695.471	0.0153537
695.549	0.0153434
695.628	0.0154944
695.706	0.0155713
695.784	0.0154272
695.862	0.0154808
695.940	0.0154778
696.018	0.0154994
696.096	0.0153941
696.174	0.0153896
696.253	0.0153367
696.331	0.0154186
696.409	0.0155637
696.487	0.0155074
696.565	0.0154448
696.643	0.0154936
696.721	0.0153153
696.799	0.0154015
696.878	0.0155662
696.956	0.0156244
697.034	0.0155336
697.112	0.0155359
697.190	0.0155291
697.268	0.0153713
697.346	0.0154112
697.424	0.0153731
697.503	0.0153676
697.581	0.0153407
697.659	0.0153162
697.737	0.0152872
697.815	0.0153074
697.893	0.0152989
697.971	0.0152501
698.049	0.0152985
698.128	0.0153701
698.206	0.0153346
698.284	0.0153967
698.362	0.0153020
698.440	0.0153864
698.518	0.0154986
698.596	0.0152557
698.674	0.0152471
698.753	0.0152077
698.831	0.0153318
698.909	0.0151521
698.987	0.0150987
699.065	0.0152008
699.143	0.0152443
699.221	0.0152130
699.299	0.0152200
699.378	0.0153421
699.456	0.0153997
699.534	0.0152914
699.612	0.0153123
699.690	0.0152938
699.768	0.0153870
699.846	0.0154501
699.924	0.0153870
700.003	0.0154629
700.081	0.0155408
700.159	0.0156336
700.237	0.0155785
700.315	0.0157237
700.393	0.0155427
700.471	0.0155280
700.549	0.0155775
700.628	0.0154330
700.706	0.0152758
700.784	0.0152504
700.862	0.0151083
700.940	0.0149290
701.018	0.0150451
701.096	0.0149409
701.174	0.0150266
701.253	0.0151809
701.331	0.0152561
701.409	0.0152821
701.487	0.0153873
701.565	0.0155301
701.643	0.0157897
701.721	0.0158504
701.799	0.0158395
701.878	0.0156369
701.956	0.0156374
702.034	0.0155421
702.112	0.0155533
702.190	0.0153500
702.268	0.0152341
702.346	0.0151170
702.424	0.0149454
702.503	0.0149684
702.581	0.0149290
702.659	0.0148212
702.737	0.0149908
702.815	0.0151737
702.893	0.0153004
702.971	0.0154140
703.049	0.0154214
703.128	0.0155767
703.206	0.0157170
703.284	0.0158244
703.362	0.0159454
703.440	0.0157767
703.518	0.0159005
703.596	0.0157908
703.674	0.0156271
703.753	0.0154054
703.831	0.0154987
703.909	0.0151839
703.987	0.0150591
704.065	0.0149676
704.143	0.0149078
704.221	0.0149412
704.299	0.0148468
704.378	0.0149989
704.456	0.0150303
704.534	0.0150597
704.612	0.0152830
704.690	0.0153268
704.768	0.0156581
704.846	0.0156871
704.924	0.0157749
705.003	0.0158993
705.081	0.0160234
705.159	0.0158590
705.237	0.0160145
705.315	0.0157020
705.393	0.0155025
705.471	0.0154435
705.549	0.0153849
705.628	0.0151569
705.706	0.0149889
705.784	0.0150758
705.862	0.0150215
705.940	0.0149442
706.018	0.0150066
706.096	0.0149950
706.174	0.0152164
706.253	0.0153549
706.331	0.0155012
706.409	0.0153920
706.487	0.0155609
706.565	0.0155305
706.643	0.0155215
706.721	0.0155285
706.799	0.0154913
706.878	0.0154572
706.956	0.0155031
707.034	0.0155869
707.112	0.0155979
707.190	0.0156067
707.268	0.0157182
707.346	0.0155942
707.424	0.0154668
707.503	0.0154594
707.581	0.0152277
707.659	0.0151115
707.737	0.0149190
707.815	0.0149665
707.893	0.0148851
707.971	0.0149220
708.049	0.0149747
708.128	0.0148939
708.206	0.0151884
708.284	0.0152151
708.362	0.0154573
708.440	0.0156343
708.518	0.0156805
708.596	0.0158708
708.674	0.0159770
708.753	0.0158938
708.831	0.0159158
708.909	0.0157800
708.987	0.0156273
709.065	0.0155795
709.143	0.0154031
709.221	0.0152344
709.299	0.0151366
709.378	0.0150148
709.456	0.0149052
709.534	0.0149156
709.612	0.0147560
709.690	0.0149198
709.768	0.0148980
709.846	0.0148097
709.924	0.0151579
710.003	0.0151474
710.081	0.0154337
710.159	0.0154978
710.237	0.0157131
710.315	0.0155526
710.393	0.0157291
710.471	0.0158612
710.549	0.0157879
710.628	0.0157634
710.706	0.0157374
710.784	0.0157640
710.862	0.0156770
710.940	0.0155500
711.018	0.0156540
711.096	0.0154108
711.174	0.0153707
711.253	0.0152838
711.331	0.0151994
711.409	0.0149870
711.487	0.0149940
711.565	0.0148759
711.643	0.0150674
711.721	0.0151482
711.799	0.0151357
711.878	0.0153210
711.956	0.0152583
712.034	0.0154687
712.112	0.0154581
712.190	0.0154166
712.268	0.0154176
712.346	0.0154614
712.424	0.0154714
712.503	0.0155813
712.581	0.0155890
712.659	0.0157206
712.737	0.0158062
712.815	0.0158223
712.893	0.0156296
712.971	0.0156297
713.049	0.0155060
713.128	0.0153685
713.206	0.0152058
713.284	0.0151948
713.362	0.0150255
713.440	0.0148867
713.518	0.0146348
713.596	0.0145345
713.674	0.0146535
713.753	0.0148147
713.831	0.0148814
713.909	0.0149609
713.987	0.0153202
714.065	0.0153162
714.143	0.0154957
714.221	0.0159387
714.299	0.0160506
714.378	0.0160748
714.456	0.0159554
714.534	0.0160687
714.612	0.0159919
714.690	0.0157167
714.768	0.0157317
714.846	0.0155657
714.924	0.0152884
715.003	0.0151641
715.081	0.0151521
715.159	0.0147970
715.237	0.0148028
715.315	0.0147508
715.393	0.0149000
715.471	0.0150724
715.549	0.0151803
715.628	0.0153732
715.706	0.0155667
715.784	0.0159142
715.862	0.0158873
715.940	0.0159333
716.018	0.0160202
716.096	0.0161057
716.174	0.0159283
716.253	0.0159347
716.331	0.0157955
716.409	0.0154527
716.487	0.0153621
716.565	0.0151610
716.643	0.0150407
716.721	0.0149107
716.799	0.0147642
716.878	0.0147205
716.956	0.0148188
717.034	0.0149093
717.112	0.0149639
717.190	0.0150022
717.268	0.0151238
717.346	0.0154164
717.424	0.0154445
717.503	0.0154619
717.581	0.0154943
717.659	0.0154032
717.737	0.0153954
717.815	0.0153296
717.893	0.0153517
717.971	0.0152526
718.049	0.0152166
718.128	0.0150380
718.206	0.0149866
718.284	0.0151555
718.362	0.0151620
718.440	0.0152803
718.518	0.0153394
718.596	0.0156039
718.674	0.0156071
718.753	0.0158768
718.831	0.0160226
718.909	0.0162057
718.987	0.0163432
719.065	0.0163422
719.143	0.0162938
719.221	0.0163189
719.299	0.0161140
719.378	0.0157012
719.456	0.0155575
719.534	0.0154498
719.612	0.0153111
719.690	0.0150068
719.768	0.0149599
719.846	0.0149707
719.924	0.0148228
720.003	0.0149653
720.081	0.0148619
720.159	0.0151025
720.237	0.0152720
720.315	0.0153794
720.393	0.0154676
720.471	0.0156827
720.549	0.0156701
720.628	0.0156930
720.706	0.0155247
720.784	0.0156520
720.862	0.0155730
720.940	0.0154783
721.018	0.0152048
721.096	0.0150611
721.174	0.0151340
721.253	0.0149381
721.331	0.0147934
721.409	0.0149522
721.487	0.0149287
721.565	0.0148232
721.643	0.0145747
721.721	0.0145969
721.799	0.0145061
721.878	0.0145573
721.956	0.0146471
722.034	0.0146503
722.112	0.0147772
722.190	0.0148187
722.268	0.0152888
722.346	0.0155907
722.424	0.0157646
722.503	0.0160703
722.581	0.0164121
722.659	0.0164760
722.737	0.0166666
722.815	0.0169654
722.893	0.0168756
722.971	0.0170306
723.049	0.0167391
723.128	0.0164575
723.206	0.0164188
723.284	0.0160673
723.362	0.0156091
723.440	0.0154217
723.518	0.0150126
723.596	0.0145990
723.674	0.0142751
723.753	0.0140005
723.831	0.0138689
723.909	0.0137017
723.987	0.0138312
724.065	0.0138570
724.143	0.0140079
724.221	0.0141351
724.299	0.0142601
724.378	0.0145641
724.456	0.0150294
724.534	0.0152404
724.612	0.0154628
724.690	0.0156114
724.768	0.0158599
724.846	0.0161391
724.924	0.0162148
725.003	0.0163150
725.081	0.0163825
725.159	0.0164075
725.237	0.0165041
725.315	0.0166382
725.393	0.0165577
725.471	0.0165313
725.549	0.0164820
725.628	0.0165289
725.706	0.0163136
725.784	0.0161977
725.862	0.0161544
725.940	0.0161864
726.018	0.0159254
726.096	0.0155920
726.174	0.0155236
726.253	0.0153729
726.331	0.0152167
726.409	0.0149319
726.487	0.0146546
726.565	0.0144119
726.643	0.0144141
726.721	0.0141788
726.799	0.0140864
726.878	0.0139742
726.956	0.0139102
727.034	0.0139153
727.112	0.0137765
727.190	0.0137868
727.268	0.0140736
727.346	0.0141724
727.424	0.0143705
727.503	0.0144907
727.581	0.0146766
727.659	0.0148883
727.737	0.0150140
727.815	0.0152007
727.893	0.0153259
727.971	0.0154592
728.049	0.0156822
728.128	0.0157385
728.206	0.0157611
728.284	0.0156876
728.362	0.0158807
728.440	0.0158856
728.518	0.0158852
728.596	0.0160605
728.674	0.0165543
728.753	0.0165366
728.831	0.0168137
728.909	0.0167838
728.987	0.0171821
729.065	0.0172536
729.143	0.0172610
729.221	0.0171190
729.299	0.0170789
729.378	0.0170601
729.456	0.0168973
729.534	0.0167009
729.612	0.0165428
729.690	0.0161697
729.768	0.0159405
729.846	0.0157468
729.924	0.0155124
730.003	0.0153419
730.081	0.0151195
730.159	0.0149799
730.237	0.0147655
730.315	0.0146732
730.393	0.0146662
730.471	0.0145966
730.549	0.0143585
730.628	0.0144921
730.706	0.0143304
730.784	0.0143704
730.862	0.0141754
730.940	0.0141808
731.018	0.0141756
731.096	0.0142069
731.174	0.0142255
731.253	0.0142543
731.331	0.0142507
731.409	0.0143287
731.487	0.0143750
731.565	0.0144979
731.643	0.0146428
731.721	0.0148531
731.799	0.0147772
731.878	0.0149229
731.956	0.0150515
732.034	0.0150723
732.112	0.0152368
732.190	0.0149701
732.268	0.0149375
732.346	0.0152129
732.424	0.0151313
732.503	0.0150153
732.581	0.0150991
732.659	0.0152454
732.737	0.0153979
732.815	0.0153329
732.893	0.0155586
732.971	0.0156239
733.049	0.0159060
733.128	0.0159917
733.206	0.0159531
733.284	0.0162359
733.362	0.0162107
733.440	0.0162872
733.518	0.0163322
733.596	0.0164729
733.674	0.0163425
733.753	0.0164088
733.831	0.0163689
733.909	0.0164030
733.987	0.0164259
734.065	0.0163998
734.143	0.0163541
734.221	0.0162728
734.299	0.0162501
734.378	0.0162840
734.456	0.0163626
734.534	0.0162502
734.612	0.0162811
734.690	0.0164322
734.768	0.0163641
734.846	0.0163533
734.924	0.0165145
735.003	0.0162236
735.081	0.0163843
735.159	0.0163730
735.237	0.0163586
735.315	0.0161687
735.393	0.0159973
735.471	0.0158401
735.549	0.0154579
735.628	0.0151744
735.706	0.0149542
735.784	0.0146415
735.862	0.0142004
735.940	0.0140737
736.018	0.0136896
736.096	0.0134109
736.174	0.0131493
736.253	0.0129788
736.331	0.0127031
736.409	0.0124989
736.487	0.0123550
736.565	0.0124512
736.643	0.0122902
736.721	0.0122256
736.799	0.0122993
736.878	0.0123855
736.956	0.0125859
737.034	0.0128706
737.112	0.0133019
737.190	0.0138355
737.268	0.0142467
737.346	0.0147982
737.424	0.0154840
737.503	0.0161375
737.581	0.0166806
737.659	0.0172443
737.737	0.0174772
737.815	0.0178711
737.893	0.0182941
737.971	0.0183167
738.049	0.0181767
738.128	0.0181641
738.206	0.0181814
738.284	0.0177605
738.362	0.0174974
738.440	0.0172791
738.518	0.0168376
738.596	0.0166310
738.674	0.0164821
738.753	0.0161542
738.831	0.0159930
738.909	0.0160068
738.987	0.0160467
739.065	0.0158745
739.143	0.0159657
739.221	0.0161095
739.299	0.0160412
739.378	0.0163103
739.456	0.0162186
739.534	0.0162907
739.612	0.0161210
739.690	0.0161584
739.768	0.0160413
739.846	0.0157869
739.924	0.0156444
740.003	0.0155585
740.081	0.0153138
740.159	0.0151699
740.237	0.0149381
740.315	0.0148784
740.393	0.0146784
740.471	0.0145715
740.549	0.0146722
740.628	0.0144827
740.706	0.0146423
740.784	0.0144192
740.862	0.0143805
740.940	0.0142313
741.018	0.0139487
741.096	0.0138305
741.174	0.0138716
741.253	0.0137250
741.331	0.0135990
741.409	0.0134341
741.487	0.0132374
741.565	0.0132417
741.643	0.0132377
741.721	0.0132576
741.799	0.0133776
741.878	0.0134757
741.956	0.0136469
742.034	0.0138226
742.112	0.0142046
742.190	0.0143755
742.268	0.0145160
742.346	0.0147839
742.424	0.0151601
742.503	0.0153606
742.581	0.0156398
742.659	0.0159212
742.737	0.0159724
742.815	0.0164999
742.893	0.0168456
742.971	0.0169216
743.049	0.0171273
743.128	0.0173257
743.206	0.0174348
743.284	0.0173505
743.362	0.0173969
743.440	0.0172099
743.518	0.0173242
743.596	0.0171704
743.674	0.0170771
743.753	0.0170415
743.831	0.0170065
743.909	0.0168502
743.987	0.0168866
744.065	0.0167777
744.143	0.0165930
744.221	0.0163576
744.299	0.0161941
744.378	0.0158857
744.456	0.0155948
744.534	0.0154390
744.612	0.0151557
744.690	0.0149255
744.768	0.0148761
744.846	0.0146973
744.924	0.0147820
745.003	0.0148154
745.081	0.0147883
745.159	0.0149295
745.237	0.0152573
745.315	0.0152691
745.393	0.0153316
745.471	0.0155507
745.549	0.0157796
745.628	0.0159155
745.706	0.0160313
745.784	0.0161597
745.862	0.0158528
745.940	0.0157526
746.018	0.0154438
746.096	0.0151336
746.174	0.0148018
746.253	0.0143631
746.331	0.0140580
746.409	0.0136594
746.487	0.0131490
746.565	0.0127756
746.643	0.0125977
746.721	0.0125508
746.799	0.0124245
746.878	0.0123850
746.956	0.0126362
747.034	0.0129567
747.112	0.0130634
747.190	0.0135705
747.268	0.0139510
747.346	0.0146067
747.424	0.0147208
747.503	0.0149875
747.581	0.0155914
747.659	0.0158246
747.737	0.0161814
747.815	0.0163243
747.893	0.0163264
747.971	0.0167936
748.049	0.0167796
748.128	0.0168761
748.206	0.0167869
748.284	0.0168606
748.362	0.0167058
748.440	0.0164749
748.518	0.0164516
748.596	0.0163305
748.674	0.0164095
748.753	0.0163351
748.831	0.0162527
748.909	0.0165242
748.987	0.0165085
749.065	0.0166084
749.143	0.0163552
749.221	0.0164924
749.299	0.0166184
749.378	0.0164507
749.456	0.0162583
749.534	0.0162920
749.612	0.0163029
749.690	0.0162204
749.768	0.0161435
749.846	0.0161530
749.924	0.0160861
750.003	0.0160087
750.081	0.0159667
750.159	0.0158808
750.237	0.0158025
750.315	0.0155912
750.393	0.0156223
750.471	0.0155235
750.549	0.0155350
750.628	0.0155203
750.706	0.0155069
750.784	0.0153667
750.862	0.0152312
750.940	0.0152921
751.018	0.0151141
751.096	0.0149104
751.174	0.0147258
751.253	0.0145279
751.331	0.0142541
751.409	0.0139895
751.487	0.0138102
751.565	0.0135977
751.643	0.0133622
751.721	0.0132117
751.799	0.0131827
751.878	0.0131784
751.956	0.0130795
752.034	0.0130878
752.112	0.0134455
752.190	0.0133971
752.268	0.0135833
752.346	0.0139713
752.424	0.0143597
752.503	0.0145770
752.581	0.0146835
752.659	0.0151174
752.737	0.0154023
752.815	0.0156569
752.893	0.0160459
752.971	0.0163476
753.049	0.0165998
753.128	0.0166729
753.206	0.0168367
753.284	0.0170770
753.362	0.0172324
753.440	0.0169852
753.518	0.0170322
753.596	0.0169937
753.674	0.0167136
753.753	0.0166650
753.831	0.0166512
753.909	0.0165152
753.987	0.0163342
754.065	0.0162202
754.143	0.0161138
754.221	0.0159306
754.299	0.0158058
754.378	0.0156379
754.456	0.0154501
754.534	0.0154067
754.612	0.0152812
754.690	0.0151049
754.768	0.0150874
754.846	0.0151950
754.924	0.0150211
755.003	0.0151589
755.081	0.0150469
755.159	0.0149645
755.237	0.0152679
755.315	0.0152788
755.393	0.0154237
755.471	0.0156623
755.549	0.0156947
755.628	0.0158689
755.706	0.0161005
755.784	0.0162293
755.862	0.0163019
755.940	0.0164955
756.018	0.0166827
756.096	0.0164190
756.174	0.0165168
756.253	0.0163613
756.331	0.0162999
756.409	0.0160161
756.487	0.0157454
756.565	0.0152144
756.643	0.0148289
756.721	0.0145240
756.799	0.0142432
756.878	0.0138715
756.956	0.0135011
757.034	0.0132876
757.112	0.0130686
757.190	0.0130334
757.268	0.0128704
757.346	0.0127543
757.424	0.0126975
757.503	0.0128696
757.581	0.0130225
757.659	0.0134603
757.737	0.0137259
757.815	0.0138690
757.893	0.0141239
757.971	0.0145336
758.049	0.0148450
758.128	0.0152334
758.206	0.0156860
758.284	0.0159368
758.362	0.0162843
758.440	0.0164025
758.518	0.0168378
758.596	0.0168196
758.674	0.0170281
758.753	0.0170212
758.831	0.0170842
758.909	0.0171306
758.987	0.0169975
759.065	0.0171429
759.143	0.0170963
759.221	0.0169019
759.299	0.0167211
759.378	0.0164192
759.456	0.0163590
759.534	0.0161450
759.612	0.0158916
759.690	0.0156809
759.768	0.0154278
759.846	0.0153832
759.924	0.0151833
760.003	0.0149106
760.081	0.0147774
760.159	0.0149057
760.237	0.0148843
760.315	0.0147296
760.393	0.0148788
760.471	0.0150688
760.549	0.0150233
760.628	0.0151485
760.706	0.0154642
760.784	0.0155221
760.862	0.0155706
760.940	0.0156734
761.018	0.0158828
761.096	0.0160392
761.174	0.0160831
761.253	0.0161586
761.331	0.0163597
761.409	0.0161387
761.487	0.0159586
761.565	0.0159060
761.643	0.0156575
761.721	0.0154021
761.799	0.0151982
761.878	0.0150442
761.956	0.0147984
762.034	0.0145145
762.112	0.0143288
762.190	0.0142469
762.268	0.0141544
762.346	0.0139988
762.424	0.0138673
762.503	0.0138537
762.581	0.0139175
762.659	0.0139017
762.737	0.0140403
762.815	0.0140370
762.893	0.0143575
762.971	0.0144078
763.049	0.0145432
763.128	0.0146687
763.206	0.0149928
763.284	0.0150526
763.362	0.0152650
763.440	0.0152580
763.518	0.0155950
763.596	0.0156449
763.674	0.0157732
763.753	0.0160046
763.831	0.0158791
763.909	0.0159435
763.987	0.0161308
764.065	0.0160143
764.143	0.0162415
764.221	0.0163816
764.299	0.0165714
764.378	0.0165694
764.456	0.0164975
764.534	0.0166055
764.612	0.0165250
764.690	0.0164781
764.768	0.0165416
764.846	0.0164635
764.924	0.0162853
765.003	0.0160653
765.081	0.0158604
765.159	0.0157875
765.237	0.0154427
765.315	0.0153127
765.393	0.0151379
765.471	0.0150256
765.549	0.0149774
765.628	0.0150874
765.706	0.0148183
765.784	0.0149118
765.862	0.0148319
765.940	0.0150674
766.018	0.0149336
766.096	0.0152163
766.174	0.0153142
766.253	0.0155107
766.331	0.0156916
766.409	0.0158716
766.487	0.0161170
766.565	0.0161820
766.643	0.0160151
766.721	0.0160643
766.799	0.0159577
766.878	0.0159595
766.956	0.0157291
767.034	0.0156169
767.112	0.0153941
767.190	0.0151886
767.268	0.0148465
767.346	0.0148242
767.424	0.0147071
767.503	0.0146052
767.581	0.0145015
767.659	0.0143880
767.737	0.0143568
767.815	0.0142886
767.893	0.0143035
767.971	0.0142213
768.049	0.0143369
768.128	0.0145517
768.206	0.0145624
768.284	0.0148704
768.362	0.0149811
768.440	0.0149864
768.518	0.0150977
768.596	0.0152142
768.674	0.0153867
768.753	0.0153783
768.831	0.0154272
768.909	0.0154751
768.987	0.0155388
769.065	0.0154549
769.143	0.0154428
769.221	0.0156132
769.299	0.0156961
769.378	0.0155957
769.456	0.0154977
769.534	0.0156075
769.612	0.0157535
769.690	0.0157558
769.768	0.0157227
769.846	0.0157632
769.924	0.0158884
770.003	0.0158240
770.081	0.0158205
770.159	0.0158948
770.237	0.0157156
770.315	0.0157583
770.393	0.0157896
770.471	0.0157104
770.549	0.0156292
770.628	0.0155061
770.706	0.0157710
770.784	0.0157014
770.862	0.0157627
770.940	0.0156627
771.018	0.0156583
771.096	0.0155722
771.174	0.0157015
771.253	0.0157887
771.331	0.0157596
771.409	0.0157890
771.487	0.0158018
771.565	0.0158183
771.643	0.0157793
771.721	0.0158188
771.799	0.0157717
771.878	0.0156642
771.956	0.0156036
772.034	0.0157208
772.112	0.0155102
772.190	0.0152635
772.268	0.0151170
772.346	0.0150556
772.424	0.0150866
772.503	0.0149813
772.581	0.0147750
772.659	0.0148312
772.737	0.0148667
772.815	0.0146188
772.893	0.0146662
772.971	0.0146252
773.049	0.0147663
773.128	0.0147009
773.206	0.0147831
773.284	0.0148495
773.362	0.0149895
773.440	0.0151334
773.518	0.0151703
773.596	0.0153600
773.674	0.0154227
773.753	0.0154221
773.831	0.0154346
773.909	0.0156271
773.987	0.0156796
774.065	0.0157207
774.143	0.0156725
774.221	0.0156191
774.299	0.0154618
774.378	0.0154565
774.456	0.0152872
774.534	0.0153406
774.612	0.0152863
774.690	0.0151176
774.768	0.0152084
774.846	0.0151321
774.924	0.0150960
775.003	0.0151540
775.081	0.0150918
775.159	0.0150572
775.237	0.0149487
775.315	0.0151571
775.393	0.0150339
775.471	0.0152141
775.549	0.0154360
775.628	0.0155682
775.706	0.0154902
775.784	0.0156236
775.862	0.0159548
775.940	0.0158704
776.018	0.0159223
776.096	0.0160925
776.174	0.0160697
776.253	0.0161520
776.331	0.0158128
776.409	0.0160396
776.487	0.0160341
776.565	0.0160925
776.643	0.0160117
776.721	0.0158978
776.799	0.0160225
776.878	0.0158769
776.956	0.0157501
777.034	0.0157025
777.112	0.0156406
777.190	0.0156116
777.268	0.0154836
777.346	0.0153724
777.424	0.0152391
777.503	0.0152161
777.581	0.0151228
777.659	0.0150363
777.737	0.0148750
777.815	0.0149067
777.893	0.0148331
777.971	0.0147784
778.049	0.0148576
778.128	0.0150205
778.206	0.0148398
778.284	0.0148463
778.362	0.0150221
778.440	0.0149026
778.518	0.0150586
778.596	0.0151646
778.674	0.0152664
778.753	0.0152271
778.831	0.0154138
778.909	0.0156116
778.987	0.0156503
779.065	0.0157404
779.143	0.0158754
779.221	0.0158931
779.299	0.0158084
779.378	0.0157934
779.456	0.0156982
779.534	0.0158009
779.612	0.0156479
779.690	0.0156032
779.768	0.0155618
779.846	0.0154043
779.924	0.0152158
780.003	0.0150980
780.081	0.0150909
780.159	0.0149249
780.237	0.0148783
780.315	0.0148654
780.393	0.0147546
780.471	0.0147934
780.549	0.0148481
780.628	0.0148798
780.706	0.0148663
780.784	0.0150097
780.862	0.0149303
780.940	0.0149877
781.018	0.0149899
781.096	0.0149896
781.174	0.0150616
781.253	0.0152055
781.331	0.0152071
781.409	0.0151765
781.487	0.0155287
781.565	0.0155038
781.643	0.0155877
781.721	0.0157102
781.799	0.0159061
781.878	0.0158146
781.956	0.0161928
782.034	0.0159875
782.112	0.0161224
782.190	0.0162026
782.268	0.0161005
782.346	0.0162370
782.424	0.0162433
782.503	0.0163657
782.581	0.0162138
782.659	0.0160005
782.737	0.0159278
782.815	0.0157756
782.893	0.0155888
782.971	0.0156297
783.049	0.0154454
783.128	0.0153154
783.206	0.0151562
783.284	0.0149556
783.362	0.0151786
783.440	0.0150436
783.518	0.0147967
783.596	0.0147977
783.674	0.0148594
783.753	0.0149072
783.831	0.0147923
783.909	0.0149553
783.987	0.0148720
784.065	0.0148813
784.143	0.0149220
784.221	0.0150721
784.299	0.0151237
784.378	0.0152280
784.456	0.0152415
784.534	0.0154479
784.612	0.0154968
784.690	0.0154519
784.768	0.0155504
784.846	0.0155344
784.924	0.0154770
785.003	0.0154647
785.081	0.0155331
785.159	0.0156380
785.237	0.0154568
785.315	0.0154790
785.393	0.0152918
785.471	0.0152691
785.549	0.0152854
785.628	0.0150509
785.706	0.0150007
785.784	0.0150010
785.862	0.0149254
785.940	0.0148550
786.018	0.0147515
786.096	0.0149794
786.174	0.0148845
786.253	0.0149680
786.331	0.0151470
786.409	0.0151559
786.487	0.0153243
786.565	0.0153090
786.643	0.0154178
786.721	0.0154919
786.799	0.0156708
786.878	0.0155292
786.956	0.0156104
787.034	0.0157031
787.112	0.0156089
787.190	0.0157338
787.268	0.0157664
787.346	0.0157881
787.424	0.0155936
787.503	0.0156120
787.581	0.0157555
787.659	0.0157398
787.737	0.0155119
787.815	0.0155657
787.893	0.0155582
787.971	0.0154218
788.049	0.0154094
788.128	0.0152779
788.206	0.0153454
788.284	0.0154046
788.362	0.0152577
788.440	0.0151237
788.518	0.0152789
788.596	0.0152254
788.674	0.0152190
788.753	0.0151150
788.831	0.0153574
788.909	0.0154194
788.987	0.0155206
789.065	0.0156084
789.143	0.0156894
789.221	0.0155882
789.299	0.0156569
789.378	0.0157016
789.456	0.0158765
789.534	0.0156738
789.612	0.0156012
789.690	0.0156034
789.768	0.0156117
789.846	0.0155735
789.924	0.0153854
790.003	0.0154295
790.081	0.0152981
790.159	0.0154681
790.237	0.0151921
790.315	0.0151422
790.393	0.0151003
790.471	0.0149203
790.549	0.0148873
790.628	0.0150467
790.706	0.0151125
790.784	0.0150426
790.862	0.0151472
790.940	0.0150655
791.018	0.0149981
791.096	0.0151600
791.174	0.0153332
791.253	0.0152490
791.331	0.0150509
791.409	0.0151186
791.487	0.0152514
791.565	0.0152088
791.643	0.0151885
791.721	0.0152497
791.799	0.0152943
791.878	0.0153243
791.956	0.0152494
792.034	0.0153471
792.112	0.0152808
792.190	0.0154329
792.268	0.0154594
792.346	0.0154710
792.424	0.0155498
792.503	0.0155346
792.581	0.0155759
792.659	0.0157171
792.737	0.0155219
792.815	0.0155932
792.893	0.0157610
792.971	0.0156236
793.049	0.0155062
793.128	0.0155180
793.206	0.0154958
793.284	0.0155773
793.362	0.0154884
793.440	0.0153477
793.518	0.0154071
793.596	0.0152826
793.674	0.0152176
793.753	0.0153075
793.831	0.0151959
793.909	0.0151514
793.987	0.0152303
794.065	0.0153462
794.143	0.0151384
794.221	0.0152766
794.299	0.0152491
794.378	0.0151723
794.456	0.0154025
794.534	0.0153838
794.612	0.0153641
794.690	0.0154609
794.768	0.0154669
794.846	0.0155320
794.924	0.0156007
795.003	0.0155814
795.081	0.0155688
795.159	0.0158546
795.237	0.0156767
795.315	0.0158245
795.393	0.0157342
795.471	0.0159084
795.549	0.0157646
795.628	0.0158301
795.706	0.0158733
795.784	0.0158494
795.862	0.0158575
795.940	0.0156568
796.018	0.0156203
796.096	0.0155448
796.174	0.0154430
796.253	0.0153526
796.331	0.0152086
796.409	0.0151723
796.487	0.0150539
796.565	0.0150820
796.643	0.0151163
796.721	0.0149094
796.799	0.0149037
796.878	0.0150159
796.956	0.0149754
797.034	0.0148328
797.112	0.0150414
797.190	0.0149796
797.268	0.0149701
797.346	0.0149989
797.424	0.0152078
797.503	0.0150806
797.581	0.0150932
797.659	0.0151618
797.737	0.0153455
797.815	0.0153487
797.893	0.0154832
797.971	0.0155402
798.049	0.0155623
798.128	0.0154565
798.206	0.0156336
798.284	0.0156876
798.362	0.0157036
798.440	0.0155963
798.518	0.0156390
798.596	0.0155976
798.674	0.0155640
798.753	0.0155607
798.831	0.0155231
798.909	0.0154505
798.987	0.0154134
799.065	0.0153763
799.143	0.0153500
799.221	0.0154222
799.299	0.0155722
799.378	0.0153104
799.456	0.0153783
799.534	0.0154646
799.612	0.0154891
799.690	0.0153092
799.768	0.0152424
799.846	0.0154367
799.924	0.0154469
800.003	0.0153565
800.081	0.0153363
800.159	0.0154380
800.237	0.0153277
800.315	0.0153564
800.393	0.0154652
800.471	0.0153805
800.549	0.0154263
800.628	0.0154787
800.706	0.0154460
800.784	0.0155009
800.862	0.0154541
800.940	0.0154707
801.018	0.0154083
801.096	0.0153883
801.174	0.0154308
801.253	0.0155260
801.331	0.0155662
801.409	0.0155706
801.487	0.0154630
801.565	0.0154801
801.643	0.0154665
801.721	0.0155604
801.799	0.0155293
801.878	0.0155342
801.956	0.0154433
802.034	0.0153841
802.112	0.0153958
802.190	0.0155560
802.268	0.0154720
802.346	0.0154916
802.424	0.0153349
802.503	0.0152890
802.581	0.0152988
802.659	0.0153052
802.737	0.0153635
802.815	0.0155110
802.893	0.0153686
802.971	0.0153027
803.049	0.0153812
803.128	0.0153117
803.206	0.0152592
803.284	0.0153322
803.362	0.0153724
803.440	0.0154133
803.518	0.0153558
803.596	0.0153050
803.674	0.0153818
803.753	0.0153765
803.831	0.0152203
803.909	0.0155505
803.987	0.0154002
804.065	0.0153961
804.143	0.0153346
804.221	0.0153114
804.299	0.0153336
804.378	0.0154193
804.456	0.0151775
804.534	0.0153288
804.612	0.0153935
804.690	0.0153722
804.768	0.0153761
804.846	0.0154311
804.924	0.0153914
805.003	0.0154354
805.081	0.0152170
805.159	0.0155117
805.237	0.0155009
805.315	0.0155112
805.393	0.0152856
805.471	0.0152390
805.549	0.0153287
805.628	0.0153336
805.706	0.0154717
805.784	0.0154185
805.862	0.0153986
805.940	0.0153411
806.018	0.0153326
806.096	0.0153738
806.174	0.0153371
806.253	0.0153936
806.331	0.0153564
806.409	0.0153567
806.487	0.0153379
806.565	0.0154765
806.643	0.0152458
806.721	0.0154099
806.799	0.0153584
806.878	0.0153539
806.956	0.0154869
807.034	0.0152460
807.112	0.0153241
807.190	0.0153626
807.268	0.0154318
807.346	0.0155280
807.424	0.0153698
807.503	0.0153130
807.581	0.0152491
807.659	0.0153492
807.737	0.0153349
807.815	0.0152081
807.893	0.0154742
807.971	0.0154159
808.049	0.0154333
808.128	0.0153820
808.206	0.0152959
808.284	0.0154658
808.362	0.0154694
808.440	0.0153895
808.518	0.0155531
808.596	0.0154654
808.674	0.0154911
808.753	0.0156110
808.831	0.0154992
808.909	0.0154578
808.987	0.0155969
809.065	0.0155380
809.143	0.0155548
809.221	0.0153918
809.299	0.0154475
809.378	0.0153999
809.456	0.0154471
809.534	0.0153893
809.612	0.0154406
809.690	0.0152289
809.768	0.0151834
809.846	0.0151275
809.924	0.0151510
810.003	0.0151998
810.081	0.0152672
810.159	0.0152539
810.237	0.0151450
810.315	0.0151938
810.393	0.0152539
810.471	0.0151962
810.549	0.0153091
810.628	0.0152731
810.706	0.0153510
810.784	0.0154415
810.862	0.0153258
810.940	0.0152930
811.018	0.0153266
811.096	0.0154089
811.174	0.0153353
811.253	0.0154746
811.331	0.0154342
811.409	0.0153119
811.487	0.0153786
811.565	0.0155796
811.643	0.0153853
811.721	0.0155819
811.799	0.0154968
811.878	0.0154247
811.956	0.0153844
812.034	0.0153342
812.112	0.0153445
812.190	0.0154141
812.268	0.0153642
812.346	0.0152581
812.424	0.0153252
812.503	0.0153420
812.581	0.0153201
812.659	0.0152299
812.737	0.0152578
812.815	0.0152749
812.893	0.0151459
812.971	0.0153450
813.049	0.0153575
813.128	0.0151707
813.206	0.0154855
813.284	0.0154508
813.362	0.0152433
813.440	0.0152782
813.518	0.0153991
813.596	0.0155626
813.674	0.0153877
813.753	0.0154066
813.831	0.0153664
813.909	0.0153500
813.987	0.0153832
814.065	0.0153329
814.143	0.0153282
814.221	0.0154670
814.299	0.0153381
814.378	0.0153839
814.456	0.0154080
814.534	0.0152871
814.612	0.0154929
814.690	0.0154305
814.768	0.0154785
814.846	0.0154353
814.924	0.0154724
815.003	0.0155305
815.081	0.0154154
815.159	0.0154247
815.237	0.0155523
815.315	0.0154333
815.393	0.0154070
815.471	0.0153369
815.549	0.0152902
815.628	0.0152152
815.706	0.0154208
815.784	0.0152285
815.862	0.0151633
815.940	0.0153410
816.018	0.0152747
816.096	0.0152119
816.174	0.0152562
816.253	0.0151324
816.331	0.0151328
816.409	0.0152152
816.487	0.0151542
816.565	0.0152312
816.643	0.0152824
816.721	0.0154702
816.799	0.0154935
816.878	0.0153526
816.956	0.0154095
817.034	0.0155214
817.112	0.0155788
817.190	0.0154930
817.268	0.0152966
817.346	0.0155420
817.424	0.0155067
817.503	0.0154819
817.581	0.0155591
817.659	0.0154525
817.737	0.0153476
817.815	0.0153734
817.893	0.0154351
817.971	0.0154383
818.049	0.0152873
818.128	0.0153731
818.206	0.0153537
818.284	0.0152943
818.362	0.0151778
818.440	0.0153439
818.518	0.0153605
818.596	0.0153561
818.674	0.0153770
818.753	0.0154976
818.831	0.0157047
818.909	0.0154759
818.987	0.0155267
819.065	0.0154676
819.143	0.0154665
819.221	0.0154810
819.299	0.0154942
819.378	0.0153765
819.456	0.0156153
819.534	0.0153772
819.612	0.0154037
819.690	0.0153947
819.768	0.0154582
819.846	0.0152848
819.924	0.0152779
820.003	0.0153041
820.081	0.0152244
820.159	0.0151056
820.237	0.0149763
820.315	0.0151262
820.393	0.0151439
820.471	0.0150208
820.549	0.0150571
820.628	0.0151305
820.706	0.0153334
820.784	0.0153098
820.862	0.0153548
820.940	0.0154483
821.018	0.0152829
821.096	0.0153805
821.174	0.0154831
821.253	0.0155758
821.331	0.0157404
821.409	0.0155151
821.487	0.0154853
821.565	0.0157864
821.643	0.0156699
821.721	0.0157234
821.799	0.0156279
821.878	0.0155896
821.956	0.0157219
822.034	0.0156806
822.112	0.0156210
822.190	0.0154982
822.268	0.0157382
822.346	0.0156852
822.424	0.0155829
822.503	0.0156789
822.581	0.0155146
822.659	0.0152654
822.737	0.0153792
822.815	0.0153768
822.893	0.0154494
822.971	0.0153529
823.049	0.0153256
823.128	0.0151880
823.206	0.0150882
823.284	0.0150903
823.362	0.0151588
823.440	0.0151765
823.518	0.0150768
823.596	0.0150676
823.674	0.0150565
823.753	0.0150095
823.831	0.0151125
823.909	0.0150199
823.987	0.0151041
824.065	0.0149562
824.143	0.0149876
824.221	0.0149969
824.299	0.0151910
824.378	0.0153110
824.456	0.0153033
824.534	0.0153975
824.612	0.0153696
824.690	0.0154677
824.768	0.0153629
824.846	0.0153825
824.924	0.0154192
825.003	0.0154008
825.081	0.0154815
825.159	0.0154628
825.237	0.0154945
825.315	0.0155537
825.393	0.0156086
825.471	0.0154951
825.549	0.0156926
825.628	0.0156811
825.706	0.0157378
825.784	0.0157616
825.862	0.0157345
825.940	0.0158861
826.018	0.0157681
826.096	0.0156857
826.174	0.0156349
826.253	0.0157108
826.331	0.0158047
826.409	0.0157085
826.487	0.0155278
826.565	0.0155973
826.643	0.0156115
826.721	0.0155174
826.799	0.0154938
826.878	0.0153327
826.956	0.0153685
827.034	0.0152731
827.112	0.0152502
827.190	0.0152450
827.268	0.0152120
827.346	0.0150298
827.424	0.0151166
827.503	0.0151991
827.581	0.0151865
827.659	0.0150874
827.737	0.0150755
827.815	0.0151483
827.893	0.0150950
827.971	0.0151607
828.049	0.0151613
828.128	0.0151573
828.206	0.0150522
828.284	0.0150117
828.362	0.0151361
828.440	0.0150757
828.518	0.0149815
828.596	0.0149545
828.674	0.0151337
828.753	0.0151077
828.831	0.0151761
828.909	0.0151012
828.987	0.0151361
829.065	0.0151720
829.143	0.0150556
829.221	0.0153053
829.299	0.0154354
829.378	0.0153828
829.456	0.0154015
829.534	0.0154280
829.612	0.0155698
829.690	0.0155676
829.768	0.0157053
829.846	0.0157182
829.924	0.0157510
830.003	0.0157991
830.081	0.0157662
830.159	0.0158920
830.237	0.0158732
830.315	0.0158149
830.393	0.0157781
830.471	0.0159636
830.549	0.0158829
830.628	0.0157703
830.706	0.0157858
830.784	0.0157311
830.862	0.0156281
830.940	0.0156644
831.018	0.0156602
831.096	0.0155495
831.174	0.0154944
831.253	0.0155791
831.331	0.0155460
831.409	0.0154924
831.487	0.0154966
831.565	0.0153345
831.643	0.0154271
831.721	0.0154411
831.799	0.0152931
831.878	0.0153694
831.956	0.0152625
832.034	0.0153292
832.112	0.0152730
832.190	0.0153415
832.268	0.0154044
832.346	0.0151788
832.424	0.0152958
832.503	0.0152258
832.581	0.0150901
832.659	0.0150496
832.737	0.0149720
832.815	0.0148723
832.893	0.0150050
832.971	0.0150335
833.049	0.0148849
833.128	0.0148618
833.206	0.0149828
833.284	0.0149088
833.362	0.0148977
833.440	0.0149485
833.518	0.0150921
833.596	0.0151019
833.674	0.0151774
833.753	0.0151989
833.831	0.0151772
833.909	0.0153682
833.987	0.0155102
834.065	0.0152853
834.143	0.0155148
834.221	0.0154671
834.299	0.0155424
834.378	0.0156822
834.456	0.0157719
834.534	0.0157659
834.612	0.0158870
834.690	0.0159974
834.768	0.0159102
834.846	0.0158159
834.924	0.0159544
835.003	0.0161102
835.081	0.0160800
835.159	0.0159979
835.237	0.0160117
835.315	0.0159421
835.393	0.0158610
835.471	0.0160638
835.549	0.0160080
835.628	0.0156369
835.706	0.0156290
835.784	0.0156281
835.862	0.0154668
835.940	0.0154832
836.018	0.0153985
836.096	0.0153867
836.174	0.0154380
836.253	0.0154150
836.331	0.0153344
836.409	0.0153925
836.487	0.0152377
836.565	0.0152149
836.643	0.0153909
836.721	0.0154134
836.799	0.0150873
836.878	0.0151734
836.956	0.0153771
837.034	0.0152335
837.112	0.0152846
837.190	0.0152848
837.268	0.0152141
837.346	0.0150471
837.424	0.0150868
837.503	0.0150717
837.581	0.0150230
837.659	0.0150958
837.737	0.0151427
837.815	0.0150397
837.893	0.0149820
837.971	0.0149068
838.049	0.0149720
838.128	0.0150981
838.206	0.0151414
838.284	0.0150232
838.362	0.0149728
838.440	0.0151211
838.518	0.0151303
838.596	0.0150413
838.674	0.0151145
838.753	0.0152511
838.831	0.0152505
838.909	0.0154954
838.987	0.0155158
839.065	0.0154366
839.143	0.0154496
839.221	0.0154058
839.299	0.0156261
839.378	0.0156209
839.456	0.0156243
839.534	0.0157754
839.612	0.0157780
839.690	0.0158389
839.768	0.0156597
839.846	0.0156980
839.924	0.0157069
840.003	0.0156168
840.081	0.0157999
840.159	0.0157552
840.237	0.0157619
840.315	0.0157334
840.393	0.0157140
840.471	0.0156803
840.549	0.0156052
840.628	0.0156448
840.706	0.0156419
840.784	0.0157749
840.862	0.0156387
840.940	0.0155867
841.018	0.0156564
841.096	0.0156387
841.174	0.0155925
841.253	0.0154697
841.331	0.0155064
841.409	0.0154683
841.487	0.0154263
841.565	0.0154266
841.643	0.0153696
841.721	0.0152787
841.799	0.0152747
841.878	0.0152827
841.956	0.0152845
842.034	0.0153242
842.112	0.0153191
842.190	0.0152428
842.268	0.0152573
842.346	0.0150121
842.424	0.0149615
842.503	0.0150511
842.581	0.0150209
842.659	0.0150696
842.737	0.0149136
842.815	0.0148428
842.893	0.0148155
842.971	0.0148604
843.049	0.0148393
843.128	0.0148840
843.206	0.0150657
843.284	0.0149292
843.362	0.0149176
843.440	0.0151282
843.518	0.0150709
843.596	0.0150822
843.674	0.0151012
843.753	0.0152282
843.831	0.0153233
843.909	0.0154939
843.987	0.0154221
844.065	0.0155146
844.143	0.0154280
844.221	0.0154366
844.299	0.0155059
844.378	0.0155180
844.456	0.0155045
844.534	0.0154901
844.612	0.0155405
844.690	0.0155708
844.768	0.0154992
844.846	0.0156355
844.924	0.0155636
845.003	0.0156881
845.081	0.0155149
845.159	0.0155988
845.237	0.0156599
845.315	0.0157535
845.393	0.0157211
845.471	0.0157866
845.549	0.0159032
845.628	0.0158485
845.706	0.0158342
845.784	0.0159485
845.862	0.0157813
845.940	0.0158775
846.018	0.0159481
846.096	0.0158635
846.174	0.0157872
846.253	0.0157882
846.331	0.0156901
846.409	0.0157098
846.487	0.0156872
846.565	0.0156995
846.643	0.0155259
846.721	0.0154099
846.799	0.0154254
846.878	0.0154096
846.956	0.0152231
847.034	0.0152713
847.112	0.0151430
847.190	0.0151747
847.268	0.0150925
847.346	0.0151507
847.424	0.0150774
847.503	0.0149599
847.581	0.0150600
847.659	0.0150699
847.737	0.0149519
847.815	0.0150562
847.893	0.0150773
847.971	0.0151114
848.049	0.0149615
848.128	0.0149853
848.206	0.0150481
848.284	0.0152806
848.362	0.0151517
848.440	0.0149930
848.518	0.0151783
848.596	0.0151945
848.674	0.0151738
848.753	0.0151283
848.831	0.0151182
848.909	0.0152264
848.987	0.0153161
849.065	0.0152242
849.143	0.0151825
849.221	0.0153148
849.299	0.0153026
849.378	0.0152323
849.456	0.0152785
849.534	0.0154177
849.612	0.0154286
849.690	0.0155219
849.768	0.0155732
849.846	0.0155032
849.924	0.0154720
850.003	0.0156931
850.081	0.0157059
850.159	0.0156584
850.237	0.0156100
850.315	0.0158080
850.393	0.0157162
850.471	0.0157426
850.549	0.0157455
850.628	0.0156245
850.706	0.0156563
850.784	0.0157137
850.862	0.0157523
850.940	0.0157787
851.018	0.0155910
851.096	0.0155190
851.174	0.0157069
851.253	0.0155219
851.331	0.0156097
851.409	0.0156742
851.487	0.0155252
851.565	0.0154321
851.643	0.0154353
851.721	0.0154631
851.799	0.0153178
851.878	0.0155371
851.956	0.0153723
852.034	0.0154772
852.112	0.0154384
852.190	0.0153017
852.268	0.0153767
852.346	0.0153490
852.424	0.0152451
852.503	0.0153660
852.581	0.0153062
852.659	0.0152584
852.737	0.0153311
852.815	0.0151978
852.893	0.0151950
852.971	0.0151028
853.049	0.0150272
853.128	0.0150181
853.206	0.0150068
853.284	0.0148179
853.362	0.0149416
853.440	0.0150629
853.518	0.0149993
853.596	0.0149239
853.674	0.0149343
853.753	0.0149820
853.831	0.0151849
853.909	0.0149740
853.987	0.0151479
854.065	0.0149348
854.143	0.0152425
854.221	0.0151637
854.299	0.0153198
854.378	0.0152311
854.456	0.0152293
854.534	0.0153537
854.612	0.0154696
854.690	0.0154807
854.768	0.0154819
854.846	0.0155313
854.924	0.0156217
855.003	0.0155462
855.081	0.0157056
855.159	0.0155956
855.237	0.0155573
855.315	0.0156224
855.393	0.0157728
855.471	0.0155834
855.549	0.0154829
855.628	0.0156856
855.706	0.0156746
855.784	0.0155972
855.862	0.0155938
855.940	0.0157678
856.018	0.0157017
856.096	0.0156348
856.174	0.0156965
856.253	0.0156093
856.331	0.0156560
856.409	0.0156537
856.487	0.0155470
856.565	0.0155328
856.643	0.0155510
856.721	0.0157114
856.799	0.0156315
856.878	0.0153487
856.956	0.0154841
857.034	0.0155615
857.112	0.0155382
857.190	0.0155579
857.268	0.0153697
857.346	0.0154661
857.424	0.0156177
857.503	0.0154458
857.581	0.0153083
857.659	0.0153325
857.737	0.0152740
857.815	0.0152466
857.893	0.0151930
857.971	0.0151992
858.049	0.0151637
858.128	0.0152185
858.206	0.0151450
858.284	0.0151855
858.362	0.0150475
858.440	0.0148937
858.518	0.0149973
858.596	0.0150912
858.674	0.0150800
858.753	0.0149995
858.831	0.0151293
858.909	0.0152056
858.987	0.0151237
859.065	0.0150845
859.143	0.0152196
859.221	0.0151194
859.299	0.0151600
859.378	0.0152898
859.456	0.0152416
859.534	0.0153517
859.612	0.0154909
859.690	0.0153032
859.768	0.0153630
859.846	0.0153001
859.924	0.0154262
860.003	0.0153644
860.081	0.0153606
860.159	0.0154527
860.237	0.0154254
860.315	0.0154081
860.393	0.0154820
860.471	0.0155457
860.549	0.0155210
860.628	0.0155323
860.706	0.0156193
860.784	0.0156307
860.862	0.0157074
860.940	0.0156012
861.018	0.0157583
861.096	0.0154738
861.174	0.0156003
861.253	0.0157096
861.331	0.0158394
861.409	0.0156968
861.487	0.0157079
861.565	0.0156800
861.643	0.0157786
861.721	0.0155473
861.799	0.0156441
861.878	0.0156969
861.956	0.0156841
862.034	0.0156049
862.112	0.0154914
862.190	0.0155901
862.268	0.0155007
862.346	0.0154581
862.424	0.0154588
862.503	0.0155673
862.581	0.0152669
862.659	0.0153053
862.737	0.0153555
862.815	0.0153531
862.893	0.0153125
862.971	0.0153152
863.049	0.0152905
863.128	0.0152089
863.206	0.0150900
863.284	0.0152377
863.362	0.0152467
863.440	0.0152056
863.518	0.0152097
863.596	0.0151514
863.674	0.0151441
863.753	0.0151077
863.831	0.0150091
863.909	0.0151388
863.987	0.0151653
864.065	0.0150694
864.143	0.0151766
864.221	0.0152514
864.299	0.0150217
864.378	0.0150523
864.456	0.0152692
864.534	0.0151508
864.612	0.0153617
864.690	0.0152975
864.768	0.0153458
864.846	0.0152712
864.924	0.0152869
865.003	0.0154093
865.081	0.0154633
865.159	0.0152522
865.237	0.0153934
865.315	0.0156181
865.393	0.0156195
865.471	0.0155394
865.549	0.0155058
865.628	0.0155687
865.706	0.0155119
865.784	0.0155266
865.862	0.0154216
865.940	0.0155902
866.018	0.0157892
866.096	0.0157529
866.174	0.0155696
866.253	0.0155970
866.331	0.0156044
866.409	0.0156612
866.487	0.0156125
866.565	0.0154379
866.643	0.0155752
866.721	0.0156579
866.799	0.0156267
866.878	0.0156863
866.956	0.0153402
867.034	0.0155132
867.112	0.0155146
867.190	0.0156078
867.268	0.0156503
867.346	0.0156281
867.424	0.0155952
867.503	0.0155414
867.581	0.0153691
867.659	0.0154648
867.737	0.0154670
867.815	0.0155093
867.893	0.0155119
867.971	0.0154979
868.049	0.0153947
868.128	0.0153522
868.206	0.0152946
868.284	0.0153480
868.362	0.0154067
868.440	0.0153255
868.518	0.0152981
868.596	0.0151592
868.674	0.0152094
868.753	0.0151582
868.831	0.0152258
868.909	0.0150834
868.987	0.0151260
869.065	0.0151089
869.143	0.0151074
869.221	0.0150774
869.299	0.0148824
869.378	0.0149941
869.456	0.0151009
869.534	0.0150960
869.612	0.0149163
869.690	0.0150653
869.768	0.0151626
869.846	0.0150058
869.924	0.0151122
870.003	0.0153088
870.081	0.0151601
870.159	0.0153638
870.237	0.0153108
870.315	0.0154020
870.393	0.0154012
870.471	0.0153263
870.549	0.0154096
870.628	0.0153563
870.706	0.0156575
870.784	0.0155060
870.862	0.0156068
870.940	0.0155051
871.018	0.0155527
871.096	0.0156152
871.174	0.0155640
871.253	0.0156419
871.331	0.0156224
871.409	0.0156165
871.487	0.0156668
871.565	0.0155542
871.643	0.0155741
871.721	0.0156059
871.799	0.0155902
871.878	0.0154563
871.956	0.0155176
872.034	0.0155614
872.112	0.0155836
872.190	0.0154015
872.268	0.0154285
872.346	0.0155121
872.424	0.0156416
872.503	0.0154546
872.581	0.0155145
872.659	0.0156770
872.737	0.0155074
872.815	0.0156626
872.893	0.0153497
872.971	0.0154750
873.049	0.0154501
873.128	0.0154069
873.206	0.0153371
873.284	0.0153944
873.362	0.0153494
873.440	0.0153239
873.518	0.0152805
873.596	0.0152988
873.674	0.0153489
873.753	0.0152409
873.831	0.0153428
873.909	0.0152328
873.987	0.0151984
874.065	0.0152039
874.143	0.0152116
874.221	0.0151929
874.299	0.0150193
874.378	0.0152654
874.456	0.0152077
874.534	0.0152616
874.612	0.0152203
874.690	0.0151736
874.768	0.0151602
874.846	0.0151132
874.924	0.0152343
875.003	0.0152081
875.081	0.0153020
875.159	0.0152960
875.237	0.0152107
875.315	0.0154271
875.393	0.0152234
875.471	0.0154012
875.549	0.0153367
875.628	0.0154007
875.706	0.0154234
875.784	0.0155025
875.862	0.0155096
875.940	0.0153748
876.018	0.0155019
876.096	0.0154958
876.174	0.0154990
876.253	0.0155077
876.331	0.0155765
876.409	0.0154875
876.487	0.0155281
876.565	0.0155830
876.643	0.0156313
876.721	0.0156213
876.799	0.0154031
876.878	0.0156144
876.956	0.0153624
877.034	0.0155099
877.112	0.0155262
877.190	0.0153959
877.268	0.0155827
877.346	0.0155378
877.424	0.0154167
877.503	0.0153765
877.581	0.0154198
877.659	0.0154865
877.737	0.0153139
877.815	0.0154391
877.893	0.0154385
877.971	0.0153459
878.049	0.0153053
878.128	0.0153604
878.206	0.0153764
878.284	0.0153764
878.362	0.0153561
878.440	0.0152391
878.518	0.0154108
878.596	0.0153709
878.674	0.0153055
878.753	0.0153287
878.831	0.0153353
878.909	0.0153179
878.987	0.0154369
879.065	0.0153642
879.143	0.0153583
879.221	0.0153183
879.299	0.0154175
879.378	0.0153873
879.456	0.0152635
879.534	0.0153322
879.612	0.0153605
879.690	0.0152644
879.768	0.0152235
879.846	0.0152771
879.924	0.0152124
880.003	0.0153468
880.081	0.0152639
880.159	0.0153066
880.237	0.0152586
880.315	0.0153307
880.393	0.0153269
880.471	0.0152558
880.549	0.0153770
880.628	0.0154501
880.706	0.0153453
880.784	0.0153474
880.862	0.0155486
880.940	0.0154771
881.018	0.0155309
881.096	0.0154762
881.174	0.0155466
881.253	0.0156382
881.331	0.0156171
881.409	0.0154525
881.487	0.0154404
881.565	0.0155798
881.643	0.0156007
881.721	0.0155940
881.799	0.0155657
881.878	0.0156484
881.956	0.0155354
882.034	0.0155892
882.112	0.0155795
882.190	0.0154843
882.268	0.0153629
882.346	0.0155260
882.424	0.0153361
882.503	0.0154192
882.581	0.0155068
882.659	0.0154237
882.737	0.0152544
882.815	0.0154679
882.893	0.0152663
882.971	0.0153666
883.049	0.0153319
883.128	0.0152850
883.206	0.0152199
883.284	0.0153833
883.362	0.0153450
883.440	0.0153082
883.518	0.0152821
883.596	0.0152340
883.674	0.0153079
883.753	0.0153605
883.831	0.0153362
883.909	0.0152299
883.987	0.0153133
884.065	0.0154445
884.143	0.0153307
884.221	0.0153088
884.299	0.0154155
884.378	0.0153395
884.456	0.0154208
884.534	0.0154095
884.612	0.0154184
884.690	0.0154400
884.768	0.0152858
884.846	0.0152841
884.924	0.0154881
885.003	0.0155305
885.081	0.0155119
885.159	0.0154299
885.237	0.0155125
885.315	0.0154061
885.393	0.0155267
885.471	0.0155480
885.549	0.0157217
885.628	0.0154762
885.706	0.0154807
885.784	0.0155042
885.862	0.0155419
885.940	0.0155342
886.018	0.0156714
886.096	0.0156709
886.174	0.0155096
886.253	0.0153915
886.331	0.0154989
886.409	0.0154252
886.487	0.0154182
886.565	0.0154549
886.643	0.0154308
886.721	0.0155282
886.799	0.0153435
886.878	0.0153177
886.956	0.0153800
887.034	0.0154240
887.112	0.0152249
887.190	0.0152682
887.268	0.0152135
887.346	0.0153376
887.424	0.0154276
887.503	0.0153889
887.581	0.0155042
887.659	0.0154835
887.737	0.0153625
887.815	0.0154642
887.893	0.0154936
887.971	0.0154071
888.049	0.0153946
888.128	0.0153863
888.206	0.0154301
888.284	0.0154045
888.362	0.0153905
888.440	0.0153506
888.518	0.0153384
888.596	0.0153400
888.674	0.0154323
888.753	0.0153317
888.831	0.0152765
888.909	0.0152683
888.987	0.0153228
889.065	0.0152142
889.143	0.0153761
889.221	0.0152649
889.299	0.0152752
889.378	0.0154325
889.456	0.0153309
889.534	0.0152605
889.612	0.0152446
889.690	0.0151962
889.768	0.0153935
889.846	0.0153393
889.924	0.0151989
890.003	0.0151969
890.081	0.0152137
890.159	0.0153692
890.237	0.0152193
890.315	0.0152567
890.393	0.0153023
890.471	0.0151246
890.549	0.0153023
890.628	0.0153860
890.706	0.0153892
890.784	0.0153938
890.862	0.0153540
890.940	0.0154379
891.018	0.0154404
891.096	0.0153840
891.174	0.0153794
891.253	0.0153701
891.331	0.0155458
891.409	0.0155893
891.487	0.0155370
891.565	0.0155981
891.643	0.0155498
891.721	0.0155651
891.799	0.0155645
891.878	0.0155533
891.956	0.0155045
892.034	0.0154847
892.112	0.0155323
892.190	0.0155146
892.268	0.0155597
892.346	0.0154581
892.424	0.0155259
892.503	0.0155556
892.581	0.0154063
892.659	0.0153362
892.737	0.0155217
892.815	0.0154975
892.893	0.0153614
892.971	0.0154579
893.049	0.0154792
893.128	0.0154855
893.206	0.0154540
893.284	0.0152885
893.362	0.0153408
893.440	0.0152753
893.518	0.0152297
893.596	0.0151145
893.674	0.0151869
893.753	0.0152971
893.831	0.0152106
893.909	0.0152584
893.987	0.0152582
894.065	0.0152725
894.143	0.0152602
894.221	0.0151718
894.299	0.0151601
894.378	0.0153972
894.456	0.0153606
894.534	0.0152158
894.612	0.0154570
894.690	0.0153510
894.768	0.0153290
894.846	0.0154827
894.924	0.0154823
895.003	0.0154216
895.081	0.0154482
895.159	0.0155453
895.237	0.0153932
895.315	0.0155350
895.393	0.0152988
895.471	0.0153892
895.549	0.0154491
895.628	0.0154250
895.706	0.0153557
895.784	0.0154218
895.862	0.0153603
895.940	0.0152681
896.018	0.0153629
896.096	0.0155306
896.174	0.0153365
896.253	0.0154919
896.331	0.0154215
896.409	0.0154642
896.487	0.0154150
896.565	0.0154408
896.643	0.0153934
896.721	0.0154278
896.799	0.0155051
896.878	0.0155092
896.956	0.0153592
897.034	0.0153806
897.112	0.0154044
897.190	0.0153818
897.268	0.0154118
897.346	0.0154985
897.424	0.0153928
897.503	0.0155415
897.581	0.0154538
897.659	0.0154619
897.737	0.0154675
897.815	0.0155121
897.893	0.0155446
897.971	0.0155120
898.049	0.0154896
898.128	0.0153876
898.206	0.0155172
898.284	0.0154073
898.362	0.0155206
898.440	0.0154241
898.518	0.0154626
898.596	0.0154187
898.674	0.0154836
898.753	0.0155629
898.831	0.0155244
898.909	0.0154203
898.987	0.0154418
899.065	0.0152798
899.143	0.0154199
899.221	0.0153899
899.299	0.0153502
899.378	0.0151839
899.456	0.0152171
899.534	0.0152434
899.612	0.0152501
899.690	0.0153217
899.768	0.0153181
899.846	0.0152884
899.924	0.0152708
900.003	0.0153691
900.081	0.0154044
900.159	0.0152388
900.237	0.0151545
900.315	0.0153144
900.393	0.0153299
900.471	0.0152783
900.549	0.0152807
900.628	0.0152583
900.706	0.0153447
900.784	0.0153159
900.862	0.0152971
900.940	0.0152825
901.018	0.0153399
901.096	0.0153608
901.174	0.0152424
901.253	0.0153948
901.331	0.0153255
901.409	0.0153223
901.487	0.0153291
901.565	0.0153983
901.643	0.0153187
901.721	0.0153512
901.799	0.0153795
901.878	0.0152740
901.956	0.0152683
902.034	0.0152173
902.112	0.0152599
902.190	0.0150578
902.268	0.0153154
902.346	0.0152645
902.424	0.0151150
902.503	0.0152185
902.581	0.0153613
902.659	0.0152676
902.737	0.0153226
902.815	0.0153223
902.893	0.0153267
902.971	0.0153191
903.049	0.0152292
903.128	0.0154428
903.206	0.0155194
903.284	0.0153755
903.362	0.0154162
903.440	0.0154234
903.518	0.0155074
903.596	0.0155170
903.674	0.0154283
903.753	0.0154448
903.831	0.0153661
903.909	0.0153149
903.987	0.0152390
904.065	0.0153484
904.143	0.0153036
904.221	0.0153139
904.299	0.0150933
904.378	0.0152687
904.456	0.0153880
904.534	0.0152082
904.612	0.0153736
904.690	0.0153934
904.768	0.0153786
904.846	0.0152708
904.924	0.0152477
905.003	0.0154417
905.081	0.0153600
905.159	0.0153625
905.237	0.0153206
905.315	0.0154644
905.393	0.0153445
905.471	0.0154518
905.549	0.0154476
905.628	0.0155229
905.706	0.0154128
905.784	0.0154210
905.862	0.0154281
905.940	0.0153804
906.018	0.0154383
906.096	0.0154920
906.174	0.0154926
906.253	0.0155591
906.331	0.0153754
906.409	0.0154819
906.487	0.0153129
906.565	0.0153126
906.643	0.0154266
906.721	0.0153395
906.799	0.0152818
906.878	0.0153168
906.956	0.0151080
907.034	0.0152500
907.112	0.0152859
907.190	0.0151511
907.268	0.0153590
907.346	0.0152930
907.424	0.0152522
907.503	0.0151894
907.581	0.0153757
907.659	0.0152674
907.737	0.0154514
907.815	0.0155494
907.893	0.0155331
907.971	0.0153612
908.049	0.0154730
908.128	0.0154365
908.206	0.0153645
908.284	0.0154523
908.362	0.0155412
908.440	0.0154342
908.518	0.0154028
908.596	0.0154193
908.674	0.0154912
908.753	0.0154829
908.831	0.0153823
908.909	0.0154380
908.987	0.0153876
909.065	0.0154629
909.143	0.0155042
909.221	0.0152914
909.299	0.0152795
909.378	0.0153264
909.456	0.0153958
909.534	0.0152733
909.612	0.0153209
909.690	0.0154380
909.768	0.0151392
909.846	0.0152376
909.924	0.0154615
910.003	0.0152445
910.081	0.0153136
910.159	0.0152661
910.237	0.0154542
910.315	0.0155196
910.393	0.0155044
910.471	0.0153603
910.549	0.0155123
910.628	0.0154852
910.706	0.0154823
910.784	0.0152142
910.862	0.0153794
910.940	0.0155910
911.018	0.0154519
911.096	0.0154137
911.174	0.0153957
911.253	0.0154619
911.331	0.0154577
911.409	0.0154807
911.487	0.0154077
911.565	0.0154626
911.643	0.0155014
911.721	0.0153156
911.799	0.0153377
911.878	0.0154355
911.956	0.0154203
912.034	0.0155155
912.112	0.0154427
912.190	0.0154176
912.268	0.0153113
912.346	0.0154317
912.424	0.0153864
912.503	0.0154104
912.581	0.0153399
912.659	0.0155200
912.737	0.0152555
912.815	0.0151333
912.893	0.0152911
912.971	0.0152703
913.049	0.0153005
913.128	0.0154791
913.206	0.0153286
913.284	0.0153944
913.362	0.0154314
913.440	0.0152742
913.518	0.0152943
913.596	0.0153979
913.674	0.0154536
913.753	0.0153440
913.831	0.0154253
913.909	0.0154229
913.987	0.0153908
914.065	0.0154277
914.143	0.0154075
914.221	0.0154910
914.299	0.0154841
914.378	0.0154301
914.456	0.0154629
914.534	0.0155893
914.612	0.0154309
914.690	0.0153722
914.768	0.0154216
914.846	0.0153924
914.924	0.0153114
915.003	0.0153796
915.081	0.0152620
915.159	0.0152299
915.237	0.0150785
915.315	0.0152061
915.393	0.0151673
915.471	0.0151936
915.549	0.0152669
915.628	0.0153120
915.706	0.0153943
915.784	0.0151785
915.862	0.0153575
915.940	0.0154603
916.018	0.0153101
916.096	0.0154310
916.174	0.0156311
916.253	0.0154883
916.331	0.0154961
916.409	0.0155724
916.487	0.0156586
916.565	0.0156650
916.643	0.0155872
916.721	0.0156216
916.799	0.0156164
916.878	0.0156592
916.956	0.0156176
917.034	0.0155177
917.112	0.0155296
917.190	0.0154350
917.268	0.0153816
917.346	0.0154122
917.424	0.0152883
917.503	0.0152244
917.581	0.0152437
917.659	0.0153539
917.737	0.0152283
917.815	0.0150258
917.893	0.0150617
917.971	0.0151799
918.049	0.0151969
918.128	0.0151904
918.206	0.0151353
918.284	0.0150314
918.362	0.0152449
918.440	0.0152663
918.518	0.0153168
918.596	0.0154086
918.674	0.0153384
918.753	0.0154549
918.831	0.0155640
918.909	0.0154273
918.987	0.0153912
919.065	0.0155068
919.143	0.0156993
919.221	0.0155560
919.299	0.0156361
919.378	0.0155824
919.456	0.0155162
919.534	0.0156552
919.612	0.0155923
919.690	0.0154342
919.768	0.0154561
919.846	0.0154156
919.924	0.0154211
920.003	0.0154370
920.081	0.0154289
920.159	0.0154327
920.237	0.0154794
920.315	0.0153503
920.393	0.0154449
920.471	0.0154004
920.549	0.0153329
920.628	0.0154011
920.706	0.0154744
920.784	0.0155309
920.862	0.0155949
920.940	0.0154576
921.018	0.0153548
921.096	0.0153719
921.174	0.0153699
921.253	0.0153185
921.331	0.0153734
921.409	0.0154341
921.487	0.0153400
921.565	0.0153823
921.643	0.0153264
921.721	0.0153117
921.799	0.0152245
921.878	0.0152637
921.956	0.0152884
922.034	0.0154008
922.112	0.0152835
922.190	0.0153931
922.268	0.0154179
922.346	0.0155116
922.424	0.0154930
922.503	0.0154990
922.581	0.0155004
922.659	0.0154315
922.737	0.0155978
922.815	0.0154885
922.893	0.0154457
922.971	0.0154353
923.049	0.0154216
923.128	0.0152779
923.206	0.0152724
923.284	0.0153341
923.362	0.0153061
923.440	0.0152097
923.518	0.0151807
923.596	0.0152530
923.674	0.0152544
923.753	0.0153063
923.831	0.0152998
923.909	0.0153436
923.987	0.0153773
924.065	0.0154204
924.143	0.0151577
924.221	0.0153178
924.299	0.0155560
924.378	0.0155714
924.456	0.0154118
924.534	0.0153734
924.612	0.0155176
924.690	0.0154701
924.768	0.0155617
924.846	0.0154185
924.924	0.0154971
925.003	0.0154884
925.081	0.0155499
925.159	0.0154596
925.237	0.0155393
925.315	0.0155370
925.393	0.0155219
925.471	0.0153529
925.549	0.0154839
925.628	0.0154459
925.706	0.0154442
925.784	0.0154131
925.862	0.0154013
925.940	0.0153779
926.018	0.0154118
926.096	0.0154409
926.174	0.0153592
926.253	0.0152382
926.331	0.0153756
926.409	0.0153207
926.487	0.0153374
926.565	0.0152836
926.643	0.0152724
926.721	0.0152956
926.799	0.0152721
926.878	0.0151773
926.956	0.0152052
927.034	0.0153318
927.112	0.0153252
927.190	0.0152593
927.268	0.0153881
927.346	0.0153515
927.424	0.0153970
927.503	0.0153435
927.581	0.0154321
927.659	0.0152432
927.737	0.0153899
927.815	0.0154527
927.893	0.0153352
927.971	0.0151485
928.049	0.0153484
928.128	0.0153159
928.206	0.0151399
928.284	0.0152261
928.362	0.0151925
928.440	0.0152428
928.518	0.0151588
928.596	0.0150101
928.674	0.0149430
928.753	0.0151736
928.831	0.0150546
928.909	0.0150420
928.987	0.0151509
929.065	0.0152546
929.143	0.0152636
929.221	0.0153168
929.299	0.0154466
929.378	0.0155072
929.456	0.0155627
929.534	0.0156104
929.612	0.0157146
929.690	0.0156776
929.768	0.0155503
929.846	0.0155533
929.924	0.0156068
930.003	0.0156223
930.081	0.0155482
930.159	0.0155008
930.237	0.0153349
930.315	0.0153471
930.393	0.0152305
930.471	0.0152644
930.549	0.0152635
930.628	0.0152362
930.706	0.0152634
930.784	0.0153416
930.862	0.0153749
930.940	0.0153407
931.018	0.0152502
931.096	0.0155311
931.174	0.0153245
931.253	0.0154335
931.331	0.0153934
931.409	0.0154504
931.487	0.0152345
931.565	0.0152210
931.643	0.0153056
931.721	0.0152581
931.799	0.0152358
931.878	0.0152539
931.956	0.0152375
932.034	0.0152564
932.112	0.0152940
932.190	0.0152213
932.268	0.0154236
932.346	0.0153745
932.424	0.0154549
932.503	0.0153765
932.581	0.0154196
932.659	0.0155280
932.737	0.0153916
932.815	0.0154482
932.893	0.0154417
932.971	0.0154926
933.049	0.0155151
933.128	0.0154753
933.206	0.0154714
933.284	0.0152348
933.362	0.0154625
933.440	0.0151958
933.518	0.0153413
933.596	0.0152952
933.674	0.0152737
933.753	0.0151299
933.831	0.0153998
933.909	0.0152733
933.987	0.0151546
934.065	0.0151711
934.143	0.0153113
934.221	0.0154405
934.299	0.0153357
934.378	0.0153640
934.456	0.0154234
934.534	0.0154350
934.612	0.0154554
934.690	0.0152934
934.768	0.0154166
934.846	0.0153704
934.924	0.0152596
935.003	0.0154738
935.081	0.0155870
935.159	0.0153027
935.237	0.0152883
935.315	0.0154974
935.393	0.0153329
935.471	0.0154514
935.549	0.0155615
935.628	0.0154441
935.706	0.0154749
935.784	0.0154734
935.862	0.0154585
935.940	0.0155917
936.018	0.0154115
936.096	0.0153925
936.174	0.0152842
936.253	0.0154476
936.331	0.0153236
936.409	0.0152694
936.487	0.0152639
936.565	0.0153027
936.643	0.0153174
936.721	0.0152369
936.799	0.0153184
936.878	0.0151717
936.956	0.0150194
937.034	0.0152580
937.112	0.0153279
937.190	0.0153985
937.268	0.0153757
937.346	0.0153535
937.424	0.0154238
937.503	0.0154768
937.581	0.0154818
937.659	0.0153838
937.737	0.0156339
937.815	0.0156796
937.893	0.0155991
937.971	0.0154998
938.049	0.0154513
938.128	0.0155428
938.206	0.0155421
938.284	0.0154360
938.362	0.0154958
938.440	0.0154136
938.518	0.0153877
938.596	0.0153055
938.674	0.0154413
938.753	0.0152827
938.831	0.0152798
938.909	0.0153219
938.987	0.0152515
939.065	0.0153413
939.143	0.0154656
939.221	0.0153856
939.299	0.0152816
939.378	0.0153962
939.456	0.0154709
939.534	0.0154652
939.612	0.0154494
939.690	0.0155492
939.768	0.0153922
939.846	0.0153820
939.924	0.0153178
940.003	0.0153352
940.081	0.0154182
940.159	0.0152427
940.237	0.0153977
940.315	0.0152800
940.393	0.0152026
940.471	0.0152583
940.549	0.0152388
940.628	0.0153032
940.706	0.0153170
940.784	0.0156169
940.862	0.0153502
940.940	0.0153845
941.018	0.0155221
941.096	0.0155731
941.174	0.0154947
941.253	0.0154259
941.331	0.0154429
941.409	0.0154049
941.487	0.0154083
941.565	0.0155021
941.643	0.0154920
941.721	0.0152334
941.799	0.0153997
941.878	0.0152203
941.956	0.0151995
942.034	0.0153613
942.112	0.0153559
942.190	0.0151688
942.268	0.0151984
942.346	0.0151389
942.424	0.0152934
942.503	0.0152016
942.581	0.0153038
942.659	0.0152658
942.737	0.0153294
942.815	0.0153863
942.893	0.0153267
942.971	0.0154802
943.049	0.0155196
943.128	0.0154160
943.206	0.0153876
943.284	0.0155264
943.362	0.0155316
943.440	0.0155001
943.518	0.0154539
943.596	0.0153656
943.674	0.0153852
943.753	0.0154888
943.831	0.0154462
943.909	0.0153777
943.987	0.0154247
944.065	0.0154654
944.143	0.0154540
944.221	0.0154132
944.299	0.0153961
944.378	0.0154488
944.456	0.0154072
944.534	0.0153683
944.612	0.0155547
944.690	0.0155652
944.768	0.0155252
944.846	0.0155076
944.924	0.0156522
945.003	0.0155597
945.081	0.0155699
945.159	0.0154134
945.237	0.0154908
945.315	0.0154852
945.393	0.0153020
945.471	0.0154138
945.549	0.0154167
945.628	0.0152363
945.706	0.0153816
945.784	0.0152549
945.862	0.0153351
945.940	0.0152858
946.018	0.0152660
946.096	0.0152187
946.174	0.0151519
946.253	0.0152560
946.331	0.0154066
946.409	0.0153458
946.487	0.0154575
946.565	0.0155054
946.643	0.0152496
946.721	0.0153944
946.799	0.0154116
946.878	0.0153545
946.956	0.0154095
947.034	0.0154154
947.112	0.0154224
947.190	0.0152935
947.268	0.0153725
947.346	0.0153428
947.424	0.0154568
947.503	0.0154115
947.581	0.0153693
947.659	0.0155234
947.737	0.0155005
947.815	0.0152500
947.893	0.0154411
947.971	0.0152745
948.049	0.0154397
948.128	0.0154192
948.206	0.0153219
948.284	0.0154073
948.362	0.0154253
948.440	0.0155336
948.518	0.0155287
948.596	0.0155273
948.674	0.0153601
948.753	0.0153798
948.831	0.0154581
948.909	0.0154046
948.987	0.0153368
949.065	0.0155821
949.143	0.0154024
949.221	0.0153175
949.299	0.0154672
949.378	0.0153986
949.456	0.0152239
949.534	0.0153131
949.612	0.0154320
949.690	0.0154260
949.768	0.0153093
949.846	0.0154494
949.924	0.0155334
