06/29/2022	22:56:50	Ver.	4.1	UNKNOWN
Optical Delay	630.002507	Delta X		0.078125	Sweeps	1	Scan Rate	0/0
Coordinates	Axis 1	NaN	Axis 2	NaN	Axis 3	NaN	Axis 4	NaN	Axis 5	NaN	Axis 6	0.000000
TX Power	0.000000	RX Power	0.000000

630.003	0.0159335
630.081	0.0159813
630.159	0.0158938
630.237	0.0158640
630.315	0.0160107
630.393	0.0160416
630.471	0.0158946
630.549	0.0158390
630.628	0.0160652
630.706	0.0159384
630.784	0.0159907
630.862	0.0158640
630.940	0.0158424
631.018	0.0158379
631.096	0.0159533
631.174	0.0159535
631.253	0.0159100
631.331	0.0157102
631.409	0.0159347
631.487	0.0158066
631.565	0.0159097
631.643	0.0160126
631.721	0.0157621
631.799	0.0159586
631.878	0.0159492
631.956	0.0158827
632.034	0.0158907
632.112	0.0159496
632.190	0.0159395
632.268	0.0159398
632.346	0.0158781
632.424	0.0159737
632.503	0.0158845
632.581	0.0161353
632.659	0.0160491
632.737	0.0158658
632.815	0.0159410
632.893	0.0159549
632.971	0.0159837
633.049	0.0157584
633.128	0.0159169
633.206	0.0159451
633.284	0.0160144
633.362	0.0159039
633.440	0.0159087
633.518	0.0159999
633.596	0.0159820
633.674	0.0160321
633.753	0.0159732
633.831	0.0159063
633.909	0.0158495
633.987	0.0159324
634.065	0.0160922
634.143	0.0158777
634.221	0.0159476
634.299	0.0160169
634.378	0.0159512
634.456	0.0158190
634.534	0.0159458
634.612	0.0160283
634.690	0.0159756
634.768	0.0159679
634.846	0.0159035
634.924	0.0157968
635.003	0.0157670
635.081	0.0159666
635.159	0.0158823
635.237	0.0158637
635.315	0.0158981
635.393	0.0159440
635.471	0.0160436
635.549	0.0160355
635.628	0.0158934
635.706	0.0159509
635.784	0.0159714
635.862	0.0159356
635.940	0.0158078
636.018	0.0159456
636.096	0.0159904
636.174	0.0159871
636.253	0.0158711
636.331	0.0159370
636.409	0.0158723
636.487	0.0159686
636.565	0.0159559
636.643	0.0158640
636.721	0.0158901
636.799	0.0160075
636.878	0.0158627
636.956	0.0158629
637.034	0.0158907
637.112	0.0158701
637.190	0.0160220
637.268	0.0159799
637.346	0.0158501
637.424	0.0159617
637.503	0.0158495
637.581	0.0160528
637.659	0.0160199
637.737	0.0159219
637.815	0.0159519
637.893	0.0158670
637.971	0.0159267
638.049	0.0160170
638.128	0.0158858
638.206	0.0159728
638.284	0.0157785
638.362	0.0159874
638.440	0.0160728
638.518	0.0159221
638.596	0.0159476
638.674	0.0160336
638.753	0.0158842
638.831	0.0160043
638.909	0.0159863
638.987	0.0159573
639.065	0.0158305
639.143	0.0159985
639.221	0.0160675
639.299	0.0158660
639.378	0.0158495
639.456	0.0159949
639.534	0.0159207
639.612	0.0160120
639.690	0.0158801
639.768	0.0160915
639.846	0.0160106
639.924	0.0158244
640.003	0.0159254
640.081	0.0161053
640.159	0.0158339
640.237	0.0158943
640.315	0.0159161
640.393	0.0159708
640.471	0.0160244
640.549	0.0158341
640.628	0.0158821
640.706	0.0160066
640.784	0.0159584
640.862	0.0158395
640.940	0.0159541
641.018	0.0159946
641.096	0.0161059
641.174	0.0161108
641.253	0.0159706
641.331	0.0159285
641.409	0.0159858
641.487	0.0159543
641.565	0.0159934
641.643	0.0158456
641.721	0.0159401
641.799	0.0161423
641.878	0.0159962
641.956	0.0158260
642.034	0.0159746
642.112	0.0160295
642.190	0.0158723
642.268	0.0158884
642.346	0.0158351
642.424	0.0159679
642.503	0.0161249
642.581	0.0158697
642.659	0.0158948
642.737	0.0157995
642.815	0.0159411
642.893	0.0158058
642.971	0.0161243
643.049	0.0158923
643.128	0.0158875
643.206	0.0158859
643.284	0.0159593
643.362	0.0160194
643.440	0.0159792
643.518	0.0159903
643.596	0.0160257
643.674	0.0158477
643.753	0.0159317
643.831	0.0159498
643.909	0.0158974
643.987	0.0158907
644.065	0.0160625
644.143	0.0158427
644.221	0.0158620
644.299	0.0159238
644.378	0.0160062
644.456	0.0157726
644.534	0.0158846
644.612	0.0160282
644.690	0.0159523
644.768	0.0157967
644.846	0.0159687
644.924	0.0159943
645.003	0.0159950
645.081	0.0159087
645.159	0.0158632
645.237	0.0158943
645.315	0.0159126
645.393	0.0159558
645.471	0.0161206
645.549	0.0159071
645.628	0.0158795
645.706	0.0159354
645.784	0.0159626
645.862	0.0159115
645.940	0.0159592
646.018	0.0158519
646.096	0.0158990
646.174	0.0158810
646.253	0.0159309
646.331	0.0158791
646.409	0.0159264
646.487	0.0159494
646.565	0.0159438
646.643	0.0159310
646.721	0.0159200
646.799	0.0158964
646.878	0.0159480
646.956	0.0159944
647.034	0.0159459
647.112	0.0160144
647.190	0.0158928
647.268	0.0159177
647.346	0.0158852
647.424	0.0158141
647.503	0.0160147
647.581	0.0159835
647.659	0.0160207
647.737	0.0159286
647.815	0.0159225
647.893	0.0159376
647.971	0.0160114
648.049	0.0159566
648.128	0.0158166
648.206	0.0159967
648.284	0.0157961
648.362	0.0159700
648.440	0.0159192
648.518	0.0159512
648.596	0.0158476
648.674	0.0158990
648.753	0.0159782
648.831	0.0159705
648.909	0.0159071
648.987	0.0159566
649.065	0.0158865
649.143	0.0159946
649.221	0.0159197
649.299	0.0157712
649.378	0.0159232
649.456	0.0159556
649.534	0.0159891
649.612	0.0158717
649.690	0.0158047
649.768	0.0158331
649.846	0.0159045
649.924	0.0157819
650.003	0.0159386
650.081	0.0160513
650.159	0.0158964
650.237	0.0159841
650.315	0.0159763
650.393	0.0159232
650.471	0.0159772
650.549	0.0159070
650.628	0.0158243
650.706	0.0159846
650.784	0.0159841
650.862	0.0160692
650.940	0.0158051
651.018	0.0157590
651.096	0.0159270
651.174	0.0158670
651.253	0.0158755
651.331	0.0159612
651.409	0.0158444
651.487	0.0158864
651.565	0.0159763
651.643	0.0158683
651.721	0.0158651
651.799	0.0157914
651.878	0.0159127
651.956	0.0159317
652.034	0.0160161
652.112	0.0158862
652.190	0.0159406
652.268	0.0157723
652.346	0.0159342
652.424	0.0159497
652.503	0.0157839
652.581	0.0158531
652.659	0.0160290
652.737	0.0159317
652.815	0.0158857
652.893	0.0159349
652.971	0.0158928
653.049	0.0158756
653.128	0.0160039
653.206	0.0158581
653.284	0.0158895
653.362	0.0159478
653.440	0.0158422
653.518	0.0159827
653.596	0.0159447
653.674	0.0158392
653.753	0.0158463
653.831	0.0158997
653.909	0.0159774
653.987	0.0159068
654.065	0.0158723
654.143	0.0158665
654.221	0.0159260
654.299	0.0159014
654.378	0.0158328
654.456	0.0158586
654.534	0.0160303
654.612	0.0159460
654.690	0.0158813
654.768	0.0159318
654.846	0.0158640
654.924	0.0158071
655.003	0.0157869
655.081	0.0158494
655.159	0.0157531
655.237	0.0157809
655.315	0.0157310
655.393	0.0158103
655.471	0.0158095
655.549	0.0158516
655.628	0.0159750
655.706	0.0158810
655.784	0.0157855
655.862	0.0160414
655.940	0.0158894
656.018	0.0159792
656.096	0.0158562
656.174	0.0159094
656.253	0.0158716
656.331	0.0158788
656.409	0.0158884
656.487	0.0158937
656.565	0.0159620
656.643	0.0158632
656.721	0.0159992
656.799	0.0159479
656.878	0.0158692
656.956	0.0160561
657.034	0.0158727
657.112	0.0158957
657.190	0.0158579
657.268	0.0159361
657.346	0.0159225
657.424	0.0159688
657.503	0.0159274
657.581	0.0160067
657.659	0.0159811
657.737	0.0159743
657.815	0.0158963
657.893	0.0158634
657.971	0.0158762
658.049	0.0159926
658.128	0.0158588
658.206	0.0159868
658.284	0.0159552
658.362	0.0158002
658.440	0.0159552
658.518	0.0158113
658.596	0.0158799
658.674	0.0158153
658.753	0.0158568
658.831	0.0157947
658.909	0.0158918
658.987	0.0159409
659.065	0.0158804
659.143	0.0159473
659.221	0.0159776
659.299	0.0159392
659.378	0.0158999
659.456	0.0158926
659.534	0.0158357
659.612	0.0159046
659.690	0.0159172
659.768	0.0158607
659.846	0.0158722
659.924	0.0159367
660.003	0.0159380
660.081	0.0158140
660.159	0.0159787
660.237	0.0159411
660.315	0.0159287
660.393	0.0160004
660.471	0.0159795
660.549	0.0158344
660.628	0.0159727
660.706	0.0159348
660.784	0.0158486
660.862	0.0158788
660.940	0.0157565
661.018	0.0159535
661.096	0.0159203
661.174	0.0159646
661.253	0.0157961
661.331	0.0159155
661.409	0.0159534
661.487	0.0160517
661.565	0.0158392
661.643	0.0158279
661.721	0.0159246
661.799	0.0159982
661.878	0.0159875
661.956	0.0158379
662.034	0.0159893
662.112	0.0160139
662.190	0.0158633
662.268	0.0159039
662.346	0.0158670
662.424	0.0158446
662.503	0.0159020
662.581	0.0160098
662.659	0.0159930
662.737	0.0158841
662.815	0.0159055
662.893	0.0158735
662.971	0.0158353
663.049	0.0159064
663.128	0.0159421
663.206	0.0159423
663.284	0.0158329
663.362	0.0159644
663.440	0.0159455
663.518	0.0158750
663.596	0.0158176
663.674	0.0159373
663.753	0.0158766
663.831	0.0159077
663.909	0.0158943
663.987	0.0159325
664.065	0.0158486
664.143	0.0158311
664.221	0.0159617
664.299	0.0158624
664.378	0.0159076
664.456	0.0158805
664.534	0.0159078
664.612	0.0157698
664.690	0.0157948
664.768	0.0160532
664.846	0.0158408
664.924	0.0158779
665.003	0.0160394
665.081	0.0159447
665.159	0.0159726
665.237	0.0159679
665.315	0.0159090
665.393	0.0158997
665.471	0.0159046
665.549	0.0159184
665.628	0.0158975
665.706	0.0159218
665.784	0.0158821
665.862	0.0160044
665.940	0.0159623
666.018	0.0159217
666.096	0.0157937
666.174	0.0158700
666.253	0.0159469
666.331	0.0158360
666.409	0.0158687
666.487	0.0159092
666.565	0.0158647
666.643	0.0159224
666.721	0.0159570
666.799	0.0159965
666.878	0.0158421
666.956	0.0159150
667.034	0.0158844
667.112	0.0158479
667.190	0.0158609
667.268	0.0159625
667.346	0.0159254
667.424	0.0157691
667.503	0.0159146
667.581	0.0159739
667.659	0.0159464
667.737	0.0159153
667.815	0.0158997
667.893	0.0158981
667.971	0.0159103
668.049	0.0157986
668.128	0.0158230
668.206	0.0158925
668.284	0.0159839
668.362	0.0158653
668.440	0.0158814
668.518	0.0159541
668.596	0.0158698
668.674	0.0159472
668.753	0.0159415
668.831	0.0158924
668.909	0.0159747
668.987	0.0159563
669.065	0.0159991
669.143	0.0159419
669.221	0.0159319
669.299	0.0159613
669.378	0.0158059
669.456	0.0159108
669.534	0.0160321
669.612	0.0159882
669.690	0.0159121
669.768	0.0159015
669.846	0.0159713
669.924	0.0159602
670.003	0.0159605
670.081	0.0159377
670.159	0.0158981
670.237	0.0158551
670.315	0.0158018
670.393	0.0159458
670.471	0.0159513
670.549	0.0159004
670.628	0.0158826
670.706	0.0159382
670.784	0.0158487
670.862	0.0160303
670.940	0.0158437
671.018	0.0157377
671.096	0.0159351
671.174	0.0158923
671.253	0.0158694
671.331	0.0158606
671.409	0.0159530
671.487	0.0158436
671.565	0.0158640
671.643	0.0159489
671.721	0.0159603
671.799	0.0159378
671.878	0.0159959
671.956	0.0158845
672.034	0.0158908
672.112	0.0159206
672.190	0.0159275
672.268	0.0157587
672.346	0.0159929
672.424	0.0160574
672.503	0.0158295
672.581	0.0158552
672.659	0.0159312
672.737	0.0158381
672.815	0.0158802
672.893	0.0158781
672.971	0.0160496
673.049	0.0159731
673.128	0.0157578
673.206	0.0160273
673.284	0.0158632
673.362	0.0159531
673.440	0.0159174
673.518	0.0158348
673.596	0.0159495
673.674	0.0158540
673.753	0.0158961
673.831	0.0159474
673.909	0.0158657
673.987	0.0159898
674.065	0.0159418
674.143	0.0158304
674.221	0.0160127
674.299	0.0158792
674.378	0.0159647
674.456	0.0159702
674.534	0.0160553
674.612	0.0160213
674.690	0.0159813
674.768	0.0159508
674.846	0.0158720
674.924	0.0159560
675.003	0.0159534
675.081	0.0159212
675.159	0.0158253
675.237	0.0159121
675.315	0.0158638
675.393	0.0160225
675.471	0.0159918
675.549	0.0158302
675.628	0.0158404
675.706	0.0158978
675.784	0.0160862
675.862	0.0159133
675.940	0.0158849
676.018	0.0160031
676.096	0.0158953
676.174	0.0158527
676.253	0.0160656
676.331	0.0160572
676.409	0.0160551
676.487	0.0159964
676.565	0.0161018
676.643	0.0159443
676.721	0.0159417
676.799	0.0160262
676.878	0.0160162
676.956	0.0159402
677.034	0.0157922
677.112	0.0159648
677.190	0.0159165
677.268	0.0160175
677.346	0.0159956
677.424	0.0158662
677.503	0.0159708
677.581	0.0160276
677.659	0.0158270
677.737	0.0158755
677.815	0.0158884
677.893	0.0158497
677.971	0.0159875
678.049	0.0159064
678.128	0.0159618
678.206	0.0159182
678.284	0.0159572
678.362	0.0160664
678.440	0.0159668
678.518	0.0158878
678.596	0.0160453
678.674	0.0160654
678.753	0.0158749
678.831	0.0161035
678.909	0.0158873
678.987	0.0158511
679.065	0.0160200
679.143	0.0158867
679.221	0.0159946
679.299	0.0159707
679.378	0.0159414
679.456	0.0159102
679.534	0.0159238
679.612	0.0156850
679.690	0.0159961
679.768	0.0160260
679.846	0.0158557
679.924	0.0159196
680.003	0.0160164
680.081	0.0160898
680.159	0.0158359
680.237	0.0159074
680.315	0.0160137
680.393	0.0160079
680.471	0.0159999
680.549	0.0160290
680.628	0.0159149
680.706	0.0160312
680.784	0.0159814
680.862	0.0158786
680.940	0.0158875
681.018	0.0159580
681.096	0.0159116
681.174	0.0159177
681.253	0.0158401
681.331	0.0160148
681.409	0.0159316
681.487	0.0159306
681.565	0.0160483
681.643	0.0159131
681.721	0.0159970
681.799	0.0159284
681.878	0.0158636
681.956	0.0160948
682.034	0.0160587
682.112	0.0159586
682.190	0.0159373
682.268	0.0159446
682.346	0.0159631
682.424	0.0160123
682.503	0.0160627
682.581	0.0160569
682.659	0.0159392
682.737	0.0158527
682.815	0.0158501
682.893	0.0159476
682.971	0.0160802
683.049	0.0159886
683.128	0.0159731
683.206	0.0159554
683.284	0.0160029
683.362	0.0160045
683.440	0.0160625
683.518	0.0159891
683.596	0.0158990
683.674	0.0160066
683.753	0.0160265
683.831	0.0159332
683.909	0.0159724
683.987	0.0160693
684.065	0.0159821
684.143	0.0159296
684.221	0.0159912
684.299	0.0160022
684.378	0.0159274
684.456	0.0158776
684.534	0.0158347
684.612	0.0159745
684.690	0.0159824
684.768	0.0158890
684.846	0.0159999
684.924	0.0160784
685.003	0.0159722
685.081	0.0158923
685.159	0.0159284
685.237	0.0158443
685.315	0.0159056
685.393	0.0158963
685.471	0.0160127
685.549	0.0159426
685.628	0.0158953
685.706	0.0160768
685.784	0.0159592
685.862	0.0157913
685.940	0.0159761
686.018	0.0159229
686.096	0.0158994
686.174	0.0158197
686.253	0.0160632
686.331	0.0160281
686.409	0.0158955
686.487	0.0158881
686.565	0.0158733
686.643	0.0158913
686.721	0.0158724
686.799	0.0159558
686.878	0.0159620
686.956	0.0159466
687.034	0.0158588
687.112	0.0159205
687.190	0.0160002
687.268	0.0160116
687.346	0.0160005
687.424	0.0160082
687.503	0.0159156
687.581	0.0159335
687.659	0.0157857
687.737	0.0160727
687.815	0.0160011
687.893	0.0158891
687.971	0.0159079
688.049	0.0158894
688.128	0.0159661
688.206	0.0158759
688.284	0.0158570
688.362	0.0160278
688.440	0.0158875
688.518	0.0158205
688.596	0.0159664
688.674	0.0159856
688.753	0.0159619
688.831	0.0158359
688.909	0.0159279
688.987	0.0160142
689.065	0.0159844
689.143	0.0159175
689.221	0.0160233
689.299	0.0158825
689.378	0.0159209
689.456	0.0160791
689.534	0.0158257
689.612	0.0158435
689.690	0.0160669
689.768	0.0160600
689.846	0.0159146
689.924	0.0159457
690.003	0.0158759
690.081	0.0158555
690.159	0.0159862
690.237	0.0159287
690.315	0.0160685
690.393	0.0159472
690.471	0.0157502
690.549	0.0157585
690.628	0.0159479
690.706	0.0158588
690.784	0.0159482
690.862	0.0159329
690.940	0.0158395
691.018	0.0158923
691.096	0.0157995
691.174	0.0158997
691.253	0.0159424
691.331	0.0158111
691.409	0.0160986
691.487	0.0158846
691.565	0.0158810
691.643	0.0158868
691.721	0.0160139
691.799	0.0158762
691.878	0.0157892
691.956	0.0158637
692.034	0.0158530
692.112	0.0158677
692.190	0.0158381
692.268	0.0158601
692.346	0.0159100
692.424	0.0159277
692.503	0.0159591
692.581	0.0160365
692.659	0.0159740
692.737	0.0159620
692.815	0.0160862
692.893	0.0160702
692.971	0.0160327
693.049	0.0158768
693.128	0.0159225
693.206	0.0160290
693.284	0.0158545
693.362	0.0159458
693.440	0.0159488
693.518	0.0158990
693.596	0.0157712
693.674	0.0159729
693.753	0.0159376
693.831	0.0160544
693.909	0.0159667
693.987	0.0160263
694.065	0.0160030
694.143	0.0162075
694.221	0.0158966
694.299	0.0159140
694.378	0.0161114
694.456	0.0159143
694.534	0.0159267
694.612	0.0157136
694.690	0.0158505
694.768	0.0158297
694.846	0.0158888
694.924	0.0158157
695.003	0.0157846
695.081	0.0159430
695.159	0.0159112
695.237	0.0158722
695.315	0.0159596
695.393	0.0158548
695.471	0.0159606
695.549	0.0158401
695.628	0.0157651
695.706	0.0158586
695.784	0.0157768
695.862	0.0157191
695.940	0.0157065
696.018	0.0157256
696.096	0.0158774
696.174	0.0157435
696.253	0.0158657
696.331	0.0158624
696.409	0.0158583
696.487	0.0158861
696.565	0.0160521
696.643	0.0158500
696.721	0.0158345
696.799	0.0159512
696.878	0.0158146
696.956	0.0159663
697.034	0.0160751
697.112	0.0161005
697.190	0.0160598
697.268	0.0160609
697.346	0.0161322
697.424	0.0161224
697.503	0.0159935
697.581	0.0157921
697.659	0.0157380
697.737	0.0155968
697.815	0.0155669
697.893	0.0156075
697.971	0.0155907
698.049	0.0156876
698.128	0.0155984
698.206	0.0158342
698.284	0.0161115
698.362	0.0161483
698.440	0.0161172
698.518	0.0162208
698.596	0.0163480
698.674	0.0162082
698.753	0.0163368
698.831	0.0161169
698.909	0.0161068
698.987	0.0159335
699.065	0.0159063
699.143	0.0157526
699.221	0.0154913
699.299	0.0156026
699.378	0.0154668
699.456	0.0154089
699.534	0.0155679
699.612	0.0155432
699.690	0.0155047
699.768	0.0157706
699.846	0.0159021
699.924	0.0158298
700.003	0.0160212
700.081	0.0161069
700.159	0.0162883
700.237	0.0165617
700.315	0.0163163
700.393	0.0163253
700.471	0.0162539
700.549	0.0162024
700.628	0.0162876
700.706	0.0160268
700.784	0.0157845
700.862	0.0157188
700.940	0.0157294
701.018	0.0155880
701.096	0.0155054
701.174	0.0155753
701.253	0.0155699
701.331	0.0156044
701.409	0.0156153
701.487	0.0157955
701.565	0.0160034
701.643	0.0159679
701.721	0.0162212
701.799	0.0163081
701.878	0.0163496
701.956	0.0164845
702.034	0.0165446
702.112	0.0164228
702.190	0.0161575
702.268	0.0161357
702.346	0.0160007
702.424	0.0157880
702.503	0.0157482
702.581	0.0156157
702.659	0.0155444
702.737	0.0154943
702.815	0.0155823
702.893	0.0156421
702.971	0.0156016
703.049	0.0156979
703.128	0.0158632
703.206	0.0159173
703.284	0.0161024
703.362	0.0161085
703.440	0.0160016
703.518	0.0161040
703.596	0.0161697
703.674	0.0160633
703.753	0.0161037
703.831	0.0160918
703.909	0.0161472
703.987	0.0162678
704.065	0.0162411
704.143	0.0161974
704.221	0.0162485
704.299	0.0160739
704.378	0.0159391
704.456	0.0157637
704.534	0.0158611
704.612	0.0155864
704.690	0.0154622
704.768	0.0156413
704.846	0.0156166
704.924	0.0154274
705.003	0.0155244
705.081	0.0157588
705.159	0.0157525
705.237	0.0159854
705.315	0.0161115
705.393	0.0161627
705.471	0.0164760
705.549	0.0165173
705.628	0.0162872
705.706	0.0163287
705.784	0.0163127
705.862	0.0162814
705.940	0.0162986
706.018	0.0160913
706.096	0.0160297
706.174	0.0159557
706.253	0.0157771
706.331	0.0155556
706.409	0.0156140
706.487	0.0155738
706.565	0.0156194
706.643	0.0154059
706.721	0.0155587
706.799	0.0155917
706.878	0.0156851
706.956	0.0160169
707.034	0.0159656
707.112	0.0161008
707.190	0.0160701
707.268	0.0163293
707.346	0.0163346
707.424	0.0163622
707.503	0.0163720
707.581	0.0163944
707.659	0.0162914
707.737	0.0163054
707.815	0.0161929
707.893	0.0162724
707.971	0.0163081
708.049	0.0160286
708.128	0.0159274
708.206	0.0157034
708.284	0.0156487
708.362	0.0155977
708.440	0.0156150
708.518	0.0154585
708.596	0.0156102
708.674	0.0156091
708.753	0.0157311
708.831	0.0158482
708.909	0.0158269
708.987	0.0158721
709.065	0.0158453
709.143	0.0160974
709.221	0.0160532
709.299	0.0161295
709.378	0.0163031
709.456	0.0162206
709.534	0.0164748
709.612	0.0163776
709.690	0.0163126
709.768	0.0163007
709.846	0.0161397
709.924	0.0161449
710.003	0.0161046
710.081	0.0159743
710.159	0.0157722
710.237	0.0157046
710.315	0.0156089
710.393	0.0155230
710.471	0.0153773
710.549	0.0153631
710.628	0.0155999
710.706	0.0154652
710.784	0.0157999
710.862	0.0159249
710.940	0.0160471
711.018	0.0161543
711.096	0.0164101
711.174	0.0164683
711.253	0.0164341
711.331	0.0163780
711.409	0.0163371
711.487	0.0163069
711.565	0.0163661
711.643	0.0160555
711.721	0.0158903
711.799	0.0158602
711.878	0.0157205
711.956	0.0157079
712.034	0.0155576
712.112	0.0152919
712.190	0.0152837
712.268	0.0153249
712.346	0.0155674
712.424	0.0157615
712.503	0.0158167
712.581	0.0158913
712.659	0.0160148
712.737	0.0161488
712.815	0.0163400
712.893	0.0162531
712.971	0.0163640
713.049	0.0162326
713.128	0.0160787
713.206	0.0160471
713.284	0.0158444
713.362	0.0156332
713.440	0.0156401
713.518	0.0156235
713.596	0.0155718
713.674	0.0155891
713.753	0.0155782
713.831	0.0156723
713.909	0.0157665
713.987	0.0161208
714.065	0.0161671
714.143	0.0163496
714.221	0.0165593
714.299	0.0164810
714.378	0.0166227
714.456	0.0164887
714.534	0.0165244
714.612	0.0163297
714.690	0.0161846
714.768	0.0159792
714.846	0.0157439
714.924	0.0156052
715.003	0.0154002
715.081	0.0152940
715.159	0.0151512
715.237	0.0150669
715.315	0.0151256
715.393	0.0151400
715.471	0.0153162
715.549	0.0155138
715.628	0.0157370
715.706	0.0158086
715.784	0.0161369
715.862	0.0162664
715.940	0.0162507
716.018	0.0165193
716.096	0.0166212
716.174	0.0163696
716.253	0.0163105
716.331	0.0161827
716.409	0.0159751
716.487	0.0157750
716.565	0.0157524
716.643	0.0154856
716.721	0.0155189
716.799	0.0154312
716.878	0.0154131
716.956	0.0154036
717.034	0.0155076
717.112	0.0156600
717.190	0.0158313
717.268	0.0157950
717.346	0.0158077
717.424	0.0159397
717.503	0.0161538
717.581	0.0160667
717.659	0.0162421
717.737	0.0162011
717.815	0.0162949
717.893	0.0165037
717.971	0.0163833
718.049	0.0164784
718.128	0.0165196
718.206	0.0165289
718.284	0.0164184
718.362	0.0164173
718.440	0.0164062
718.518	0.0162461
718.596	0.0160415
718.674	0.0160502
718.753	0.0157193
718.831	0.0155403
718.909	0.0153240
718.987	0.0153365
719.065	0.0151937
719.143	0.0150612
719.221	0.0151956
719.299	0.0152793
719.378	0.0154375
719.456	0.0155475
719.534	0.0156638
719.612	0.0158579
719.690	0.0159288
719.768	0.0161680
719.846	0.0162064
719.924	0.0162411
720.003	0.0162413
720.081	0.0162130
720.159	0.0161761
720.237	0.0160137
720.315	0.0160942
720.393	0.0160002
720.471	0.0158463
720.549	0.0158758
720.628	0.0156468
720.706	0.0157698
720.784	0.0155288
720.862	0.0154598
720.940	0.0157694
721.018	0.0156667
721.096	0.0156430
721.174	0.0157933
721.253	0.0158202
721.331	0.0158506
721.409	0.0158764
721.487	0.0158144
721.565	0.0157561
721.643	0.0157880
721.721	0.0158171
721.799	0.0158435
721.878	0.0155827
721.956	0.0155524
722.034	0.0155866
722.112	0.0156319
722.190	0.0155347
722.268	0.0157194
722.346	0.0158414
722.424	0.0158456
722.503	0.0160522
722.581	0.0163039
722.659	0.0163654
722.737	0.0166021
722.815	0.0166753
722.893	0.0167966
722.971	0.0169248
723.049	0.0168198
723.128	0.0168378
723.206	0.0167503
723.284	0.0167756
723.362	0.0167253
723.440	0.0166152
723.518	0.0164674
723.596	0.0164256
723.674	0.0161662
723.753	0.0159328
723.831	0.0156924
723.909	0.0154807
723.987	0.0153725
724.065	0.0152450
724.143	0.0150413
724.221	0.0149500
724.299	0.0149317
724.378	0.0149200
724.456	0.0149152
724.534	0.0149941
724.612	0.0151876
724.690	0.0153490
724.768	0.0154499
724.846	0.0153101
724.924	0.0153793
725.003	0.0155695
725.081	0.0155188
725.159	0.0154592
725.237	0.0157751
725.315	0.0157491
725.393	0.0159734
725.471	0.0161753
725.549	0.0161259
725.628	0.0162931
725.706	0.0165508
725.784	0.0167225
725.862	0.0167159
725.940	0.0167913
726.018	0.0168798
726.096	0.0169869
726.174	0.0169125
726.253	0.0167863
726.331	0.0167592
726.409	0.0167460
726.487	0.0166102
726.565	0.0166061
726.643	0.0164307
726.721	0.0162325
726.799	0.0160930
726.878	0.0158432
726.956	0.0158253
727.034	0.0155800
727.112	0.0155132
727.190	0.0155148
727.268	0.0154543
727.346	0.0152596
727.424	0.0151041
727.503	0.0151534
727.581	0.0148151
727.659	0.0147717
727.737	0.0145354
727.815	0.0145679
727.893	0.0145853
727.971	0.0146848
728.049	0.0147143
728.128	0.0147407
728.206	0.0149466
728.284	0.0151100
728.362	0.0153110
728.440	0.0155461
728.518	0.0157720
728.596	0.0160844
728.674	0.0165099
728.753	0.0167376
728.831	0.0168756
728.909	0.0172028
728.987	0.0174403
729.065	0.0175700
729.143	0.0175443
729.221	0.0176939
729.299	0.0177338
729.378	0.0176321
729.456	0.0176626
729.534	0.0175903
729.612	0.0173517
729.690	0.0174296
729.768	0.0173476
729.846	0.0169691
729.924	0.0165614
730.003	0.0163901
730.081	0.0162213
730.159	0.0158284
730.237	0.0157480
730.315	0.0156274
730.393	0.0153713
730.471	0.0152789
730.549	0.0149959
730.628	0.0147079
730.706	0.0145776
730.784	0.0144968
730.862	0.0143910
730.940	0.0142570
731.018	0.0143160
731.096	0.0143539
731.174	0.0141311
731.253	0.0141611
731.331	0.0143066
731.409	0.0144072
731.487	0.0143290
731.565	0.0144729
731.643	0.0145625
731.721	0.0148055
731.799	0.0150212
731.878	0.0151498
731.956	0.0152944
732.034	0.0155830
732.112	0.0157092
732.190	0.0158701
732.268	0.0160490
732.346	0.0162167
732.424	0.0164038
732.503	0.0166262
732.581	0.0166891
732.659	0.0167001
732.737	0.0168575
732.815	0.0170329
732.893	0.0170779
732.971	0.0170300
733.049	0.0172071
733.128	0.0175082
733.206	0.0175138
733.284	0.0175610
733.362	0.0176109
733.440	0.0175871
733.518	0.0177374
733.596	0.0175997
733.674	0.0173753
733.753	0.0172521
733.831	0.0171249
733.909	0.0171392
733.987	0.0167374
734.065	0.0166502
734.143	0.0164390
734.221	0.0162622
734.299	0.0159418
734.378	0.0158973
734.456	0.0156818
734.534	0.0154965
734.612	0.0154487
734.690	0.0154584
734.768	0.0152123
734.846	0.0153820
734.924	0.0152442
735.003	0.0150827
735.081	0.0151793
735.159	0.0151171
735.237	0.0149970
735.315	0.0150153
735.393	0.0150901
735.471	0.0148914
735.549	0.0148994
735.628	0.0149508
735.706	0.0147163
735.784	0.0145157
735.862	0.0145509
735.940	0.0146909
736.018	0.0146720
736.096	0.0148188
736.174	0.0149159
736.253	0.0150066
736.331	0.0151383
736.409	0.0153150
736.487	0.0154073
736.565	0.0155030
736.643	0.0156036
736.721	0.0156112
736.799	0.0158010
736.878	0.0157572
736.956	0.0157475
737.034	0.0158390
737.112	0.0161246
737.190	0.0161668
737.268	0.0163133
737.346	0.0164256
737.424	0.0164581
737.503	0.0166634
737.581	0.0165952
737.659	0.0166952
737.737	0.0166000
737.815	0.0166345
737.893	0.0166472
737.971	0.0167343
738.049	0.0167381
738.128	0.0168598
738.206	0.0167236
738.284	0.0166090
738.362	0.0165373
738.440	0.0164063
738.518	0.0165424
738.596	0.0165314
738.674	0.0164645
738.753	0.0164674
738.831	0.0164529
738.909	0.0163306
738.987	0.0164004
739.065	0.0163855
739.143	0.0164339
739.221	0.0164465
739.299	0.0164420
739.378	0.0164099
739.456	0.0164964
739.534	0.0165786
739.612	0.0168095
739.690	0.0166957
739.768	0.0169290
739.846	0.0168533
739.924	0.0168642
740.003	0.0169530
740.081	0.0169156
740.159	0.0167496
740.237	0.0166854
740.315	0.0164878
740.393	0.0163956
740.471	0.0163883
740.549	0.0160792
740.628	0.0157127
740.706	0.0155098
740.784	0.0153930
740.862	0.0149484
740.940	0.0147343
741.018	0.0142542
741.096	0.0138808
741.174	0.0136260
741.253	0.0131446
741.331	0.0126327
741.409	0.0124781
741.487	0.0123373
741.565	0.0124068
741.643	0.0121101
741.721	0.0122059
741.799	0.0125571
741.878	0.0129855
741.956	0.0133602
742.034	0.0139550
742.112	0.0145816
742.190	0.0152879
742.268	0.0160037
742.346	0.0168798
742.424	0.0173017
742.503	0.0177785
742.581	0.0182831
742.659	0.0184785
742.737	0.0188709
742.815	0.0190167
742.893	0.0190717
742.971	0.0188781
743.049	0.0188416
743.128	0.0186138
743.206	0.0181817
743.284	0.0179406
743.362	0.0176349
743.440	0.0172507
743.518	0.0169691
743.596	0.0167060
743.674	0.0166401
743.753	0.0165820
743.831	0.0164214
743.909	0.0164561
743.987	0.0163593
744.065	0.0163525
744.143	0.0164247
744.221	0.0165028
744.299	0.0163318
744.378	0.0164770
744.456	0.0162685
744.534	0.0161402
744.612	0.0161681
744.690	0.0160522
744.768	0.0158253
744.846	0.0157165
744.924	0.0155003
745.003	0.0155158
745.081	0.0153703
745.159	0.0152211
745.237	0.0150517
745.315	0.0149982
745.393	0.0150204
745.471	0.0149822
745.549	0.0150697
745.628	0.0151514
745.706	0.0153657
745.784	0.0154919
745.862	0.0155787
745.940	0.0155504
746.018	0.0156818
746.096	0.0156645
746.174	0.0156799
746.253	0.0156561
746.331	0.0155198
746.409	0.0152496
746.487	0.0151792
746.565	0.0149053
746.643	0.0148775
746.721	0.0146705
746.799	0.0143899
746.878	0.0142818
746.956	0.0143117
747.034	0.0142776
747.112	0.0141835
747.190	0.0142463
747.268	0.0144002
747.346	0.0145544
747.424	0.0147668
747.503	0.0149241
747.581	0.0151285
747.659	0.0154279
747.737	0.0156892
747.815	0.0161498
747.893	0.0163171
747.971	0.0165988
748.049	0.0170477
748.128	0.0173489
748.206	0.0175828
748.284	0.0176405
748.362	0.0179385
748.440	0.0179672
748.518	0.0181213
748.596	0.0180891
748.674	0.0179008
748.753	0.0178374
748.831	0.0176748
748.909	0.0177969
748.987	0.0175023
749.065	0.0173315
749.143	0.0171527
749.221	0.0169833
749.299	0.0167440
749.378	0.0163874
749.456	0.0160369
749.534	0.0158368
749.612	0.0156116
749.690	0.0155304
749.768	0.0152872
749.846	0.0153018
749.924	0.0153413
750.003	0.0153328
750.081	0.0152390
750.159	0.0154326
750.237	0.0155749
750.315	0.0156431
750.393	0.0159240
750.471	0.0160747
750.549	0.0160239
750.628	0.0163440
750.706	0.0163264
750.784	0.0162335
750.862	0.0164069
750.940	0.0163514
751.018	0.0163119
751.096	0.0162489
751.174	0.0162987
751.253	0.0163171
751.331	0.0162768
751.409	0.0160256
751.487	0.0159541
751.565	0.0156687
751.643	0.0155331
751.721	0.0153671
751.799	0.0150078
751.878	0.0149520
751.956	0.0146478
752.034	0.0143410
752.112	0.0142706
752.190	0.0139534
752.268	0.0136565
752.346	0.0135747
752.424	0.0137056
752.503	0.0137327
752.581	0.0139211
752.659	0.0140484
752.737	0.0142226
752.815	0.0144185
752.893	0.0147276
752.971	0.0150333
753.049	0.0155482
753.128	0.0158675
753.206	0.0162523
753.284	0.0165849
753.362	0.0169260
753.440	0.0172225
753.518	0.0172752
753.596	0.0176317
753.674	0.0176376
753.753	0.0177575
753.831	0.0177062
753.909	0.0175871
753.987	0.0174881
754.065	0.0175292
754.143	0.0172621
754.221	0.0170310
754.299	0.0169048
754.378	0.0167715
754.456	0.0166003
754.534	0.0164201
754.612	0.0162368
754.690	0.0160664
754.768	0.0160452
754.846	0.0159685
754.924	0.0160036
755.003	0.0160049
755.081	0.0162582
755.159	0.0161454
755.237	0.0161865
755.315	0.0162593
755.393	0.0164072
755.471	0.0162105
755.549	0.0163258
755.628	0.0164606
755.706	0.0164622
755.784	0.0166647
755.862	0.0165585
755.940	0.0163894
756.018	0.0163663
756.096	0.0163898
756.174	0.0163179
756.253	0.0160592
756.331	0.0159969
756.409	0.0158243
756.487	0.0157455
756.565	0.0155505
756.643	0.0153584
756.721	0.0152565
756.799	0.0151955
756.878	0.0149476
756.956	0.0150323
757.034	0.0148812
757.112	0.0149056
757.190	0.0149236
757.268	0.0149310
757.346	0.0149771
757.424	0.0147858
757.503	0.0148103
757.581	0.0148095
757.659	0.0147688
757.737	0.0145444
757.815	0.0145634
757.893	0.0143658
757.971	0.0143937
758.049	0.0144933
758.128	0.0145854
758.206	0.0145145
758.284	0.0146569
758.362	0.0147643
758.440	0.0149536
758.518	0.0151121
758.596	0.0153920
758.674	0.0155927
758.753	0.0159823
758.831	0.0162729
758.909	0.0166238
758.987	0.0169471
759.065	0.0170147
759.143	0.0171951
759.221	0.0173615
759.299	0.0176826
759.378	0.0178347
759.456	0.0178544
759.534	0.0177995
759.612	0.0177958
759.690	0.0174342
759.768	0.0172012
759.846	0.0169326
759.924	0.0167886
760.003	0.0165273
760.081	0.0161871
760.159	0.0159687
760.237	0.0158493
760.315	0.0155754
760.393	0.0155715
760.471	0.0156634
760.549	0.0155721
760.628	0.0155258
760.706	0.0155013
760.784	0.0156071
760.862	0.0157278
760.940	0.0159946
761.018	0.0160751
761.096	0.0163037
761.174	0.0165095
761.253	0.0166838
761.331	0.0166765
761.409	0.0168587
761.487	0.0165490
761.565	0.0166314
761.643	0.0165083
761.721	0.0165067
761.799	0.0164021
761.878	0.0160799
761.956	0.0161117
762.034	0.0159644
762.112	0.0158325
762.190	0.0157457
762.268	0.0154948
762.346	0.0154067
762.424	0.0152656
762.503	0.0151202
762.581	0.0151410
762.659	0.0150574
762.737	0.0151003
762.815	0.0150818
762.893	0.0150623
762.971	0.0151279
763.049	0.0151534
763.128	0.0151695
763.206	0.0150878
763.284	0.0150241
763.362	0.0151350
763.440	0.0149973
763.518	0.0149146
763.596	0.0148290
763.674	0.0147530
763.753	0.0146613
763.831	0.0146684
763.909	0.0146694
763.987	0.0149081
764.065	0.0150899
764.143	0.0152467
764.221	0.0154269
764.299	0.0158453
764.378	0.0162231
764.456	0.0164230
764.534	0.0168537
764.612	0.0172262
764.690	0.0175389
764.768	0.0176918
764.846	0.0178404
764.924	0.0178661
765.003	0.0178501
765.081	0.0177872
765.159	0.0175965
765.237	0.0174385
765.315	0.0171822
765.393	0.0169051
765.471	0.0165202
765.549	0.0162040
765.628	0.0158645
765.706	0.0156823
765.784	0.0155308
765.862	0.0154136
765.940	0.0152042
766.018	0.0151916
766.096	0.0152302
766.174	0.0154060
766.253	0.0155834
766.331	0.0155229
766.409	0.0158308
766.487	0.0162888
766.565	0.0163151
766.643	0.0164342
766.721	0.0166356
766.799	0.0165569
766.878	0.0165820
766.956	0.0167594
767.034	0.0164450
767.112	0.0163749
767.190	0.0163763
767.268	0.0162526
767.346	0.0161921
767.424	0.0160342
767.503	0.0158233
767.581	0.0158579
767.659	0.0157539
767.737	0.0156857
767.815	0.0157164
767.893	0.0157075
767.971	0.0157426
768.049	0.0157168
768.128	0.0159185
768.206	0.0158232
768.284	0.0159349
768.362	0.0159724
768.440	0.0158420
768.518	0.0158353
768.596	0.0158779
768.674	0.0156617
768.753	0.0156290
768.831	0.0155581
768.909	0.0154279
768.987	0.0151151
769.065	0.0149382
769.143	0.0147758
769.221	0.0145533
769.299	0.0143610
769.378	0.0143121
769.456	0.0143240
769.534	0.0143729
769.612	0.0143204
769.690	0.0146226
769.768	0.0148660
769.846	0.0150773
769.924	0.0154645
770.003	0.0155685
770.081	0.0159821
770.159	0.0165885
770.237	0.0168279
770.315	0.0170977
770.393	0.0174358
770.471	0.0175468
770.549	0.0177531
770.628	0.0177514
770.706	0.0178121
770.784	0.0177217
770.862	0.0175479
770.940	0.0175127
771.018	0.0175067
771.096	0.0171455
771.174	0.0169078
771.253	0.0168151
771.331	0.0165293
771.409	0.0162798
771.487	0.0161825
771.565	0.0158875
771.643	0.0156017
771.721	0.0156461
771.799	0.0157606
771.878	0.0155318
771.956	0.0156657
772.034	0.0156016
772.112	0.0156907
772.190	0.0157484
772.268	0.0158939
772.346	0.0158405
772.424	0.0157558
772.503	0.0157611
772.581	0.0157875
772.659	0.0158134
772.737	0.0156131
772.815	0.0156438
772.893	0.0157442
772.971	0.0156890
773.049	0.0155124
773.128	0.0155943
773.206	0.0155831
773.284	0.0156075
773.362	0.0156680
773.440	0.0156363
773.518	0.0158526
773.596	0.0158327
773.674	0.0160602
773.753	0.0161943
773.831	0.0161906
773.909	0.0161920
773.987	0.0161418
774.065	0.0162161
774.143	0.0163439
774.221	0.0162067
774.299	0.0161803
774.378	0.0159082
774.456	0.0159189
774.534	0.0156976
774.612	0.0154839
774.690	0.0152374
774.768	0.0152290
774.846	0.0150473
774.924	0.0149471
775.003	0.0150007
775.081	0.0149680
775.159	0.0148365
775.237	0.0148862
775.315	0.0149709
775.393	0.0150552
775.471	0.0151024
775.549	0.0151336
775.628	0.0154401
775.706	0.0154885
775.784	0.0157317
775.862	0.0160365
775.940	0.0163617
776.018	0.0165741
776.096	0.0169230
776.174	0.0169923
776.253	0.0169511
776.331	0.0172059
776.409	0.0172727
776.487	0.0171541
776.565	0.0171031
776.643	0.0171307
776.721	0.0171229
776.799	0.0168446
776.878	0.0168236
776.956	0.0166261
777.034	0.0165826
777.112	0.0164296
777.190	0.0161947
777.268	0.0161134
777.346	0.0160177
777.424	0.0159522
777.503	0.0158268
777.581	0.0159023
777.659	0.0156770
777.737	0.0156165
777.815	0.0156658
777.893	0.0155997
777.971	0.0155308
778.049	0.0156507
778.128	0.0155518
778.206	0.0156297
778.284	0.0155171
778.362	0.0154842
778.440	0.0155117
778.518	0.0154725
778.596	0.0155061
778.674	0.0156908
778.753	0.0157428
778.831	0.0157930
778.909	0.0158784
778.987	0.0160516
779.065	0.0161424
779.143	0.0161933
779.221	0.0163344
779.299	0.0163599
779.378	0.0165099
779.456	0.0166640
779.534	0.0165588
779.612	0.0165869
779.690	0.0166238
779.768	0.0165469
779.846	0.0162277
779.924	0.0162624
780.003	0.0160798
780.081	0.0158796
780.159	0.0154806
780.237	0.0154266
780.315	0.0151932
780.393	0.0149508
780.471	0.0147250
780.549	0.0145364
780.628	0.0145464
780.706	0.0145798
780.784	0.0147452
780.862	0.0145879
780.940	0.0146498
781.018	0.0149252
781.096	0.0151730
781.174	0.0151225
781.253	0.0154232
781.331	0.0156739
781.409	0.0159549
781.487	0.0160539
781.565	0.0162446
781.643	0.0165598
781.721	0.0169337
781.799	0.0168112
781.878	0.0170447
781.956	0.0170882
782.034	0.0171875
782.112	0.0170951
782.190	0.0168426
782.268	0.0168987
782.346	0.0168638
782.424	0.0167020
782.503	0.0165488
782.581	0.0164660
782.659	0.0164122
782.737	0.0163651
782.815	0.0161208
782.893	0.0161528
782.971	0.0160196
783.049	0.0159336
783.128	0.0158305
783.206	0.0157003
783.284	0.0156384
783.362	0.0157084
783.440	0.0156214
783.518	0.0156592
783.596	0.0155981
783.674	0.0156299
783.753	0.0155412
783.831	0.0155563
783.909	0.0153812
783.987	0.0154359
784.065	0.0154975
784.143	0.0154734
784.221	0.0154797
784.299	0.0154074
784.378	0.0155126
784.456	0.0155299
784.534	0.0156933
784.612	0.0157970
784.690	0.0159168
784.768	0.0161279
784.846	0.0161108
784.924	0.0163049
785.003	0.0164860
785.081	0.0165219
785.159	0.0165173
785.237	0.0166468
785.315	0.0167557
785.393	0.0166872
785.471	0.0166029
785.549	0.0165148
785.628	0.0163654
785.706	0.0163506
785.784	0.0161414
785.862	0.0159763
785.940	0.0157771
786.018	0.0154671
786.096	0.0152698
786.174	0.0151363
786.253	0.0148777
786.331	0.0147710
786.409	0.0148028
786.487	0.0148754
786.565	0.0147959
786.643	0.0147430
786.721	0.0148979
786.799	0.0150305
786.878	0.0151477
786.956	0.0153789
787.034	0.0156261
787.112	0.0160281
787.190	0.0160838
787.268	0.0162429
787.346	0.0163660
787.424	0.0165144
787.503	0.0166189
787.581	0.0166025
787.659	0.0165742
787.737	0.0166109
787.815	0.0165243
787.893	0.0166818
787.971	0.0165894
788.049	0.0164097
788.128	0.0165294
788.206	0.0164603
788.284	0.0163176
788.362	0.0162827
788.440	0.0160693
788.518	0.0162473
788.596	0.0160069
788.674	0.0160645
788.753	0.0161770
788.831	0.0160880
788.909	0.0160857
788.987	0.0160422
789.065	0.0160405
789.143	0.0160089
789.221	0.0159961
789.299	0.0157647
789.378	0.0159871
789.456	0.0159038
789.534	0.0158584
789.612	0.0159110
789.690	0.0158080
789.768	0.0157121
789.846	0.0159006
789.924	0.0158880
790.003	0.0157025
790.081	0.0158735
790.159	0.0158224
790.237	0.0157493
790.315	0.0159217
790.393	0.0160477
790.471	0.0160618
790.549	0.0159010
790.628	0.0160464
790.706	0.0161288
790.784	0.0162471
790.862	0.0162268
790.940	0.0162260
791.018	0.0162061
791.096	0.0161754
791.174	0.0162869
791.253	0.0163464
791.331	0.0161668
791.409	0.0160275
791.487	0.0160438
791.565	0.0158896
791.643	0.0158096
791.721	0.0156508
791.799	0.0155154
791.878	0.0154419
791.956	0.0155552
792.034	0.0154314
792.112	0.0154542
792.190	0.0153246
792.268	0.0153574
792.346	0.0155589
792.424	0.0154119
792.503	0.0155544
792.581	0.0155966
792.659	0.0156368
792.737	0.0159331
792.815	0.0160692
792.893	0.0159893
792.971	0.0162432
793.049	0.0161480
793.128	0.0162182
793.206	0.0162486
793.284	0.0161558
793.362	0.0160908
793.440	0.0161092
793.518	0.0160789
793.596	0.0159340
793.674	0.0159621
793.753	0.0159645
793.831	0.0158945
793.909	0.0159813
793.987	0.0158530
794.065	0.0158679
794.143	0.0158072
794.221	0.0158250
794.299	0.0159321
794.378	0.0159702
794.456	0.0158826
794.534	0.0158360
794.612	0.0161076
794.690	0.0160394
794.768	0.0159666
794.846	0.0160947
794.924	0.0161126
795.003	0.0161427
795.081	0.0160952
795.159	0.0162558
795.237	0.0162730
795.315	0.0162005
795.393	0.0162112
795.471	0.0162296
795.549	0.0162655
795.628	0.0162791
795.706	0.0161842
795.784	0.0163081
795.862	0.0161839
795.940	0.0161689
796.018	0.0160628
796.096	0.0161729
796.174	0.0161082
796.253	0.0160059
796.331	0.0159338
796.409	0.0159254
796.487	0.0158524
796.565	0.0157411
796.643	0.0157273
796.721	0.0156525
796.799	0.0156547
796.878	0.0155872
796.956	0.0157397
797.034	0.0156445
797.112	0.0155942
797.190	0.0155608
797.268	0.0154738
797.346	0.0154029
797.424	0.0154550
797.503	0.0155786
797.581	0.0155800
797.659	0.0156467
797.737	0.0156557
797.815	0.0156395
797.893	0.0157439
797.971	0.0157991
798.049	0.0156641
798.128	0.0157664
798.206	0.0159119
798.284	0.0157725
798.362	0.0159954
798.440	0.0161207
798.518	0.0160833
798.596	0.0160794
798.674	0.0161123
798.753	0.0161760
798.831	0.0161310
798.909	0.0160522
798.987	0.0159737
799.065	0.0160443
799.143	0.0161430
799.221	0.0160927
799.299	0.0160726
799.378	0.0159555
799.456	0.0158536
799.534	0.0158887
799.612	0.0159296
799.690	0.0159328
799.768	0.0157932
799.846	0.0158355
799.924	0.0159484
800.003	0.0158470
800.081	0.0157587
800.159	0.0158871
800.237	0.0159510
800.315	0.0159351
800.393	0.0158145
800.471	0.0158852
800.549	0.0158400
800.628	0.0159367
800.706	0.0159679
800.784	0.0159991
800.862	0.0159367
800.940	0.0159376
801.018	0.0159960
801.096	0.0160996
801.174	0.0162305
801.253	0.0163183
801.331	0.0162741
801.409	0.0163028
801.487	0.0163190
801.565	0.0164573
801.643	0.0164289
801.721	0.0161622
801.799	0.0163985
801.878	0.0164037
801.956	0.0162570
802.034	0.0162973
802.112	0.0161939
802.190	0.0159894
802.268	0.0160700
802.346	0.0158691
802.424	0.0158521
802.503	0.0158237
802.581	0.0157561
802.659	0.0158080
802.737	0.0156326
802.815	0.0156711
802.893	0.0155412
802.971	0.0156915
803.049	0.0154919
803.128	0.0155814
803.206	0.0156159
803.284	0.0156442
803.362	0.0156474
803.440	0.0156988
803.518	0.0155921
803.596	0.0156621
803.674	0.0158796
803.753	0.0160252
803.831	0.0160064
803.909	0.0158349
803.987	0.0159007
804.065	0.0160642
804.143	0.0159975
804.221	0.0160828
804.299	0.0160162
804.378	0.0161046
804.456	0.0161659
804.534	0.0161509
804.612	0.0160133
804.690	0.0159686
804.768	0.0160936
804.846	0.0160237
804.924	0.0158106
805.003	0.0158527
805.081	0.0158059
805.159	0.0157913
805.237	0.0157145
805.315	0.0158090
805.393	0.0157674
805.471	0.0157736
805.549	0.0157475
805.628	0.0158208
805.706	0.0158344
805.784	0.0157073
805.862	0.0159734
805.940	0.0158967
806.018	0.0159481
806.096	0.0158576
806.174	0.0159825
806.253	0.0160543
806.331	0.0159982
806.409	0.0160207
806.487	0.0160176
806.565	0.0160007
806.643	0.0159212
806.721	0.0160308
806.799	0.0160860
806.878	0.0160133
806.956	0.0160361
807.034	0.0159517
807.112	0.0160677
807.190	0.0160857
807.268	0.0159996
807.346	0.0158965
807.424	0.0160613
807.503	0.0161439
807.581	0.0160744
807.659	0.0161588
807.737	0.0161714
807.815	0.0161678
807.893	0.0160637
807.971	0.0161499
808.049	0.0161205
808.128	0.0160677
808.206	0.0160226
808.284	0.0161141
808.362	0.0160878
808.440	0.0160803
808.518	0.0161326
808.596	0.0160066
808.674	0.0160067
808.753	0.0160521
808.831	0.0159136
808.909	0.0159004
808.987	0.0158409
809.065	0.0158623
809.143	0.0157168
809.221	0.0156708
809.299	0.0157255
809.378	0.0157283
809.456	0.0157325
809.534	0.0156615
809.612	0.0156388
809.690	0.0157087
809.768	0.0156221
809.846	0.0157109
809.924	0.0156842
810.003	0.0158748
810.081	0.0158255
810.159	0.0158624
810.237	0.0159480
810.315	0.0159698
810.393	0.0158018
810.471	0.0158411
810.549	0.0158094
810.628	0.0158709
810.706	0.0159331
810.784	0.0158746
810.862	0.0158368
810.940	0.0158371
811.018	0.0157529
811.096	0.0159451
811.174	0.0158776
811.253	0.0158897
811.331	0.0159023
811.409	0.0158140
811.487	0.0157989
811.565	0.0159711
811.643	0.0158908
811.721	0.0159415
811.799	0.0160020
811.878	0.0160152
811.956	0.0159975
812.034	0.0160914
812.112	0.0160674
812.190	0.0159646
812.268	0.0160435
812.346	0.0160668
812.424	0.0158973
812.503	0.0158788
812.581	0.0160280
812.659	0.0160245
812.737	0.0158753
812.815	0.0158648
812.893	0.0157928
812.971	0.0159472
813.049	0.0159477
813.128	0.0157728
813.206	0.0158486
813.284	0.0158348
813.362	0.0157668
813.440	0.0158537
813.518	0.0160239
813.596	0.0159431
813.674	0.0157689
813.753	0.0160131
813.831	0.0159695
813.909	0.0160294
813.987	0.0159246
814.065	0.0159673
814.143	0.0159150
814.221	0.0159569
814.299	0.0159786
814.378	0.0159011
814.456	0.0160406
814.534	0.0161456
814.612	0.0161290
814.690	0.0160910
814.768	0.0160701
814.846	0.0160914
814.924	0.0161002
815.003	0.0159941
815.081	0.0161414
815.159	0.0161961
815.237	0.0160845
815.315	0.0160153
815.393	0.0160398
815.471	0.0161582
815.549	0.0160704
815.628	0.0159016
815.706	0.0159026
815.784	0.0158891
815.862	0.0159470
815.940	0.0158634
816.018	0.0158829
816.096	0.0157726
816.174	0.0158428
816.253	0.0157703
816.331	0.0156368
816.409	0.0157428
816.487	0.0156637
816.565	0.0156703
816.643	0.0157453
816.721	0.0157399
816.799	0.0159466
816.878	0.0157578
816.956	0.0158442
817.034	0.0159135
817.112	0.0159108
817.190	0.0159837
817.268	0.0158028
817.346	0.0160257
817.424	0.0160643
817.503	0.0159994
817.581	0.0160829
817.659	0.0159682
817.737	0.0160738
817.815	0.0160411
817.893	0.0160606
817.971	0.0159919
818.049	0.0158559
818.128	0.0156567
818.206	0.0157418
818.284	0.0159785
818.362	0.0158961
818.440	0.0158825
818.518	0.0157900
818.596	0.0158122
818.674	0.0158533
818.753	0.0158501
818.831	0.0160053
818.909	0.0159846
818.987	0.0159202
819.065	0.0159540
819.143	0.0159869
819.221	0.0160696
819.299	0.0159759
819.378	0.0161307
819.456	0.0160477
819.534	0.0160297
819.612	0.0159106
819.690	0.0159903
819.768	0.0157899
819.846	0.0157993
819.924	0.0158010
820.003	0.0157564
820.081	0.0158495
820.159	0.0158012
820.237	0.0156257
820.315	0.0157541
820.393	0.0157590
820.471	0.0158459
820.549	0.0158173
820.628	0.0157672
820.706	0.0158593
820.784	0.0159029
820.862	0.0158015
820.940	0.0159055
821.018	0.0158457
821.096	0.0159701
821.174	0.0160764
821.253	0.0160293
821.331	0.0160746
821.409	0.0161017
821.487	0.0161188
821.565	0.0161668
821.643	0.0160542
821.721	0.0160851
821.799	0.0161079
821.878	0.0160777
821.956	0.0159532
822.034	0.0159711
822.112	0.0159749
822.190	0.0158997
822.268	0.0158537
822.346	0.0159401
822.424	0.0159113
822.503	0.0159953
822.581	0.0158123
822.659	0.0159179
822.737	0.0160064
822.815	0.0159319
822.893	0.0160622
822.971	0.0159819
823.049	0.0160091
823.128	0.0160585
823.206	0.0159945
823.284	0.0158593
823.362	0.0158320
823.440	0.0158966
823.518	0.0159944
823.596	0.0159290
823.674	0.0157204
823.753	0.0156587
823.831	0.0156316
823.909	0.0156958
823.987	0.0156779
824.065	0.0156778
824.143	0.0155996
824.221	0.0157359
824.299	0.0158429
824.378	0.0157762
824.456	0.0157977
824.534	0.0157948
824.612	0.0158134
824.690	0.0159260
824.768	0.0160305
824.846	0.0161864
824.924	0.0161392
825.003	0.0162332
825.081	0.0159549
825.159	0.0160420
825.237	0.0161664
825.315	0.0160288
825.393	0.0160925
825.471	0.0160104
825.549	0.0159662
825.628	0.0159119
825.706	0.0158533
825.784	0.0159975
825.862	0.0159457
825.940	0.0159441
826.018	0.0158704
826.096	0.0159318
826.174	0.0160571
826.253	0.0160032
826.331	0.0160556
826.409	0.0160712
826.487	0.0159772
826.565	0.0161126
826.643	0.0161355
826.721	0.0160176
826.799	0.0159615
826.878	0.0159261
826.956	0.0160123
827.034	0.0158817
827.112	0.0157917
827.190	0.0158939
827.268	0.0158213
827.346	0.0157410
827.424	0.0156109
827.503	0.0157080
827.581	0.0157627
827.659	0.0155883
827.737	0.0156439
827.815	0.0155818
827.893	0.0157331
827.971	0.0157471
828.049	0.0158290
828.128	0.0157892
828.206	0.0158318
828.284	0.0157856
828.362	0.0158948
828.440	0.0159362
828.518	0.0159132
828.596	0.0158506
828.674	0.0159708
828.753	0.0160430
828.831	0.0161088
828.909	0.0159522
828.987	0.0159841
829.065	0.0161145
829.143	0.0158640
829.221	0.0159588
829.299	0.0158834
829.378	0.0159946
829.456	0.0159233
829.534	0.0158576
829.612	0.0159225
829.690	0.0158956
829.768	0.0160637
829.846	0.0158756
829.924	0.0160215
830.003	0.0160485
830.081	0.0161552
830.159	0.0161423
830.237	0.0160130
830.315	0.0162434
830.393	0.0163096
830.471	0.0161147
830.549	0.0163941
830.628	0.0163346
830.706	0.0161347
830.784	0.0162949
830.862	0.0161933
830.940	0.0161808
831.018	0.0159937
831.096	0.0159545
831.174	0.0159732
831.253	0.0157960
831.331	0.0156631
831.409	0.0157355
831.487	0.0156353
831.565	0.0156807
831.643	0.0155814
831.721	0.0155791
831.799	0.0156165
831.878	0.0156633
831.956	0.0157738
832.034	0.0156465
832.112	0.0158413
832.190	0.0157343
832.268	0.0158128
832.346	0.0158414
832.424	0.0159425
832.503	0.0157437
832.581	0.0158279
832.659	0.0158698
832.737	0.0157744
832.815	0.0157880
832.893	0.0159728
832.971	0.0156586
833.049	0.0156334
833.128	0.0158204
833.206	0.0157426
833.284	0.0156505
833.362	0.0157874
833.440	0.0158878
833.518	0.0157733
833.596	0.0158981
833.674	0.0159656
833.753	0.0160468
833.831	0.0159772
833.909	0.0160610
833.987	0.0160865
834.065	0.0161258
834.143	0.0162070
834.221	0.0162096
834.299	0.0162080
834.378	0.0160509
834.456	0.0162204
834.534	0.0162051
834.612	0.0160330
834.690	0.0162010
834.768	0.0161119
834.846	0.0162199
834.924	0.0161785
835.003	0.0160773
835.081	0.0162018
835.159	0.0162620
835.237	0.0162663
835.315	0.0162238
835.393	0.0161676
835.471	0.0161333
835.549	0.0163368
835.628	0.0161689
835.706	0.0162046
835.784	0.0160011
835.862	0.0160294
835.940	0.0160233
836.018	0.0158756
836.096	0.0159451
836.174	0.0158170
836.253	0.0159294
836.331	0.0158646
836.409	0.0159838
836.487	0.0160016
836.565	0.0157632
836.643	0.0157803
836.721	0.0158277
836.799	0.0157310
836.878	0.0157251
836.956	0.0157368
837.034	0.0157081
837.112	0.0156879
837.190	0.0156513
837.268	0.0155164
837.346	0.0155142
837.424	0.0155529
837.503	0.0154662
837.581	0.0155193
837.659	0.0155472
837.737	0.0153981
837.815	0.0153182
837.893	0.0154015
837.971	0.0155671
838.049	0.0154805
838.128	0.0154932
838.206	0.0155306
838.284	0.0156803
838.362	0.0156440
838.440	0.0156813
838.518	0.0156065
838.596	0.0158134
838.674	0.0158251
838.753	0.0158931
838.831	0.0159616
838.909	0.0161390
838.987	0.0161355
839.065	0.0161769
839.143	0.0162820
839.221	0.0163439
839.299	0.0164682
839.378	0.0164059
839.456	0.0164041
839.534	0.0165840
839.612	0.0164437
839.690	0.0163657
839.768	0.0163895
839.846	0.0165043
839.924	0.0163903
840.003	0.0164249
840.081	0.0163552
840.159	0.0163123
840.237	0.0163643
840.315	0.0163495
840.393	0.0162811
840.471	0.0161888
840.549	0.0162464
840.628	0.0161851
840.706	0.0161195
840.784	0.0162799
840.862	0.0162794
840.940	0.0161275
841.018	0.0161332
841.096	0.0160934
841.174	0.0162019
841.253	0.0160906
841.331	0.0159784
841.409	0.0160148
841.487	0.0159742
841.565	0.0158131
841.643	0.0159493
841.721	0.0158281
841.799	0.0156680
841.878	0.0156706
841.956	0.0156352
842.034	0.0156007
842.112	0.0155981
842.190	0.0156613
842.268	0.0156035
842.346	0.0155505
842.424	0.0155007
842.503	0.0153444
842.581	0.0154796
842.659	0.0155417
842.737	0.0154681
842.815	0.0153673
842.893	0.0153848
842.971	0.0155234
843.049	0.0153652
843.128	0.0154447
843.206	0.0155788
843.284	0.0155781
843.362	0.0156841
843.440	0.0156827
843.518	0.0155460
843.596	0.0155844
843.674	0.0157234
843.753	0.0158102
843.831	0.0158846
843.909	0.0160064
843.987	0.0158746
844.065	0.0160123
844.143	0.0163240
844.221	0.0162452
844.299	0.0161680
844.378	0.0161333
844.456	0.0162730
844.534	0.0163680
844.612	0.0162611
844.690	0.0162647
844.768	0.0163557
844.846	0.0161971
844.924	0.0162804
845.003	0.0162801
845.081	0.0164890
845.159	0.0163096
845.237	0.0163269
845.315	0.0162811
845.393	0.0161188
845.471	0.0164159
845.549	0.0163702
845.628	0.0163348
845.706	0.0162547
845.784	0.0161823
845.862	0.0161523
845.940	0.0161954
846.018	0.0160394
846.096	0.0159299
846.174	0.0162087
846.253	0.0160223
846.331	0.0158656
846.409	0.0161094
846.487	0.0160106
846.565	0.0159281
846.643	0.0158223
846.721	0.0158402
846.799	0.0158951
846.878	0.0159657
846.956	0.0159352
847.034	0.0157748
847.112	0.0158333
847.190	0.0157277
847.268	0.0158016
847.346	0.0158971
847.424	0.0157237
847.503	0.0157999
847.581	0.0156914
847.659	0.0156253
847.737	0.0157631
847.815	0.0156340
847.893	0.0155685
847.971	0.0156054
848.049	0.0156172
848.128	0.0155427
848.206	0.0155581
848.284	0.0156738
848.362	0.0156055
848.440	0.0155058
848.518	0.0155080
848.596	0.0154884
848.674	0.0156697
848.753	0.0157606
848.831	0.0156304
848.909	0.0156660
848.987	0.0157137
849.065	0.0158570
849.143	0.0158200
849.221	0.0158698
849.299	0.0159110
849.378	0.0156844
849.456	0.0159433
849.534	0.0159676
849.612	0.0159335
849.690	0.0160729
849.768	0.0161449
849.846	0.0161245
849.924	0.0161386
850.003	0.0160804
850.081	0.0161742
850.159	0.0161876
850.237	0.0162046
850.315	0.0161227
850.393	0.0161599
850.471	0.0162076
850.549	0.0162067
850.628	0.0161389
850.706	0.0160411
850.784	0.0161324
850.862	0.0161051
850.940	0.0161095
851.018	0.0160782
851.096	0.0161129
851.174	0.0160520
851.253	0.0161096
851.331	0.0160660
851.409	0.0160930
851.487	0.0159774
851.565	0.0161330
851.643	0.0160458
851.721	0.0160767
851.799	0.0159266
851.878	0.0161430
851.956	0.0161423
852.034	0.0160100
852.112	0.0160149
852.190	0.0160516
852.268	0.0159854
852.346	0.0160087
852.424	0.0158549
852.503	0.0158962
852.581	0.0160570
852.659	0.0158745
852.737	0.0159428
852.815	0.0158466
852.893	0.0158372
852.971	0.0157828
853.049	0.0157153
853.128	0.0156917
853.206	0.0156472
853.284	0.0156219
853.362	0.0155790
853.440	0.0156091
853.518	0.0157530
853.596	0.0154455
853.674	0.0155070
853.753	0.0155853
853.831	0.0155641
853.909	0.0155328
853.987	0.0155904
854.065	0.0155817
854.143	0.0156889
854.221	0.0156858
854.299	0.0157570
854.378	0.0157281
854.456	0.0158044
854.534	0.0156887
854.612	0.0156187
854.690	0.0158629
854.768	0.0156626
854.846	0.0158369
854.924	0.0160105
855.003	0.0158153
855.081	0.0159189
855.159	0.0157945
855.237	0.0158825
855.315	0.0162095
855.393	0.0159803
855.471	0.0161205
855.549	0.0162152
855.628	0.0161683
855.706	0.0161109
855.784	0.0162761
855.862	0.0161646
855.940	0.0162391
856.018	0.0161478
856.096	0.0161667
856.174	0.0162650
856.253	0.0160636
856.331	0.0161385
856.409	0.0160684
856.487	0.0161006
856.565	0.0160255
856.643	0.0161115
856.721	0.0160252
856.799	0.0160050
856.878	0.0160654
856.956	0.0160036
857.034	0.0161333
857.112	0.0161779
857.190	0.0160197
857.268	0.0160886
857.346	0.0159469
857.424	0.0161451
857.503	0.0161163
857.581	0.0159410
857.659	0.0158794
857.737	0.0158335
857.815	0.0159913
857.893	0.0160104
857.971	0.0157694
858.049	0.0158660
858.128	0.0159565
858.206	0.0155828
858.284	0.0156485
858.362	0.0158477
858.440	0.0157489
858.518	0.0156989
858.596	0.0156788
858.674	0.0155817
858.753	0.0157365
858.831	0.0156596
858.909	0.0156866
858.987	0.0156403
859.065	0.0157938
859.143	0.0155793
859.221	0.0155410
859.299	0.0157360
859.378	0.0157377
859.456	0.0156809
859.534	0.0156129
859.612	0.0156978
859.690	0.0156725
859.768	0.0156596
859.846	0.0155381
859.924	0.0157829
860.003	0.0157896
860.081	0.0158096
860.159	0.0157825
860.237	0.0159403
860.315	0.0159283
860.393	0.0159541
860.471	0.0159892
860.549	0.0159944
860.628	0.0160883
860.706	0.0159712
860.784	0.0161315
860.862	0.0161990
860.940	0.0160548
861.018	0.0160645
861.096	0.0162872
861.174	0.0160659
861.253	0.0163165
861.331	0.0163075
861.409	0.0163524
861.487	0.0162752
861.565	0.0163688
861.643	0.0162085
861.721	0.0162358
861.799	0.0161597
861.878	0.0162579
861.956	0.0161738
862.034	0.0160955
862.112	0.0161314
862.190	0.0161649
862.268	0.0160429
862.346	0.0161037
862.424	0.0160585
862.503	0.0160595
862.581	0.0160196
862.659	0.0160020
862.737	0.0159940
862.815	0.0159949
862.893	0.0159046
862.971	0.0158492
863.049	0.0158601
863.128	0.0158310
863.206	0.0159068
863.284	0.0160281
863.362	0.0159559
863.440	0.0160783
863.518	0.0159140
863.596	0.0158855
863.674	0.0157350
863.753	0.0158281
863.831	0.0158802
863.909	0.0157439
863.987	0.0156353
864.065	0.0158099
864.143	0.0157255
864.221	0.0156204
864.299	0.0157372
864.378	0.0156506
864.456	0.0155473
864.534	0.0156454
864.612	0.0156108
864.690	0.0155996
864.768	0.0156323
864.846	0.0157343
864.924	0.0155863
865.003	0.0158146
865.081	0.0157515
865.159	0.0156521
865.237	0.0157852
865.315	0.0157571
865.393	0.0158790
865.471	0.0158179
865.549	0.0158604
865.628	0.0159579
865.706	0.0158860
865.784	0.0160386
865.862	0.0159505
865.940	0.0159883
866.018	0.0160932
866.096	0.0159119
866.174	0.0160351
866.253	0.0160095
866.331	0.0160045
866.409	0.0161092
866.487	0.0160320
866.565	0.0160345
866.643	0.0159964
866.721	0.0159897
866.799	0.0159828
866.878	0.0161252
866.956	0.0160085
867.034	0.0160010
867.112	0.0161408
867.190	0.0161053
867.268	0.0162728
867.346	0.0161681
867.424	0.0161223
867.503	0.0161715
867.581	0.0161271
867.659	0.0161452
867.737	0.0160835
867.815	0.0158958
867.893	0.0160845
867.971	0.0159954
868.049	0.0160960
868.128	0.0160697
868.206	0.0159464
868.284	0.0158449
868.362	0.0157925
868.440	0.0159142
868.518	0.0158554
868.596	0.0157808
868.674	0.0159910
868.753	0.0159853
868.831	0.0158801
868.909	0.0159164
868.987	0.0159713
869.065	0.0156866
869.143	0.0157031
869.221	0.0157266
869.299	0.0157809
869.378	0.0157552
869.456	0.0157419
869.534	0.0156615
869.612	0.0159057
869.690	0.0157815
869.768	0.0158338
869.846	0.0158251
869.924	0.0157867
870.003	0.0158019
870.081	0.0157329
870.159	0.0157598
870.237	0.0156436
870.315	0.0158598
870.393	0.0159535
870.471	0.0158669
870.549	0.0159005
870.628	0.0159690
870.706	0.0160005
870.784	0.0159254
870.862	0.0159965
870.940	0.0160796
871.018	0.0159676
871.096	0.0159760
871.174	0.0160262
871.253	0.0161543
871.331	0.0160928
871.409	0.0160066
871.487	0.0160252
871.565	0.0160611
871.643	0.0159772
871.721	0.0161111
871.799	0.0161201
871.878	0.0160339
871.956	0.0159508
872.034	0.0160601
872.112	0.0161071
872.190	0.0161407
872.268	0.0161258
872.346	0.0159612
872.424	0.0159622
872.503	0.0160828
872.581	0.0159715
872.659	0.0160152
872.737	0.0160540
872.815	0.0161338
872.893	0.0159628
872.971	0.0161101
873.049	0.0161055
873.128	0.0161098
873.206	0.0160691
873.284	0.0159858
873.362	0.0160565
873.440	0.0159605
873.518	0.0160764
873.596	0.0158000
873.674	0.0159479
873.753	0.0159724
873.831	0.0160316
873.909	0.0158389
873.987	0.0157489
874.065	0.0159586
874.143	0.0158222
874.221	0.0157512
874.299	0.0157790
874.378	0.0158002
874.456	0.0158228
874.534	0.0159070
874.612	0.0158652
874.690	0.0157476
874.768	0.0157314
874.846	0.0156813
874.924	0.0158492
875.003	0.0160276
875.081	0.0158852
875.159	0.0159202
875.237	0.0157331
875.315	0.0157822
875.393	0.0159930
875.471	0.0158556
875.549	0.0158911
875.628	0.0159058
875.706	0.0160592
875.784	0.0160682
875.862	0.0159555
875.940	0.0160420
876.018	0.0159821
876.096	0.0159344
876.174	0.0161845
876.253	0.0160577
876.331	0.0160532
876.409	0.0159881
876.487	0.0162057
876.565	0.0160007
876.643	0.0161760
876.721	0.0160562
876.799	0.0160764
876.878	0.0159772
876.956	0.0160093
877.034	0.0159343
877.112	0.0159827
877.190	0.0160325
877.268	0.0159682
877.346	0.0159507
877.424	0.0159763
877.503	0.0159302
877.581	0.0158807
877.659	0.0158837
877.737	0.0157393
877.815	0.0158844
877.893	0.0157808
877.971	0.0156823
878.049	0.0158799
878.128	0.0157701
878.206	0.0158495
878.284	0.0158688
878.362	0.0158244
878.440	0.0159664
878.518	0.0159624
878.596	0.0158805
878.674	0.0158979
878.753	0.0158112
878.831	0.0157715
878.909	0.0159615
878.987	0.0159669
879.065	0.0159019
879.143	0.0159525
879.221	0.0157543
879.299	0.0159048
879.378	0.0159926
879.456	0.0158009
879.534	0.0158519
879.612	0.0158524
879.690	0.0158419
879.768	0.0157947
879.846	0.0158270
879.924	0.0158713
880.003	0.0157861
880.081	0.0159065
880.159	0.0157092
880.237	0.0157040
880.315	0.0157381
880.393	0.0158137
880.471	0.0159142
880.549	0.0158461
880.628	0.0158814
880.706	0.0158150
880.784	0.0157871
880.862	0.0158018
880.940	0.0158681
881.018	0.0159051
881.096	0.0159238
881.174	0.0160061
881.253	0.0160281
881.331	0.0161287
881.409	0.0160785
881.487	0.0160218
881.565	0.0161152
881.643	0.0161616
881.721	0.0162624
881.799	0.0160467
881.878	0.0159962
881.956	0.0160858
882.034	0.0161300
882.112	0.0160236
882.190	0.0159760
882.268	0.0159673
882.346	0.0159926
882.424	0.0160810
882.503	0.0159286
882.581	0.0159170
882.659	0.0160253
882.737	0.0158288
882.815	0.0159512
882.893	0.0159633
882.971	0.0159455
883.049	0.0158235
883.128	0.0158354
883.206	0.0157506
883.284	0.0159216
883.362	0.0157183
883.440	0.0159260
883.518	0.0157574
883.596	0.0157169
883.674	0.0157834
883.753	0.0158650
883.831	0.0158595
883.909	0.0158339
883.987	0.0157130
884.065	0.0158849
884.143	0.0157720
884.221	0.0156774
884.299	0.0158035
884.378	0.0156907
884.456	0.0158341
884.534	0.0158862
884.612	0.0159582
884.690	0.0157555
884.768	0.0159279
884.846	0.0159949
884.924	0.0158466
885.003	0.0158945
885.081	0.0159640
885.159	0.0159390
885.237	0.0159440
885.315	0.0158405
885.393	0.0158881
885.471	0.0159501
885.549	0.0160819
885.628	0.0159663
885.706	0.0160573
885.784	0.0160479
885.862	0.0160378
885.940	0.0161495
886.018	0.0160075
886.096	0.0160424
886.174	0.0159215
886.253	0.0160908
886.331	0.0160747
886.409	0.0160622
886.487	0.0160557
886.565	0.0159884
886.643	0.0161155
886.721	0.0160287
886.799	0.0159200
886.878	0.0158228
886.956	0.0159734
887.034	0.0160288
887.112	0.0159948
887.190	0.0159943
887.268	0.0160350
887.346	0.0159426
887.424	0.0158295
887.503	0.0159373
887.581	0.0160362
887.659	0.0158952
887.737	0.0158405
887.815	0.0158036
887.893	0.0158575
887.971	0.0159638
888.049	0.0159951
888.128	0.0159035
888.206	0.0159972
888.284	0.0159103
888.362	0.0158345
888.440	0.0158936
888.518	0.0158958
888.596	0.0157442
888.674	0.0158038
888.753	0.0158757
888.831	0.0158546
888.909	0.0157017
888.987	0.0158012
889.065	0.0159525
889.143	0.0158588
889.221	0.0159457
889.299	0.0158483
889.378	0.0158227
889.456	0.0157194
889.534	0.0159518
889.612	0.0158733
889.690	0.0159922
889.768	0.0158600
889.846	0.0159165
889.924	0.0158442
890.003	0.0158236
890.081	0.0158858
890.159	0.0157772
890.237	0.0158362
890.315	0.0156928
890.393	0.0158025
890.471	0.0157226
890.549	0.0158398
890.628	0.0157721
890.706	0.0156226
890.784	0.0157936
890.862	0.0159309
890.940	0.0158211
891.018	0.0157514
891.096	0.0157895
891.174	0.0158469
891.253	0.0159550
891.331	0.0159149
891.409	0.0158039
891.487	0.0158472
891.565	0.0160537
891.643	0.0159551
891.721	0.0160015
891.799	0.0160417
891.878	0.0160934
891.956	0.0160918
892.034	0.0161131
892.112	0.0160084
892.190	0.0161117
892.268	0.0160826
892.346	0.0161006
892.424	0.0161559
892.503	0.0162333
892.581	0.0162514
892.659	0.0160194
892.737	0.0160211
892.815	0.0160799
892.893	0.0160590
892.971	0.0161018
893.049	0.0160739
893.128	0.0159954
893.206	0.0161520
893.284	0.0160198
893.362	0.0161144
893.440	0.0160658
893.518	0.0160863
893.596	0.0158777
893.674	0.0158909
893.753	0.0158929
893.831	0.0158707
893.909	0.0158855
893.987	0.0158219
894.065	0.0158318
894.143	0.0158784
894.221	0.0157524
894.299	0.0157931
894.378	0.0157982
894.456	0.0157111
894.534	0.0158390
894.612	0.0158190
894.690	0.0157803
894.768	0.0157162
894.846	0.0158557
894.924	0.0158398
895.003	0.0157993
895.081	0.0158508
895.159	0.0158234
895.237	0.0159207
895.315	0.0157680
895.393	0.0157084
895.471	0.0158990
895.549	0.0159046
895.628	0.0158311
895.706	0.0157957
895.784	0.0159463
895.862	0.0158991
895.940	0.0158828
896.018	0.0159337
896.096	0.0159576
896.174	0.0158804
896.253	0.0159098
896.331	0.0158920
896.409	0.0158626
896.487	0.0158300
896.565	0.0159257
896.643	0.0158434
896.721	0.0158656
896.799	0.0159630
896.878	0.0159161
896.956	0.0158858
897.034	0.0159343
897.112	0.0159598
897.190	0.0160224
897.268	0.0161479
897.346	0.0161074
897.424	0.0161163
897.503	0.0161603
897.581	0.0160562
897.659	0.0160110
897.737	0.0161950
897.815	0.0161755
897.893	0.0161078
897.971	0.0161784
898.049	0.0160299
898.128	0.0161034
898.206	0.0162003
898.284	0.0161667
898.362	0.0161849
898.440	0.0160952
898.518	0.0160287
898.596	0.0161620
898.674	0.0161025
898.753	0.0161197
898.831	0.0161491
898.909	0.0159879
898.987	0.0158318
899.065	0.0159034
899.143	0.0159354
899.221	0.0158073
899.299	0.0159079
899.378	0.0157867
899.456	0.0158110
899.534	0.0158058
899.612	0.0158096
899.690	0.0157805
899.768	0.0158067
899.846	0.0157528
899.924	0.0158094
900.003	0.0157812
900.081	0.0159090
900.159	0.0158853
900.237	0.0159931
900.315	0.0159088
900.393	0.0158591
900.471	0.0158781
900.549	0.0158601
900.628	0.0159081
900.706	0.0158653
900.784	0.0159109
900.862	0.0158047
900.940	0.0157845
901.018	0.0158213
901.096	0.0158398
901.174	0.0158086
901.253	0.0158990
901.331	0.0157000
901.409	0.0157399
901.487	0.0157037
901.565	0.0158468
901.643	0.0157891
901.721	0.0158109
901.799	0.0159396
901.878	0.0157571
901.956	0.0158415
902.034	0.0157365
902.112	0.0157555
902.190	0.0157329
902.268	0.0157530
902.346	0.0157214
902.424	0.0158903
902.503	0.0159313
902.581	0.0158071
902.659	0.0157840
902.737	0.0159132
902.815	0.0158913
902.893	0.0159879
902.971	0.0158795
903.049	0.0160716
903.128	0.0160821
903.206	0.0162077
903.284	0.0160446
903.362	0.0160322
903.440	0.0160484
903.518	0.0159920
903.596	0.0161660
903.674	0.0161376
903.753	0.0161834
903.831	0.0160815
903.909	0.0159737
903.987	0.0160124
904.065	0.0160561
904.143	0.0158875
904.221	0.0159078
904.299	0.0159227
904.378	0.0159507
904.456	0.0157922
904.534	0.0158140
904.612	0.0158651
904.690	0.0157349
904.768	0.0157763
904.846	0.0157383
904.924	0.0158067
905.003	0.0157380
905.081	0.0157857
905.159	0.0159026
905.237	0.0158437
905.315	0.0156667
905.393	0.0158536
905.471	0.0158982
905.549	0.0159911
905.628	0.0159930
905.706	0.0160670
905.784	0.0159624
905.862	0.0160359
905.940	0.0159216
906.018	0.0160378
906.096	0.0159825
906.174	0.0160330
906.253	0.0159338
906.331	0.0159322
906.409	0.0159573
906.487	0.0159681
906.565	0.0159261
906.643	0.0158612
906.721	0.0157146
906.799	0.0157454
906.878	0.0157405
906.956	0.0158698
907.034	0.0157948
907.112	0.0157300
907.190	0.0157977
907.268	0.0158997
907.346	0.0159416
907.424	0.0158116
907.503	0.0157544
907.581	0.0160917
907.659	0.0160207
907.737	0.0159959
907.815	0.0158634
907.893	0.0159452
907.971	0.0158447
908.049	0.0159855
908.128	0.0159960
908.206	0.0159420
908.284	0.0160036
908.362	0.0160013
908.440	0.0158476
908.518	0.0158887
908.596	0.0160621
908.674	0.0159253
908.753	0.0158801
908.831	0.0160899
908.909	0.0159867
908.987	0.0159850
909.065	0.0160109
909.143	0.0160954
909.221	0.0160793
909.299	0.0160304
909.378	0.0159119
909.456	0.0160057
909.534	0.0160316
909.612	0.0159830
909.690	0.0158935
909.768	0.0158533
909.846	0.0161171
909.924	0.0159262
910.003	0.0158324
910.081	0.0159121
910.159	0.0158430
910.237	0.0158628
910.315	0.0157600
910.393	0.0156924
910.471	0.0156513
910.549	0.0157376
910.628	0.0157135
910.706	0.0157118
910.784	0.0157710
910.862	0.0157536
910.940	0.0159111
911.018	0.0158743
911.096	0.0157274
911.174	0.0159353
911.253	0.0159872
911.331	0.0159751
911.409	0.0159264
911.487	0.0159264
911.565	0.0160925
911.643	0.0160760
911.721	0.0161143
911.799	0.0159418
911.878	0.0158970
911.956	0.0158147
912.034	0.0157889
912.112	0.0159534
912.190	0.0158876
912.268	0.0158725
912.346	0.0158467
912.424	0.0159125
912.503	0.0157804
912.581	0.0158689
912.659	0.0158175
912.737	0.0157193
912.815	0.0158044
912.893	0.0158320
912.971	0.0158372
913.049	0.0157521
913.128	0.0157775
913.206	0.0158150
913.284	0.0157638
913.362	0.0158798
913.440	0.0158443
913.518	0.0159640
913.596	0.0158237
913.674	0.0158971
913.753	0.0160071
913.831	0.0158656
913.909	0.0159320
913.987	0.0159113
914.065	0.0159841
914.143	0.0159586
914.221	0.0160638
914.299	0.0160995
914.378	0.0160129
914.456	0.0161970
914.534	0.0161407
914.612	0.0160919
914.690	0.0161278
914.768	0.0160124
914.846	0.0159097
914.924	0.0158586
915.003	0.0159462
915.081	0.0158215
915.159	0.0158672
915.237	0.0157981
915.315	0.0157736
915.393	0.0159362
915.471	0.0159193
915.549	0.0158036
915.628	0.0156834
915.706	0.0157561
915.784	0.0157879
915.862	0.0157852
915.940	0.0158967
916.018	0.0158267
916.096	0.0157706
916.174	0.0158723
916.253	0.0159171
916.331	0.0158808
916.409	0.0159177
916.487	0.0159585
916.565	0.0160335
916.643	0.0160025
916.721	0.0159859
916.799	0.0159033
916.878	0.0160328
916.956	0.0159641
917.034	0.0159848
917.112	0.0159702
917.190	0.0159390
917.268	0.0159710
917.346	0.0158483
917.424	0.0158453
917.503	0.0159220
917.581	0.0157975
917.659	0.0159948
917.737	0.0160016
917.815	0.0159239
917.893	0.0158868
917.971	0.0160320
918.049	0.0158958
918.128	0.0158569
918.206	0.0156895
918.284	0.0157171
918.362	0.0158642
918.440	0.0158037
918.518	0.0158350
918.596	0.0158945
918.674	0.0158553
918.753	0.0158424
918.831	0.0158798
918.909	0.0159156
918.987	0.0158647
919.065	0.0158935
919.143	0.0158388
919.221	0.0160535
919.299	0.0159677
919.378	0.0159760
919.456	0.0160820
919.534	0.0159931
919.612	0.0159790
919.690	0.0160925
919.768	0.0160753
919.846	0.0161250
919.924	0.0160469
920.003	0.0160702
920.081	0.0160767
920.159	0.0160904
920.237	0.0160362
920.315	0.0161635
920.393	0.0160968
920.471	0.0161053
920.549	0.0160526
920.628	0.0159656
920.706	0.0159178
920.784	0.0158145
920.862	0.0159917
920.940	0.0160103
921.018	0.0160423
921.096	0.0159795
921.174	0.0159344
921.253	0.0159475
921.331	0.0159122
921.409	0.0159049
921.487	0.0158965
921.565	0.0158579
921.643	0.0158802
921.721	0.0158334
921.799	0.0158250
921.878	0.0158096
921.956	0.0157594
922.034	0.0157972
922.112	0.0157420
922.190	0.0157367
922.268	0.0158037
922.346	0.0158226
922.424	0.0156699
922.503	0.0156484
922.581	0.0157179
922.659	0.0158507
922.737	0.0158710
922.815	0.0158414
922.893	0.0159243
922.971	0.0158434
923.049	0.0160655
923.128	0.0160713
923.206	0.0158703
923.284	0.0160340
923.362	0.0159941
923.440	0.0159570
923.518	0.0160604
923.596	0.0160043
923.674	0.0161028
923.753	0.0161205
923.831	0.0159008
923.909	0.0160757
923.987	0.0160211
924.065	0.0160351
924.143	0.0161063
924.221	0.0159177
924.299	0.0159194
924.378	0.0161406
924.456	0.0160455
924.534	0.0159406
924.612	0.0160368
924.690	0.0160611
924.768	0.0160342
924.846	0.0158875
924.924	0.0159814
925.003	0.0160124
925.081	0.0160331
925.159	0.0158054
925.237	0.0158206
925.315	0.0159980
925.393	0.0160796
925.471	0.0158547
925.549	0.0159908
925.628	0.0159296
925.706	0.0157626
925.784	0.0158686
925.862	0.0159754
925.940	0.0157706
926.018	0.0159097
926.096	0.0158727
926.174	0.0157542
926.253	0.0157842
926.331	0.0159109
926.409	0.0158221
926.487	0.0158427
926.565	0.0158882
926.643	0.0159146
926.721	0.0159647
926.799	0.0160201
926.878	0.0159225
926.956	0.0159599
927.034	0.0160049
927.112	0.0159215
927.190	0.0158038
927.268	0.0159757
927.346	0.0159589
927.424	0.0159825
927.503	0.0160044
927.581	0.0161028
927.659	0.0159958
927.737	0.0160588
927.815	0.0159052
927.893	0.0158719
927.971	0.0158624
928.049	0.0157847
928.128	0.0158837
928.206	0.0158885
928.284	0.0157422
928.362	0.0157378
928.440	0.0157185
928.518	0.0156451
928.596	0.0158538
928.674	0.0158442
928.753	0.0157566
928.831	0.0158553
928.909	0.0157431
928.987	0.0158244
929.065	0.0158775
929.143	0.0158525
929.221	0.0158712
929.299	0.0159909
929.378	0.0160962
929.456	0.0158879
929.534	0.0160275
929.612	0.0159515
929.690	0.0159111
929.768	0.0159193
929.846	0.0159863
929.924	0.0160217
930.003	0.0159072
930.081	0.0159776
930.159	0.0159402
930.237	0.0159685
930.315	0.0158210
930.393	0.0158778
930.471	0.0159821
930.549	0.0158637
930.628	0.0158441
930.706	0.0159852
930.784	0.0159007
930.862	0.0159075
930.940	0.0157541
931.018	0.0157582
931.096	0.0158701
931.174	0.0159341
931.253	0.0159809
931.331	0.0158479
931.409	0.0159113
931.487	0.0159808
931.565	0.0158698
931.643	0.0158946
931.721	0.0157838
931.799	0.0158203
931.878	0.0158434
931.956	0.0160007
932.034	0.0159940
932.112	0.0158247
932.190	0.0159273
932.268	0.0159352
932.346	0.0159370
932.424	0.0159262
932.503	0.0159849
932.581	0.0159267
932.659	0.0159361
932.737	0.0158731
932.815	0.0158867
932.893	0.0160118
932.971	0.0159451
933.049	0.0158673
933.128	0.0157941
933.206	0.0157941
933.284	0.0158006
933.362	0.0157887
933.440	0.0157990
933.518	0.0158015
933.596	0.0156488
933.674	0.0158321
933.753	0.0157386
933.831	0.0158504
933.909	0.0159136
933.987	0.0160246
934.065	0.0159823
934.143	0.0161137
934.221	0.0160838
934.299	0.0161724
934.378	0.0161649
934.456	0.0160638
934.534	0.0162566
934.612	0.0161764
934.690	0.0160831
934.768	0.0161745
934.846	0.0161016
934.924	0.0159966
935.003	0.0159441
935.081	0.0157650
935.159	0.0158935
935.237	0.0159602
935.315	0.0158791
935.393	0.0158369
935.471	0.0157640
935.549	0.0157442
935.628	0.0157647
935.706	0.0157722
935.784	0.0157853
935.862	0.0158538
935.940	0.0159418
936.018	0.0159195
936.096	0.0159014
936.174	0.0159163
936.253	0.0159186
936.331	0.0158743
936.409	0.0158931
936.487	0.0158049
936.565	0.0159550
936.643	0.0158237
936.721	0.0158641
936.799	0.0159772
936.878	0.0158025
936.956	0.0157383
937.034	0.0158479
937.112	0.0158163
937.190	0.0158888
937.268	0.0159624
937.346	0.0158880
937.424	0.0160101
937.503	0.0159760
937.581	0.0158810
937.659	0.0158407
937.737	0.0159596
937.815	0.0159724
937.893	0.0158563
937.971	0.0160066
938.049	0.0160951
938.128	0.0159145
938.206	0.0158848
938.284	0.0159137
938.362	0.0160118
938.440	0.0158810
938.518	0.0159283
938.596	0.0158942
938.674	0.0159058
938.753	0.0159180
938.831	0.0159536
938.909	0.0158717
938.987	0.0159070
939.065	0.0157693
939.143	0.0158524
939.221	0.0157754
939.299	0.0156627
939.378	0.0158003
939.456	0.0157684
939.534	0.0158263
939.612	0.0158978
939.690	0.0157372
939.768	0.0156866
939.846	0.0158875
939.924	0.0158463
940.003	0.0159234
940.081	0.0159168
940.159	0.0159113
940.237	0.0160595
940.315	0.0159426
940.393	0.0160456
940.471	0.0160873
940.549	0.0160518
940.628	0.0161131
940.706	0.0160046
940.784	0.0161150
940.862	0.0160909
940.940	0.0161230
941.018	0.0162092
941.096	0.0160200
941.174	0.0160410
941.253	0.0159695
941.331	0.0157582
941.409	0.0158121
941.487	0.0157730
941.565	0.0156601
941.643	0.0157242
941.721	0.0158691
941.799	0.0157750
941.878	0.0157652
941.956	0.0159261
942.034	0.0158829
942.112	0.0160526
942.190	0.0159059
942.268	0.0158678
942.346	0.0157191
942.424	0.0158809
942.503	0.0159355
942.581	0.0158846
942.659	0.0160297
942.737	0.0157815
942.815	0.0158316
942.893	0.0158640
942.971	0.0159163
943.049	0.0159436
943.128	0.0158697
943.206	0.0160213
943.284	0.0161233
943.362	0.0159273
943.440	0.0160011
943.518	0.0160499
943.596	0.0161227
943.674	0.0160732
943.753	0.0160331
943.831	0.0159683
943.909	0.0160552
943.987	0.0159958
944.065	0.0157463
944.143	0.0158628
944.221	0.0158688
944.299	0.0157880
944.378	0.0157569
944.456	0.0158904
944.534	0.0158633
944.612	0.0159299
944.690	0.0158499
944.768	0.0158258
944.846	0.0156612
944.924	0.0158145
945.003	0.0157784
945.081	0.0158820
945.159	0.0158479
945.237	0.0159399
945.315	0.0159294
945.393	0.0161168
945.471	0.0159093
945.549	0.0159467
945.628	0.0159176
945.706	0.0159457
945.784	0.0158544
945.862	0.0158860
945.940	0.0158409
946.018	0.0159029
946.096	0.0159214
946.174	0.0158975
946.253	0.0158572
946.331	0.0158652
946.409	0.0158955
946.487	0.0158642
946.565	0.0157401
946.643	0.0159166
946.721	0.0160417
946.799	0.0157861
946.878	0.0158168
946.956	0.0157195
947.034	0.0159001
947.112	0.0159264
947.190	0.0159528
947.268	0.0160262
947.346	0.0159512
947.424	0.0159634
947.503	0.0158752
947.581	0.0160258
947.659	0.0159221
947.737	0.0160099
947.815	0.0158913
947.893	0.0158371
947.971	0.0159504
948.049	0.0157970
948.128	0.0157942
948.206	0.0158427
948.284	0.0159097
948.362	0.0159679
948.440	0.0159273
948.518	0.0158208
948.596	0.0158203
948.674	0.0158310
948.753	0.0159833
948.831	0.0159803
948.909	0.0159489
948.987	0.0160457
949.065	0.0159848
949.143	0.0160497
949.221	0.0159536
949.299	0.0159870
949.378	0.0158965
949.456	0.0160116
949.534	0.0159425
949.612	0.0158806
949.690	0.0158739
949.768	0.0158796
949.846	0.0158706
949.924	0.0159081
