06/29/2022	22:57:25	Ver.	4.1	UNKNOWN
Optical Delay	630.002507	Delta X		0.078125	Sweeps	1	Scan Rate	0/0
Coordinates	Axis 1	NaN	Axis 2	NaN	Axis 3	NaN	Axis 4	NaN	Axis 5	NaN	Axis 6	0.000000
TX Power	0.000000	RX Power	0.000000

630.003	0.0150990
630.081	0.0149113
630.159	0.0150328
630.237	0.0151593
630.315	0.0151837
630.393	0.0151055
630.471	0.0150126
630.549	0.0151118
630.628	0.0150381
630.706	0.0150891
630.784	0.0150171
630.862	0.0150800
630.940	0.0151333
631.018	0.0151677
631.096	0.0151090
631.174	0.0150153
631.253	0.0150195
631.331	0.0151865
631.409	0.0150297
631.487	0.0149422
631.565	0.0151534
631.643	0.0151031
631.721	0.0152295
631.799	0.0150557
631.878	0.0150438
631.956	0.0151793
632.034	0.0150951
632.112	0.0150874
632.190	0.0151489
632.268	0.0150137
632.346	0.0151790
632.424	0.0151617
632.503	0.0150641
632.581	0.0149959
632.659	0.0151108
632.737	0.0151493
632.815	0.0152036
632.893	0.0149923
632.971	0.0150433
633.049	0.0151356
633.128	0.0151717
633.206	0.0153224
633.284	0.0151169
633.362	0.0151116
633.440	0.0150274
633.518	0.0152254
633.596	0.0150067
633.674	0.0150819
633.753	0.0151087
633.831	0.0151930
633.909	0.0149837
633.987	0.0151385
634.065	0.0150871
634.143	0.0150784
634.221	0.0151885
634.299	0.0150346
634.378	0.0150933
634.456	0.0151482
634.534	0.0151360
634.612	0.0151149
634.690	0.0150792
634.768	0.0151374
634.846	0.0150725
634.924	0.0150610
635.003	0.0151118
635.081	0.0151675
635.159	0.0152162
635.237	0.0151848
635.315	0.0150273
635.393	0.0150642
635.471	0.0151218
635.549	0.0151775
635.628	0.0151358
635.706	0.0151136
635.784	0.0152287
635.862	0.0150955
635.940	0.0149975
636.018	0.0151759
636.096	0.0151267
636.174	0.0151872
636.253	0.0149936
636.331	0.0151708
636.409	0.0150696
636.487	0.0150041
636.565	0.0150185
636.643	0.0150612
636.721	0.0150483
636.799	0.0151818
636.878	0.0152032
636.956	0.0151377
637.034	0.0150548
637.112	0.0151752
637.190	0.0150664
637.268	0.0149899
637.346	0.0150294
637.424	0.0151078
637.503	0.0152139
637.581	0.0150770
637.659	0.0150319
637.737	0.0150891
637.815	0.0150011
637.893	0.0150095
637.971	0.0151529
638.049	0.0151237
638.128	0.0151967
638.206	0.0150555
638.284	0.0150406
638.362	0.0150669
638.440	0.0150679
638.518	0.0151488
638.596	0.0149828
638.674	0.0150788
638.753	0.0150782
638.831	0.0149949
638.909	0.0150383
638.987	0.0150314
639.065	0.0149837
639.143	0.0150885
639.221	0.0150668
639.299	0.0150027
639.378	0.0151031
639.456	0.0150585
639.534	0.0151205
639.612	0.0150710
639.690	0.0151068
639.768	0.0151211
639.846	0.0151057
639.924	0.0151766
640.003	0.0149918
640.081	0.0150708
640.159	0.0151290
640.237	0.0152377
640.315	0.0151629
640.393	0.0152048
640.471	0.0150737
640.549	0.0152174
640.628	0.0152000
640.706	0.0150660
640.784	0.0150488
640.862	0.0150698
640.940	0.0150932
641.018	0.0150370
641.096	0.0150620
641.174	0.0151100
641.253	0.0151933
641.331	0.0152255
641.409	0.0151428
641.487	0.0150463
641.565	0.0151567
641.643	0.0151260
641.721	0.0151836
641.799	0.0150224
641.878	0.0150734
641.956	0.0149911
642.034	0.0150687
642.112	0.0152015
642.190	0.0150748
642.268	0.0150753
642.346	0.0150145
642.424	0.0150707
642.503	0.0150401
642.581	0.0150955
642.659	0.0150871
642.737	0.0150089
642.815	0.0149081
642.893	0.0149611
642.971	0.0151117
643.049	0.0150354
643.128	0.0152238
643.206	0.0150996
643.284	0.0149789
643.362	0.0152272
643.440	0.0150625
643.518	0.0150423
643.596	0.0150506
643.674	0.0150394
643.753	0.0149643
643.831	0.0150351
643.909	0.0150553
643.987	0.0152133
644.065	0.0150687
644.143	0.0150403
644.221	0.0149679
644.299	0.0149900
644.378	0.0151022
644.456	0.0151155
644.534	0.0151928
644.612	0.0150586
644.690	0.0150487
644.768	0.0150758
644.846	0.0150183
644.924	0.0151494
645.003	0.0150915
645.081	0.0151840
645.159	0.0151735
645.237	0.0149806
645.315	0.0152184
645.393	0.0151440
645.471	0.0150031
645.549	0.0152139
645.628	0.0151721
645.706	0.0151361
645.784	0.0151212
645.862	0.0151950
645.940	0.0151025
646.018	0.0150874
646.096	0.0150946
646.174	0.0150617
646.253	0.0150288
646.331	0.0151826
646.409	0.0151160
646.487	0.0152248
646.565	0.0149763
646.643	0.0151311
646.721	0.0151682
646.799	0.0151366
646.878	0.0149993
646.956	0.0150711
647.034	0.0150163
647.112	0.0149371
647.190	0.0150597
647.268	0.0151158
647.346	0.0151048
647.424	0.0149104
647.503	0.0152348
647.581	0.0152342
647.659	0.0148844
647.737	0.0149155
647.815	0.0150425
647.893	0.0150273
647.971	0.0151609
648.049	0.0150099
648.128	0.0150191
648.206	0.0150644
648.284	0.0152317
648.362	0.0151601
648.440	0.0151945
648.518	0.0150142
648.596	0.0150554
648.674	0.0151014
648.753	0.0150679
648.831	0.0150598
648.909	0.0150636
648.987	0.0151421
649.065	0.0150739
649.143	0.0149809
649.221	0.0150342
649.299	0.0151125
649.378	0.0149946
649.456	0.0150655
649.534	0.0150620
649.612	0.0152040
649.690	0.0150884
649.768	0.0151510
649.846	0.0150321
649.924	0.0151283
650.003	0.0151382
650.081	0.0151906
650.159	0.0151923
650.237	0.0148923
650.315	0.0150581
650.393	0.0151394
650.471	0.0151312
650.549	0.0150995
650.628	0.0150864
650.706	0.0151520
650.784	0.0151134
650.862	0.0151373
650.940	0.0149816
651.018	0.0151474
651.096	0.0150735
651.174	0.0149357
651.253	0.0150436
651.331	0.0151801
651.409	0.0151427
651.487	0.0150945
651.565	0.0151508
651.643	0.0151102
651.721	0.0151163
651.799	0.0150598
651.878	0.0151603
651.956	0.0149445
652.034	0.0149914
652.112	0.0151057
652.190	0.0150265
652.268	0.0151343
652.346	0.0149792
652.424	0.0151720
652.503	0.0150873
652.581	0.0150029
652.659	0.0150741
652.737	0.0148868
652.815	0.0150175
652.893	0.0150701
652.971	0.0152457
653.049	0.0149722
653.128	0.0151005
653.206	0.0152455
653.284	0.0150697
653.362	0.0150597
653.440	0.0152563
653.518	0.0152333
653.596	0.0151187
653.674	0.0151701
653.753	0.0150204
653.831	0.0151859
653.909	0.0150497
653.987	0.0151324
654.065	0.0152405
654.143	0.0150449
654.221	0.0150585
654.299	0.0151931
654.378	0.0152154
654.456	0.0152299
654.534	0.0151710
654.612	0.0151405
654.690	0.0151000
654.768	0.0151740
654.846	0.0152516
654.924	0.0151852
655.003	0.0151645
655.081	0.0150557
655.159	0.0152583
655.237	0.0150923
655.315	0.0150458
655.393	0.0152091
655.471	0.0151379
655.549	0.0149787
655.628	0.0152127
655.706	0.0151986
655.784	0.0151572
655.862	0.0151314
655.940	0.0151339
656.018	0.0151093
656.096	0.0151138
656.174	0.0151460
656.253	0.0150814
656.331	0.0152926
656.409	0.0150683
656.487	0.0150266
656.565	0.0151414
656.643	0.0152552
656.721	0.0149721
656.799	0.0150185
656.878	0.0151998
656.956	0.0150866
657.034	0.0150744
657.112	0.0151487
657.190	0.0151363
657.268	0.0150504
657.346	0.0151899
657.424	0.0150768
657.503	0.0150876
657.581	0.0152400
657.659	0.0150843
657.737	0.0151157
657.815	0.0150406
657.893	0.0150594
657.971	0.0152200
658.049	0.0150927
658.128	0.0150867
658.206	0.0151904
658.284	0.0151984
658.362	0.0151256
658.440	0.0150506
658.518	0.0151215
658.596	0.0150823
658.674	0.0150886
658.753	0.0150214
658.831	0.0150279
658.909	0.0150180
658.987	0.0150705
659.065	0.0150951
659.143	0.0151931
659.221	0.0151128
659.299	0.0150870
659.378	0.0151181
659.456	0.0151108
659.534	0.0150313
659.612	0.0151065
659.690	0.0151048
659.768	0.0151797
659.846	0.0151582
659.924	0.0149982
660.003	0.0151462
660.081	0.0150301
660.159	0.0151031
660.237	0.0151066
660.315	0.0151291
660.393	0.0151307
660.471	0.0150864
660.549	0.0151302
660.628	0.0152306
660.706	0.0149948
660.784	0.0151509
660.862	0.0151009
660.940	0.0152157
661.018	0.0152786
661.096	0.0150751
661.174	0.0150793
661.253	0.0150573
661.331	0.0151314
661.409	0.0150971
661.487	0.0150375
661.565	0.0149987
661.643	0.0151772
661.721	0.0151028
661.799	0.0151058
661.878	0.0151034
661.956	0.0151718
662.034	0.0152380
662.112	0.0152626
662.190	0.0151524
662.268	0.0151492
662.346	0.0150607
662.424	0.0150250
662.503	0.0150047
662.581	0.0150510
662.659	0.0152097
662.737	0.0152042
662.815	0.0150874
662.893	0.0149701
662.971	0.0151173
663.049	0.0151501
663.128	0.0152245
663.206	0.0151701
663.284	0.0150812
663.362	0.0150829
663.440	0.0152152
663.518	0.0151231
663.596	0.0152058
663.674	0.0150379
663.753	0.0150900
663.831	0.0149994
663.909	0.0150777
663.987	0.0151772
664.065	0.0150632
664.143	0.0149541
664.221	0.0150050
664.299	0.0151192
664.378	0.0150492
664.456	0.0150244
664.534	0.0151098
664.612	0.0151298
664.690	0.0150460
664.768	0.0150848
664.846	0.0151157
664.924	0.0151369
665.003	0.0151787
665.081	0.0152480
665.159	0.0151565
665.237	0.0151248
665.315	0.0151376
665.393	0.0151627
665.471	0.0151420
665.549	0.0151046
665.628	0.0151496
665.706	0.0150706
665.784	0.0151275
665.862	0.0151680
665.940	0.0150894
666.018	0.0149522
666.096	0.0150842
666.174	0.0151202
666.253	0.0150648
666.331	0.0152606
666.409	0.0151721
666.487	0.0152629
666.565	0.0152013
666.643	0.0150641
666.721	0.0149678
666.799	0.0149648
666.878	0.0151651
666.956	0.0151913
667.034	0.0151143
667.112	0.0152081
667.190	0.0151193
667.268	0.0149690
667.346	0.0150507
667.424	0.0151129
667.503	0.0150773
667.581	0.0149867
667.659	0.0151839
667.737	0.0150554
667.815	0.0149753
667.893	0.0150297
667.971	0.0152202
668.049	0.0150913
668.128	0.0151072
668.206	0.0150860
668.284	0.0150492
668.362	0.0151616
668.440	0.0151524
668.518	0.0151584
668.596	0.0151311
668.674	0.0152398
668.753	0.0151877
668.831	0.0150300
668.909	0.0150477
668.987	0.0150770
669.065	0.0151758
669.143	0.0151122
669.221	0.0151743
669.299	0.0150664
669.378	0.0149680
669.456	0.0150043
669.534	0.0150264
669.612	0.0150198
669.690	0.0151855
669.768	0.0151360
669.846	0.0150417
669.924	0.0150453
670.003	0.0151379
670.081	0.0150602
670.159	0.0151733
670.237	0.0151350
670.315	0.0151027
670.393	0.0151936
670.471	0.0150526
670.549	0.0149908
670.628	0.0151268
670.706	0.0151251
670.784	0.0149767
670.862	0.0151704
670.940	0.0151812
671.018	0.0152027
671.096	0.0150255
671.174	0.0151237
671.253	0.0152022
671.331	0.0150836
671.409	0.0150160
671.487	0.0152155
671.565	0.0149473
671.643	0.0150546
671.721	0.0152401
671.799	0.0151522
671.878	0.0151598
671.956	0.0151004
672.034	0.0151744
672.112	0.0151107
672.190	0.0151092
672.268	0.0151125
672.346	0.0152001
672.424	0.0150428
672.503	0.0152108
672.581	0.0151911
672.659	0.0151589
672.737	0.0150735
672.815	0.0151156
672.893	0.0150549
672.971	0.0151365
673.049	0.0151860
673.128	0.0151208
673.206	0.0151145
673.284	0.0152596
673.362	0.0152424
673.440	0.0150743
673.518	0.0150716
673.596	0.0151347
673.674	0.0152277
673.753	0.0150612
673.831	0.0150940
673.909	0.0151284
673.987	0.0151315
674.065	0.0151054
674.143	0.0150706
674.221	0.0151305
674.299	0.0150613
674.378	0.0151076
674.456	0.0151237
674.534	0.0151437
674.612	0.0150726
674.690	0.0151095
674.768	0.0151132
674.846	0.0152311
674.924	0.0151844
675.003	0.0151650
675.081	0.0150923
675.159	0.0152757
675.237	0.0151261
675.315	0.0152091
675.393	0.0149469
675.471	0.0149583
675.549	0.0151147
675.628	0.0151662
675.706	0.0152716
675.784	0.0151938
675.862	0.0151548
675.940	0.0149651
676.018	0.0150742
676.096	0.0151489
676.174	0.0151543
676.253	0.0149449
676.331	0.0151047
676.409	0.0150843
676.487	0.0150437
676.565	0.0150992
676.643	0.0150531
676.721	0.0151792
676.799	0.0150639
676.878	0.0150877
676.956	0.0150766
677.034	0.0151468
677.112	0.0151443
677.190	0.0149490
677.268	0.0151316
677.346	0.0151023
677.424	0.0150325
677.503	0.0151645
677.581	0.0151425
677.659	0.0150877
677.737	0.0151530
677.815	0.0150787
677.893	0.0151365
677.971	0.0150748
678.049	0.0152061
678.128	0.0152174
678.206	0.0152296
678.284	0.0152374
678.362	0.0150021
678.440	0.0151447
678.518	0.0152491
678.596	0.0150468
678.674	0.0150906
678.753	0.0151836
678.831	0.0150604
678.909	0.0151485
678.987	0.0151713
679.065	0.0151395
679.143	0.0150012
679.221	0.0149612
679.299	0.0151223
679.378	0.0152281
679.456	0.0150866
679.534	0.0150775
679.612	0.0151268
679.690	0.0150549
679.768	0.0151901
679.846	0.0150953
679.924	0.0150997
680.003	0.0151030
680.081	0.0150846
680.159	0.0151347
680.237	0.0151264
680.315	0.0150122
680.393	0.0150650
680.471	0.0150488
680.549	0.0150836
680.628	0.0150170
680.706	0.0151406
680.784	0.0150737
680.862	0.0150999
680.940	0.0150107
681.018	0.0152399
681.096	0.0152750
681.174	0.0150095
681.253	0.0151009
681.331	0.0151167
681.409	0.0152007
681.487	0.0150182
681.565	0.0150550
681.643	0.0151416
681.721	0.0149254
681.799	0.0150060
681.878	0.0150578
681.956	0.0150985
682.034	0.0151850
682.112	0.0150610
682.190	0.0151535
682.268	0.0150356
682.346	0.0150863
682.424	0.0151864
682.503	0.0151047
682.581	0.0151870
682.659	0.0151112
682.737	0.0149923
682.815	0.0149950
682.893	0.0151846
682.971	0.0151907
683.049	0.0151134
683.128	0.0150388
683.206	0.0149790
683.284	0.0149657
683.362	0.0152484
683.440	0.0151719
683.518	0.0151959
683.596	0.0150779
683.674	0.0151524
683.753	0.0151582
683.831	0.0150392
683.909	0.0151013
683.987	0.0149976
684.065	0.0151975
684.143	0.0152532
684.221	0.0150801
684.299	0.0150710
684.378	0.0150166
684.456	0.0150606
684.534	0.0151257
684.612	0.0151247
684.690	0.0150861
684.768	0.0150313
684.846	0.0150620
684.924	0.0151479
685.003	0.0150716
685.081	0.0150372
685.159	0.0150607
685.237	0.0151218
685.315	0.0149332
685.393	0.0150018
685.471	0.0151668
685.549	0.0150762
685.628	0.0150146
685.706	0.0150967
685.784	0.0151534
685.862	0.0150867
685.940	0.0150684
686.018	0.0150709
686.096	0.0152098
686.174	0.0151570
686.253	0.0150802
686.331	0.0150066
686.409	0.0151729
686.487	0.0151604
686.565	0.0150114
686.643	0.0150428
686.721	0.0151411
686.799	0.0151084
686.878	0.0152557
686.956	0.0151273
687.034	0.0149927
687.112	0.0151282
687.190	0.0150238
687.268	0.0150921
687.346	0.0151321
687.424	0.0150653
687.503	0.0151173
687.581	0.0152397
687.659	0.0151208
687.737	0.0150618
687.815	0.0151353
687.893	0.0151137
687.971	0.0150312
688.049	0.0150579
688.128	0.0150829
688.206	0.0151660
688.284	0.0152480
688.362	0.0149955
688.440	0.0151858
688.518	0.0149748
688.596	0.0150526
688.674	0.0152020
688.753	0.0151062
688.831	0.0150766
688.909	0.0150847
688.987	0.0149003
689.065	0.0150038
689.143	0.0150760
689.221	0.0150377
689.299	0.0149825
689.378	0.0149577
689.456	0.0151537
689.534	0.0151340
689.612	0.0151284
689.690	0.0150780
689.768	0.0149055
689.846	0.0150400
689.924	0.0150516
690.003	0.0150859
690.081	0.0150478
690.159	0.0150042
690.237	0.0149294
690.315	0.0150970
690.393	0.0151111
690.471	0.0151170
690.549	0.0151676
690.628	0.0150176
690.706	0.0149751
690.784	0.0150887
690.862	0.0151045
690.940	0.0152445
691.018	0.0151091
691.096	0.0150738
691.174	0.0149851
691.253	0.0151001
691.331	0.0151220
691.409	0.0151927
691.487	0.0150034
691.565	0.0150987
691.643	0.0151977
691.721	0.0150854
691.799	0.0151009
691.878	0.0151517
691.956	0.0152974
692.034	0.0151981
692.112	0.0151521
692.190	0.0150953
692.268	0.0152267
692.346	0.0151265
692.424	0.0152625
692.503	0.0151662
692.581	0.0151028
692.659	0.0153146
692.737	0.0152013
692.815	0.0151232
692.893	0.0150674
692.971	0.0149882
693.049	0.0150631
693.128	0.0149313
693.206	0.0150986
693.284	0.0151862
693.362	0.0151932
693.440	0.0150708
693.518	0.0151668
693.596	0.0150761
693.674	0.0152408
693.753	0.0151872
693.831	0.0152034
693.909	0.0151556
693.987	0.0151090
694.065	0.0150544
694.143	0.0148054
694.221	0.0149660
694.299	0.0149557
694.378	0.0150348
694.456	0.0151321
694.534	0.0150775
694.612	0.0149622
694.690	0.0150005
694.768	0.0151200
694.846	0.0150528
694.924	0.0150082
695.003	0.0150303
695.081	0.0150158
695.159	0.0151558
695.237	0.0152044
695.315	0.0151958
695.393	0.0151820
695.471	0.0152240
695.549	0.0152313
695.628	0.0150844
695.706	0.0152122
695.784	0.0152467
695.862	0.0150649
695.940	0.0149684
696.018	0.0149323
696.096	0.0148957
696.174	0.0147871
696.253	0.0147048
696.331	0.0148907
696.409	0.0150278
696.487	0.0149837
696.565	0.0150280
696.643	0.0149934
696.721	0.0152752
696.799	0.0154164
696.878	0.0155502
696.956	0.0155602
697.034	0.0155363
697.112	0.0155515
697.190	0.0154510
697.268	0.0152683
697.346	0.0152758
697.424	0.0149845
697.503	0.0148578
697.581	0.0147660
697.659	0.0148494
697.737	0.0146848
697.815	0.0148386
697.893	0.0147667
697.971	0.0149083
698.049	0.0149343
698.128	0.0150528
698.206	0.0151276
698.284	0.0152551
698.362	0.0153505
698.440	0.0155185
698.518	0.0154906
698.596	0.0154974
698.674	0.0155340
698.753	0.0156175
698.831	0.0155348
698.909	0.0154137
698.987	0.0152544
699.065	0.0151469
699.143	0.0152328
699.221	0.0149287
699.299	0.0148945
699.378	0.0146767
699.456	0.0148592
699.534	0.0147660
699.612	0.0148479
699.690	0.0147251
699.768	0.0149818
699.846	0.0150899
699.924	0.0150806
700.003	0.0153500
700.081	0.0154691
700.159	0.0156360
700.237	0.0156712
700.315	0.0158000
700.393	0.0157605
700.471	0.0156184
700.549	0.0155576
700.628	0.0153571
700.706	0.0152136
700.784	0.0149755
700.862	0.0148940
700.940	0.0148228
701.018	0.0146635
701.096	0.0147968
701.174	0.0147674
701.253	0.0148071
701.331	0.0147638
701.409	0.0149805
701.487	0.0150775
701.565	0.0151328
701.643	0.0152116
701.721	0.0151936
701.799	0.0152866
701.878	0.0153489
701.956	0.0152689
702.034	0.0152797
702.112	0.0152271
702.190	0.0152975
702.268	0.0153132
702.346	0.0154644
702.424	0.0153830
702.503	0.0152728
702.581	0.0152387
702.659	0.0153806
702.737	0.0150666
702.815	0.0149409
702.893	0.0149699
702.971	0.0148395
703.049	0.0145650
703.128	0.0148643
703.206	0.0147682
703.284	0.0147793
703.362	0.0147997
703.440	0.0147794
703.518	0.0150468
703.596	0.0151526
703.674	0.0153127
703.753	0.0154591
703.831	0.0155479
703.909	0.0156142
703.987	0.0156215
704.065	0.0156160
704.143	0.0155260
704.221	0.0154646
704.299	0.0153357
704.378	0.0152370
704.456	0.0151038
704.534	0.0149549
704.612	0.0149390
704.690	0.0147391
704.768	0.0147370
704.846	0.0147598
704.924	0.0146572
705.003	0.0145601
705.081	0.0146944
705.159	0.0148727
705.237	0.0150233
705.315	0.0150070
705.393	0.0150951
705.471	0.0150937
705.549	0.0150953
705.628	0.0153815
705.706	0.0154542
705.784	0.0155119
705.862	0.0153758
705.940	0.0156452
706.018	0.0154841
706.096	0.0153999
706.174	0.0153838
706.253	0.0153154
706.331	0.0152549
706.409	0.0150702
706.487	0.0149866
706.565	0.0149209
706.643	0.0148353
706.721	0.0148486
706.799	0.0147936
706.878	0.0148131
706.956	0.0148886
707.034	0.0149670
707.112	0.0150404
707.190	0.0150362
707.268	0.0151102
707.346	0.0150864
707.424	0.0151878
707.503	0.0152158
707.581	0.0153156
707.659	0.0154453
707.737	0.0154489
707.815	0.0154980
707.893	0.0153575
707.971	0.0154001
708.049	0.0152908
708.128	0.0153129
708.206	0.0152089
708.284	0.0151114
708.362	0.0149648
708.440	0.0150438
708.518	0.0147108
708.596	0.0145682
708.674	0.0147060
708.753	0.0145557
708.831	0.0143404
708.909	0.0144788
708.987	0.0145730
709.065	0.0146850
709.143	0.0149342
709.221	0.0151093
709.299	0.0154020
709.378	0.0155408
709.456	0.0154993
709.534	0.0157922
709.612	0.0159413
709.690	0.0157864
709.768	0.0158102
709.846	0.0156492
709.924	0.0155991
710.003	0.0155233
710.081	0.0152574
710.159	0.0149724
710.237	0.0147825
710.315	0.0147838
710.393	0.0146286
710.471	0.0144517
710.549	0.0146380
710.628	0.0147112
710.706	0.0146581
710.784	0.0147340
710.862	0.0150774
710.940	0.0151316
711.018	0.0152959
711.096	0.0153312
711.174	0.0155810
711.253	0.0154125
711.331	0.0155023
711.409	0.0155091
711.487	0.0153977
711.565	0.0152599
711.643	0.0151266
711.721	0.0151293
711.799	0.0149225
711.878	0.0149726
711.956	0.0148065
712.034	0.0149821
712.112	0.0148212
712.190	0.0149186
712.268	0.0149620
712.346	0.0150806
712.424	0.0153266
712.503	0.0154002
712.581	0.0155197
712.659	0.0155936
712.737	0.0155528
712.815	0.0155065
712.893	0.0154082
712.971	0.0152437
713.049	0.0152121
713.128	0.0151537
713.206	0.0148522
713.284	0.0147842
713.362	0.0147662
713.440	0.0146339
713.518	0.0145869
713.596	0.0145694
713.674	0.0147738
713.753	0.0148962
713.831	0.0149698
713.909	0.0150858
713.987	0.0152241
714.065	0.0155792
714.143	0.0156673
714.221	0.0158376
714.299	0.0159613
714.378	0.0158064
714.456	0.0158865
714.534	0.0158715
714.612	0.0154938
714.690	0.0153448
714.768	0.0152298
714.846	0.0149735
714.924	0.0147883
715.003	0.0145242
715.081	0.0143637
715.159	0.0144031
715.237	0.0142587
715.315	0.0142690
715.393	0.0145585
715.471	0.0145835
715.549	0.0146166
715.628	0.0145582
715.706	0.0147856
715.784	0.0148619
715.862	0.0150211
715.940	0.0151144
716.018	0.0152885
716.096	0.0153030
716.174	0.0153915
716.253	0.0155131
716.331	0.0155970
716.409	0.0156711
716.487	0.0158044
716.565	0.0158397
716.643	0.0157559
716.721	0.0156284
716.799	0.0155891
716.878	0.0153676
716.956	0.0154326
717.034	0.0150133
717.112	0.0147659
717.190	0.0147480
717.268	0.0145996
717.346	0.0143465
717.424	0.0143415
717.503	0.0144163
717.581	0.0144376
717.659	0.0146225
717.737	0.0148064
717.815	0.0150809
717.893	0.0152460
717.971	0.0152872
718.049	0.0156503
718.128	0.0157293
718.206	0.0159583
718.284	0.0160023
718.362	0.0159127
718.440	0.0158690
718.518	0.0158649
718.596	0.0157196
718.674	0.0153500
718.753	0.0151033
718.831	0.0149921
718.909	0.0148135
718.987	0.0147314
719.065	0.0144049
719.143	0.0145101
719.221	0.0144230
719.299	0.0145581
719.378	0.0144406
719.456	0.0145113
719.534	0.0146040
719.612	0.0148330
719.690	0.0147115
719.768	0.0149890
719.846	0.0149261
719.924	0.0149367
720.003	0.0151089
720.081	0.0150925
720.159	0.0149986
720.237	0.0151572
720.315	0.0150541
720.393	0.0151046
720.471	0.0150907
720.549	0.0150984
720.628	0.0150198
720.706	0.0152342
720.784	0.0153761
720.862	0.0151694
720.940	0.0152079
721.018	0.0153945
721.096	0.0153795
721.174	0.0154489
721.253	0.0153693
721.331	0.0153986
721.409	0.0152375
721.487	0.0152625
721.565	0.0151833
721.643	0.0152700
721.721	0.0150663
721.799	0.0150574
721.878	0.0150756
721.956	0.0148743
722.034	0.0148659
722.112	0.0148697
722.190	0.0148455
722.268	0.0146010
722.346	0.0146999
722.424	0.0147356
722.503	0.0147048
722.581	0.0149204
722.659	0.0150660
722.737	0.0151592
722.815	0.0153840
722.893	0.0157829
722.971	0.0159343
723.049	0.0160597
723.128	0.0161048
723.206	0.0161466
723.284	0.0161559
723.362	0.0161008
723.440	0.0158442
723.518	0.0157723
723.596	0.0156081
723.674	0.0153922
723.753	0.0152584
723.831	0.0153896
723.909	0.0151337
723.987	0.0151423
724.065	0.0149711
724.143	0.0148843
724.221	0.0147918
724.299	0.0147158
724.378	0.0147382
724.456	0.0146309
724.534	0.0143712
724.612	0.0142717
724.690	0.0143699
724.768	0.0142848
724.846	0.0142763
724.924	0.0141433
725.003	0.0142186
725.081	0.0142918
725.159	0.0143626
725.237	0.0144099
725.315	0.0146470
725.393	0.0145927
725.471	0.0147804
725.549	0.0149171
725.628	0.0150629
725.706	0.0151906
725.784	0.0153888
725.862	0.0155201
725.940	0.0155416
726.018	0.0157458
726.096	0.0156394
726.174	0.0157771
726.253	0.0155099
726.331	0.0157059
726.409	0.0158868
726.487	0.0158023
726.565	0.0159501
726.643	0.0158283
726.721	0.0158423
726.799	0.0157893
726.878	0.0159367
726.956	0.0160195
727.034	0.0159671
727.112	0.0160019
727.190	0.0157631
727.268	0.0156734
727.346	0.0154981
727.424	0.0153934
727.503	0.0152168
727.581	0.0150216
727.659	0.0146127
727.737	0.0143931
727.815	0.0142251
727.893	0.0140574
727.971	0.0139954
728.049	0.0137048
728.128	0.0137589
728.206	0.0138326
728.284	0.0139664
728.362	0.0139301
728.440	0.0140565
728.518	0.0141142
728.596	0.0143263
728.674	0.0146115
728.753	0.0147047
728.831	0.0148724
728.909	0.0151262
728.987	0.0152609
729.065	0.0154679
729.143	0.0156786
729.221	0.0157879
729.299	0.0159617
729.378	0.0158962
729.456	0.0160055
729.534	0.0160075
729.612	0.0160464
729.690	0.0160525
729.768	0.0159441
729.846	0.0160661
729.924	0.0158175
730.003	0.0157275
730.081	0.0157006
730.159	0.0156853
730.237	0.0155965
730.315	0.0155535
730.393	0.0154974
730.471	0.0156171
730.549	0.0154821
730.628	0.0152348
730.706	0.0151492
730.784	0.0151336
730.862	0.0149850
730.940	0.0147646
731.018	0.0145569
731.096	0.0145539
731.174	0.0144602
731.253	0.0143118
731.331	0.0142873
731.409	0.0141245
731.487	0.0142168
731.565	0.0140508
731.643	0.0140735
731.721	0.0140401
731.799	0.0138620
731.878	0.0138200
731.956	0.0136790
732.034	0.0138244
732.112	0.0136584
732.190	0.0137594
732.268	0.0138853
732.346	0.0138335
732.424	0.0140261
732.503	0.0143116
732.581	0.0144163
732.659	0.0147269
732.737	0.0149281
732.815	0.0151051
732.893	0.0155826
732.971	0.0158560
733.049	0.0162440
733.128	0.0163360
733.206	0.0166731
733.284	0.0169098
733.362	0.0173115
733.440	0.0172069
733.518	0.0173069
733.596	0.0176022
733.674	0.0175220
733.753	0.0173291
733.831	0.0175042
733.909	0.0172587
733.987	0.0171163
734.065	0.0168813
734.143	0.0166662
734.221	0.0164584
734.299	0.0163056
734.378	0.0160458
734.456	0.0159879
734.534	0.0156812
734.612	0.0155757
734.690	0.0152906
734.768	0.0149264
734.846	0.0146519
734.924	0.0144666
735.003	0.0142754
735.081	0.0139533
735.159	0.0137090
735.237	0.0135328
735.315	0.0133183
735.393	0.0130766
735.471	0.0128616
735.549	0.0126591
735.628	0.0126369
735.706	0.0126915
735.784	0.0127222
735.862	0.0127287
735.940	0.0128260
736.018	0.0128743
736.096	0.0131714
736.174	0.0134890
736.253	0.0139370
736.331	0.0141528
736.409	0.0144531
736.487	0.0148355
736.565	0.0152068
736.643	0.0154752
736.721	0.0157958
736.799	0.0160535
736.878	0.0161343
736.956	0.0163321
737.034	0.0164523
737.112	0.0165559
737.190	0.0167131
737.268	0.0167637
737.346	0.0166868
737.424	0.0164504
737.503	0.0164431
737.581	0.0163229
737.659	0.0161083
737.737	0.0160294
737.815	0.0160045
737.893	0.0158089
737.971	0.0155984
738.049	0.0156181
738.128	0.0154559
738.206	0.0154061
738.284	0.0154427
738.362	0.0153484
738.440	0.0153469
738.518	0.0152796
738.596	0.0153246
738.674	0.0154623
738.753	0.0155202
738.831	0.0154453
738.909	0.0154597
738.987	0.0155139
739.065	0.0156160
739.143	0.0153876
739.221	0.0154084
739.299	0.0153364
739.378	0.0154034
739.456	0.0153971
739.534	0.0153543
739.612	0.0151991
739.690	0.0151126
739.768	0.0152648
739.846	0.0150958
739.924	0.0150609
740.003	0.0151144
740.081	0.0152596
740.159	0.0151986
740.237	0.0151626
740.315	0.0154261
740.393	0.0154753
740.471	0.0154056
740.549	0.0152812
740.628	0.0152746
740.706	0.0151753
740.784	0.0150877
740.862	0.0149064
740.940	0.0146417
741.018	0.0144079
741.096	0.0140362
741.174	0.0137489
741.253	0.0133909
741.331	0.0131186
741.409	0.0129496
741.487	0.0127876
741.565	0.0125191
741.643	0.0124600
741.721	0.0125178
741.799	0.0125530
741.878	0.0128448
741.956	0.0131088
742.034	0.0133247
742.112	0.0138004
742.190	0.0144177
742.268	0.0148168
742.346	0.0153407
742.424	0.0158945
742.503	0.0163274
742.581	0.0166321
742.659	0.0170512
742.737	0.0172989
742.815	0.0177404
742.893	0.0175423
742.971	0.0175248
743.049	0.0175027
743.128	0.0173006
743.206	0.0170546
743.284	0.0167757
743.362	0.0164449
743.440	0.0160580
743.518	0.0158781
743.596	0.0155228
743.674	0.0153535
743.753	0.0151070
743.831	0.0150896
743.909	0.0150842
743.987	0.0150176
744.065	0.0151398
744.143	0.0150935
744.221	0.0152278
744.299	0.0153864
744.378	0.0153132
744.456	0.0154022
744.534	0.0156254
744.612	0.0155964
744.690	0.0155981
744.768	0.0154775
744.846	0.0157093
744.924	0.0155717
745.003	0.0154936
745.081	0.0154581
745.159	0.0153737
745.237	0.0152915
745.315	0.0153207
745.393	0.0153419
745.471	0.0152865
745.549	0.0152284
745.628	0.0151048
745.706	0.0150860
745.784	0.0149345
745.862	0.0147585
745.940	0.0147547
746.018	0.0146371
746.096	0.0144485
746.174	0.0143131
746.253	0.0140971
746.331	0.0138585
746.409	0.0137493
746.487	0.0134543
746.565	0.0133167
746.643	0.0131302
746.721	0.0129628
746.799	0.0128808
746.878	0.0127670
746.956	0.0127592
747.034	0.0128079
747.112	0.0129085
747.190	0.0131197
747.268	0.0133002
747.346	0.0135960
747.424	0.0139431
747.503	0.0144268
747.581	0.0148759
747.659	0.0150765
747.737	0.0156921
747.815	0.0162140
747.893	0.0164754
747.971	0.0166338
748.049	0.0171345
748.128	0.0174969
748.206	0.0175816
748.284	0.0177482
748.362	0.0179514
748.440	0.0178662
748.518	0.0177791
748.596	0.0176949
748.674	0.0174303
748.753	0.0171370
748.831	0.0168549
748.909	0.0165459
748.987	0.0160999
749.065	0.0159283
749.143	0.0154790
749.221	0.0154114
749.299	0.0151533
749.378	0.0151227
749.456	0.0150716
749.534	0.0149143
749.612	0.0148850
749.690	0.0147510
749.768	0.0150418
749.846	0.0146826
749.924	0.0147337
750.003	0.0146008
750.081	0.0146604
750.159	0.0146520
750.237	0.0145632
750.315	0.0144630
750.393	0.0146132
750.471	0.0145884
750.549	0.0146680
750.628	0.0146766
750.706	0.0147592
750.784	0.0149108
750.862	0.0149318
750.940	0.0149531
751.018	0.0151592
751.096	0.0152551
751.174	0.0154386
751.253	0.0156573
751.331	0.0155682
751.409	0.0158303
751.487	0.0158530
751.565	0.0158418
751.643	0.0156895
751.721	0.0156929
751.799	0.0156040
751.878	0.0153725
751.956	0.0152302
752.034	0.0148169
752.112	0.0145338
752.190	0.0142632
752.268	0.0140696
752.346	0.0137160
752.424	0.0133434
752.503	0.0131201
752.581	0.0129645
752.659	0.0127272
752.737	0.0125330
752.815	0.0126304
752.893	0.0126304
752.971	0.0128529
753.049	0.0130904
753.128	0.0134039
753.206	0.0137022
753.284	0.0141217
753.362	0.0144561
753.440	0.0150391
753.518	0.0156634
753.596	0.0160144
753.674	0.0163277
753.753	0.0166399
753.831	0.0168702
753.909	0.0172818
753.987	0.0174915
754.065	0.0175191
754.143	0.0175003
754.221	0.0173865
754.299	0.0173969
754.378	0.0172372
754.456	0.0170486
754.534	0.0168199
754.612	0.0164987
754.690	0.0162186
754.768	0.0158355
754.846	0.0154589
754.924	0.0153025
755.003	0.0151654
755.081	0.0150056
755.159	0.0146867
755.237	0.0144277
755.315	0.0144703
755.393	0.0143626
755.471	0.0143805
755.549	0.0144753
755.628	0.0146273
755.706	0.0147813
755.784	0.0150195
755.862	0.0151230
755.940	0.0151343
756.018	0.0152468
756.096	0.0153298
756.174	0.0153007
756.253	0.0152597
756.331	0.0152692
756.409	0.0153896
756.487	0.0151687
756.565	0.0152596
756.643	0.0151115
756.721	0.0150620
756.799	0.0151086
756.878	0.0150793
756.956	0.0150639
757.034	0.0151258
757.112	0.0151258
757.190	0.0150533
757.268	0.0150858
757.346	0.0149147
757.424	0.0150582
757.503	0.0149538
757.581	0.0148621
757.659	0.0146923
757.737	0.0146134
757.815	0.0143634
757.893	0.0141517
757.971	0.0137808
758.049	0.0136161
758.128	0.0132663
758.206	0.0128640
758.284	0.0129008
758.362	0.0128377
758.440	0.0128047
758.518	0.0128369
758.596	0.0131295
758.674	0.0134681
758.753	0.0137518
758.831	0.0140598
758.909	0.0146393
758.987	0.0149615
759.065	0.0152165
759.143	0.0158407
759.221	0.0163797
759.299	0.0166337
759.378	0.0168425
759.456	0.0170621
759.534	0.0172273
759.612	0.0173071
759.690	0.0174096
759.768	0.0172006
759.846	0.0171085
759.924	0.0169765
760.003	0.0166095
760.081	0.0163982
760.159	0.0161130
760.237	0.0159286
760.315	0.0155100
760.393	0.0153566
760.471	0.0150926
760.549	0.0149578
760.628	0.0148460
760.706	0.0146326
760.784	0.0148380
760.862	0.0148798
760.940	0.0148544
761.018	0.0151285
761.096	0.0153067
761.174	0.0153465
761.253	0.0155714
761.331	0.0153816
761.409	0.0155725
761.487	0.0155676
761.565	0.0156360
761.643	0.0155015
761.721	0.0152899
761.799	0.0154649
761.878	0.0152046
761.956	0.0152790
762.034	0.0151331
762.112	0.0150432
762.190	0.0149489
762.268	0.0149376
762.346	0.0148660
762.424	0.0147662
762.503	0.0147525
762.581	0.0147263
762.659	0.0147931
762.737	0.0150171
762.815	0.0149561
762.893	0.0148505
762.971	0.0150484
763.049	0.0151528
763.128	0.0148775
763.206	0.0150398
763.284	0.0150482
763.362	0.0147231
763.440	0.0147493
763.518	0.0146960
763.596	0.0143195
763.674	0.0140642
763.753	0.0138686
763.831	0.0135942
763.909	0.0133694
763.987	0.0131631
764.065	0.0132893
764.143	0.0130475
764.221	0.0131444
764.299	0.0133569
764.378	0.0134756
764.456	0.0138962
764.534	0.0141907
764.612	0.0144299
764.690	0.0150788
764.768	0.0153764
764.846	0.0158829
764.924	0.0163519
765.003	0.0167556
765.081	0.0167825
765.159	0.0169973
765.237	0.0171548
765.315	0.0173129
765.393	0.0171381
765.471	0.0171612
765.549	0.0170445
765.628	0.0168787
765.706	0.0164315
765.784	0.0162726
765.862	0.0159507
765.940	0.0156099
766.018	0.0152172
766.096	0.0150558
766.174	0.0147778
766.253	0.0147081
766.331	0.0147258
766.409	0.0147655
766.487	0.0144945
766.565	0.0148129
766.643	0.0148215
766.721	0.0150308
766.799	0.0152156
766.878	0.0151685
766.956	0.0151075
767.034	0.0153197
767.112	0.0154565
767.190	0.0153471
767.268	0.0154676
767.346	0.0154628
767.424	0.0154199
767.503	0.0153226
767.581	0.0152798
767.659	0.0153696
767.737	0.0153412
767.815	0.0152535
767.893	0.0152218
767.971	0.0152290
768.049	0.0151730
768.128	0.0152073
768.206	0.0153857
768.284	0.0152663
768.362	0.0152159
768.440	0.0150407
768.518	0.0150793
768.596	0.0150606
768.674	0.0149783
768.753	0.0150871
768.831	0.0148852
768.909	0.0147594
768.987	0.0147253
769.065	0.0146008
769.143	0.0145338
769.221	0.0141876
769.299	0.0140680
769.378	0.0137331
769.456	0.0136140
769.534	0.0135138
769.612	0.0133010
769.690	0.0132036
769.768	0.0130299
769.846	0.0129836
769.924	0.0132488
770.003	0.0133813
770.081	0.0137750
770.159	0.0140960
770.237	0.0145361
770.315	0.0149126
770.393	0.0152140
770.471	0.0157656
770.549	0.0161173
770.628	0.0164872
770.706	0.0168726
770.784	0.0172575
770.862	0.0171834
770.940	0.0174124
771.018	0.0174705
771.096	0.0173232
771.174	0.0171250
771.253	0.0170670
771.331	0.0169012
771.409	0.0166832
771.487	0.0163168
771.565	0.0160644
771.643	0.0157229
771.721	0.0154099
771.799	0.0150520
771.878	0.0148099
771.956	0.0146578
772.034	0.0145296
772.112	0.0145018
772.190	0.0144498
772.268	0.0145242
772.346	0.0145178
772.424	0.0144770
772.503	0.0145683
772.581	0.0147381
772.659	0.0146004
772.737	0.0147836
772.815	0.0148674
772.893	0.0148603
772.971	0.0148285
773.049	0.0146823
773.128	0.0148441
773.206	0.0148659
773.284	0.0149114
773.362	0.0148568
773.440	0.0149100
773.518	0.0150152
773.596	0.0152977
773.674	0.0153162
773.753	0.0154072
773.831	0.0153523
773.909	0.0155382
773.987	0.0155638
774.065	0.0156823
774.143	0.0157896
774.221	0.0159026
774.299	0.0157999
774.378	0.0157032
774.456	0.0157204
774.534	0.0156626
774.612	0.0154875
774.690	0.0153920
774.768	0.0151469
774.846	0.0149496
774.924	0.0146220
775.003	0.0144086
775.081	0.0143445
775.159	0.0140637
775.237	0.0139005
775.315	0.0136716
775.393	0.0135713
775.471	0.0135795
775.549	0.0133678
775.628	0.0134331
775.706	0.0133466
775.784	0.0135095
775.862	0.0137405
775.940	0.0139762
776.018	0.0142529
776.096	0.0146587
776.174	0.0149474
776.253	0.0154007
776.331	0.0158121
776.409	0.0160144
776.487	0.0163673
776.565	0.0166883
776.643	0.0168249
776.721	0.0168622
776.799	0.0167562
776.878	0.0167266
776.956	0.0167470
777.034	0.0165632
777.112	0.0165198
777.190	0.0161426
777.268	0.0160931
777.346	0.0157552
777.424	0.0156077
777.503	0.0154813
777.581	0.0150507
777.659	0.0148026
777.737	0.0149012
777.815	0.0147194
777.893	0.0144840
777.971	0.0144592
778.049	0.0144849
778.128	0.0145878
778.206	0.0145324
778.284	0.0147926
778.362	0.0147044
778.440	0.0147614
778.518	0.0149655
778.596	0.0148389
778.674	0.0148640
778.753	0.0149354
778.831	0.0149734
778.909	0.0151330
778.987	0.0152270
779.065	0.0151685
779.143	0.0153954
779.221	0.0151087
779.299	0.0153918
779.378	0.0154876
779.456	0.0154785
779.534	0.0157146
779.612	0.0157493
779.690	0.0157166
779.768	0.0156900
779.846	0.0155756
779.924	0.0155654
780.003	0.0156014
780.081	0.0155128
780.159	0.0154567
780.237	0.0153051
780.315	0.0151826
780.393	0.0150335
780.471	0.0148481
780.549	0.0146443
780.628	0.0144282
780.706	0.0142552
780.784	0.0142297
780.862	0.0138786
780.940	0.0139561
781.018	0.0138262
781.096	0.0137341
781.174	0.0138311
781.253	0.0137394
781.331	0.0137151
781.409	0.0138158
781.487	0.0139086
781.565	0.0140947
781.643	0.0143126
781.721	0.0145286
781.799	0.0145747
781.878	0.0151146
781.956	0.0150677
782.034	0.0154695
782.112	0.0154671
782.190	0.0156291
782.268	0.0160991
782.346	0.0161241
782.424	0.0161205
782.503	0.0162419
782.581	0.0162327
782.659	0.0162402
782.737	0.0161838
782.815	0.0161731
782.893	0.0161237
782.971	0.0158716
783.049	0.0158869
783.128	0.0157947
783.206	0.0157191
783.284	0.0156201
783.362	0.0154749
783.440	0.0153995
783.518	0.0152049
783.596	0.0150805
783.674	0.0151328
783.753	0.0148369
783.831	0.0148351
783.909	0.0146836
783.987	0.0147725
784.065	0.0146123
784.143	0.0144608
784.221	0.0144545
784.299	0.0146401
784.378	0.0145143
784.456	0.0144460
784.534	0.0145587
784.612	0.0146145
784.690	0.0146390
784.768	0.0146700
784.846	0.0148112
784.924	0.0148740
785.003	0.0149209
785.081	0.0150907
785.159	0.0152801
785.237	0.0153226
785.315	0.0152909
785.393	0.0155729
785.471	0.0156216
785.549	0.0156209
785.628	0.0155878
785.706	0.0157478
785.784	0.0157683
785.862	0.0157087
785.940	0.0155591
786.018	0.0153632
786.096	0.0153401
786.174	0.0152799
786.253	0.0150147
786.331	0.0148339
786.409	0.0147415
786.487	0.0145795
786.565	0.0144138
786.643	0.0142387
786.721	0.0143381
786.799	0.0143323
786.878	0.0140772
786.956	0.0142720
787.034	0.0143111
787.112	0.0142275
787.190	0.0142305
787.268	0.0146402
787.346	0.0145634
787.424	0.0148329
787.503	0.0148425
787.581	0.0150869
787.659	0.0152262
787.737	0.0153723
787.815	0.0154174
787.893	0.0155415
787.971	0.0154966
788.049	0.0156339
788.128	0.0155843
788.206	0.0156025
788.284	0.0155042
788.362	0.0154972
788.440	0.0155219
788.518	0.0154932
788.596	0.0153687
788.674	0.0154596
788.753	0.0154012
788.831	0.0154463
788.909	0.0154686
788.987	0.0152671
789.065	0.0154245
789.143	0.0154069
789.221	0.0153400
789.299	0.0153044
789.378	0.0154077
789.456	0.0153291
789.534	0.0155476
789.612	0.0153600
789.690	0.0153484
789.768	0.0152775
789.846	0.0152543
789.924	0.0151440
790.003	0.0150237
790.081	0.0151502
790.159	0.0151299
790.237	0.0150107
790.315	0.0150835
790.393	0.0150880
790.471	0.0149244
790.549	0.0149485
790.628	0.0150821
790.706	0.0150150
790.784	0.0150261
790.862	0.0149708
790.940	0.0150724
791.018	0.0152222
791.096	0.0151340
791.174	0.0151574
791.253	0.0152950
791.331	0.0152368
791.409	0.0154307
791.487	0.0153268
791.565	0.0152003
791.643	0.0153041
791.721	0.0154394
791.799	0.0153406
791.878	0.0150019
791.956	0.0150638
792.034	0.0152060
792.112	0.0149744
792.190	0.0149057
792.268	0.0149932
792.346	0.0149664
792.424	0.0148306
792.503	0.0148236
792.581	0.0146650
792.659	0.0146980
792.737	0.0145483
792.815	0.0147562
792.893	0.0147905
792.971	0.0147838
793.049	0.0147708
793.128	0.0148228
793.206	0.0148399
793.284	0.0148941
793.362	0.0150547
793.440	0.0150040
793.518	0.0149196
793.596	0.0150005
793.674	0.0153349
793.753	0.0151789
793.831	0.0151460
793.909	0.0153049
793.987	0.0153714
794.065	0.0153413
794.143	0.0154738
794.221	0.0153170
794.299	0.0154556
794.378	0.0154158
794.456	0.0153487
794.534	0.0152489
794.612	0.0153705
794.690	0.0154308
794.768	0.0153589
794.846	0.0152591
794.924	0.0152499
795.003	0.0153365
795.081	0.0154192
795.159	0.0153974
795.237	0.0154559
795.315	0.0153268
795.393	0.0153052
795.471	0.0153521
795.549	0.0152192
795.628	0.0151410
795.706	0.0151323
795.784	0.0152188
795.862	0.0150139
795.940	0.0151886
796.018	0.0150702
796.096	0.0151397
796.174	0.0150944
796.253	0.0151308
796.331	0.0150275
796.409	0.0151127
796.487	0.0151306
796.565	0.0151156
796.643	0.0151200
796.721	0.0151460
796.799	0.0150487
796.878	0.0149706
796.956	0.0151427
797.034	0.0151626
797.112	0.0152602
797.190	0.0152652
797.268	0.0152303
797.346	0.0150581
797.424	0.0151286
797.503	0.0150708
797.581	0.0149368
797.659	0.0150518
797.737	0.0149432
797.815	0.0148508
797.893	0.0149538
797.971	0.0149162
798.049	0.0150443
798.128	0.0149901
798.206	0.0149892
798.284	0.0151734
798.362	0.0150523
798.440	0.0151794
798.518	0.0151905
798.596	0.0151013
798.674	0.0151637
798.753	0.0151147
798.831	0.0150776
798.909	0.0151784
798.987	0.0151347
799.065	0.0150058
799.143	0.0150646
799.221	0.0151879
799.299	0.0150699
799.378	0.0150246
799.456	0.0150991
799.534	0.0149609
799.612	0.0150227
799.690	0.0150828
799.768	0.0149606
799.846	0.0150560
799.924	0.0150113
800.003	0.0148980
800.081	0.0150118
800.159	0.0150729
800.237	0.0151257
800.315	0.0150056
800.393	0.0150983
800.471	0.0151010
800.549	0.0150745
800.628	0.0151980
800.706	0.0151712
800.784	0.0154336
800.862	0.0155051
800.940	0.0152874
801.018	0.0154358
801.096	0.0154069
801.174	0.0153454
801.253	0.0154443
801.331	0.0155123
801.409	0.0154395
801.487	0.0154273
801.565	0.0153735
801.643	0.0153067
801.721	0.0153082
801.799	0.0153147
801.878	0.0152272
801.956	0.0151679
802.034	0.0151414
802.112	0.0151671
802.190	0.0150960
802.268	0.0150404
802.346	0.0151526
802.424	0.0149583
802.503	0.0149406
802.581	0.0149629
802.659	0.0151181
802.737	0.0151039
802.815	0.0151554
802.893	0.0150744
802.971	0.0150858
803.049	0.0152254
803.128	0.0151716
803.206	0.0151517
803.284	0.0150684
803.362	0.0150624
803.440	0.0150027
803.518	0.0151646
803.596	0.0150378
803.674	0.0150298
803.753	0.0149522
803.831	0.0150189
803.909	0.0149591
803.987	0.0150926
804.065	0.0149776
804.143	0.0149340
804.221	0.0148947
804.299	0.0149735
804.378	0.0151121
804.456	0.0150047
804.534	0.0149585
804.612	0.0149885
804.690	0.0149448
804.768	0.0150598
804.846	0.0150225
804.924	0.0151073
805.003	0.0150831
805.081	0.0151119
805.159	0.0149886
805.237	0.0150092
805.315	0.0149403
805.393	0.0150531
805.471	0.0150488
805.549	0.0149477
805.628	0.0149116
805.706	0.0149079
805.784	0.0149361
805.862	0.0149463
805.940	0.0149016
806.018	0.0149798
806.096	0.0148519
806.174	0.0149742
806.253	0.0151173
806.331	0.0150831
806.409	0.0150827
806.487	0.0151985
806.565	0.0151629
806.643	0.0151337
806.721	0.0152675
806.799	0.0152986
806.878	0.0151721
806.956	0.0152036
807.034	0.0154050
807.112	0.0152718
807.190	0.0152756
807.268	0.0152965
807.346	0.0151120
807.424	0.0151228
807.503	0.0153034
807.581	0.0152592
807.659	0.0151445
807.737	0.0151752
807.815	0.0151617
807.893	0.0152156
807.971	0.0151896
808.049	0.0150871
808.128	0.0152071
808.206	0.0152220
808.284	0.0151293
808.362	0.0152254
808.440	0.0153001
808.518	0.0153798
808.596	0.0152616
808.674	0.0151433
808.753	0.0152301
808.831	0.0152046
808.909	0.0150724
808.987	0.0149265
809.065	0.0149423
809.143	0.0151151
809.221	0.0149268
809.299	0.0148837
809.378	0.0149644
809.456	0.0149258
809.534	0.0149660
809.612	0.0147247
809.690	0.0148410
809.768	0.0149770
809.846	0.0149057
809.924	0.0151482
810.003	0.0150035
810.081	0.0150850
810.159	0.0151680
810.237	0.0152219
810.315	0.0152074
810.393	0.0151659
810.471	0.0151821
810.549	0.0151826
810.628	0.0151778
810.706	0.0151496
810.784	0.0151114
810.862	0.0151628
810.940	0.0150016
811.018	0.0149979
811.096	0.0150396
811.174	0.0149426
811.253	0.0150175
811.331	0.0149767
811.409	0.0148788
811.487	0.0149660
811.565	0.0150469
811.643	0.0148848
811.721	0.0149658
811.799	0.0150551
811.878	0.0151266
811.956	0.0150076
812.034	0.0150063
812.112	0.0151225
812.190	0.0151081
812.268	0.0151504
812.346	0.0149997
812.424	0.0149616
812.503	0.0151180
812.581	0.0151879
812.659	0.0151815
812.737	0.0150999
812.815	0.0150080
812.893	0.0151368
812.971	0.0151208
813.049	0.0149247
813.128	0.0151395
813.206	0.0150008
813.284	0.0149635
813.362	0.0149849
813.440	0.0150334
813.518	0.0151357
813.596	0.0150933
813.674	0.0151371
813.753	0.0151850
813.831	0.0151869
813.909	0.0153603
813.987	0.0153037
814.065	0.0152731
814.143	0.0154600
814.221	0.0155180
814.299	0.0156187
814.378	0.0154317
814.456	0.0156047
814.534	0.0155453
814.612	0.0154079
814.690	0.0154375
814.768	0.0153555
814.846	0.0153129
814.924	0.0153654
815.003	0.0151794
815.081	0.0152486
815.159	0.0153288
815.237	0.0152240
815.315	0.0150401
815.393	0.0151350
815.471	0.0151092
815.549	0.0149946
815.628	0.0150393
815.706	0.0150343
815.784	0.0149876
815.862	0.0149956
815.940	0.0150082
816.018	0.0148970
816.096	0.0149053
816.174	0.0149398
816.253	0.0147697
816.331	0.0148269
816.409	0.0147144
816.487	0.0147506
816.565	0.0147714
816.643	0.0147661
816.721	0.0147332
816.799	0.0147604
816.878	0.0148601
816.956	0.0149392
817.034	0.0148349
817.112	0.0149659
817.190	0.0150905
817.268	0.0151726
817.346	0.0151830
817.424	0.0153033
817.503	0.0154030
817.581	0.0152930
817.659	0.0153034
817.737	0.0153231
817.815	0.0152598
817.893	0.0153013
817.971	0.0153059
818.049	0.0151347
818.128	0.0152895
818.206	0.0151945
818.284	0.0150658
818.362	0.0148724
818.440	0.0149422
818.518	0.0150368
818.596	0.0151000
818.674	0.0149036
818.753	0.0151027
818.831	0.0150655
818.909	0.0148869
818.987	0.0151562
819.065	0.0150856
819.143	0.0149763
819.221	0.0152261
819.299	0.0151483
819.378	0.0151276
819.456	0.0153310
819.534	0.0153291
819.612	0.0153333
819.690	0.0152271
819.768	0.0152520
819.846	0.0150958
819.924	0.0151495
820.003	0.0151533
820.081	0.0151135
820.159	0.0150394
820.237	0.0149795
820.315	0.0150319
820.393	0.0149457
820.471	0.0151250
820.549	0.0150755
820.628	0.0150242
820.706	0.0149574
820.784	0.0149641
820.862	0.0148332
820.940	0.0149142
821.018	0.0151408
821.096	0.0151505
821.174	0.0151663
821.253	0.0151193
821.331	0.0152173
821.409	0.0152146
821.487	0.0152693
821.565	0.0152758
821.643	0.0154240
821.721	0.0154671
821.799	0.0154697
821.878	0.0152850
821.956	0.0152858
822.034	0.0152840
822.112	0.0152729
822.190	0.0152731
822.268	0.0151076
822.346	0.0150806
822.424	0.0151203
822.503	0.0150188
822.581	0.0147885
822.659	0.0148659
822.737	0.0148338
822.815	0.0149336
822.893	0.0150137
822.971	0.0149121
823.049	0.0149335
823.128	0.0151172
823.206	0.0150658
823.284	0.0150252
823.362	0.0152525
823.440	0.0153451
823.518	0.0151492
823.596	0.0152469
823.674	0.0152602
823.753	0.0152087
823.831	0.0150553
823.909	0.0150308
823.987	0.0150597
824.065	0.0149660
824.143	0.0150516
824.221	0.0149979
824.299	0.0150121
824.378	0.0149254
824.456	0.0149652
824.534	0.0149055
824.612	0.0149612
824.690	0.0149263
824.768	0.0149306
824.846	0.0148864
824.924	0.0151102
825.003	0.0149867
825.081	0.0151355
825.159	0.0151546
825.237	0.0151748
825.315	0.0151867
825.393	0.0152092
825.471	0.0151739
825.549	0.0151454
825.628	0.0151818
825.706	0.0152749
825.784	0.0152649
825.862	0.0153297
825.940	0.0152699
826.018	0.0151830
826.096	0.0151768
826.174	0.0151728
826.253	0.0153143
826.331	0.0154268
826.409	0.0152872
826.487	0.0152463
826.565	0.0152258
826.643	0.0153836
826.721	0.0153753
826.799	0.0153521
826.878	0.0153523
826.956	0.0153467
827.034	0.0152949
827.112	0.0151914
827.190	0.0153267
827.268	0.0153063
827.346	0.0152568
827.424	0.0151309
827.503	0.0153096
827.581	0.0151354
827.659	0.0150860
827.737	0.0150232
827.815	0.0150954
827.893	0.0149040
827.971	0.0149385
828.049	0.0149793
828.128	0.0148368
828.206	0.0147221
828.284	0.0148302
828.362	0.0146999
828.440	0.0145798
828.518	0.0147400
828.596	0.0147899
828.674	0.0146616
828.753	0.0147212
828.831	0.0148711
828.909	0.0148549
828.987	0.0148773
829.065	0.0150363
829.143	0.0150832
829.221	0.0150465
829.299	0.0150006
829.378	0.0151529
829.456	0.0151680
829.534	0.0151803
829.612	0.0151473
829.690	0.0152188
829.768	0.0152656
829.846	0.0153127
829.924	0.0153958
830.003	0.0154829
830.081	0.0154734
830.159	0.0153862
830.237	0.0156097
830.315	0.0156059
830.393	0.0157569
830.471	0.0156725
830.549	0.0157265
830.628	0.0156306
830.706	0.0157200
830.784	0.0155390
830.862	0.0155470
830.940	0.0155348
831.018	0.0154490
831.096	0.0153791
831.174	0.0153646
831.253	0.0150589
831.331	0.0149843
831.409	0.0149490
831.487	0.0148510
831.565	0.0147026
831.643	0.0148563
831.721	0.0146623
831.799	0.0144901
831.878	0.0144802
831.956	0.0146487
832.034	0.0147425
832.112	0.0146396
832.190	0.0147116
832.268	0.0146896
832.346	0.0146946
832.424	0.0147356
832.503	0.0148215
832.581	0.0147256
832.659	0.0149081
832.737	0.0149224
832.815	0.0148246
832.893	0.0149041
832.971	0.0149802
833.049	0.0150137
833.128	0.0150986
833.206	0.0151260
833.284	0.0152563
833.362	0.0151962
833.440	0.0150923
833.518	0.0153181
833.596	0.0153575
833.674	0.0152825
833.753	0.0152852
833.831	0.0154292
833.909	0.0154837
833.987	0.0154131
834.065	0.0153206
834.143	0.0153371
834.221	0.0154543
834.299	0.0153871
834.378	0.0152587
834.456	0.0154971
834.534	0.0154709
834.612	0.0153566
834.690	0.0155354
834.768	0.0154192
834.846	0.0154242
834.924	0.0154175
835.003	0.0155331
835.081	0.0154624
835.159	0.0152859
835.237	0.0154533
835.315	0.0153742
835.393	0.0153134
835.471	0.0152817
835.549	0.0152846
835.628	0.0152650
835.706	0.0151562
835.784	0.0150574
835.862	0.0150055
835.940	0.0150430
836.018	0.0150341
836.096	0.0149698
836.174	0.0151081
836.253	0.0149628
836.331	0.0149626
836.409	0.0149221
836.487	0.0150224
836.565	0.0150982
836.643	0.0149916
836.721	0.0151081
836.799	0.0149825
836.878	0.0148993
836.956	0.0149554
837.034	0.0150370
837.112	0.0150462
837.190	0.0149267
837.268	0.0149580
837.346	0.0149429
837.424	0.0149258
837.503	0.0148093
837.581	0.0148413
837.659	0.0146890
837.737	0.0149173
837.815	0.0148965
837.893	0.0148170
837.971	0.0146406
838.049	0.0148159
838.128	0.0149109
838.206	0.0149258
838.284	0.0147739
838.362	0.0149855
838.440	0.0149902
838.518	0.0150624
838.596	0.0150503
838.674	0.0150742
838.753	0.0150983
838.831	0.0152607
838.909	0.0154337
838.987	0.0153130
839.065	0.0154237
839.143	0.0155179
839.221	0.0154293
839.299	0.0154142
839.378	0.0155186
839.456	0.0155003
839.534	0.0153999
839.612	0.0154284
839.690	0.0154710
839.768	0.0154726
839.846	0.0153670
839.924	0.0154192
840.003	0.0152827
840.081	0.0152818
840.159	0.0154797
840.237	0.0153484
840.315	0.0154033
840.393	0.0154015
840.471	0.0152853
840.549	0.0153147
840.628	0.0152597
840.706	0.0153049
840.784	0.0153708
840.862	0.0153220
840.940	0.0154381
841.018	0.0154584
841.096	0.0154745
841.174	0.0154967
841.253	0.0154690
841.331	0.0154789
841.409	0.0153728
841.487	0.0153669
841.565	0.0153790
841.643	0.0153204
841.721	0.0151685
841.799	0.0151384
841.878	0.0150813
841.956	0.0150859
842.034	0.0149226
842.112	0.0150469
842.190	0.0150110
842.268	0.0148769
842.346	0.0147903
842.424	0.0146788
842.503	0.0147780
842.581	0.0148278
842.659	0.0147619
842.737	0.0147086
842.815	0.0146027
842.893	0.0146925
842.971	0.0147222
843.049	0.0146396
843.128	0.0145957
843.206	0.0146386
843.284	0.0146158
843.362	0.0145401
843.440	0.0146604
843.518	0.0146618
843.596	0.0146350
843.674	0.0148109
843.753	0.0147085
843.831	0.0148024
843.909	0.0149625
843.987	0.0148854
844.065	0.0151029
844.143	0.0150534
844.221	0.0152825
844.299	0.0153262
844.378	0.0153806
844.456	0.0154604
844.534	0.0154607
844.612	0.0154792
844.690	0.0154854
844.768	0.0156203
844.846	0.0155563
844.924	0.0156853
845.003	0.0155493
845.081	0.0156831
845.159	0.0155892
845.237	0.0154843
845.315	0.0155334
845.393	0.0155443
845.471	0.0154272
845.549	0.0154313
845.628	0.0154381
845.706	0.0153661
845.784	0.0153393
845.862	0.0152853
845.940	0.0152934
846.018	0.0152570
846.096	0.0152543
846.174	0.0153178
846.253	0.0151682
846.331	0.0151179
846.409	0.0151494
846.487	0.0151649
846.565	0.0151027
846.643	0.0151716
846.721	0.0150253
846.799	0.0151021
846.878	0.0151014
846.956	0.0151225
847.034	0.0151418
847.112	0.0151518
847.190	0.0149182
847.268	0.0149579
847.346	0.0150298
847.424	0.0149746
847.503	0.0149237
847.581	0.0150198
847.659	0.0150478
847.737	0.0149749
847.815	0.0148468
847.893	0.0148830
847.971	0.0149073
848.049	0.0149397
848.128	0.0148527
848.206	0.0148678
848.284	0.0149487
848.362	0.0149129
848.440	0.0148731
848.518	0.0147757
848.596	0.0149469
848.674	0.0148525
848.753	0.0147736
848.831	0.0147860
848.909	0.0149223
848.987	0.0148951
849.065	0.0148956
849.143	0.0149319
849.221	0.0149046
849.299	0.0148859
849.378	0.0149324
849.456	0.0148083
849.534	0.0149990
849.612	0.0149516
849.690	0.0151925
849.768	0.0151572
849.846	0.0151283
849.924	0.0152161
850.003	0.0152222
850.081	0.0152675
850.159	0.0153414
850.237	0.0153665
850.315	0.0153752
850.393	0.0152789
850.471	0.0154586
850.549	0.0154890
850.628	0.0153477
850.706	0.0151958
850.784	0.0154547
850.862	0.0155344
850.940	0.0154064
851.018	0.0154388
851.096	0.0153600
851.174	0.0154367
851.253	0.0155202
851.331	0.0154362
851.409	0.0154034
851.487	0.0154864
851.565	0.0153056
851.643	0.0154807
851.721	0.0152239
851.799	0.0152793
851.878	0.0152895
851.956	0.0153635
852.034	0.0153560
852.112	0.0153545
852.190	0.0151542
852.268	0.0151304
852.346	0.0152529
852.424	0.0151456
852.503	0.0150885
852.581	0.0151888
852.659	0.0152617
852.737	0.0150465
852.815	0.0148931
852.893	0.0151680
852.971	0.0151022
853.049	0.0151111
853.128	0.0150155
853.206	0.0151570
853.284	0.0149108
853.362	0.0148768
853.440	0.0149834
853.518	0.0148840
853.596	0.0148338
853.674	0.0149342
853.753	0.0148862
853.831	0.0149353
853.909	0.0149288
853.987	0.0150421
854.065	0.0148429
854.143	0.0149441
854.221	0.0150315
854.299	0.0148717
854.378	0.0149815
854.456	0.0149924
854.534	0.0148994
854.612	0.0148262
854.690	0.0149761
854.768	0.0150120
854.846	0.0148511
854.924	0.0149641
855.003	0.0150340
855.081	0.0150159
855.159	0.0151849
855.237	0.0149400
855.315	0.0150341
855.393	0.0152116
855.471	0.0151968
855.549	0.0153159
855.628	0.0152534
855.706	0.0153412
855.784	0.0153189
855.862	0.0153760
855.940	0.0152773
856.018	0.0152733
856.096	0.0153500
856.174	0.0153397
856.253	0.0152574
856.331	0.0153074
856.409	0.0154206
856.487	0.0152164
856.565	0.0152675
856.643	0.0152875
856.721	0.0152428
856.799	0.0152425
856.878	0.0151308
856.956	0.0152462
857.034	0.0153176
857.112	0.0152089
857.190	0.0153011
857.268	0.0153083
857.346	0.0153822
857.424	0.0154253
857.503	0.0153436
857.581	0.0152524
857.659	0.0153382
857.737	0.0152699
857.815	0.0152814
857.893	0.0151826
857.971	0.0153396
858.049	0.0152435
858.128	0.0151984
858.206	0.0152239
858.284	0.0152982
858.362	0.0152020
858.440	0.0151434
858.518	0.0150606
858.596	0.0150327
858.674	0.0151044
858.753	0.0150131
858.831	0.0149419
858.909	0.0149258
858.987	0.0149191
859.065	0.0149182
859.143	0.0148715
859.221	0.0149493
859.299	0.0148082
859.378	0.0148012
859.456	0.0148739
859.534	0.0147750
859.612	0.0148592
859.690	0.0149355
859.768	0.0147814
859.846	0.0148782
859.924	0.0149248
860.003	0.0149305
860.081	0.0150205
860.159	0.0150127
860.237	0.0149270
860.315	0.0149342
860.393	0.0150018
860.471	0.0148152
860.549	0.0150817
860.628	0.0149982
860.706	0.0150498
860.784	0.0149648
860.862	0.0150820
860.940	0.0150109
861.018	0.0151214
861.096	0.0152207
861.174	0.0151198
861.253	0.0153122
861.331	0.0152030
861.409	0.0153979
861.487	0.0154974
861.565	0.0154356
861.643	0.0154994
861.721	0.0154905
861.799	0.0154705
861.878	0.0155370
861.956	0.0154556
862.034	0.0154338
862.112	0.0155237
862.190	0.0155022
862.268	0.0154282
862.346	0.0154103
862.424	0.0154244
862.503	0.0152554
862.581	0.0152618
862.659	0.0152589
862.737	0.0152191
862.815	0.0152593
862.893	0.0152710
862.971	0.0151643
863.049	0.0151878
863.128	0.0150121
863.206	0.0151536
863.284	0.0153018
863.362	0.0151379
863.440	0.0150583
863.518	0.0151778
863.596	0.0151726
863.674	0.0151331
863.753	0.0150145
863.831	0.0152560
863.909	0.0150703
863.987	0.0149625
864.065	0.0149252
864.143	0.0148868
864.221	0.0149885
864.299	0.0149525
864.378	0.0150679
864.456	0.0147750
864.534	0.0146770
864.612	0.0149624
864.690	0.0148077
864.768	0.0147789
864.846	0.0149805
864.924	0.0148851
865.003	0.0148892
865.081	0.0149742
865.159	0.0148953
865.237	0.0150601
865.315	0.0150072
865.393	0.0150429
865.471	0.0150000
865.549	0.0149879
865.628	0.0152015
865.706	0.0152427
865.784	0.0151809
865.862	0.0151674
865.940	0.0150101
866.018	0.0150838
866.096	0.0151286
866.174	0.0151939
866.253	0.0151126
866.331	0.0152978
866.409	0.0150691
866.487	0.0148474
866.565	0.0150845
866.643	0.0151492
866.721	0.0151115
866.799	0.0150423
866.878	0.0151057
866.956	0.0152467
867.034	0.0151564
867.112	0.0153188
867.190	0.0153034
867.268	0.0153374
867.346	0.0153770
867.424	0.0154372
867.503	0.0154005
867.581	0.0154241
867.659	0.0153691
867.737	0.0154719
867.815	0.0154206
867.893	0.0153252
867.971	0.0153395
868.049	0.0154263
868.128	0.0152849
868.206	0.0152962
868.284	0.0153642
868.362	0.0152102
868.440	0.0152802
868.518	0.0153473
868.596	0.0151651
868.674	0.0152074
868.753	0.0153149
868.831	0.0151418
868.909	0.0153782
868.987	0.0152200
869.065	0.0151600
869.143	0.0151930
869.221	0.0152174
869.299	0.0150974
869.378	0.0152411
869.456	0.0152451
869.534	0.0153085
869.612	0.0151904
869.690	0.0152341
869.768	0.0151537
869.846	0.0151451
869.924	0.0149401
870.003	0.0150602
870.081	0.0150378
870.159	0.0150837
870.237	0.0150462
870.315	0.0149812
870.393	0.0148847
870.471	0.0149403
870.549	0.0150542
870.628	0.0150894
870.706	0.0150062
870.784	0.0149180
870.862	0.0150793
870.940	0.0151431
871.018	0.0150848
871.096	0.0150816
871.174	0.0150852
871.253	0.0153087
871.331	0.0150932
871.409	0.0151461
871.487	0.0150158
871.565	0.0150166
871.643	0.0150655
871.721	0.0151214
871.799	0.0151424
871.878	0.0150828
871.956	0.0151604
872.034	0.0152470
872.112	0.0151640
872.190	0.0151241
872.268	0.0153490
872.346	0.0150864
872.424	0.0151703
872.503	0.0151772
872.581	0.0153236
872.659	0.0151268
872.737	0.0151818
872.815	0.0152795
872.893	0.0152637
872.971	0.0152335
873.049	0.0151576
873.128	0.0152778
873.206	0.0153119
873.284	0.0153510
873.362	0.0152343
873.440	0.0152644
873.518	0.0152871
873.596	0.0152275
873.674	0.0151908
873.753	0.0151945
873.831	0.0151125
873.909	0.0151205
873.987	0.0151289
874.065	0.0150439
874.143	0.0150652
874.221	0.0151144
874.299	0.0149472
874.378	0.0149738
874.456	0.0149129
874.534	0.0150412
874.612	0.0149873
874.690	0.0150332
874.768	0.0151414
874.846	0.0150774
874.924	0.0151611
875.003	0.0151012
875.081	0.0152264
875.159	0.0151912
875.237	0.0151320
875.315	0.0151945
875.393	0.0152318
875.471	0.0152077
875.549	0.0151310
875.628	0.0150770
875.706	0.0150232
875.784	0.0150454
875.862	0.0151158
875.940	0.0151124
876.018	0.0150693
876.096	0.0151920
876.174	0.0152560
876.253	0.0151535
876.331	0.0150887
876.409	0.0151694
876.487	0.0151967
876.565	0.0152154
876.643	0.0151990
876.721	0.0152631
876.799	0.0153149
876.878	0.0151677
876.956	0.0152245
877.034	0.0150706
877.112	0.0150122
877.190	0.0152363
877.268	0.0151522
877.346	0.0151267
877.424	0.0151325
877.503	0.0151093
877.581	0.0151154
877.659	0.0150050
877.737	0.0150200
877.815	0.0151798
877.893	0.0150669
877.971	0.0150584
878.049	0.0149602
878.128	0.0149093
878.206	0.0149392
878.284	0.0151362
878.362	0.0149229
878.440	0.0149518
878.518	0.0149467
878.596	0.0149853
878.674	0.0150678
878.753	0.0149875
878.831	0.0150822
878.909	0.0151035
878.987	0.0151116
879.065	0.0151350
879.143	0.0151971
879.221	0.0151787
879.299	0.0151032
879.378	0.0150098
879.456	0.0151944
879.534	0.0153311
879.612	0.0151933
879.690	0.0151527
879.768	0.0150024
879.846	0.0150745
879.924	0.0152072
880.003	0.0151331
880.081	0.0151325
880.159	0.0151814
880.237	0.0150584
880.315	0.0151213
880.393	0.0151517
880.471	0.0151803
880.549	0.0151980
880.628	0.0151617
880.706	0.0151571
880.784	0.0151608
880.862	0.0151488
880.940	0.0150831
881.018	0.0151146
881.096	0.0151231
881.174	0.0151060
881.253	0.0152498
881.331	0.0151862
881.409	0.0151929
881.487	0.0151253
881.565	0.0153716
881.643	0.0151911
881.721	0.0150767
881.799	0.0153059
881.878	0.0153361
881.956	0.0152148
882.034	0.0151783
882.112	0.0153773
882.190	0.0153203
882.268	0.0152777
882.346	0.0151463
882.424	0.0151897
882.503	0.0152798
882.581	0.0153446
882.659	0.0152650
882.737	0.0153440
882.815	0.0151029
882.893	0.0151125
882.971	0.0151678
883.049	0.0151006
883.128	0.0150452
883.206	0.0151093
883.284	0.0150251
883.362	0.0150192
883.440	0.0149192
883.518	0.0149737
883.596	0.0150642
883.674	0.0150768
883.753	0.0150889
883.831	0.0150191
883.909	0.0150092
883.987	0.0149513
884.065	0.0150324
884.143	0.0150262
884.221	0.0151474
884.299	0.0150916
884.378	0.0150483
884.456	0.0150662
884.534	0.0150412
884.612	0.0149378
884.690	0.0149596
884.768	0.0149603
884.846	0.0150263
884.924	0.0150059
885.003	0.0149691
885.081	0.0149445
885.159	0.0150519
885.237	0.0149686
885.315	0.0150336
885.393	0.0148134
885.471	0.0150263
885.549	0.0148848
885.628	0.0150688
885.706	0.0151862
885.784	0.0152064
885.862	0.0151046
885.940	0.0149998
886.018	0.0152500
886.096	0.0152123
886.174	0.0152235
886.253	0.0152777
886.331	0.0153464
886.409	0.0152858
886.487	0.0153677
886.565	0.0153994
886.643	0.0153820
886.721	0.0152966
886.799	0.0153455
886.878	0.0151622
886.956	0.0152288
887.034	0.0152799
887.112	0.0153219
887.190	0.0150971
887.268	0.0151659
887.346	0.0152422
887.424	0.0153870
887.503	0.0151598
887.581	0.0151796
887.659	0.0152578
887.737	0.0151340
887.815	0.0151214
887.893	0.0150655
887.971	0.0150418
888.049	0.0150938
888.128	0.0151269
888.206	0.0149986
888.284	0.0150562
888.362	0.0151698
888.440	0.0151152
888.518	0.0149642
888.596	0.0150397
888.674	0.0150735
888.753	0.0150948
888.831	0.0149993
888.909	0.0149583
888.987	0.0149693
889.065	0.0150912
889.143	0.0150565
889.221	0.0148677
889.299	0.0150422
889.378	0.0149191
889.456	0.0149458
889.534	0.0150920
889.612	0.0150308
889.690	0.0150955
889.768	0.0151057
889.846	0.0151653
889.924	0.0150814
890.003	0.0150977
890.081	0.0150314
890.159	0.0150300
890.237	0.0151221
890.315	0.0150697
890.393	0.0150235
890.471	0.0149358
890.549	0.0149657
890.628	0.0149754
890.706	0.0151184
890.784	0.0149368
890.862	0.0150320
890.940	0.0150263
891.018	0.0149196
891.096	0.0148846
891.174	0.0149788
891.253	0.0151514
891.331	0.0150925
891.409	0.0149462
891.487	0.0151313
891.565	0.0150937
891.643	0.0152345
891.721	0.0151849
891.799	0.0151460
891.878	0.0152832
891.956	0.0153627
892.034	0.0152713
892.112	0.0152647
892.190	0.0152665
892.268	0.0152297
892.346	0.0152979
892.424	0.0152390
892.503	0.0151602
892.581	0.0153074
892.659	0.0152813
892.737	0.0153440
892.815	0.0151994
892.893	0.0153677
892.971	0.0152869
893.049	0.0155288
893.128	0.0154044
893.206	0.0152423
893.284	0.0153251
893.362	0.0152023
893.440	0.0153679
893.518	0.0151554
893.596	0.0152426
893.674	0.0152804
893.753	0.0151147
893.831	0.0151070
893.909	0.0151717
893.987	0.0152060
894.065	0.0152728
894.143	0.0152704
894.221	0.0150803
894.299	0.0149850
894.378	0.0150665
894.456	0.0149422
894.534	0.0149488
894.612	0.0150888
894.690	0.0149705
894.768	0.0150208
894.846	0.0150451
894.924	0.0151003
895.003	0.0149545
895.081	0.0150609
895.159	0.0149943
895.237	0.0148724
895.315	0.0150122
895.393	0.0150503
895.471	0.0150934
895.549	0.0150702
895.628	0.0150280
895.706	0.0150827
895.784	0.0149387
895.862	0.0149928
895.940	0.0149716
896.018	0.0149466
896.096	0.0148622
896.174	0.0149020
896.253	0.0149255
896.331	0.0148383
896.409	0.0147729
896.487	0.0150080
896.565	0.0150517
896.643	0.0148786
896.721	0.0149650
896.799	0.0149911
896.878	0.0151390
896.956	0.0149817
897.034	0.0152354
897.112	0.0152446
897.190	0.0150258
897.268	0.0151029
897.346	0.0151671
897.424	0.0152812
897.503	0.0153735
897.581	0.0153059
897.659	0.0153748
897.737	0.0153948
897.815	0.0154094
897.893	0.0151719
897.971	0.0152917
898.049	0.0152016
898.128	0.0153359
898.206	0.0153265
898.284	0.0153696
898.362	0.0152326
898.440	0.0153443
898.518	0.0154351
898.596	0.0153870
898.674	0.0152727
898.753	0.0153745
898.831	0.0153090
898.909	0.0152116
898.987	0.0152090
899.065	0.0151440
899.143	0.0150948
899.221	0.0152787
899.299	0.0150757
899.378	0.0152406
899.456	0.0149692
899.534	0.0151211
899.612	0.0151438
899.690	0.0151560
899.768	0.0150962
899.846	0.0151225
899.924	0.0151860
900.003	0.0151302
900.081	0.0150685
900.159	0.0150658
900.237	0.0151475
900.315	0.0149968
900.393	0.0151291
900.471	0.0151545
900.549	0.0149906
900.628	0.0150531
900.706	0.0150373
900.784	0.0151039
900.862	0.0151642
900.940	0.0149657
901.018	0.0149281
901.096	0.0151084
901.174	0.0150751
901.253	0.0149925
901.331	0.0150470
901.409	0.0150558
901.487	0.0149361
901.565	0.0150314
901.643	0.0149013
901.721	0.0148441
901.799	0.0149838
901.878	0.0148613
901.956	0.0148581
902.034	0.0148808
902.112	0.0148734
902.190	0.0149665
902.268	0.0148724
902.346	0.0149489
902.424	0.0148253
902.503	0.0150009
902.581	0.0148961
902.659	0.0149644
902.737	0.0150398
902.815	0.0149825
902.893	0.0151612
902.971	0.0151366
903.049	0.0150699
903.128	0.0151897
903.206	0.0152061
903.284	0.0152069
903.362	0.0151169
903.440	0.0152956
903.518	0.0153477
903.596	0.0154260
903.674	0.0154424
903.753	0.0152580
903.831	0.0152675
903.909	0.0153774
903.987	0.0154952
904.065	0.0153221
904.143	0.0153222
904.221	0.0153750
904.299	0.0154710
904.378	0.0153934
904.456	0.0153516
904.534	0.0154587
904.612	0.0153647
904.690	0.0151781
904.768	0.0152435
904.846	0.0152590
904.924	0.0151361
905.003	0.0150822
905.081	0.0150018
905.159	0.0150282
905.237	0.0151157
905.315	0.0150649
905.393	0.0150458
905.471	0.0151342
905.549	0.0150394
905.628	0.0150246
905.706	0.0152156
905.784	0.0151848
905.862	0.0151796
905.940	0.0150652
906.018	0.0151202
906.096	0.0151806
906.174	0.0151494
906.253	0.0151759
906.331	0.0151122
906.409	0.0151772
906.487	0.0151080
906.565	0.0150125
906.643	0.0150152
906.721	0.0149480
906.799	0.0149072
906.878	0.0150041
906.956	0.0151774
907.034	0.0149944
907.112	0.0150052
907.190	0.0149896
907.268	0.0148985
907.346	0.0150527
907.424	0.0150651
907.503	0.0150873
907.581	0.0149596
907.659	0.0150269
907.737	0.0149693
907.815	0.0151626
907.893	0.0150105
907.971	0.0151598
908.049	0.0151422
908.128	0.0150082
908.206	0.0151858
908.284	0.0151626
908.362	0.0150379
908.440	0.0150037
908.518	0.0151818
908.596	0.0151938
908.674	0.0150889
908.753	0.0150809
908.831	0.0151842
908.909	0.0151385
908.987	0.0151054
909.065	0.0152405
909.143	0.0151978
909.221	0.0151874
909.299	0.0152013
909.378	0.0152735
909.456	0.0151598
909.534	0.0152879
909.612	0.0152349
909.690	0.0152313
909.768	0.0153297
909.846	0.0153169
909.924	0.0151929
910.003	0.0150967
910.081	0.0151404
910.159	0.0150172
910.237	0.0152091
910.315	0.0151283
910.393	0.0150784
910.471	0.0151157
910.549	0.0151655
910.628	0.0151895
910.706	0.0150604
910.784	0.0149533
910.862	0.0151229
910.940	0.0150158
911.018	0.0149722
911.096	0.0150594
911.174	0.0151640
911.253	0.0151199
911.331	0.0151375
911.409	0.0150380
911.487	0.0151637
911.565	0.0151325
911.643	0.0152695
911.721	0.0151667
911.799	0.0151559
911.878	0.0151442
911.956	0.0151729
912.034	0.0152133
912.112	0.0151919
912.190	0.0150717
912.268	0.0152159
912.346	0.0152412
912.424	0.0151006
912.503	0.0151416
912.581	0.0151810
912.659	0.0151096
912.737	0.0149676
912.815	0.0151643
912.893	0.0151466
912.971	0.0152591
913.049	0.0150956
913.128	0.0150832
913.206	0.0150808
913.284	0.0149469
913.362	0.0149330
913.440	0.0149656
913.518	0.0151727
913.596	0.0152740
913.674	0.0149972
913.753	0.0150076
913.831	0.0149968
913.909	0.0150785
913.987	0.0150316
914.065	0.0151210
914.143	0.0151135
914.221	0.0151364
914.299	0.0151497
914.378	0.0152045
914.456	0.0153514
914.534	0.0152859
914.612	0.0152943
914.690	0.0153698
914.768	0.0153247
914.846	0.0153632
914.924	0.0152884
915.003	0.0152329
915.081	0.0152737
915.159	0.0151885
915.237	0.0151111
915.315	0.0150835
915.393	0.0151720
915.471	0.0150687
915.549	0.0150396
915.628	0.0150508
915.706	0.0150005
915.784	0.0150655
915.862	0.0151002
915.940	0.0152586
916.018	0.0152316
916.096	0.0151411
916.174	0.0151433
916.253	0.0151746
916.331	0.0150937
916.409	0.0151485
916.487	0.0150989
916.565	0.0151944
916.643	0.0150983
916.721	0.0150208
916.799	0.0151892
916.878	0.0150378
916.956	0.0151361
917.034	0.0150966
917.112	0.0151340
917.190	0.0153083
917.268	0.0151551
917.346	0.0151637
917.424	0.0151600
917.503	0.0150647
917.581	0.0151360
917.659	0.0151574
917.737	0.0151329
917.815	0.0151644
917.893	0.0151750
917.971	0.0150714
918.049	0.0150202
918.128	0.0152456
918.206	0.0150668
918.284	0.0149499
918.362	0.0149311
918.440	0.0149752
918.518	0.0150121
918.596	0.0150975
918.674	0.0150372
918.753	0.0149371
918.831	0.0149020
918.909	0.0150764
918.987	0.0149410
919.065	0.0150266
919.143	0.0149794
919.221	0.0150420
919.299	0.0150343
919.378	0.0151337
919.456	0.0150986
919.534	0.0150111
919.612	0.0151660
919.690	0.0152297
919.768	0.0150802
919.846	0.0150932
919.924	0.0152164
920.003	0.0152667
920.081	0.0152258
920.159	0.0152438
920.237	0.0151344
920.315	0.0153244
920.393	0.0153294
920.471	0.0153642
920.549	0.0151792
920.628	0.0154253
920.706	0.0151975
920.784	0.0153106
920.862	0.0154206
920.940	0.0153517
921.018	0.0152539
921.096	0.0151700
921.174	0.0150955
921.253	0.0152287
921.331	0.0151711
921.409	0.0151806
921.487	0.0151233
921.565	0.0150887
921.643	0.0150720
921.721	0.0151515
921.799	0.0152882
921.878	0.0150653
921.956	0.0150918
922.034	0.0151604
922.112	0.0150291
922.190	0.0150248
922.268	0.0150639
922.346	0.0149100
922.424	0.0150322
922.503	0.0150386
922.581	0.0150966
922.659	0.0151403
922.737	0.0149273
922.815	0.0148503
922.893	0.0149273
922.971	0.0149112
923.049	0.0151304
923.128	0.0150654
923.206	0.0151851
923.284	0.0150301
923.362	0.0149287
923.440	0.0150877
923.518	0.0151009
923.596	0.0150410
923.674	0.0150422
923.753	0.0150625
923.831	0.0150697
923.909	0.0152229
923.987	0.0151706
924.065	0.0151514
924.143	0.0152434
924.221	0.0152828
924.299	0.0153500
924.378	0.0151907
924.456	0.0152543
924.534	0.0151874
924.612	0.0152903
924.690	0.0150676
924.768	0.0152679
924.846	0.0153340
924.924	0.0152290
925.003	0.0153351
925.081	0.0151611
925.159	0.0151389
925.237	0.0151564
925.315	0.0151863
925.393	0.0150954
925.471	0.0151380
925.549	0.0151054
925.628	0.0150879
925.706	0.0150455
925.784	0.0148891
925.862	0.0150558
925.940	0.0149634
926.018	0.0150018
926.096	0.0149434
926.174	0.0149343
926.253	0.0150301
926.331	0.0151348
926.409	0.0150303
926.487	0.0150899
926.565	0.0150822
926.643	0.0150114
926.721	0.0150874
926.799	0.0150551
926.878	0.0150381
926.956	0.0149946
927.034	0.0150815
927.112	0.0152166
927.190	0.0149552
927.268	0.0151792
927.346	0.0152092
927.424	0.0151892
927.503	0.0151150
927.581	0.0151890
927.659	0.0151447
927.737	0.0151421
927.815	0.0152256
927.893	0.0151895
927.971	0.0153559
928.049	0.0152438
928.128	0.0152928
928.206	0.0152351
928.284	0.0151228
928.362	0.0151349
928.440	0.0151257
928.518	0.0151292
928.596	0.0152045
928.674	0.0151326
928.753	0.0151531
928.831	0.0152755
928.909	0.0150376
928.987	0.0151606
929.065	0.0151120
929.143	0.0151363
929.221	0.0151178
929.299	0.0149131
929.378	0.0150329
929.456	0.0149680
929.534	0.0149774
929.612	0.0150427
929.690	0.0150063
929.768	0.0150730
929.846	0.0150523
929.924	0.0150691
930.003	0.0150777
930.081	0.0151079
930.159	0.0150897
930.237	0.0151520
930.315	0.0152161
930.393	0.0150390
930.471	0.0150188
930.549	0.0152444
930.628	0.0150706
930.706	0.0151498
930.784	0.0150800
930.862	0.0152238
930.940	0.0151921
931.018	0.0151318
931.096	0.0152380
931.174	0.0151777
931.253	0.0151279
931.331	0.0152271
931.409	0.0151949
931.487	0.0151015
931.565	0.0150903
931.643	0.0151561
931.721	0.0153560
931.799	0.0152099
931.878	0.0151884
931.956	0.0152068
932.034	0.0150521
932.112	0.0151103
932.190	0.0152022
932.268	0.0152443
932.346	0.0150510
932.424	0.0151912
932.503	0.0152272
932.581	0.0152602
932.659	0.0151383
932.737	0.0151556
932.815	0.0152496
932.893	0.0150706
932.971	0.0151077
933.049	0.0151289
933.128	0.0150908
933.206	0.0150918
933.284	0.0149983
933.362	0.0149971
933.440	0.0151492
933.518	0.0150725
933.596	0.0149953
933.674	0.0151093
933.753	0.0149720
933.831	0.0150797
933.909	0.0152662
933.987	0.0150639
934.065	0.0149699
934.143	0.0150457
934.221	0.0152656
934.299	0.0154063
934.378	0.0152138
934.456	0.0152393
934.534	0.0152452
934.612	0.0153692
934.690	0.0152648
934.768	0.0153806
934.846	0.0153779
934.924	0.0152574
935.003	0.0150317
935.081	0.0150442
935.159	0.0151316
935.237	0.0150880
935.315	0.0151615
935.393	0.0149417
935.471	0.0149978
935.549	0.0149413
935.628	0.0149517
935.706	0.0150231
935.784	0.0151064
935.862	0.0149722
935.940	0.0150279
936.018	0.0151151
936.096	0.0150355
936.174	0.0150617
936.253	0.0150795
936.331	0.0149815
936.409	0.0151135
936.487	0.0151953
936.565	0.0151112
936.643	0.0151688
936.721	0.0152323
936.799	0.0150241
936.878	0.0151446
936.956	0.0151950
937.034	0.0151426
937.112	0.0150318
937.190	0.0151390
937.268	0.0152053
937.346	0.0151724
937.424	0.0150249
937.503	0.0149853
937.581	0.0152839
937.659	0.0151510
937.737	0.0151936
937.815	0.0151682
937.893	0.0151780
937.971	0.0150896
938.049	0.0149953
938.128	0.0151559
938.206	0.0152766
938.284	0.0152606
938.362	0.0151438
938.440	0.0151190
938.518	0.0152084
938.596	0.0150896
938.674	0.0151058
938.753	0.0150671
938.831	0.0148585
938.909	0.0149112
938.987	0.0151038
939.065	0.0149655
939.143	0.0150499
939.221	0.0150108
939.299	0.0150224
939.378	0.0150684
939.456	0.0150597
939.534	0.0150449
939.612	0.0150305
939.690	0.0152069
939.768	0.0152464
939.846	0.0150914
939.924	0.0151215
940.003	0.0151039
940.081	0.0151597
940.159	0.0152795
940.237	0.0151830
940.315	0.0151269
940.393	0.0151675
940.471	0.0151117
940.549	0.0150612
940.628	0.0150902
940.706	0.0150522
940.784	0.0149500
940.862	0.0150853
940.940	0.0150319
941.018	0.0150690
941.096	0.0149471
941.174	0.0150854
941.253	0.0151214
941.331	0.0150648
941.409	0.0151096
941.487	0.0151209
941.565	0.0151210
941.643	0.0151457
941.721	0.0151828
941.799	0.0150848
941.878	0.0150242
941.956	0.0151743
942.034	0.0151598
942.112	0.0151701
942.190	0.0150668
942.268	0.0151936
942.346	0.0151188
942.424	0.0150821
942.503	0.0150577
942.581	0.0152477
942.659	0.0151390
942.737	0.0151737
942.815	0.0150891
942.893	0.0150913
942.971	0.0152299
943.049	0.0153103
943.128	0.0151982
943.206	0.0153011
943.284	0.0152422
943.362	0.0153381
943.440	0.0151793
943.518	0.0151734
943.596	0.0152166
943.674	0.0152751
943.753	0.0151591
943.831	0.0151488
943.909	0.0151575
943.987	0.0151884
944.065	0.0152011
944.143	0.0151307
944.221	0.0151245
944.299	0.0150882
944.378	0.0150570
944.456	0.0150791
944.534	0.0152113
944.612	0.0150186
944.690	0.0149017
944.768	0.0148905
944.846	0.0149608
944.924	0.0150068
945.003	0.0148354
945.081	0.0149225
945.159	0.0150826
945.237	0.0150092
945.315	0.0150911
945.393	0.0150996
945.471	0.0150836
945.549	0.0151569
945.628	0.0151836
945.706	0.0152006
945.784	0.0152818
945.862	0.0151893
945.940	0.0153061
946.018	0.0151315
946.096	0.0150994
946.174	0.0150717
946.253	0.0151006
946.331	0.0152148
946.409	0.0151051
946.487	0.0149181
946.565	0.0150405
946.643	0.0150366
946.721	0.0149340
946.799	0.0150846
946.878	0.0148856
946.956	0.0150565
947.034	0.0149712
947.112	0.0151301
947.190	0.0148940
947.268	0.0149764
947.346	0.0152786
947.424	0.0151991
947.503	0.0151532
947.581	0.0152242
947.659	0.0150780
947.737	0.0151907
947.815	0.0151373
947.893	0.0150825
947.971	0.0150510
948.049	0.0151189
948.128	0.0150766
948.206	0.0151096
948.284	0.0150941
948.362	0.0150968
948.440	0.0149807
948.518	0.0150224
948.596	0.0152174
948.674	0.0151069
948.753	0.0151041
948.831	0.0151829
948.909	0.0151965
948.987	0.0151869
949.065	0.0151311
949.143	0.0152781
949.221	0.0152428
949.299	0.0151925
949.378	0.0151844
949.456	0.0152018
949.534	0.0151780
949.612	0.0152529
949.690	0.0150709
949.768	0.0151647
949.846	0.0149867
949.924	0.0149563
