06/29/2022	22:57:40	Ver.	4.1	UNKNOWN
Optical Delay	630.002507	Delta X		0.078125	Sweeps	1	Scan Rate	0/0
Coordinates	Axis 1	NaN	Axis 2	NaN	Axis 3	NaN	Axis 4	NaN	Axis 5	NaN	Axis 6	0.000000
TX Power	0.000000	RX Power	0.000000

630.003	0.0150620
630.081	0.0150686
630.159	0.0149995
630.237	0.0150822
630.315	0.0150867
630.393	0.0150227
630.471	0.0149863
630.549	0.0152253
630.628	0.0151321
630.706	0.0151667
630.784	0.0150672
630.862	0.0150138
630.940	0.0150910
631.018	0.0151432
631.096	0.0151862
631.174	0.0151164
631.253	0.0151947
631.331	0.0151456
631.409	0.0150531
631.487	0.0150921
631.565	0.0150864
631.643	0.0150800
631.721	0.0150795
631.799	0.0151437
631.878	0.0150437
631.956	0.0150951
632.034	0.0151810
632.112	0.0150370
632.190	0.0151194
632.268	0.0151262
632.346	0.0151214
632.424	0.0150067
632.503	0.0151223
632.581	0.0151378
632.659	0.0150822
632.737	0.0151367
632.815	0.0152003
632.893	0.0150106
632.971	0.0150681
633.049	0.0151534
633.128	0.0151086
633.206	0.0150817
633.284	0.0151682
633.362	0.0151215
633.440	0.0150288
633.518	0.0150143
633.596	0.0150780
633.674	0.0150304
633.753	0.0151508
633.831	0.0151232
633.909	0.0150776
633.987	0.0151408
634.065	0.0150929
634.143	0.0151004
634.221	0.0151927
634.299	0.0150466
634.378	0.0150929
634.456	0.0149854
634.534	0.0150597
634.612	0.0150500
634.690	0.0151241
634.768	0.0150628
634.846	0.0151670
634.924	0.0152892
635.003	0.0151335
635.081	0.0152438
635.159	0.0150417
635.237	0.0150623
635.315	0.0151357
635.393	0.0152774
635.471	0.0151177
635.549	0.0150986
635.628	0.0150453
635.706	0.0151492
635.784	0.0150508
635.862	0.0150063
635.940	0.0151158
636.018	0.0150749
636.096	0.0150574
636.174	0.0151397
636.253	0.0151250
636.331	0.0151855
636.409	0.0150401
636.487	0.0151260
636.565	0.0150927
636.643	0.0151943
636.721	0.0150462
636.799	0.0149961
636.878	0.0149751
636.956	0.0151892
637.034	0.0150584
637.112	0.0152628
637.190	0.0150163
637.268	0.0150555
637.346	0.0152161
637.424	0.0150877
637.503	0.0151406
637.581	0.0151414
637.659	0.0149846
637.737	0.0149524
637.815	0.0150263
637.893	0.0150967
637.971	0.0150863
638.049	0.0150638
638.128	0.0149861
638.206	0.0151438
638.284	0.0151146
638.362	0.0150432
638.440	0.0149952
638.518	0.0151295
638.596	0.0151877
638.674	0.0151089
638.753	0.0150475
638.831	0.0150636
638.909	0.0151834
638.987	0.0152163
639.065	0.0150345
639.143	0.0149935
639.221	0.0150625
639.299	0.0151248
639.378	0.0150404
639.456	0.0150501
639.534	0.0150754
639.612	0.0152888
639.690	0.0151500
639.768	0.0150330
639.846	0.0151534
639.924	0.0150940
640.003	0.0150062
640.081	0.0151009
640.159	0.0150085
640.237	0.0149715
640.315	0.0150789
640.393	0.0151740
640.471	0.0150922
640.549	0.0150748
640.628	0.0150725
640.706	0.0151206
640.784	0.0152293
640.862	0.0149509
640.940	0.0149071
641.018	0.0151129
641.096	0.0150939
641.174	0.0150613
641.253	0.0150327
641.331	0.0149188
641.409	0.0149306
641.487	0.0150609
641.565	0.0150933
641.643	0.0151343
641.721	0.0152362
641.799	0.0151131
641.878	0.0151191
641.956	0.0149934
642.034	0.0150934
642.112	0.0150379
642.190	0.0149647
642.268	0.0150321
642.346	0.0150708
642.424	0.0151707
642.503	0.0150817
642.581	0.0151685
642.659	0.0149740
642.737	0.0149363
642.815	0.0151531
642.893	0.0150209
642.971	0.0151437
643.049	0.0150752
643.128	0.0150574
643.206	0.0149792
643.284	0.0150701
643.362	0.0152302
643.440	0.0150672
643.518	0.0150900
643.596	0.0150795
643.674	0.0151077
643.753	0.0151805
643.831	0.0150954
643.909	0.0149911
643.987	0.0150800
644.065	0.0150901
644.143	0.0150338
644.221	0.0149799
644.299	0.0151154
644.378	0.0150376
644.456	0.0151234
644.534	0.0150869
644.612	0.0151063
644.690	0.0151860
644.768	0.0150948
644.846	0.0150089
644.924	0.0150027
645.003	0.0150506
645.081	0.0151656
645.159	0.0151451
645.237	0.0149769
645.315	0.0151457
645.393	0.0150906
645.471	0.0149365
645.549	0.0150443
645.628	0.0152917
645.706	0.0150700
645.784	0.0149985
645.862	0.0151543
645.940	0.0151569
646.018	0.0149966
646.096	0.0152533
646.174	0.0150285
646.253	0.0149982
646.331	0.0151028
646.409	0.0149718
646.487	0.0149395
646.565	0.0150838
646.643	0.0150479
646.721	0.0149491
646.799	0.0150478
646.878	0.0151356
646.956	0.0151224
647.034	0.0150723
647.112	0.0151314
647.190	0.0150226
647.268	0.0150143
647.346	0.0149915
647.424	0.0148692
647.503	0.0149617
647.581	0.0151134
647.659	0.0149690
647.737	0.0149743
647.815	0.0150514
647.893	0.0150539
647.971	0.0150657
648.049	0.0150690
648.128	0.0150187
648.206	0.0149310
648.284	0.0149464
648.362	0.0150730
648.440	0.0149126
648.518	0.0150090
648.596	0.0150385
648.674	0.0150191
648.753	0.0149292
648.831	0.0150800
648.909	0.0150903
648.987	0.0151187
649.065	0.0149525
649.143	0.0150008
649.221	0.0150007
649.299	0.0149084
649.378	0.0150713
649.456	0.0150494
649.534	0.0149782
649.612	0.0150172
649.690	0.0149709
649.768	0.0151334
649.846	0.0150099
649.924	0.0150846
650.003	0.0150570
650.081	0.0151264
650.159	0.0149921
650.237	0.0150697
650.315	0.0151859
650.393	0.0149592
650.471	0.0151180
650.549	0.0150981
650.628	0.0149100
650.706	0.0151000
650.784	0.0150795
650.862	0.0150478
650.940	0.0149997
651.018	0.0149949
651.096	0.0150343
651.174	0.0150232
651.253	0.0151291
651.331	0.0150425
651.409	0.0150358
651.487	0.0150711
651.565	0.0151220
651.643	0.0149846
651.721	0.0151292
651.799	0.0151208
651.878	0.0148730
651.956	0.0148477
652.034	0.0149538
652.112	0.0150327
652.190	0.0152434
652.268	0.0150191
652.346	0.0151459
652.424	0.0150389
652.503	0.0151020
652.581	0.0150903
652.659	0.0149689
652.737	0.0149126
652.815	0.0149843
652.893	0.0151752
652.971	0.0150620
653.049	0.0150049
653.128	0.0150857
653.206	0.0151377
653.284	0.0151438
653.362	0.0150693
653.440	0.0150470
653.518	0.0150555
653.596	0.0149886
653.674	0.0150404
653.753	0.0150197
653.831	0.0150154
653.909	0.0149191
653.987	0.0150042
654.065	0.0151110
654.143	0.0150371
654.221	0.0150986
654.299	0.0150963
654.378	0.0151094
654.456	0.0150546
654.534	0.0150420
654.612	0.0151765
654.690	0.0150478
654.768	0.0150391
654.846	0.0150142
654.924	0.0151581
655.003	0.0152249
655.081	0.0151064
655.159	0.0151838
655.237	0.0150475
655.315	0.0151334
655.393	0.0149843
655.471	0.0150736
655.549	0.0150128
655.628	0.0149400
655.706	0.0149992
655.784	0.0151731
655.862	0.0150698
655.940	0.0151268
656.018	0.0149357
656.096	0.0148752
656.174	0.0150861
656.253	0.0150291
656.331	0.0150829
656.409	0.0150057
656.487	0.0150079
656.565	0.0150199
656.643	0.0150648
656.721	0.0149926
656.799	0.0150426
656.878	0.0149453
656.956	0.0150867
657.034	0.0150697
657.112	0.0150236
657.190	0.0149925
657.268	0.0150397
657.346	0.0151446
657.424	0.0151624
657.503	0.0150882
657.581	0.0149706
657.659	0.0150205
657.737	0.0149828
657.815	0.0150507
657.893	0.0149960
657.971	0.0149432
658.049	0.0150753
658.128	0.0151386
658.206	0.0151994
658.284	0.0150872
658.362	0.0149194
658.440	0.0150428
658.518	0.0151321
658.596	0.0151529
658.674	0.0150610
658.753	0.0150154
658.831	0.0150819
658.909	0.0152658
658.987	0.0151207
659.065	0.0149687
659.143	0.0151887
659.221	0.0149973
659.299	0.0150491
659.378	0.0151964
659.456	0.0152302
659.534	0.0149883
659.612	0.0150945
659.690	0.0151276
659.768	0.0150785
659.846	0.0150430
659.924	0.0150998
660.003	0.0151121
660.081	0.0150258
660.159	0.0150691
660.237	0.0152385
660.315	0.0150881
660.393	0.0150444
660.471	0.0151054
660.549	0.0150253
660.628	0.0150305
660.706	0.0150351
660.784	0.0150847
660.862	0.0150407
660.940	0.0149512
661.018	0.0150757
661.096	0.0150597
661.174	0.0149771
661.253	0.0149678
661.331	0.0150269
661.409	0.0149857
661.487	0.0150491
661.565	0.0151271
661.643	0.0150187
661.721	0.0150795
661.799	0.0151125
661.878	0.0152006
661.956	0.0151851
662.034	0.0151008
662.112	0.0150639
662.190	0.0150361
662.268	0.0150499
662.346	0.0150571
662.424	0.0150336
662.503	0.0151015
662.581	0.0150584
662.659	0.0150220
662.737	0.0151028
662.815	0.0151109
662.893	0.0151527
662.971	0.0150167
663.049	0.0149738
663.128	0.0150294
663.206	0.0150031
663.284	0.0150993
663.362	0.0150251
663.440	0.0149699
663.518	0.0151109
663.596	0.0151142
663.674	0.0150944
663.753	0.0149519
663.831	0.0151108
663.909	0.0149676
663.987	0.0151781
664.065	0.0149516
664.143	0.0149418
664.221	0.0150215
664.299	0.0151147
664.378	0.0151603
664.456	0.0150163
664.534	0.0150338
664.612	0.0150475
664.690	0.0150352
664.768	0.0150591
664.846	0.0150193
664.924	0.0150233
665.003	0.0151115
665.081	0.0150957
665.159	0.0150466
665.237	0.0149983
665.315	0.0149824
665.393	0.0152164
665.471	0.0150154
665.549	0.0150686
665.628	0.0148597
665.706	0.0149862
665.784	0.0150336
665.862	0.0150327
665.940	0.0151006
666.018	0.0152215
666.096	0.0149197
666.174	0.0150309
666.253	0.0150417
666.331	0.0151041
666.409	0.0150015
666.487	0.0150291
666.565	0.0151420
666.643	0.0149022
666.721	0.0150253
666.799	0.0149918
666.878	0.0151184
666.956	0.0150184
667.034	0.0150684
667.112	0.0150232
667.190	0.0151208
667.268	0.0149997
667.346	0.0149845
667.424	0.0150673
667.503	0.0149855
667.581	0.0149948
667.659	0.0150979
667.737	0.0150592
667.815	0.0150663
667.893	0.0150768
667.971	0.0150255
668.049	0.0150603
668.128	0.0150595
668.206	0.0151405
668.284	0.0151128
668.362	0.0151820
668.440	0.0150708
668.518	0.0150158
668.596	0.0151018
668.674	0.0150382
668.753	0.0151816
668.831	0.0149530
668.909	0.0152119
668.987	0.0151174
669.065	0.0150223
669.143	0.0149921
669.221	0.0150829
669.299	0.0150314
669.378	0.0150613
669.456	0.0150877
669.534	0.0150336
669.612	0.0151006
669.690	0.0151273
669.768	0.0150311
669.846	0.0151778
669.924	0.0150960
670.003	0.0149899
670.081	0.0151084
670.159	0.0150638
670.237	0.0150174
670.315	0.0151312
670.393	0.0151360
670.471	0.0151333
670.549	0.0150077
670.628	0.0149422
670.706	0.0151022
670.784	0.0151069
670.862	0.0151333
670.940	0.0151476
671.018	0.0150388
671.096	0.0150550
671.174	0.0152576
671.253	0.0149860
671.331	0.0150677
671.409	0.0150184
671.487	0.0150002
671.565	0.0148345
671.643	0.0150757
671.721	0.0150991
671.799	0.0150497
671.878	0.0152492
671.956	0.0150460
672.034	0.0150749
672.112	0.0151170
672.190	0.0150729
672.268	0.0150473
672.346	0.0150997
672.424	0.0151263
672.503	0.0151059
672.581	0.0150897
672.659	0.0150662
672.737	0.0150642
672.815	0.0150523
672.893	0.0150801
672.971	0.0150317
673.049	0.0150536
673.128	0.0150349
673.206	0.0150273
673.284	0.0150069
673.362	0.0151699
673.440	0.0149854
673.518	0.0150826
673.596	0.0151510
673.674	0.0150564
673.753	0.0150206
673.831	0.0150307
673.909	0.0151175
673.987	0.0150980
674.065	0.0151463
674.143	0.0150511
674.221	0.0150952
674.299	0.0150541
674.378	0.0150789
674.456	0.0151894
674.534	0.0151452
674.612	0.0149389
674.690	0.0150034
674.768	0.0150996
674.846	0.0152023
674.924	0.0151048
675.003	0.0150455
675.081	0.0150773
675.159	0.0150473
675.237	0.0150006
675.315	0.0150163
675.393	0.0150885
675.471	0.0149756
675.549	0.0150632
675.628	0.0149764
675.706	0.0150574
675.784	0.0150749
675.862	0.0150908
675.940	0.0150630
676.018	0.0150523
676.096	0.0150372
676.174	0.0151386
676.253	0.0150446
676.331	0.0148888
676.409	0.0150449
676.487	0.0150128
676.565	0.0150842
676.643	0.0149648
676.721	0.0149241
676.799	0.0152357
676.878	0.0150650
676.956	0.0149911
677.034	0.0150569
677.112	0.0151110
677.190	0.0149808
677.268	0.0150777
677.346	0.0150510
677.424	0.0150327
677.503	0.0149884
677.581	0.0150350
677.659	0.0151637
677.737	0.0150871
677.815	0.0149342
677.893	0.0149961
677.971	0.0150530
678.049	0.0150050
678.128	0.0149611
678.206	0.0150916
678.284	0.0150990
678.362	0.0149826
678.440	0.0150880
678.518	0.0149943
678.596	0.0149844
678.674	0.0150309
678.753	0.0150739
678.831	0.0149844
678.909	0.0150295
678.987	0.0151016
679.065	0.0149174
679.143	0.0150010
679.221	0.0150955
679.299	0.0150846
679.378	0.0150951
679.456	0.0150658
679.534	0.0150835
679.612	0.0150057
679.690	0.0149499
679.768	0.0150256
679.846	0.0150497
679.924	0.0149282
680.003	0.0149649
680.081	0.0149110
680.159	0.0151454
680.237	0.0151675
680.315	0.0150755
680.393	0.0150184
680.471	0.0151228
680.549	0.0149934
680.628	0.0150502
680.706	0.0151192
680.784	0.0149741
680.862	0.0150420
680.940	0.0150352
681.018	0.0150066
681.096	0.0149877
681.174	0.0149783
681.253	0.0150780
681.331	0.0150244
681.409	0.0151402
681.487	0.0151292
681.565	0.0150871
681.643	0.0151273
681.721	0.0150892
681.799	0.0150600
681.878	0.0150916
681.956	0.0150824
682.034	0.0150012
682.112	0.0151479
682.190	0.0149818
682.268	0.0150079
682.346	0.0149325
682.424	0.0150687
682.503	0.0150102
682.581	0.0150808
682.659	0.0149929
682.737	0.0151305
682.815	0.0150266
682.893	0.0150826
682.971	0.0149301
683.049	0.0150410
683.128	0.0151221
683.206	0.0149090
683.284	0.0149477
683.362	0.0149715
683.440	0.0149657
683.518	0.0151357
683.596	0.0150242
683.674	0.0150618
683.753	0.0149932
683.831	0.0150331
683.909	0.0150983
683.987	0.0151928
684.065	0.0150864
684.143	0.0151395
684.221	0.0150793
684.299	0.0151362
684.378	0.0150106
684.456	0.0149663
684.534	0.0150907
684.612	0.0150586
684.690	0.0151543
684.768	0.0150378
684.846	0.0152202
684.924	0.0151254
685.003	0.0150125
685.081	0.0151147
685.159	0.0149940
685.237	0.0150017
685.315	0.0150903
685.393	0.0151277
685.471	0.0150601
685.549	0.0152249
685.628	0.0150654
685.706	0.0150368
685.784	0.0151472
685.862	0.0150580
685.940	0.0150510
686.018	0.0151469
686.096	0.0151007
686.174	0.0151118
686.253	0.0151207
686.331	0.0152351
686.409	0.0151122
686.487	0.0150959
686.565	0.0150859
686.643	0.0150485
686.721	0.0150539
686.799	0.0151398
686.878	0.0151723
686.956	0.0151537
687.034	0.0150761
687.112	0.0150990
687.190	0.0151069
687.268	0.0150461
687.346	0.0151642
687.424	0.0151015
687.503	0.0152241
687.581	0.0152078
687.659	0.0150373
687.737	0.0150198
687.815	0.0149870
687.893	0.0149885
687.971	0.0149007
688.049	0.0149133
688.128	0.0150732
688.206	0.0149082
688.284	0.0151650
688.362	0.0151071
688.440	0.0150802
688.518	0.0150303
688.596	0.0150407
688.674	0.0150101
688.753	0.0150488
688.831	0.0151344
688.909	0.0150325
688.987	0.0149918
689.065	0.0150892
689.143	0.0150096
689.221	0.0149907
689.299	0.0150356
689.378	0.0149954
689.456	0.0149760
689.534	0.0150642
689.612	0.0151134
689.690	0.0151244
689.768	0.0150310
689.846	0.0151107
689.924	0.0149831
690.003	0.0150340
690.081	0.0149683
690.159	0.0151142
690.237	0.0151125
690.315	0.0150748
690.393	0.0149841
690.471	0.0151253
690.549	0.0151984
690.628	0.0150025
690.706	0.0148988
690.784	0.0150530
690.862	0.0152336
690.940	0.0151006
691.018	0.0151321
691.096	0.0150365
691.174	0.0150669
691.253	0.0150829
691.331	0.0150868
691.409	0.0151034
691.487	0.0152766
691.565	0.0151696
691.643	0.0151674
691.721	0.0152714
691.799	0.0150861
691.878	0.0149029
691.956	0.0150246
692.034	0.0151240
692.112	0.0150350
692.190	0.0151289
692.268	0.0151776
692.346	0.0152309
692.424	0.0150827
692.503	0.0151601
692.581	0.0150078
692.659	0.0151936
692.737	0.0150533
692.815	0.0152091
692.893	0.0149755
692.971	0.0150378
693.049	0.0151741
693.128	0.0149654
693.206	0.0148794
693.284	0.0149268
693.362	0.0149301
693.440	0.0148376
693.518	0.0149683
693.596	0.0149372
693.674	0.0149870
693.753	0.0150102
693.831	0.0148898
693.909	0.0148705
693.987	0.0150594
694.065	0.0151311
694.143	0.0150471
694.221	0.0150968
694.299	0.0150892
694.378	0.0150792
694.456	0.0152481
694.534	0.0152865
694.612	0.0152424
694.690	0.0153707
694.768	0.0152232
694.846	0.0151309
694.924	0.0151383
695.003	0.0151290
695.081	0.0150829
695.159	0.0148403
695.237	0.0147454
695.315	0.0148750
695.393	0.0147153
695.471	0.0148775
695.549	0.0149664
695.628	0.0149699
695.706	0.0149878
695.784	0.0150845
695.862	0.0153024
695.940	0.0155250
696.018	0.0153534
696.096	0.0154346
696.174	0.0154495
696.253	0.0152795
696.331	0.0152103
696.409	0.0151313
696.487	0.0150272
696.565	0.0148453
696.643	0.0149294
696.721	0.0149405
696.799	0.0145773
696.878	0.0146949
696.956	0.0146551
697.034	0.0146252
697.112	0.0147145
697.190	0.0149027
697.268	0.0150915
697.346	0.0152225
697.424	0.0152021
697.503	0.0152885
697.581	0.0156566
697.659	0.0155853
697.737	0.0154649
697.815	0.0154646
697.893	0.0154518
697.971	0.0153925
698.049	0.0152930
698.128	0.0150726
698.206	0.0150761
698.284	0.0149279
698.362	0.0149093
698.440	0.0148186
698.518	0.0147629
698.596	0.0146804
698.674	0.0146387
698.753	0.0145627
698.831	0.0148678
698.909	0.0149751
698.987	0.0151141
699.065	0.0150825
699.143	0.0152830
699.221	0.0155460
699.299	0.0155585
699.378	0.0154775
699.456	0.0155603
699.534	0.0156405
699.612	0.0154011
699.690	0.0153087
699.768	0.0152413
699.846	0.0150474
699.924	0.0149566
700.003	0.0147968
700.081	0.0146432
700.159	0.0147717
700.237	0.0147015
700.315	0.0146909
700.393	0.0148214
700.471	0.0148900
700.549	0.0149059
700.628	0.0149622
700.706	0.0150981
700.784	0.0151916
700.862	0.0152634
700.940	0.0152512
701.018	0.0151494
701.096	0.0150167
701.174	0.0151701
701.253	0.0153945
701.331	0.0153452
701.409	0.0152740
701.487	0.0153592
701.565	0.0153447
701.643	0.0153033
701.721	0.0152589
701.799	0.0150434
701.878	0.0150405
701.956	0.0149000
702.034	0.0149353
702.112	0.0146808
702.190	0.0146671
702.268	0.0146635
702.346	0.0146175
702.424	0.0147768
702.503	0.0148505
702.581	0.0149101
702.659	0.0150074
702.737	0.0151195
702.815	0.0152365
702.893	0.0153713
702.971	0.0155598
703.049	0.0155022
703.128	0.0156674
703.206	0.0155807
703.284	0.0154214
703.362	0.0151974
703.440	0.0152892
703.518	0.0152579
703.596	0.0150543
703.674	0.0149461
703.753	0.0146926
703.831	0.0145759
703.909	0.0147704
703.987	0.0146628
704.065	0.0146799
704.143	0.0147114
704.221	0.0148682
704.299	0.0147594
704.378	0.0148873
704.456	0.0150681
704.534	0.0150583
704.612	0.0151284
704.690	0.0153778
704.768	0.0152855
704.846	0.0153752
704.924	0.0152670
705.003	0.0154531
705.081	0.0154752
705.159	0.0154600
705.237	0.0154417
705.315	0.0152972
705.393	0.0152721
705.471	0.0151672
705.549	0.0149989
705.628	0.0148206
705.706	0.0149274
705.784	0.0146191
705.862	0.0146424
705.940	0.0146906
706.018	0.0146857
706.096	0.0145999
706.174	0.0148875
706.253	0.0148640
706.331	0.0149864
706.409	0.0150813
706.487	0.0150681
706.565	0.0149365
706.643	0.0152307
706.721	0.0153722
706.799	0.0154789
706.878	0.0154391
706.956	0.0154351
707.034	0.0155925
707.112	0.0156245
707.190	0.0153735
707.268	0.0153672
707.346	0.0151802
707.424	0.0150108
707.503	0.0150069
707.581	0.0148785
707.659	0.0147795
707.737	0.0145471
707.815	0.0144411
707.893	0.0144860
707.971	0.0144170
708.049	0.0144643
708.128	0.0145693
708.206	0.0147542
708.284	0.0147287
708.362	0.0149705
708.440	0.0154043
708.518	0.0153214
708.596	0.0154699
708.674	0.0156834
708.753	0.0156815
708.831	0.0156470
708.909	0.0154988
708.987	0.0154687
709.065	0.0154763
709.143	0.0152863
709.221	0.0150758
709.299	0.0149097
709.378	0.0148204
709.456	0.0147075
709.534	0.0145587
709.612	0.0144947
709.690	0.0145387
709.768	0.0147044
709.846	0.0146847
709.924	0.0149332
710.003	0.0149520
710.081	0.0151453
710.159	0.0153436
710.237	0.0154652
710.315	0.0153043
710.393	0.0155827
710.471	0.0154077
710.549	0.0151952
710.628	0.0153210
710.706	0.0151971
710.784	0.0149475
710.862	0.0149619
710.940	0.0146321
711.018	0.0145934
711.096	0.0145724
711.174	0.0145983
711.253	0.0146928
711.331	0.0148393
711.409	0.0149654
711.487	0.0150938
711.565	0.0152078
711.643	0.0153959
711.721	0.0155074
711.799	0.0156481
711.878	0.0155126
711.956	0.0155460
712.034	0.0155150
712.112	0.0153110
712.190	0.0152421
712.268	0.0150798
712.346	0.0150597
712.424	0.0148145
712.503	0.0147569
712.581	0.0144450
712.659	0.0146445
712.737	0.0147269
712.815	0.0145998
712.893	0.0146586
712.971	0.0147790
713.049	0.0150211
713.128	0.0151067
713.206	0.0153349
713.284	0.0153159
713.362	0.0155593
713.440	0.0156230
713.518	0.0157567
713.596	0.0156322
713.674	0.0155940
713.753	0.0153120
713.831	0.0152747
713.909	0.0151186
713.987	0.0149664
714.065	0.0150303
714.143	0.0149615
714.221	0.0148344
714.299	0.0147867
714.378	0.0149123
714.456	0.0146271
714.534	0.0148560
714.612	0.0149210
714.690	0.0149476
714.768	0.0149998
714.846	0.0150907
714.924	0.0150112
715.003	0.0150753
715.081	0.0148717
715.159	0.0149754
715.237	0.0150780
715.315	0.0148846
715.393	0.0148492
715.471	0.0149850
715.549	0.0150735
715.628	0.0150509
715.706	0.0151054
715.784	0.0151012
715.862	0.0152265
715.940	0.0152442
716.018	0.0151142
716.096	0.0150431
716.174	0.0149344
716.253	0.0148486
716.331	0.0148689
716.409	0.0147099
716.487	0.0149464
716.565	0.0148987
716.643	0.0149927
716.721	0.0148872
716.799	0.0151524
716.878	0.0150274
716.956	0.0152747
717.034	0.0154060
717.112	0.0154151
717.190	0.0154114
717.268	0.0152600
717.346	0.0156397
717.424	0.0154619
717.503	0.0153105
717.581	0.0151061
717.659	0.0151220
717.737	0.0149180
717.815	0.0148341
717.893	0.0147770
717.971	0.0145954
718.049	0.0146966
718.128	0.0146897
718.206	0.0147843
718.284	0.0147633
718.362	0.0148793
718.440	0.0151127
718.518	0.0150743
718.596	0.0152952
718.674	0.0153750
718.753	0.0153400
718.831	0.0154725
718.909	0.0155038
718.987	0.0155085
719.065	0.0153298
719.143	0.0152824
719.221	0.0151937
719.299	0.0149836
719.378	0.0148886
719.456	0.0148978
719.534	0.0146786
719.612	0.0146188
719.690	0.0145808
719.768	0.0144408
719.846	0.0143563
719.924	0.0143224
720.003	0.0143952
720.081	0.0144794
720.159	0.0145256
720.237	0.0145667
720.315	0.0145005
720.393	0.0147399
720.471	0.0149321
720.549	0.0150451
720.628	0.0152696
720.706	0.0154663
720.784	0.0156597
720.862	0.0158168
720.940	0.0159147
721.018	0.0159624
721.096	0.0159816
721.174	0.0158751
721.253	0.0157854
721.331	0.0156193
721.409	0.0153244
721.487	0.0151975
721.565	0.0149409
721.643	0.0150194
721.721	0.0149574
721.799	0.0147558
721.878	0.0145959
721.956	0.0146361
722.034	0.0146936
722.112	0.0147491
722.190	0.0146866
722.268	0.0148701
722.346	0.0148570
722.424	0.0147915
722.503	0.0148137
722.581	0.0148050
722.659	0.0150596
722.737	0.0150881
722.815	0.0151763
722.893	0.0155615
722.971	0.0155813
723.049	0.0156110
723.128	0.0157518
723.206	0.0158902
723.284	0.0158672
723.362	0.0159261
723.440	0.0158508
723.518	0.0156566
723.596	0.0156437
723.674	0.0155756
723.753	0.0153450
723.831	0.0153762
723.909	0.0151692
723.987	0.0150286
724.065	0.0149619
724.143	0.0147772
724.221	0.0147810
724.299	0.0146181
724.378	0.0144949
724.456	0.0144438
724.534	0.0145444
724.612	0.0143507
724.690	0.0144037
724.768	0.0142956
724.846	0.0143471
724.924	0.0144832
725.003	0.0144325
725.081	0.0143419
725.159	0.0143327
725.237	0.0143771
725.315	0.0144613
725.393	0.0145215
725.471	0.0146271
725.549	0.0145900
725.628	0.0148022
725.706	0.0148775
725.784	0.0149979
725.862	0.0151811
725.940	0.0153191
726.018	0.0155737
726.096	0.0157121
726.174	0.0157785
726.253	0.0160139
726.331	0.0160634
726.409	0.0161575
726.487	0.0162100
726.565	0.0161497
726.643	0.0160387
726.721	0.0160399
726.799	0.0160155
726.878	0.0157923
726.956	0.0158450
727.034	0.0155559
727.112	0.0156104
727.190	0.0154068
727.268	0.0152643
727.346	0.0150527
727.424	0.0150606
727.503	0.0149165
727.581	0.0147832
727.659	0.0146587
727.737	0.0144179
727.815	0.0143778
727.893	0.0144775
727.971	0.0143466
728.049	0.0142870
728.128	0.0143002
728.206	0.0142973
728.284	0.0142683
728.362	0.0143613
728.440	0.0143859
728.518	0.0144772
728.596	0.0144974
728.674	0.0145461
728.753	0.0145456
728.831	0.0147723
728.909	0.0148951
728.987	0.0146833
729.065	0.0147168
729.143	0.0149157
729.221	0.0151315
729.299	0.0151329
729.378	0.0151580
729.456	0.0153920
729.534	0.0153498
729.612	0.0154026
729.690	0.0155333
729.768	0.0156168
729.846	0.0158116
729.924	0.0157307
730.003	0.0156867
730.081	0.0158057
730.159	0.0158311
730.237	0.0158267
730.315	0.0157915
730.393	0.0156975
730.471	0.0157927
730.549	0.0157503
730.628	0.0156918
730.706	0.0156036
730.784	0.0155663
730.862	0.0154585
730.940	0.0152406
731.018	0.0151256
731.096	0.0149653
731.174	0.0148627
731.253	0.0147108
731.331	0.0144878
731.409	0.0141380
731.487	0.0138990
731.565	0.0138937
731.643	0.0136815
731.721	0.0134641
731.799	0.0134562
731.878	0.0133923
731.956	0.0133418
732.034	0.0132310
732.112	0.0135256
732.190	0.0135762
732.268	0.0137166
732.346	0.0140849
732.424	0.0142475
732.503	0.0143964
732.581	0.0146207
732.659	0.0149763
732.737	0.0152251
732.815	0.0153172
732.893	0.0156145
732.971	0.0156382
733.049	0.0160117
733.128	0.0162060
733.206	0.0164012
733.284	0.0166415
733.362	0.0166232
733.440	0.0168845
733.518	0.0169894
733.596	0.0170486
733.674	0.0170826
733.753	0.0172303
733.831	0.0172632
733.909	0.0172211
733.987	0.0171301
734.065	0.0171441
734.143	0.0169991
734.221	0.0167429
734.299	0.0166366
734.378	0.0163994
734.456	0.0160931
734.534	0.0157267
734.612	0.0154136
734.690	0.0152047
734.768	0.0147101
734.846	0.0142673
734.924	0.0140147
735.003	0.0135280
735.081	0.0132416
735.159	0.0132204
735.237	0.0128165
735.315	0.0126162
735.393	0.0126363
735.471	0.0124181
735.549	0.0124723
735.628	0.0125642
735.706	0.0126708
735.784	0.0126668
735.862	0.0128393
735.940	0.0131374
736.018	0.0134241
736.096	0.0136250
736.174	0.0138006
736.253	0.0141173
736.331	0.0145675
736.409	0.0147237
736.487	0.0150740
736.565	0.0153165
736.643	0.0154972
736.721	0.0157661
736.799	0.0159136
736.878	0.0159928
736.956	0.0162846
737.034	0.0162134
737.112	0.0163958
737.190	0.0162783
737.268	0.0163256
737.346	0.0164252
737.424	0.0163821
737.503	0.0163885
737.581	0.0162810
737.659	0.0163012
737.737	0.0163955
737.815	0.0162483
737.893	0.0162287
737.971	0.0159835
738.049	0.0159071
738.128	0.0158580
738.206	0.0158050
738.284	0.0156488
738.362	0.0156998
738.440	0.0156181
738.518	0.0155328
738.596	0.0154866
738.674	0.0153857
738.753	0.0154683
738.831	0.0153244
738.909	0.0153374
738.987	0.0152742
739.065	0.0152776
739.143	0.0151390
739.221	0.0152786
739.299	0.0152693
739.378	0.0151479
739.456	0.0150444
739.534	0.0149849
739.612	0.0151521
739.690	0.0149361
739.768	0.0150244
739.846	0.0149411
739.924	0.0148759
740.003	0.0148229
740.081	0.0147470
740.159	0.0147421
740.237	0.0146735
740.315	0.0146040
740.393	0.0144265
740.471	0.0143525
740.549	0.0143023
740.628	0.0143723
740.706	0.0142901
740.784	0.0140810
740.862	0.0140868
740.940	0.0140533
741.018	0.0138206
741.096	0.0138039
741.174	0.0137448
741.253	0.0136897
741.331	0.0136816
741.409	0.0137896
741.487	0.0138477
741.565	0.0136739
741.643	0.0140029
741.721	0.0141858
741.799	0.0142373
741.878	0.0145305
741.956	0.0146088
742.034	0.0148483
742.112	0.0152062
742.190	0.0154512
742.268	0.0154961
742.346	0.0157708
742.424	0.0160603
742.503	0.0162566
742.581	0.0163503
742.659	0.0162830
742.737	0.0164805
742.815	0.0166064
742.893	0.0165810
742.971	0.0166650
743.049	0.0163617
743.128	0.0163445
743.206	0.0164426
743.284	0.0163015
743.362	0.0160384
743.440	0.0159822
743.518	0.0158774
743.596	0.0156017
743.674	0.0152493
743.753	0.0151492
743.831	0.0149700
743.909	0.0148431
743.987	0.0147625
744.065	0.0146381
744.143	0.0147336
744.221	0.0147638
744.299	0.0148276
744.378	0.0148454
744.456	0.0148454
744.534	0.0148877
744.612	0.0152566
744.690	0.0153300
744.768	0.0153412
744.846	0.0156487
744.924	0.0157761
745.003	0.0157684
745.081	0.0159229
745.159	0.0159072
745.237	0.0158368
745.315	0.0158688
745.393	0.0158444
745.471	0.0156305
745.549	0.0154682
745.628	0.0153958
745.706	0.0151511
745.784	0.0150153
745.862	0.0148631
745.940	0.0146119
746.018	0.0144785
746.096	0.0142237
746.174	0.0137994
746.253	0.0135609
746.331	0.0134161
746.409	0.0131595
746.487	0.0128432
746.565	0.0127937
746.643	0.0125169
746.721	0.0122523
746.799	0.0121918
746.878	0.0123214
746.956	0.0122750
747.034	0.0124191
747.112	0.0127810
747.190	0.0131912
747.268	0.0136104
747.346	0.0142288
747.424	0.0146277
747.503	0.0151978
747.581	0.0158160
747.659	0.0161708
747.737	0.0166685
747.815	0.0170237
747.893	0.0173695
747.971	0.0176733
748.049	0.0179075
748.128	0.0179135
748.206	0.0178838
748.284	0.0177944
748.362	0.0176379
748.440	0.0174473
748.518	0.0171590
748.596	0.0168812
748.674	0.0165279
748.753	0.0162337
748.831	0.0159474
748.909	0.0157048
748.987	0.0154517
749.065	0.0153348
749.143	0.0150742
749.221	0.0147414
749.299	0.0147715
749.378	0.0147517
749.456	0.0145434
749.534	0.0147148
749.612	0.0146785
749.690	0.0144726
749.768	0.0145467
749.846	0.0146317
749.924	0.0145677
750.003	0.0145526
750.081	0.0146014
750.159	0.0145422
750.237	0.0146423
750.315	0.0147620
750.393	0.0146423
750.471	0.0147787
750.549	0.0148467
750.628	0.0148678
750.706	0.0149621
750.784	0.0149510
750.862	0.0151266
750.940	0.0151093
751.018	0.0153271
751.096	0.0152709
751.174	0.0153125
751.253	0.0153197
751.331	0.0153902
751.409	0.0154329
751.487	0.0153720
751.565	0.0152889
751.643	0.0151860
751.721	0.0151556
751.799	0.0151079
751.878	0.0148886
751.956	0.0146661
752.034	0.0146055
752.112	0.0143506
752.190	0.0142452
752.268	0.0138080
752.346	0.0135522
752.424	0.0133014
752.503	0.0130839
752.581	0.0130190
752.659	0.0128763
752.737	0.0128309
752.815	0.0127802
752.893	0.0129043
752.971	0.0130357
753.049	0.0131556
753.128	0.0135391
753.206	0.0138678
753.284	0.0143423
753.362	0.0147755
753.440	0.0153685
753.518	0.0156718
753.596	0.0162818
753.674	0.0168542
753.753	0.0172358
753.831	0.0175259
753.909	0.0178819
753.987	0.0180377
754.065	0.0178516
754.143	0.0177793
754.221	0.0175840
754.299	0.0175822
754.378	0.0171801
754.456	0.0168713
754.534	0.0163662
754.612	0.0159103
754.690	0.0156998
754.768	0.0154311
754.846	0.0149042
754.924	0.0148885
755.003	0.0146046
755.081	0.0143441
755.159	0.0142509
755.237	0.0142033
755.315	0.0142042
755.393	0.0143096
755.471	0.0142769
755.549	0.0142456
755.628	0.0143227
755.706	0.0146223
755.784	0.0148283
755.862	0.0148345
755.940	0.0149581
756.018	0.0150451
756.096	0.0152829
756.174	0.0152377
756.253	0.0153313
756.331	0.0153327
756.409	0.0153456
756.487	0.0152710
756.565	0.0154105
756.643	0.0154323
756.721	0.0153939
756.799	0.0152512
756.878	0.0152743
756.956	0.0152784
757.034	0.0153181
757.112	0.0151537
757.190	0.0151491
757.268	0.0150874
757.346	0.0149808
757.424	0.0148072
757.503	0.0148392
757.581	0.0146445
757.659	0.0144931
757.737	0.0142458
757.815	0.0141967
757.893	0.0139626
757.971	0.0135693
758.049	0.0133156
758.128	0.0130378
758.206	0.0128935
758.284	0.0127952
758.362	0.0125786
758.440	0.0127598
758.518	0.0128426
758.596	0.0129974
758.674	0.0132986
758.753	0.0136311
758.831	0.0140327
758.909	0.0144628
758.987	0.0148484
759.065	0.0153871
759.143	0.0158276
759.221	0.0162618
759.299	0.0168499
759.378	0.0171536
759.456	0.0174455
759.534	0.0175996
759.612	0.0177262
759.690	0.0177567
759.768	0.0175123
759.846	0.0173499
759.924	0.0169482
760.003	0.0167697
760.081	0.0164413
760.159	0.0161037
760.237	0.0158303
760.315	0.0155475
760.393	0.0152862
760.471	0.0150941
760.549	0.0148139
760.628	0.0147237
760.706	0.0147301
760.784	0.0146856
760.862	0.0146329
760.940	0.0148318
761.018	0.0148969
761.096	0.0150249
761.174	0.0150937
761.253	0.0151351
761.331	0.0152122
761.409	0.0150442
761.487	0.0152686
761.565	0.0152449
761.643	0.0152413
761.721	0.0150833
761.799	0.0150216
761.878	0.0149913
761.956	0.0150122
762.034	0.0147470
762.112	0.0148917
762.190	0.0147919
762.268	0.0148554
762.346	0.0150259
762.424	0.0150507
762.503	0.0151948
762.581	0.0152807
762.659	0.0153297
762.737	0.0152776
762.815	0.0152196
762.893	0.0153578
762.971	0.0154639
763.049	0.0152283
763.128	0.0150468
763.206	0.0151198
763.284	0.0150072
763.362	0.0147395
763.440	0.0145709
763.518	0.0143761
763.596	0.0139673
763.674	0.0135861
763.753	0.0132623
763.831	0.0131126
763.909	0.0128539
763.987	0.0128417
764.065	0.0128805
764.143	0.0128939
764.221	0.0130655
764.299	0.0131821
764.378	0.0135399
764.456	0.0140008
764.534	0.0145916
764.612	0.0148337
764.690	0.0153380
764.768	0.0156111
764.846	0.0160597
764.924	0.0164807
765.003	0.0168141
765.081	0.0169650
765.159	0.0169707
765.237	0.0171043
765.315	0.0170883
765.393	0.0170200
765.471	0.0171308
765.549	0.0167878
765.628	0.0164783
765.706	0.0164101
765.784	0.0159808
765.862	0.0156898
765.940	0.0156356
766.018	0.0152429
766.096	0.0150562
766.174	0.0148299
766.253	0.0148273
766.331	0.0146553
766.409	0.0147179
766.487	0.0149390
766.565	0.0149126
766.643	0.0150650
766.721	0.0151677
766.799	0.0152094
766.878	0.0154520
766.956	0.0152607
767.034	0.0152577
767.112	0.0152888
767.190	0.0151966
767.268	0.0151370
767.346	0.0151285
767.424	0.0151385
767.503	0.0151044
767.581	0.0148868
767.659	0.0150375
767.737	0.0148287
767.815	0.0149852
767.893	0.0150080
767.971	0.0150547
768.049	0.0150864
768.128	0.0152813
768.206	0.0151690
768.284	0.0153033
768.362	0.0152035
768.440	0.0151573
768.518	0.0151667
768.596	0.0152028
768.674	0.0150861
768.753	0.0151122
768.831	0.0150179
768.909	0.0147752
768.987	0.0145341
769.065	0.0145540
769.143	0.0142822
769.221	0.0141360
769.299	0.0139375
769.378	0.0136009
769.456	0.0133061
769.534	0.0130936
769.612	0.0130355
769.690	0.0130167
769.768	0.0127864
769.846	0.0131261
769.924	0.0131525
770.003	0.0133683
770.081	0.0138782
770.159	0.0141077
770.237	0.0146334
770.315	0.0150826
770.393	0.0154177
770.471	0.0157881
770.549	0.0163385
770.628	0.0166933
770.706	0.0170023
770.784	0.0172327
770.862	0.0171865
770.940	0.0172319
771.018	0.0172930
771.096	0.0172134
771.174	0.0170737
771.253	0.0168639
771.331	0.0167133
771.409	0.0164610
771.487	0.0161700
771.565	0.0157332
771.643	0.0155534
771.721	0.0151473
771.799	0.0149417
771.878	0.0146934
771.956	0.0145405
772.034	0.0144702
772.112	0.0144806
772.190	0.0144415
772.268	0.0143510
772.346	0.0143856
772.424	0.0144476
772.503	0.0146276
772.581	0.0146710
772.659	0.0145970
772.737	0.0145081
772.815	0.0146303
772.893	0.0146706
772.971	0.0147043
773.049	0.0147293
773.128	0.0148818
773.206	0.0148617
773.284	0.0149336
773.362	0.0150475
773.440	0.0150764
773.518	0.0152850
773.596	0.0153216
773.674	0.0154688
773.753	0.0153665
773.831	0.0156133
773.909	0.0156854
773.987	0.0157048
774.065	0.0158095
774.143	0.0157140
774.221	0.0157058
774.299	0.0156074
774.378	0.0157072
774.456	0.0154478
774.534	0.0154131
774.612	0.0152949
774.690	0.0152001
774.768	0.0148493
774.846	0.0147204
774.924	0.0146732
775.003	0.0143536
775.081	0.0141676
775.159	0.0139915
775.237	0.0136814
775.315	0.0136417
775.393	0.0134843
775.471	0.0133599
775.549	0.0132166
775.628	0.0130463
775.706	0.0131287
775.784	0.0132546
775.862	0.0134577
775.940	0.0137054
776.018	0.0140292
776.096	0.0146315
776.174	0.0148479
776.253	0.0152287
776.331	0.0157345
776.409	0.0160881
776.487	0.0163609
776.565	0.0165559
776.643	0.0167871
776.721	0.0169371
776.799	0.0168062
776.878	0.0169527
776.956	0.0168037
777.034	0.0167433
777.112	0.0164606
777.190	0.0164146
777.268	0.0161274
777.346	0.0158411
777.424	0.0156161
777.503	0.0153895
777.581	0.0151627
777.659	0.0149053
777.737	0.0147802
777.815	0.0145528
777.893	0.0146497
777.971	0.0143968
778.049	0.0142815
778.128	0.0143476
778.206	0.0143709
778.284	0.0144330
778.362	0.0144604
778.440	0.0145197
778.518	0.0146143
778.596	0.0148847
778.674	0.0147607
778.753	0.0148964
778.831	0.0149718
778.909	0.0150764
778.987	0.0150178
779.065	0.0152721
779.143	0.0152132
779.221	0.0154182
779.299	0.0154599
779.378	0.0154464
779.456	0.0155332
779.534	0.0154970
779.612	0.0155540
779.690	0.0156841
779.768	0.0156991
779.846	0.0155809
779.924	0.0155637
780.003	0.0155505
780.081	0.0153524
780.159	0.0153358
780.237	0.0152064
780.315	0.0150332
780.393	0.0148594
780.471	0.0147497
780.549	0.0145663
780.628	0.0144805
780.706	0.0143634
780.784	0.0143689
780.862	0.0142726
780.940	0.0140836
781.018	0.0138625
781.096	0.0138503
781.174	0.0138187
781.253	0.0137886
781.331	0.0137414
781.409	0.0137785
781.487	0.0137273
781.565	0.0139269
781.643	0.0139600
781.721	0.0139919
781.799	0.0141885
781.878	0.0144573
781.956	0.0147931
782.034	0.0150040
782.112	0.0150797
782.190	0.0153598
782.268	0.0156168
782.346	0.0156719
782.424	0.0159292
782.503	0.0162184
782.581	0.0162920
782.659	0.0162003
782.737	0.0163973
782.815	0.0165027
782.893	0.0162663
782.971	0.0162621
783.049	0.0162656
783.128	0.0160580
783.206	0.0159445
783.284	0.0158794
783.362	0.0155898
783.440	0.0154413
783.518	0.0154041
783.596	0.0151333
783.674	0.0151015
783.753	0.0150014
783.831	0.0149253
783.909	0.0147681
783.987	0.0145502
784.065	0.0144803
784.143	0.0145763
784.221	0.0144166
784.299	0.0144674
784.378	0.0144487
784.456	0.0143604
784.534	0.0145580
784.612	0.0144749
784.690	0.0146691
784.768	0.0147079
784.846	0.0147023
784.924	0.0149934
785.003	0.0151864
785.081	0.0150996
785.159	0.0153415
785.237	0.0151942
785.315	0.0153255
785.393	0.0155324
785.471	0.0155698
785.549	0.0155265
785.628	0.0153821
785.706	0.0154409
785.784	0.0153648
785.862	0.0154420
785.940	0.0152779
786.018	0.0152308
786.096	0.0151576
786.174	0.0148486
786.253	0.0148774
786.331	0.0149580
786.409	0.0148042
786.487	0.0147022
786.565	0.0145827
786.643	0.0144450
786.721	0.0144910
786.799	0.0146365
786.878	0.0146220
786.956	0.0144930
787.034	0.0144249
787.112	0.0144452
787.190	0.0144427
787.268	0.0146078
787.346	0.0146204
787.424	0.0145851
787.503	0.0146877
787.581	0.0147710
787.659	0.0148814
787.737	0.0148560
787.815	0.0150050
787.893	0.0150508
787.971	0.0152171
788.049	0.0152610
788.128	0.0153111
788.206	0.0154359
788.284	0.0154097
788.362	0.0156307
788.440	0.0153741
788.518	0.0155856
788.596	0.0154922
788.674	0.0156510
788.753	0.0154934
788.831	0.0153693
788.909	0.0152106
788.987	0.0153381
789.065	0.0154816
789.143	0.0154262
789.221	0.0153180
789.299	0.0153671
789.378	0.0152699
789.456	0.0153871
789.534	0.0152826
789.612	0.0152539
789.690	0.0151494
789.768	0.0151914
789.846	0.0152612
789.924	0.0148701
790.003	0.0150307
790.081	0.0148424
790.159	0.0147434
790.237	0.0149077
790.315	0.0147989
790.393	0.0148117
790.471	0.0148988
790.549	0.0148224
790.628	0.0148685
790.706	0.0149246
790.784	0.0148203
790.862	0.0149188
790.940	0.0150322
791.018	0.0151204
791.096	0.0150751
791.174	0.0151987
791.253	0.0153535
791.331	0.0154795
791.409	0.0153862
791.487	0.0154621
791.565	0.0154140
791.643	0.0155251
791.721	0.0153228
791.799	0.0152783
791.878	0.0154018
791.956	0.0150999
792.034	0.0150703
792.112	0.0150951
792.190	0.0150750
792.268	0.0149655
792.346	0.0148895
792.424	0.0148889
792.503	0.0147559
792.581	0.0146425
792.659	0.0146701
792.737	0.0145826
792.815	0.0145739
792.893	0.0146912
792.971	0.0145066
793.049	0.0144402
793.128	0.0146362
793.206	0.0147095
793.284	0.0144959
793.362	0.0146324
793.440	0.0147115
793.518	0.0146943
793.596	0.0147673
793.674	0.0148514
793.753	0.0149947
793.831	0.0150465
793.909	0.0149833
793.987	0.0149737
794.065	0.0151820
794.143	0.0153591
794.221	0.0153034
794.299	0.0153286
794.378	0.0153876
794.456	0.0154663
794.534	0.0154573
794.612	0.0154304
794.690	0.0153686
794.768	0.0155301
794.846	0.0155509
794.924	0.0154562
795.003	0.0154082
795.081	0.0154997
795.159	0.0153881
795.237	0.0153770
795.315	0.0153755
795.393	0.0153470
795.471	0.0152824
795.549	0.0153158
795.628	0.0149723
795.706	0.0151157
795.784	0.0151932
795.862	0.0150077
795.940	0.0149303
796.018	0.0149770
796.096	0.0148108
796.174	0.0148950
796.253	0.0148861
796.331	0.0148505
796.409	0.0147203
796.487	0.0148635
796.565	0.0148077
796.643	0.0147991
796.721	0.0149070
796.799	0.0148532
796.878	0.0148717
796.956	0.0148826
797.034	0.0150096
797.112	0.0149754
797.190	0.0150565
797.268	0.0151025
797.346	0.0151424
797.424	0.0149452
797.503	0.0149717
797.581	0.0149549
797.659	0.0149092
797.737	0.0149056
797.815	0.0150937
797.893	0.0150023
797.971	0.0149175
798.049	0.0151482
798.128	0.0151851
798.206	0.0151430
798.284	0.0151851
798.362	0.0152952
798.440	0.0151305
798.518	0.0151440
798.596	0.0153012
798.674	0.0150912
798.753	0.0152315
798.831	0.0153169
798.909	0.0151842
798.987	0.0149593
799.065	0.0149415
799.143	0.0148985
799.221	0.0148006
799.299	0.0148250
799.378	0.0146723
799.456	0.0145819
799.534	0.0144684
799.612	0.0147149
799.690	0.0146397
799.768	0.0144482
799.846	0.0145795
799.924	0.0146263
800.003	0.0146889
800.081	0.0149752
800.159	0.0150312
800.237	0.0149575
800.315	0.0150816
800.393	0.0151427
800.471	0.0151865
800.549	0.0152763
800.628	0.0152002
800.706	0.0153570
800.784	0.0153126
800.862	0.0154221
800.940	0.0154760
801.018	0.0153809
801.096	0.0153038
801.174	0.0152467
801.253	0.0153104
801.331	0.0152782
801.409	0.0152592
801.487	0.0150970
801.565	0.0151947
801.643	0.0151952
801.721	0.0150510
801.799	0.0150689
801.878	0.0151371
801.956	0.0151588
802.034	0.0151804
802.112	0.0151152
802.190	0.0151130
802.268	0.0151999
802.346	0.0150695
802.424	0.0151761
802.503	0.0150578
802.581	0.0152852
802.659	0.0149613
802.737	0.0149866
802.815	0.0153185
802.893	0.0151138
802.971	0.0149930
803.049	0.0150425
803.128	0.0150527
803.206	0.0149834
803.284	0.0149963
803.362	0.0149768
803.440	0.0147469
803.518	0.0149043
803.596	0.0149656
803.674	0.0148227
803.753	0.0149845
803.831	0.0148729
803.909	0.0148669
803.987	0.0149337
804.065	0.0149534
804.143	0.0149487
804.221	0.0150174
804.299	0.0152002
804.378	0.0149493
804.456	0.0149770
804.534	0.0151972
804.612	0.0150432
804.690	0.0150405
804.768	0.0150168
804.846	0.0150121
804.924	0.0149294
805.003	0.0148908
805.081	0.0148234
805.159	0.0148029
805.237	0.0146699
805.315	0.0148351
805.393	0.0147296
805.471	0.0147729
805.549	0.0148436
805.628	0.0148344
805.706	0.0148846
805.784	0.0148963
805.862	0.0150323
805.940	0.0151508
806.018	0.0152100
806.096	0.0151203
806.174	0.0152610
806.253	0.0151895
806.331	0.0152583
806.409	0.0153025
806.487	0.0154012
806.565	0.0154240
806.643	0.0152502
806.721	0.0152122
806.799	0.0152003
806.878	0.0152943
806.956	0.0152872
807.034	0.0151580
807.112	0.0150209
807.190	0.0151463
807.268	0.0151018
807.346	0.0150565
807.424	0.0149512
807.503	0.0151661
807.581	0.0152187
807.659	0.0151953
807.737	0.0150714
807.815	0.0152440
807.893	0.0152176
807.971	0.0151016
808.049	0.0152043
808.128	0.0150953
808.206	0.0152205
808.284	0.0150761
808.362	0.0151064
808.440	0.0149915
808.518	0.0150428
808.596	0.0149488
808.674	0.0149680
808.753	0.0149608
808.831	0.0147796
808.909	0.0149110
808.987	0.0149397
809.065	0.0148469
809.143	0.0147734
809.221	0.0148174
809.299	0.0147820
809.378	0.0148388
809.456	0.0151426
809.534	0.0149453
809.612	0.0149409
809.690	0.0149100
809.768	0.0150871
809.846	0.0150782
809.924	0.0151838
810.003	0.0149596
810.081	0.0151570
810.159	0.0152589
810.237	0.0152359
810.315	0.0151804
810.393	0.0153276
810.471	0.0152245
810.549	0.0152106
810.628	0.0152018
810.706	0.0150259
810.784	0.0150297
810.862	0.0151109
810.940	0.0150616
811.018	0.0149602
811.096	0.0149959
811.174	0.0148508
811.253	0.0149226
811.331	0.0149496
811.409	0.0149335
811.487	0.0148341
811.565	0.0149834
811.643	0.0147182
811.721	0.0148117
811.799	0.0149353
811.878	0.0149457
811.956	0.0150731
812.034	0.0148789
812.112	0.0151273
812.190	0.0149469
812.268	0.0149303
812.346	0.0148730
812.424	0.0150273
812.503	0.0149925
812.581	0.0150044
812.659	0.0150465
812.737	0.0148153
812.815	0.0147218
812.893	0.0149438
812.971	0.0148878
813.049	0.0148969
813.128	0.0148234
813.206	0.0149461
813.284	0.0150379
813.362	0.0151988
813.440	0.0151272
813.518	0.0151912
813.596	0.0152968
813.674	0.0153304
813.753	0.0155009
813.831	0.0152563
813.909	0.0154314
813.987	0.0154124
814.065	0.0154233
814.143	0.0153544
814.221	0.0152737
814.299	0.0154190
814.378	0.0152261
814.456	0.0153626
814.534	0.0153526
814.612	0.0152384
814.690	0.0152875
814.768	0.0151392
814.846	0.0150461
814.924	0.0151981
815.003	0.0150879
815.081	0.0151303
815.159	0.0151331
815.237	0.0149683
815.315	0.0149374
815.393	0.0150391
815.471	0.0150902
815.549	0.0150222
815.628	0.0151392
815.706	0.0149567
815.784	0.0148862
815.862	0.0148853
815.940	0.0148393
816.018	0.0148857
816.096	0.0147911
816.174	0.0147939
816.253	0.0147961
816.331	0.0146872
816.409	0.0146275
816.487	0.0147324
816.565	0.0146588
816.643	0.0147523
816.721	0.0147254
816.799	0.0149451
816.878	0.0149797
816.956	0.0149955
817.034	0.0151682
817.112	0.0150314
817.190	0.0152958
817.268	0.0152359
817.346	0.0154397
817.424	0.0152962
817.503	0.0152722
817.581	0.0152724
817.659	0.0153442
817.737	0.0154494
817.815	0.0152349
817.893	0.0152248
817.971	0.0152996
818.049	0.0150801
818.128	0.0149883
818.206	0.0150703
818.284	0.0149400
818.362	0.0148827
818.440	0.0149833
818.518	0.0147794
818.596	0.0149289
818.674	0.0148347
818.753	0.0148820
818.831	0.0149519
818.909	0.0151923
818.987	0.0149332
819.065	0.0152308
819.143	0.0150134
819.221	0.0150406
819.299	0.0151736
819.378	0.0152385
819.456	0.0151501
819.534	0.0152225
819.612	0.0150511
819.690	0.0150512
819.768	0.0150323
819.846	0.0151229
819.924	0.0150482
820.003	0.0150506
820.081	0.0149817
820.159	0.0148928
820.237	0.0148557
820.315	0.0148172
820.393	0.0150536
820.471	0.0148277
820.549	0.0149841
820.628	0.0148579
820.706	0.0148767
820.784	0.0149820
820.862	0.0150678
820.940	0.0150776
821.018	0.0150336
821.096	0.0151169
821.174	0.0152641
821.253	0.0153452
821.331	0.0151871
821.409	0.0153277
821.487	0.0152962
821.565	0.0151781
821.643	0.0152542
821.721	0.0151949
821.799	0.0151550
821.878	0.0151118
821.956	0.0150574
822.034	0.0149075
822.112	0.0149285
822.190	0.0149603
822.268	0.0149931
822.346	0.0149015
822.424	0.0148502
822.503	0.0147753
822.581	0.0149304
822.659	0.0148997
822.737	0.0148722
822.815	0.0147593
822.893	0.0148620
822.971	0.0148812
823.049	0.0150040
823.128	0.0149972
823.206	0.0151495
823.284	0.0151260
823.362	0.0151869
823.440	0.0151762
823.518	0.0152449
823.596	0.0152412
823.674	0.0150604
823.753	0.0151087
823.831	0.0151905
823.909	0.0151711
823.987	0.0151396
824.065	0.0151145
824.143	0.0150284
824.221	0.0149299
824.299	0.0148296
824.378	0.0148933
824.456	0.0147025
824.534	0.0149306
824.612	0.0145808
824.690	0.0147527
824.768	0.0148436
824.846	0.0147766
824.924	0.0149097
825.003	0.0146655
825.081	0.0149632
825.159	0.0148560
825.237	0.0149758
825.315	0.0149835
825.393	0.0150433
825.471	0.0149046
825.549	0.0150062
825.628	0.0150632
825.706	0.0151164
825.784	0.0149722
825.862	0.0151133
825.940	0.0150182
826.018	0.0151315
826.096	0.0151634
826.174	0.0151099
826.253	0.0150734
826.331	0.0150309
826.409	0.0150790
826.487	0.0151198
826.565	0.0150837
826.643	0.0150156
826.721	0.0150817
826.799	0.0152731
826.878	0.0152390
826.956	0.0151990
827.034	0.0152938
827.112	0.0153577
827.190	0.0153588
827.268	0.0152704
827.346	0.0152366
827.424	0.0151414
827.503	0.0150805
827.581	0.0151334
827.659	0.0149570
827.737	0.0150403
827.815	0.0149800
827.893	0.0150217
827.971	0.0149363
828.049	0.0148148
828.128	0.0149348
828.206	0.0149579
828.284	0.0149809
828.362	0.0147592
828.440	0.0146852
828.518	0.0149007
828.596	0.0147404
828.674	0.0147725
828.753	0.0147900
828.831	0.0146433
828.909	0.0146806
828.987	0.0145644
829.065	0.0146785
829.143	0.0147408
829.221	0.0147482
829.299	0.0148706
829.378	0.0149911
829.456	0.0149997
829.534	0.0150922
829.612	0.0151440
829.690	0.0152824
829.768	0.0153220
829.846	0.0153553
829.924	0.0154967
830.003	0.0154797
830.081	0.0155068
830.159	0.0154865
830.237	0.0154627
830.315	0.0154869
830.393	0.0155566
830.471	0.0154838
830.549	0.0154082
830.628	0.0153159
830.706	0.0153142
830.784	0.0153308
830.862	0.0151618
830.940	0.0150944
831.018	0.0151167
831.096	0.0151359
831.174	0.0149138
831.253	0.0149172
831.331	0.0148618
831.409	0.0146795
831.487	0.0147062
831.565	0.0147981
831.643	0.0144759
831.721	0.0145067
831.799	0.0145129
831.878	0.0144403
831.956	0.0144286
832.034	0.0144491
832.112	0.0145152
832.190	0.0145170
832.268	0.0145745
832.346	0.0145747
832.424	0.0145315
832.503	0.0148769
832.581	0.0147661
832.659	0.0148663
832.737	0.0148814
832.815	0.0149828
832.893	0.0149478
832.971	0.0151491
833.049	0.0150466
833.128	0.0150639
833.206	0.0151575
833.284	0.0150912
833.362	0.0152304
833.440	0.0151791
833.518	0.0150505
833.596	0.0152039
833.674	0.0152398
833.753	0.0153106
833.831	0.0152267
833.909	0.0152521
833.987	0.0152750
834.065	0.0153740
834.143	0.0155280
834.221	0.0154466
834.299	0.0154848
834.378	0.0155085
834.456	0.0154424
834.534	0.0153680
834.612	0.0155649
834.690	0.0155460
834.768	0.0154428
834.846	0.0154676
834.924	0.0153335
835.003	0.0152570
835.081	0.0150917
835.159	0.0151698
835.237	0.0151399
835.315	0.0150395
835.393	0.0149905
835.471	0.0149136
835.549	0.0149788
835.628	0.0148199
835.706	0.0148976
835.784	0.0147400
835.862	0.0149172
835.940	0.0149531
836.018	0.0148380
836.096	0.0147706
836.174	0.0148670
836.253	0.0147881
836.331	0.0148522
836.409	0.0148690
836.487	0.0146860
836.565	0.0148428
836.643	0.0147467
836.721	0.0147429
836.799	0.0146785
836.878	0.0149099
836.956	0.0147784
837.034	0.0147446
837.112	0.0148225
837.190	0.0148330
837.268	0.0149602
837.346	0.0149409
837.424	0.0148047
837.503	0.0148091
837.581	0.0147363
837.659	0.0146317
837.737	0.0146150
837.815	0.0146597
837.893	0.0147619
837.971	0.0147208
838.049	0.0148473
838.128	0.0147096
838.206	0.0148898
838.284	0.0149002
838.362	0.0149145
838.440	0.0149514
838.518	0.0151472
838.596	0.0151572
838.674	0.0151771
838.753	0.0152763
838.831	0.0153946
838.909	0.0153164
838.987	0.0152742
839.065	0.0153738
839.143	0.0153222
839.221	0.0153184
839.299	0.0154024
839.378	0.0155111
839.456	0.0152902
839.534	0.0153806
839.612	0.0152971
839.690	0.0151612
839.768	0.0152730
839.846	0.0151714
839.924	0.0152413
840.003	0.0151965
840.081	0.0151145
840.159	0.0151052
840.237	0.0152128
840.315	0.0149768
840.393	0.0151726
840.471	0.0151332
840.549	0.0152611
840.628	0.0152567
840.706	0.0152099
840.784	0.0151868
840.862	0.0151286
840.940	0.0152406
841.018	0.0153199
841.096	0.0153155
841.174	0.0150807
841.253	0.0151312
841.331	0.0150934
841.409	0.0152260
841.487	0.0152448
841.565	0.0151409
841.643	0.0150493
841.721	0.0150121
841.799	0.0150746
841.878	0.0148521
841.956	0.0148576
842.034	0.0147404
842.112	0.0148385
842.190	0.0147755
842.268	0.0146574
842.346	0.0146245
842.424	0.0146995
842.503	0.0143832
842.581	0.0144445
842.659	0.0145461
842.737	0.0144638
842.815	0.0143884
842.893	0.0144009
842.971	0.0144505
843.049	0.0145071
843.128	0.0145462
843.206	0.0144984
843.284	0.0146194
843.362	0.0146297
843.440	0.0145464
843.518	0.0147237
843.596	0.0146593
843.674	0.0147305
843.753	0.0148149
843.831	0.0149713
843.909	0.0149877
843.987	0.0149546
844.065	0.0150390
844.143	0.0151008
844.221	0.0151298
844.299	0.0151813
844.378	0.0153390
844.456	0.0155816
844.534	0.0154948
844.612	0.0153559
844.690	0.0155080
844.768	0.0155219
844.846	0.0156217
844.924	0.0156179
845.003	0.0156590
845.081	0.0155393
845.159	0.0154866
845.237	0.0154782
845.315	0.0153326
845.393	0.0153102
845.471	0.0152522
845.549	0.0153879
845.628	0.0153030
845.706	0.0151543
845.784	0.0152399
845.862	0.0151964
845.940	0.0152995
846.018	0.0151042
846.096	0.0149850
846.174	0.0152020
846.253	0.0151392
846.331	0.0151348
846.409	0.0151215
846.487	0.0150967
846.565	0.0150523
846.643	0.0150421
846.721	0.0150149
846.799	0.0150747
846.878	0.0151331
846.956	0.0151299
847.034	0.0150447
847.112	0.0149814
847.190	0.0149081
847.268	0.0149211
847.346	0.0149658
847.424	0.0148313
847.503	0.0147421
847.581	0.0149272
847.659	0.0148903
847.737	0.0147613
847.815	0.0147781
847.893	0.0147854
847.971	0.0147419
848.049	0.0146678
848.128	0.0147786
848.206	0.0147237
848.284	0.0147669
848.362	0.0148122
848.440	0.0147371
848.518	0.0146706
848.596	0.0146607
848.674	0.0147795
848.753	0.0147598
848.831	0.0147167
848.909	0.0148067
848.987	0.0147086
849.065	0.0148576
849.143	0.0148263
849.221	0.0148579
849.299	0.0149371
849.378	0.0148613
849.456	0.0150391
849.534	0.0149923
849.612	0.0149579
849.690	0.0150385
849.768	0.0151720
849.846	0.0152947
849.924	0.0151964
850.003	0.0151244
850.081	0.0152975
850.159	0.0153565
850.237	0.0152400
850.315	0.0153345
850.393	0.0154053
850.471	0.0154632
850.549	0.0155154
850.628	0.0153452
850.706	0.0154572
850.784	0.0154259
850.862	0.0154587
850.940	0.0153680
851.018	0.0153783
851.096	0.0152884
851.174	0.0153368
851.253	0.0153330
851.331	0.0152825
851.409	0.0151584
851.487	0.0152307
851.565	0.0152256
851.643	0.0151418
851.721	0.0153528
851.799	0.0152979
851.878	0.0151003
851.956	0.0151730
852.034	0.0150700
852.112	0.0150832
852.190	0.0150834
852.268	0.0151457
852.346	0.0148774
852.424	0.0148461
852.503	0.0150051
852.581	0.0150665
852.659	0.0148932
852.737	0.0150249
852.815	0.0150746
852.893	0.0149155
852.971	0.0149553
853.049	0.0148713
853.128	0.0148949
853.206	0.0148853
853.284	0.0148872
853.362	0.0149136
853.440	0.0148788
853.518	0.0147635
853.596	0.0148559
853.674	0.0147478
853.753	0.0147401
853.831	0.0149836
853.909	0.0148701
853.987	0.0148941
854.065	0.0148294
854.143	0.0148178
854.221	0.0148066
854.299	0.0148594
854.378	0.0148302
854.456	0.0149819
854.534	0.0148997
854.612	0.0148998
854.690	0.0148505
854.768	0.0149400
854.846	0.0148553
854.924	0.0149481
855.003	0.0149511
855.081	0.0148595
855.159	0.0149013
855.237	0.0150865
855.315	0.0150613
855.393	0.0150182
855.471	0.0150456
855.549	0.0150706
855.628	0.0152444
855.706	0.0151273
855.784	0.0151934
855.862	0.0152152
855.940	0.0151020
856.018	0.0152489
856.096	0.0152132
856.174	0.0153381
856.253	0.0152367
856.331	0.0153048
856.409	0.0151783
856.487	0.0152693
856.565	0.0152095
856.643	0.0151625
856.721	0.0152263
856.799	0.0151595
856.878	0.0151232
856.956	0.0152053
857.034	0.0150513
857.112	0.0151485
857.190	0.0150617
857.268	0.0151347
857.346	0.0151575
857.424	0.0151735
857.503	0.0152709
857.581	0.0151186
857.659	0.0152493
857.737	0.0152150
857.815	0.0151713
857.893	0.0152383
857.971	0.0151863
858.049	0.0152101
858.128	0.0152591
858.206	0.0151781
858.284	0.0150707
858.362	0.0149763
858.440	0.0150372
858.518	0.0150829
858.596	0.0149949
858.674	0.0149469
858.753	0.0149070
858.831	0.0148534
858.909	0.0148421
858.987	0.0148078
859.065	0.0148255
859.143	0.0148326
859.221	0.0147594
859.299	0.0147518
859.378	0.0148124
859.456	0.0147179
859.534	0.0148154
859.612	0.0146530
859.690	0.0147127
859.768	0.0150269
859.846	0.0147437
859.924	0.0147073
860.003	0.0148024
860.081	0.0147861
860.159	0.0147623
860.237	0.0148137
860.315	0.0149144
860.393	0.0149747
860.471	0.0149869
860.549	0.0150259
860.628	0.0148935
860.706	0.0148849
860.784	0.0150558
860.862	0.0149502
860.940	0.0150439
861.018	0.0150144
861.096	0.0151896
861.174	0.0152267
861.253	0.0152237
861.331	0.0154109
861.409	0.0152631
861.487	0.0154102
861.565	0.0152770
861.643	0.0153813
861.721	0.0153281
861.799	0.0154785
861.878	0.0154343
861.956	0.0153851
862.034	0.0153216
862.112	0.0153363
862.190	0.0153934
862.268	0.0151707
862.346	0.0152132
862.424	0.0152390
862.503	0.0152013
862.581	0.0152472
862.659	0.0151966
862.737	0.0152288
862.815	0.0151824
862.893	0.0151896
862.971	0.0151344
863.049	0.0149994
863.128	0.0149929
863.206	0.0150921
863.284	0.0150321
863.362	0.0150298
863.440	0.0150442
863.518	0.0150146
863.596	0.0149514
863.674	0.0149451
863.753	0.0149496
863.831	0.0149506
863.909	0.0149435
863.987	0.0149934
864.065	0.0150400
864.143	0.0149839
864.221	0.0150609
864.299	0.0148621
864.378	0.0148842
864.456	0.0148646
864.534	0.0148395
864.612	0.0149866
864.690	0.0148251
864.768	0.0149200
864.846	0.0149826
864.924	0.0148709
865.003	0.0147916
865.081	0.0148381
865.159	0.0149072
865.237	0.0149562
865.315	0.0150174
865.393	0.0148799
865.471	0.0149675
865.549	0.0148689
865.628	0.0150346
865.706	0.0150867
865.784	0.0147997
865.862	0.0148361
865.940	0.0149914
866.018	0.0149884
866.096	0.0149445
866.174	0.0149474
866.253	0.0149826
866.331	0.0149478
866.409	0.0150163
866.487	0.0148618
866.565	0.0149551
866.643	0.0150451
866.721	0.0150060
866.799	0.0149449
866.878	0.0150655
866.956	0.0151851
867.034	0.0150796
867.112	0.0151026
867.190	0.0152872
867.268	0.0152119
867.346	0.0153400
867.424	0.0152368
867.503	0.0151421
867.581	0.0151941
867.659	0.0152251
867.737	0.0152132
867.815	0.0152735
867.893	0.0154444
867.971	0.0154288
868.049	0.0153020
868.128	0.0151589
868.206	0.0151241
868.284	0.0151592
868.362	0.0152246
868.440	0.0151736
868.518	0.0150517
868.596	0.0151991
868.674	0.0153036
868.753	0.0151147
868.831	0.0151660
868.909	0.0151010
868.987	0.0149927
869.065	0.0149804
869.143	0.0150156
869.221	0.0151251
869.299	0.0151123
869.378	0.0150002
869.456	0.0150668
869.534	0.0150230
869.612	0.0149578
869.690	0.0149937
869.768	0.0149795
869.846	0.0150651
869.924	0.0149635
870.003	0.0150347
870.081	0.0150129
870.159	0.0148814
870.237	0.0149584
870.315	0.0148141
870.393	0.0147555
870.471	0.0149746
870.549	0.0149374
870.628	0.0148763
870.706	0.0148650
870.784	0.0149773
870.862	0.0148348
870.940	0.0150186
871.018	0.0149362
871.096	0.0148811
871.174	0.0147733
871.253	0.0150315
871.331	0.0149827
871.409	0.0151078
871.487	0.0150163
871.565	0.0149921
871.643	0.0150356
871.721	0.0148885
871.799	0.0150268
871.878	0.0151160
871.956	0.0151549
872.034	0.0150350
872.112	0.0150566
872.190	0.0150475
872.268	0.0150728
872.346	0.0150198
872.424	0.0150492
872.503	0.0149911
872.581	0.0150776
872.659	0.0150113
872.737	0.0151003
872.815	0.0151901
872.893	0.0150774
872.971	0.0150225
873.049	0.0152005
873.128	0.0152901
873.206	0.0151892
873.284	0.0151405
873.362	0.0154140
873.440	0.0153039
873.518	0.0151299
873.596	0.0152016
873.674	0.0151161
873.753	0.0151649
873.831	0.0150625
873.909	0.0151380
873.987	0.0151521
874.065	0.0149258
874.143	0.0149524
874.221	0.0150275
874.299	0.0149994
874.378	0.0150893
874.456	0.0149153
874.534	0.0150344
874.612	0.0151188
874.690	0.0149655
874.768	0.0150297
874.846	0.0151396
874.924	0.0149988
875.003	0.0149651
875.081	0.0149426
875.159	0.0150410
875.237	0.0150514
875.315	0.0149791
875.393	0.0150178
875.471	0.0150248
875.549	0.0151640
875.628	0.0150900
875.706	0.0148212
875.784	0.0149953
875.862	0.0149525
875.940	0.0150893
876.018	0.0151003
876.096	0.0149932
876.174	0.0149911
876.253	0.0150323
876.331	0.0150999
876.409	0.0149560
876.487	0.0151723
876.565	0.0151739
876.643	0.0151169
876.721	0.0151192
876.799	0.0151254
876.878	0.0151668
876.956	0.0149827
877.034	0.0150626
877.112	0.0150953
877.190	0.0149613
877.268	0.0150629
877.346	0.0150078
877.424	0.0151674
877.503	0.0149647
877.581	0.0149080
877.659	0.0150655
877.737	0.0149502
877.815	0.0148306
877.893	0.0149198
877.971	0.0149414
878.049	0.0149594
878.128	0.0149570
878.206	0.0150664
878.284	0.0149578
878.362	0.0148997
878.440	0.0149475
878.518	0.0150104
878.596	0.0149066
878.674	0.0148212
878.753	0.0149220
878.831	0.0150052
878.909	0.0149396
878.987	0.0149333
879.065	0.0150487
879.143	0.0151005
879.221	0.0150910
879.299	0.0150010
879.378	0.0152328
879.456	0.0150436
879.534	0.0151814
879.612	0.0150517
879.690	0.0150112
879.768	0.0150393
879.846	0.0150587
879.924	0.0151401
880.003	0.0151485
880.081	0.0151535
880.159	0.0150891
880.237	0.0151857
880.315	0.0152198
880.393	0.0151431
880.471	0.0152125
880.549	0.0150401
880.628	0.0150961
880.706	0.0150127
880.784	0.0151249
880.862	0.0150933
880.940	0.0150983
881.018	0.0150681
881.096	0.0151198
881.174	0.0149870
881.253	0.0150597
881.331	0.0150552
881.409	0.0149677
881.487	0.0151871
881.565	0.0150466
881.643	0.0151234
881.721	0.0152239
881.799	0.0152097
881.878	0.0151051
881.956	0.0151211
882.034	0.0152723
882.112	0.0151135
882.190	0.0152206
882.268	0.0153195
882.346	0.0151629
882.424	0.0151322
882.503	0.0151277
882.581	0.0152323
882.659	0.0152098
882.737	0.0149853
882.815	0.0149026
882.893	0.0149905
882.971	0.0149558
883.049	0.0149420
883.128	0.0149436
883.206	0.0150928
883.284	0.0149573
883.362	0.0148850
883.440	0.0149638
883.518	0.0149805
883.596	0.0149851
883.674	0.0150961
883.753	0.0150260
883.831	0.0149879
883.909	0.0150156
883.987	0.0149993
884.065	0.0149133
884.143	0.0150607
884.221	0.0150628
884.299	0.0150131
884.378	0.0149120
884.456	0.0149448
884.534	0.0149783
884.612	0.0149326
884.690	0.0149649
884.768	0.0150465
884.846	0.0148550
884.924	0.0149246
885.003	0.0150043
885.081	0.0148845
885.159	0.0148976
885.237	0.0149465
885.315	0.0148856
885.393	0.0149576
885.471	0.0150208
885.549	0.0149828
885.628	0.0149767
885.706	0.0149797
885.784	0.0151541
885.862	0.0151670
885.940	0.0151800
886.018	0.0150146
886.096	0.0151260
886.174	0.0151780
886.253	0.0152081
886.331	0.0151890
886.409	0.0151411
886.487	0.0151060
886.565	0.0150691
886.643	0.0151758
886.721	0.0152317
886.799	0.0152643
886.878	0.0150906
886.956	0.0151859
887.034	0.0151424
887.112	0.0150837
887.190	0.0150935
887.268	0.0151713
887.346	0.0150732
887.424	0.0151611
887.503	0.0150696
887.581	0.0151400
887.659	0.0149858
887.737	0.0151340
887.815	0.0149605
887.893	0.0151308
887.971	0.0151105
888.049	0.0150286
888.128	0.0148956
888.206	0.0150082
888.284	0.0149654
888.362	0.0148398
888.440	0.0149647
888.518	0.0149413
888.596	0.0149146
888.674	0.0149718
888.753	0.0150046
888.831	0.0149539
888.909	0.0150491
888.987	0.0150434
889.065	0.0150286
889.143	0.0148985
889.221	0.0149070
889.299	0.0149353
889.378	0.0150428
889.456	0.0149995
889.534	0.0151203
889.612	0.0149690
889.690	0.0149141
889.768	0.0149256
889.846	0.0149567
889.924	0.0148386
890.003	0.0148521
890.081	0.0149896
890.159	0.0149339
890.237	0.0149091
890.315	0.0147643
890.393	0.0149279
890.471	0.0149730
890.549	0.0149352
890.628	0.0149149
890.706	0.0149852
890.784	0.0149071
890.862	0.0149596
890.940	0.0149162
891.018	0.0148765
891.096	0.0150027
891.174	0.0149726
891.253	0.0150233
891.331	0.0149700
891.409	0.0151152
891.487	0.0149996
891.565	0.0151666
891.643	0.0150682
891.721	0.0150977
891.799	0.0150922
891.878	0.0150812
891.956	0.0152483
892.034	0.0151865
892.112	0.0153477
892.190	0.0151295
892.268	0.0153496
892.346	0.0153667
892.424	0.0152982
892.503	0.0153178
892.581	0.0152940
892.659	0.0152080
892.737	0.0153845
892.815	0.0151841
892.893	0.0153014
892.971	0.0152986
893.049	0.0152889
893.128	0.0152509
893.206	0.0151945
893.284	0.0153272
893.362	0.0152623
893.440	0.0152349
893.518	0.0154162
893.596	0.0151173
893.674	0.0151105
893.753	0.0151381
893.831	0.0150809
893.909	0.0150220
893.987	0.0149835
894.065	0.0149429
894.143	0.0149281
894.221	0.0151134
894.299	0.0150344
894.378	0.0149527
894.456	0.0149447
894.534	0.0150894
894.612	0.0150238
894.690	0.0149828
894.768	0.0149943
894.846	0.0148909
894.924	0.0149326
895.003	0.0149075
895.081	0.0148262
895.159	0.0151268
895.237	0.0149928
895.315	0.0147538
895.393	0.0148464
895.471	0.0147970
895.549	0.0148931
895.628	0.0149091
895.706	0.0149835
895.784	0.0148778
895.862	0.0150384
895.940	0.0148456
896.018	0.0149364
896.096	0.0148476
896.174	0.0148101
896.253	0.0147790
896.331	0.0148745
896.409	0.0148649
896.487	0.0149188
896.565	0.0147522
896.643	0.0147843
896.721	0.0148094
896.799	0.0148714
896.878	0.0149316
896.956	0.0150845
897.034	0.0149983
897.112	0.0149656
897.190	0.0150647
897.268	0.0150289
897.346	0.0150494
897.424	0.0149898
897.503	0.0151862
897.581	0.0152463
897.659	0.0152902
897.737	0.0152737
897.815	0.0152324
897.893	0.0152771
897.971	0.0153233
898.049	0.0152086
898.128	0.0153456
898.206	0.0152505
898.284	0.0151762
898.362	0.0152311
898.440	0.0153786
898.518	0.0151833
898.596	0.0152908
898.674	0.0152013
898.753	0.0151680
898.831	0.0153103
898.909	0.0151887
898.987	0.0152689
899.065	0.0150988
899.143	0.0151350
899.221	0.0150922
899.299	0.0151126
899.378	0.0149789
899.456	0.0151833
899.534	0.0151229
899.612	0.0150093
899.690	0.0151461
899.768	0.0151300
899.846	0.0149675
899.924	0.0150005
900.003	0.0149709
900.081	0.0149844
900.159	0.0150943
900.237	0.0150690
900.315	0.0150442
900.393	0.0150252
900.471	0.0150983
900.549	0.0151072
900.628	0.0150217
900.706	0.0149580
900.784	0.0149172
900.862	0.0149084
900.940	0.0150585
901.018	0.0149596
901.096	0.0150216
901.174	0.0149057
901.253	0.0149773
901.331	0.0149601
901.409	0.0149551
901.487	0.0147855
901.565	0.0149120
901.643	0.0148136
901.721	0.0148759
901.799	0.0147800
901.878	0.0147221
901.956	0.0148644
902.034	0.0146958
902.112	0.0146991
902.190	0.0147126
902.268	0.0146909
902.346	0.0147290
902.424	0.0147129
902.503	0.0149104
902.581	0.0146881
902.659	0.0147747
902.737	0.0149188
902.815	0.0148403
902.893	0.0148792
902.971	0.0149413
903.049	0.0151601
903.128	0.0150699
903.206	0.0152612
903.284	0.0151215
903.362	0.0151781
903.440	0.0151810
903.518	0.0153101
903.596	0.0152641
903.674	0.0153001
903.753	0.0152210
903.831	0.0153217
903.909	0.0153869
903.987	0.0153615
904.065	0.0153053
904.143	0.0152209
904.221	0.0153244
904.299	0.0152795
904.378	0.0153231
904.456	0.0152453
904.534	0.0152187
904.612	0.0152699
904.690	0.0152170
904.768	0.0149822
904.846	0.0151897
904.924	0.0152608
905.003	0.0151577
905.081	0.0151344
905.159	0.0151423
905.237	0.0151438
905.315	0.0151435
905.393	0.0150356
905.471	0.0150904
905.549	0.0150479
905.628	0.0149223
905.706	0.0149779
905.784	0.0149898
905.862	0.0149293
905.940	0.0148838
906.018	0.0149488
906.096	0.0150034
906.174	0.0150778
906.253	0.0149227
906.331	0.0150190
906.409	0.0148818
906.487	0.0150103
906.565	0.0148418
906.643	0.0150217
906.721	0.0149574
906.799	0.0147958
906.878	0.0149163
906.956	0.0149348
907.034	0.0149194
907.112	0.0150268
907.190	0.0149731
907.268	0.0149800
907.346	0.0149602
907.424	0.0148798
907.503	0.0148734
907.581	0.0150049
907.659	0.0149619
907.737	0.0148954
907.815	0.0150137
907.893	0.0149251
907.971	0.0148701
908.049	0.0149249
908.128	0.0150956
908.206	0.0149316
908.284	0.0150040
908.362	0.0149648
908.440	0.0150058
908.518	0.0151562
908.596	0.0150439
908.674	0.0150490
908.753	0.0151940
908.831	0.0151012
908.909	0.0152687
908.987	0.0152498
909.065	0.0152323
909.143	0.0153188
909.221	0.0151974
909.299	0.0150947
909.378	0.0151369
909.456	0.0150605
909.534	0.0150047
909.612	0.0151246
909.690	0.0150521
909.768	0.0150782
909.846	0.0150144
909.924	0.0150608
910.003	0.0151676
910.081	0.0150277
910.159	0.0150518
910.237	0.0152125
910.315	0.0150972
910.393	0.0150995
910.471	0.0150407
910.549	0.0150818
910.628	0.0150428
910.706	0.0150432
910.784	0.0150491
910.862	0.0150627
910.940	0.0150545
911.018	0.0151461
911.096	0.0148719
911.174	0.0150131
911.253	0.0148994
911.331	0.0148557
911.409	0.0150098
911.487	0.0149572
911.565	0.0150037
911.643	0.0150924
911.721	0.0148976
911.799	0.0149496
911.878	0.0150298
911.956	0.0149952
912.034	0.0151085
912.112	0.0150433
912.190	0.0150560
912.268	0.0149025
912.346	0.0149976
912.424	0.0151419
912.503	0.0150505
912.581	0.0150837
912.659	0.0151176
912.737	0.0150704
912.815	0.0150307
912.893	0.0150679
912.971	0.0148701
913.049	0.0150497
913.128	0.0150190
913.206	0.0149793
913.284	0.0149545
913.362	0.0150009
913.440	0.0149288
913.518	0.0148154
913.596	0.0148881
913.674	0.0149989
913.753	0.0149312
913.831	0.0149126
913.909	0.0150053
913.987	0.0148526
914.065	0.0149991
914.143	0.0151336
914.221	0.0152352
914.299	0.0150350
914.378	0.0152391
914.456	0.0151765
914.534	0.0151276
914.612	0.0151928
914.690	0.0151550
914.768	0.0151941
914.846	0.0152443
914.924	0.0151795
915.003	0.0152633
915.081	0.0151963
915.159	0.0150945
915.237	0.0151519
915.315	0.0152622
915.393	0.0150298
915.471	0.0150902
915.549	0.0151019
915.628	0.0150406
915.706	0.0149271
915.784	0.0150977
915.862	0.0148506
915.940	0.0149823
916.018	0.0149809
916.096	0.0150060
916.174	0.0148273
916.253	0.0149849
916.331	0.0149790
916.409	0.0150296
916.487	0.0148912
916.565	0.0150000
916.643	0.0149726
916.721	0.0150394
916.799	0.0150735
916.878	0.0150332
916.956	0.0150422
917.034	0.0150985
917.112	0.0150784
917.190	0.0150114
917.268	0.0149595
917.346	0.0149469
917.424	0.0151196
917.503	0.0150391
917.581	0.0151376
917.659	0.0150549
917.737	0.0150693
917.815	0.0151320
917.893	0.0150645
917.971	0.0150636
918.049	0.0149689
918.128	0.0150977
918.206	0.0149848
918.284	0.0149906
918.362	0.0148824
918.440	0.0148596
918.518	0.0149136
918.596	0.0149407
918.674	0.0148988
918.753	0.0149551
918.831	0.0149370
918.909	0.0147852
918.987	0.0147676
919.065	0.0149503
919.143	0.0149691
919.221	0.0149380
919.299	0.0149473
919.378	0.0149456
919.456	0.0151466
919.534	0.0148513
919.612	0.0150305
919.690	0.0150162
919.768	0.0150916
919.846	0.0151457
919.924	0.0150061
920.003	0.0149551
920.081	0.0151094
920.159	0.0152402
920.237	0.0150577
920.315	0.0150522
920.393	0.0152489
920.471	0.0153420
920.549	0.0153489
920.628	0.0152947
920.706	0.0152862
920.784	0.0152010
920.862	0.0151329
920.940	0.0153362
921.018	0.0152625
921.096	0.0151347
921.174	0.0151281
921.253	0.0152118
921.331	0.0150392
921.409	0.0151203
921.487	0.0149783
921.565	0.0150869
921.643	0.0150347
921.721	0.0150592
921.799	0.0150817
921.878	0.0149617
921.956	0.0149518
922.034	0.0150619
922.112	0.0151283
922.190	0.0148820
922.268	0.0149845
922.346	0.0151366
922.424	0.0150568
922.503	0.0149857
922.581	0.0149825
922.659	0.0147864
922.737	0.0150414
922.815	0.0149475
922.893	0.0150006
922.971	0.0149846
923.049	0.0149899
923.128	0.0149294
923.206	0.0149302
923.284	0.0149385
923.362	0.0150270
923.440	0.0149660
923.518	0.0148613
923.596	0.0148398
923.674	0.0150146
923.753	0.0150606
923.831	0.0151522
923.909	0.0150574
923.987	0.0151531
924.065	0.0150617
924.143	0.0151163
924.221	0.0151533
924.299	0.0151623
924.378	0.0151055
924.456	0.0151748
924.534	0.0152335
924.612	0.0152338
924.690	0.0150812
924.768	0.0150173
924.846	0.0150988
924.924	0.0152287
925.003	0.0150056
925.081	0.0151878
925.159	0.0150368
925.237	0.0149123
925.315	0.0150891
925.393	0.0150945
925.471	0.0149618
925.549	0.0150507
925.628	0.0149465
925.706	0.0149555
925.784	0.0150706
925.862	0.0149009
925.940	0.0148483
926.018	0.0149413
926.096	0.0148792
926.174	0.0150558
926.253	0.0150131
926.331	0.0148614
926.409	0.0148138
926.487	0.0148952
926.565	0.0149908
926.643	0.0148924
926.721	0.0149472
926.799	0.0148914
926.878	0.0150639
926.956	0.0151687
927.034	0.0150401
927.112	0.0151626
927.190	0.0151646
927.268	0.0150261
927.346	0.0151344
927.424	0.0150252
927.503	0.0151736
927.581	0.0151001
927.659	0.0151949
927.737	0.0151037
927.815	0.0149645
927.893	0.0150762
927.971	0.0151909
928.049	0.0151276
928.128	0.0150731
928.206	0.0150729
928.284	0.0152017
928.362	0.0151678
928.440	0.0151170
928.518	0.0151302
928.596	0.0151192
928.674	0.0150288
928.753	0.0150179
928.831	0.0150045
928.909	0.0150697
928.987	0.0150307
929.065	0.0149651
929.143	0.0149108
929.221	0.0150671
929.299	0.0149836
929.378	0.0149022
929.456	0.0150552
929.534	0.0149792
929.612	0.0150826
929.690	0.0150491
929.768	0.0149346
929.846	0.0148463
929.924	0.0149672
930.003	0.0150685
930.081	0.0151112
930.159	0.0150193
930.237	0.0150167
930.315	0.0150628
930.393	0.0150879
930.471	0.0150436
930.549	0.0150290
930.628	0.0151029
930.706	0.0151653
930.784	0.0151296
930.862	0.0151411
930.940	0.0151557
931.018	0.0151389
931.096	0.0150823
931.174	0.0151834
931.253	0.0151098
931.331	0.0149500
931.409	0.0151395
931.487	0.0151418
931.565	0.0150671
931.643	0.0149476
931.721	0.0150911
931.799	0.0150127
931.878	0.0150397
931.956	0.0150861
932.034	0.0150356
932.112	0.0148323
932.190	0.0149851
932.268	0.0149251
932.346	0.0150373
932.424	0.0150657
932.503	0.0151483
932.581	0.0149725
932.659	0.0150515
932.737	0.0149148
932.815	0.0149677
932.893	0.0149412
932.971	0.0149251
933.049	0.0149946
933.128	0.0149692
933.206	0.0148895
933.284	0.0148817
933.362	0.0150220
933.440	0.0150287
933.518	0.0149635
933.596	0.0149994
933.674	0.0149601
933.753	0.0149352
933.831	0.0150266
933.909	0.0148863
933.987	0.0151197
934.065	0.0149052
934.143	0.0150871
934.221	0.0151613
934.299	0.0151153
934.378	0.0151899
934.456	0.0151504
934.534	0.0152114
934.612	0.0151421
934.690	0.0151983
934.768	0.0151056
934.846	0.0149907
934.924	0.0149986
935.003	0.0151263
935.081	0.0151162
935.159	0.0148196
935.237	0.0149561
935.315	0.0147570
935.393	0.0148222
935.471	0.0149158
935.549	0.0148695
935.628	0.0149136
935.706	0.0150782
935.784	0.0148451
935.862	0.0148910
935.940	0.0150655
936.018	0.0150459
936.096	0.0149536
936.174	0.0150259
936.253	0.0151524
936.331	0.0152211
936.409	0.0150313
936.487	0.0150677
936.565	0.0151096
936.643	0.0150445
936.721	0.0151505
936.799	0.0150266
936.878	0.0151668
936.956	0.0150844
937.034	0.0150180
937.112	0.0150312
937.190	0.0150692
937.268	0.0150050
937.346	0.0150060
937.424	0.0149024
937.503	0.0150756
937.581	0.0149908
937.659	0.0150728
937.737	0.0152274
937.815	0.0150464
937.893	0.0151929
937.971	0.0149246
938.049	0.0150549
938.128	0.0150510
938.206	0.0150892
938.284	0.0150114
938.362	0.0149359
938.440	0.0149210
938.518	0.0148859
938.596	0.0148724
938.674	0.0148122
938.753	0.0147354
938.831	0.0149901
938.909	0.0148433
938.987	0.0148479
939.065	0.0147588
939.143	0.0147598
939.221	0.0147984
939.299	0.0148939
939.378	0.0149845
939.456	0.0149723
939.534	0.0150773
939.612	0.0150684
939.690	0.0153557
939.768	0.0151784
939.846	0.0150386
939.924	0.0153958
940.003	0.0151537
940.081	0.0151967
940.159	0.0150637
940.237	0.0149856
940.315	0.0150891
940.393	0.0150385
940.471	0.0150353
940.549	0.0148711
940.628	0.0148994
940.706	0.0150098
940.784	0.0148857
940.862	0.0148325
940.940	0.0150928
941.018	0.0151388
941.096	0.0147929
941.174	0.0148022
941.253	0.0149732
941.331	0.0149841
941.409	0.0151094
941.487	0.0149358
941.565	0.0151087
941.643	0.0149819
941.721	0.0150324
941.799	0.0151103
941.878	0.0150213
941.956	0.0150021
942.034	0.0151748
942.112	0.0152667
942.190	0.0150838
942.268	0.0151582
942.346	0.0152622
942.424	0.0151421
942.503	0.0151073
942.581	0.0150703
942.659	0.0150370
942.737	0.0149505
942.815	0.0151643
942.893	0.0151008
942.971	0.0150598
943.049	0.0151855
943.128	0.0151115
943.206	0.0151154
943.284	0.0150945
943.362	0.0151802
943.440	0.0151285
943.518	0.0151727
943.596	0.0152551
943.674	0.0151688
943.753	0.0150566
943.831	0.0151159
943.909	0.0151328
943.987	0.0151091
944.065	0.0149967
944.143	0.0150419
944.221	0.0150004
944.299	0.0149505
944.378	0.0149158
944.456	0.0148958
944.534	0.0148212
944.612	0.0147627
944.690	0.0147386
944.768	0.0149285
944.846	0.0149507
944.924	0.0149818
945.003	0.0148402
945.081	0.0151089
945.159	0.0151243
945.237	0.0151819
945.315	0.0152089
945.393	0.0151682
945.471	0.0151465
945.549	0.0151517
945.628	0.0151138
945.706	0.0151562
945.784	0.0151260
945.862	0.0151896
945.940	0.0152547
946.018	0.0151031
946.096	0.0150787
946.174	0.0149635
946.253	0.0149921
946.331	0.0149623
946.409	0.0149436
946.487	0.0149365
946.565	0.0150781
946.643	0.0149207
946.721	0.0150984
946.799	0.0149547
946.878	0.0149562
946.956	0.0150227
947.034	0.0151295
947.112	0.0150298
947.190	0.0148607
947.268	0.0150414
947.346	0.0151215
947.424	0.0150435
947.503	0.0151224
947.581	0.0151021
947.659	0.0151136
947.737	0.0150700
947.815	0.0151540
947.893	0.0151315
947.971	0.0151861
948.049	0.0150014
948.128	0.0151160
948.206	0.0150473
948.284	0.0151859
948.362	0.0150536
948.440	0.0151358
948.518	0.0151490
948.596	0.0150501
948.674	0.0151494
948.753	0.0150420
948.831	0.0152087
948.909	0.0152284
948.987	0.0150502
949.065	0.0152048
949.143	0.0152839
949.221	0.0150895
949.299	0.0150590
949.378	0.0151441
949.456	0.0151195
949.534	0.0149567
949.612	0.0149629
949.690	0.0149419
949.768	0.0150294
949.846	0.0148896
949.924	0.0148552
