06/29/2022	22:42:09	Ver.	4.1	UNKNOWN
Optical Delay	630.002507	Delta X		0.078125	Sweeps	1	Scan Rate	0/0
Coordinates	Axis 1	NaN	Axis 2	NaN	Axis 3	NaN	Axis 4	NaN	Axis 5	NaN	Axis 6	0.000000
TX Power	0.000000	RX Power	0.000000

630.003	0.0165404
630.081	0.0165376
630.159	0.0165837
630.237	0.0164681
630.315	0.0166116
630.393	0.0166374
630.471	0.0164758
630.549	0.0164035
630.628	0.0165117
630.706	0.0166892
630.784	0.0165627
630.862	0.0166132
630.940	0.0166426
631.018	0.0165862
631.096	0.0165015
631.174	0.0167204
631.253	0.0165640
631.331	0.0166322
631.409	0.0166357
631.487	0.0166323
631.565	0.0166139
631.643	0.0165971
631.721	0.0165677
631.799	0.0165319
631.878	0.0165701
631.956	0.0165298
632.034	0.0166219
632.112	0.0165534
632.190	0.0165485
632.268	0.0167391
632.346	0.0166487
632.424	0.0165559
632.503	0.0165682
632.581	0.0164725
632.659	0.0165036
632.737	0.0165660
632.815	0.0166615
632.893	0.0165790
632.971	0.0166314
633.049	0.0167001
633.128	0.0164465
633.206	0.0166006
633.284	0.0165681
633.362	0.0165605
633.440	0.0163974
633.518	0.0165887
633.596	0.0166682
633.674	0.0165807
633.753	0.0164588
633.831	0.0166526
633.909	0.0165331
633.987	0.0165381
634.065	0.0165066
634.143	0.0165923
634.221	0.0166953
634.299	0.0164220
634.378	0.0165311
634.456	0.0166465
634.534	0.0165318
634.612	0.0165745
634.690	0.0165249
634.768	0.0165616
634.846	0.0166159
634.924	0.0165964
635.003	0.0166262
635.081	0.0165071
635.159	0.0164581
635.237	0.0167171
635.315	0.0164389
635.393	0.0165989
635.471	0.0166995
635.549	0.0165585
635.628	0.0165529
635.706	0.0166060
635.784	0.0166519
635.862	0.0165908
635.940	0.0165063
636.018	0.0164423
636.096	0.0165347
636.174	0.0165762
636.253	0.0166809
636.331	0.0166496
636.409	0.0165183
636.487	0.0164770
636.565	0.0167418
636.643	0.0164561
636.721	0.0165784
636.799	0.0165645
636.878	0.0165224
636.956	0.0165961
637.034	0.0166418
637.112	0.0166053
637.190	0.0165218
637.268	0.0165639
637.346	0.0164168
637.424	0.0165849
637.503	0.0166167
637.581	0.0165881
637.659	0.0164633
637.737	0.0165544
637.815	0.0164442
637.893	0.0167619
637.971	0.0165871
638.049	0.0165697
638.128	0.0165526
638.206	0.0165974
638.284	0.0167047
638.362	0.0165677
638.440	0.0166308
638.518	0.0166048
638.596	0.0164993
638.674	0.0166779
638.753	0.0165234
638.831	0.0164870
638.909	0.0166280
638.987	0.0165996
639.065	0.0165414
639.143	0.0164731
639.221	0.0165337
639.299	0.0165777
639.378	0.0163958
639.456	0.0165134
639.534	0.0165572
639.612	0.0166656
639.690	0.0165367
639.768	0.0164129
639.846	0.0166751
639.924	0.0165572
640.003	0.0165169
640.081	0.0164448
640.159	0.0165485
640.237	0.0164389
640.315	0.0166568
640.393	0.0166315
640.471	0.0164910
640.549	0.0164265
640.628	0.0164897
640.706	0.0166344
640.784	0.0166033
640.862	0.0165622
640.940	0.0166167
641.018	0.0164575
641.096	0.0166435
641.174	0.0165406
641.253	0.0165262
641.331	0.0166747
641.409	0.0165705
641.487	0.0164166
641.565	0.0165190
641.643	0.0166076
641.721	0.0167915
641.799	0.0166702
641.878	0.0165961
641.956	0.0165365
642.034	0.0166105
642.112	0.0166082
642.190	0.0164526
642.268	0.0163645
642.346	0.0166393
642.424	0.0164821
642.503	0.0166257
642.581	0.0166258
642.659	0.0166154
642.737	0.0166414
642.815	0.0165250
642.893	0.0165195
642.971	0.0165841
643.049	0.0165259
643.128	0.0164606
643.206	0.0166327
643.284	0.0167483
643.362	0.0166087
643.440	0.0164704
643.518	0.0167711
643.596	0.0166492
643.674	0.0166524
643.753	0.0165503
643.831	0.0165411
643.909	0.0165369
643.987	0.0165720
644.065	0.0164906
644.143	0.0164825
644.221	0.0164973
644.299	0.0166099
644.378	0.0166500
644.456	0.0165814
644.534	0.0165578
644.612	0.0166035
644.690	0.0165188
644.768	0.0165372
644.846	0.0166370
644.924	0.0165587
645.003	0.0167983
645.081	0.0166408
645.159	0.0166924
645.237	0.0166965
645.315	0.0166859
645.393	0.0166396
645.471	0.0166039
645.549	0.0166367
645.628	0.0165582
645.706	0.0165407
645.784	0.0166706
645.862	0.0166180
645.940	0.0165137
646.018	0.0165631
646.096	0.0164822
646.174	0.0165881
646.253	0.0165906
646.331	0.0165558
646.409	0.0165778
646.487	0.0165894
646.565	0.0164395
646.643	0.0165015
646.721	0.0165543
646.799	0.0165137
646.878	0.0165928
646.956	0.0166455
647.034	0.0166045
647.112	0.0166537
647.190	0.0165818
647.268	0.0165781
647.346	0.0165961
647.424	0.0165145
647.503	0.0165304
647.581	0.0165825
647.659	0.0165553
647.737	0.0167104
647.815	0.0166564
647.893	0.0165944
647.971	0.0166647
648.049	0.0166782
648.128	0.0164937
648.206	0.0165937
648.284	0.0165735
648.362	0.0165261
648.440	0.0166805
648.518	0.0165804
648.596	0.0164763
648.674	0.0164220
648.753	0.0165203
648.831	0.0165092
648.909	0.0164908
648.987	0.0166671
649.065	0.0165247
649.143	0.0166042
649.221	0.0166228
649.299	0.0165630
649.378	0.0165258
649.456	0.0165482
649.534	0.0166422
649.612	0.0166938
649.690	0.0164336
649.768	0.0166083
649.846	0.0166534
649.924	0.0164774
650.003	0.0164690
650.081	0.0165419
650.159	0.0166064
650.237	0.0165399
650.315	0.0166325
650.393	0.0165508
650.471	0.0164565
650.549	0.0164732
650.628	0.0164795
650.706	0.0165897
650.784	0.0165727
650.862	0.0164684
650.940	0.0165022
651.018	0.0166214
651.096	0.0165296
651.174	0.0164253
651.253	0.0166321
651.331	0.0165880
651.409	0.0165014
651.487	0.0165488
651.565	0.0165079
651.643	0.0165855
651.721	0.0165186
651.799	0.0165967
651.878	0.0166239
651.956	0.0164830
652.034	0.0165292
652.112	0.0165783
652.190	0.0165459
652.268	0.0167496
652.346	0.0165076
652.424	0.0166180
652.503	0.0165884
652.581	0.0166808
652.659	0.0165877
652.737	0.0164776
652.815	0.0165263
652.893	0.0166346
652.971	0.0165994
653.049	0.0165528
653.128	0.0165498
653.206	0.0165234
653.284	0.0166022
653.362	0.0164782
653.440	0.0164737
653.518	0.0167425
653.596	0.0166512
653.674	0.0164345
653.753	0.0164932
653.831	0.0166266
653.909	0.0164740
653.987	0.0165127
654.065	0.0165059
654.143	0.0164584
654.221	0.0165362
654.299	0.0165762
654.378	0.0166238
654.456	0.0166498
654.534	0.0166385
654.612	0.0166089
654.690	0.0165636
654.768	0.0165175
654.846	0.0165378
654.924	0.0165786
655.003	0.0165475
655.081	0.0165462
655.159	0.0164249
655.237	0.0165002
655.315	0.0166168
655.393	0.0165932
655.471	0.0167126
655.549	0.0165449
655.628	0.0164462
655.706	0.0164954
655.784	0.0165590
655.862	0.0165818
655.940	0.0165794
656.018	0.0165190
656.096	0.0164989
656.174	0.0165288
656.253	0.0165065
656.331	0.0164923
656.409	0.0165697
656.487	0.0165447
656.565	0.0164812
656.643	0.0165769
656.721	0.0165498
656.799	0.0165698
656.878	0.0165591
656.956	0.0165055
657.034	0.0166489
657.112	0.0164929
657.190	0.0165679
657.268	0.0166383
657.346	0.0164343
657.424	0.0166045
657.503	0.0164939
657.581	0.0165509
657.659	0.0165231
657.737	0.0163844
657.815	0.0165187
657.893	0.0166389
657.971	0.0165318
658.049	0.0165668
658.128	0.0164468
658.206	0.0164858
658.284	0.0166034
658.362	0.0165861
658.440	0.0165430
658.518	0.0166362
658.596	0.0166223
658.674	0.0165001
658.753	0.0165868
658.831	0.0165139
658.909	0.0164552
658.987	0.0165193
659.065	0.0164648
659.143	0.0166593
659.221	0.0164477
659.299	0.0165040
659.378	0.0164204
659.456	0.0165946
659.534	0.0166145
659.612	0.0165150
659.690	0.0165243
659.768	0.0166933
659.846	0.0164757
659.924	0.0166036
660.003	0.0166011
660.081	0.0164638
660.159	0.0164539
660.237	0.0165646
660.315	0.0165090
660.393	0.0164983
660.471	0.0166288
660.549	0.0164396
660.628	0.0165936
660.706	0.0165988
660.784	0.0165868
660.862	0.0165067
660.940	0.0165918
661.018	0.0166505
661.096	0.0166361
661.174	0.0164707
661.253	0.0166319
661.331	0.0167050
661.409	0.0166477
661.487	0.0165242
661.565	0.0165403
661.643	0.0165897
661.721	0.0163234
661.799	0.0165940
661.878	0.0165723
661.956	0.0165481
662.034	0.0164376
662.112	0.0165029
662.190	0.0165796
662.268	0.0165508
662.346	0.0165949
662.424	0.0164670
662.503	0.0166577
662.581	0.0165115
662.659	0.0167024
662.737	0.0165203
662.815	0.0165659
662.893	0.0166457
662.971	0.0166571
663.049	0.0165691
663.128	0.0165007
663.206	0.0165379
663.284	0.0165293
663.362	0.0165480
663.440	0.0165297
663.518	0.0165649
663.596	0.0165196
663.674	0.0164972
663.753	0.0165321
663.831	0.0164589
663.909	0.0166729
663.987	0.0165197
664.065	0.0167030
664.143	0.0165977
664.221	0.0164865
664.299	0.0166114
664.378	0.0165257
664.456	0.0165710
664.534	0.0165681
664.612	0.0165312
664.690	0.0165634
664.768	0.0165466
664.846	0.0165732
664.924	0.0164770
665.003	0.0166529
665.081	0.0165253
665.159	0.0165733
665.237	0.0165257
665.315	0.0165501
665.393	0.0165797
665.471	0.0166326
665.549	0.0165749
665.628	0.0165634
665.706	0.0166708
665.784	0.0166287
665.862	0.0164683
665.940	0.0165792
666.018	0.0165712
666.096	0.0164645
666.174	0.0164410
666.253	0.0165726
666.331	0.0165789
666.409	0.0164560
666.487	0.0166249
666.565	0.0164631
666.643	0.0164053
666.721	0.0165269
666.799	0.0166544
666.878	0.0164751
666.956	0.0165253
667.034	0.0165259
667.112	0.0165226
667.190	0.0165610
667.268	0.0165611
667.346	0.0166119
667.424	0.0165560
667.503	0.0166256
667.581	0.0164434
667.659	0.0165296
667.737	0.0166167
667.815	0.0164963
667.893	0.0164429
667.971	0.0165131
668.049	0.0164004
668.128	0.0165873
668.206	0.0165867
668.284	0.0165405
668.362	0.0165501
668.440	0.0166768
668.518	0.0166089
668.596	0.0165071
668.674	0.0164258
668.753	0.0165298
668.831	0.0166068
668.909	0.0164920
668.987	0.0164634
669.065	0.0165215
669.143	0.0163580
669.221	0.0165381
669.299	0.0166456
669.378	0.0165247
669.456	0.0164516
669.534	0.0165289
669.612	0.0166193
669.690	0.0165292
669.768	0.0165269
669.846	0.0165601
669.924	0.0164981
670.003	0.0165304
670.081	0.0165628
670.159	0.0165437
670.237	0.0166075
670.315	0.0165646
670.393	0.0165330
670.471	0.0164398
670.549	0.0165101
670.628	0.0163776
670.706	0.0166208
670.784	0.0165381
670.862	0.0164632
670.940	0.0165537
671.018	0.0164201
671.096	0.0165205
671.174	0.0164856
671.253	0.0165794
671.331	0.0166689
671.409	0.0164841
671.487	0.0164918
671.565	0.0164618
671.643	0.0165857
671.721	0.0166105
671.799	0.0165662
671.878	0.0164812
671.956	0.0165851
672.034	0.0164836
672.112	0.0163971
672.190	0.0165911
672.268	0.0165673
672.346	0.0164495
672.424	0.0165344
672.503	0.0164706
672.581	0.0164938
672.659	0.0164750
672.737	0.0165234
672.815	0.0165770
672.893	0.0165698
672.971	0.0165517
673.049	0.0165533
673.128	0.0166833
673.206	0.0165471
673.284	0.0164348
673.362	0.0165302
673.440	0.0165509
673.518	0.0165643
673.596	0.0165141
673.674	0.0165068
673.753	0.0166273
673.831	0.0165336
673.909	0.0164835
673.987	0.0165038
674.065	0.0166369
674.143	0.0165192
674.221	0.0163506
674.299	0.0164754
674.378	0.0163014
674.456	0.0165262
674.534	0.0165157
674.612	0.0165913
674.690	0.0165757
674.768	0.0164706
674.846	0.0164895
674.924	0.0164321
675.003	0.0164336
675.081	0.0165858
675.159	0.0165539
675.237	0.0165499
675.315	0.0165079
675.393	0.0166830
675.471	0.0166056
675.549	0.0164838
675.628	0.0165323
675.706	0.0164697
675.784	0.0165150
675.862	0.0165653
675.940	0.0165813
676.018	0.0165977
676.096	0.0164862
676.174	0.0165715
676.253	0.0165355
676.331	0.0165308
676.409	0.0166003
676.487	0.0166456
676.565	0.0165412
676.643	0.0165409
676.721	0.0165108
676.799	0.0165227
676.878	0.0165857
676.956	0.0166142
677.034	0.0165643
677.112	0.0166034
677.190	0.0164949
677.268	0.0165939
677.346	0.0165523
677.424	0.0164715
677.503	0.0164429
677.581	0.0165719
677.659	0.0165771
677.737	0.0165395
677.815	0.0165504
677.893	0.0166338
677.971	0.0164816
678.049	0.0165079
678.128	0.0166631
678.206	0.0166737
678.284	0.0166256
678.362	0.0166375
678.440	0.0165474
678.518	0.0165129
678.596	0.0164700
678.674	0.0165313
678.753	0.0165716
678.831	0.0164901
678.909	0.0165140
678.987	0.0166608
679.065	0.0165049
679.143	0.0165077
679.221	0.0166248
679.299	0.0165464
679.378	0.0166229
679.456	0.0165672
679.534	0.0165900
679.612	0.0167149
679.690	0.0166366
679.768	0.0165562
679.846	0.0166221
679.924	0.0165239
680.003	0.0164030
680.081	0.0166324
680.159	0.0165520
680.237	0.0166577
680.315	0.0164375
680.393	0.0165921
680.471	0.0165672
680.549	0.0165862
680.628	0.0167139
680.706	0.0167007
680.784	0.0165677
680.862	0.0166393
680.940	0.0165857
681.018	0.0164877
681.096	0.0166518
681.174	0.0167003
681.253	0.0165204
681.331	0.0166885
681.409	0.0165845
681.487	0.0165901
681.565	0.0166264
681.643	0.0166248
681.721	0.0165261
681.799	0.0166221
681.878	0.0165102
681.956	0.0165302
682.034	0.0166176
682.112	0.0165105
682.190	0.0164564
682.268	0.0165450
682.346	0.0165995
682.424	0.0166243
682.503	0.0165192
682.581	0.0167081
682.659	0.0166001
682.737	0.0165218
682.815	0.0164743
682.893	0.0165206
682.971	0.0165852
683.049	0.0164593
683.128	0.0164075
683.206	0.0165896
683.284	0.0165770
683.362	0.0165412
683.440	0.0165497
683.518	0.0166333
683.596	0.0164171
683.674	0.0165638
683.753	0.0166236
683.831	0.0165350
683.909	0.0165166
683.987	0.0165626
684.065	0.0165182
684.143	0.0165967
684.221	0.0164422
684.299	0.0164349
684.378	0.0166130
684.456	0.0165514
684.534	0.0166658
684.612	0.0164941
684.690	0.0165317
684.768	0.0165712
684.846	0.0164585
684.924	0.0165733
685.003	0.0165177
685.081	0.0165583
685.159	0.0166813
685.237	0.0165419
685.315	0.0165553
685.393	0.0167255
685.471	0.0166393
685.549	0.0164838
685.628	0.0165445
685.706	0.0164796
685.784	0.0166648
685.862	0.0165052
685.940	0.0165186
686.018	0.0164611
686.096	0.0166224
686.174	0.0165965
686.253	0.0165417
686.331	0.0164899
686.409	0.0166473
686.487	0.0165313
686.565	0.0166210
686.643	0.0165838
686.721	0.0164860
686.799	0.0166216
686.878	0.0166276
686.956	0.0165810
687.034	0.0165038
687.112	0.0166365
687.190	0.0165782
687.268	0.0166757
687.346	0.0164666
687.424	0.0167506
687.503	0.0167135
687.581	0.0164750
687.659	0.0166305
687.737	0.0165462
687.815	0.0165328
687.893	0.0165608
687.971	0.0165647
688.049	0.0165382
688.128	0.0164357
688.206	0.0165538
688.284	0.0164912
688.362	0.0164594
688.440	0.0166071
688.518	0.0165962
688.596	0.0166170
688.674	0.0167186
688.753	0.0165130
688.831	0.0165813
688.909	0.0165622
688.987	0.0165334
689.065	0.0165852
689.143	0.0164970
689.221	0.0166409
689.299	0.0165874
689.378	0.0164326
689.456	0.0164124
689.534	0.0164983
689.612	0.0165355
689.690	0.0166325
689.768	0.0164989
689.846	0.0165714
689.924	0.0166405
690.003	0.0165678
690.081	0.0165741
690.159	0.0165772
690.237	0.0164738
690.315	0.0166100
690.393	0.0165881
690.471	0.0164728
690.549	0.0166344
690.628	0.0166180
690.706	0.0165446
690.784	0.0165271
690.862	0.0167250
690.940	0.0164538
691.018	0.0165285
691.096	0.0166226
691.174	0.0164969
691.253	0.0164474
691.331	0.0164108
691.409	0.0166984
691.487	0.0165730
691.565	0.0164986
691.643	0.0165143
691.721	0.0166370
691.799	0.0165904
691.878	0.0164413
691.956	0.0166811
692.034	0.0166215
692.112	0.0166103
692.190	0.0165191
692.268	0.0165571
692.346	0.0165929
692.424	0.0164933
692.503	0.0165570
692.581	0.0165279
692.659	0.0165612
692.737	0.0166296
692.815	0.0164759
692.893	0.0165451
692.971	0.0165203
693.049	0.0165240
693.128	0.0165685
693.206	0.0164886
693.284	0.0164098
693.362	0.0165723
693.440	0.0165457
693.518	0.0165725
693.596	0.0164943
693.674	0.0166048
693.753	0.0165832
693.831	0.0165402
693.909	0.0164713
693.987	0.0166211
694.065	0.0164719
694.143	0.0164535
694.221	0.0165879
694.299	0.0166319
694.378	0.0165233
694.456	0.0165755
694.534	0.0165219
694.612	0.0164878
694.690	0.0164724
694.768	0.0166871
694.846	0.0164706
694.924	0.0165199
695.003	0.0165095
695.081	0.0164954
695.159	0.0165348
695.237	0.0164931
695.315	0.0165947
695.393	0.0166249
695.471	0.0164936
695.549	0.0165253
695.628	0.0165659
695.706	0.0165598
695.784	0.0165302
695.862	0.0165483
695.940	0.0166232
696.018	0.0164194
696.096	0.0166911
696.174	0.0165768
696.253	0.0164945
696.331	0.0165188
696.409	0.0165146
696.487	0.0167802
696.565	0.0165732
696.643	0.0164781
696.721	0.0165000
696.799	0.0165831
696.878	0.0164816
696.956	0.0164802
697.034	0.0165762
697.112	0.0165006
697.190	0.0164038
697.268	0.0165166
697.346	0.0165110
697.424	0.0165144
697.503	0.0164674
697.581	0.0166183
697.659	0.0163520
697.737	0.0164513
697.815	0.0165556
697.893	0.0165796
697.971	0.0165240
698.049	0.0164553
698.128	0.0165936
698.206	0.0165656
698.284	0.0164693
698.362	0.0165852
698.440	0.0166941
698.518	0.0163824
698.596	0.0165430
698.674	0.0166525
698.753	0.0165530
698.831	0.0165660
698.909	0.0166738
698.987	0.0165818
699.065	0.0165261
699.143	0.0164304
699.221	0.0164365
699.299	0.0165820
699.378	0.0164960
699.456	0.0164535
699.534	0.0164169
699.612	0.0164706
699.690	0.0165468
699.768	0.0164962
699.846	0.0166473
699.924	0.0166183
700.003	0.0166338
700.081	0.0165212
700.159	0.0165607
700.237	0.0165225
700.315	0.0164534
700.393	0.0165922
700.471	0.0165723
700.549	0.0166801
700.628	0.0165686
700.706	0.0165308
700.784	0.0164831
700.862	0.0164959
700.940	0.0166686
701.018	0.0167532
701.096	0.0164965
701.174	0.0166119
701.253	0.0164698
701.331	0.0165296
701.409	0.0165623
701.487	0.0164657
701.565	0.0165228
701.643	0.0164114
701.721	0.0165770
701.799	0.0166701
701.878	0.0164310
701.956	0.0165898
702.034	0.0166521
702.112	0.0165276
702.190	0.0165412
702.268	0.0164779
702.346	0.0166192
702.424	0.0167098
702.503	0.0165710
702.581	0.0165889
702.659	0.0165652
702.737	0.0166062
702.815	0.0165762
702.893	0.0165871
702.971	0.0165127
703.049	0.0165147
703.128	0.0167406
703.206	0.0165607
703.284	0.0165511
703.362	0.0165137
703.440	0.0165353
703.518	0.0166174
703.596	0.0165282
703.674	0.0167248
703.753	0.0165720
703.831	0.0164615
703.909	0.0166293
703.987	0.0165845
704.065	0.0165951
704.143	0.0164650
704.221	0.0166112
704.299	0.0166237
704.378	0.0165604
704.456	0.0165176
704.534	0.0166583
704.612	0.0165760
704.690	0.0165385
704.768	0.0166330
704.846	0.0165396
704.924	0.0164445
705.003	0.0165758
705.081	0.0163936
705.159	0.0165721
705.237	0.0165948
705.315	0.0165987
705.393	0.0165589
705.471	0.0164198
705.549	0.0164778
705.628	0.0165009
705.706	0.0164889
705.784	0.0165769
705.862	0.0166493
705.940	0.0164710
706.018	0.0166219
706.096	0.0165834
706.174	0.0165246
706.253	0.0164846
706.331	0.0165722
706.409	0.0164897
706.487	0.0164748
706.565	0.0166036
706.643	0.0166703
706.721	0.0165620
706.799	0.0164056
706.878	0.0166325
706.956	0.0165669
707.034	0.0165271
707.112	0.0165818
707.190	0.0166095
707.268	0.0165330
707.346	0.0166422
707.424	0.0165960
707.503	0.0167091
707.581	0.0165805
707.659	0.0164899
707.737	0.0166460
707.815	0.0167187
707.893	0.0164832
707.971	0.0164974
708.049	0.0164927
708.128	0.0165627
708.206	0.0166134
708.284	0.0165843
708.362	0.0165700
708.440	0.0165686
708.518	0.0165370
708.596	0.0166512
708.674	0.0164832
708.753	0.0164609
708.831	0.0165152
708.909	0.0165943
708.987	0.0165398
709.065	0.0165735
709.143	0.0165168
709.221	0.0163902
709.299	0.0165382
709.378	0.0165549
709.456	0.0164645
709.534	0.0166430
709.612	0.0166532
709.690	0.0165344
709.768	0.0165841
709.846	0.0164919
709.924	0.0164708
710.003	0.0165482
710.081	0.0166159
710.159	0.0165607
710.237	0.0164666
710.315	0.0165279
710.393	0.0165614
710.471	0.0164582
710.549	0.0166080
710.628	0.0164729
710.706	0.0165655
710.784	0.0166147
710.862	0.0165672
710.940	0.0164568
711.018	0.0165957
711.096	0.0165018
711.174	0.0164947
711.253	0.0165125
711.331	0.0164709
711.409	0.0166939
711.487	0.0165505
711.565	0.0165353
711.643	0.0165102
711.721	0.0164621
711.799	0.0165208
711.878	0.0165475
711.956	0.0164787
712.034	0.0165724
712.112	0.0165022
712.190	0.0164514
712.268	0.0166421
712.346	0.0166847
712.424	0.0165064
712.503	0.0165286
712.581	0.0165789
712.659	0.0165283
712.737	0.0166566
712.815	0.0164757
712.893	0.0165947
712.971	0.0166193
713.049	0.0166058
713.128	0.0164516
713.206	0.0166854
713.284	0.0164456
713.362	0.0165316
713.440	0.0167032
713.518	0.0166470
713.596	0.0165122
713.674	0.0166065
713.753	0.0165578
713.831	0.0165071
713.909	0.0165218
713.987	0.0164748
714.065	0.0165600
714.143	0.0167010
714.221	0.0165333
714.299	0.0165585
714.378	0.0165297
714.456	0.0163684
714.534	0.0165825
714.612	0.0166750
714.690	0.0165289
714.768	0.0166045
714.846	0.0163988
714.924	0.0164152
715.003	0.0164890
715.081	0.0166424
715.159	0.0165054
715.237	0.0164246
715.315	0.0164983
715.393	0.0165532
715.471	0.0164782
715.549	0.0163860
715.628	0.0165430
715.706	0.0167285
715.784	0.0165535
715.862	0.0166017
715.940	0.0166492
716.018	0.0164761
716.096	0.0165910
716.174	0.0165302
716.253	0.0165670
716.331	0.0166293
716.409	0.0165211
716.487	0.0167311
716.565	0.0165434
716.643	0.0166478
716.721	0.0168029
716.799	0.0166163
716.878	0.0166795
716.956	0.0166814
717.034	0.0167155
717.112	0.0167193
717.190	0.0167264
717.268	0.0166875
717.346	0.0166971
717.424	0.0166895
717.503	0.0169077
717.581	0.0167217
717.659	0.0167827
717.737	0.0165717
717.815	0.0164800
717.893	0.0165117
717.971	0.0165369
718.049	0.0165432
718.128	0.0165024
718.206	0.0164604
718.284	0.0164848
718.362	0.0163737
718.440	0.0164786
718.518	0.0162758
718.596	0.0164279
718.674	0.0164795
718.753	0.0165673
718.831	0.0164857
718.909	0.0163481
718.987	0.0163296
719.065	0.0165115
719.143	0.0164529
719.221	0.0164146
719.299	0.0163815
719.378	0.0164952
719.456	0.0164768
719.534	0.0163674
719.612	0.0164579
719.690	0.0166339
719.768	0.0165218
719.846	0.0164241
719.924	0.0164448
720.003	0.0166113
720.081	0.0166058
720.159	0.0165022
720.237	0.0164656
720.315	0.0164535
720.393	0.0164418
720.471	0.0165339
720.549	0.0163847
720.628	0.0164597
720.706	0.0165086
720.784	0.0164378
720.862	0.0166106
720.940	0.0165436
721.018	0.0165705
721.096	0.0166016
721.174	0.0166142
721.253	0.0167066
721.331	0.0167793
721.409	0.0167216
721.487	0.0168075
721.565	0.0166221
721.643	0.0167838
721.721	0.0167331
721.799	0.0169027
721.878	0.0167430
721.956	0.0167353
722.034	0.0166592
722.112	0.0165398
722.190	0.0166172
722.268	0.0163267
722.346	0.0164072
722.424	0.0164005
722.503	0.0163377
722.581	0.0162180
722.659	0.0161556
722.737	0.0163018
722.815	0.0162489
722.893	0.0160171
722.971	0.0161715
723.049	0.0163306
723.128	0.0164777
723.206	0.0163866
723.284	0.0163269
723.362	0.0165664
723.440	0.0167145
723.518	0.0167049
723.596	0.0168867
723.674	0.0168422
723.753	0.0167851
723.831	0.0168768
723.909	0.0169407
723.987	0.0169592
724.065	0.0168618
724.143	0.0168661
724.221	0.0167693
724.299	0.0168061
724.378	0.0167455
724.456	0.0167201
724.534	0.0166975
724.612	0.0165235
724.690	0.0165025
724.768	0.0164416
724.846	0.0164548
724.924	0.0165522
725.003	0.0164443
725.081	0.0163061
725.159	0.0162478
725.237	0.0163807
725.315	0.0163395
725.393	0.0162814
725.471	0.0163306
725.549	0.0163215
725.628	0.0164726
725.706	0.0164665
725.784	0.0164867
725.862	0.0164356
725.940	0.0165548
726.018	0.0165127
726.096	0.0165736
726.174	0.0165717
726.253	0.0167030
726.331	0.0167430
726.409	0.0167817
726.487	0.0167168
726.565	0.0166431
726.643	0.0167289
726.721	0.0167815
726.799	0.0168710
726.878	0.0166619
726.956	0.0165942
727.034	0.0166077
727.112	0.0166349
727.190	0.0165369
727.268	0.0166607
727.346	0.0165364
727.424	0.0165128
727.503	0.0165101
727.581	0.0165227
727.659	0.0167045
727.737	0.0164568
727.815	0.0164233
727.893	0.0165678
727.971	0.0165582
728.049	0.0166823
728.128	0.0165007
728.206	0.0166830
728.284	0.0165816
728.362	0.0164922
728.440	0.0166568
728.518	0.0165244
728.596	0.0165736
728.674	0.0164825
728.753	0.0164816
728.831	0.0164545
728.909	0.0163757
728.987	0.0165244
729.065	0.0164868
729.143	0.0164526
729.221	0.0165251
729.299	0.0163483
729.378	0.0164817
729.456	0.0163801
729.534	0.0164403
729.612	0.0165443
729.690	0.0166895
729.768	0.0164922
729.846	0.0166255
729.924	0.0165943
730.003	0.0166150
730.081	0.0165794
730.159	0.0167069
730.237	0.0166257
730.315	0.0165231
730.393	0.0165742
730.471	0.0167204
730.549	0.0166106
730.628	0.0165651
730.706	0.0166734
730.784	0.0165696
730.862	0.0166068
730.940	0.0166577
731.018	0.0165674
731.096	0.0165300
731.174	0.0166491
731.253	0.0166659
731.331	0.0167565
731.409	0.0168660
731.487	0.0167735
731.565	0.0168170
731.643	0.0167724
731.721	0.0167537
731.799	0.0167331
731.878	0.0168292
731.956	0.0166940
732.034	0.0166553
732.112	0.0168056
732.190	0.0167402
732.268	0.0166390
732.346	0.0166136
732.424	0.0165292
732.503	0.0165183
732.581	0.0165164
732.659	0.0164803
732.737	0.0164277
732.815	0.0162955
732.893	0.0165327
732.971	0.0163892
733.049	0.0164890
733.128	0.0164193
733.206	0.0163453
733.284	0.0164218
733.362	0.0164863
733.440	0.0165528
733.518	0.0166257
733.596	0.0166818
733.674	0.0166234
733.753	0.0169254
733.831	0.0166379
733.909	0.0166985
733.987	0.0166908
734.065	0.0167366
734.143	0.0166805
734.221	0.0166503
734.299	0.0165464
734.378	0.0164541
734.456	0.0164697
734.534	0.0165960
734.612	0.0164362
734.690	0.0162455
734.768	0.0162234
734.846	0.0163338
734.924	0.0164030
735.003	0.0163638
735.081	0.0164533
735.159	0.0163042
735.237	0.0163034
735.315	0.0164504
735.393	0.0164990
735.471	0.0167425
735.549	0.0167011
735.628	0.0166605
735.706	0.0167728
735.784	0.0166779
735.862	0.0168510
735.940	0.0167530
736.018	0.0168643
736.096	0.0168090
736.174	0.0168156
736.253	0.0166892
736.331	0.0166895
736.409	0.0166824
736.487	0.0166084
736.565	0.0165256
736.643	0.0162027
736.721	0.0163501
736.799	0.0164337
736.878	0.0163689
736.956	0.0162296
737.034	0.0163608
737.112	0.0162690
737.190	0.0164415
737.268	0.0166187
737.346	0.0165230
737.424	0.0165450
737.503	0.0166233
737.581	0.0166474
737.659	0.0166112
737.737	0.0166444
737.815	0.0165993
737.893	0.0165118
737.971	0.0165942
738.049	0.0165996
738.128	0.0166616
738.206	0.0165354
738.284	0.0164683
738.362	0.0164603
738.440	0.0164018
738.518	0.0163953
738.596	0.0163632
738.674	0.0163410
738.753	0.0163267
738.831	0.0163757
738.909	0.0162285
738.987	0.0162611
739.065	0.0163173
739.143	0.0163618
739.221	0.0165586
739.299	0.0165676
739.378	0.0164414
739.456	0.0165879
739.534	0.0166528
739.612	0.0168042
739.690	0.0167832
739.768	0.0167415
739.846	0.0168009
739.924	0.0167667
740.003	0.0167761
740.081	0.0169204
740.159	0.0167915
740.237	0.0167711
740.315	0.0167346
740.393	0.0166874
740.471	0.0166178
740.549	0.0165491
740.628	0.0167264
740.706	0.0165910
740.784	0.0165856
740.862	0.0166340
740.940	0.0165320
741.018	0.0165570
741.096	0.0164317
741.174	0.0164626
741.253	0.0164875
741.331	0.0165521
741.409	0.0166886
741.487	0.0166554
741.565	0.0166454
741.643	0.0165869
741.721	0.0165956
741.799	0.0164610
741.878	0.0164915
741.956	0.0165900
742.034	0.0164716
742.112	0.0165588
742.190	0.0166954
742.268	0.0167062
742.346	0.0165441
742.424	0.0164165
742.503	0.0165720
742.581	0.0165769
742.659	0.0166028
742.737	0.0164622
742.815	0.0165651
742.893	0.0165755
742.971	0.0164533
743.049	0.0165600
743.128	0.0164605
743.206	0.0164953
743.284	0.0164099
743.362	0.0164258
743.440	0.0163739
743.518	0.0164391
743.596	0.0166094
743.674	0.0165652
743.753	0.0164242
743.831	0.0165252
743.909	0.0164928
743.987	0.0165847
744.065	0.0166310
744.143	0.0165733
744.221	0.0167014
744.299	0.0167416
744.378	0.0166867
744.456	0.0167258
744.534	0.0166582
744.612	0.0166272
744.690	0.0166503
744.768	0.0166719
744.846	0.0167190
744.924	0.0166184
745.003	0.0165262
745.081	0.0166158
745.159	0.0164647
745.237	0.0164429
745.315	0.0164848
745.393	0.0164369
745.471	0.0163216
745.549	0.0164833
745.628	0.0165284
745.706	0.0162915
745.784	0.0165158
745.862	0.0164581
745.940	0.0165665
746.018	0.0165580
746.096	0.0165644
746.174	0.0165765
746.253	0.0165537
746.331	0.0166937
746.409	0.0167639
746.487	0.0166402
746.565	0.0166550
746.643	0.0165898
746.721	0.0165706
746.799	0.0165123
746.878	0.0165982
746.956	0.0166053
747.034	0.0164834
747.112	0.0164717
747.190	0.0165383
747.268	0.0165831
747.346	0.0166064
747.424	0.0166017
747.503	0.0165421
747.581	0.0166302
747.659	0.0166671
747.737	0.0167026
747.815	0.0166214
747.893	0.0166843
747.971	0.0167266
748.049	0.0166505
748.128	0.0166830
748.206	0.0167522
748.284	0.0166749
748.362	0.0166936
748.440	0.0166512
748.518	0.0166515
748.596	0.0165905
748.674	0.0164590
748.753	0.0164558
748.831	0.0165045
748.909	0.0164323
748.987	0.0164352
749.065	0.0163377
749.143	0.0164357
749.221	0.0165513
749.299	0.0164736
749.378	0.0166016
749.456	0.0165597
749.534	0.0165127
749.612	0.0165099
749.690	0.0166055
749.768	0.0166976
749.846	0.0165761
749.924	0.0165898
750.003	0.0164722
750.081	0.0166010
750.159	0.0166356
750.237	0.0166572
750.315	0.0166509
750.393	0.0164243
750.471	0.0165032
750.549	0.0165700
750.628	0.0166033
750.706	0.0164917
750.784	0.0165038
750.862	0.0163565
750.940	0.0164207
751.018	0.0164326
751.096	0.0165382
751.174	0.0166389
751.253	0.0165254
751.331	0.0163960
751.409	0.0165072
751.487	0.0166367
751.565	0.0165512
751.643	0.0165694
751.721	0.0165228
751.799	0.0164412
751.878	0.0164078
751.956	0.0164154
752.034	0.0164917
752.112	0.0164518
752.190	0.0165607
752.268	0.0165406
752.346	0.0166367
752.424	0.0166875
752.503	0.0166234
752.581	0.0165688
752.659	0.0166281
752.737	0.0164510
752.815	0.0167014
752.893	0.0166721
752.971	0.0165961
753.049	0.0165681
753.128	0.0164208
753.206	0.0164557
753.284	0.0165044
753.362	0.0164006
753.440	0.0165489
753.518	0.0165895
753.596	0.0165971
753.674	0.0165039
753.753	0.0165597
753.831	0.0165968
753.909	0.0165020
753.987	0.0165674
754.065	0.0164996
754.143	0.0166524
754.221	0.0165640
754.299	0.0166162
754.378	0.0164996
754.456	0.0165403
754.534	0.0165881
754.612	0.0167176
754.690	0.0167850
754.768	0.0165482
754.846	0.0166738
754.924	0.0165974
755.003	0.0165990
755.081	0.0167153
755.159	0.0165815
755.237	0.0165614
755.315	0.0166597
755.393	0.0165993
755.471	0.0166111
755.549	0.0164377
755.628	0.0164111
755.706	0.0165638
755.784	0.0164880
755.862	0.0164242
755.940	0.0164866
756.018	0.0165852
756.096	0.0165266
756.174	0.0166746
756.253	0.0165807
756.331	0.0164456
756.409	0.0164758
756.487	0.0165042
756.565	0.0164704
756.643	0.0164943
756.721	0.0165630
756.799	0.0164818
756.878	0.0165623
756.956	0.0164778
757.034	0.0166756
757.112	0.0165619
757.190	0.0167117
757.268	0.0166602
757.346	0.0166203
757.424	0.0166882
757.503	0.0166614
757.581	0.0166024
757.659	0.0166147
757.737	0.0166268
757.815	0.0166347
757.893	0.0164239
757.971	0.0164901
758.049	0.0164799
758.128	0.0166171
758.206	0.0165145
758.284	0.0165146
758.362	0.0164180
758.440	0.0164057
758.518	0.0165538
758.596	0.0162846
758.674	0.0165205
758.753	0.0167352
758.831	0.0165391
758.909	0.0166431
758.987	0.0166874
759.065	0.0166923
759.143	0.0166191
759.221	0.0167142
759.299	0.0167648
759.378	0.0167139
759.456	0.0165122
759.534	0.0165501
759.612	0.0164846
759.690	0.0165571
759.768	0.0165502
759.846	0.0163644
759.924	0.0165132
760.003	0.0163598
760.081	0.0164896
760.159	0.0164671
760.237	0.0164444
760.315	0.0165444
760.393	0.0164656
760.471	0.0164523
760.549	0.0164606
760.628	0.0164645
760.706	0.0164488
760.784	0.0165184
760.862	0.0166263
760.940	0.0166573
761.018	0.0166735
761.096	0.0166814
761.174	0.0166131
761.253	0.0165483
761.331	0.0166803
761.409	0.0165254
761.487	0.0166005
761.565	0.0164820
761.643	0.0165465
761.721	0.0165022
761.799	0.0166071
761.878	0.0163543
761.956	0.0164062
762.034	0.0164313
762.112	0.0163727
762.190	0.0164064
762.268	0.0165683
762.346	0.0164616
762.424	0.0165022
762.503	0.0165968
762.581	0.0163976
762.659	0.0165950
762.737	0.0166015
762.815	0.0165973
762.893	0.0165844
762.971	0.0165997
763.049	0.0165829
763.128	0.0166648
763.206	0.0167212
763.284	0.0166232
763.362	0.0167013
763.440	0.0167046
763.518	0.0166199
763.596	0.0166082
763.674	0.0167023
763.753	0.0166060
763.831	0.0165759
763.909	0.0164410
763.987	0.0165557
764.065	0.0165121
764.143	0.0165005
764.221	0.0164954
764.299	0.0164756
764.378	0.0164939
764.456	0.0165119
764.534	0.0165778
764.612	0.0166743
764.690	0.0165932
764.768	0.0167272
764.846	0.0166724
764.924	0.0166121
765.003	0.0166547
765.081	0.0166832
765.159	0.0165672
765.237	0.0166972
765.315	0.0165969
765.393	0.0165967
765.471	0.0165578
765.549	0.0166970
765.628	0.0164382
765.706	0.0164856
765.784	0.0165619
765.862	0.0163828
765.940	0.0164415
766.018	0.0164674
766.096	0.0165230
766.174	0.0165100
766.253	0.0164967
766.331	0.0167112
766.409	0.0166055
766.487	0.0166812
766.565	0.0167448
766.643	0.0165728
766.721	0.0166423
766.799	0.0166210
766.878	0.0167116
766.956	0.0166367
767.034	0.0166458
767.112	0.0165944
767.190	0.0165600
767.268	0.0166454
767.346	0.0164890
767.424	0.0165823
767.503	0.0166291
767.581	0.0165535
767.659	0.0163663
767.737	0.0163638
767.815	0.0164587
767.893	0.0166591
767.971	0.0165816
768.049	0.0165475
768.128	0.0166174
768.206	0.0166924
768.284	0.0166028
768.362	0.0165511
768.440	0.0166489
768.518	0.0165533
768.596	0.0165125
768.674	0.0166117
768.753	0.0166621
768.831	0.0166513
768.909	0.0166898
768.987	0.0166259
769.065	0.0166428
769.143	0.0165999
769.221	0.0166923
769.299	0.0165525
769.378	0.0163526
769.456	0.0164635
769.534	0.0165660
769.612	0.0164950
769.690	0.0164156
769.768	0.0164477
769.846	0.0164746
769.924	0.0162540
770.003	0.0164142
770.081	0.0165489
770.159	0.0163985
770.237	0.0163850
770.315	0.0165047
770.393	0.0164445
770.471	0.0165017
770.549	0.0165190
770.628	0.0165144
770.706	0.0165836
770.784	0.0164394
770.862	0.0166322
770.940	0.0165849
771.018	0.0164726
771.096	0.0165479
771.174	0.0165884
771.253	0.0166145
771.331	0.0165568
771.409	0.0164435
771.487	0.0165739
771.565	0.0165137
771.643	0.0165928
771.721	0.0165677
771.799	0.0164825
771.878	0.0165102
771.956	0.0166405
772.034	0.0166439
772.112	0.0166886
772.190	0.0166016
772.268	0.0166976
772.346	0.0166046
772.424	0.0164328
772.503	0.0165468
772.581	0.0164753
772.659	0.0166393
772.737	0.0166782
772.815	0.0164809
772.893	0.0164169
772.971	0.0166662
773.049	0.0166373
773.128	0.0165613
773.206	0.0164464
773.284	0.0164276
773.362	0.0165604
773.440	0.0166085
773.518	0.0164369
773.596	0.0165133
773.674	0.0166162
773.753	0.0166916
773.831	0.0166782
773.909	0.0165375
773.987	0.0164848
774.065	0.0166390
774.143	0.0166077
774.221	0.0165741
774.299	0.0166174
774.378	0.0165661
774.456	0.0165393
774.534	0.0164709
774.612	0.0165588
774.690	0.0163898
774.768	0.0165276
774.846	0.0164407
774.924	0.0165344
775.003	0.0167489
775.081	0.0164487
775.159	0.0166238
775.237	0.0164035
775.315	0.0165061
775.393	0.0165747
775.471	0.0167762
775.549	0.0165972
775.628	0.0165701
775.706	0.0164653
775.784	0.0166622
775.862	0.0167676
775.940	0.0165936
776.018	0.0166576
776.096	0.0164706
776.174	0.0166209
776.253	0.0166833
776.331	0.0166739
776.409	0.0165855
776.487	0.0167180
776.565	0.0165591
776.643	0.0165240
776.721	0.0165530
776.799	0.0165063
776.878	0.0166209
776.956	0.0165586
777.034	0.0163914
777.112	0.0165457
777.190	0.0165317
777.268	0.0165282
777.346	0.0164879
777.424	0.0164389
777.503	0.0165675
777.581	0.0166374
777.659	0.0165601
777.737	0.0166265
777.815	0.0164780
777.893	0.0165711
777.971	0.0165665
778.049	0.0165150
778.128	0.0166563
778.206	0.0165607
778.284	0.0165229
778.362	0.0166534
778.440	0.0164983
778.518	0.0165220
778.596	0.0165211
778.674	0.0165530
778.753	0.0165015
778.831	0.0164771
778.909	0.0165735
778.987	0.0165369
779.065	0.0165001
779.143	0.0164835
779.221	0.0164917
779.299	0.0163837
779.378	0.0165913
779.456	0.0167082
779.534	0.0166225
779.612	0.0166256
779.690	0.0167020
779.768	0.0165250
779.846	0.0166522
779.924	0.0166935
780.003	0.0167155
780.081	0.0166738
780.159	0.0165818
780.237	0.0167291
780.315	0.0166077
780.393	0.0167608
780.471	0.0166907
780.549	0.0167105
780.628	0.0166902
780.706	0.0166216
780.784	0.0164982
780.862	0.0166312
780.940	0.0165562
781.018	0.0166375
781.096	0.0166630
781.174	0.0166208
781.253	0.0165952
781.331	0.0165963
781.409	0.0164728
781.487	0.0166595
781.565	0.0166361
781.643	0.0165014
781.721	0.0167796
781.799	0.0165775
781.878	0.0163766
781.956	0.0165208
782.034	0.0164147
782.112	0.0163562
782.190	0.0165292
782.268	0.0164278
782.346	0.0164191
782.424	0.0165551
782.503	0.0165803
782.581	0.0163748
782.659	0.0164287
782.737	0.0165093
782.815	0.0164758
782.893	0.0165254
782.971	0.0164642
783.049	0.0164896
783.128	0.0165701
783.206	0.0167010
783.284	0.0168109
783.362	0.0165938
783.440	0.0165903
783.518	0.0165233
783.596	0.0166349
783.674	0.0166202
783.753	0.0164725
783.831	0.0164638
783.909	0.0165971
783.987	0.0165308
784.065	0.0165926
784.143	0.0165618
784.221	0.0165663
784.299	0.0164846
784.378	0.0164341
784.456	0.0165237
784.534	0.0165583
784.612	0.0165653
784.690	0.0166275
784.768	0.0166767
784.846	0.0166447
784.924	0.0165627
785.003	0.0166977
785.081	0.0167226
785.159	0.0165331
785.237	0.0164902
785.315	0.0165889
785.393	0.0166628
785.471	0.0166249
785.549	0.0166595
785.628	0.0164966
785.706	0.0164665
785.784	0.0165743
785.862	0.0167961
785.940	0.0166107
786.018	0.0165447
786.096	0.0165008
786.174	0.0164645
786.253	0.0165526
786.331	0.0165430
786.409	0.0166405
786.487	0.0166305
786.565	0.0166438
786.643	0.0164465
786.721	0.0165340
786.799	0.0166035
786.878	0.0164738
786.956	0.0166315
787.034	0.0164651
787.112	0.0164424
787.190	0.0164803
787.268	0.0165166
787.346	0.0165238
787.424	0.0165644
787.503	0.0164864
787.581	0.0165156
787.659	0.0165365
787.737	0.0165359
787.815	0.0165690
787.893	0.0164350
787.971	0.0166157
788.049	0.0165797
788.128	0.0164527
788.206	0.0166210
788.284	0.0166087
788.362	0.0165405
788.440	0.0165539
788.518	0.0165446
788.596	0.0166409
788.674	0.0165742
788.753	0.0165665
788.831	0.0164707
788.909	0.0165297
788.987	0.0166869
789.065	0.0166637
789.143	0.0165653
789.221	0.0165167
789.299	0.0164579
789.378	0.0165836
789.456	0.0165434
789.534	0.0165886
789.612	0.0166077
789.690	0.0163946
789.768	0.0165405
789.846	0.0164966
789.924	0.0164672
790.003	0.0165428
790.081	0.0166087
790.159	0.0166135
790.237	0.0166476
790.315	0.0167229
790.393	0.0167109
790.471	0.0165786
790.549	0.0166640
790.628	0.0165759
790.706	0.0166227
790.784	0.0166205
790.862	0.0165404
790.940	0.0165936
791.018	0.0165660
791.096	0.0164850
791.174	0.0165710
791.253	0.0165277
791.331	0.0164238
791.409	0.0166355
791.487	0.0165781
791.565	0.0164596
791.643	0.0164333
791.721	0.0165377
791.799	0.0164835
791.878	0.0165646
791.956	0.0165446
792.034	0.0165199
792.112	0.0167064
792.190	0.0164994
792.268	0.0166417
792.346	0.0167024
792.424	0.0164548
792.503	0.0166221
792.581	0.0165459
792.659	0.0165794
792.737	0.0167243
792.815	0.0165902
792.893	0.0166632
792.971	0.0166094
793.049	0.0166460
793.128	0.0165428
793.206	0.0165586
793.284	0.0167058
793.362	0.0165270
793.440	0.0166526
793.518	0.0166704
793.596	0.0164542
793.674	0.0165140
793.753	0.0166162
793.831	0.0165133
793.909	0.0164915
793.987	0.0164893
794.065	0.0165934
794.143	0.0164338
794.221	0.0166055
794.299	0.0165385
794.378	0.0167069
794.456	0.0165185
794.534	0.0165500
794.612	0.0166279
794.690	0.0166179
794.768	0.0165852
794.846	0.0164828
794.924	0.0166630
795.003	0.0164613
795.081	0.0164389
795.159	0.0166129
795.237	0.0164321
795.315	0.0164040
795.393	0.0166167
795.471	0.0164446
795.549	0.0164350
795.628	0.0165855
795.706	0.0166288
795.784	0.0165495
795.862	0.0163745
795.940	0.0165363
796.018	0.0165937
796.096	0.0164410
796.174	0.0166293
796.253	0.0166003
796.331	0.0165572
796.409	0.0164720
796.487	0.0164907
796.565	0.0165933
796.643	0.0164874
796.721	0.0164790
796.799	0.0164614
796.878	0.0165820
796.956	0.0164511
797.034	0.0164391
797.112	0.0165659
797.190	0.0164191
797.268	0.0164125
797.346	0.0165645
797.424	0.0166714
797.503	0.0165506
797.581	0.0164674
797.659	0.0164897
797.737	0.0164502
797.815	0.0165043
797.893	0.0166351
797.971	0.0166373
798.049	0.0166419
798.128	0.0166373
798.206	0.0165852
798.284	0.0167346
798.362	0.0164654
798.440	0.0165044
798.518	0.0164687
798.596	0.0165678
798.674	0.0166640
798.753	0.0164919
798.831	0.0165341
798.909	0.0164257
798.987	0.0165340
799.065	0.0164561
799.143	0.0163990
799.221	0.0165116
799.299	0.0165090
799.378	0.0164758
799.456	0.0166528
799.534	0.0166205
799.612	0.0165079
799.690	0.0164240
799.768	0.0164051
799.846	0.0166238
799.924	0.0164049
800.003	0.0165437
800.081	0.0165775
800.159	0.0163706
800.237	0.0165881
800.315	0.0166158
800.393	0.0164616
800.471	0.0165535
800.549	0.0164547
800.628	0.0164674
800.706	0.0166388
800.784	0.0164384
800.862	0.0166019
800.940	0.0165234
801.018	0.0165137
801.096	0.0164887
801.174	0.0167194
801.253	0.0166190
801.331	0.0165848
801.409	0.0165681
801.487	0.0166821
801.565	0.0166227
801.643	0.0165935
801.721	0.0165608
801.799	0.0166536
801.878	0.0165823
801.956	0.0167437
802.034	0.0165850
802.112	0.0164809
802.190	0.0164379
802.268	0.0166042
802.346	0.0165445
802.424	0.0164740
802.503	0.0165514
802.581	0.0166788
802.659	0.0166516
802.737	0.0166089
802.815	0.0165968
802.893	0.0165829
802.971	0.0164954
803.049	0.0165154
803.128	0.0166235
803.206	0.0165596
803.284	0.0165350
803.362	0.0165047
803.440	0.0165283
803.518	0.0167383
803.596	0.0165506
803.674	0.0164704
803.753	0.0165580
803.831	0.0166208
803.909	0.0164378
803.987	0.0165846
804.065	0.0165067
804.143	0.0166373
804.221	0.0164284
804.299	0.0165368
804.378	0.0164690
804.456	0.0165599
804.534	0.0166143
804.612	0.0165691
804.690	0.0164495
804.768	0.0164162
804.846	0.0165348
804.924	0.0163246
805.003	0.0165491
805.081	0.0165293
805.159	0.0164089
805.237	0.0164440
805.315	0.0166273
805.393	0.0164634
805.471	0.0165132
805.549	0.0165102
805.628	0.0165217
805.706	0.0165270
805.784	0.0165456
805.862	0.0165099
805.940	0.0165250
806.018	0.0165328
806.096	0.0165662
806.174	0.0165225
806.253	0.0165078
806.331	0.0164635
806.409	0.0164980
806.487	0.0166398
806.565	0.0165798
806.643	0.0165833
806.721	0.0164792
806.799	0.0164729
806.878	0.0165128
806.956	0.0165184
807.034	0.0165089
807.112	0.0165298
807.190	0.0164732
807.268	0.0164650
807.346	0.0165146
807.424	0.0165760
807.503	0.0164183
807.581	0.0165269
807.659	0.0164217
807.737	0.0166875
807.815	0.0165331
807.893	0.0165643
807.971	0.0163377
808.049	0.0164801
808.128	0.0165253
808.206	0.0165483
808.284	0.0165569
808.362	0.0164826
808.440	0.0166695
808.518	0.0164970
808.596	0.0166340
808.674	0.0165288
808.753	0.0164157
808.831	0.0164612
808.909	0.0165156
808.987	0.0165628
809.065	0.0165559
809.143	0.0165775
809.221	0.0165267
809.299	0.0165639
809.378	0.0166980
809.456	0.0166314
809.534	0.0166788
809.612	0.0164413
809.690	0.0165546
809.768	0.0167213
809.846	0.0167170
809.924	0.0166105
810.003	0.0166031
810.081	0.0166900
810.159	0.0165377
810.237	0.0164861
810.315	0.0165733
810.393	0.0164608
810.471	0.0165741
810.549	0.0164302
810.628	0.0163756
810.706	0.0164561
810.784	0.0164514
810.862	0.0165033
810.940	0.0164083
811.018	0.0165434
811.096	0.0164653
811.174	0.0164975
811.253	0.0163661
811.331	0.0164168
811.409	0.0164069
811.487	0.0164658
811.565	0.0163795
811.643	0.0163671
811.721	0.0164845
811.799	0.0164663
811.878	0.0164769
811.956	0.0163775
812.034	0.0164440
812.112	0.0164378
812.190	0.0165898
812.268	0.0164889
812.346	0.0164938
812.424	0.0165575
812.503	0.0165351
812.581	0.0166769
812.659	0.0167366
812.737	0.0166847
812.815	0.0166388
812.893	0.0166134
812.971	0.0165530
813.049	0.0166105
813.128	0.0167652
813.206	0.0165862
813.284	0.0166219
813.362	0.0167171
813.440	0.0167366
813.518	0.0166461
813.596	0.0166789
813.674	0.0167746
813.753	0.0166563
813.831	0.0166729
813.909	0.0167603
813.987	0.0166788
814.065	0.0167131
814.143	0.0165927
814.221	0.0167583
814.299	0.0165771
814.378	0.0166067
814.456	0.0166170
814.534	0.0164833
814.612	0.0165405
814.690	0.0165797
814.768	0.0165451
814.846	0.0165505
814.924	0.0165604
815.003	0.0164452
815.081	0.0164713
815.159	0.0165170
815.237	0.0164388
815.315	0.0165392
815.393	0.0165838
815.471	0.0164763
815.549	0.0163966
815.628	0.0165323
815.706	0.0165192
815.784	0.0164729
815.862	0.0165105
815.940	0.0165403
816.018	0.0164576
816.096	0.0164262
816.174	0.0164709
816.253	0.0165340
816.331	0.0166499
816.409	0.0163818
816.487	0.0165374
816.565	0.0165179
816.643	0.0165661
816.721	0.0165163
816.799	0.0165158
816.878	0.0164221
816.956	0.0165198
817.034	0.0164709
817.112	0.0165139
817.190	0.0164846
817.268	0.0164697
817.346	0.0166418
817.424	0.0165096
817.503	0.0166457
817.581	0.0165535
817.659	0.0164542
817.737	0.0166744
817.815	0.0167079
817.893	0.0165574
817.971	0.0167220
818.049	0.0164977
818.128	0.0165423
818.206	0.0165956
818.284	0.0164041
818.362	0.0166182
818.440	0.0165575
818.518	0.0164542
818.596	0.0164110
818.674	0.0165329
818.753	0.0165519
818.831	0.0164034
818.909	0.0164728
818.987	0.0164615
819.065	0.0164660
819.143	0.0165514
819.221	0.0164899
819.299	0.0164909
819.378	0.0166419
819.456	0.0165545
819.534	0.0165128
819.612	0.0165205
819.690	0.0165531
819.768	0.0164893
819.846	0.0164367
819.924	0.0165256
820.003	0.0164329
820.081	0.0163821
820.159	0.0164590
820.237	0.0166120
820.315	0.0165446
820.393	0.0164142
820.471	0.0165186
820.549	0.0166753
820.628	0.0166544
820.706	0.0164790
820.784	0.0165369
820.862	0.0166467
820.940	0.0164796
821.018	0.0165792
821.096	0.0163834
821.174	0.0165520
821.253	0.0165226
821.331	0.0165612
821.409	0.0164862
821.487	0.0165105
821.565	0.0165566
821.643	0.0165151
821.721	0.0164454
821.799	0.0165098
821.878	0.0166371
821.956	0.0164897
822.034	0.0165091
822.112	0.0163867
822.190	0.0164581
822.268	0.0164544
822.346	0.0164832
822.424	0.0165273
822.503	0.0165714
822.581	0.0163966
822.659	0.0163319
822.737	0.0164283
822.815	0.0165302
822.893	0.0165702
822.971	0.0165379
823.049	0.0165024
823.128	0.0165475
823.206	0.0165687
823.284	0.0164748
823.362	0.0163811
823.440	0.0165130
823.518	0.0164691
823.596	0.0165646
823.674	0.0165970
823.753	0.0164449
823.831	0.0164625
823.909	0.0165426
823.987	0.0164559
824.065	0.0166868
824.143	0.0164879
824.221	0.0164858
824.299	0.0165843
824.378	0.0163392
824.456	0.0165370
824.534	0.0164887
824.612	0.0165264
824.690	0.0164976
824.768	0.0166303
824.846	0.0165281
824.924	0.0165815
825.003	0.0164958
825.081	0.0164260
825.159	0.0164827
825.237	0.0164842
825.315	0.0164926
825.393	0.0165688
825.471	0.0165243
825.549	0.0165517
825.628	0.0165261
825.706	0.0164724
825.784	0.0165006
825.862	0.0165343
825.940	0.0164474
826.018	0.0165125
826.096	0.0165172
826.174	0.0166512
826.253	0.0165814
826.331	0.0164697
826.409	0.0165526
826.487	0.0166013
826.565	0.0165790
826.643	0.0165825
826.721	0.0166515
826.799	0.0165128
826.878	0.0165179
826.956	0.0165803
827.034	0.0165815
827.112	0.0164437
827.190	0.0166315
827.268	0.0165708
827.346	0.0164910
827.424	0.0164886
827.503	0.0165720
827.581	0.0165895
827.659	0.0165628
827.737	0.0164393
827.815	0.0165546
827.893	0.0165915
827.971	0.0166081
828.049	0.0166578
828.128	0.0164695
828.206	0.0164333
828.284	0.0166190
828.362	0.0166561
828.440	0.0164534
828.518	0.0164176
828.596	0.0165560
828.674	0.0166278
828.753	0.0164932
828.831	0.0164931
828.909	0.0164941
828.987	0.0165777
829.065	0.0164966
829.143	0.0165633
829.221	0.0165921
829.299	0.0164851
829.378	0.0165797
829.456	0.0166180
829.534	0.0164605
829.612	0.0165603
829.690	0.0165833
829.768	0.0164288
829.846	0.0165962
829.924	0.0166311
830.003	0.0164523
830.081	0.0164425
830.159	0.0165424
830.237	0.0165275
830.315	0.0165511
830.393	0.0166168
830.471	0.0165502
830.549	0.0165015
830.628	0.0166354
830.706	0.0165036
830.784	0.0165054
830.862	0.0165604
830.940	0.0164897
831.018	0.0164433
831.096	0.0164688
831.174	0.0166214
831.253	0.0164970
831.331	0.0165084
831.409	0.0164307
831.487	0.0164408
831.565	0.0165051
831.643	0.0166681
831.721	0.0165311
831.799	0.0165047
831.878	0.0165788
831.956	0.0165317
832.034	0.0165582
832.112	0.0164682
832.190	0.0165562
832.268	0.0166872
832.346	0.0165951
832.424	0.0166343
832.503	0.0166435
832.581	0.0166290
832.659	0.0165625
832.737	0.0166028
832.815	0.0166191
832.893	0.0166370
832.971	0.0168034
833.049	0.0166999
833.128	0.0165237
833.206	0.0166134
833.284	0.0166006
833.362	0.0166763
833.440	0.0165323
833.518	0.0167506
833.596	0.0164792
833.674	0.0166504
833.753	0.0165318
833.831	0.0166245
833.909	0.0165049
833.987	0.0165961
834.065	0.0165174
834.143	0.0166101
834.221	0.0165347
834.299	0.0166636
834.378	0.0166731
834.456	0.0166115
834.534	0.0165379
834.612	0.0165846
834.690	0.0165593
834.768	0.0165550
834.846	0.0165332
834.924	0.0164038
835.003	0.0164794
835.081	0.0165240
835.159	0.0165440
835.237	0.0166313
835.315	0.0164426
835.393	0.0164568
835.471	0.0164634
835.549	0.0165351
835.628	0.0164710
835.706	0.0165608
835.784	0.0165644
835.862	0.0166017
835.940	0.0165337
836.018	0.0166388
836.096	0.0165183
836.174	0.0165317
836.253	0.0165739
836.331	0.0165979
836.409	0.0166167
836.487	0.0167368
836.565	0.0167408
836.643	0.0165914
836.721	0.0166505
836.799	0.0165997
836.878	0.0165759
836.956	0.0166035
837.034	0.0166221
837.112	0.0166294
837.190	0.0165794
837.268	0.0166466
837.346	0.0166316
837.424	0.0166521
837.503	0.0165896
837.581	0.0164821
837.659	0.0166264
837.737	0.0166184
837.815	0.0166693
837.893	0.0164880
837.971	0.0164407
838.049	0.0164876
838.128	0.0165810
838.206	0.0165556
838.284	0.0167495
838.362	0.0165168
838.440	0.0166820
838.518	0.0165604
838.596	0.0163426
838.674	0.0165002
838.753	0.0166463
838.831	0.0166188
838.909	0.0165144
838.987	0.0165366
839.065	0.0165529
839.143	0.0165689
839.221	0.0165057
839.299	0.0165311
839.378	0.0163344
839.456	0.0164805
839.534	0.0164637
839.612	0.0162697
839.690	0.0165173
839.768	0.0165735
839.846	0.0165277
839.924	0.0163364
840.003	0.0165115
840.081	0.0164536
840.159	0.0164728
840.237	0.0165126
840.315	0.0165168
840.393	0.0166853
840.471	0.0165904
840.549	0.0165913
840.628	0.0167371
840.706	0.0166154
840.784	0.0167297
840.862	0.0166519
840.940	0.0166609
841.018	0.0167097
841.096	0.0166734
841.174	0.0167002
841.253	0.0165669
841.331	0.0165813
841.409	0.0165864
841.487	0.0165827
841.565	0.0167350
841.643	0.0166418
841.721	0.0165511
841.799	0.0166639
841.878	0.0166102
841.956	0.0165900
842.034	0.0163944
842.112	0.0167146
842.190	0.0165511
842.268	0.0165275
842.346	0.0163937
842.424	0.0166977
842.503	0.0163931
842.581	0.0165792
842.659	0.0164999
842.737	0.0164548
842.815	0.0164648
842.893	0.0164053
842.971	0.0164727
843.049	0.0165086
843.128	0.0165869
843.206	0.0166755
843.284	0.0164881
843.362	0.0163909
843.440	0.0164856
843.518	0.0165744
843.596	0.0165601
843.674	0.0163008
843.753	0.0164429
843.831	0.0164511
843.909	0.0165382
843.987	0.0163804
844.065	0.0163556
844.143	0.0164153
844.221	0.0163831
844.299	0.0164416
844.378	0.0165527
844.456	0.0166008
844.534	0.0164616
844.612	0.0164257
844.690	0.0165089
844.768	0.0166054
844.846	0.0165702
844.924	0.0165223
845.003	0.0166605
845.081	0.0165868
845.159	0.0167042
845.237	0.0168056
845.315	0.0166363
845.393	0.0167691
845.471	0.0167513
845.549	0.0166434
845.628	0.0165869
845.706	0.0167458
845.784	0.0166774
845.862	0.0166972
845.940	0.0166628
846.018	0.0166827
846.096	0.0166979
846.174	0.0165948
846.253	0.0166597
846.331	0.0165486
846.409	0.0167049
846.487	0.0165815
846.565	0.0164687
846.643	0.0165462
846.721	0.0164535
846.799	0.0164764
846.878	0.0165495
846.956	0.0164272
847.034	0.0163190
847.112	0.0164635
847.190	0.0163529
847.268	0.0163805
847.346	0.0163932
847.424	0.0164842
847.503	0.0162927
847.581	0.0162418
847.659	0.0164207
847.737	0.0163819
847.815	0.0163373
847.893	0.0163273
847.971	0.0165847
848.049	0.0163778
848.128	0.0164423
848.206	0.0164825
848.284	0.0163548
848.362	0.0165269
848.440	0.0165538
848.518	0.0165815
848.596	0.0165657
848.674	0.0167567
848.753	0.0166801
848.831	0.0166910
848.909	0.0167001
848.987	0.0166976
849.065	0.0166102
849.143	0.0167400
849.221	0.0167635
849.299	0.0165968
849.378	0.0166433
849.456	0.0167960
849.534	0.0166688
849.612	0.0166551
849.690	0.0167857
849.768	0.0168265
849.846	0.0167450
849.924	0.0167085
850.003	0.0169317
850.081	0.0167216
850.159	0.0167210
850.237	0.0168456
850.315	0.0168221
850.393	0.0166171
850.471	0.0167372
850.549	0.0166106
850.628	0.0164429
850.706	0.0166325
850.784	0.0165541
850.862	0.0164297
850.940	0.0164408
851.018	0.0165032
851.096	0.0165906
851.174	0.0164412
851.253	0.0164240
851.331	0.0164570
851.409	0.0164191
851.487	0.0162867
851.565	0.0164863
851.643	0.0165153
851.721	0.0164359
851.799	0.0163558
851.878	0.0163438
851.956	0.0164862
852.034	0.0165469
852.112	0.0164365
852.190	0.0163614
852.268	0.0164450
852.346	0.0165215
852.424	0.0164544
852.503	0.0165388
852.581	0.0164616
852.659	0.0165032
852.737	0.0165247
852.815	0.0164680
852.893	0.0164622
852.971	0.0164924
853.049	0.0166608
853.128	0.0165784
853.206	0.0165374
853.284	0.0166638
853.362	0.0167213
853.440	0.0166889
853.518	0.0167593
853.596	0.0166482
853.674	0.0167480
853.753	0.0165392
853.831	0.0166196
853.909	0.0166232
853.987	0.0166481
854.065	0.0166561
854.143	0.0166113
854.221	0.0165513
854.299	0.0167184
854.378	0.0166535
854.456	0.0164698
854.534	0.0166196
854.612	0.0165597
854.690	0.0165749
854.768	0.0165742
854.846	0.0166094
854.924	0.0166368
855.003	0.0164417
855.081	0.0165774
855.159	0.0163976
855.237	0.0164789
855.315	0.0164836
855.393	0.0164738
855.471	0.0165527
855.549	0.0164517
855.628	0.0165277
855.706	0.0164859
855.784	0.0165173
855.862	0.0165060
855.940	0.0164341
856.018	0.0166661
856.096	0.0165439
856.174	0.0165891
856.253	0.0164593
856.331	0.0165495
856.409	0.0165892
856.487	0.0164396
856.565	0.0165102
856.643	0.0166562
856.721	0.0164745
856.799	0.0164027
856.878	0.0165978
856.956	0.0165251
857.034	0.0166028
857.112	0.0166148
857.190	0.0166356
857.268	0.0165900
857.346	0.0166817
857.424	0.0166034
857.503	0.0164550
857.581	0.0166235
857.659	0.0166533
857.737	0.0166814
857.815	0.0165604
857.893	0.0166798
857.971	0.0166914
858.049	0.0167052
858.128	0.0166053
858.206	0.0166303
858.284	0.0167418
858.362	0.0166701
858.440	0.0167789
858.518	0.0164236
858.596	0.0164851
858.674	0.0167188
858.753	0.0166486
858.831	0.0166351
858.909	0.0166117
858.987	0.0166006
859.065	0.0164782
859.143	0.0164683
859.221	0.0165541
859.299	0.0164866
859.378	0.0166069
859.456	0.0164234
859.534	0.0164771
859.612	0.0165565
859.690	0.0163911
859.768	0.0165745
859.846	0.0166644
859.924	0.0165939
860.003	0.0164751
860.081	0.0164328
860.159	0.0164486
860.237	0.0166534
860.315	0.0164455
860.393	0.0164861
860.471	0.0163086
860.549	0.0165118
860.628	0.0166983
860.706	0.0164452
860.784	0.0164680
860.862	0.0165558
860.940	0.0164482
861.018	0.0164512
861.096	0.0165153
861.174	0.0164758
861.253	0.0165179
861.331	0.0165313
861.409	0.0165762
861.487	0.0166192
861.565	0.0165915
861.643	0.0165392
861.721	0.0165666
861.799	0.0166211
861.878	0.0166675
861.956	0.0164193
862.034	0.0166275
862.112	0.0166364
862.190	0.0165366
862.268	0.0167267
862.346	0.0166998
862.424	0.0166611
862.503	0.0167350
862.581	0.0166804
862.659	0.0166317
862.737	0.0167830
862.815	0.0165952
862.893	0.0165174
862.971	0.0165887
863.049	0.0168025
863.128	0.0168784
863.206	0.0166145
863.284	0.0165599
863.362	0.0166842
863.440	0.0166617
863.518	0.0166426
863.596	0.0166495
863.674	0.0166223
863.753	0.0164935
863.831	0.0166345
863.909	0.0166805
863.987	0.0164849
864.065	0.0163985
864.143	0.0165628
864.221	0.0164912
864.299	0.0165361
864.378	0.0165161
864.456	0.0164799
864.534	0.0164767
864.612	0.0164757
864.690	0.0164780
864.768	0.0163546
864.846	0.0164757
864.924	0.0164188
865.003	0.0163970
865.081	0.0162958
865.159	0.0164372
865.237	0.0164105
865.315	0.0163504
865.393	0.0163967
865.471	0.0165014
865.549	0.0164972
865.628	0.0165892
865.706	0.0165559
865.784	0.0163187
865.862	0.0164784
865.940	0.0165176
866.018	0.0164575
866.096	0.0164621
866.174	0.0164194
866.253	0.0165160
866.331	0.0164940
866.409	0.0165818
866.487	0.0165549
866.565	0.0166644
866.643	0.0167024
866.721	0.0165917
866.799	0.0166498
866.878	0.0166904
866.956	0.0166994
867.034	0.0165363
867.112	0.0167892
867.190	0.0169058
867.268	0.0167726
867.346	0.0167451
867.424	0.0167280
867.503	0.0167295
867.581	0.0167415
867.659	0.0166945
867.737	0.0167191
867.815	0.0167042
867.893	0.0166998
867.971	0.0166282
868.049	0.0164745
868.128	0.0165638
868.206	0.0166175
868.284	0.0166807
868.362	0.0165463
868.440	0.0164841
868.518	0.0165544
868.596	0.0165778
868.674	0.0164579
868.753	0.0164700
868.831	0.0165580
868.909	0.0164986
868.987	0.0166414
869.065	0.0164948
869.143	0.0163566
869.221	0.0163533
869.299	0.0164891
869.378	0.0164619
869.456	0.0164984
869.534	0.0164075
869.612	0.0164175
869.690	0.0163988
869.768	0.0163903
869.846	0.0164653
869.924	0.0164682
870.003	0.0163940
870.081	0.0163302
870.159	0.0163754
870.237	0.0164241
870.315	0.0164697
870.393	0.0164594
870.471	0.0164452
870.549	0.0164217
870.628	0.0164644
870.706	0.0165292
870.784	0.0165923
870.862	0.0164429
870.940	0.0165462
871.018	0.0165163
871.096	0.0166618
871.174	0.0164665
871.253	0.0164492
871.331	0.0166354
871.409	0.0165413
871.487	0.0165687
871.565	0.0166416
871.643	0.0165895
871.721	0.0165511
871.799	0.0164883
871.878	0.0165724
871.956	0.0165865
872.034	0.0168372
872.112	0.0166738
872.190	0.0165993
872.268	0.0166322
872.346	0.0166205
872.424	0.0167140
872.503	0.0167432
872.581	0.0165903
872.659	0.0166799
872.737	0.0166116
872.815	0.0166463
872.893	0.0167745
872.971	0.0167344
873.049	0.0167328
873.128	0.0166830
873.206	0.0165271
873.284	0.0165919
873.362	0.0166065
873.440	0.0168280
873.518	0.0167094
873.596	0.0165922
873.674	0.0165727
873.753	0.0167204
873.831	0.0165908
873.909	0.0165844
873.987	0.0166561
874.065	0.0165468
874.143	0.0164622
874.221	0.0166312
874.299	0.0164967
874.378	0.0165485
874.456	0.0165165
874.534	0.0165377
874.612	0.0164275
874.690	0.0164159
874.768	0.0165372
874.846	0.0165394
874.924	0.0164503
875.003	0.0164333
875.081	0.0163773
875.159	0.0165182
875.237	0.0165184
875.315	0.0163371
875.393	0.0163562
875.471	0.0164710
875.549	0.0163333
875.628	0.0164371
875.706	0.0164619
875.784	0.0163905
875.862	0.0164121
875.940	0.0163551
876.018	0.0164847
876.096	0.0164546
876.174	0.0164245
876.253	0.0164290
876.331	0.0164115
876.409	0.0164780
876.487	0.0164868
876.565	0.0163737
876.643	0.0164857
876.721	0.0164898
876.799	0.0165440
876.878	0.0165107
876.956	0.0166753
877.034	0.0164018
877.112	0.0165868
877.190	0.0164344
877.268	0.0165806
877.346	0.0165577
877.424	0.0166761
877.503	0.0166402
877.581	0.0165813
877.659	0.0167342
877.737	0.0167155
877.815	0.0166406
877.893	0.0167929
877.971	0.0166831
878.049	0.0166995
878.128	0.0169111
878.206	0.0165896
878.284	0.0166537
878.362	0.0165449
878.440	0.0167168
878.518	0.0166515
878.596	0.0167041
878.674	0.0167693
878.753	0.0167448
878.831	0.0166423
878.909	0.0165515
878.987	0.0166006
879.065	0.0165763
879.143	0.0166083
879.221	0.0165885
879.299	0.0167252
879.378	0.0165776
879.456	0.0164245
879.534	0.0165691
879.612	0.0164707
879.690	0.0165059
879.768	0.0164713
879.846	0.0166068
879.924	0.0164774
880.003	0.0164125
880.081	0.0164901
880.159	0.0164504
880.237	0.0164573
880.315	0.0164600
880.393	0.0164151
880.471	0.0164462
880.549	0.0164246
880.628	0.0164570
880.706	0.0165508
880.784	0.0164669
880.862	0.0164525
880.940	0.0165965
881.018	0.0163788
881.096	0.0165028
881.174	0.0165211
881.253	0.0166254
881.331	0.0165753
881.409	0.0165856
881.487	0.0164972
881.565	0.0165492
881.643	0.0165611
881.721	0.0164349
881.799	0.0165765
881.878	0.0166282
881.956	0.0165419
882.034	0.0164993
882.112	0.0164891
882.190	0.0165179
882.268	0.0165790
882.346	0.0165005
882.424	0.0165745
882.503	0.0165141
882.581	0.0165626
882.659	0.0166109
882.737	0.0166093
882.815	0.0167326
882.893	0.0166862
882.971	0.0166039
883.049	0.0165234
883.128	0.0167189
883.206	0.0167227
883.284	0.0166326
883.362	0.0166876
883.440	0.0166419
883.518	0.0166131
883.596	0.0166280
883.674	0.0165575
883.753	0.0166000
883.831	0.0167633
883.909	0.0166010
883.987	0.0166267
884.065	0.0167245
884.143	0.0165743
884.221	0.0166582
884.299	0.0166215
884.378	0.0165419
884.456	0.0165893
884.534	0.0164173
884.612	0.0165820
884.690	0.0165726
884.768	0.0164866
884.846	0.0165997
884.924	0.0165781
885.003	0.0166673
885.081	0.0166366
885.159	0.0167625
885.237	0.0165129
885.315	0.0165505
885.393	0.0163597
885.471	0.0165923
885.549	0.0166028
885.628	0.0165392
885.706	0.0165933
885.784	0.0163872
885.862	0.0165598
885.940	0.0166010
886.018	0.0163108
886.096	0.0164788
886.174	0.0163938
886.253	0.0164200
886.331	0.0165936
886.409	0.0165197
886.487	0.0164706
886.565	0.0164491
886.643	0.0165290
886.721	0.0165559
886.799	0.0166232
886.878	0.0165904
886.956	0.0166391
887.034	0.0166123
887.112	0.0165718
887.190	0.0166888
887.268	0.0166100
887.346	0.0166461
887.424	0.0165588
887.503	0.0165714
887.581	0.0164986
887.659	0.0165774
887.737	0.0164796
887.815	0.0166279
887.893	0.0165997
887.971	0.0165497
888.049	0.0164458
888.128	0.0165553
888.206	0.0165677
888.284	0.0164409
888.362	0.0164965
888.440	0.0164099
888.518	0.0164701
888.596	0.0166853
888.674	0.0166172
888.753	0.0165964
888.831	0.0165819
888.909	0.0165455
888.987	0.0165553
889.065	0.0165344
889.143	0.0166173
889.221	0.0167200
889.299	0.0166434
889.378	0.0165459
889.456	0.0166359
889.534	0.0166805
889.612	0.0165936
889.690	0.0165989
889.768	0.0165423
889.846	0.0166296
889.924	0.0165607
890.003	0.0165736
890.081	0.0165622
890.159	0.0166279
890.237	0.0165824
890.315	0.0165839
890.393	0.0164896
890.471	0.0166356
890.549	0.0166476
890.628	0.0165695
890.706	0.0166658
890.784	0.0165591
890.862	0.0166586
890.940	0.0166257
891.018	0.0166078
891.096	0.0166415
891.174	0.0166208
891.253	0.0166416
891.331	0.0166539
891.409	0.0165969
891.487	0.0165076
891.565	0.0164494
891.643	0.0165841
891.721	0.0165033
891.799	0.0165042
891.878	0.0165900
891.956	0.0165449
892.034	0.0165468
892.112	0.0164375
892.190	0.0164552
892.268	0.0165656
892.346	0.0164869
892.424	0.0163629
892.503	0.0164313
892.581	0.0165115
892.659	0.0163148
892.737	0.0163649
892.815	0.0165582
892.893	0.0164184
892.971	0.0164245
893.049	0.0164841
893.128	0.0164891
893.206	0.0165292
893.284	0.0164420
893.362	0.0165124
893.440	0.0164659
893.518	0.0165232
893.596	0.0165260
893.674	0.0164787
893.753	0.0165346
893.831	0.0166014
893.909	0.0165364
893.987	0.0164974
894.065	0.0166703
894.143	0.0164601
894.221	0.0164553
894.299	0.0164822
894.378	0.0164803
894.456	0.0166003
894.534	0.0166153
894.612	0.0164835
894.690	0.0166096
894.768	0.0166245
894.846	0.0165389
894.924	0.0166003
895.003	0.0166163
895.081	0.0166991
895.159	0.0166801
895.237	0.0166718
895.315	0.0166882
895.393	0.0166172
895.471	0.0164617
895.549	0.0165929
895.628	0.0165556
895.706	0.0165652
895.784	0.0165140
895.862	0.0167522
895.940	0.0165038
896.018	0.0165278
896.096	0.0164891
896.174	0.0163657
896.253	0.0165491
896.331	0.0164760
896.409	0.0165308
896.487	0.0166229
896.565	0.0164338
896.643	0.0164560
896.721	0.0164635
896.799	0.0165048
896.878	0.0165736
896.956	0.0165038
897.034	0.0165582
897.112	0.0167555
897.190	0.0165942
897.268	0.0165314
897.346	0.0166851
897.424	0.0166327
897.503	0.0166875
897.581	0.0165345
897.659	0.0164950
897.737	0.0166578
897.815	0.0167319
897.893	0.0165459
897.971	0.0164616
898.049	0.0166042
898.128	0.0165935
898.206	0.0165775
898.284	0.0166776
898.362	0.0165238
898.440	0.0164574
898.518	0.0166942
898.596	0.0165521
898.674	0.0165649
898.753	0.0167388
898.831	0.0164929
898.909	0.0165154
898.987	0.0165651
899.065	0.0163879
899.143	0.0166039
899.221	0.0165741
899.299	0.0164478
899.378	0.0164189
899.456	0.0164544
899.534	0.0164255
899.612	0.0165803
899.690	0.0165383
899.768	0.0163453
899.846	0.0164843
899.924	0.0164110
900.003	0.0165205
900.081	0.0164400
900.159	0.0163937
900.237	0.0164365
900.315	0.0166168
900.393	0.0165926
900.471	0.0164979
900.549	0.0165405
900.628	0.0164542
900.706	0.0166138
900.784	0.0165076
900.862	0.0164548
900.940	0.0164370
901.018	0.0165870
901.096	0.0165255
901.174	0.0165390
901.253	0.0166947
901.331	0.0167936
901.409	0.0165896
901.487	0.0165806
901.565	0.0166029
901.643	0.0166837
901.721	0.0166849
901.799	0.0164626
901.878	0.0166116
901.956	0.0165709
902.034	0.0166269
902.112	0.0166537
902.190	0.0165908
902.268	0.0166553
902.346	0.0166806
902.424	0.0165321
902.503	0.0164879
902.581	0.0165208
902.659	0.0167263
902.737	0.0166276
902.815	0.0165787
902.893	0.0166462
902.971	0.0164941
903.049	0.0164709
903.128	0.0166602
903.206	0.0166172
903.284	0.0166700
903.362	0.0165968
903.440	0.0165318
903.518	0.0164712
903.596	0.0165636
903.674	0.0165285
903.753	0.0166536
903.831	0.0166325
903.909	0.0167275
903.987	0.0165328
904.065	0.0163993
904.143	0.0164374
904.221	0.0165751
904.299	0.0166034
904.378	0.0164593
904.456	0.0163747
904.534	0.0165402
904.612	0.0164951
904.690	0.0165810
904.768	0.0164035
904.846	0.0164568
904.924	0.0163425
905.003	0.0165005
905.081	0.0165102
905.159	0.0165505
905.237	0.0165107
905.315	0.0165504
905.393	0.0165248
905.471	0.0165459
905.549	0.0165195
905.628	0.0164312
905.706	0.0165833
905.784	0.0167378
905.862	0.0164731
905.940	0.0165677
906.018	0.0165071
906.096	0.0167212
906.174	0.0165812
906.253	0.0164426
906.331	0.0166155
906.409	0.0163892
906.487	0.0163334
906.565	0.0165076
906.643	0.0165834
906.721	0.0165322
906.799	0.0166047
906.878	0.0166477
906.956	0.0165606
907.034	0.0165408
907.112	0.0165189
907.190	0.0164768
907.268	0.0165943
907.346	0.0165634
907.424	0.0165292
907.503	0.0166050
907.581	0.0165474
907.659	0.0165401
907.737	0.0165015
907.815	0.0165157
907.893	0.0166892
907.971	0.0166238
908.049	0.0165005
908.128	0.0166454
908.206	0.0166461
908.284	0.0166751
908.362	0.0165919
908.440	0.0166370
908.518	0.0166850
908.596	0.0165326
908.674	0.0166371
908.753	0.0167018
908.831	0.0166626
908.909	0.0164826
908.987	0.0165117
909.065	0.0165666
909.143	0.0164308
909.221	0.0163576
909.299	0.0165181
909.378	0.0165999
909.456	0.0165706
909.534	0.0165285
909.612	0.0162868
909.690	0.0165489
909.768	0.0165720
909.846	0.0165040
909.924	0.0164671
910.003	0.0164721
910.081	0.0165910
910.159	0.0166188
910.237	0.0165261
910.315	0.0165749
910.393	0.0164874
910.471	0.0165864
910.549	0.0166904
910.628	0.0165397
910.706	0.0166396
910.784	0.0165017
910.862	0.0165827
910.940	0.0165919
911.018	0.0165310
911.096	0.0166225
911.174	0.0166482
911.253	0.0165392
911.331	0.0166512
911.409	0.0165502
911.487	0.0164390
911.565	0.0164383
911.643	0.0165661
911.721	0.0165714
911.799	0.0165998
911.878	0.0164870
911.956	0.0164596
912.034	0.0163968
912.112	0.0166605
912.190	0.0165092
912.268	0.0165163
912.346	0.0165683
912.424	0.0164591
912.503	0.0164657
912.581	0.0165871
912.659	0.0165526
912.737	0.0164906
912.815	0.0166575
912.893	0.0165833
912.971	0.0165224
913.049	0.0164850
913.128	0.0166874
913.206	0.0166412
913.284	0.0166581
913.362	0.0166943
913.440	0.0165504
913.518	0.0166535
913.596	0.0166203
913.674	0.0166563
913.753	0.0165204
913.831	0.0164922
913.909	0.0165253
913.987	0.0166459
914.065	0.0165606
914.143	0.0166612
914.221	0.0164707
914.299	0.0165929
914.378	0.0166292
914.456	0.0165897
914.534	0.0164940
914.612	0.0163839
914.690	0.0164959
914.768	0.0166241
914.846	0.0164419
914.924	0.0166206
915.003	0.0164571
915.081	0.0164729
915.159	0.0167750
915.237	0.0165320
915.315	0.0164891
915.393	0.0165881
915.471	0.0166288
915.549	0.0166669
915.628	0.0165408
915.706	0.0165816
915.784	0.0165501
915.862	0.0166981
915.940	0.0167240
916.018	0.0165192
916.096	0.0165620
916.174	0.0167022
916.253	0.0164989
916.331	0.0164978
916.409	0.0165038
916.487	0.0165139
916.565	0.0164678
916.643	0.0165916
916.721	0.0165800
916.799	0.0165098
916.878	0.0165005
916.956	0.0165115
917.034	0.0163638
917.112	0.0163892
917.190	0.0165549
917.268	0.0165101
917.346	0.0163326
917.424	0.0163699
917.503	0.0165539
917.581	0.0164108
917.659	0.0165686
917.737	0.0165414
917.815	0.0165429
917.893	0.0165678
917.971	0.0165701
918.049	0.0166672
918.128	0.0166879
918.206	0.0164794
918.284	0.0166445
918.362	0.0165997
918.440	0.0166447
918.518	0.0165372
918.596	0.0165280
918.674	0.0166377
918.753	0.0166259
918.831	0.0165160
918.909	0.0164604
918.987	0.0165621
919.065	0.0165557
919.143	0.0165747
919.221	0.0165934
919.299	0.0164619
919.378	0.0164214
919.456	0.0164619
919.534	0.0166078
919.612	0.0164950
919.690	0.0164377
919.768	0.0165788
919.846	0.0165874
919.924	0.0164894
920.003	0.0165623
920.081	0.0166604
920.159	0.0165942
920.237	0.0165265
920.315	0.0165548
920.393	0.0165157
920.471	0.0166516
920.549	0.0166234
920.628	0.0165445
920.706	0.0164851
920.784	0.0165240
920.862	0.0166337
920.940	0.0166437
921.018	0.0165365
921.096	0.0164565
921.174	0.0166006
921.253	0.0167403
921.331	0.0165962
921.409	0.0165860
921.487	0.0166811
921.565	0.0164796
921.643	0.0165096
921.721	0.0166162
921.799	0.0165761
921.878	0.0165668
921.956	0.0165542
922.034	0.0165562
922.112	0.0166797
922.190	0.0166657
922.268	0.0166368
922.346	0.0165570
922.424	0.0165859
922.503	0.0165464
922.581	0.0165713
922.659	0.0166068
922.737	0.0165347
922.815	0.0165865
922.893	0.0166029
922.971	0.0166383
923.049	0.0166678
923.128	0.0166359
923.206	0.0165831
923.284	0.0164605
923.362	0.0164504
923.440	0.0165601
923.518	0.0164803
923.596	0.0163741
923.674	0.0164935
923.753	0.0165641
923.831	0.0163769
923.909	0.0164413
923.987	0.0164848
924.065	0.0165117
924.143	0.0163476
924.221	0.0165283
924.299	0.0164896
924.378	0.0163262
924.456	0.0165878
924.534	0.0164030
924.612	0.0165376
924.690	0.0165575
924.768	0.0165372
924.846	0.0166093
924.924	0.0166171
925.003	0.0165966
925.081	0.0165735
925.159	0.0164433
925.237	0.0166277
925.315	0.0166737
925.393	0.0165482
925.471	0.0165083
925.549	0.0165512
925.628	0.0164590
925.706	0.0164366
925.784	0.0166782
925.862	0.0166721
925.940	0.0165671
926.018	0.0165181
926.096	0.0164860
926.174	0.0165524
926.253	0.0164729
926.331	0.0165923
926.409	0.0165410
926.487	0.0164519
926.565	0.0165353
926.643	0.0164363
926.721	0.0163875
926.799	0.0165957
926.878	0.0165577
926.956	0.0163396
927.034	0.0165886
927.112	0.0166305
927.190	0.0166257
927.268	0.0166605
927.346	0.0166152
927.424	0.0166412
927.503	0.0165594
927.581	0.0165086
927.659	0.0165400
927.737	0.0165552
927.815	0.0165212
927.893	0.0165135
927.971	0.0165159
928.049	0.0165545
928.128	0.0165073
928.206	0.0164558
928.284	0.0165622
928.362	0.0165804
928.440	0.0164848
928.518	0.0165276
928.596	0.0165464
928.674	0.0165510
928.753	0.0165376
928.831	0.0164536
928.909	0.0164552
928.987	0.0166129
929.065	0.0165295
929.143	0.0165343
929.221	0.0166155
929.299	0.0165492
929.378	0.0165824
929.456	0.0166544
929.534	0.0165711
929.612	0.0165502
929.690	0.0165545
929.768	0.0167403
929.846	0.0166367
929.924	0.0165546
930.003	0.0165597
930.081	0.0166908
930.159	0.0165679
930.237	0.0166277
930.315	0.0165174
930.393	0.0164414
930.471	0.0164802
930.549	0.0165051
930.628	0.0164641
930.706	0.0163872
930.784	0.0164928
930.862	0.0164049
930.940	0.0164702
931.018	0.0164895
931.096	0.0165440
931.174	0.0165977
931.253	0.0166142
931.331	0.0165467
931.409	0.0164549
931.487	0.0166039
931.565	0.0164884
931.643	0.0164442
931.721	0.0165601
931.799	0.0165936
931.878	0.0164503
931.956	0.0165736
932.034	0.0165772
932.112	0.0165359
932.190	0.0164754
932.268	0.0164944
932.346	0.0167175
932.424	0.0165923
932.503	0.0165694
932.581	0.0165707
932.659	0.0166235
932.737	0.0168200
932.815	0.0166146
932.893	0.0166141
932.971	0.0165106
933.049	0.0165469
933.128	0.0167300
933.206	0.0165523
933.284	0.0165453
933.362	0.0166670
933.440	0.0165858
933.518	0.0165793
933.596	0.0165115
933.674	0.0167011
933.753	0.0166506
933.831	0.0165449
933.909	0.0166975
933.987	0.0166621
934.065	0.0164283
934.143	0.0165138
934.221	0.0165363
934.299	0.0165742
934.378	0.0165362
934.456	0.0166648
934.534	0.0165539
934.612	0.0165828
934.690	0.0166171
934.768	0.0165876
934.846	0.0166215
934.924	0.0165531
935.003	0.0164953
935.081	0.0166109
935.159	0.0165794
935.237	0.0165212
935.315	0.0165295
935.393	0.0166616
935.471	0.0165530
935.549	0.0165737
935.628	0.0165307
935.706	0.0166602
935.784	0.0168307
935.862	0.0165510
935.940	0.0166473
936.018	0.0166579
936.096	0.0166767
936.174	0.0167061
936.253	0.0166301
936.331	0.0166121
936.409	0.0165020
936.487	0.0166630
936.565	0.0166495
936.643	0.0166184
936.721	0.0166586
936.799	0.0165703
936.878	0.0165831
936.956	0.0165697
937.034	0.0165446
937.112	0.0165910
937.190	0.0165887
937.268	0.0166104
937.346	0.0165521
937.424	0.0165194
937.503	0.0165656
937.581	0.0165741
937.659	0.0165144
937.737	0.0165491
937.815	0.0164290
937.893	0.0164561
937.971	0.0166121
938.049	0.0166585
938.128	0.0165524
938.206	0.0164876
938.284	0.0166559
938.362	0.0166136
938.440	0.0164404
938.518	0.0164218
938.596	0.0164661
938.674	0.0166251
938.753	0.0165661
938.831	0.0166263
938.909	0.0165617
938.987	0.0166656
939.065	0.0164577
939.143	0.0164299
939.221	0.0164761
939.299	0.0165763
939.378	0.0166049
939.456	0.0164336
939.534	0.0165057
939.612	0.0166584
939.690	0.0164519
939.768	0.0164507
939.846	0.0165135
939.924	0.0165464
940.003	0.0164520
940.081	0.0165582
940.159	0.0164918
940.237	0.0165210
940.315	0.0163496
940.393	0.0164576
940.471	0.0165034
940.549	0.0164296
940.628	0.0164854
940.706	0.0165818
940.784	0.0164243
940.862	0.0164182
940.940	0.0164342
941.018	0.0165422
941.096	0.0164101
941.174	0.0165278
941.253	0.0165234
941.331	0.0165417
941.409	0.0166187
941.487	0.0166548
941.565	0.0164352
941.643	0.0165607
941.721	0.0166689
941.799	0.0166975
941.878	0.0166816
941.956	0.0165985
942.034	0.0165771
942.112	0.0165546
942.190	0.0166692
942.268	0.0166003
942.346	0.0166850
942.424	0.0168248
942.503	0.0167319
942.581	0.0167022
942.659	0.0166082
942.737	0.0165328
942.815	0.0166531
942.893	0.0165225
942.971	0.0166767
943.049	0.0166617
943.128	0.0164361
943.206	0.0165307
943.284	0.0163905
943.362	0.0164725
943.440	0.0166201
943.518	0.0165422
943.596	0.0164717
943.674	0.0164938
943.753	0.0164137
943.831	0.0163926
943.909	0.0164770
943.987	0.0165015
944.065	0.0164847
944.143	0.0166036
944.221	0.0165673
944.299	0.0165939
944.378	0.0164616
944.456	0.0166759
944.534	0.0165672
944.612	0.0166161
944.690	0.0164101
944.768	0.0165289
944.846	0.0164637
944.924	0.0164763
945.003	0.0164824
945.081	0.0166782
945.159	0.0166247
945.237	0.0165182
945.315	0.0165936
945.393	0.0166288
945.471	0.0166389
945.549	0.0164677
945.628	0.0165691
945.706	0.0166950
945.784	0.0165851
945.862	0.0165044
945.940	0.0165985
946.018	0.0166089
946.096	0.0163958
946.174	0.0165571
946.253	0.0166237
946.331	0.0165131
946.409	0.0164803
946.487	0.0166943
946.565	0.0165702
946.643	0.0166656
946.721	0.0165342
946.799	0.0165494
946.878	0.0166899
946.956	0.0163951
947.034	0.0165560
947.112	0.0167261
947.190	0.0168447
947.268	0.0165375
947.346	0.0166743
947.424	0.0166167
947.503	0.0165264
947.581	0.0166026
947.659	0.0164986
947.737	0.0165115
947.815	0.0164606
947.893	0.0165070
947.971	0.0164778
948.049	0.0165578
948.128	0.0164423
948.206	0.0164846
948.284	0.0166355
948.362	0.0164762
948.440	0.0164822
948.518	0.0165244
948.596	0.0163862
948.674	0.0166263
948.753	0.0165570
948.831	0.0165142
948.909	0.0164793
948.987	0.0166019
949.065	0.0166714
949.143	0.0165672
949.221	0.0164823
949.299	0.0164921
949.378	0.0164938
949.456	0.0164880
949.534	0.0165343
949.612	0.0166337
949.690	0.0166192
949.768	0.0165341
949.846	0.0164861
949.924	0.0166251
