06/29/2022	23:00:00	Ver.	4.1	UNKNOWN
Optical Delay	630.002507	Delta X		0.078125	Sweeps	1	Scan Rate	0/0
Coordinates	Axis 1	NaN	Axis 2	NaN	Axis 3	NaN	Axis 4	NaN	Axis 5	NaN	Axis 6	0.000000
TX Power	0.000000	RX Power	0.000000

630.003	0.0155643
630.081	0.0156361
630.159	0.0156087
630.237	0.0156251
630.315	0.0155689
630.393	0.0155749
630.471	0.0156793
630.549	0.0155988
630.628	0.0155717
630.706	0.0155991
630.784	0.0156562
630.862	0.0155639
630.940	0.0154723
631.018	0.0156280
631.096	0.0155849
631.174	0.0154344
631.253	0.0155623
631.331	0.0156884
631.409	0.0156657
631.487	0.0155196
631.565	0.0153941
631.643	0.0156336
631.721	0.0157017
631.799	0.0156530
631.878	0.0154478
631.956	0.0155798
632.034	0.0154624
632.112	0.0156113
632.190	0.0155217
632.268	0.0155748
632.346	0.0155479
632.424	0.0155012
632.503	0.0155314
632.581	0.0155592
632.659	0.0155500
632.737	0.0154239
632.815	0.0155908
632.893	0.0157203
632.971	0.0156370
633.049	0.0156470
633.128	0.0156255
633.206	0.0155497
633.284	0.0155849
633.362	0.0155680
633.440	0.0156694
633.518	0.0156392
633.596	0.0154896
633.674	0.0157043
633.753	0.0155503
633.831	0.0156489
633.909	0.0156562
633.987	0.0156163
634.065	0.0156267
634.143	0.0156686
634.221	0.0154608
634.299	0.0156175
634.378	0.0156247
634.456	0.0155810
634.534	0.0156071
634.612	0.0154629
634.690	0.0154639
634.768	0.0155591
634.846	0.0157048
634.924	0.0155718
635.003	0.0156092
635.081	0.0155747
635.159	0.0156371
635.237	0.0155046
635.315	0.0156696
635.393	0.0155722
635.471	0.0155744
635.549	0.0156394
635.628	0.0154917
635.706	0.0156113
635.784	0.0155042
635.862	0.0155270
635.940	0.0154364
636.018	0.0155898
636.096	0.0155747
636.174	0.0155733
636.253	0.0155693
636.331	0.0156513
636.409	0.0157180
636.487	0.0155684
636.565	0.0155489
636.643	0.0156012
636.721	0.0155608
636.799	0.0155747
636.878	0.0156275
636.956	0.0155878
637.034	0.0153851
637.112	0.0155111
637.190	0.0155838
637.268	0.0155212
637.346	0.0154766
637.424	0.0155244
637.503	0.0156986
637.581	0.0156004
637.659	0.0156606
637.737	0.0155859
637.815	0.0155725
637.893	0.0154307
637.971	0.0155502
638.049	0.0156333
638.128	0.0157104
638.206	0.0155257
638.284	0.0154450
638.362	0.0154465
638.440	0.0155360
638.518	0.0156797
638.596	0.0155628
638.674	0.0155588
638.753	0.0155302
638.831	0.0154488
638.909	0.0154658
638.987	0.0155860
639.065	0.0155661
639.143	0.0154314
639.221	0.0157513
639.299	0.0155197
639.378	0.0154852
639.456	0.0155269
639.534	0.0155460
639.612	0.0154930
639.690	0.0156597
639.768	0.0156079
639.846	0.0155798
639.924	0.0155016
640.003	0.0155397
640.081	0.0155798
640.159	0.0154832
640.237	0.0156135
640.315	0.0156278
640.393	0.0156966
640.471	0.0154597
640.549	0.0155595
640.628	0.0155432
640.706	0.0156409
640.784	0.0155852
640.862	0.0155505
640.940	0.0155408
641.018	0.0155650
641.096	0.0155988
641.174	0.0155938
641.253	0.0156572
641.331	0.0155120
641.409	0.0155309
641.487	0.0155461
641.565	0.0154609
641.643	0.0155960
641.721	0.0155968
641.799	0.0155598
641.878	0.0156335
641.956	0.0156725
642.034	0.0154861
642.112	0.0154437
642.190	0.0155828
642.268	0.0155534
642.346	0.0155349
642.424	0.0154690
642.503	0.0155466
642.581	0.0155264
642.659	0.0155148
642.737	0.0155277
642.815	0.0155241
642.893	0.0155670
642.971	0.0154916
643.049	0.0155847
643.128	0.0155597
643.206	0.0155024
643.284	0.0156526
643.362	0.0155738
643.440	0.0155391
643.518	0.0154964
643.596	0.0155329
643.674	0.0155667
643.753	0.0155190
643.831	0.0156454
643.909	0.0154562
643.987	0.0155962
644.065	0.0154382
644.143	0.0154066
644.221	0.0156083
644.299	0.0155362
644.378	0.0155879
644.456	0.0155917
644.534	0.0155343
644.612	0.0155101
644.690	0.0157370
644.768	0.0156832
644.846	0.0155083
644.924	0.0155207
645.003	0.0156640
645.081	0.0155656
645.159	0.0155315
645.237	0.0156186
645.315	0.0154598
645.393	0.0156432
645.471	0.0157903
645.549	0.0156200
645.628	0.0156264
645.706	0.0155604
645.784	0.0154992
645.862	0.0155436
645.940	0.0155421
646.018	0.0156318
646.096	0.0155831
646.174	0.0156454
646.253	0.0155958
646.331	0.0155914
646.409	0.0155530
646.487	0.0155533
646.565	0.0155373
646.643	0.0156076
646.721	0.0156488
646.799	0.0156631
646.878	0.0155633
646.956	0.0155520
647.034	0.0155012
647.112	0.0155745
647.190	0.0155177
647.268	0.0155328
647.346	0.0155343
647.424	0.0155434
647.503	0.0156055
647.581	0.0154961
647.659	0.0156942
647.737	0.0156238
647.815	0.0156544
647.893	0.0153324
647.971	0.0155145
648.049	0.0155809
648.128	0.0154844
648.206	0.0156461
648.284	0.0156672
648.362	0.0154288
648.440	0.0155771
648.518	0.0157388
648.596	0.0155683
648.674	0.0155380
648.753	0.0155459
648.831	0.0155013
648.909	0.0155313
648.987	0.0156202
649.065	0.0156515
649.143	0.0155285
649.221	0.0155578
649.299	0.0155800
649.378	0.0155081
649.456	0.0155614
649.534	0.0156975
649.612	0.0155038
649.690	0.0155802
649.768	0.0155840
649.846	0.0156958
649.924	0.0156304
650.003	0.0155819
650.081	0.0155826
650.159	0.0155627
650.237	0.0155486
650.315	0.0157299
650.393	0.0155475
650.471	0.0154237
650.549	0.0155931
650.628	0.0157076
650.706	0.0156364
650.784	0.0155991
650.862	0.0157294
650.940	0.0156898
651.018	0.0156918
651.096	0.0155104
651.174	0.0156470
651.253	0.0156103
651.331	0.0156002
651.409	0.0154470
651.487	0.0155826
651.565	0.0155304
651.643	0.0156146
651.721	0.0156528
651.799	0.0154326
651.878	0.0154614
651.956	0.0156191
652.034	0.0155470
652.112	0.0156059
652.190	0.0155560
652.268	0.0156632
652.346	0.0155418
652.424	0.0154834
652.503	0.0156326
652.581	0.0155186
652.659	0.0155312
652.737	0.0157067
652.815	0.0156003
652.893	0.0156018
652.971	0.0155507
653.049	0.0155485
653.128	0.0155387
653.206	0.0155257
653.284	0.0155222
653.362	0.0155606
653.440	0.0156604
653.518	0.0157228
653.596	0.0154697
653.674	0.0155685
653.753	0.0155049
653.831	0.0156170
653.909	0.0155251
653.987	0.0155956
654.065	0.0155907
654.143	0.0154866
654.221	0.0155758
654.299	0.0156084
654.378	0.0155618
654.456	0.0157892
654.534	0.0156548
654.612	0.0155086
654.690	0.0155892
654.768	0.0155991
654.846	0.0156017
654.924	0.0156292
655.003	0.0157862
655.081	0.0155608
655.159	0.0155109
655.237	0.0156142
655.315	0.0154848
655.393	0.0156245
655.471	0.0154990
655.549	0.0156474
655.628	0.0156779
655.706	0.0155111
655.784	0.0156699
655.862	0.0156776
655.940	0.0155265
656.018	0.0155582
656.096	0.0155669
656.174	0.0154503
656.253	0.0155776
656.331	0.0154609
656.409	0.0156357
656.487	0.0156556
656.565	0.0156373
656.643	0.0155293
656.721	0.0155450
656.799	0.0155051
656.878	0.0154686
656.956	0.0154045
657.034	0.0155021
657.112	0.0154034
657.190	0.0156419
657.268	0.0156665
657.346	0.0155161
657.424	0.0154821
657.503	0.0155408
657.581	0.0156361
657.659	0.0155144
657.737	0.0154910
657.815	0.0154572
657.893	0.0156451
657.971	0.0156402
658.049	0.0154503
658.128	0.0154709
658.206	0.0155130
658.284	0.0154806
658.362	0.0155686
658.440	0.0155344
658.518	0.0157240
658.596	0.0155915
658.674	0.0154095
658.753	0.0155341
658.831	0.0156062
658.909	0.0155739
658.987	0.0156063
659.065	0.0155700
659.143	0.0154407
659.221	0.0154399
659.299	0.0154789
659.378	0.0155447
659.456	0.0156322
659.534	0.0156541
659.612	0.0154455
659.690	0.0156149
659.768	0.0156844
659.846	0.0155634
659.924	0.0156826
660.003	0.0157239
660.081	0.0155679
660.159	0.0155750
660.237	0.0155343
660.315	0.0154124
660.393	0.0154766
660.471	0.0156084
660.549	0.0156180
660.628	0.0155996
660.706	0.0154617
660.784	0.0155845
660.862	0.0157063
660.940	0.0153779
661.018	0.0156207
661.096	0.0155498
661.174	0.0155610
661.253	0.0156176
661.331	0.0156880
661.409	0.0155235
661.487	0.0154942
661.565	0.0155283
661.643	0.0155424
661.721	0.0155725
661.799	0.0155314
661.878	0.0155770
661.956	0.0156215
662.034	0.0156271
662.112	0.0154316
662.190	0.0155841
662.268	0.0155871
662.346	0.0155494
662.424	0.0155145
662.503	0.0155209
662.581	0.0155855
662.659	0.0155793
662.737	0.0153429
662.815	0.0154150
662.893	0.0155939
662.971	0.0156634
663.049	0.0155061
663.128	0.0155814
663.206	0.0156540
663.284	0.0156032
663.362	0.0155451
663.440	0.0155829
663.518	0.0155423
663.596	0.0155595
663.674	0.0155803
663.753	0.0155453
663.831	0.0155173
663.909	0.0156373
663.987	0.0155596
664.065	0.0155280
664.143	0.0155502
664.221	0.0156047
664.299	0.0154419
664.378	0.0155674
664.456	0.0154684
664.534	0.0155897
664.612	0.0154679
664.690	0.0155359
664.768	0.0155031
664.846	0.0155910
664.924	0.0156185
665.003	0.0155772
665.081	0.0155615
665.159	0.0156258
665.237	0.0155424
665.315	0.0154902
665.393	0.0155402
665.471	0.0154910
665.549	0.0154573
665.628	0.0156400
665.706	0.0154996
665.784	0.0156104
665.862	0.0155129
665.940	0.0155341
666.018	0.0154928
666.096	0.0155395
666.174	0.0156038
666.253	0.0155810
666.331	0.0155275
666.409	0.0155549
666.487	0.0155532
666.565	0.0154484
666.643	0.0154601
666.721	0.0154955
666.799	0.0155428
666.878	0.0154138
666.956	0.0155701
667.034	0.0155870
667.112	0.0155307
667.190	0.0156906
667.268	0.0154804
667.346	0.0154901
667.424	0.0154617
667.503	0.0156104
667.581	0.0156512
667.659	0.0155917
667.737	0.0155190
667.815	0.0155283
667.893	0.0155337
667.971	0.0155560
668.049	0.0153949
668.128	0.0155033
668.206	0.0155806
668.284	0.0155387
668.362	0.0155489
668.440	0.0156575
668.518	0.0155690
668.596	0.0155962
668.674	0.0154852
668.753	0.0155251
668.831	0.0155658
668.909	0.0155451
668.987	0.0155023
669.065	0.0155456
669.143	0.0154747
669.221	0.0154189
669.299	0.0155475
669.378	0.0155440
669.456	0.0154704
669.534	0.0154860
669.612	0.0156751
669.690	0.0156242
669.768	0.0155173
669.846	0.0155766
669.924	0.0156192
670.003	0.0155318
670.081	0.0155052
670.159	0.0154509
670.237	0.0155033
670.315	0.0155668
670.393	0.0154706
670.471	0.0155359
670.549	0.0155710
670.628	0.0155566
670.706	0.0155437
670.784	0.0155024
670.862	0.0154819
670.940	0.0155223
671.018	0.0155368
671.096	0.0155646
671.174	0.0156131
671.253	0.0156178
671.331	0.0155637
671.409	0.0155043
671.487	0.0155228
671.565	0.0154451
671.643	0.0154330
671.721	0.0156152
671.799	0.0155822
671.878	0.0155036
671.956	0.0155952
672.034	0.0154729
672.112	0.0155698
672.190	0.0155708
672.268	0.0153767
672.346	0.0155188
672.424	0.0154921
672.503	0.0154656
672.581	0.0155707
672.659	0.0155904
672.737	0.0154945
672.815	0.0155446
672.893	0.0154819
672.971	0.0154772
673.049	0.0155964
673.128	0.0155147
673.206	0.0157119
673.284	0.0156305
673.362	0.0155199
673.440	0.0155608
673.518	0.0155129
673.596	0.0157510
673.674	0.0156847
673.753	0.0155884
673.831	0.0156239
673.909	0.0157108
673.987	0.0157172
674.065	0.0156187
674.143	0.0155145
674.221	0.0154896
674.299	0.0155979
674.378	0.0154720
674.456	0.0155513
674.534	0.0154500
674.612	0.0156310
674.690	0.0155096
674.768	0.0155026
674.846	0.0155289
674.924	0.0155563
675.003	0.0154576
675.081	0.0154995
675.159	0.0155357
675.237	0.0157012
675.315	0.0154720
675.393	0.0155290
675.471	0.0156135
675.549	0.0155779
675.628	0.0155135
675.706	0.0155432
675.784	0.0155463
675.862	0.0154703
675.940	0.0155150
676.018	0.0156416
676.096	0.0155943
676.174	0.0153999
676.253	0.0154264
676.331	0.0156123
676.409	0.0155716
676.487	0.0155038
676.565	0.0154749
676.643	0.0156009
676.721	0.0155566
676.799	0.0155952
676.878	0.0154592
676.956	0.0155936
677.034	0.0155781
677.112	0.0155094
677.190	0.0154962
677.268	0.0156203
677.346	0.0155549
677.424	0.0155450
677.503	0.0155099
677.581	0.0155431
677.659	0.0156527
677.737	0.0155482
677.815	0.0154068
677.893	0.0155467
677.971	0.0154869
678.049	0.0155209
678.128	0.0155004
678.206	0.0153548
678.284	0.0155462
678.362	0.0155518
678.440	0.0155274
678.518	0.0155139
678.596	0.0155721
678.674	0.0155585
678.753	0.0155248
678.831	0.0155283
678.909	0.0155772
678.987	0.0155658
679.065	0.0154067
679.143	0.0155346
679.221	0.0154520
679.299	0.0155453
679.378	0.0155930
679.456	0.0154158
679.534	0.0154877
679.612	0.0155592
679.690	0.0154913
679.768	0.0154749
679.846	0.0155917
679.924	0.0155795
680.003	0.0156480
680.081	0.0156498
680.159	0.0155131
680.237	0.0154670
680.315	0.0155994
680.393	0.0156146
680.471	0.0156265
680.549	0.0155137
680.628	0.0155605
680.706	0.0155342
680.784	0.0155845
680.862	0.0154659
680.940	0.0154857
681.018	0.0155816
681.096	0.0155104
681.174	0.0155733
681.253	0.0156798
681.331	0.0155267
681.409	0.0156282
681.487	0.0156361
681.565	0.0156390
681.643	0.0157120
681.721	0.0155335
681.799	0.0155927
681.878	0.0156496
681.956	0.0154837
682.034	0.0154819
682.112	0.0155892
682.190	0.0155445
682.268	0.0156158
682.346	0.0154965
682.424	0.0154285
682.503	0.0155706
682.581	0.0155620
682.659	0.0155835
682.737	0.0154787
682.815	0.0154566
682.893	0.0155822
682.971	0.0155222
683.049	0.0153870
683.128	0.0154367
683.206	0.0156428
683.284	0.0155134
683.362	0.0155057
683.440	0.0155364
683.518	0.0154620
683.596	0.0154669
683.674	0.0155477
683.753	0.0155003
683.831	0.0154034
683.909	0.0154180
683.987	0.0155265
684.065	0.0156688
684.143	0.0154852
684.221	0.0155109
684.299	0.0154953
684.378	0.0154799
684.456	0.0156380
684.534	0.0155917
684.612	0.0155695
684.690	0.0156449
684.768	0.0155951
684.846	0.0155443
684.924	0.0155585
685.003	0.0156315
685.081	0.0156854
685.159	0.0156213
685.237	0.0156377
685.315	0.0157117
685.393	0.0156470
685.471	0.0155701
685.549	0.0155754
685.628	0.0156248
685.706	0.0157069
685.784	0.0154830
685.862	0.0155967
685.940	0.0155914
686.018	0.0156313
686.096	0.0155499
686.174	0.0154621
686.253	0.0155013
686.331	0.0154644
686.409	0.0155608
686.487	0.0155991
686.565	0.0154050
686.643	0.0154951
686.721	0.0156036
686.799	0.0157189
686.878	0.0156197
686.956	0.0154975
687.034	0.0156667
687.112	0.0154805
687.190	0.0153236
687.268	0.0155126
687.346	0.0154433
687.424	0.0154325
687.503	0.0155871
687.581	0.0155018
687.659	0.0154530
687.737	0.0153815
687.815	0.0155024
687.893	0.0154539
687.971	0.0155241
688.049	0.0154674
688.128	0.0154838
688.206	0.0154723
688.284	0.0155824
688.362	0.0155235
688.440	0.0154422
688.518	0.0155302
688.596	0.0156711
688.674	0.0155724
688.753	0.0156441
688.831	0.0155923
688.909	0.0155561
688.987	0.0155815
689.065	0.0155244
689.143	0.0155385
689.221	0.0153350
689.299	0.0152376
689.378	0.0153616
689.456	0.0152107
689.534	0.0152969
689.612	0.0152648
689.690	0.0153518
689.768	0.0152277
689.846	0.0155001
689.924	0.0157177
690.003	0.0155791
690.081	0.0157915
690.159	0.0158169
690.237	0.0160239
690.315	0.0159135
690.393	0.0158460
690.471	0.0157335
690.549	0.0156194
690.628	0.0154651
690.706	0.0154098
690.784	0.0152634
690.862	0.0154769
690.940	0.0153570
691.018	0.0151575
691.096	0.0151183
691.174	0.0152744
691.253	0.0152875
691.331	0.0153961
691.409	0.0155593
691.487	0.0155598
691.565	0.0156776
691.643	0.0158412
691.721	0.0160567
691.799	0.0160474
691.878	0.0160722
691.956	0.0159408
692.034	0.0159069
692.112	0.0159281
692.190	0.0158512
692.268	0.0155302
692.346	0.0156852
692.424	0.0155310
692.503	0.0153091
692.581	0.0152882
692.659	0.0152567
692.737	0.0152296
692.815	0.0152039
692.893	0.0152682
692.971	0.0152274
693.049	0.0154589
693.128	0.0154523
693.206	0.0156340
693.284	0.0158055
693.362	0.0158930
693.440	0.0158569
693.518	0.0159000
693.596	0.0159684
693.674	0.0160539
693.753	0.0159544
693.831	0.0157535
693.909	0.0156815
693.987	0.0155838
694.065	0.0153949
694.143	0.0151501
694.221	0.0153083
694.299	0.0152812
694.378	0.0152010
694.456	0.0151925
694.534	0.0153027
694.612	0.0154036
694.690	0.0155061
694.768	0.0154762
694.846	0.0156358
694.924	0.0157735
695.003	0.0156615
695.081	0.0156353
695.159	0.0158272
695.237	0.0158354
695.315	0.0157367
695.393	0.0158540
695.471	0.0159032
695.549	0.0159130
695.628	0.0157037
695.706	0.0158105
695.784	0.0157975
695.862	0.0155402
695.940	0.0155990
696.018	0.0155013
696.096	0.0153037
696.174	0.0152894
696.253	0.0152377
696.331	0.0152598
696.409	0.0151658
696.487	0.0152079
696.565	0.0153408
696.643	0.0153036
696.721	0.0154862
696.799	0.0156590
696.878	0.0156689
696.956	0.0157074
697.034	0.0159724
697.112	0.0159161
697.190	0.0158035
697.268	0.0158242
697.346	0.0158054
697.424	0.0157816
697.503	0.0156786
697.581	0.0156169
697.659	0.0155493
697.737	0.0155253
697.815	0.0154015
697.893	0.0152731
697.971	0.0153500
698.049	0.0154162
698.128	0.0151999
698.206	0.0153663
698.284	0.0152193
698.362	0.0153207
698.440	0.0154929
698.518	0.0155259
698.596	0.0154978
698.674	0.0156621
698.753	0.0156786
698.831	0.0157119
698.909	0.0156789
698.987	0.0157037
699.065	0.0158315
699.143	0.0157806
699.221	0.0159542
699.299	0.0158295
699.378	0.0157968
699.456	0.0156439
699.534	0.0156448
699.612	0.0154570
699.690	0.0153726
699.768	0.0154511
699.846	0.0153848
699.924	0.0152392
700.003	0.0152544
700.081	0.0153306
700.159	0.0153082
700.237	0.0153479
700.315	0.0154375
700.393	0.0153377
700.471	0.0153981
700.549	0.0154648
700.628	0.0156509
700.706	0.0155612
700.784	0.0155096
700.862	0.0158164
700.940	0.0157302
701.018	0.0158097
701.096	0.0157980
701.174	0.0159332
701.253	0.0158369
701.331	0.0159055
701.409	0.0157394
701.487	0.0157518
701.565	0.0157904
701.643	0.0156886
701.721	0.0154910
701.799	0.0153711
701.878	0.0153710
701.956	0.0151905
702.034	0.0152151
702.112	0.0151437
702.190	0.0150237
702.268	0.0151830
702.346	0.0153567
702.424	0.0153701
702.503	0.0155326
702.581	0.0158073
702.659	0.0158781
702.737	0.0158813
702.815	0.0158686
702.893	0.0160494
702.971	0.0159767
703.049	0.0160404
703.128	0.0159642
703.206	0.0156335
703.284	0.0156843
703.362	0.0155766
703.440	0.0153740
703.518	0.0152455
703.596	0.0152608
703.674	0.0152685
703.753	0.0151288
703.831	0.0151371
703.909	0.0152318
703.987	0.0151344
704.065	0.0152386
704.143	0.0154362
704.221	0.0156666
704.299	0.0157159
704.378	0.0158774
704.456	0.0158646
704.534	0.0160478
704.612	0.0161575
704.690	0.0159528
704.768	0.0158311
704.846	0.0157692
704.924	0.0156361
705.003	0.0154830
705.081	0.0155172
705.159	0.0153382
705.237	0.0152374
705.315	0.0152673
705.393	0.0153588
705.471	0.0152741
705.549	0.0155063
705.628	0.0155053
705.706	0.0157137
705.784	0.0157070
705.862	0.0157897
705.940	0.0158856
706.018	0.0158591
706.096	0.0158694
706.174	0.0157203
706.253	0.0155709
706.331	0.0155560
706.409	0.0155241
706.487	0.0154738
706.565	0.0153796
706.643	0.0151735
706.721	0.0151639
706.799	0.0149712
706.878	0.0152435
706.956	0.0151633
707.034	0.0154021
707.112	0.0153938
707.190	0.0156154
707.268	0.0157845
707.346	0.0159058
707.424	0.0160815
707.503	0.0160854
707.581	0.0161109
707.659	0.0162122
707.737	0.0161996
707.815	0.0160332
707.893	0.0157178
707.971	0.0155328
708.049	0.0155447
708.128	0.0153166
708.206	0.0152053
708.284	0.0150904
708.362	0.0151234
708.440	0.0150682
708.518	0.0152413
708.596	0.0152167
708.674	0.0152493
708.753	0.0154828
708.831	0.0154138
708.909	0.0155496
708.987	0.0155575
709.065	0.0157663
709.143	0.0157718
709.221	0.0158209
709.299	0.0159091
709.378	0.0158385
709.456	0.0158663
709.534	0.0158338
709.612	0.0158530
709.690	0.0159780
709.768	0.0158502
709.846	0.0158318
709.924	0.0158828
710.003	0.0157837
710.081	0.0157565
710.159	0.0156350
710.237	0.0154998
710.315	0.0155715
710.393	0.0153782
710.471	0.0154327
710.549	0.0153304
710.628	0.0153520
710.706	0.0154203
710.784	0.0154147
710.862	0.0154967
710.940	0.0154359
711.018	0.0156649
711.096	0.0156084
711.174	0.0157614
711.253	0.0158820
711.331	0.0159930
711.409	0.0160401
711.487	0.0160511
711.565	0.0161249
711.643	0.0157771
711.721	0.0157836
711.799	0.0155145
711.878	0.0154755
711.956	0.0152651
712.034	0.0152759
712.112	0.0152302
712.190	0.0149553
712.268	0.0149803
712.346	0.0149805
712.424	0.0150814
712.503	0.0150207
712.581	0.0152047
712.659	0.0153555
712.737	0.0155196
712.815	0.0156272
712.893	0.0155487
712.971	0.0156812
713.049	0.0158674
713.128	0.0157211
713.206	0.0157939
713.284	0.0158476
713.362	0.0158257
713.440	0.0158518
713.518	0.0157308
713.596	0.0158833
713.674	0.0157338
713.753	0.0157387
713.831	0.0156278
713.909	0.0155478
713.987	0.0155302
714.065	0.0157348
714.143	0.0156049
714.221	0.0155835
714.299	0.0155246
714.378	0.0155537
714.456	0.0158607
714.534	0.0156290
714.612	0.0154629
714.690	0.0155850
714.768	0.0154408
714.846	0.0154228
714.924	0.0155608
715.003	0.0155674
715.081	0.0155633
715.159	0.0153636
715.237	0.0154318
715.315	0.0155109
715.393	0.0155470
715.471	0.0155568
715.549	0.0154485
715.628	0.0155962
715.706	0.0155488
715.784	0.0155026
715.862	0.0156411
715.940	0.0158640
716.018	0.0157735
716.096	0.0158063
716.174	0.0159203
716.253	0.0158186
716.331	0.0160114
716.409	0.0158533
716.487	0.0157066
716.565	0.0155924
716.643	0.0152813
716.721	0.0153703
716.799	0.0151826
716.878	0.0150403
716.956	0.0149103
717.034	0.0149839
717.112	0.0149216
717.190	0.0148552
717.268	0.0151909
717.346	0.0151592
717.424	0.0152438
717.503	0.0153248
717.581	0.0154230
717.659	0.0155598
717.737	0.0156735
717.815	0.0157729
717.893	0.0159155
717.971	0.0161249
718.049	0.0159993
718.128	0.0158920
718.206	0.0160387
718.284	0.0159541
718.362	0.0158968
718.440	0.0158512
718.518	0.0159569
718.596	0.0159829
718.674	0.0159519
718.753	0.0160106
718.831	0.0159963
718.909	0.0159029
718.987	0.0158629
719.065	0.0155132
719.143	0.0156023
719.221	0.0154350
719.299	0.0152770
719.378	0.0152987
719.456	0.0151514
719.534	0.0150079
719.612	0.0149240
719.690	0.0147569
719.768	0.0147178
719.846	0.0148024
719.924	0.0148409
720.003	0.0150172
720.081	0.0152547
720.159	0.0154265
720.237	0.0154061
720.315	0.0156199
720.393	0.0157648
720.471	0.0158933
720.549	0.0160217
720.628	0.0161700
720.706	0.0161964
720.784	0.0162849
720.862	0.0162544
720.940	0.0163843
721.018	0.0164574
721.096	0.0163596
721.174	0.0163616
721.253	0.0162969
721.331	0.0162207
721.409	0.0160860
721.487	0.0159120
721.565	0.0157148
721.643	0.0156163
721.721	0.0154040
721.799	0.0153239
721.878	0.0152601
721.956	0.0152075
722.034	0.0151059
722.112	0.0149924
722.190	0.0150813
722.268	0.0150015
722.346	0.0151220
722.424	0.0149953
722.503	0.0151743
722.581	0.0152109
722.659	0.0155288
722.737	0.0154411
722.815	0.0153869
722.893	0.0155192
722.971	0.0154904
723.049	0.0155415
723.128	0.0156075
723.206	0.0156255
723.284	0.0156211
723.362	0.0156496
723.440	0.0156627
723.518	0.0155854
723.596	0.0156879
723.674	0.0158394
723.753	0.0156781
723.831	0.0159467
723.909	0.0160272
723.987	0.0157951
724.065	0.0158833
724.143	0.0158875
724.221	0.0159756
724.299	0.0160689
724.378	0.0158289
724.456	0.0157619
724.534	0.0156869
724.612	0.0156207
724.690	0.0155520
724.768	0.0155318
724.846	0.0153589
724.924	0.0153471
725.003	0.0151225
725.081	0.0151366
725.159	0.0150655
725.237	0.0151453
725.315	0.0150429
725.393	0.0150593
725.471	0.0151009
725.549	0.0151220
725.628	0.0150583
725.706	0.0151677
725.784	0.0153646
725.862	0.0154774
725.940	0.0156098
726.018	0.0156168
726.096	0.0158306
726.174	0.0159132
726.253	0.0161140
726.331	0.0160761
726.409	0.0162080
726.487	0.0162096
726.565	0.0161421
726.643	0.0161830
726.721	0.0160867
726.799	0.0160419
726.878	0.0161510
726.956	0.0159657
727.034	0.0158492
727.112	0.0158018
727.190	0.0155494
727.268	0.0156372
727.346	0.0155360
727.424	0.0154785
727.503	0.0153090
727.581	0.0151951
727.659	0.0152071
727.737	0.0153111
727.815	0.0151416
727.893	0.0152386
727.971	0.0151613
728.049	0.0151739
728.128	0.0152644
728.206	0.0151422
728.284	0.0151652
728.362	0.0151978
728.440	0.0150689
728.518	0.0151876
728.596	0.0150170
728.674	0.0150794
728.753	0.0152274
728.831	0.0150588
728.909	0.0152194
728.987	0.0153178
729.065	0.0153413
729.143	0.0154280
729.221	0.0152799
729.299	0.0154211
729.378	0.0154756
729.456	0.0156776
729.534	0.0157347
729.612	0.0156126
729.690	0.0157153
729.768	0.0157494
729.846	0.0156454
729.924	0.0156854
730.003	0.0155181
730.081	0.0156750
730.159	0.0158611
730.237	0.0158218
730.315	0.0159744
730.393	0.0161525
730.471	0.0161529
730.549	0.0161423
730.628	0.0163396
730.706	0.0164946
730.784	0.0163163
730.862	0.0164529
730.940	0.0164536
731.018	0.0166061
731.096	0.0163101
731.174	0.0162784
731.253	0.0162169
731.331	0.0161143
731.409	0.0161359
731.487	0.0160356
731.565	0.0157552
731.643	0.0156704
731.721	0.0155950
731.799	0.0155039
731.878	0.0155650
731.956	0.0154049
732.034	0.0153136
732.112	0.0152724
732.190	0.0151784
732.268	0.0151501
732.346	0.0149644
732.424	0.0147683
732.503	0.0149741
732.581	0.0148257
732.659	0.0146268
732.737	0.0146638
732.815	0.0146470
732.893	0.0144701
732.971	0.0144529
733.049	0.0145861
733.128	0.0145448
733.206	0.0144344
733.284	0.0147326
733.362	0.0146542
733.440	0.0145972
733.518	0.0149725
733.596	0.0149966
733.674	0.0152026
733.753	0.0155087
733.831	0.0156909
733.909	0.0157874
733.987	0.0159480
734.065	0.0162928
734.143	0.0165183
734.221	0.0166359
734.299	0.0167100
734.378	0.0166401
734.456	0.0167293
734.534	0.0166875
734.612	0.0168666
734.690	0.0167239
734.768	0.0166152
734.846	0.0166965
734.924	0.0166101
735.003	0.0165104
735.081	0.0165472
735.159	0.0164703
735.237	0.0164279
735.315	0.0163200
735.393	0.0164179
735.471	0.0162856
735.549	0.0158958
735.628	0.0158282
735.706	0.0156684
735.784	0.0152615
735.862	0.0150687
735.940	0.0149172
736.018	0.0144936
736.096	0.0141507
736.174	0.0139922
736.253	0.0140566
736.331	0.0138131
736.409	0.0137541
736.487	0.0137617
736.565	0.0137467
736.643	0.0138924
736.721	0.0139399
736.799	0.0142603
736.878	0.0144871
736.956	0.0146957
737.034	0.0150272
737.112	0.0152775
737.190	0.0155331
737.268	0.0159184
737.346	0.0160798
737.424	0.0161872
737.503	0.0162268
737.581	0.0165160
737.659	0.0165640
737.737	0.0165876
737.815	0.0165981
737.893	0.0166189
737.971	0.0167516
738.049	0.0167873
738.128	0.0167166
738.206	0.0166050
738.284	0.0166212
738.362	0.0165393
738.440	0.0166875
738.518	0.0164940
738.596	0.0162950
738.674	0.0164005
738.753	0.0163081
738.831	0.0162904
738.909	0.0161754
738.987	0.0162147
739.065	0.0161928
739.143	0.0159773
739.221	0.0159750
739.299	0.0156698
739.378	0.0155626
739.456	0.0156288
739.534	0.0155315
739.612	0.0154252
739.690	0.0152382
739.768	0.0151176
739.846	0.0151046
739.924	0.0149947
740.003	0.0148532
740.081	0.0146619
740.159	0.0145226
740.237	0.0145034
740.315	0.0143944
740.393	0.0143130
740.471	0.0141492
740.549	0.0142181
740.628	0.0142046
740.706	0.0141399
740.784	0.0142625
740.862	0.0143820
740.940	0.0142374
741.018	0.0145524
741.096	0.0146489
741.174	0.0149012
741.253	0.0149892
741.331	0.0149980
741.409	0.0152205
741.487	0.0153030
741.565	0.0155588
741.643	0.0155956
741.721	0.0156843
741.799	0.0158459
741.878	0.0159315
741.956	0.0160475
742.034	0.0159798
742.112	0.0160139
742.190	0.0163000
742.268	0.0162809
742.346	0.0163373
742.424	0.0164098
742.503	0.0165031
742.581	0.0164979
742.659	0.0166869
742.737	0.0167348
742.815	0.0168112
742.893	0.0167867
742.971	0.0168167
743.049	0.0167966
743.128	0.0168124
743.206	0.0169546
743.284	0.0168858
743.362	0.0168027
743.440	0.0167618
743.518	0.0168644
743.596	0.0168997
743.674	0.0167578
743.753	0.0167410
743.831	0.0166407
743.909	0.0163957
743.987	0.0163103
744.065	0.0162115
744.143	0.0159715
744.221	0.0157431
744.299	0.0154578
744.378	0.0153973
744.456	0.0150810
744.534	0.0148758
744.612	0.0147814
744.690	0.0143389
744.768	0.0143419
744.846	0.0141911
744.924	0.0139239
745.003	0.0137384
745.081	0.0138328
745.159	0.0136164
745.237	0.0135822
745.315	0.0135307
745.393	0.0135207
745.471	0.0136182
745.549	0.0136734
745.628	0.0138708
745.706	0.0139519
745.784	0.0141312
745.862	0.0145090
745.940	0.0146365
746.018	0.0149062
746.096	0.0151840
746.174	0.0153039
746.253	0.0156114
746.331	0.0158412
746.409	0.0161616
746.487	0.0162558
746.565	0.0166342
746.643	0.0166862
746.721	0.0167607
746.799	0.0168157
746.878	0.0168355
746.956	0.0169381
747.034	0.0170168
747.112	0.0167443
747.190	0.0166212
747.268	0.0165942
747.346	0.0164180
747.424	0.0162534
747.503	0.0161588
747.581	0.0164084
747.659	0.0163454
747.737	0.0163269
747.815	0.0161818
747.893	0.0162328
747.971	0.0163387
748.049	0.0162316
748.128	0.0162296
748.206	0.0162012
748.284	0.0160762
748.362	0.0161612
748.440	0.0160517
748.518	0.0160538
748.596	0.0159688
748.674	0.0157576
748.753	0.0156574
748.831	0.0155975
748.909	0.0154047
748.987	0.0152329
749.065	0.0153311
749.143	0.0153791
749.221	0.0151474
749.299	0.0152217
749.378	0.0150761
749.456	0.0151196
749.534	0.0150274
749.612	0.0151170
749.690	0.0150629
749.768	0.0151147
749.846	0.0149660
749.924	0.0149162
750.003	0.0149477
750.081	0.0151511
750.159	0.0151151
750.237	0.0150385
750.315	0.0151515
750.393	0.0152635
750.471	0.0151845
750.549	0.0153477
750.628	0.0153516
750.706	0.0153393
750.784	0.0153873
750.862	0.0153419
750.940	0.0153467
751.018	0.0151159
751.096	0.0150381
751.174	0.0148888
751.253	0.0147931
751.331	0.0145701
751.409	0.0144099
751.487	0.0144090
751.565	0.0143165
751.643	0.0143242
751.721	0.0144006
751.799	0.0143874
751.878	0.0145628
751.956	0.0145556
752.034	0.0147732
752.112	0.0151086
752.190	0.0152466
752.268	0.0155675
752.346	0.0158482
752.424	0.0162499
752.503	0.0164466
752.581	0.0165740
752.659	0.0168304
752.737	0.0171049
752.815	0.0171898
752.893	0.0174393
752.971	0.0175121
753.049	0.0175253
753.128	0.0174903
753.206	0.0172358
753.284	0.0174409
753.362	0.0171519
753.440	0.0166890
753.518	0.0164384
753.596	0.0162994
753.674	0.0158578
753.753	0.0156125
753.831	0.0152565
753.909	0.0149651
753.987	0.0148692
754.065	0.0146620
754.143	0.0145275
754.221	0.0144878
754.299	0.0144374
754.378	0.0144348
754.456	0.0145178
754.534	0.0145042
754.612	0.0145560
754.690	0.0146754
754.768	0.0148196
754.846	0.0149851
754.924	0.0150834
755.003	0.0153550
755.081	0.0155704
755.159	0.0157632
755.237	0.0158621
755.315	0.0159885
755.393	0.0159339
755.471	0.0161730
755.549	0.0160817
755.628	0.0161417
755.706	0.0161529
755.784	0.0161018
755.862	0.0160218
755.940	0.0160570
756.018	0.0160282
756.096	0.0160152
756.174	0.0159764
756.253	0.0160237
756.331	0.0159530
756.409	0.0161178
756.487	0.0160467
756.565	0.0160455
756.643	0.0160153
756.721	0.0159185
756.799	0.0157230
756.878	0.0156438
756.956	0.0154334
757.034	0.0150684
757.112	0.0149470
757.190	0.0146324
757.268	0.0144413
757.346	0.0142242
757.424	0.0137370
757.503	0.0136279
757.581	0.0134558
757.659	0.0132384
757.737	0.0133243
757.815	0.0133765
757.893	0.0132007
757.971	0.0135851
758.049	0.0137007
758.128	0.0140829
758.206	0.0143678
758.284	0.0147549
758.362	0.0152108
758.440	0.0158057
758.518	0.0163530
758.596	0.0167699
758.674	0.0170522
758.753	0.0174761
758.831	0.0178632
758.909	0.0180682
758.987	0.0180565
759.065	0.0182705
759.143	0.0181450
759.221	0.0179445
759.299	0.0177607
759.378	0.0174590
759.456	0.0171390
759.534	0.0169051
759.612	0.0163793
759.690	0.0159619
759.768	0.0156515
759.846	0.0153905
759.924	0.0151379
760.003	0.0146468
760.081	0.0145045
760.159	0.0145385
760.237	0.0145448
760.315	0.0145819
760.393	0.0147562
760.471	0.0147865
760.549	0.0150376
760.628	0.0150041
760.706	0.0151966
760.784	0.0154218
760.862	0.0156094
760.940	0.0157030
761.018	0.0157399
761.096	0.0161268
761.174	0.0160981
761.253	0.0160443
761.331	0.0160455
761.409	0.0159950
761.487	0.0161198
761.565	0.0158200
761.643	0.0157937
761.721	0.0160178
761.799	0.0159262
761.878	0.0157496
761.956	0.0157961
762.034	0.0157372
762.112	0.0157578
762.190	0.0155521
762.268	0.0153648
762.346	0.0154440
762.424	0.0155859
762.503	0.0155342
762.581	0.0154819
762.659	0.0154596
762.737	0.0152818
762.815	0.0152646
762.893	0.0153741
762.971	0.0152245
763.049	0.0150437
763.128	0.0147531
763.206	0.0146529
763.284	0.0144612
763.362	0.0143128
763.440	0.0140383
763.518	0.0136851
763.596	0.0135107
763.674	0.0133629
763.753	0.0131852
763.831	0.0133281
763.909	0.0133471
763.987	0.0134719
764.065	0.0137300
764.143	0.0139560
764.221	0.0144199
764.299	0.0148721
764.378	0.0153771
764.456	0.0159161
764.534	0.0164574
764.612	0.0168861
764.690	0.0173177
764.768	0.0177302
764.846	0.0180664
764.924	0.0182059
765.003	0.0184048
765.081	0.0184965
765.159	0.0182661
765.237	0.0181793
765.315	0.0179284
765.393	0.0176966
765.471	0.0173732
765.549	0.0169773
765.628	0.0165488
765.706	0.0161600
765.784	0.0158254
765.862	0.0155814
765.940	0.0154929
766.018	0.0152350
766.096	0.0149684
766.174	0.0149303
766.253	0.0148486
766.331	0.0148957
766.409	0.0149699
766.487	0.0148875
766.565	0.0150028
766.643	0.0150545
766.721	0.0150393
766.799	0.0151030
766.878	0.0150662
766.956	0.0150620
767.034	0.0151464
767.112	0.0149998
767.190	0.0150533
767.268	0.0150701
767.346	0.0152062
767.424	0.0152635
767.503	0.0152692
767.581	0.0154889
767.659	0.0154214
767.737	0.0154953
767.815	0.0156280
767.893	0.0157169
767.971	0.0159172
768.049	0.0159441
768.128	0.0158247
768.206	0.0159024
768.284	0.0160263
768.362	0.0159860
768.440	0.0159637
768.518	0.0159933
768.596	0.0158180
768.674	0.0156718
768.753	0.0156775
768.831	0.0155820
768.909	0.0155167
768.987	0.0155393
769.065	0.0153812
769.143	0.0152474
769.221	0.0149108
769.299	0.0146841
769.378	0.0146094
769.456	0.0144838
769.534	0.0139936
769.612	0.0138184
769.690	0.0137022
769.768	0.0135523
769.846	0.0136613
769.924	0.0136735
770.003	0.0138007
770.081	0.0140069
770.159	0.0144003
770.237	0.0145850
770.315	0.0149387
770.393	0.0151785
770.471	0.0155091
770.549	0.0160403
770.628	0.0162865
770.706	0.0166045
770.784	0.0168246
770.862	0.0171366
770.940	0.0172529
771.018	0.0174835
771.096	0.0175931
771.174	0.0176373
771.253	0.0175499
771.331	0.0176746
771.409	0.0175723
771.487	0.0174145
771.565	0.0171978
771.643	0.0169547
771.721	0.0166824
771.799	0.0165980
771.878	0.0162653
771.956	0.0160505
772.034	0.0159590
772.112	0.0158240
772.190	0.0156332
772.268	0.0154402
772.346	0.0153329
772.424	0.0151245
772.503	0.0148731
772.581	0.0149112
772.659	0.0147633
772.737	0.0145456
772.815	0.0146275
772.893	0.0144019
772.971	0.0144033
773.049	0.0145906
773.128	0.0144434
773.206	0.0146731
773.284	0.0147944
773.362	0.0148795
773.440	0.0150589
773.518	0.0153027
773.596	0.0154032
773.674	0.0156227
773.753	0.0157477
773.831	0.0157501
773.909	0.0157471
773.987	0.0158319
774.065	0.0159964
774.143	0.0158758
774.221	0.0160139
774.299	0.0158827
774.378	0.0159169
774.456	0.0157056
774.534	0.0156698
774.612	0.0155668
774.690	0.0155432
774.768	0.0154935
774.846	0.0154689
774.924	0.0154638
775.003	0.0153391
775.081	0.0152534
775.159	0.0153231
775.237	0.0151359
775.315	0.0151009
775.393	0.0150094
775.471	0.0146382
775.549	0.0146721
775.628	0.0145522
775.706	0.0142754
775.784	0.0143266
775.862	0.0144279
775.940	0.0143894
776.018	0.0143990
776.096	0.0146643
776.174	0.0148745
776.253	0.0149023
776.331	0.0150776
776.409	0.0152190
776.487	0.0154178
776.565	0.0157872
776.643	0.0160406
776.721	0.0161465
776.799	0.0164128
776.878	0.0165736
776.956	0.0165486
777.034	0.0170282
777.112	0.0171374
777.190	0.0169905
777.268	0.0170232
777.346	0.0170255
777.424	0.0170083
777.503	0.0169162
777.581	0.0166048
777.659	0.0164352
777.737	0.0162983
777.815	0.0161617
777.893	0.0158186
777.971	0.0157615
778.049	0.0156445
778.128	0.0153349
778.206	0.0153250
778.284	0.0151855
778.362	0.0150057
778.440	0.0148551
778.518	0.0147536
778.596	0.0149088
778.674	0.0146867
778.753	0.0147491
778.831	0.0148910
778.909	0.0149331
778.987	0.0150671
779.065	0.0150883
779.143	0.0152395
779.221	0.0153265
779.299	0.0153754
779.378	0.0155493
779.456	0.0157982
779.534	0.0157259
779.612	0.0156866
779.690	0.0159572
779.768	0.0158664
779.846	0.0158817
779.924	0.0159109
780.003	0.0158201
780.081	0.0157273
780.159	0.0155669
780.237	0.0156161
780.315	0.0155631
780.393	0.0154823
780.471	0.0154652
780.549	0.0153185
780.628	0.0151953
780.706	0.0152804
780.784	0.0152053
780.862	0.0153593
780.940	0.0154124
781.018	0.0153340
781.096	0.0153090
781.174	0.0153960
781.253	0.0152287
781.331	0.0150641
781.409	0.0151066
781.487	0.0150711
781.565	0.0149740
781.643	0.0148695
781.721	0.0148521
781.799	0.0146967
781.878	0.0146005
781.956	0.0146291
782.034	0.0146238
782.112	0.0148458
782.190	0.0148378
782.268	0.0148444
782.346	0.0150597
782.424	0.0151146
782.503	0.0153038
782.581	0.0154504
782.659	0.0154966
782.737	0.0159705
782.815	0.0160843
782.893	0.0161428
782.971	0.0164320
783.049	0.0166974
783.128	0.0167750
783.206	0.0168073
783.284	0.0169541
783.362	0.0168866
783.440	0.0169745
783.518	0.0167665
783.596	0.0167286
783.674	0.0164679
783.753	0.0164541
783.831	0.0163734
783.909	0.0160854
783.987	0.0159496
784.065	0.0156886
784.143	0.0156355
784.221	0.0155344
784.299	0.0154817
784.378	0.0153646
784.456	0.0152902
784.534	0.0152132
784.612	0.0149496
784.690	0.0150285
784.768	0.0150690
784.846	0.0152285
784.924	0.0150273
785.003	0.0152650
785.081	0.0152590
785.159	0.0152650
785.237	0.0153741
785.315	0.0153048
785.393	0.0154510
785.471	0.0154536
785.549	0.0156836
785.628	0.0155146
785.706	0.0154438
785.784	0.0154577
785.862	0.0154468
785.940	0.0154549
786.018	0.0154497
786.096	0.0153571
786.174	0.0152622
786.253	0.0152290
786.331	0.0152493
786.409	0.0152448
786.487	0.0153284
786.565	0.0153175
786.643	0.0154212
786.721	0.0156002
786.799	0.0157069
786.878	0.0156516
786.956	0.0158253
787.034	0.0159205
787.112	0.0158587
787.190	0.0158997
787.268	0.0158443
787.346	0.0158543
787.424	0.0160193
787.503	0.0157262
787.581	0.0155954
787.659	0.0155492
787.737	0.0154123
787.815	0.0152618
787.893	0.0152602
787.971	0.0149795
788.049	0.0149844
788.128	0.0148711
788.206	0.0146603
788.284	0.0149139
788.362	0.0148190
788.440	0.0147775
788.518	0.0149292
788.596	0.0149775
788.674	0.0151288
788.753	0.0153639
788.831	0.0155847
788.909	0.0157517
788.987	0.0159020
789.065	0.0159370
789.143	0.0161455
789.221	0.0162510
789.299	0.0163291
789.378	0.0163674
789.456	0.0165014
789.534	0.0163529
789.612	0.0163934
789.690	0.0163556
789.768	0.0163155
789.846	0.0161632
789.924	0.0159435
790.003	0.0159065
790.081	0.0157123
790.159	0.0156935
790.237	0.0155991
790.315	0.0155084
790.393	0.0154356
790.471	0.0152846
790.549	0.0152541
790.628	0.0152168
790.706	0.0153818
790.784	0.0152535
790.862	0.0153846
790.940	0.0154017
791.018	0.0155527
791.096	0.0155018
791.174	0.0155469
791.253	0.0156132
791.331	0.0156368
791.409	0.0156262
791.487	0.0156918
791.565	0.0157264
791.643	0.0158092
791.721	0.0158063
791.799	0.0158755
791.878	0.0157275
791.956	0.0157407
792.034	0.0156304
792.112	0.0156574
792.190	0.0155801
792.268	0.0156045
792.346	0.0154516
792.424	0.0154432
792.503	0.0154349
792.581	0.0153989
792.659	0.0153962
792.737	0.0154294
792.815	0.0154176
792.893	0.0152823
792.971	0.0154781
793.049	0.0154162
793.128	0.0152209
793.206	0.0154274
793.284	0.0153976
793.362	0.0152611
793.440	0.0152182
793.518	0.0151626
793.596	0.0151108
793.674	0.0152310
793.753	0.0149648
793.831	0.0149659
793.909	0.0151072
793.987	0.0148465
794.065	0.0149611
794.143	0.0147942
794.221	0.0147668
794.299	0.0148497
794.378	0.0149283
794.456	0.0148419
794.534	0.0151670
794.612	0.0152681
794.690	0.0152081
794.768	0.0154683
794.846	0.0154765
794.924	0.0156407
795.003	0.0158487
795.081	0.0159452
795.159	0.0160663
795.237	0.0162170
795.315	0.0163772
795.393	0.0164174
795.471	0.0164297
795.549	0.0165067
795.628	0.0164307
795.706	0.0165334
795.784	0.0163621
795.862	0.0163982
795.940	0.0162633
796.018	0.0161274
796.096	0.0159821
796.174	0.0158250
796.253	0.0157652
796.331	0.0158448
796.409	0.0155106
796.487	0.0153848
796.565	0.0153091
796.643	0.0153973
796.721	0.0152604
796.799	0.0151206
796.878	0.0151645
796.956	0.0151489
797.034	0.0151277
797.112	0.0150768
797.190	0.0152467
797.268	0.0152097
797.346	0.0152642
797.424	0.0153557
797.503	0.0153482
797.581	0.0154915
797.659	0.0154063
797.737	0.0155209
797.815	0.0155717
797.893	0.0155270
797.971	0.0154838
798.049	0.0154507
798.128	0.0157903
798.206	0.0157165
798.284	0.0156819
798.362	0.0155548
798.440	0.0156705
798.518	0.0157558
798.596	0.0157926
798.674	0.0156016
798.753	0.0155223
798.831	0.0156617
798.909	0.0158280
798.987	0.0156633
799.065	0.0155761
799.143	0.0156718
799.221	0.0156576
799.299	0.0156276
799.378	0.0156668
799.456	0.0155365
799.534	0.0155730
799.612	0.0154839
799.690	0.0154807
799.768	0.0154284
799.846	0.0155434
799.924	0.0154462
800.003	0.0156453
800.081	0.0153486
800.159	0.0153407
800.237	0.0152305
800.315	0.0151952
800.393	0.0150669
800.471	0.0151054
800.549	0.0151526
800.628	0.0149291
800.706	0.0150899
800.784	0.0149119
800.862	0.0149235
800.940	0.0150599
801.018	0.0152104
801.096	0.0152383
801.174	0.0153970
801.253	0.0155881
801.331	0.0156954
801.409	0.0157762
801.487	0.0158918
801.565	0.0157923
801.643	0.0160318
801.721	0.0161709
801.799	0.0163252
801.878	0.0161709
801.956	0.0162981
802.034	0.0162218
802.112	0.0160950
802.190	0.0161220
802.268	0.0159344
802.346	0.0158199
802.424	0.0157264
802.503	0.0157375
802.581	0.0156891
802.659	0.0156305
802.737	0.0154083
802.815	0.0152832
802.893	0.0152558
802.971	0.0153616
803.049	0.0153480
803.128	0.0153448
803.206	0.0154713
803.284	0.0154796
803.362	0.0155106
803.440	0.0156966
803.518	0.0155627
803.596	0.0156896
803.674	0.0158313
803.753	0.0157355
803.831	0.0156670
803.909	0.0157413
803.987	0.0156465
804.065	0.0156571
804.143	0.0156305
804.221	0.0155152
804.299	0.0155268
804.378	0.0154568
804.456	0.0155563
804.534	0.0153360
804.612	0.0154919
804.690	0.0154310
804.768	0.0153505
804.846	0.0153714
804.924	0.0154990
805.003	0.0154875
805.081	0.0155518
805.159	0.0155518
805.237	0.0157051
805.315	0.0155933
805.393	0.0156113
805.471	0.0156324
805.549	0.0156878
805.628	0.0154428
805.706	0.0155704
805.784	0.0157111
805.862	0.0156213
805.940	0.0156272
806.018	0.0154372
806.096	0.0154089
806.174	0.0153619
806.253	0.0154314
806.331	0.0152283
806.409	0.0151189
806.487	0.0151511
806.565	0.0151108
806.643	0.0150106
806.721	0.0149236
806.799	0.0150106
806.878	0.0150292
806.956	0.0150248
807.034	0.0150955
807.112	0.0151881
807.190	0.0152042
807.268	0.0153965
807.346	0.0154294
807.424	0.0156444
807.503	0.0157395
807.581	0.0158544
807.659	0.0159080
807.737	0.0161784
807.815	0.0160658
807.893	0.0162008
807.971	0.0161770
808.049	0.0161794
808.128	0.0163124
808.206	0.0162495
808.284	0.0161581
808.362	0.0161987
808.440	0.0160482
808.518	0.0158549
808.596	0.0157830
808.674	0.0158023
808.753	0.0156597
808.831	0.0157024
808.909	0.0155613
808.987	0.0155611
809.065	0.0154625
809.143	0.0154836
809.221	0.0155394
809.299	0.0154365
809.378	0.0154309
809.456	0.0155303
809.534	0.0154224
809.612	0.0155222
809.690	0.0154530
809.768	0.0153468
809.846	0.0153379
809.924	0.0154716
810.003	0.0154228
810.081	0.0153667
810.159	0.0153653
810.237	0.0153983
810.315	0.0154211
810.393	0.0153049
810.471	0.0153877
810.549	0.0152784
810.628	0.0151987
810.706	0.0153292
810.784	0.0154283
810.862	0.0155025
810.940	0.0155884
811.018	0.0154684
811.096	0.0154585
811.174	0.0156131
811.253	0.0156185
811.331	0.0157990
811.409	0.0158251
811.487	0.0156376
811.565	0.0157883
811.643	0.0157980
811.721	0.0157800
811.799	0.0156696
811.878	0.0156570
811.956	0.0156537
812.034	0.0155325
812.112	0.0156492
812.190	0.0156602
812.268	0.0155868
812.346	0.0153047
812.424	0.0154323
812.503	0.0155819
812.581	0.0155276
812.659	0.0152969
812.737	0.0153683
812.815	0.0153551
812.893	0.0152720
812.971	0.0154155
813.049	0.0153017
813.128	0.0152365
813.206	0.0153226
813.284	0.0152480
813.362	0.0152222
813.440	0.0152423
813.518	0.0152701
813.596	0.0153096
813.674	0.0152481
813.753	0.0156082
813.831	0.0155694
813.909	0.0157307
813.987	0.0156185
814.065	0.0156742
814.143	0.0157764
814.221	0.0158326
814.299	0.0157850
814.378	0.0158511
814.456	0.0159062
814.534	0.0159271
814.612	0.0159080
814.690	0.0158973
814.768	0.0160104
814.846	0.0159083
814.924	0.0160120
815.003	0.0157799
815.081	0.0157786
815.159	0.0157301
815.237	0.0158186
815.315	0.0158067
815.393	0.0158020
815.471	0.0155999
815.549	0.0155325
815.628	0.0157115
815.706	0.0154707
815.784	0.0152729
815.862	0.0153006
815.940	0.0153194
816.018	0.0153931
816.096	0.0151377
816.174	0.0152895
816.253	0.0151604
816.331	0.0153117
816.409	0.0153597
816.487	0.0152629
816.565	0.0153802
816.643	0.0153628
816.721	0.0153801
816.799	0.0154408
816.878	0.0154709
816.956	0.0155390
817.034	0.0154044
817.112	0.0155753
817.190	0.0155706
817.268	0.0157109
817.346	0.0155885
817.424	0.0155984
817.503	0.0156407
817.581	0.0156644
817.659	0.0155434
817.737	0.0155121
817.815	0.0155624
817.893	0.0156467
817.971	0.0154459
818.049	0.0155699
818.128	0.0155800
818.206	0.0155188
818.284	0.0155173
818.362	0.0155128
818.440	0.0155918
818.518	0.0155788
818.596	0.0156590
818.674	0.0154137
818.753	0.0155614
818.831	0.0155939
818.909	0.0155588
818.987	0.0154768
819.065	0.0155708
819.143	0.0155458
819.221	0.0155841
819.299	0.0155106
819.378	0.0154759
819.456	0.0153619
819.534	0.0153265
819.612	0.0155371
819.690	0.0154091
819.768	0.0153739
819.846	0.0155024
819.924	0.0154804
820.003	0.0155852
820.081	0.0155932
820.159	0.0156365
820.237	0.0155803
820.315	0.0156122
820.393	0.0158228
820.471	0.0157584
820.549	0.0156405
820.628	0.0156168
820.706	0.0158894
820.784	0.0157317
820.862	0.0157585
820.940	0.0158982
821.018	0.0159430
821.096	0.0158089
821.174	0.0158299
821.253	0.0158256
821.331	0.0157860
821.409	0.0156569
821.487	0.0157029
821.565	0.0155995
821.643	0.0157940
821.721	0.0155978
821.799	0.0154762
821.878	0.0156101
821.956	0.0156409
822.034	0.0154540
822.112	0.0153928
822.190	0.0153902
822.268	0.0154563
822.346	0.0155155
822.424	0.0155507
822.503	0.0153862
822.581	0.0153925
822.659	0.0155106
822.737	0.0155544
822.815	0.0155203
822.893	0.0155762
822.971	0.0155145
823.049	0.0156167
823.128	0.0156110
823.206	0.0155861
823.284	0.0155976
823.362	0.0154504
823.440	0.0156068
823.518	0.0157015
823.596	0.0155933
823.674	0.0155545
823.753	0.0154408
823.831	0.0154615
823.909	0.0154220
823.987	0.0156224
824.065	0.0155205
824.143	0.0155044
824.221	0.0153413
824.299	0.0154091
824.378	0.0153361
824.456	0.0154208
824.534	0.0154892
824.612	0.0154536
824.690	0.0154027
824.768	0.0153255
824.846	0.0155207
824.924	0.0155172
825.003	0.0153565
825.081	0.0154424
825.159	0.0153947
825.237	0.0154462
825.315	0.0154201
825.393	0.0153658
825.471	0.0154480
825.549	0.0153791
825.628	0.0155772
825.706	0.0154904
825.784	0.0154349
825.862	0.0153339
825.940	0.0154002
826.018	0.0153664
826.096	0.0154583
826.174	0.0155466
826.253	0.0156096
826.331	0.0155808
826.409	0.0157146
826.487	0.0158491
826.565	0.0157531
826.643	0.0158826
826.721	0.0158350
826.799	0.0160548
826.878	0.0159727
826.956	0.0160704
827.034	0.0160139
827.112	0.0160014
827.190	0.0158943
827.268	0.0158630
827.346	0.0158755
827.424	0.0158485
827.503	0.0158097
827.581	0.0157905
827.659	0.0157524
827.737	0.0156355
827.815	0.0155357
827.893	0.0156243
827.971	0.0155779
828.049	0.0155623
828.128	0.0156483
828.206	0.0153769
828.284	0.0155175
828.362	0.0155898
828.440	0.0154324
828.518	0.0155081
828.596	0.0155959
828.674	0.0154417
828.753	0.0153709
828.831	0.0153981
828.909	0.0153350
828.987	0.0153703
829.065	0.0152434
829.143	0.0152667
829.221	0.0153028
829.299	0.0151989
829.378	0.0154221
829.456	0.0153613
829.534	0.0152421
829.612	0.0152135
829.690	0.0153648
829.768	0.0152687
829.846	0.0153297
829.924	0.0154814
830.003	0.0154053
830.081	0.0154765
830.159	0.0156025
830.237	0.0154962
830.315	0.0157078
830.393	0.0157066
830.471	0.0157651
830.549	0.0156737
830.628	0.0158209
830.706	0.0157677
830.784	0.0157126
830.862	0.0157748
830.940	0.0157752
831.018	0.0157787
831.096	0.0157696
831.174	0.0157971
831.253	0.0156500
831.331	0.0156657
831.409	0.0155743
831.487	0.0154649
831.565	0.0155218
831.643	0.0156112
831.721	0.0154755
831.799	0.0156068
831.878	0.0156148
831.956	0.0156551
832.034	0.0156289
832.112	0.0157420
832.190	0.0155711
832.268	0.0156656
832.346	0.0155766
832.424	0.0156033
832.503	0.0156077
832.581	0.0155848
832.659	0.0155975
832.737	0.0156869
832.815	0.0154312
832.893	0.0154731
832.971	0.0155795
833.049	0.0154060
833.128	0.0153666
833.206	0.0153131
833.284	0.0154449
833.362	0.0154411
833.440	0.0154195
833.518	0.0153268
833.596	0.0153661
833.674	0.0154488
833.753	0.0154068
833.831	0.0154626
833.909	0.0156033
833.987	0.0156099
834.065	0.0156477
834.143	0.0155813
834.221	0.0155482
834.299	0.0158580
834.378	0.0157552
834.456	0.0155669
834.534	0.0158305
834.612	0.0156602
834.690	0.0157928
834.768	0.0157186
834.846	0.0158806
834.924	0.0159568
835.003	0.0158518
835.081	0.0158230
835.159	0.0158703
835.237	0.0157838
835.315	0.0158246
835.393	0.0159264
835.471	0.0158807
835.549	0.0156751
835.628	0.0157904
835.706	0.0158408
835.784	0.0156055
835.862	0.0154920
835.940	0.0157250
836.018	0.0156413
836.096	0.0155504
836.174	0.0152821
836.253	0.0154039
836.331	0.0153313
836.409	0.0153390
836.487	0.0154215
836.565	0.0153014
836.643	0.0152303
836.721	0.0152206
836.799	0.0150925
836.878	0.0152756
836.956	0.0152605
837.034	0.0152180
837.112	0.0152727
837.190	0.0153001
837.268	0.0150851
837.346	0.0153282
837.424	0.0152929
837.503	0.0153341
837.581	0.0153459
837.659	0.0153310
837.737	0.0152680
837.815	0.0153693
837.893	0.0154292
837.971	0.0154742
838.049	0.0153297
838.128	0.0155529
838.206	0.0156139
838.284	0.0156199
838.362	0.0158321
838.440	0.0157186
838.518	0.0158573
838.596	0.0158963
838.674	0.0158112
838.753	0.0158949
838.831	0.0157814
838.909	0.0158092
838.987	0.0159397
839.065	0.0158713
839.143	0.0157718
839.221	0.0159814
839.299	0.0159417
839.378	0.0159132
839.456	0.0157784
839.534	0.0158080
839.612	0.0158448
839.690	0.0158158
839.768	0.0157912
839.846	0.0158681
839.924	0.0157722
840.003	0.0157359
840.081	0.0156899
840.159	0.0155033
840.237	0.0156435
840.315	0.0155757
840.393	0.0155220
840.471	0.0154913
840.549	0.0155320
840.628	0.0156189
840.706	0.0153861
840.784	0.0153770
840.862	0.0152925
840.940	0.0154196
841.018	0.0153346
841.096	0.0153474
841.174	0.0154387
841.253	0.0153410
841.331	0.0152669
841.409	0.0152729
841.487	0.0153185
841.565	0.0153723
841.643	0.0153347
841.721	0.0153071
841.799	0.0152595
841.878	0.0152841
841.956	0.0152628
842.034	0.0152603
842.112	0.0151981
842.190	0.0151135
842.268	0.0153481
842.346	0.0152122
842.424	0.0152512
842.503	0.0153575
842.581	0.0153342
842.659	0.0153593
842.737	0.0153530
842.815	0.0154164
842.893	0.0155402
842.971	0.0156355
843.049	0.0156619
843.128	0.0154951
843.206	0.0157301
843.284	0.0158961
843.362	0.0157733
843.440	0.0158624
843.518	0.0158115
843.596	0.0157726
843.674	0.0156651
843.753	0.0158132
843.831	0.0158951
843.909	0.0158354
843.987	0.0157922
844.065	0.0156587
844.143	0.0157949
844.221	0.0158242
844.299	0.0156799
844.378	0.0157611
844.456	0.0158960
844.534	0.0158346
844.612	0.0158283
844.690	0.0157721
844.768	0.0158464
844.846	0.0155589
844.924	0.0156561
845.003	0.0157151
845.081	0.0158028
845.159	0.0157462
845.237	0.0154980
845.315	0.0154615
845.393	0.0156249
845.471	0.0154138
845.549	0.0155507
845.628	0.0155196
845.706	0.0154087
845.784	0.0155081
845.862	0.0154562
845.940	0.0154887
846.018	0.0154420
846.096	0.0154684
846.174	0.0156236
846.253	0.0154957
846.331	0.0155391
846.409	0.0156282
846.487	0.0155048
846.565	0.0154530
846.643	0.0155722
846.721	0.0155587
846.799	0.0155822
846.878	0.0155183
846.956	0.0154359
847.034	0.0154059
847.112	0.0154147
847.190	0.0154539
847.268	0.0155291
847.346	0.0153971
847.424	0.0155499
847.503	0.0155521
847.581	0.0155273
847.659	0.0154721
847.737	0.0154888
847.815	0.0155509
847.893	0.0154352
847.971	0.0153555
848.049	0.0153575
848.128	0.0153439
848.206	0.0153445
848.284	0.0152565
848.362	0.0153526
848.440	0.0153789
848.518	0.0154778
848.596	0.0153355
848.674	0.0153652
848.753	0.0154172
848.831	0.0156345
848.909	0.0157441
848.987	0.0156721
849.065	0.0156617
849.143	0.0157645
849.221	0.0157134
849.299	0.0158683
849.378	0.0156316
849.456	0.0156895
849.534	0.0159032
849.612	0.0160152
849.690	0.0158680
849.768	0.0158249
849.846	0.0157560
849.924	0.0158763
850.003	0.0158242
850.081	0.0158561
850.159	0.0156010
850.237	0.0156855
850.315	0.0157435
850.393	0.0156154
850.471	0.0156515
850.549	0.0155511
850.628	0.0156754
850.706	0.0155528
850.784	0.0155885
850.862	0.0154813
850.940	0.0157194
851.018	0.0157208
851.096	0.0156462
851.174	0.0154986
851.253	0.0154687
851.331	0.0156747
851.409	0.0155254
851.487	0.0155974
851.565	0.0155295
851.643	0.0155233
851.721	0.0156441
851.799	0.0154570
851.878	0.0154961
851.956	0.0157027
852.034	0.0156093
852.112	0.0154237
852.190	0.0155548
852.268	0.0156953
852.346	0.0155602
852.424	0.0155490
852.503	0.0154770
852.581	0.0155398
852.659	0.0155482
852.737	0.0156847
852.815	0.0155469
852.893	0.0155804
852.971	0.0156214
853.049	0.0155652
853.128	0.0156950
853.206	0.0154099
853.284	0.0155919
853.362	0.0154861
853.440	0.0155894
853.518	0.0155425
853.596	0.0154008
853.674	0.0155106
853.753	0.0155732
853.831	0.0155418
853.909	0.0154526
853.987	0.0156013
854.065	0.0156725
854.143	0.0153344
854.221	0.0154112
854.299	0.0155598
854.378	0.0153415
854.456	0.0154311
854.534	0.0154955
854.612	0.0153701
854.690	0.0154213
854.768	0.0153440
854.846	0.0155222
854.924	0.0154373
855.003	0.0155884
855.081	0.0156536
855.159	0.0155583
855.237	0.0155827
855.315	0.0156706
855.393	0.0156952
855.471	0.0156110
855.549	0.0157131
855.628	0.0158531
855.706	0.0157175
855.784	0.0157455
855.862	0.0158124
855.940	0.0156503
856.018	0.0157260
856.096	0.0157920
856.174	0.0158955
856.253	0.0157665
856.331	0.0156903
856.409	0.0157129
856.487	0.0157991
856.565	0.0157584
856.643	0.0156956
856.721	0.0156673
856.799	0.0156158
856.878	0.0155766
856.956	0.0156104
857.034	0.0156029
857.112	0.0156161
857.190	0.0156051
857.268	0.0155582
857.346	0.0155381
857.424	0.0155799
857.503	0.0155102
857.581	0.0154871
857.659	0.0155259
857.737	0.0155288
857.815	0.0154205
857.893	0.0154175
857.971	0.0154376
858.049	0.0154591
858.128	0.0154372
858.206	0.0155402
858.284	0.0156055
858.362	0.0154858
858.440	0.0154723
858.518	0.0155463
858.596	0.0154105
858.674	0.0155340
858.753	0.0156804
858.831	0.0154819
858.909	0.0154860
858.987	0.0154965
859.065	0.0155081
859.143	0.0154378
859.221	0.0154113
859.299	0.0152403
859.378	0.0152343
859.456	0.0153795
859.534	0.0154437
859.612	0.0153434
859.690	0.0153534
859.768	0.0154004
859.846	0.0153124
859.924	0.0153365
860.003	0.0155135
860.081	0.0155930
860.159	0.0152665
860.237	0.0153765
860.315	0.0154498
860.393	0.0154626
860.471	0.0154868
860.549	0.0154095
860.628	0.0155324
860.706	0.0155412
860.784	0.0155876
860.862	0.0156110
860.940	0.0155252
861.018	0.0155083
861.096	0.0155104
861.174	0.0156287
861.253	0.0155862
861.331	0.0157183
861.409	0.0157700
861.487	0.0157439
861.565	0.0156063
861.643	0.0158400
861.721	0.0158366
861.799	0.0158167
861.878	0.0159465
861.956	0.0157627
862.034	0.0159299
862.112	0.0159340
862.190	0.0158805
862.268	0.0158873
862.346	0.0159980
862.424	0.0158111
862.503	0.0158496
862.581	0.0157224
862.659	0.0156812
862.737	0.0157798
862.815	0.0157298
862.893	0.0156738
862.971	0.0156650
863.049	0.0155656
863.128	0.0153307
863.206	0.0154784
863.284	0.0156029
863.362	0.0154482
863.440	0.0154087
863.518	0.0154053
863.596	0.0153896
863.674	0.0155016
863.753	0.0154216
863.831	0.0154686
863.909	0.0154329
863.987	0.0155233
864.065	0.0155341
864.143	0.0152792
864.221	0.0155095
864.299	0.0155319
864.378	0.0155033
864.456	0.0154190
864.534	0.0155324
864.612	0.0155126
864.690	0.0154622
864.768	0.0154443
864.846	0.0154720
864.924	0.0154192
865.003	0.0152612
865.081	0.0153745
865.159	0.0154699
865.237	0.0154305
865.315	0.0153091
865.393	0.0154449
865.471	0.0154362
865.549	0.0154011
865.628	0.0154475
865.706	0.0153094
865.784	0.0154728
865.862	0.0154937
865.940	0.0154900
866.018	0.0154727
866.096	0.0154589
866.174	0.0153455
866.253	0.0154879
866.331	0.0155722
866.409	0.0154326
866.487	0.0155202
866.565	0.0155157
866.643	0.0155026
866.721	0.0154952
866.799	0.0156244
866.878	0.0157280
866.956	0.0155959
867.034	0.0156705
867.112	0.0159782
867.190	0.0157926
867.268	0.0158923
867.346	0.0158369
867.424	0.0157998
867.503	0.0160674
867.581	0.0161027
867.659	0.0160007
867.737	0.0157467
867.815	0.0158979
867.893	0.0159013
867.971	0.0159245
868.049	0.0159464
868.128	0.0157895
868.206	0.0156548
868.284	0.0157487
868.362	0.0158110
868.440	0.0156658
868.518	0.0157581
868.596	0.0156633
868.674	0.0156114
868.753	0.0156471
868.831	0.0155804
868.909	0.0153968
868.987	0.0156032
869.065	0.0154846
869.143	0.0155969
869.221	0.0155151
869.299	0.0154488
869.378	0.0154291
869.456	0.0154137
869.534	0.0154182
869.612	0.0153715
869.690	0.0153756
869.768	0.0153236
869.846	0.0153687
869.924	0.0154144
870.003	0.0153331
870.081	0.0154684
870.159	0.0155083
870.237	0.0155663
870.315	0.0155193
870.393	0.0154535
870.471	0.0156164
870.549	0.0156033
870.628	0.0155381
870.706	0.0155943
870.784	0.0156331
870.862	0.0154520
870.940	0.0155602
871.018	0.0156402
871.096	0.0155595
871.174	0.0156596
871.253	0.0155441
871.331	0.0156133
871.409	0.0156057
871.487	0.0154861
871.565	0.0154762
871.643	0.0155655
871.721	0.0155268
871.799	0.0153082
871.878	0.0154835
871.956	0.0153508
872.034	0.0152892
872.112	0.0154266
872.190	0.0154872
872.268	0.0154398
872.346	0.0152280
872.424	0.0153437
872.503	0.0154723
872.581	0.0153536
872.659	0.0154465
872.737	0.0154035
872.815	0.0154648
872.893	0.0155141
872.971	0.0155425
873.049	0.0155154
873.128	0.0155621
873.206	0.0157373
873.284	0.0157346
873.362	0.0158173
873.440	0.0157716
873.518	0.0157780
873.596	0.0158153
873.674	0.0158546
873.753	0.0158779
873.831	0.0158094
873.909	0.0157655
873.987	0.0158224
874.065	0.0157851
874.143	0.0157921
874.221	0.0157614
874.299	0.0156782
874.378	0.0157650
874.456	0.0158916
874.534	0.0157402
874.612	0.0156522
874.690	0.0156582
874.768	0.0156173
874.846	0.0156158
874.924	0.0155077
875.003	0.0155623
875.081	0.0154544
875.159	0.0154263
875.237	0.0155440
875.315	0.0154370
875.393	0.0152271
875.471	0.0153948
875.549	0.0154288
875.628	0.0154214
875.706	0.0153121
875.784	0.0152878
875.862	0.0155399
875.940	0.0155363
876.018	0.0154413
876.096	0.0155747
876.174	0.0154298
876.253	0.0155746
876.331	0.0157551
876.409	0.0155186
876.487	0.0156006
876.565	0.0156846
876.643	0.0155812
876.721	0.0156314
876.799	0.0155553
876.878	0.0156265
876.956	0.0155368
877.034	0.0157346
877.112	0.0157068
877.190	0.0156485
877.268	0.0155675
877.346	0.0155014
877.424	0.0155981
877.503	0.0156057
877.581	0.0156123
877.659	0.0155170
877.737	0.0155559
877.815	0.0153761
877.893	0.0154677
877.971	0.0155322
878.049	0.0153096
878.128	0.0154756
878.206	0.0152732
878.284	0.0153465
878.362	0.0154691
878.440	0.0152236
878.518	0.0153551
878.596	0.0155409
878.674	0.0153077
878.753	0.0153106
878.831	0.0152048
878.909	0.0152663
878.987	0.0154063
879.065	0.0155040
879.143	0.0156094
879.221	0.0154555
879.299	0.0155646
879.378	0.0156839
879.456	0.0155244
879.534	0.0157257
879.612	0.0156303
879.690	0.0157259
879.768	0.0158424
879.846	0.0157818
879.924	0.0158154
880.003	0.0157687
880.081	0.0158287
880.159	0.0157652
880.237	0.0159308
880.315	0.0158793
880.393	0.0158878
880.471	0.0157575
880.549	0.0158209
880.628	0.0157810
880.706	0.0156958
880.784	0.0156966
880.862	0.0156644
880.940	0.0156812
881.018	0.0156702
881.096	0.0156815
881.174	0.0155435
881.253	0.0154990
881.331	0.0155139
881.409	0.0156033
881.487	0.0156171
881.565	0.0154331
881.643	0.0155291
881.721	0.0154065
881.799	0.0153961
881.878	0.0155611
881.956	0.0155539
882.034	0.0154639
882.112	0.0154794
882.190	0.0152472
882.268	0.0153213
882.346	0.0153477
882.424	0.0153793
882.503	0.0154247
882.581	0.0154314
882.659	0.0155190
882.737	0.0153181
882.815	0.0153844
882.893	0.0154466
882.971	0.0153911
883.049	0.0153854
883.128	0.0154494
883.206	0.0153187
883.284	0.0155592
883.362	0.0156200
883.440	0.0154711
883.518	0.0155828
883.596	0.0155425
883.674	0.0156916
883.753	0.0156876
883.831	0.0156030
883.909	0.0155470
883.987	0.0155856
884.065	0.0157142
884.143	0.0156864
884.221	0.0154732
884.299	0.0154871
884.378	0.0154093
884.456	0.0155350
884.534	0.0156985
884.612	0.0155471
884.690	0.0155237
884.768	0.0154449
884.846	0.0155647
884.924	0.0155399
885.003	0.0155539
885.081	0.0153746
885.159	0.0155421
885.237	0.0156466
885.315	0.0155130
885.393	0.0155139
885.471	0.0155461
885.549	0.0156104
885.628	0.0154760
885.706	0.0155391
885.784	0.0154362
885.862	0.0156448
885.940	0.0156584
886.018	0.0156104
886.096	0.0157431
886.174	0.0156863
886.253	0.0155563
886.331	0.0156592
886.409	0.0155423
886.487	0.0156862
886.565	0.0156528
886.643	0.0156833
886.721	0.0155952
886.799	0.0155520
886.878	0.0155284
886.956	0.0154346
887.034	0.0155201
887.112	0.0155257
887.190	0.0155270
887.268	0.0155084
887.346	0.0156208
887.424	0.0155347
887.503	0.0154507
887.581	0.0153940
887.659	0.0155047
887.737	0.0154905
887.815	0.0154441
887.893	0.0155347
887.971	0.0153354
888.049	0.0154398
888.128	0.0155525
888.206	0.0154779
888.284	0.0154355
888.362	0.0155775
888.440	0.0155222
888.518	0.0155898
888.596	0.0155116
888.674	0.0155515
888.753	0.0156082
888.831	0.0155254
888.909	0.0154135
888.987	0.0154858
889.065	0.0155605
889.143	0.0155821
889.221	0.0155386
889.299	0.0156504
889.378	0.0157819
889.456	0.0154765
889.534	0.0155914
889.612	0.0155663
889.690	0.0155515
889.768	0.0156078
889.846	0.0155395
889.924	0.0156204
890.003	0.0156831
890.081	0.0156355
890.159	0.0156617
890.237	0.0158505
890.315	0.0156194
890.393	0.0156544
890.471	0.0156062
890.549	0.0155578
890.628	0.0156575
890.706	0.0157596
890.784	0.0155816
890.862	0.0153838
890.940	0.0155028
891.018	0.0155819
891.096	0.0155707
891.174	0.0155525
891.253	0.0155260
891.331	0.0154188
891.409	0.0155697
891.487	0.0155246
891.565	0.0153854
891.643	0.0156470
891.721	0.0156625
891.799	0.0154433
891.878	0.0154414
891.956	0.0156959
892.034	0.0156610
892.112	0.0155618
892.190	0.0157725
892.268	0.0156824
892.346	0.0155413
892.424	0.0156015
892.503	0.0155307
892.581	0.0155730
892.659	0.0155331
892.737	0.0156673
892.815	0.0156593
892.893	0.0154665
892.971	0.0156558
893.049	0.0155477
893.128	0.0154360
893.206	0.0155433
893.284	0.0153787
893.362	0.0153905
893.440	0.0154324
893.518	0.0154159
893.596	0.0155511
893.674	0.0156118
893.753	0.0155036
893.831	0.0154122
893.909	0.0154555
893.987	0.0155831
894.065	0.0153807
894.143	0.0155006
894.221	0.0154792
894.299	0.0155756
894.378	0.0155799
894.456	0.0155266
894.534	0.0154463
894.612	0.0156088
894.690	0.0155893
894.768	0.0155433
894.846	0.0154418
894.924	0.0155335
895.003	0.0154511
895.081	0.0156066
895.159	0.0155673
895.237	0.0154772
895.315	0.0155906
895.393	0.0154137
895.471	0.0154931
895.549	0.0154724
895.628	0.0154573
895.706	0.0154842
895.784	0.0155847
895.862	0.0155207
895.940	0.0154867
896.018	0.0155397
896.096	0.0155095
896.174	0.0154364
896.253	0.0153403
896.331	0.0154807
896.409	0.0154968
896.487	0.0154265
896.565	0.0155078
896.643	0.0156555
896.721	0.0154515
896.799	0.0153764
896.878	0.0152927
896.956	0.0154571
897.034	0.0155152
897.112	0.0154827
897.190	0.0155152
897.268	0.0155929
897.346	0.0154903
897.424	0.0156841
897.503	0.0155824
897.581	0.0155923
897.659	0.0156367
897.737	0.0156033
897.815	0.0156715
897.893	0.0155054
897.971	0.0156195
898.049	0.0155203
898.128	0.0154996
898.206	0.0155698
898.284	0.0155216
898.362	0.0154395
898.440	0.0156101
898.518	0.0155990
898.596	0.0156683
898.674	0.0155602
898.753	0.0153876
898.831	0.0154414
898.909	0.0155277
898.987	0.0154896
899.065	0.0154375
899.143	0.0154998
899.221	0.0154222
899.299	0.0154772
899.378	0.0155541
899.456	0.0155000
899.534	0.0156336
899.612	0.0154227
899.690	0.0156316
899.768	0.0155540
899.846	0.0155465
899.924	0.0155553
900.003	0.0154973
900.081	0.0154796
900.159	0.0155022
900.237	0.0154542
900.315	0.0154601
900.393	0.0155995
900.471	0.0154974
900.549	0.0154632
900.628	0.0155865
900.706	0.0154985
900.784	0.0155717
900.862	0.0156291
900.940	0.0155209
901.018	0.0156710
901.096	0.0156052
901.174	0.0156482
901.253	0.0156106
901.331	0.0156631
901.409	0.0156744
901.487	0.0156447
901.565	0.0156416
901.643	0.0156603
901.721	0.0153454
901.799	0.0155726
901.878	0.0155560
901.956	0.0154475
902.034	0.0155018
902.112	0.0154655
902.190	0.0155787
902.268	0.0154445
902.346	0.0153906
902.424	0.0154739
902.503	0.0155240
902.581	0.0155317
902.659	0.0156368
902.737	0.0154755
902.815	0.0155418
902.893	0.0156195
902.971	0.0155773
903.049	0.0156250
903.128	0.0155016
903.206	0.0155614
903.284	0.0155405
903.362	0.0153564
903.440	0.0155134
903.518	0.0156152
903.596	0.0154274
903.674	0.0154957
903.753	0.0155571
903.831	0.0155939
903.909	0.0155331
903.987	0.0154118
904.065	0.0156198
904.143	0.0154443
904.221	0.0155219
904.299	0.0155790
904.378	0.0155873
904.456	0.0155595
904.534	0.0155411
904.612	0.0154981
904.690	0.0155866
904.768	0.0156133
904.846	0.0155762
904.924	0.0155820
905.003	0.0156116
905.081	0.0156001
905.159	0.0156412
905.237	0.0155313
905.315	0.0155560
905.393	0.0155916
905.471	0.0155696
905.549	0.0156195
905.628	0.0155130
905.706	0.0156480
905.784	0.0156296
905.862	0.0155226
905.940	0.0155407
906.018	0.0157108
906.096	0.0156005
906.174	0.0156919
906.253	0.0156384
906.331	0.0154769
906.409	0.0156357
906.487	0.0156101
906.565	0.0157125
906.643	0.0154640
906.721	0.0154872
906.799	0.0155573
906.878	0.0154536
906.956	0.0154312
907.034	0.0155501
907.112	0.0154512
907.190	0.0154823
907.268	0.0154132
907.346	0.0154495
907.424	0.0154509
907.503	0.0155001
907.581	0.0155377
907.659	0.0155168
907.737	0.0154718
907.815	0.0155711
907.893	0.0155161
907.971	0.0154926
908.049	0.0156165
908.128	0.0156629
908.206	0.0155576
908.284	0.0155771
908.362	0.0155748
908.440	0.0156016
908.518	0.0155733
908.596	0.0155461
908.674	0.0154147
908.753	0.0155334
908.831	0.0156651
908.909	0.0157262
908.987	0.0156390
909.065	0.0155106
909.143	0.0155540
909.221	0.0155798
909.299	0.0155483
909.378	0.0157024
909.456	0.0155925
909.534	0.0156709
909.612	0.0155125
909.690	0.0156377
909.768	0.0157344
909.846	0.0156583
909.924	0.0156433
910.003	0.0155395
910.081	0.0154940
910.159	0.0155904
910.237	0.0156718
910.315	0.0156339
910.393	0.0156519
910.471	0.0155972
910.549	0.0154833
910.628	0.0154490
910.706	0.0153991
910.784	0.0154749
910.862	0.0154273
910.940	0.0154434
911.018	0.0154586
911.096	0.0154121
911.174	0.0154124
911.253	0.0154648
911.331	0.0154045
911.409	0.0155651
911.487	0.0154545
911.565	0.0153545
911.643	0.0154933
911.721	0.0155752
911.799	0.0156573
911.878	0.0155963
911.956	0.0154209
912.034	0.0155465
912.112	0.0155848
912.190	0.0156770
912.268	0.0156458
912.346	0.0156200
912.424	0.0155805
912.503	0.0156139
912.581	0.0155313
912.659	0.0155604
912.737	0.0155938
912.815	0.0155859
912.893	0.0155167
912.971	0.0155679
913.049	0.0156075
913.128	0.0155244
913.206	0.0155804
913.284	0.0154025
913.362	0.0155515
913.440	0.0155622
913.518	0.0155507
913.596	0.0155582
913.674	0.0156209
913.753	0.0155760
913.831	0.0156631
913.909	0.0156017
913.987	0.0156944
914.065	0.0156172
914.143	0.0157520
914.221	0.0156577
914.299	0.0155445
914.378	0.0156476
914.456	0.0155660
914.534	0.0154941
914.612	0.0155910
914.690	0.0155998
914.768	0.0156778
914.846	0.0155353
914.924	0.0154923
915.003	0.0156097
915.081	0.0155736
915.159	0.0155217
915.237	0.0155505
915.315	0.0156112
915.393	0.0156596
915.471	0.0155286
915.549	0.0155216
915.628	0.0154895
915.706	0.0153616
915.784	0.0154707
915.862	0.0155386
915.940	0.0154478
916.018	0.0154788
916.096	0.0153510
916.174	0.0154450
916.253	0.0154179
916.331	0.0154570
916.409	0.0156427
916.487	0.0154089
916.565	0.0153725
916.643	0.0155091
916.721	0.0154877
916.799	0.0154713
916.878	0.0154099
916.956	0.0154805
917.034	0.0154822
917.112	0.0154340
917.190	0.0154581
917.268	0.0154250
917.346	0.0154556
917.424	0.0155046
917.503	0.0154916
917.581	0.0154974
917.659	0.0155201
917.737	0.0155608
917.815	0.0155584
917.893	0.0155107
917.971	0.0155246
918.049	0.0155361
918.128	0.0154836
918.206	0.0154668
918.284	0.0154687
918.362	0.0153756
918.440	0.0154298
918.518	0.0153883
918.596	0.0154855
918.674	0.0154951
918.753	0.0155180
918.831	0.0153808
918.909	0.0154558
918.987	0.0155476
919.065	0.0155537
919.143	0.0154673
919.221	0.0155223
919.299	0.0157079
919.378	0.0155311
919.456	0.0156107
919.534	0.0156122
919.612	0.0155680
919.690	0.0155592
919.768	0.0156874
919.846	0.0155706
919.924	0.0155830
920.003	0.0155536
920.081	0.0154493
920.159	0.0154874
920.237	0.0154572
920.315	0.0155629
920.393	0.0155556
920.471	0.0155452
920.549	0.0155887
920.628	0.0155035
920.706	0.0155249
920.784	0.0156593
920.862	0.0154865
920.940	0.0156690
921.018	0.0156478
921.096	0.0157246
921.174	0.0156831
921.253	0.0156075
921.331	0.0156583
921.409	0.0155979
921.487	0.0155402
921.565	0.0155672
921.643	0.0155415
921.721	0.0155466
921.799	0.0154767
921.878	0.0155126
921.956	0.0155556
922.034	0.0155114
922.112	0.0154623
922.190	0.0153474
922.268	0.0154911
922.346	0.0154272
922.424	0.0155563
922.503	0.0156059
922.581	0.0154198
922.659	0.0154366
922.737	0.0155094
922.815	0.0154256
922.893	0.0154352
922.971	0.0154971
923.049	0.0153902
923.128	0.0156583
923.206	0.0154604
923.284	0.0155061
923.362	0.0154343
923.440	0.0154505
923.518	0.0156100
923.596	0.0153321
923.674	0.0152771
923.753	0.0155591
923.831	0.0154318
923.909	0.0153376
923.987	0.0154521
924.065	0.0153938
924.143	0.0154937
924.221	0.0155065
924.299	0.0155672
924.378	0.0154108
924.456	0.0155164
924.534	0.0155981
924.612	0.0154578
924.690	0.0154889
924.768	0.0156175
924.846	0.0155685
924.924	0.0156175
925.003	0.0156273
925.081	0.0156184
925.159	0.0155716
925.237	0.0155416
925.315	0.0155627
925.393	0.0155660
925.471	0.0154880
925.549	0.0155330
925.628	0.0156546
925.706	0.0157134
925.784	0.0155785
925.862	0.0155986
925.940	0.0156078
926.018	0.0155802
926.096	0.0156207
926.174	0.0155762
926.253	0.0156548
926.331	0.0155624
926.409	0.0155759
926.487	0.0155796
926.565	0.0155492
926.643	0.0154542
926.721	0.0154949
926.799	0.0157119
926.878	0.0155639
926.956	0.0156458
927.034	0.0155570
927.112	0.0155820
927.190	0.0155051
927.268	0.0156778
927.346	0.0155444
927.424	0.0154241
927.503	0.0155647
927.581	0.0155748
927.659	0.0154337
927.737	0.0154476
927.815	0.0154848
927.893	0.0154287
927.971	0.0154105
928.049	0.0154884
928.128	0.0154352
928.206	0.0154376
928.284	0.0153969
928.362	0.0155247
928.440	0.0154713
928.518	0.0154173
928.596	0.0155795
928.674	0.0155928
928.753	0.0156925
928.831	0.0156014
928.909	0.0157599
928.987	0.0157872
929.065	0.0156746
929.143	0.0157732
929.221	0.0157635
929.299	0.0158757
929.378	0.0157610
929.456	0.0156303
929.534	0.0156375
929.612	0.0156409
929.690	0.0156261
929.768	0.0155998
929.846	0.0155524
929.924	0.0154578
930.003	0.0153224
930.081	0.0155699
930.159	0.0155788
930.237	0.0154305
930.315	0.0156343
930.393	0.0155518
930.471	0.0155303
930.549	0.0155178
930.628	0.0155328
930.706	0.0153783
930.784	0.0154461
930.862	0.0156190
930.940	0.0154149
931.018	0.0153780
931.096	0.0155239
931.174	0.0155033
931.253	0.0154453
931.331	0.0154600
931.409	0.0153755
931.487	0.0155415
931.565	0.0154725
931.643	0.0153335
931.721	0.0154858
931.799	0.0155367
931.878	0.0156065
931.956	0.0153857
932.034	0.0154819
932.112	0.0156695
932.190	0.0156597
932.268	0.0155846
932.346	0.0155944
932.424	0.0156676
932.503	0.0156419
932.581	0.0156274
932.659	0.0156949
932.737	0.0155025
932.815	0.0155443
932.893	0.0156149
932.971	0.0154600
933.049	0.0156581
933.128	0.0155795
933.206	0.0155540
933.284	0.0156154
933.362	0.0155700
933.440	0.0155315
933.518	0.0155424
933.596	0.0154272
933.674	0.0154752
933.753	0.0154240
933.831	0.0155020
933.909	0.0155923
933.987	0.0154906
934.065	0.0155545
934.143	0.0155049
934.221	0.0155417
934.299	0.0156364
934.378	0.0156137
934.456	0.0155618
934.534	0.0156743
934.612	0.0155424
934.690	0.0154852
934.768	0.0156029
934.846	0.0155852
934.924	0.0155564
935.003	0.0156002
935.081	0.0156094
935.159	0.0155798
935.237	0.0155786
935.315	0.0155884
935.393	0.0155676
935.471	0.0155199
935.549	0.0155852
935.628	0.0156052
935.706	0.0156046
935.784	0.0158067
935.862	0.0156971
935.940	0.0156860
936.018	0.0156331
936.096	0.0155941
936.174	0.0156149
936.253	0.0154760
936.331	0.0156351
936.409	0.0156717
936.487	0.0154209
936.565	0.0155795
936.643	0.0155736
936.721	0.0155070
936.799	0.0154008
936.878	0.0154427
936.956	0.0154629
937.034	0.0155865
937.112	0.0155827
937.190	0.0154239
937.268	0.0154713
937.346	0.0154770
937.424	0.0154832
937.503	0.0155067
937.581	0.0154713
937.659	0.0155055
937.737	0.0155128
937.815	0.0154716
937.893	0.0155189
937.971	0.0155642
938.049	0.0156207
938.128	0.0155659
938.206	0.0156899
938.284	0.0156230
938.362	0.0155148
938.440	0.0156354
938.518	0.0157088
938.596	0.0156389
938.674	0.0156293
938.753	0.0157968
938.831	0.0157236
938.909	0.0157526
938.987	0.0157514
939.065	0.0155446
939.143	0.0154733
939.221	0.0156455
939.299	0.0155802
939.378	0.0155538
939.456	0.0155753
939.534	0.0154504
939.612	0.0155264
939.690	0.0155217
939.768	0.0155838
939.846	0.0154574
939.924	0.0155769
940.003	0.0154601
940.081	0.0155250
940.159	0.0155744
940.237	0.0156010
940.315	0.0153127
940.393	0.0155938
940.471	0.0156286
940.549	0.0156459
940.628	0.0155485
940.706	0.0154990
940.784	0.0154881
940.862	0.0155970
940.940	0.0155421
941.018	0.0156210
941.096	0.0154824
941.174	0.0155539
941.253	0.0156500
941.331	0.0155231
941.409	0.0156652
941.487	0.0156390
941.565	0.0156209
941.643	0.0156209
941.721	0.0155997
941.799	0.0156856
941.878	0.0157969
941.956	0.0155583
942.034	0.0157909
942.112	0.0157157
942.190	0.0157293
942.268	0.0156770
942.346	0.0156152
942.424	0.0156427
942.503	0.0155752
942.581	0.0155634
942.659	0.0155991
942.737	0.0156440
942.815	0.0155262
942.893	0.0155452
942.971	0.0155094
943.049	0.0153355
943.128	0.0155978
943.206	0.0154899
943.284	0.0154591
943.362	0.0155204
943.440	0.0155221
943.518	0.0155051
943.596	0.0156405
943.674	0.0155328
943.753	0.0154465
943.831	0.0156545
943.909	0.0155516
943.987	0.0154799
944.065	0.0156066
944.143	0.0156286
944.221	0.0155867
944.299	0.0156921
944.378	0.0156183
944.456	0.0156303
944.534	0.0156348
944.612	0.0155514
944.690	0.0157453
944.768	0.0157303
944.846	0.0157197
944.924	0.0154959
945.003	0.0157267
945.081	0.0155198
945.159	0.0155754
945.237	0.0155905
945.315	0.0156541
945.393	0.0156311
945.471	0.0153793
945.549	0.0153861
945.628	0.0154744
945.706	0.0154871
945.784	0.0153666
945.862	0.0154581
945.940	0.0154159
946.018	0.0153864
946.096	0.0155365
946.174	0.0156026
946.253	0.0154779
946.331	0.0154787
946.409	0.0153986
946.487	0.0155221
946.565	0.0155253
946.643	0.0154876
946.721	0.0154854
946.799	0.0155858
946.878	0.0155305
946.956	0.0154153
947.034	0.0154780
947.112	0.0155608
947.190	0.0156224
947.268	0.0155551
947.346	0.0155792
947.424	0.0156260
947.503	0.0155727
947.581	0.0156345
947.659	0.0156734
947.737	0.0157339
947.815	0.0157523
947.893	0.0156742
947.971	0.0157789
948.049	0.0156140
948.128	0.0154582
948.206	0.0156292
948.284	0.0155598
948.362	0.0155283
948.440	0.0155116
948.518	0.0154832
948.596	0.0156202
948.674	0.0154546
948.753	0.0154541
948.831	0.0155293
948.909	0.0154381
948.987	0.0154114
949.065	0.0154498
949.143	0.0154338
949.221	0.0155719
949.299	0.0155678
949.378	0.0153486
949.456	0.0154200
949.534	0.0153852
949.612	0.0154724
949.690	0.0153925
949.768	0.0153491
949.846	0.0153912
949.924	0.0156039
