06/29/2022	23:00:15	Ver.	4.1	UNKNOWN
Optical Delay	630.002507	Delta X		0.078125	Sweeps	1	Scan Rate	0/0
Coordinates	Axis 1	NaN	Axis 2	NaN	Axis 3	NaN	Axis 4	NaN	Axis 5	NaN	Axis 6	0.000000
TX Power	0.000000	RX Power	0.000000

630.003	0.0162630
630.081	0.0161782
630.159	0.0161183
630.237	0.0162445
630.315	0.0163145
630.393	0.0162715
630.471	0.0162358
630.549	0.0161859
630.628	0.0162128
630.706	0.0164008
630.784	0.0163267
630.862	0.0162769
630.940	0.0162473
631.018	0.0161250
631.096	0.0163304
631.174	0.0162951
631.253	0.0162019
631.331	0.0163255
631.409	0.0162208
631.487	0.0162192
631.565	0.0163029
631.643	0.0162456
631.721	0.0161564
631.799	0.0161794
631.878	0.0162666
631.956	0.0162786
632.034	0.0162915
632.112	0.0162975
632.190	0.0161127
632.268	0.0162040
632.346	0.0161998
632.424	0.0160888
632.503	0.0162798
632.581	0.0162338
632.659	0.0162832
632.737	0.0162875
632.815	0.0162935
632.893	0.0162289
632.971	0.0160786
633.049	0.0162033
633.128	0.0162139
633.206	0.0162585
633.284	0.0163456
633.362	0.0163168
633.440	0.0162634
633.518	0.0162955
633.596	0.0162117
633.674	0.0162487
633.753	0.0161999
633.831	0.0161326
633.909	0.0162241
633.987	0.0161604
634.065	0.0161941
634.143	0.0163191
634.221	0.0160925
634.299	0.0161456
634.378	0.0162753
634.456	0.0163690
634.534	0.0161691
634.612	0.0161915
634.690	0.0161109
634.768	0.0162939
634.846	0.0163306
634.924	0.0161468
635.003	0.0162404
635.081	0.0162775
635.159	0.0161848
635.237	0.0161357
635.315	0.0162983
635.393	0.0162396
635.471	0.0162280
635.549	0.0162991
635.628	0.0161678
635.706	0.0160708
635.784	0.0163757
635.862	0.0162402
635.940	0.0163135
636.018	0.0161579
636.096	0.0161397
636.174	0.0161805
636.253	0.0161275
636.331	0.0162974
636.409	0.0163107
636.487	0.0161166
636.565	0.0161176
636.643	0.0162009
636.721	0.0162422
636.799	0.0162740
636.878	0.0162670
636.956	0.0162059
637.034	0.0162035
637.112	0.0163042
637.190	0.0162089
637.268	0.0161145
637.346	0.0163101
637.424	0.0161783
637.503	0.0161432
637.581	0.0162319
637.659	0.0162869
637.737	0.0162483
637.815	0.0161125
637.893	0.0161179
637.971	0.0162956
638.049	0.0163137
638.128	0.0162729
638.206	0.0162337
638.284	0.0161811
638.362	0.0163029
638.440	0.0163324
638.518	0.0163483
638.596	0.0162978
638.674	0.0161983
638.753	0.0163593
638.831	0.0162125
638.909	0.0163091
638.987	0.0162408
639.065	0.0162827
639.143	0.0161231
639.221	0.0161829
639.299	0.0162899
639.378	0.0162699
639.456	0.0163094
639.534	0.0162605
639.612	0.0161545
639.690	0.0161883
639.768	0.0162843
639.846	0.0162891
639.924	0.0161039
640.003	0.0162450
640.081	0.0161876
640.159	0.0162350
640.237	0.0162563
640.315	0.0161988
640.393	0.0161752
640.471	0.0162569
640.549	0.0161922
640.628	0.0161346
640.706	0.0162429
640.784	0.0162634
640.862	0.0162138
640.940	0.0162479
641.018	0.0161511
641.096	0.0162463
641.174	0.0161698
641.253	0.0161891
641.331	0.0162377
641.409	0.0163074
641.487	0.0161366
641.565	0.0162164
641.643	0.0162218
641.721	0.0160976
641.799	0.0161864
641.878	0.0163602
641.956	0.0162690
642.034	0.0160929
642.112	0.0162032
642.190	0.0161890
642.268	0.0161785
642.346	0.0161945
642.424	0.0161508
642.503	0.0163115
642.581	0.0163005
642.659	0.0162627
642.737	0.0161824
642.815	0.0162848
642.893	0.0161164
642.971	0.0162220
643.049	0.0162046
643.128	0.0163274
643.206	0.0163575
643.284	0.0162725
643.362	0.0162332
643.440	0.0163380
643.518	0.0162413
643.596	0.0163148
643.674	0.0162601
643.753	0.0162035
643.831	0.0163018
643.909	0.0163360
643.987	0.0161132
644.065	0.0161800
644.143	0.0161303
644.221	0.0162779
644.299	0.0162119
644.378	0.0161891
644.456	0.0162894
644.534	0.0161974
644.612	0.0162059
644.690	0.0162990
644.768	0.0163176
644.846	0.0163369
644.924	0.0163471
645.003	0.0161497
645.081	0.0161965
645.159	0.0161872
645.237	0.0162428
645.315	0.0163791
645.393	0.0162693
645.471	0.0161269
645.549	0.0161462
645.628	0.0163602
645.706	0.0163242
645.784	0.0161991
645.862	0.0162545
645.940	0.0162132
646.018	0.0163667
646.096	0.0162209
646.174	0.0163939
646.253	0.0162631
646.331	0.0161557
646.409	0.0162767
646.487	0.0162363
646.565	0.0163008
646.643	0.0160645
646.721	0.0162936
646.799	0.0163432
646.878	0.0162003
646.956	0.0163123
647.034	0.0162347
647.112	0.0161796
647.190	0.0162764
647.268	0.0161125
647.346	0.0162514
647.424	0.0162211
647.503	0.0162801
647.581	0.0162711
647.659	0.0161604
647.737	0.0162460
647.815	0.0162341
647.893	0.0162237
647.971	0.0162548
648.049	0.0163503
648.128	0.0163552
648.206	0.0162916
648.284	0.0162560
648.362	0.0162801
648.440	0.0162696
648.518	0.0162405
648.596	0.0164468
648.674	0.0162939
648.753	0.0162165
648.831	0.0162643
648.909	0.0162418
648.987	0.0163522
649.065	0.0164378
649.143	0.0161082
649.221	0.0162116
649.299	0.0164414
649.378	0.0163905
649.456	0.0162914
649.534	0.0162292
649.612	0.0162430
649.690	0.0162775
649.768	0.0162473
649.846	0.0163051
649.924	0.0161877
650.003	0.0163648
650.081	0.0163203
650.159	0.0162074
650.237	0.0162820
650.315	0.0162362
650.393	0.0162366
650.471	0.0162338
650.549	0.0162943
650.628	0.0161360
650.706	0.0161999
650.784	0.0163233
650.862	0.0161307
650.940	0.0162750
651.018	0.0161885
651.096	0.0162961
651.174	0.0163184
651.253	0.0162849
651.331	0.0161988
651.409	0.0161091
651.487	0.0161728
651.565	0.0163229
651.643	0.0163709
651.721	0.0162087
651.799	0.0161298
651.878	0.0162816
651.956	0.0162746
652.034	0.0162814
652.112	0.0162553
652.190	0.0162819
652.268	0.0163171
652.346	0.0160741
652.424	0.0162377
652.503	0.0161764
652.581	0.0161995
652.659	0.0162572
652.737	0.0161326
652.815	0.0162499
652.893	0.0162321
652.971	0.0162518
653.049	0.0163186
653.128	0.0162446
653.206	0.0162119
653.284	0.0163526
653.362	0.0162615
653.440	0.0162827
653.518	0.0163227
653.596	0.0162574
653.674	0.0161907
653.753	0.0163540
653.831	0.0163500
653.909	0.0162293
653.987	0.0161665
654.065	0.0161429
654.143	0.0161705
654.221	0.0161408
654.299	0.0162177
654.378	0.0162339
654.456	0.0162353
654.534	0.0163360
654.612	0.0161972
654.690	0.0160805
654.768	0.0161846
654.846	0.0162578
654.924	0.0163437
655.003	0.0162312
655.081	0.0161824
655.159	0.0162563
655.237	0.0162085
655.315	0.0162932
655.393	0.0163514
655.471	0.0162348
655.549	0.0162963
655.628	0.0163194
655.706	0.0161156
655.784	0.0162877
655.862	0.0161988
655.940	0.0163354
656.018	0.0164034
656.096	0.0161236
656.174	0.0162417
656.253	0.0162604
656.331	0.0163977
656.409	0.0162373
656.487	0.0161921
656.565	0.0162883
656.643	0.0161856
656.721	0.0161582
656.799	0.0162409
656.878	0.0160871
656.956	0.0162834
657.034	0.0161504
657.112	0.0162758
657.190	0.0161729
657.268	0.0162570
657.346	0.0161992
657.424	0.0162919
657.503	0.0161787
657.581	0.0162377
657.659	0.0162830
657.737	0.0161206
657.815	0.0162377
657.893	0.0162375
657.971	0.0162571
658.049	0.0162025
658.128	0.0161787
658.206	0.0162563
658.284	0.0162832
658.362	0.0162541
658.440	0.0162463
658.518	0.0162190
658.596	0.0162479
658.674	0.0163489
658.753	0.0162138
658.831	0.0162165
658.909	0.0162369
658.987	0.0162100
659.065	0.0160551
659.143	0.0162305
659.221	0.0162592
659.299	0.0161845
659.378	0.0162593
659.456	0.0162141
659.534	0.0161910
659.612	0.0162843
659.690	0.0162808
659.768	0.0162725
659.846	0.0162967
659.924	0.0161192
660.003	0.0161905
660.081	0.0161294
660.159	0.0162164
660.237	0.0163405
660.315	0.0162194
660.393	0.0162890
660.471	0.0161864
660.549	0.0161726
660.628	0.0161726
660.706	0.0162701
660.784	0.0162344
660.862	0.0162800
660.940	0.0163448
661.018	0.0161868
661.096	0.0162766
661.174	0.0161617
661.253	0.0161375
661.331	0.0161873
661.409	0.0161929
661.487	0.0162166
661.565	0.0162375
661.643	0.0161230
661.721	0.0162929
661.799	0.0162910
661.878	0.0160932
661.956	0.0162514
662.034	0.0162793
662.112	0.0161120
662.190	0.0162054
662.268	0.0162695
662.346	0.0162260
662.424	0.0162005
662.503	0.0162306
662.581	0.0162341
662.659	0.0162343
662.737	0.0162631
662.815	0.0161829
662.893	0.0163307
662.971	0.0161141
663.049	0.0161678
663.128	0.0162688
663.206	0.0162306
663.284	0.0163372
663.362	0.0162779
663.440	0.0163184
663.518	0.0162209
663.596	0.0161520
663.674	0.0161546
663.753	0.0163290
663.831	0.0163337
663.909	0.0163228
663.987	0.0161160
664.065	0.0162221
664.143	0.0162711
664.221	0.0161757
664.299	0.0161751
664.378	0.0163464
664.456	0.0162321
664.534	0.0162714
664.612	0.0162231
664.690	0.0163161
664.768	0.0161526
664.846	0.0162130
664.924	0.0161746
665.003	0.0162583
665.081	0.0162703
665.159	0.0162793
665.237	0.0162396
665.315	0.0162837
665.393	0.0162415
665.471	0.0162054
665.549	0.0161975
665.628	0.0162639
665.706	0.0161825
665.784	0.0163673
665.862	0.0163646
665.940	0.0161631
666.018	0.0161644
666.096	0.0163406
666.174	0.0163685
666.253	0.0163692
666.331	0.0162976
666.409	0.0162722
666.487	0.0161223
666.565	0.0162479
666.643	0.0162042
666.721	0.0160970
666.799	0.0161394
666.878	0.0162352
666.956	0.0163035
667.034	0.0161922
667.112	0.0162778
667.190	0.0162518
667.268	0.0161790
667.346	0.0162180
667.424	0.0161219
667.503	0.0162189
667.581	0.0161726
667.659	0.0162708
667.737	0.0163717
667.815	0.0161844
667.893	0.0162225
667.971	0.0162849
668.049	0.0161469
668.128	0.0161248
668.206	0.0162453
668.284	0.0162601
668.362	0.0163342
668.440	0.0163472
668.518	0.0162952
668.596	0.0161741
668.674	0.0163078
668.753	0.0162186
668.831	0.0163132
668.909	0.0162756
668.987	0.0162618
669.065	0.0162736
669.143	0.0162306
669.221	0.0163397
669.299	0.0163313
669.378	0.0162370
669.456	0.0162514
669.534	0.0164199
669.612	0.0162067
669.690	0.0162530
669.768	0.0162941
669.846	0.0161845
669.924	0.0161478
670.003	0.0163624
670.081	0.0163665
670.159	0.0162671
670.237	0.0161340
670.315	0.0162626
670.393	0.0161947
670.471	0.0163076
670.549	0.0162714
670.628	0.0161481
670.706	0.0162792
670.784	0.0162363
670.862	0.0162137
670.940	0.0162032
671.018	0.0162283
671.096	0.0161809
671.174	0.0162687
671.253	0.0163550
671.331	0.0162052
671.409	0.0161951
671.487	0.0162527
671.565	0.0163997
671.643	0.0162359
671.721	0.0162820
671.799	0.0161884
671.878	0.0162712
671.956	0.0163391
672.034	0.0161106
672.112	0.0161258
672.190	0.0161916
672.268	0.0164531
672.346	0.0162537
672.424	0.0162213
672.503	0.0161959
672.581	0.0162408
672.659	0.0160619
672.737	0.0161977
672.815	0.0161961
672.893	0.0162561
672.971	0.0160883
673.049	0.0161768
673.128	0.0162732
673.206	0.0162984
673.284	0.0161815
673.362	0.0162866
673.440	0.0161649
673.518	0.0162331
673.596	0.0162904
673.674	0.0162779
673.753	0.0162869
673.831	0.0161764
673.909	0.0162289
673.987	0.0163551
674.065	0.0161782
674.143	0.0161773
674.221	0.0161846
674.299	0.0161785
674.378	0.0162421
674.456	0.0161610
674.534	0.0161237
674.612	0.0162191
674.690	0.0162823
674.768	0.0162932
674.846	0.0162157
674.924	0.0163715
675.003	0.0162221
675.081	0.0161716
675.159	0.0161411
675.237	0.0163628
675.315	0.0162901
675.393	0.0162025
675.471	0.0162005
675.549	0.0162465
675.628	0.0161673
675.706	0.0161801
675.784	0.0162826
675.862	0.0161208
675.940	0.0162038
676.018	0.0162632
676.096	0.0162740
676.174	0.0162267
676.253	0.0161803
676.331	0.0162390
676.409	0.0164165
676.487	0.0161590
676.565	0.0161097
676.643	0.0162564
676.721	0.0163028
676.799	0.0161887
676.878	0.0162475
676.956	0.0162888
677.034	0.0162796
677.112	0.0163231
677.190	0.0163609
677.268	0.0162122
677.346	0.0162326
677.424	0.0162353
677.503	0.0161805
677.581	0.0161936
677.659	0.0163041
677.737	0.0162709
677.815	0.0163908
677.893	0.0162511
677.971	0.0161271
678.049	0.0163502
678.128	0.0162903
678.206	0.0162627
678.284	0.0163285
678.362	0.0163123
678.440	0.0161888
678.518	0.0163345
678.596	0.0161912
678.674	0.0162891
678.753	0.0162280
678.831	0.0162099
678.909	0.0162192
678.987	0.0162442
679.065	0.0163113
679.143	0.0163265
679.221	0.0163732
679.299	0.0161902
679.378	0.0162621
679.456	0.0163397
679.534	0.0163629
679.612	0.0162714
679.690	0.0163575
679.768	0.0162289
679.846	0.0162851
679.924	0.0162814
680.003	0.0162180
680.081	0.0161721
680.159	0.0163597
680.237	0.0162724
680.315	0.0161779
680.393	0.0162069
680.471	0.0163462
680.549	0.0164108
680.628	0.0161989
680.706	0.0161497
680.784	0.0164669
680.862	0.0163107
680.940	0.0162859
681.018	0.0161718
681.096	0.0163422
681.174	0.0162640
681.253	0.0162614
681.331	0.0161219
681.409	0.0160527
681.487	0.0161653
681.565	0.0163580
681.643	0.0162689
681.721	0.0160941
681.799	0.0161416
681.878	0.0161629
681.956	0.0162634
682.034	0.0161969
682.112	0.0161738
682.190	0.0161212
682.268	0.0161339
682.346	0.0163380
682.424	0.0163034
682.503	0.0161306
682.581	0.0163511
682.659	0.0162657
682.737	0.0160284
682.815	0.0161835
682.893	0.0161601
682.971	0.0162755
683.049	0.0162073
683.128	0.0162304
683.206	0.0162672
683.284	0.0161680
683.362	0.0162142
683.440	0.0163448
683.518	0.0162865
683.596	0.0162716
683.674	0.0162917
683.753	0.0161921
683.831	0.0160431
683.909	0.0162040
683.987	0.0163499
684.065	0.0161946
684.143	0.0162197
684.221	0.0163277
684.299	0.0162234
684.378	0.0163939
684.456	0.0163450
684.534	0.0163073
684.612	0.0164893
684.690	0.0162720
684.768	0.0163287
684.846	0.0164632
684.924	0.0163712
685.003	0.0164522
685.081	0.0163173
685.159	0.0161681
685.237	0.0162262
685.315	0.0161626
685.393	0.0162284
685.471	0.0163285
685.549	0.0163070
685.628	0.0163443
685.706	0.0163630
685.784	0.0162947
685.862	0.0162694
685.940	0.0164874
686.018	0.0163440
686.096	0.0161382
686.174	0.0162142
686.253	0.0163309
686.331	0.0162964
686.409	0.0160800
686.487	0.0161190
686.565	0.0160051
686.643	0.0161257
686.721	0.0162370
686.799	0.0161194
686.878	0.0161481
686.956	0.0161967
687.034	0.0162338
687.112	0.0161328
687.190	0.0161597
687.268	0.0161127
687.346	0.0162476
687.424	0.0162611
687.503	0.0162186
687.581	0.0162599
687.659	0.0164014
687.737	0.0162612
687.815	0.0164350
687.893	0.0163264
687.971	0.0165004
688.049	0.0162892
688.128	0.0164209
688.206	0.0162446
688.284	0.0161777
688.362	0.0161259
688.440	0.0159699
688.518	0.0159392
688.596	0.0159620
688.674	0.0159012
688.753	0.0159973
688.831	0.0159611
688.909	0.0161194
688.987	0.0161820
689.065	0.0162125
689.143	0.0164595
689.221	0.0165411
689.299	0.0165039
689.378	0.0164791
689.456	0.0164872
689.534	0.0165717
689.612	0.0165315
689.690	0.0162807
689.768	0.0161436
689.846	0.0161288
689.924	0.0161365
690.003	0.0158907
690.081	0.0159339
690.159	0.0158327
690.237	0.0158315
690.315	0.0160043
690.393	0.0160094
690.471	0.0160009
690.549	0.0162183
690.628	0.0162402
690.706	0.0163513
690.784	0.0165120
690.862	0.0165646
690.940	0.0165497
691.018	0.0166479
691.096	0.0167657
691.174	0.0166116
691.253	0.0164718
691.331	0.0164120
691.409	0.0162576
691.487	0.0162128
691.565	0.0160990
691.643	0.0160159
691.721	0.0160177
691.799	0.0159374
691.878	0.0159510
691.956	0.0158134
692.034	0.0159688
692.112	0.0160756
692.190	0.0160650
692.268	0.0162078
692.346	0.0163033
692.424	0.0163871
692.503	0.0165347
692.581	0.0166679
692.659	0.0166637
692.737	0.0166325
692.815	0.0167007
692.893	0.0165874
692.971	0.0163763
693.049	0.0162160
693.128	0.0161569
693.206	0.0159557
693.284	0.0161473
693.362	0.0160136
693.440	0.0159653
693.518	0.0159016
693.596	0.0159943
693.674	0.0159591
693.753	0.0159774
693.831	0.0161702
693.909	0.0162912
693.987	0.0161964
694.065	0.0162522
694.143	0.0163799
694.221	0.0163668
694.299	0.0163212
694.378	0.0164128
694.456	0.0163974
694.534	0.0165260
694.612	0.0165923
694.690	0.0165194
694.768	0.0165771
694.846	0.0164783
694.924	0.0164297
695.003	0.0163828
695.081	0.0162464
695.159	0.0161850
695.237	0.0161365
695.315	0.0161270
695.393	0.0157813
695.471	0.0157755
695.549	0.0158662
695.628	0.0159753
695.706	0.0160397
695.784	0.0161901
695.862	0.0161620
695.940	0.0161967
696.018	0.0163222
696.096	0.0164667
696.174	0.0165503
696.253	0.0164969
696.331	0.0165975
696.409	0.0166817
696.487	0.0165069
696.565	0.0165558
696.643	0.0164024
696.721	0.0163373
696.799	0.0163718
696.878	0.0160963
696.956	0.0161529
697.034	0.0158961
697.112	0.0159282
697.190	0.0157794
697.268	0.0159023
697.346	0.0160220
697.424	0.0160312
697.503	0.0161301
697.581	0.0160807
697.659	0.0161546
697.737	0.0162702
697.815	0.0164067
697.893	0.0162981
697.971	0.0164706
698.049	0.0164744
698.128	0.0164630
698.206	0.0166012
698.284	0.0164330
698.362	0.0163580
698.440	0.0164417
698.518	0.0165837
698.596	0.0163814
698.674	0.0163854
698.753	0.0161833
698.831	0.0160664
698.909	0.0160213
698.987	0.0158607
699.065	0.0158854
699.143	0.0159706
699.221	0.0158907
699.299	0.0159972
699.378	0.0162040
699.456	0.0163126
699.534	0.0160467
699.612	0.0162308
699.690	0.0162762
699.768	0.0161474
699.846	0.0162457
699.924	0.0162162
700.003	0.0164259
700.081	0.0164594
700.159	0.0164394
700.237	0.0164195
700.315	0.0164526
700.393	0.0166103
700.471	0.0163937
700.549	0.0165388
700.628	0.0163782
700.706	0.0164500
700.784	0.0162513
700.862	0.0161638
700.940	0.0161412
701.018	0.0160354
701.096	0.0160522
701.174	0.0159069
701.253	0.0159327
701.331	0.0157848
701.409	0.0158491
701.487	0.0159539
701.565	0.0161142
701.643	0.0163222
701.721	0.0163637
701.799	0.0164974
701.878	0.0165958
701.956	0.0168004
702.034	0.0165597
702.112	0.0166582
702.190	0.0165508
702.268	0.0166481
702.346	0.0164603
702.424	0.0164513
702.503	0.0161845
702.581	0.0163029
702.659	0.0160482
702.737	0.0160050
702.815	0.0158407
702.893	0.0156564
702.971	0.0157909
703.049	0.0158475
703.128	0.0159827
703.206	0.0160255
703.284	0.0160586
703.362	0.0161112
703.440	0.0162566
703.518	0.0165630
703.596	0.0165643
703.674	0.0166895
703.753	0.0166341
703.831	0.0164737
703.909	0.0165120
703.987	0.0163393
704.065	0.0162044
704.143	0.0160450
704.221	0.0160310
704.299	0.0162048
704.378	0.0160851
704.456	0.0161232
704.534	0.0160659
704.612	0.0161791
704.690	0.0163204
704.768	0.0163216
704.846	0.0164957
704.924	0.0164574
705.003	0.0166135
705.081	0.0165815
705.159	0.0165518
705.237	0.0163950
705.315	0.0164473
705.393	0.0163641
705.471	0.0162079
705.549	0.0161622
705.628	0.0160078
705.706	0.0158335
705.784	0.0158629
705.862	0.0157714
705.940	0.0157019
706.018	0.0157870
706.096	0.0158464
706.174	0.0160979
706.253	0.0160598
706.331	0.0162086
706.409	0.0164834
706.487	0.0165651
706.565	0.0166396
706.643	0.0168061
706.721	0.0168516
706.799	0.0168143
706.878	0.0167545
706.956	0.0165769
707.034	0.0163899
707.112	0.0164760
707.190	0.0160552
707.268	0.0159248
707.346	0.0158370
707.424	0.0157169
707.503	0.0158084
707.581	0.0157426
707.659	0.0157722
707.737	0.0158209
707.815	0.0160976
707.893	0.0161462
707.971	0.0162338
708.049	0.0163804
708.128	0.0163506
708.206	0.0165090
708.284	0.0164563
708.362	0.0165185
708.440	0.0164407
708.518	0.0163906
708.596	0.0164716
708.674	0.0164609
708.753	0.0164523
708.831	0.0165097
708.909	0.0163521
708.987	0.0163139
709.065	0.0162588
709.143	0.0161557
709.221	0.0161506
709.299	0.0160844
709.378	0.0159956
709.456	0.0161267
709.534	0.0160751
709.612	0.0160107
709.690	0.0159903
709.768	0.0159833
709.846	0.0160086
709.924	0.0160970
710.003	0.0161145
710.081	0.0162266
710.159	0.0163880
710.237	0.0165527
710.315	0.0165513
710.393	0.0167920
710.471	0.0167318
710.549	0.0168246
710.628	0.0168051
710.706	0.0168463
710.784	0.0166318
710.862	0.0163843
710.940	0.0162936
711.018	0.0162411
711.096	0.0160945
711.174	0.0158039
711.253	0.0158607
711.331	0.0157320
711.409	0.0157077
711.487	0.0156373
711.565	0.0157222
711.643	0.0157259
711.721	0.0158661
711.799	0.0159569
711.878	0.0160496
711.956	0.0162057
712.034	0.0162447
712.112	0.0163735
712.190	0.0165309
712.268	0.0165097
712.346	0.0164027
712.424	0.0164609
712.503	0.0163707
712.581	0.0164801
712.659	0.0163466
712.737	0.0160401
712.815	0.0162480
712.893	0.0162331
712.971	0.0161906
713.049	0.0161099
713.128	0.0159693
713.206	0.0161051
713.284	0.0162554
713.362	0.0162290
713.440	0.0162334
713.518	0.0162975
713.596	0.0163254
713.674	0.0164925
713.753	0.0164722
713.831	0.0163914
713.909	0.0164777
713.987	0.0165955
714.065	0.0164598
714.143	0.0164951
714.221	0.0166989
714.299	0.0165301
714.378	0.0165862
714.456	0.0163999
714.534	0.0162215
714.612	0.0161368
714.690	0.0160223
714.768	0.0162090
714.846	0.0159003
714.924	0.0159523
715.003	0.0158494
715.081	0.0160544
715.159	0.0161328
715.237	0.0162859
715.315	0.0162935
715.393	0.0162691
715.471	0.0163895
715.549	0.0163396
715.628	0.0163110
715.706	0.0163285
715.784	0.0163814
715.862	0.0161288
715.940	0.0163207
716.018	0.0163154
716.096	0.0162880
716.174	0.0164224
716.253	0.0163785
716.331	0.0164459
716.409	0.0164673
716.487	0.0163493
716.565	0.0162556
716.643	0.0162897
716.721	0.0162549
716.799	0.0160723
716.878	0.0161324
716.956	0.0159094
717.034	0.0158231
717.112	0.0157509
717.190	0.0157970
717.268	0.0155491
717.346	0.0155340
717.424	0.0157409
717.503	0.0156960
717.581	0.0158880
717.659	0.0160357
717.737	0.0160454
717.815	0.0162384
717.893	0.0166720
717.971	0.0166460
718.049	0.0167781
718.128	0.0170079
718.206	0.0169939
718.284	0.0171114
718.362	0.0170737
718.440	0.0170422
718.518	0.0169487
718.596	0.0167162
718.674	0.0166528
718.753	0.0164438
718.831	0.0164455
718.909	0.0163134
718.987	0.0160312
719.065	0.0160033
719.143	0.0157597
719.221	0.0158800
719.299	0.0156789
719.378	0.0156396
719.456	0.0156841
719.534	0.0154575
719.612	0.0155007
719.690	0.0155626
719.768	0.0156500
719.846	0.0157162
719.924	0.0157506
720.003	0.0158356
720.081	0.0158682
720.159	0.0163183
720.237	0.0162217
720.315	0.0163017
720.393	0.0164110
720.471	0.0165019
720.549	0.0165332
720.628	0.0166508
720.706	0.0167973
720.784	0.0168529
720.862	0.0170319
720.940	0.0168523
721.018	0.0169505
721.096	0.0169903
721.174	0.0169423
721.253	0.0168721
721.331	0.0166830
721.409	0.0166008
721.487	0.0166595
721.565	0.0165194
721.643	0.0164006
721.721	0.0161841
721.799	0.0160722
721.878	0.0159348
721.956	0.0158794
722.034	0.0158969
722.112	0.0158064
722.190	0.0157917
722.268	0.0157187
722.346	0.0157241
722.424	0.0159015
722.503	0.0157405
722.581	0.0157671
722.659	0.0157084
722.737	0.0158904
722.815	0.0160392
722.893	0.0160301
722.971	0.0160990
723.049	0.0161223
723.128	0.0163477
723.206	0.0161797
723.284	0.0161909
723.362	0.0162966
723.440	0.0164342
723.518	0.0163776
723.596	0.0163696
723.674	0.0164774
723.753	0.0164657
723.831	0.0167281
723.909	0.0167715
723.987	0.0166841
724.065	0.0167188
724.143	0.0166883
724.221	0.0169382
724.299	0.0166689
724.378	0.0164506
724.456	0.0165732
724.534	0.0162959
724.612	0.0161245
724.690	0.0160600
724.768	0.0161349
724.846	0.0158777
724.924	0.0157900
725.003	0.0156947
725.081	0.0156361
725.159	0.0157342
725.237	0.0155934
725.315	0.0156506
725.393	0.0158125
725.471	0.0159793
725.549	0.0161559
725.628	0.0162109
725.706	0.0163936
725.784	0.0162623
725.862	0.0165297
725.940	0.0165952
726.018	0.0164075
726.096	0.0164149
726.174	0.0165482
726.253	0.0164257
726.331	0.0164635
726.409	0.0164458
726.487	0.0163698
726.565	0.0163264
726.643	0.0163824
726.721	0.0163398
726.799	0.0164006
726.878	0.0165118
726.956	0.0163827
727.034	0.0164487
727.112	0.0165795
727.190	0.0166010
727.268	0.0165367
727.346	0.0164574
727.424	0.0162857
727.503	0.0162661
727.581	0.0162488
727.659	0.0162666
727.737	0.0162277
727.815	0.0159649
727.893	0.0158955
727.971	0.0157923
728.049	0.0155682
728.128	0.0155644
728.206	0.0154933
728.284	0.0155144
728.362	0.0156281
728.440	0.0155160
728.518	0.0155951
728.596	0.0155742
728.674	0.0157749
728.753	0.0159071
728.831	0.0158889
728.909	0.0160111
728.987	0.0161829
729.065	0.0162691
729.143	0.0163096
729.221	0.0163691
729.299	0.0165314
729.378	0.0164900
729.456	0.0164552
729.534	0.0165414
729.612	0.0164879
729.690	0.0165287
729.768	0.0165495
729.846	0.0164243
729.924	0.0162688
730.003	0.0161456
730.081	0.0161914
730.159	0.0162414
730.237	0.0163291
730.315	0.0162436
730.393	0.0163208
730.471	0.0164555
730.549	0.0164070
730.628	0.0164990
730.706	0.0167450
730.784	0.0170046
730.862	0.0169315
730.940	0.0169740
731.018	0.0170026
731.096	0.0170950
731.174	0.0170773
731.253	0.0171178
731.331	0.0172280
731.409	0.0169085
731.487	0.0168478
731.565	0.0167175
731.643	0.0165959
731.721	0.0163450
731.799	0.0163802
731.878	0.0161691
731.956	0.0160680
732.034	0.0158002
732.112	0.0157110
732.190	0.0158515
732.268	0.0156166
732.346	0.0154831
732.424	0.0154461
732.503	0.0153117
732.581	0.0153127
732.659	0.0151686
732.737	0.0152917
732.815	0.0152943
732.893	0.0153069
732.971	0.0153130
733.049	0.0153026
733.128	0.0153849
733.206	0.0154321
733.284	0.0154196
733.362	0.0153137
733.440	0.0156092
733.518	0.0156194
733.596	0.0156330
733.674	0.0156834
733.753	0.0159301
733.831	0.0160577
733.909	0.0161407
733.987	0.0162786
734.065	0.0164778
734.143	0.0166351
734.221	0.0167648
734.299	0.0169435
734.378	0.0171341
734.456	0.0173409
734.534	0.0175091
734.612	0.0175207
734.690	0.0177289
734.768	0.0178029
734.846	0.0176975
734.924	0.0176801
735.003	0.0175824
735.081	0.0174705
735.159	0.0174658
735.237	0.0175366
735.315	0.0172665
735.393	0.0171489
735.471	0.0169779
735.549	0.0166328
735.628	0.0163546
735.706	0.0160625
735.784	0.0158577
735.862	0.0157114
735.940	0.0153825
736.018	0.0150957
736.096	0.0149425
736.174	0.0149101
736.253	0.0147712
736.331	0.0146527
736.409	0.0145376
736.487	0.0146707
736.565	0.0146875
736.643	0.0147355
736.721	0.0151300
736.799	0.0150117
736.878	0.0152075
736.956	0.0154114
737.034	0.0157312
737.112	0.0159260
737.190	0.0161227
737.268	0.0162325
737.346	0.0164674
737.424	0.0165804
737.503	0.0166956
737.581	0.0166636
737.659	0.0168466
737.737	0.0169830
737.815	0.0169135
737.893	0.0169522
737.971	0.0170807
738.049	0.0170330
738.128	0.0170855
738.206	0.0170341
738.284	0.0168540
738.362	0.0170747
738.440	0.0170275
738.518	0.0170074
738.596	0.0170038
738.674	0.0169180
738.753	0.0170543
738.831	0.0169135
738.909	0.0169313
738.987	0.0168622
739.065	0.0168193
739.143	0.0169173
739.221	0.0167634
739.299	0.0165716
739.378	0.0165474
739.456	0.0164704
739.534	0.0163831
739.612	0.0161790
739.690	0.0160046
739.768	0.0160360
739.846	0.0159202
739.924	0.0159955
740.003	0.0157441
740.081	0.0156789
740.159	0.0156145
740.237	0.0155649
740.315	0.0155382
740.393	0.0152986
740.471	0.0153813
740.549	0.0152564
740.628	0.0152623
740.706	0.0151424
740.784	0.0150683
740.862	0.0150665
740.940	0.0150069
741.018	0.0150925
741.096	0.0150275
741.174	0.0150390
741.253	0.0152781
741.331	0.0151758
741.409	0.0153454
741.487	0.0155508
741.565	0.0155321
741.643	0.0158841
741.721	0.0159148
741.799	0.0160844
741.878	0.0162674
741.956	0.0164524
742.034	0.0165909
742.112	0.0164552
742.190	0.0168983
742.268	0.0170309
742.346	0.0172179
742.424	0.0171803
742.503	0.0172564
742.581	0.0174123
742.659	0.0175342
742.737	0.0175504
742.815	0.0175417
742.893	0.0174223
742.971	0.0174549
743.049	0.0175500
743.128	0.0175781
743.206	0.0175737
743.284	0.0174732
743.362	0.0175385
743.440	0.0175449
743.518	0.0176882
743.596	0.0176610
743.674	0.0174587
743.753	0.0173266
743.831	0.0172750
743.909	0.0171043
743.987	0.0170083
744.065	0.0169559
744.143	0.0167219
744.221	0.0163648
744.299	0.0162361
744.378	0.0160002
744.456	0.0157008
744.534	0.0154868
744.612	0.0153126
744.690	0.0150842
744.768	0.0147834
744.846	0.0145080
744.924	0.0144486
745.003	0.0140823
745.081	0.0140028
745.159	0.0138758
745.237	0.0139124
745.315	0.0140569
745.393	0.0141033
745.471	0.0140348
745.549	0.0143578
745.628	0.0146053
745.706	0.0149255
745.784	0.0152226
745.862	0.0153873
745.940	0.0156299
746.018	0.0159363
746.096	0.0162096
746.174	0.0164681
746.253	0.0166193
746.331	0.0168031
746.409	0.0170293
746.487	0.0171712
746.565	0.0171770
746.643	0.0174234
746.721	0.0173405
746.799	0.0173938
746.878	0.0174008
746.956	0.0172672
747.034	0.0172908
747.112	0.0171242
747.190	0.0171092
747.268	0.0170432
747.346	0.0169370
747.424	0.0169605
747.503	0.0167620
747.581	0.0168316
747.659	0.0167704
747.737	0.0167158
747.815	0.0167624
747.893	0.0167731
747.971	0.0167693
748.049	0.0169536
748.128	0.0168149
748.206	0.0169444
748.284	0.0171195
748.362	0.0170560
748.440	0.0169631
748.518	0.0169804
748.596	0.0170142
748.674	0.0169009
748.753	0.0166756
748.831	0.0166354
748.909	0.0164725
748.987	0.0163612
749.065	0.0162924
749.143	0.0161106
749.221	0.0159516
749.299	0.0157497
749.378	0.0157215
749.456	0.0157632
749.534	0.0156897
749.612	0.0155580
749.690	0.0154436
749.768	0.0154725
749.846	0.0155737
749.924	0.0154967
750.003	0.0155843
750.081	0.0156351
750.159	0.0156333
750.237	0.0157809
750.315	0.0156237
750.393	0.0156286
750.471	0.0156519
750.549	0.0157471
750.628	0.0156702
750.706	0.0155182
750.784	0.0155022
750.862	0.0154075
750.940	0.0152499
751.018	0.0152511
751.096	0.0151536
751.174	0.0151748
751.253	0.0150932
751.331	0.0151533
751.409	0.0152001
751.487	0.0153526
751.565	0.0152787
751.643	0.0154281
751.721	0.0156033
751.799	0.0157620
751.878	0.0159947
751.956	0.0159937
752.034	0.0161353
752.112	0.0164288
752.190	0.0165955
752.268	0.0168774
752.346	0.0170770
752.424	0.0173327
752.503	0.0174947
752.581	0.0176328
752.659	0.0176765
752.737	0.0178329
752.815	0.0177957
752.893	0.0179321
752.971	0.0179633
753.049	0.0178334
753.128	0.0177254
753.206	0.0175083
753.284	0.0174216
753.362	0.0171356
753.440	0.0170665
753.518	0.0168489
753.596	0.0164884
753.674	0.0162595
753.753	0.0161213
753.831	0.0159689
753.909	0.0157711
753.987	0.0156195
754.065	0.0153738
754.143	0.0154082
754.221	0.0153374
754.299	0.0152951
754.378	0.0151366
754.456	0.0155228
754.534	0.0153590
754.612	0.0156013
754.690	0.0157151
754.768	0.0157819
754.846	0.0157635
754.924	0.0159053
755.003	0.0160307
755.081	0.0162111
755.159	0.0163109
755.237	0.0163773
755.315	0.0164975
755.393	0.0162957
755.471	0.0163228
755.549	0.0166055
755.628	0.0165271
755.706	0.0166945
755.784	0.0165826
755.862	0.0166457
755.940	0.0166306
756.018	0.0166642
756.096	0.0167361
756.174	0.0166288
756.253	0.0164433
756.331	0.0164442
756.409	0.0165047
756.487	0.0164767
756.565	0.0164291
756.643	0.0163385
756.721	0.0162562
756.799	0.0162305
756.878	0.0161177
756.956	0.0159569
757.034	0.0156198
757.112	0.0154375
757.190	0.0153280
757.268	0.0151643
757.346	0.0148943
757.424	0.0149215
757.503	0.0146624
757.581	0.0145749
757.659	0.0144678
757.737	0.0145415
757.815	0.0145984
757.893	0.0146284
757.971	0.0149764
758.049	0.0153035
758.128	0.0154781
758.206	0.0158406
758.284	0.0162940
758.362	0.0167533
758.440	0.0169596
758.518	0.0175439
758.596	0.0178468
758.674	0.0180941
758.753	0.0183326
758.831	0.0183634
758.909	0.0184721
758.987	0.0183185
759.065	0.0183800
759.143	0.0182155
759.221	0.0179475
759.299	0.0175851
759.378	0.0172172
759.456	0.0169853
759.534	0.0167408
759.612	0.0163441
759.690	0.0160520
759.768	0.0158291
759.846	0.0156211
759.924	0.0154996
760.003	0.0153473
760.081	0.0152463
760.159	0.0152710
760.237	0.0151814
760.315	0.0152402
760.393	0.0154669
760.471	0.0154751
760.549	0.0157513
760.628	0.0158628
760.706	0.0158476
760.784	0.0161071
760.862	0.0162810
760.940	0.0165310
761.018	0.0166945
761.096	0.0166476
761.174	0.0166632
761.253	0.0166882
761.331	0.0169570
761.409	0.0169989
761.487	0.0169482
761.565	0.0168826
761.643	0.0168839
761.721	0.0169263
761.799	0.0167910
761.878	0.0166853
761.956	0.0165785
762.034	0.0164768
762.112	0.0165570
762.190	0.0164822
762.268	0.0163959
762.346	0.0162029
762.424	0.0161507
762.503	0.0161599
762.581	0.0160187
762.659	0.0160418
762.737	0.0159550
762.815	0.0158596
762.893	0.0156312
762.971	0.0156142
763.049	0.0153871
763.128	0.0152289
763.206	0.0150382
763.284	0.0148970
763.362	0.0146040
763.440	0.0144786
763.518	0.0143226
763.596	0.0142023
763.674	0.0142368
763.753	0.0140980
763.831	0.0143342
763.909	0.0143697
763.987	0.0145969
764.065	0.0148329
764.143	0.0153233
764.221	0.0156261
764.299	0.0160968
764.378	0.0167488
764.456	0.0170080
764.534	0.0174635
764.612	0.0179845
764.690	0.0183510
764.768	0.0185912
764.846	0.0188922
764.924	0.0189366
765.003	0.0189092
765.081	0.0189827
765.159	0.0188094
765.237	0.0186707
765.315	0.0182950
765.393	0.0179604
765.471	0.0176128
765.549	0.0172537
765.628	0.0167664
765.706	0.0164998
765.784	0.0161416
765.862	0.0159270
765.940	0.0156741
766.018	0.0153835
766.096	0.0155816
766.174	0.0153432
766.253	0.0154243
766.331	0.0155761
766.409	0.0154462
766.487	0.0156013
766.565	0.0156298
766.643	0.0158942
766.721	0.0160300
766.799	0.0160997
766.878	0.0162106
766.956	0.0162564
767.034	0.0162299
767.112	0.0162476
767.190	0.0162791
767.268	0.0162465
767.346	0.0161958
767.424	0.0162390
767.503	0.0162598
767.581	0.0161311
767.659	0.0162552
767.737	0.0161105
767.815	0.0162186
767.893	0.0163853
767.971	0.0162500
768.049	0.0163783
768.128	0.0163628
768.206	0.0164022
768.284	0.0165221
768.362	0.0165119
768.440	0.0163898
768.518	0.0165083
768.596	0.0164793
768.674	0.0163391
768.753	0.0162448
768.831	0.0163004
768.909	0.0161311
768.987	0.0159724
769.065	0.0158640
769.143	0.0156725
769.221	0.0155081
769.299	0.0152496
769.378	0.0149584
769.456	0.0148374
769.534	0.0145345
769.612	0.0144170
769.690	0.0141936
769.768	0.0142624
769.846	0.0142090
769.924	0.0142332
770.003	0.0145032
770.081	0.0148993
770.159	0.0152968
770.237	0.0154901
770.315	0.0159327
770.393	0.0162048
770.471	0.0166266
770.549	0.0171109
770.628	0.0174435
770.706	0.0177305
770.784	0.0180927
770.862	0.0183933
770.940	0.0185632
771.018	0.0185471
771.096	0.0185859
771.174	0.0184109
771.253	0.0183912
771.331	0.0183430
771.409	0.0181593
771.487	0.0178876
771.565	0.0175835
771.643	0.0172079
771.721	0.0170671
771.799	0.0167902
771.878	0.0166668
771.956	0.0163693
772.034	0.0160314
772.112	0.0160394
772.190	0.0159521
772.268	0.0158762
772.346	0.0156345
772.424	0.0157119
772.503	0.0155190
772.581	0.0154804
772.659	0.0154184
772.737	0.0151385
772.815	0.0149538
772.893	0.0149535
772.971	0.0150616
773.049	0.0150349
773.128	0.0151247
773.206	0.0151324
773.284	0.0154745
773.362	0.0155745
773.440	0.0157082
773.518	0.0158865
773.596	0.0161071
773.674	0.0162608
773.753	0.0164445
773.831	0.0165117
773.909	0.0166746
773.987	0.0166227
774.065	0.0167079
774.143	0.0167032
774.221	0.0166594
774.299	0.0166678
774.378	0.0166344
774.456	0.0167118
774.534	0.0164868
774.612	0.0164970
774.690	0.0164102
774.768	0.0162175
774.846	0.0162921
774.924	0.0161950
775.003	0.0161221
775.081	0.0159791
775.159	0.0159341
775.237	0.0160041
775.315	0.0158464
775.393	0.0156321
775.471	0.0155159
775.549	0.0154454
775.628	0.0151255
775.706	0.0150536
775.784	0.0150594
775.862	0.0150544
775.940	0.0149834
776.018	0.0149744
776.096	0.0150941
776.174	0.0152307
776.253	0.0153680
776.331	0.0156376
776.409	0.0159438
776.487	0.0160698
776.565	0.0163029
776.643	0.0165671
776.721	0.0166861
776.799	0.0168961
776.878	0.0172236
776.956	0.0174168
777.034	0.0176959
777.112	0.0178563
777.190	0.0178825
777.268	0.0179862
777.346	0.0180674
777.424	0.0177818
777.503	0.0176840
777.581	0.0175955
777.659	0.0173215
777.737	0.0172475
777.815	0.0169394
777.893	0.0167098
777.971	0.0166311
778.049	0.0164549
778.128	0.0161491
778.206	0.0159421
778.284	0.0158998
778.362	0.0156310
778.440	0.0155451
778.518	0.0154593
778.596	0.0153162
778.674	0.0154256
778.753	0.0153233
778.831	0.0153132
778.909	0.0152888
778.987	0.0153541
779.065	0.0154569
779.143	0.0155344
779.221	0.0157613
779.299	0.0157825
779.378	0.0159418
779.456	0.0161271
779.534	0.0162206
779.612	0.0163582
779.690	0.0163830
779.768	0.0164942
779.846	0.0164490
779.924	0.0164845
780.003	0.0165039
780.081	0.0164671
780.159	0.0164098
780.237	0.0164628
780.315	0.0163107
780.393	0.0162129
780.471	0.0162886
780.549	0.0162864
780.628	0.0162209
780.706	0.0161187
780.784	0.0161848
780.862	0.0160990
780.940	0.0159324
781.018	0.0161424
781.096	0.0161674
781.174	0.0160556
781.253	0.0161147
781.331	0.0159639
781.409	0.0158789
781.487	0.0158137
781.565	0.0158266
781.643	0.0156081
781.721	0.0155067
781.799	0.0153690
781.878	0.0155134
781.956	0.0154804
782.034	0.0154131
782.112	0.0153501
782.190	0.0155733
782.268	0.0154536
782.346	0.0155907
782.424	0.0156590
782.503	0.0157829
782.581	0.0159929
782.659	0.0162102
782.737	0.0162805
782.815	0.0166518
782.893	0.0166269
782.971	0.0167494
783.049	0.0170741
783.128	0.0172529
783.206	0.0174508
783.284	0.0173952
783.362	0.0174352
783.440	0.0174388
783.518	0.0175204
783.596	0.0173637
783.674	0.0171890
783.753	0.0171666
783.831	0.0169319
783.909	0.0167010
783.987	0.0164772
784.065	0.0164071
784.143	0.0164278
784.221	0.0163564
784.299	0.0159906
784.378	0.0159969
784.456	0.0159407
784.534	0.0158592
784.612	0.0159572
784.690	0.0158309
784.768	0.0159200
784.846	0.0157845
784.924	0.0158964
785.003	0.0159789
785.081	0.0160067
785.159	0.0159405
785.237	0.0161688
785.315	0.0162640
785.393	0.0162296
785.471	0.0162059
785.549	0.0162492
785.628	0.0162675
785.706	0.0162986
785.784	0.0161317
785.862	0.0162299
785.940	0.0160604
786.018	0.0160459
786.096	0.0159361
786.174	0.0159628
786.253	0.0160562
786.331	0.0160139
786.409	0.0159743
786.487	0.0160689
786.565	0.0160156
786.643	0.0161390
786.721	0.0162685
786.799	0.0162370
786.878	0.0164320
786.956	0.0165826
787.034	0.0163579
787.112	0.0164915
787.190	0.0167675
787.268	0.0164417
787.346	0.0164793
787.424	0.0164654
787.503	0.0165041
787.581	0.0162728
787.659	0.0161453
787.737	0.0159353
787.815	0.0159690
787.893	0.0158133
787.971	0.0157432
788.049	0.0155531
788.128	0.0155421
788.206	0.0155545
788.284	0.0154987
788.362	0.0154845
788.440	0.0156689
788.518	0.0156015
788.596	0.0155521
788.674	0.0158205
788.753	0.0160446
788.831	0.0161813
788.909	0.0164372
788.987	0.0166975
789.065	0.0167444
789.143	0.0168822
789.221	0.0170685
789.299	0.0172020
789.378	0.0173470
789.456	0.0172907
789.534	0.0173032
789.612	0.0171936
789.690	0.0171304
789.768	0.0169353
789.846	0.0168487
789.924	0.0167942
790.003	0.0165955
790.081	0.0163287
790.159	0.0162028
790.237	0.0162759
790.315	0.0160689
790.393	0.0159563
790.471	0.0160117
790.549	0.0159836
790.628	0.0159504
790.706	0.0159076
790.784	0.0159610
790.862	0.0160410
790.940	0.0161176
791.018	0.0161842
791.096	0.0163173
791.174	0.0162401
791.253	0.0162846
791.331	0.0163924
791.409	0.0162803
791.487	0.0163142
791.565	0.0163282
791.643	0.0163943
791.721	0.0164240
791.799	0.0163577
791.878	0.0163734
791.956	0.0162071
792.034	0.0162724
792.112	0.0160561
792.190	0.0162605
792.268	0.0161160
792.346	0.0161540
792.424	0.0161324
792.503	0.0162503
792.581	0.0161378
792.659	0.0162587
792.737	0.0161210
792.815	0.0162969
792.893	0.0163136
792.971	0.0162175
793.049	0.0162573
793.128	0.0163239
793.206	0.0162813
793.284	0.0161275
793.362	0.0161619
793.440	0.0161156
793.518	0.0160904
793.596	0.0160545
793.674	0.0160327
793.753	0.0158440
793.831	0.0159660
793.909	0.0157312
793.987	0.0157368
794.065	0.0157282
794.143	0.0155356
794.221	0.0157602
794.299	0.0155276
794.378	0.0154421
794.456	0.0155956
794.534	0.0154604
794.612	0.0157234
794.690	0.0157050
794.768	0.0157421
794.846	0.0157985
794.924	0.0160413
795.003	0.0161810
795.081	0.0163241
795.159	0.0165202
795.237	0.0166798
795.315	0.0168786
795.393	0.0169321
795.471	0.0171149
795.549	0.0171523
795.628	0.0172462
795.706	0.0171933
795.784	0.0172568
795.862	0.0171402
795.940	0.0172493
796.018	0.0172486
796.096	0.0169190
796.174	0.0167783
796.253	0.0166956
796.331	0.0165156
796.409	0.0163852
796.487	0.0162407
796.565	0.0161895
796.643	0.0160105
796.721	0.0160152
796.799	0.0158433
796.878	0.0158208
796.956	0.0158392
797.034	0.0158081
797.112	0.0159053
797.190	0.0158001
797.268	0.0159689
797.346	0.0160153
797.424	0.0161088
797.503	0.0160786
797.581	0.0161208
797.659	0.0163393
797.737	0.0162793
797.815	0.0161595
797.893	0.0162827
797.971	0.0163176
798.049	0.0162560
798.128	0.0161983
798.206	0.0163100
798.284	0.0161619
798.362	0.0160567
798.440	0.0160249
798.518	0.0160963
798.596	0.0160199
798.674	0.0161691
798.753	0.0161497
798.831	0.0162643
798.909	0.0161740
798.987	0.0162685
799.065	0.0162614
799.143	0.0162951
799.221	0.0163812
799.299	0.0162894
799.378	0.0163072
799.456	0.0162598
799.534	0.0164857
799.612	0.0163970
799.690	0.0163946
799.768	0.0163507
799.846	0.0161008
799.924	0.0162435
800.003	0.0162679
800.081	0.0160828
800.159	0.0160478
800.237	0.0161792
800.315	0.0159666
800.393	0.0158227
800.471	0.0158353
800.549	0.0158159
800.628	0.0157199
800.706	0.0157857
800.784	0.0158334
800.862	0.0157934
800.940	0.0156741
801.018	0.0157320
801.096	0.0159078
801.174	0.0158640
801.253	0.0162672
801.331	0.0163926
801.409	0.0162928
801.487	0.0164192
801.565	0.0164909
801.643	0.0164966
801.721	0.0166769
801.799	0.0167309
801.878	0.0167722
801.956	0.0168793
802.034	0.0168412
802.112	0.0168430
802.190	0.0167370
802.268	0.0165636
802.346	0.0165523
802.424	0.0165464
802.503	0.0164339
802.581	0.0162892
802.659	0.0163082
802.737	0.0163041
802.815	0.0161626
802.893	0.0160745
802.971	0.0159764
803.049	0.0161755
803.128	0.0161226
803.206	0.0162786
803.284	0.0161358
803.362	0.0162046
803.440	0.0161682
803.518	0.0162460
803.596	0.0162590
803.674	0.0164584
803.753	0.0163837
803.831	0.0162926
803.909	0.0163598
803.987	0.0161738
804.065	0.0162087
804.143	0.0163224
804.221	0.0161933
804.299	0.0163543
804.378	0.0163672
804.456	0.0162140
804.534	0.0160809
804.612	0.0160225
804.690	0.0161553
804.768	0.0162636
804.846	0.0160929
804.924	0.0161334
805.003	0.0160592
805.081	0.0160867
805.159	0.0162473
805.237	0.0162200
805.315	0.0161028
805.393	0.0160844
805.471	0.0160302
805.549	0.0162268
805.628	0.0160548
805.706	0.0161184
805.784	0.0161080
805.862	0.0161693
805.940	0.0162013
806.018	0.0161272
806.096	0.0161071
806.174	0.0161990
806.253	0.0160754
806.331	0.0160647
806.409	0.0159322
806.487	0.0157893
806.565	0.0159262
806.643	0.0159372
806.721	0.0161091
806.799	0.0157870
806.878	0.0158019
806.956	0.0158793
807.034	0.0159197
807.112	0.0158472
807.190	0.0158707
807.268	0.0160289
807.346	0.0160852
807.424	0.0160740
807.503	0.0161157
807.581	0.0163145
807.659	0.0165588
807.737	0.0166542
807.815	0.0167145
807.893	0.0166644
807.971	0.0168700
808.049	0.0169241
808.128	0.0168749
808.206	0.0168896
808.284	0.0167955
808.362	0.0168142
808.440	0.0168277
808.518	0.0166198
808.596	0.0165749
808.674	0.0164860
808.753	0.0163771
808.831	0.0163381
808.909	0.0163216
808.987	0.0162248
809.065	0.0161438
809.143	0.0160638
809.221	0.0159937
809.299	0.0160957
809.378	0.0160337
809.456	0.0158624
809.534	0.0159540
809.612	0.0159627
809.690	0.0159977
809.768	0.0161057
809.846	0.0162340
809.924	0.0160257
810.003	0.0160586
810.081	0.0161475
810.159	0.0162308
810.237	0.0161748
810.315	0.0161620
810.393	0.0160174
810.471	0.0162231
810.549	0.0163203
810.628	0.0162433
810.706	0.0163064
810.784	0.0162408
810.862	0.0164423
810.940	0.0163136
811.018	0.0163676
811.096	0.0164357
811.174	0.0162845
811.253	0.0163918
811.331	0.0165131
811.409	0.0164333
811.487	0.0164137
811.565	0.0162984
811.643	0.0164803
811.721	0.0165762
811.799	0.0163188
811.878	0.0164096
811.956	0.0164384
812.034	0.0165026
812.112	0.0162778
812.190	0.0164715
812.268	0.0164009
812.346	0.0163656
812.424	0.0162818
812.503	0.0161472
812.581	0.0161275
812.659	0.0159863
812.737	0.0159566
812.815	0.0159245
812.893	0.0159489
812.971	0.0158125
813.049	0.0157628
813.128	0.0157050
813.206	0.0157878
813.284	0.0157554
813.362	0.0157264
813.440	0.0158164
813.518	0.0158755
813.596	0.0159543
813.674	0.0159113
813.753	0.0161504
813.831	0.0161726
813.909	0.0164043
813.987	0.0163316
814.065	0.0165582
814.143	0.0164548
814.221	0.0165746
814.299	0.0167009
814.378	0.0167078
814.456	0.0167117
814.534	0.0168127
814.612	0.0167854
814.690	0.0167823
814.768	0.0168034
814.846	0.0166768
814.924	0.0167370
815.003	0.0166074
815.081	0.0165718
815.159	0.0164731
815.237	0.0166787
815.315	0.0164895
815.393	0.0164083
815.471	0.0164919
815.549	0.0163841
815.628	0.0163274
815.706	0.0160641
815.784	0.0161098
815.862	0.0160552
815.940	0.0160575
816.018	0.0160944
816.096	0.0160023
816.174	0.0160533
816.253	0.0160667
816.331	0.0159794
816.409	0.0160480
816.487	0.0160178
816.565	0.0159101
816.643	0.0161343
816.721	0.0159936
816.799	0.0160762
816.878	0.0162202
816.956	0.0162120
817.034	0.0161140
817.112	0.0161845
817.190	0.0162178
817.268	0.0163847
817.346	0.0162898
817.424	0.0162588
817.503	0.0162420
817.581	0.0163044
817.659	0.0161874
817.737	0.0162408
817.815	0.0162492
817.893	0.0162635
817.971	0.0162494
818.049	0.0160962
818.128	0.0161645
818.206	0.0161837
818.284	0.0161626
818.362	0.0161242
818.440	0.0161478
818.518	0.0161256
818.596	0.0162863
818.674	0.0161782
818.753	0.0162513
818.831	0.0163248
818.909	0.0162459
818.987	0.0163547
819.065	0.0163639
819.143	0.0163783
819.221	0.0163578
819.299	0.0161437
819.378	0.0163235
819.456	0.0162373
819.534	0.0161256
819.612	0.0161221
819.690	0.0159276
819.768	0.0160446
819.846	0.0160927
819.924	0.0160599
820.003	0.0160779
820.081	0.0161498
820.159	0.0161213
820.237	0.0161311
820.315	0.0163381
820.393	0.0164478
820.471	0.0163607
820.549	0.0163059
820.628	0.0164781
820.706	0.0165872
820.784	0.0165460
820.862	0.0165031
820.940	0.0165888
821.018	0.0167419
821.096	0.0167083
821.174	0.0166399
821.253	0.0167254
821.331	0.0166193
821.409	0.0163210
821.487	0.0163068
821.565	0.0164071
821.643	0.0163859
821.721	0.0162076
821.799	0.0162651
821.878	0.0160191
821.956	0.0159908
822.034	0.0160219
822.112	0.0160910
822.190	0.0160217
822.268	0.0159208
822.346	0.0159867
822.424	0.0159569
822.503	0.0161752
822.581	0.0161760
822.659	0.0161120
822.737	0.0162656
822.815	0.0162702
822.893	0.0163621
822.971	0.0164407
823.049	0.0163182
823.128	0.0163389
823.206	0.0164596
823.284	0.0163702
823.362	0.0164370
823.440	0.0164544
823.518	0.0163935
823.596	0.0163998
823.674	0.0162119
823.753	0.0162057
823.831	0.0160605
823.909	0.0161404
823.987	0.0161386
824.065	0.0160625
824.143	0.0159891
824.221	0.0161046
824.299	0.0160065
824.378	0.0160142
824.456	0.0160626
824.534	0.0160563
824.612	0.0161473
824.690	0.0161205
824.768	0.0162326
824.846	0.0162975
824.924	0.0163344
825.003	0.0162756
825.081	0.0161169
825.159	0.0162341
825.237	0.0164038
825.315	0.0161296
825.393	0.0161998
825.471	0.0161437
825.549	0.0161687
825.628	0.0160557
825.706	0.0160707
825.784	0.0161765
825.862	0.0160854
825.940	0.0160789
826.018	0.0160719
826.096	0.0161519
826.174	0.0162212
826.253	0.0162822
826.331	0.0163022
826.409	0.0162456
826.487	0.0163459
826.565	0.0163071
826.643	0.0165131
826.721	0.0165306
826.799	0.0166126
826.878	0.0163929
826.956	0.0165602
827.034	0.0165429
827.112	0.0166193
827.190	0.0165724
827.268	0.0165714
827.346	0.0166099
827.424	0.0165408
827.503	0.0164803
827.581	0.0165114
827.659	0.0164875
827.737	0.0165614
827.815	0.0165324
827.893	0.0163632
827.971	0.0164975
828.049	0.0162797
828.128	0.0163773
828.206	0.0162586
828.284	0.0161153
828.362	0.0161291
828.440	0.0160043
828.518	0.0161012
828.596	0.0159600
828.674	0.0159682
828.753	0.0158992
828.831	0.0159922
828.909	0.0160102
828.987	0.0157785
829.065	0.0157816
829.143	0.0158408
829.221	0.0158871
829.299	0.0159141
829.378	0.0159487
829.456	0.0159484
829.534	0.0159490
829.612	0.0159280
829.690	0.0160283
829.768	0.0159512
829.846	0.0159866
829.924	0.0159783
830.003	0.0160023
830.081	0.0161286
830.159	0.0161211
830.237	0.0161282
830.315	0.0160591
830.393	0.0163135
830.471	0.0163031
830.549	0.0162646
830.628	0.0161493
830.706	0.0163178
830.784	0.0164101
830.862	0.0162792
830.940	0.0163488
831.018	0.0163850
831.096	0.0163313
831.174	0.0163954
831.253	0.0163890
831.331	0.0164082
831.409	0.0164748
831.487	0.0163389
831.565	0.0164722
831.643	0.0163688
831.721	0.0164806
831.799	0.0163564
831.878	0.0164551
831.956	0.0163918
832.034	0.0161929
832.112	0.0164057
832.190	0.0164487
832.268	0.0163605
832.346	0.0162914
832.424	0.0163816
832.503	0.0160611
832.581	0.0162260
832.659	0.0161398
832.737	0.0160840
832.815	0.0161549
832.893	0.0162802
832.971	0.0160369
833.049	0.0161302
833.128	0.0161317
833.206	0.0161046
833.284	0.0160341
833.362	0.0161376
833.440	0.0160743
833.518	0.0161524
833.596	0.0160451
833.674	0.0158839
833.753	0.0159615
833.831	0.0161613
833.909	0.0161173
833.987	0.0161221
834.065	0.0161819
834.143	0.0163090
834.221	0.0162560
834.299	0.0161704
834.378	0.0163937
834.456	0.0163950
834.534	0.0162641
834.612	0.0163136
834.690	0.0163213
834.768	0.0165149
834.846	0.0165834
834.924	0.0164918
835.003	0.0165222
835.081	0.0166140
835.159	0.0166032
835.237	0.0163853
835.315	0.0164062
835.393	0.0164716
835.471	0.0163652
835.549	0.0164259
835.628	0.0164467
835.706	0.0162985
835.784	0.0163332
835.862	0.0162627
835.940	0.0163577
836.018	0.0162328
836.096	0.0162859
836.174	0.0161120
836.253	0.0161480
836.331	0.0161664
836.409	0.0159574
836.487	0.0162567
836.565	0.0161623
836.643	0.0161078
836.721	0.0160157
836.799	0.0159229
836.878	0.0160222
836.956	0.0160099
837.034	0.0159116
837.112	0.0158578
837.190	0.0158402
837.268	0.0159828
837.346	0.0159682
837.424	0.0158427
837.503	0.0159350
837.581	0.0159439
837.659	0.0160535
837.737	0.0159956
837.815	0.0160196
837.893	0.0161647
837.971	0.0161156
838.049	0.0160339
838.128	0.0162309
838.206	0.0164300
838.284	0.0163563
838.362	0.0163417
838.440	0.0164413
838.518	0.0164805
838.596	0.0164606
838.674	0.0164719
838.753	0.0165790
838.831	0.0165988
838.909	0.0165430
838.987	0.0166367
839.065	0.0166199
839.143	0.0166042
839.221	0.0164748
839.299	0.0164295
839.378	0.0164642
839.456	0.0163917
839.534	0.0163763
839.612	0.0164511
839.690	0.0164140
839.768	0.0164639
839.846	0.0164505
839.924	0.0164429
840.003	0.0163483
840.081	0.0163261
840.159	0.0161730
840.237	0.0164261
840.315	0.0163580
840.393	0.0161177
840.471	0.0161461
840.549	0.0162206
840.628	0.0160815
840.706	0.0160351
840.784	0.0160601
840.862	0.0160363
840.940	0.0159598
841.018	0.0161465
841.096	0.0160866
841.174	0.0160119
841.253	0.0159222
841.331	0.0159061
841.409	0.0159566
841.487	0.0159650
841.565	0.0160522
841.643	0.0160806
841.721	0.0160282
841.799	0.0160752
841.878	0.0160497
841.956	0.0161323
842.034	0.0162121
842.112	0.0160751
842.190	0.0159857
842.268	0.0160660
842.346	0.0161297
842.424	0.0161348
842.503	0.0161124
842.581	0.0161490
842.659	0.0161515
842.737	0.0161391
842.815	0.0161443
842.893	0.0162600
842.971	0.0162960
843.049	0.0162808
843.128	0.0162449
843.206	0.0162949
843.284	0.0162392
843.362	0.0163500
843.440	0.0164555
843.518	0.0164840
843.596	0.0165627
843.674	0.0166280
843.753	0.0163428
843.831	0.0164046
843.909	0.0164439
843.987	0.0164960
844.065	0.0164767
844.143	0.0163743
844.221	0.0164290
844.299	0.0165253
844.378	0.0164858
844.456	0.0165015
844.534	0.0163392
844.612	0.0164621
844.690	0.0164424
844.768	0.0165015
844.846	0.0162399
844.924	0.0163792
845.003	0.0163963
845.081	0.0163982
845.159	0.0162259
845.237	0.0163692
845.315	0.0163122
845.393	0.0163233
845.471	0.0163770
845.549	0.0163934
845.628	0.0161734
845.706	0.0162614
845.784	0.0161865
845.862	0.0162609
845.940	0.0161762
846.018	0.0162017
846.096	0.0161604
846.174	0.0163198
846.253	0.0161858
846.331	0.0161536
846.409	0.0161160
846.487	0.0162785
846.565	0.0161239
846.643	0.0161957
846.721	0.0161491
846.799	0.0161697
846.878	0.0161935
846.956	0.0160753
847.034	0.0160583
847.112	0.0160023
847.190	0.0160980
847.268	0.0162641
847.346	0.0160051
847.424	0.0159871
847.503	0.0159954
847.581	0.0160506
847.659	0.0160130
847.737	0.0161630
847.815	0.0161237
847.893	0.0160726
847.971	0.0161403
848.049	0.0161406
848.128	0.0161526
848.206	0.0162350
848.284	0.0162520
848.362	0.0162273
848.440	0.0162917
848.518	0.0163457
848.596	0.0162352
848.674	0.0162904
848.753	0.0162673
848.831	0.0163155
848.909	0.0163805
848.987	0.0164140
849.065	0.0164758
849.143	0.0164513
849.221	0.0164768
849.299	0.0164289
849.378	0.0163821
849.456	0.0163577
849.534	0.0163414
849.612	0.0164536
849.690	0.0164081
849.768	0.0164761
849.846	0.0163960
849.924	0.0164266
850.003	0.0163541
850.081	0.0163369
850.159	0.0164445
850.237	0.0163656
850.315	0.0163030
850.393	0.0163395
850.471	0.0163346
850.549	0.0164085
850.628	0.0162779
850.706	0.0162178
850.784	0.0162030
850.862	0.0162467
850.940	0.0163187
851.018	0.0161055
851.096	0.0162795
851.174	0.0163950
851.253	0.0161275
851.331	0.0161516
851.409	0.0161530
851.487	0.0162604
851.565	0.0161945
851.643	0.0161705
851.721	0.0160885
851.799	0.0161831
851.878	0.0162976
851.956	0.0162520
852.034	0.0162397
852.112	0.0162579
852.190	0.0163848
852.268	0.0162257
852.346	0.0162746
852.424	0.0162323
852.503	0.0163650
852.581	0.0163129
852.659	0.0162610
852.737	0.0163838
852.815	0.0162783
852.893	0.0163249
852.971	0.0162515
853.049	0.0162293
853.128	0.0162106
853.206	0.0161843
853.284	0.0163030
853.362	0.0160819
853.440	0.0159938
853.518	0.0161955
853.596	0.0159919
853.674	0.0160384
853.753	0.0161414
853.831	0.0162013
853.909	0.0160887
853.987	0.0161100
854.065	0.0160396
854.143	0.0162315
854.221	0.0161005
854.299	0.0161802
854.378	0.0162983
854.456	0.0162162
854.534	0.0162163
854.612	0.0161449
854.690	0.0163560
854.768	0.0163704
854.846	0.0164570
854.924	0.0163239
855.003	0.0163187
855.081	0.0163087
855.159	0.0165079
855.237	0.0164577
855.315	0.0164320
855.393	0.0164472
855.471	0.0164648
855.549	0.0163757
855.628	0.0165387
855.706	0.0163825
855.784	0.0163122
855.862	0.0164486
855.940	0.0162650
856.018	0.0163518
856.096	0.0164526
856.174	0.0164585
856.253	0.0164355
856.331	0.0163406
856.409	0.0163198
856.487	0.0162496
856.565	0.0161834
856.643	0.0162781
856.721	0.0162551
856.799	0.0162130
856.878	0.0160198
856.956	0.0161724
857.034	0.0161994
857.112	0.0161613
857.190	0.0161607
857.268	0.0162107
857.346	0.0162556
857.424	0.0162379
857.503	0.0161031
857.581	0.0163483
857.659	0.0163441
857.737	0.0162247
857.815	0.0163321
857.893	0.0162762
857.971	0.0163345
858.049	0.0163176
858.128	0.0163372
858.206	0.0162284
858.284	0.0161459
858.362	0.0162896
858.440	0.0163284
858.518	0.0163277
858.596	0.0162225
858.674	0.0161824
858.753	0.0163077
858.831	0.0162079
858.909	0.0161812
858.987	0.0161324
859.065	0.0162977
859.143	0.0162119
859.221	0.0160537
859.299	0.0161989
859.378	0.0160977
859.456	0.0160747
859.534	0.0160484
859.612	0.0160843
859.690	0.0161053
859.768	0.0159869
859.846	0.0160481
859.924	0.0160569
860.003	0.0160201
860.081	0.0161829
860.159	0.0161223
860.237	0.0161195
860.315	0.0161463
860.393	0.0160938
860.471	0.0161232
860.549	0.0161777
860.628	0.0161537
860.706	0.0161185
860.784	0.0162002
860.862	0.0162395
860.940	0.0164023
861.018	0.0163274
861.096	0.0163155
861.174	0.0163798
861.253	0.0163942
861.331	0.0165231
861.409	0.0164812
861.487	0.0165070
861.565	0.0165768
861.643	0.0165530
861.721	0.0166830
861.799	0.0165963
861.878	0.0164725
861.956	0.0165461
862.034	0.0166219
862.112	0.0164195
862.190	0.0164436
862.268	0.0165342
862.346	0.0165070
862.424	0.0165195
862.503	0.0163689
862.581	0.0164399
862.659	0.0164566
862.737	0.0163687
862.815	0.0163626
862.893	0.0163120
862.971	0.0162887
863.049	0.0162715
863.128	0.0162754
863.206	0.0162960
863.284	0.0162269
863.362	0.0161036
863.440	0.0161283
863.518	0.0162935
863.596	0.0162711
863.674	0.0161366
863.753	0.0161929
863.831	0.0159697
863.909	0.0160379
863.987	0.0161111
864.065	0.0161076
864.143	0.0160803
864.221	0.0163149
864.299	0.0161510
864.378	0.0160835
864.456	0.0160683
864.534	0.0162360
864.612	0.0160489
864.690	0.0161276
864.768	0.0161465
864.846	0.0162087
864.924	0.0161694
865.003	0.0162408
865.081	0.0161081
865.159	0.0162254
865.237	0.0163379
865.315	0.0161422
865.393	0.0162211
865.471	0.0161314
865.549	0.0160087
865.628	0.0160148
865.706	0.0160186
865.784	0.0159831
865.862	0.0161431
865.940	0.0160403
866.018	0.0159418
866.096	0.0159483
866.174	0.0161969
866.253	0.0159570
866.331	0.0160009
866.409	0.0160712
866.487	0.0161722
866.565	0.0161089
866.643	0.0161485
866.721	0.0162021
866.799	0.0163959
866.878	0.0164117
866.956	0.0163184
867.034	0.0163369
867.112	0.0164764
867.190	0.0165517
867.268	0.0165138
867.346	0.0164713
867.424	0.0166240
867.503	0.0165993
867.581	0.0166817
867.659	0.0166563
867.737	0.0165814
867.815	0.0167549
867.893	0.0166520
867.971	0.0165861
868.049	0.0164764
868.128	0.0165436
868.206	0.0164732
868.284	0.0164148
868.362	0.0163588
868.440	0.0165105
868.518	0.0163215
868.596	0.0162523
868.674	0.0162495
868.753	0.0162945
868.831	0.0161102
868.909	0.0162314
868.987	0.0160860
869.065	0.0162275
869.143	0.0161629
869.221	0.0159808
869.299	0.0160743
869.378	0.0160491
869.456	0.0160240
869.534	0.0161101
869.612	0.0161341
869.690	0.0161163
869.768	0.0160900
869.846	0.0161851
869.924	0.0162325
870.003	0.0161421
870.081	0.0160658
870.159	0.0160158
870.237	0.0161578
870.315	0.0161774
870.393	0.0161279
870.471	0.0162391
870.549	0.0162713
870.628	0.0162968
870.706	0.0162346
870.784	0.0163827
870.862	0.0163388
870.940	0.0162636
871.018	0.0162376
871.096	0.0162712
871.174	0.0163571
871.253	0.0162093
871.331	0.0162350
871.409	0.0161906
871.487	0.0164100
871.565	0.0163039
871.643	0.0161649
871.721	0.0162340
871.799	0.0162015
871.878	0.0161150
871.956	0.0162243
872.034	0.0162086
872.112	0.0161269
872.190	0.0159737
872.268	0.0160985
872.346	0.0158718
872.424	0.0160542
872.503	0.0160838
872.581	0.0159906
872.659	0.0158987
872.737	0.0160311
872.815	0.0161639
872.893	0.0159319
872.971	0.0159913
873.049	0.0162252
873.128	0.0162591
873.206	0.0161989
873.284	0.0163120
873.362	0.0164557
873.440	0.0164496
873.518	0.0163999
873.596	0.0165005
873.674	0.0165872
873.753	0.0165446
873.831	0.0165321
873.909	0.0165527
873.987	0.0165762
874.065	0.0165951
874.143	0.0164690
874.221	0.0165420
874.299	0.0164900
874.378	0.0163930
874.456	0.0163248
874.534	0.0162839
874.612	0.0163026
874.690	0.0162162
874.768	0.0161834
874.846	0.0163617
874.924	0.0161364
875.003	0.0161385
875.081	0.0162358
875.159	0.0160387
875.237	0.0160184
875.315	0.0161910
875.393	0.0161025
875.471	0.0160958
875.549	0.0162870
875.628	0.0161116
875.706	0.0160451
875.784	0.0162024
875.862	0.0161275
875.940	0.0161771
876.018	0.0161385
876.096	0.0161674
876.174	0.0162765
876.253	0.0161353
876.331	0.0161891
876.409	0.0162843
876.487	0.0162053
876.565	0.0161809
876.643	0.0162422
876.721	0.0161691
876.799	0.0161169
876.878	0.0161864
876.956	0.0161290
877.034	0.0163121
877.112	0.0163746
877.190	0.0161011
877.268	0.0161828
877.346	0.0162548
877.424	0.0162100
877.503	0.0162041
877.581	0.0162569
877.659	0.0162475
877.737	0.0162063
877.815	0.0162885
877.893	0.0160742
877.971	0.0159347
878.049	0.0160866
878.128	0.0160610
878.206	0.0160408
878.284	0.0160173
878.362	0.0160271
878.440	0.0159816
878.518	0.0161604
878.596	0.0161901
878.674	0.0160094
878.753	0.0160680
878.831	0.0160665
878.909	0.0160973
878.987	0.0161589
879.065	0.0161191
879.143	0.0161918
879.221	0.0162188
879.299	0.0163200
879.378	0.0163049
879.456	0.0163400
879.534	0.0163866
879.612	0.0164443
879.690	0.0162527
879.768	0.0164458
879.846	0.0164756
879.924	0.0164827
880.003	0.0163956
880.081	0.0164245
880.159	0.0164342
880.237	0.0164944
880.315	0.0163539
880.393	0.0164400
880.471	0.0164292
880.549	0.0164536
880.628	0.0163845
880.706	0.0163344
880.784	0.0163999
880.862	0.0162969
880.940	0.0163165
881.018	0.0163509
881.096	0.0161861
881.174	0.0161387
881.253	0.0162323
881.331	0.0161811
881.409	0.0161562
881.487	0.0162303
881.565	0.0160992
881.643	0.0160955
881.721	0.0161855
881.799	0.0160326
881.878	0.0160188
881.956	0.0161088
882.034	0.0161374
882.112	0.0161230
882.190	0.0160641
882.268	0.0161739
882.346	0.0161458
882.424	0.0161752
882.503	0.0161707
882.581	0.0161494
882.659	0.0161514
882.737	0.0161157
882.815	0.0161071
882.893	0.0161048
882.971	0.0159873
883.049	0.0160156
883.128	0.0163098
883.206	0.0161629
883.284	0.0161973
883.362	0.0163223
883.440	0.0160901
883.518	0.0161427
883.596	0.0162580
883.674	0.0162771
883.753	0.0162052
883.831	0.0162773
883.909	0.0162049
883.987	0.0163348
884.065	0.0162789
884.143	0.0165273
884.221	0.0163151
884.299	0.0163879
884.378	0.0164169
884.456	0.0163384
884.534	0.0164368
884.612	0.0161337
884.690	0.0161628
884.768	0.0162939
884.846	0.0163263
884.924	0.0161548
885.003	0.0160816
885.081	0.0163357
885.159	0.0163567
885.237	0.0162284
885.315	0.0160994
885.393	0.0161263
885.471	0.0162559
885.549	0.0162354
885.628	0.0162595
885.706	0.0163525
885.784	0.0163896
885.862	0.0163535
885.940	0.0164162
886.018	0.0163003
886.096	0.0164011
886.174	0.0163462
886.253	0.0163347
886.331	0.0163877
886.409	0.0164739
886.487	0.0164621
886.565	0.0164887
886.643	0.0162988
886.721	0.0163476
886.799	0.0162832
886.878	0.0163000
886.956	0.0161542
887.034	0.0162212
887.112	0.0162222
887.190	0.0162343
887.268	0.0162024
887.346	0.0159788
887.424	0.0161015
887.503	0.0160968
887.581	0.0161238
887.659	0.0162285
887.737	0.0161861
887.815	0.0162222
887.893	0.0162849
887.971	0.0160968
888.049	0.0161734
888.128	0.0160312
888.206	0.0160809
888.284	0.0160808
888.362	0.0160921
888.440	0.0160796
888.518	0.0160374
888.596	0.0160496
888.674	0.0160326
888.753	0.0161747
888.831	0.0160922
888.909	0.0161192
888.987	0.0162572
889.065	0.0161081
889.143	0.0160583
889.221	0.0162009
889.299	0.0162868
889.378	0.0162402
889.456	0.0162764
889.534	0.0162440
889.612	0.0162386
889.690	0.0163012
889.768	0.0162505
889.846	0.0160722
889.924	0.0163690
890.003	0.0163234
890.081	0.0162590
890.159	0.0163126
890.237	0.0164635
890.315	0.0162646
890.393	0.0161565
890.471	0.0162847
890.549	0.0161609
890.628	0.0162389
890.706	0.0161939
890.784	0.0162472
890.862	0.0163621
890.940	0.0161827
891.018	0.0162463
891.096	0.0162039
891.174	0.0162479
891.253	0.0162152
891.331	0.0160566
891.409	0.0162749
891.487	0.0161477
891.565	0.0161199
891.643	0.0162099
891.721	0.0161237
891.799	0.0161337
891.878	0.0163168
891.956	0.0163650
892.034	0.0161465
892.112	0.0161687
892.190	0.0161989
892.268	0.0162438
892.346	0.0162750
892.424	0.0164220
892.503	0.0162864
892.581	0.0161751
892.659	0.0162118
892.737	0.0162434
892.815	0.0161634
892.893	0.0160389
892.971	0.0159760
893.049	0.0161594
893.128	0.0162336
893.206	0.0161652
893.284	0.0160889
893.362	0.0160504
893.440	0.0160866
893.518	0.0161369
893.596	0.0162679
893.674	0.0161800
893.753	0.0160654
893.831	0.0161591
893.909	0.0161679
893.987	0.0162270
894.065	0.0161702
894.143	0.0161863
894.221	0.0162457
894.299	0.0162544
894.378	0.0162312
894.456	0.0161546
894.534	0.0161597
894.612	0.0161998
894.690	0.0161112
894.768	0.0163657
894.846	0.0162186
894.924	0.0160917
895.003	0.0163091
895.081	0.0162781
895.159	0.0161525
895.237	0.0161845
895.315	0.0162077
895.393	0.0161501
895.471	0.0161884
895.549	0.0161827
895.628	0.0160392
895.706	0.0161586
895.784	0.0161785
895.862	0.0161032
895.940	0.0160250
896.018	0.0160163
896.096	0.0161040
896.174	0.0162687
896.253	0.0160903
896.331	0.0161445
896.409	0.0162122
896.487	0.0162759
896.565	0.0161320
896.643	0.0162701
896.721	0.0162724
896.799	0.0161241
896.878	0.0162440
896.956	0.0163190
897.034	0.0163572
897.112	0.0163071
897.190	0.0162538
897.268	0.0162819
897.346	0.0162986
897.424	0.0162614
897.503	0.0161091
897.581	0.0161458
897.659	0.0162971
897.737	0.0162791
897.815	0.0163549
897.893	0.0163424
897.971	0.0162904
898.049	0.0161890
898.128	0.0162960
898.206	0.0163206
898.284	0.0162960
898.362	0.0162475
898.440	0.0162486
898.518	0.0162133
898.596	0.0162880
898.674	0.0162894
898.753	0.0162271
898.831	0.0161754
898.909	0.0161695
898.987	0.0161699
899.065	0.0159939
899.143	0.0161309
899.221	0.0162313
899.299	0.0161687
899.378	0.0160474
899.456	0.0162480
899.534	0.0162128
899.612	0.0160218
899.690	0.0160880
899.768	0.0162708
899.846	0.0161790
899.924	0.0161338
900.003	0.0161981
900.081	0.0162814
900.159	0.0161493
900.237	0.0161373
900.315	0.0162192
900.393	0.0162199
900.471	0.0162906
900.549	0.0161789
900.628	0.0163488
900.706	0.0162492
900.784	0.0163348
900.862	0.0162794
900.940	0.0161648
901.018	0.0162386
901.096	0.0161173
901.174	0.0161655
901.253	0.0161976
901.331	0.0162571
901.409	0.0163344
901.487	0.0162582
901.565	0.0161610
901.643	0.0161809
901.721	0.0163044
901.799	0.0161584
901.878	0.0162357
901.956	0.0162028
902.034	0.0163371
902.112	0.0162438
902.190	0.0163739
902.268	0.0162416
902.346	0.0162799
902.424	0.0162088
902.503	0.0161732
902.581	0.0163600
902.659	0.0161781
902.737	0.0160688
902.815	0.0160252
902.893	0.0161679
902.971	0.0161833
903.049	0.0161332
903.128	0.0162558
903.206	0.0161623
903.284	0.0162902
903.362	0.0161563
903.440	0.0162938
903.518	0.0162144
903.596	0.0161540
903.674	0.0162018
903.753	0.0163884
903.831	0.0162740
903.909	0.0160432
903.987	0.0163541
904.065	0.0162331
904.143	0.0162776
904.221	0.0162674
904.299	0.0161739
904.378	0.0162594
904.456	0.0161375
904.534	0.0161736
904.612	0.0162714
904.690	0.0160475
904.768	0.0161685
904.846	0.0162398
904.924	0.0162779
905.003	0.0161923
905.081	0.0160725
905.159	0.0161350
905.237	0.0163373
905.315	0.0161496
905.393	0.0161209
905.471	0.0160877
905.549	0.0162064
905.628	0.0162045
905.706	0.0161875
905.784	0.0162581
905.862	0.0163262
905.940	0.0163154
906.018	0.0163163
906.096	0.0162776
906.174	0.0163830
906.253	0.0162761
906.331	0.0163631
906.409	0.0162623
906.487	0.0162922
906.565	0.0163596
906.643	0.0162032
906.721	0.0161948
906.799	0.0160900
906.878	0.0161108
906.956	0.0163006
907.034	0.0162405
907.112	0.0160970
907.190	0.0160706
907.268	0.0161768
907.346	0.0161295
907.424	0.0161513
907.503	0.0161543
907.581	0.0160921
907.659	0.0162695
907.737	0.0161106
907.815	0.0162077
907.893	0.0161677
907.971	0.0163109
908.049	0.0161947
908.128	0.0161904
908.206	0.0163371
908.284	0.0163737
908.362	0.0162904
908.440	0.0161984
908.518	0.0164116
908.596	0.0163554
908.674	0.0162946
908.753	0.0164391
908.831	0.0163543
908.909	0.0163083
908.987	0.0163171
909.065	0.0163647
909.143	0.0162902
909.221	0.0162661
909.299	0.0164412
909.378	0.0163258
909.456	0.0163920
909.534	0.0163357
909.612	0.0164161
909.690	0.0162555
909.768	0.0162894
909.846	0.0161897
909.924	0.0160975
910.003	0.0162101
910.081	0.0161131
910.159	0.0161807
910.237	0.0161806
910.315	0.0160576
910.393	0.0161328
910.471	0.0162488
910.549	0.0161932
910.628	0.0161277
910.706	0.0160535
910.784	0.0161045
910.862	0.0161373
910.940	0.0161214
911.018	0.0162090
911.096	0.0161698
911.174	0.0160128
911.253	0.0162024
911.331	0.0161794
911.409	0.0162779
911.487	0.0160857
911.565	0.0161741
911.643	0.0163320
911.721	0.0162128
911.799	0.0161720
911.878	0.0161034
911.956	0.0161266
912.034	0.0161008
912.112	0.0161342
912.190	0.0162584
912.268	0.0162823
912.346	0.0162596
912.424	0.0161814
912.503	0.0161546
912.581	0.0163588
912.659	0.0162843
912.737	0.0163065
912.815	0.0164315
912.893	0.0162274
912.971	0.0163249
913.049	0.0160917
913.128	0.0162464
913.206	0.0162707
913.284	0.0161272
913.362	0.0162008
913.440	0.0160874
913.518	0.0162347
913.596	0.0161111
913.674	0.0161438
913.753	0.0160339
913.831	0.0161777
913.909	0.0162772
913.987	0.0163363
914.065	0.0162092
914.143	0.0161221
914.221	0.0162690
914.299	0.0162821
914.378	0.0163182
914.456	0.0163724
914.534	0.0163195
914.612	0.0163271
914.690	0.0163999
914.768	0.0164804
914.846	0.0164610
914.924	0.0163220
915.003	0.0163361
915.081	0.0162724
915.159	0.0161630
915.237	0.0162100
915.315	0.0163457
915.393	0.0163994
915.471	0.0162015
915.549	0.0160882
915.628	0.0162677
915.706	0.0162138
915.784	0.0162814
915.862	0.0161340
915.940	0.0161479
916.018	0.0162478
916.096	0.0160023
916.174	0.0160420
916.253	0.0160155
916.331	0.0161308
916.409	0.0160323
916.487	0.0161311
916.565	0.0161687
916.643	0.0159399
916.721	0.0160493
916.799	0.0160303
916.878	0.0161372
916.956	0.0159720
917.034	0.0160513
917.112	0.0159680
917.190	0.0160189
917.268	0.0161497
917.346	0.0162907
917.424	0.0161622
917.503	0.0161182
917.581	0.0161462
917.659	0.0161984
917.737	0.0162243
917.815	0.0162082
917.893	0.0162085
917.971	0.0162746
918.049	0.0160944
918.128	0.0162121
918.206	0.0163054
918.284	0.0161285
918.362	0.0162447
918.440	0.0161152
918.518	0.0162663
918.596	0.0162206
918.674	0.0161459
918.753	0.0161548
918.831	0.0161931
918.909	0.0161112
918.987	0.0161960
919.065	0.0162116
919.143	0.0162107
919.221	0.0161996
919.299	0.0163188
919.378	0.0162337
919.456	0.0161225
919.534	0.0162891
919.612	0.0162871
919.690	0.0161912
919.768	0.0161589
919.846	0.0162643
919.924	0.0161609
920.003	0.0162290
920.081	0.0162234
920.159	0.0162425
920.237	0.0162164
920.315	0.0161684
920.393	0.0161653
920.471	0.0161614
920.549	0.0163299
920.628	0.0161927
920.706	0.0162845
920.784	0.0163441
920.862	0.0163699
920.940	0.0162566
921.018	0.0162840
921.096	0.0162695
921.174	0.0162604
921.253	0.0162698
921.331	0.0162888
921.409	0.0163459
921.487	0.0164483
921.565	0.0162270
921.643	0.0163058
921.721	0.0162600
921.799	0.0163175
921.878	0.0162997
921.956	0.0161449
922.034	0.0163472
922.112	0.0163283
922.190	0.0161845
922.268	0.0162209
922.346	0.0163136
922.424	0.0162049
922.503	0.0163603
922.581	0.0162923
922.659	0.0162017
922.737	0.0162614
922.815	0.0161993
922.893	0.0161729
922.971	0.0161487
923.049	0.0162133
923.128	0.0160741
923.206	0.0161208
923.284	0.0160936
923.362	0.0161589
923.440	0.0160770
923.518	0.0161351
923.596	0.0160061
923.674	0.0161696
923.753	0.0162356
923.831	0.0160426
923.909	0.0160307
923.987	0.0162103
924.065	0.0162802
924.143	0.0162187
924.221	0.0160905
924.299	0.0162878
924.378	0.0163991
924.456	0.0161471
924.534	0.0163210
924.612	0.0164248
924.690	0.0163675
924.768	0.0162273
924.846	0.0161772
924.924	0.0163262
925.003	0.0163345
925.081	0.0162680
925.159	0.0162901
925.237	0.0163033
925.315	0.0162562
925.393	0.0161199
925.471	0.0161043
925.549	0.0163058
925.628	0.0162247
925.706	0.0163335
925.784	0.0165209
925.862	0.0162067
925.940	0.0161732
926.018	0.0162968
926.096	0.0163543
926.174	0.0163571
926.253	0.0163535
926.331	0.0162100
926.409	0.0163053
926.487	0.0162904
926.565	0.0162817
926.643	0.0161890
926.721	0.0163569
926.799	0.0162180
926.878	0.0162986
926.956	0.0160876
927.034	0.0161611
927.112	0.0162645
927.190	0.0162781
927.268	0.0162634
927.346	0.0163980
927.424	0.0162318
927.503	0.0163415
927.581	0.0162699
927.659	0.0162246
927.737	0.0161406
927.815	0.0161644
927.893	0.0161619
927.971	0.0161449
928.049	0.0161425
928.128	0.0160036
928.206	0.0160948
928.284	0.0162987
928.362	0.0161667
928.440	0.0162096
928.518	0.0162121
928.596	0.0163582
928.674	0.0162055
928.753	0.0162820
928.831	0.0163428
928.909	0.0164359
928.987	0.0163583
929.065	0.0164620
929.143	0.0164675
929.221	0.0163507
929.299	0.0163850
929.378	0.0163348
929.456	0.0164281
929.534	0.0164699
929.612	0.0163937
929.690	0.0162102
929.768	0.0161752
929.846	0.0163358
929.924	0.0162379
930.003	0.0162524
930.081	0.0162981
930.159	0.0161939
930.237	0.0162913
930.315	0.0161215
930.393	0.0162393
930.471	0.0161909
930.549	0.0160583
930.628	0.0162320
930.706	0.0162563
930.784	0.0163274
930.862	0.0162157
930.940	0.0161463
931.018	0.0162798
931.096	0.0161244
931.174	0.0161115
931.253	0.0163340
931.331	0.0163162
931.409	0.0161570
931.487	0.0162337
931.565	0.0161849
931.643	0.0162599
931.721	0.0162783
931.799	0.0162356
931.878	0.0163922
931.956	0.0162436
932.034	0.0162994
932.112	0.0162347
932.190	0.0162761
932.268	0.0162907
932.346	0.0163134
932.424	0.0163737
932.503	0.0162421
932.581	0.0162598
932.659	0.0163587
932.737	0.0161543
932.815	0.0162952
932.893	0.0163374
932.971	0.0161126
933.049	0.0162447
933.128	0.0164838
933.206	0.0162427
933.284	0.0161831
933.362	0.0161815
933.440	0.0161539
933.518	0.0161480
933.596	0.0162707
933.674	0.0163593
933.753	0.0161687
933.831	0.0162096
933.909	0.0163840
933.987	0.0162257
934.065	0.0162289
934.143	0.0161918
934.221	0.0161697
934.299	0.0161467
934.378	0.0163085
934.456	0.0163551
934.534	0.0161375
934.612	0.0162859
934.690	0.0161967
934.768	0.0160831
934.846	0.0161335
934.924	0.0162418
935.003	0.0161594
935.081	0.0161800
935.159	0.0162133
935.237	0.0162738
935.315	0.0163086
935.393	0.0163680
935.471	0.0164719
935.549	0.0162716
935.628	0.0162801
935.706	0.0163645
935.784	0.0163577
935.862	0.0162721
935.940	0.0163867
936.018	0.0163053
936.096	0.0162634
936.174	0.0163412
936.253	0.0161819
936.331	0.0161929
936.409	0.0163325
936.487	0.0161581
936.565	0.0162258
936.643	0.0161954
936.721	0.0160777
936.799	0.0161312
936.878	0.0160104
936.956	0.0161600
937.034	0.0160262
937.112	0.0161082
937.190	0.0161966
937.268	0.0161536
937.346	0.0162192
937.424	0.0161842
937.503	0.0163710
937.581	0.0161543
937.659	0.0161799
937.737	0.0162536
937.815	0.0162229
937.893	0.0161738
937.971	0.0161635
938.049	0.0162534
938.128	0.0162667
938.206	0.0163856
938.284	0.0162873
938.362	0.0164763
938.440	0.0164149
938.518	0.0163287
938.596	0.0164974
938.674	0.0164132
938.753	0.0163950
938.831	0.0162604
938.909	0.0162286
938.987	0.0162604
939.065	0.0163952
939.143	0.0162579
939.221	0.0161380
939.299	0.0162135
939.378	0.0163065
939.456	0.0163306
939.534	0.0161192
939.612	0.0161529
939.690	0.0161530
939.768	0.0162712
939.846	0.0161180
939.924	0.0162369
940.003	0.0162353
940.081	0.0162527
940.159	0.0161098
940.237	0.0161926
940.315	0.0162012
940.393	0.0162902
940.471	0.0161472
940.549	0.0161060
940.628	0.0162770
940.706	0.0162417
940.784	0.0161095
940.862	0.0161270
940.940	0.0163873
941.018	0.0160806
941.096	0.0161825
941.174	0.0161172
941.253	0.0162202
941.331	0.0160822
941.409	0.0163530
941.487	0.0163102
941.565	0.0163483
941.643	0.0163515
941.721	0.0162543
941.799	0.0162703
941.878	0.0161530
941.956	0.0162118
942.034	0.0162189
942.112	0.0163253
942.190	0.0162530
942.268	0.0162958
942.346	0.0161443
942.424	0.0162567
942.503	0.0161440
942.581	0.0161504
942.659	0.0162182
942.737	0.0162456
942.815	0.0160584
942.893	0.0160049
942.971	0.0161100
943.049	0.0161865
943.128	0.0161990
943.206	0.0161101
943.284	0.0162416
943.362	0.0161221
943.440	0.0161437
943.518	0.0161957
943.596	0.0162907
943.674	0.0162517
943.753	0.0162698
943.831	0.0163201
943.909	0.0162644
943.987	0.0163680
944.065	0.0163017
944.143	0.0162601
944.221	0.0163304
944.299	0.0164236
944.378	0.0163352
944.456	0.0162686
944.534	0.0162928
944.612	0.0163014
944.690	0.0163913
944.768	0.0163662
944.846	0.0161593
944.924	0.0163275
945.003	0.0161467
945.081	0.0162556
945.159	0.0161380
945.237	0.0161776
945.315	0.0161558
945.393	0.0162646
945.471	0.0161204
945.549	0.0161025
945.628	0.0161536
945.706	0.0161639
945.784	0.0159722
945.862	0.0159945
945.940	0.0160838
946.018	0.0159644
946.096	0.0160448
946.174	0.0159860
946.253	0.0161170
946.331	0.0160808
946.409	0.0159521
946.487	0.0161079
946.565	0.0161882
946.643	0.0162977
946.721	0.0161828
946.799	0.0162352
946.878	0.0162921
946.956	0.0162470
947.034	0.0162294
947.112	0.0162876
947.190	0.0163056
947.268	0.0161480
947.346	0.0162758
947.424	0.0162830
947.503	0.0163767
947.581	0.0161973
947.659	0.0162511
947.737	0.0162604
947.815	0.0162976
947.893	0.0162616
947.971	0.0162765
948.049	0.0161720
948.128	0.0162775
948.206	0.0162506
948.284	0.0162386
948.362	0.0162869
948.440	0.0162226
948.518	0.0161813
948.596	0.0161065
948.674	0.0161979
948.753	0.0161908
948.831	0.0161694
948.909	0.0160313
948.987	0.0160679
949.065	0.0161576
949.143	0.0161152
949.221	0.0160979
949.299	0.0160759
949.378	0.0160626
949.456	0.0160725
949.534	0.0162083
949.612	0.0161098
949.690	0.0160526
949.768	0.0160346
949.846	0.0161131
949.924	0.0160341
