06/29/2022	23:00:35	Ver.	4.1	UNKNOWN
Optical Delay	630.002507	Delta X		0.078125	Sweeps	1	Scan Rate	0/0
Coordinates	Axis 1	NaN	Axis 2	NaN	Axis 3	NaN	Axis 4	NaN	Axis 5	NaN	Axis 6	0.000000
TX Power	0.000000	RX Power	0.000000

630.003	0.0158669
630.081	0.0158707
630.159	0.0159273
630.237	0.0158703
630.315	0.0159529
630.393	0.0159071
630.471	0.0158642
630.549	0.0158543
630.628	0.0158225
630.706	0.0159988
630.784	0.0159632
630.862	0.0159016
630.940	0.0158660
631.018	0.0158350
631.096	0.0158671
631.174	0.0158393
631.253	0.0158926
631.331	0.0159126
631.409	0.0158553
631.487	0.0157665
631.565	0.0158356
631.643	0.0158280
631.721	0.0158490
631.799	0.0158919
631.878	0.0159002
631.956	0.0159216
632.034	0.0159042
632.112	0.0157866
632.190	0.0159142
632.268	0.0158973
632.346	0.0158846
632.424	0.0159546
632.503	0.0158212
632.581	0.0159044
632.659	0.0158452
632.737	0.0158263
632.815	0.0157440
632.893	0.0158530
632.971	0.0157041
633.049	0.0157940
633.128	0.0159296
633.206	0.0158801
633.284	0.0159115
633.362	0.0159254
633.440	0.0158683
633.518	0.0158951
633.596	0.0159125
633.674	0.0159147
633.753	0.0159288
633.831	0.0159473
633.909	0.0158477
633.987	0.0159985
634.065	0.0159030
634.143	0.0159975
634.221	0.0160188
634.299	0.0158362
634.378	0.0159363
634.456	0.0160152
634.534	0.0158394
634.612	0.0158812
634.690	0.0160001
634.768	0.0158966
634.846	0.0158817
634.924	0.0159286
635.003	0.0159283
635.081	0.0157802
635.159	0.0159245
635.237	0.0159927
635.315	0.0158894
635.393	0.0158624
635.471	0.0160049
635.549	0.0159129
635.628	0.0158751
635.706	0.0157982
635.784	0.0157644
635.862	0.0158213
635.940	0.0157404
636.018	0.0159007
636.096	0.0159277
636.174	0.0159252
636.253	0.0159048
636.331	0.0158527
636.409	0.0158237
636.487	0.0159766
636.565	0.0158549
636.643	0.0158255
636.721	0.0159268
636.799	0.0158073
636.878	0.0158382
636.956	0.0158675
637.034	0.0159799
637.112	0.0158724
637.190	0.0158340
637.268	0.0159536
637.346	0.0158929
637.424	0.0158297
637.503	0.0157819
637.581	0.0158506
637.659	0.0157632
637.737	0.0158385
637.815	0.0158590
637.893	0.0159590
637.971	0.0159129
638.049	0.0157725
638.128	0.0157817
638.206	0.0159014
638.284	0.0159300
638.362	0.0159113
638.440	0.0158664
638.518	0.0158313
638.596	0.0158749
638.674	0.0159835
638.753	0.0158795
638.831	0.0159657
638.909	0.0160548
638.987	0.0158294
639.065	0.0158627
639.143	0.0158730
639.221	0.0159066
639.299	0.0158683
639.378	0.0159616
639.456	0.0159905
639.534	0.0158545
639.612	0.0158699
639.690	0.0159229
639.768	0.0158366
639.846	0.0158540
639.924	0.0158352
640.003	0.0158410
640.081	0.0159151
640.159	0.0158897
640.237	0.0158620
640.315	0.0159689
640.393	0.0158942
640.471	0.0157693
640.549	0.0158077
640.628	0.0158909
640.706	0.0159115
640.784	0.0158704
640.862	0.0157742
640.940	0.0159314
641.018	0.0160155
641.096	0.0159507
641.174	0.0158910
641.253	0.0158129
641.331	0.0158558
641.409	0.0159151
641.487	0.0158865
641.565	0.0159077
641.643	0.0159161
641.721	0.0156790
641.799	0.0159319
641.878	0.0158575
641.956	0.0158358
642.034	0.0159735
642.112	0.0160183
642.190	0.0159812
642.268	0.0159493
642.346	0.0158128
642.424	0.0159048
642.503	0.0158436
642.581	0.0158781
642.659	0.0159107
642.737	0.0159777
642.815	0.0158694
642.893	0.0159491
642.971	0.0158519
643.049	0.0159054
643.128	0.0158633
643.206	0.0158240
643.284	0.0159879
643.362	0.0159297
643.440	0.0158372
643.518	0.0160152
643.596	0.0159156
643.674	0.0158104
643.753	0.0159567
643.831	0.0158979
643.909	0.0158607
643.987	0.0158688
644.065	0.0158425
644.143	0.0159534
644.221	0.0159574
644.299	0.0158753
644.378	0.0158826
644.456	0.0160202
644.534	0.0157847
644.612	0.0158515
644.690	0.0160356
644.768	0.0157617
644.846	0.0158395
644.924	0.0159447
645.003	0.0158806
645.081	0.0159322
645.159	0.0159555
645.237	0.0158079
645.315	0.0160159
645.393	0.0158020
645.471	0.0158997
645.549	0.0158665
645.628	0.0159707
645.706	0.0158160
645.784	0.0159177
645.862	0.0159454
645.940	0.0159772
646.018	0.0157635
646.096	0.0158475
646.174	0.0158823
646.253	0.0158897
646.331	0.0161115
646.409	0.0160334
646.487	0.0157948
646.565	0.0160304
646.643	0.0159522
646.721	0.0158157
646.799	0.0158712
646.878	0.0158336
646.956	0.0159404
647.034	0.0159316
647.112	0.0158806
647.190	0.0158179
647.268	0.0160526
647.346	0.0159187
647.424	0.0158490
647.503	0.0158613
647.581	0.0159381
647.659	0.0159357
647.737	0.0159122
647.815	0.0158409
647.893	0.0158980
647.971	0.0159233
648.049	0.0158759
648.128	0.0159164
648.206	0.0159605
648.284	0.0159495
648.362	0.0158562
648.440	0.0159403
648.518	0.0158114
648.596	0.0159339
648.674	0.0158134
648.753	0.0158721
648.831	0.0160176
648.909	0.0159151
648.987	0.0159061
649.065	0.0159441
649.143	0.0159237
649.221	0.0159200
649.299	0.0158280
649.378	0.0158757
649.456	0.0157890
649.534	0.0158903
649.612	0.0158263
649.690	0.0158971
649.768	0.0158749
649.846	0.0158340
649.924	0.0160036
650.003	0.0158990
650.081	0.0158794
650.159	0.0159364
650.237	0.0159613
650.315	0.0157815
650.393	0.0157677
650.471	0.0158356
650.549	0.0159087
650.628	0.0158414
650.706	0.0158927
650.784	0.0158228
650.862	0.0159314
650.940	0.0159418
651.018	0.0160133
651.096	0.0158387
651.174	0.0158771
651.253	0.0158793
651.331	0.0159558
651.409	0.0158215
651.487	0.0159251
651.565	0.0158318
651.643	0.0158006
651.721	0.0159074
651.799	0.0158364
651.878	0.0159632
651.956	0.0158491
652.034	0.0158333
652.112	0.0157493
652.190	0.0158466
652.268	0.0158361
652.346	0.0158759
652.424	0.0158408
652.503	0.0158691
652.581	0.0159335
652.659	0.0158395
652.737	0.0158040
652.815	0.0157061
652.893	0.0159801
652.971	0.0159464
653.049	0.0158670
653.128	0.0159371
653.206	0.0158591
653.284	0.0158784
653.362	0.0158925
653.440	0.0158481
653.518	0.0158533
653.596	0.0159292
653.674	0.0159553
653.753	0.0158446
653.831	0.0159198
653.909	0.0158873
653.987	0.0157259
654.065	0.0158427
654.143	0.0158099
654.221	0.0159030
654.299	0.0158562
654.378	0.0159077
654.456	0.0157513
654.534	0.0157043
654.612	0.0158453
654.690	0.0158305
654.768	0.0157893
654.846	0.0158159
654.924	0.0158572
655.003	0.0158193
655.081	0.0159180
655.159	0.0160121
655.237	0.0159809
655.315	0.0159531
655.393	0.0159107
655.471	0.0158158
655.549	0.0157536
655.628	0.0158047
655.706	0.0160226
655.784	0.0158720
655.862	0.0158971
655.940	0.0159407
656.018	0.0159153
656.096	0.0158115
656.174	0.0160132
656.253	0.0158737
656.331	0.0158217
656.409	0.0158904
656.487	0.0158361
656.565	0.0159237
656.643	0.0158652
656.721	0.0158357
656.799	0.0158170
656.878	0.0159209
656.956	0.0158446
657.034	0.0158391
657.112	0.0159840
657.190	0.0158837
657.268	0.0158932
657.346	0.0159055
657.424	0.0157288
657.503	0.0158594
657.581	0.0159095
657.659	0.0160017
657.737	0.0158862
657.815	0.0159737
657.893	0.0160970
657.971	0.0158255
658.049	0.0159834
658.128	0.0159357
658.206	0.0158846
658.284	0.0157521
658.362	0.0157864
658.440	0.0159814
658.518	0.0157413
658.596	0.0158492
658.674	0.0159544
658.753	0.0159303
658.831	0.0159898
658.909	0.0159053
658.987	0.0157837
659.065	0.0157794
659.143	0.0158925
659.221	0.0159663
659.299	0.0157483
659.378	0.0158792
659.456	0.0160339
659.534	0.0158920
659.612	0.0159311
659.690	0.0160192
659.768	0.0159645
659.846	0.0158170
659.924	0.0158765
660.003	0.0158068
660.081	0.0160039
660.159	0.0158739
660.237	0.0157835
660.315	0.0158237
660.393	0.0158984
660.471	0.0158772
660.549	0.0158591
660.628	0.0160269
660.706	0.0159087
660.784	0.0158009
660.862	0.0159026
660.940	0.0157856
661.018	0.0159872
661.096	0.0158348
661.174	0.0158117
661.253	0.0159671
661.331	0.0159035
661.409	0.0158620
661.487	0.0158500
661.565	0.0159576
661.643	0.0158053
661.721	0.0159476
661.799	0.0158992
661.878	0.0159127
661.956	0.0159457
662.034	0.0158266
662.112	0.0158202
662.190	0.0158990
662.268	0.0158443
662.346	0.0159476
662.424	0.0158035
662.503	0.0157912
662.581	0.0157671
662.659	0.0159872
662.737	0.0159406
662.815	0.0159718
662.893	0.0157423
662.971	0.0159006
663.049	0.0160571
663.128	0.0158344
663.206	0.0157506
663.284	0.0159603
663.362	0.0158968
663.440	0.0160179
663.518	0.0158696
663.596	0.0159684
663.674	0.0158862
663.753	0.0159544
663.831	0.0159408
663.909	0.0158473
663.987	0.0157558
664.065	0.0159449
664.143	0.0158087
664.221	0.0158939
664.299	0.0158520
664.378	0.0159657
664.456	0.0159705
664.534	0.0160072
664.612	0.0159171
664.690	0.0158725
664.768	0.0158496
664.846	0.0158504
664.924	0.0159343
665.003	0.0159586
665.081	0.0159293
665.159	0.0158414
665.237	0.0158624
665.315	0.0159240
665.393	0.0159167
665.471	0.0159366
665.549	0.0157871
665.628	0.0159722
665.706	0.0158909
665.784	0.0158571
665.862	0.0160028
665.940	0.0159144
666.018	0.0156802
666.096	0.0158998
666.174	0.0158906
666.253	0.0159106
666.331	0.0159325
666.409	0.0160154
666.487	0.0158544
666.565	0.0158829
666.643	0.0158883
666.721	0.0157530
666.799	0.0158217
666.878	0.0158564
666.956	0.0159286
667.034	0.0159713
667.112	0.0159504
667.190	0.0159874
667.268	0.0158317
667.346	0.0159097
667.424	0.0158669
667.503	0.0159748
667.581	0.0159369
667.659	0.0159166
667.737	0.0159704
667.815	0.0160027
667.893	0.0158832
667.971	0.0158485
668.049	0.0158753
668.128	0.0158909
668.206	0.0157340
668.284	0.0158038
668.362	0.0159133
668.440	0.0159787
668.518	0.0157937
668.596	0.0158437
668.674	0.0160159
668.753	0.0159769
668.831	0.0158794
668.909	0.0159274
668.987	0.0158136
669.065	0.0159246
669.143	0.0158419
669.221	0.0158971
669.299	0.0159151
669.378	0.0158340
669.456	0.0159021
669.534	0.0158547
669.612	0.0159162
669.690	0.0158571
669.768	0.0158183
669.846	0.0158447
669.924	0.0158041
670.003	0.0158358
670.081	0.0159561
670.159	0.0160222
670.237	0.0159531
670.315	0.0159974
670.393	0.0158841
670.471	0.0157835
670.549	0.0158745
670.628	0.0159888
670.706	0.0157572
670.784	0.0158413
670.862	0.0161124
670.940	0.0157899
671.018	0.0157890
671.096	0.0158711
671.174	0.0159676
671.253	0.0159241
671.331	0.0158787
671.409	0.0158812
671.487	0.0159111
671.565	0.0158704
671.643	0.0158340
671.721	0.0158517
671.799	0.0159731
671.878	0.0158992
671.956	0.0158931
672.034	0.0159395
672.112	0.0159581
672.190	0.0158174
672.268	0.0158972
672.346	0.0159331
672.424	0.0159602
672.503	0.0158324
672.581	0.0158884
672.659	0.0159196
672.737	0.0158968
672.815	0.0159359
672.893	0.0158901
672.971	0.0158628
673.049	0.0158543
673.128	0.0160662
673.206	0.0158417
673.284	0.0159082
673.362	0.0157997
673.440	0.0158668
673.518	0.0158981
673.596	0.0158801
673.674	0.0160487
673.753	0.0159361
673.831	0.0157775
673.909	0.0159225
673.987	0.0159225
674.065	0.0159126
674.143	0.0159510
674.221	0.0158383
674.299	0.0160478
674.378	0.0158053
674.456	0.0158755
674.534	0.0160026
674.612	0.0159055
674.690	0.0159068
674.768	0.0160183
674.846	0.0159576
674.924	0.0158628
675.003	0.0158585
675.081	0.0159207
675.159	0.0158495
675.237	0.0160422
675.315	0.0159170
675.393	0.0158389
675.471	0.0158594
675.549	0.0158645
675.628	0.0159393
675.706	0.0159531
675.784	0.0158029
675.862	0.0158613
675.940	0.0159088
676.018	0.0158267
676.096	0.0158102
676.174	0.0159740
676.253	0.0157890
676.331	0.0158411
676.409	0.0158487
676.487	0.0159963
676.565	0.0157590
676.643	0.0157590
676.721	0.0158362
676.799	0.0158614
676.878	0.0158286
676.956	0.0157522
677.034	0.0158138
677.112	0.0158037
677.190	0.0158541
677.268	0.0158671
677.346	0.0159429
677.424	0.0159576
677.503	0.0158331
677.581	0.0158539
677.659	0.0157735
677.737	0.0157909
677.815	0.0160234
677.893	0.0159128
677.971	0.0157629
678.049	0.0158885
678.128	0.0157711
678.206	0.0158717
678.284	0.0158138
678.362	0.0158481
678.440	0.0157967
678.518	0.0158755
678.596	0.0158766
678.674	0.0159377
678.753	0.0158205
678.831	0.0158938
678.909	0.0158918
678.987	0.0158398
679.065	0.0159087
679.143	0.0158383
679.221	0.0160659
679.299	0.0159051
679.378	0.0159810
679.456	0.0158701
679.534	0.0159087
679.612	0.0159129
679.690	0.0159193
679.768	0.0159497
679.846	0.0160145
679.924	0.0159616
680.003	0.0159361
680.081	0.0158871
680.159	0.0159222
680.237	0.0158986
680.315	0.0158876
680.393	0.0158853
680.471	0.0159762
680.549	0.0159554
680.628	0.0158435
680.706	0.0158392
680.784	0.0159473
680.862	0.0158860
680.940	0.0158353
681.018	0.0158969
681.096	0.0158402
681.174	0.0158040
681.253	0.0159508
681.331	0.0159032
681.409	0.0158401
681.487	0.0158768
681.565	0.0158147
681.643	0.0158871
681.721	0.0157961
681.799	0.0158704
681.878	0.0158666
681.956	0.0158742
682.034	0.0158836
682.112	0.0158437
682.190	0.0159581
682.268	0.0158773
682.346	0.0158807
682.424	0.0158451
682.503	0.0158688
682.581	0.0159962
682.659	0.0158642
682.737	0.0160848
682.815	0.0158955
682.893	0.0157943
682.971	0.0159942
683.049	0.0159881
683.128	0.0158373
683.206	0.0158836
683.284	0.0159860
683.362	0.0158241
683.440	0.0158182
683.518	0.0158641
683.596	0.0159116
683.674	0.0159273
683.753	0.0159211
683.831	0.0159715
683.909	0.0161081
683.987	0.0159250
684.065	0.0159879
684.143	0.0160159
684.221	0.0159925
684.299	0.0158825
684.378	0.0159108
684.456	0.0158836
684.534	0.0158389
684.612	0.0158344
684.690	0.0159472
684.768	0.0159334
684.846	0.0158911
684.924	0.0157482
685.003	0.0158315
685.081	0.0158710
685.159	0.0159370
685.237	0.0159034
685.315	0.0159027
685.393	0.0158537
685.471	0.0159575
685.549	0.0160386
685.628	0.0158788
685.706	0.0156977
685.784	0.0158324
685.862	0.0157223
685.940	0.0157799
686.018	0.0157441
686.096	0.0157779
686.174	0.0159702
686.253	0.0159573
686.331	0.0156770
686.409	0.0156908
686.487	0.0157327
686.565	0.0158974
686.643	0.0158778
686.721	0.0157976
686.799	0.0159155
686.878	0.0159219
686.956	0.0159198
687.034	0.0160105
687.112	0.0160705
687.190	0.0159215
687.268	0.0161598
687.346	0.0160233
687.424	0.0160548
687.503	0.0160368
687.581	0.0158890
687.659	0.0157846
687.737	0.0158280
687.815	0.0157440
687.893	0.0156715
687.971	0.0156178
688.049	0.0153805
688.128	0.0156062
688.206	0.0156919
688.284	0.0157430
688.362	0.0158305
688.440	0.0159438
688.518	0.0161074
688.596	0.0162154
688.674	0.0162501
688.753	0.0162947
688.831	0.0162292
688.909	0.0161431
688.987	0.0160271
689.065	0.0160175
689.143	0.0159767
689.221	0.0158415
689.299	0.0156432
689.378	0.0156042
689.456	0.0155205
689.534	0.0156185
689.612	0.0154948
689.690	0.0157111
689.768	0.0158075
689.846	0.0158293
689.924	0.0158914
690.003	0.0159228
690.081	0.0160995
690.159	0.0161848
690.237	0.0162220
690.315	0.0163345
690.393	0.0162624
690.471	0.0162537
690.549	0.0161475
690.628	0.0160489
690.706	0.0158727
690.784	0.0157858
690.862	0.0157481
690.940	0.0157265
691.018	0.0156924
691.096	0.0155554
691.174	0.0154265
691.253	0.0155238
691.331	0.0156509
691.409	0.0156098
691.487	0.0157480
691.565	0.0158015
691.643	0.0159925
691.721	0.0160165
691.799	0.0160937
691.878	0.0163404
691.956	0.0163583
692.034	0.0164273
692.112	0.0163142
692.190	0.0161389
692.268	0.0161395
692.346	0.0160849
692.424	0.0159747
692.503	0.0158344
692.581	0.0157647
692.659	0.0156511
692.737	0.0155093
692.815	0.0156068
692.893	0.0155780
692.971	0.0156951
693.049	0.0158826
693.128	0.0157964
693.206	0.0160000
693.284	0.0159246
693.362	0.0160288
693.440	0.0158707
693.518	0.0159620
693.596	0.0159618
693.674	0.0161213
693.753	0.0160739
693.831	0.0160669
693.909	0.0160846
693.987	0.0160962
694.065	0.0160104
694.143	0.0162402
694.221	0.0160412
694.299	0.0160191
694.378	0.0159902
694.456	0.0158614
694.534	0.0157564
694.612	0.0156586
694.690	0.0156358
694.768	0.0155897
694.846	0.0155214
694.924	0.0155856
695.003	0.0156369
695.081	0.0156568
695.159	0.0158414
695.237	0.0157900
695.315	0.0160239
695.393	0.0161521
695.471	0.0161566
695.549	0.0162474
695.628	0.0162303
695.706	0.0161597
695.784	0.0163145
695.862	0.0161843
695.940	0.0160497
696.018	0.0159114
696.096	0.0158699
696.174	0.0157352
696.253	0.0158149
696.331	0.0154963
696.409	0.0156075
696.487	0.0155267
696.565	0.0154030
696.643	0.0155534
696.721	0.0157206
696.799	0.0157243
696.878	0.0158598
696.956	0.0158032
697.034	0.0159949
697.112	0.0159755
697.190	0.0160565
697.268	0.0161246
697.346	0.0161531
697.424	0.0161236
697.503	0.0162187
697.581	0.0162306
697.659	0.0162609
697.737	0.0162831
697.815	0.0161632
697.893	0.0159137
697.971	0.0159634
698.049	0.0159397
698.128	0.0158953
698.206	0.0156916
698.284	0.0156481
698.362	0.0155936
698.440	0.0156897
698.518	0.0155712
698.596	0.0156907
698.674	0.0157526
698.753	0.0157660
698.831	0.0158740
698.909	0.0158102
698.987	0.0158099
699.065	0.0159212
699.143	0.0160161
699.221	0.0159201
699.299	0.0157957
699.378	0.0160654
699.456	0.0160537
699.534	0.0160760
699.612	0.0162534
699.690	0.0161193
699.768	0.0160777
699.846	0.0162251
699.924	0.0160262
700.003	0.0160360
700.081	0.0159882
700.159	0.0159262
700.237	0.0157430
700.315	0.0156772
700.393	0.0157449
700.471	0.0155788
700.549	0.0154428
700.628	0.0153748
700.706	0.0155784
700.784	0.0156207
700.862	0.0157879
700.940	0.0158564
701.018	0.0159612
701.096	0.0160204
701.174	0.0162167
701.253	0.0163186
701.331	0.0164100
701.409	0.0162190
701.487	0.0162612
701.565	0.0162473
701.643	0.0161871
701.721	0.0160695
701.799	0.0160301
701.878	0.0158749
701.956	0.0157852
702.034	0.0155438
702.112	0.0155820
702.190	0.0154906
702.268	0.0155072
702.346	0.0155656
702.424	0.0155968
702.503	0.0155327
702.581	0.0157387
702.659	0.0160079
702.737	0.0160768
702.815	0.0161501
702.893	0.0162106
702.971	0.0161677
703.049	0.0163019
703.128	0.0162238
703.206	0.0161847
703.284	0.0161241
703.362	0.0158688
703.440	0.0158099
703.518	0.0158427
703.596	0.0158090
703.674	0.0155099
703.753	0.0156451
703.831	0.0157053
703.909	0.0158605
703.987	0.0159687
704.065	0.0159821
704.143	0.0160263
704.221	0.0162824
704.299	0.0162682
704.378	0.0162504
704.456	0.0162772
704.534	0.0161340
704.612	0.0162135
704.690	0.0162073
704.768	0.0159869
704.846	0.0158902
704.924	0.0157568
705.003	0.0157446
705.081	0.0155635
705.159	0.0154924
705.237	0.0155728
705.315	0.0154692
705.393	0.0155014
705.471	0.0155823
705.549	0.0157368
705.628	0.0158719
705.706	0.0159834
705.784	0.0161285
705.862	0.0162946
705.940	0.0163344
706.018	0.0164515
706.096	0.0165594
706.174	0.0163671
706.253	0.0162762
706.331	0.0161224
706.409	0.0159472
706.487	0.0158450
706.565	0.0156685
706.643	0.0154967
706.721	0.0155326
706.799	0.0154546
706.878	0.0154239
706.956	0.0153777
707.034	0.0154683
707.112	0.0156150
707.190	0.0157509
707.268	0.0157360
707.346	0.0159894
707.424	0.0160313
707.503	0.0161857
707.581	0.0160883
707.659	0.0161407
707.737	0.0161590
707.815	0.0161872
707.893	0.0161116
707.971	0.0160766
708.049	0.0161943
708.128	0.0160139
708.206	0.0159999
708.284	0.0161122
708.362	0.0157701
708.440	0.0157922
708.518	0.0158827
708.596	0.0157517
708.674	0.0156025
708.753	0.0155681
708.831	0.0155772
708.909	0.0155616
708.987	0.0153783
709.065	0.0155016
709.143	0.0155683
709.221	0.0156553
709.299	0.0157526
709.378	0.0158122
709.456	0.0160668
709.534	0.0161724
709.612	0.0161517
709.690	0.0163184
709.768	0.0164161
709.846	0.0164838
709.924	0.0165761
710.003	0.0165327
710.081	0.0163574
710.159	0.0163201
710.237	0.0162747
710.315	0.0161038
710.393	0.0158421
710.471	0.0156604
710.549	0.0156978
710.628	0.0155051
710.706	0.0153606
710.784	0.0153880
710.862	0.0155080
710.940	0.0154513
711.018	0.0154143
711.096	0.0156385
711.174	0.0156796
711.253	0.0158473
711.331	0.0158407
711.409	0.0160213
711.487	0.0159245
711.565	0.0160542
711.643	0.0159717
711.721	0.0159350
711.799	0.0160629
711.878	0.0160634
711.956	0.0160254
712.034	0.0158385
712.112	0.0157521
712.190	0.0157504
712.268	0.0157050
712.346	0.0156841
712.424	0.0156210
712.503	0.0157751
712.581	0.0158225
712.659	0.0157309
712.737	0.0157293
712.815	0.0158544
712.893	0.0160747
712.971	0.0159619
713.049	0.0158823
713.128	0.0159803
713.206	0.0160177
713.284	0.0160845
713.362	0.0161749
713.440	0.0161945
713.518	0.0161877
713.596	0.0161311
713.674	0.0160278
713.753	0.0161089
713.831	0.0160725
713.909	0.0159497
713.987	0.0159586
714.065	0.0159708
714.143	0.0161392
714.221	0.0159958
714.299	0.0160120
714.378	0.0160509
714.456	0.0161459
714.534	0.0160399
714.612	0.0161169
714.690	0.0161105
714.768	0.0159622
714.846	0.0159647
714.924	0.0157665
715.003	0.0157937
715.081	0.0156712
715.159	0.0157236
715.237	0.0155418
715.315	0.0155376
715.393	0.0155054
715.471	0.0155423
715.549	0.0156221
715.628	0.0157771
715.706	0.0158536
715.784	0.0160016
715.862	0.0161448
715.940	0.0162652
716.018	0.0163580
716.096	0.0162749
716.174	0.0162403
716.253	0.0162223
716.331	0.0161134
716.409	0.0161269
716.487	0.0160278
716.565	0.0158010
716.643	0.0157319
716.721	0.0155593
716.799	0.0155418
716.878	0.0154540
716.956	0.0154576
717.034	0.0152843
717.112	0.0152682
717.190	0.0152684
717.268	0.0153517
717.346	0.0154919
717.424	0.0155322
717.503	0.0156926
717.581	0.0157372
717.659	0.0157639
717.737	0.0160363
717.815	0.0160374
717.893	0.0160155
717.971	0.0161264
718.049	0.0162939
718.128	0.0163805
718.206	0.0163747
718.284	0.0163837
718.362	0.0164084
718.440	0.0164219
718.518	0.0165373
718.596	0.0164475
718.674	0.0164285
718.753	0.0164293
718.831	0.0163437
718.909	0.0162869
718.987	0.0161530
719.065	0.0159810
719.143	0.0158604
719.221	0.0157454
719.299	0.0155677
719.378	0.0153610
719.456	0.0154014
719.534	0.0153832
719.612	0.0151123
719.690	0.0151055
719.768	0.0152238
719.846	0.0150992
719.924	0.0152385
720.003	0.0153253
720.081	0.0152948
720.159	0.0155363
720.237	0.0157475
720.315	0.0156792
720.393	0.0158094
720.471	0.0161211
720.549	0.0161740
720.628	0.0163048
720.706	0.0163591
720.784	0.0162973
720.862	0.0165295
720.940	0.0167715
721.018	0.0166325
721.096	0.0166121
721.174	0.0166367
721.253	0.0164921
721.331	0.0165761
721.409	0.0165322
721.487	0.0164300
721.565	0.0162418
721.643	0.0160557
721.721	0.0159047
721.799	0.0157624
721.878	0.0156664
721.956	0.0155737
722.034	0.0153634
722.112	0.0153342
722.190	0.0153320
722.268	0.0152310
722.346	0.0152619
722.424	0.0152910
722.503	0.0152945
722.581	0.0154226
722.659	0.0154559
722.737	0.0153826
722.815	0.0155934
722.893	0.0156347
722.971	0.0155679
723.049	0.0156696
723.128	0.0157085
723.206	0.0158610
723.284	0.0159589
723.362	0.0159694
723.440	0.0159885
723.518	0.0161555
723.596	0.0161610
723.674	0.0160515
723.753	0.0160563
723.831	0.0159682
723.909	0.0160394
723.987	0.0159698
724.065	0.0161527
724.143	0.0159815
724.221	0.0160996
724.299	0.0161361
724.378	0.0160468
724.456	0.0161763
724.534	0.0161382
724.612	0.0161681
724.690	0.0161162
724.768	0.0162543
724.846	0.0162166
724.924	0.0160223
725.003	0.0159733
725.081	0.0158762
725.159	0.0158127
725.237	0.0157375
725.315	0.0157391
725.393	0.0156817
725.471	0.0154926
725.549	0.0154202
725.628	0.0153146
725.706	0.0154326
725.784	0.0154214
725.862	0.0154475
725.940	0.0157345
726.018	0.0157610
726.096	0.0157968
726.174	0.0158644
726.253	0.0161015
726.331	0.0160780
726.409	0.0162322
726.487	0.0161156
726.565	0.0161495
726.643	0.0163509
726.721	0.0161436
726.799	0.0161430
726.878	0.0161734
726.956	0.0160024
727.034	0.0160804
727.112	0.0161240
727.190	0.0159792
727.268	0.0158796
727.346	0.0159562
727.424	0.0157956
727.503	0.0157426
727.581	0.0158126
727.659	0.0157681
727.737	0.0155565
727.815	0.0155290
727.893	0.0157662
727.971	0.0156953
728.049	0.0155664
728.128	0.0155692
728.206	0.0156031
728.284	0.0154792
728.362	0.0155040
728.440	0.0155436
728.518	0.0155859
728.596	0.0155090
728.674	0.0156104
728.753	0.0156074
728.831	0.0156435
728.909	0.0158382
728.987	0.0157736
729.065	0.0157332
729.143	0.0159455
729.221	0.0157410
729.299	0.0157501
729.378	0.0157044
729.456	0.0158308
729.534	0.0158276
729.612	0.0159176
729.690	0.0158895
729.768	0.0160354
729.846	0.0160715
729.924	0.0160806
730.003	0.0160629
730.081	0.0160425
730.159	0.0160706
730.237	0.0161189
730.315	0.0162417
730.393	0.0161189
730.471	0.0161517
730.549	0.0162801
730.628	0.0162661
730.706	0.0163190
730.784	0.0162883
730.862	0.0163689
730.940	0.0165356
731.018	0.0165192
731.096	0.0165168
731.174	0.0165585
731.253	0.0164162
731.331	0.0163814
731.409	0.0164680
731.487	0.0162669
731.565	0.0163005
731.643	0.0162278
731.721	0.0160526
731.799	0.0161539
731.878	0.0159631
731.956	0.0156458
732.034	0.0157909
732.112	0.0157529
732.190	0.0157632
732.268	0.0157678
732.346	0.0154880
732.424	0.0154809
732.503	0.0153460
732.581	0.0153866
732.659	0.0152876
732.737	0.0153481
732.815	0.0151290
732.893	0.0152644
732.971	0.0149484
733.049	0.0149007
733.128	0.0148445
733.206	0.0149333
733.284	0.0148832
733.362	0.0147274
733.440	0.0148940
733.518	0.0149858
733.596	0.0148945
733.674	0.0151349
733.753	0.0152133
733.831	0.0153284
733.909	0.0155965
733.987	0.0156940
734.065	0.0157847
734.143	0.0162372
734.221	0.0164236
734.299	0.0163717
734.378	0.0167458
734.456	0.0167171
734.534	0.0169128
734.612	0.0168793
734.690	0.0170115
734.768	0.0171410
734.846	0.0170418
734.924	0.0170644
735.003	0.0170405
735.081	0.0171831
735.159	0.0170667
735.237	0.0170174
735.315	0.0170181
735.393	0.0170266
735.471	0.0168648
735.549	0.0169135
735.628	0.0167069
735.706	0.0166203
735.784	0.0163093
735.862	0.0161562
735.940	0.0160902
736.018	0.0157974
736.096	0.0154744
736.174	0.0152258
736.253	0.0149993
736.331	0.0147310
736.409	0.0145527
736.487	0.0143326
736.565	0.0143448
736.643	0.0142086
736.721	0.0142376
736.799	0.0143801
736.878	0.0144913
736.956	0.0145784
737.034	0.0147792
737.112	0.0147177
737.190	0.0152224
737.268	0.0153504
737.346	0.0157293
737.424	0.0158245
737.503	0.0162173
737.581	0.0163771
737.659	0.0163228
737.737	0.0164433
737.815	0.0162711
737.893	0.0165245
737.971	0.0164616
738.049	0.0165770
738.128	0.0163991
738.206	0.0164685
738.284	0.0164201
738.362	0.0163815
738.440	0.0162430
738.518	0.0162609
738.596	0.0161562
738.674	0.0162455
738.753	0.0162582
738.831	0.0163533
738.909	0.0164711
738.987	0.0165562
739.065	0.0165081
739.143	0.0166848
739.221	0.0167352
739.299	0.0168566
739.378	0.0166938
739.456	0.0166922
739.534	0.0166892
739.612	0.0166379
739.690	0.0163629
739.768	0.0162836
739.846	0.0162358
739.924	0.0161025
740.003	0.0158248
740.081	0.0157163
740.159	0.0155984
740.237	0.0154790
740.315	0.0154221
740.393	0.0152776
740.471	0.0151596
740.549	0.0149452
740.628	0.0150552
740.706	0.0149168
740.784	0.0148637
740.862	0.0148025
740.940	0.0148346
741.018	0.0147396
741.096	0.0146010
741.174	0.0146771
741.253	0.0146128
741.331	0.0146530
741.409	0.0148656
741.487	0.0150627
741.565	0.0150491
741.643	0.0150640
741.721	0.0154066
741.799	0.0155064
741.878	0.0156997
741.956	0.0157674
742.034	0.0158547
742.112	0.0159878
742.190	0.0162309
742.268	0.0163316
742.346	0.0163953
742.424	0.0165999
742.503	0.0166111
742.581	0.0167914
742.659	0.0168363
742.737	0.0169192
742.815	0.0170621
742.893	0.0170438
742.971	0.0172278
743.049	0.0172636
743.128	0.0172828
743.206	0.0170903
743.284	0.0172691
743.362	0.0173341
743.440	0.0172935
743.518	0.0172352
743.596	0.0172594
743.674	0.0172501
743.753	0.0171694
743.831	0.0172031
743.909	0.0169934
743.987	0.0167091
744.065	0.0166978
744.143	0.0165864
744.221	0.0162344
744.299	0.0159684
744.378	0.0159082
744.456	0.0155061
744.534	0.0153475
744.612	0.0151298
744.690	0.0148968
744.768	0.0147142
744.846	0.0145155
744.924	0.0144034
745.003	0.0142175
745.081	0.0140964
745.159	0.0141724
745.237	0.0140664
745.315	0.0140150
745.393	0.0139861
745.471	0.0139894
745.549	0.0141934
745.628	0.0142265
745.706	0.0145602
745.784	0.0145135
745.862	0.0147358
745.940	0.0147886
746.018	0.0150190
746.096	0.0153410
746.174	0.0155637
746.253	0.0157518
746.331	0.0159380
746.409	0.0162082
746.487	0.0162888
746.565	0.0165926
746.643	0.0167229
746.721	0.0167095
746.799	0.0167684
746.878	0.0169894
746.956	0.0169495
747.034	0.0168293
747.112	0.0168810
747.190	0.0166592
747.268	0.0167032
747.346	0.0165023
747.424	0.0163310
747.503	0.0163854
747.581	0.0164381
747.659	0.0162859
747.737	0.0163432
747.815	0.0163826
747.893	0.0163432
747.971	0.0164262
748.049	0.0165359
748.128	0.0164839
748.206	0.0165369
748.284	0.0166969
748.362	0.0167718
748.440	0.0167925
748.518	0.0167557
748.596	0.0166948
748.674	0.0168122
748.753	0.0165871
748.831	0.0166508
748.909	0.0167316
748.987	0.0164461
749.065	0.0163234
749.143	0.0161155
749.221	0.0162399
749.299	0.0160320
749.378	0.0158580
749.456	0.0157543
749.534	0.0155373
749.612	0.0155775
749.690	0.0153534
749.768	0.0150804
749.846	0.0150960
749.924	0.0151050
750.003	0.0150233
750.081	0.0148957
750.159	0.0148032
750.237	0.0149077
750.315	0.0148322
750.393	0.0148769
750.471	0.0148041
750.549	0.0148733
750.628	0.0150658
750.706	0.0149395
750.784	0.0147958
750.862	0.0148885
750.940	0.0149490
751.018	0.0147508
751.096	0.0145401
751.174	0.0146533
751.253	0.0147160
751.331	0.0146810
751.409	0.0147205
751.487	0.0148849
751.565	0.0150214
751.643	0.0152052
751.721	0.0152861
751.799	0.0154852
751.878	0.0156881
751.956	0.0159740
752.034	0.0162511
752.112	0.0164240
752.190	0.0166463
752.268	0.0168740
752.346	0.0169703
752.424	0.0171523
752.503	0.0173571
752.581	0.0174406
752.659	0.0171967
752.737	0.0171695
752.815	0.0173778
752.893	0.0172563
752.971	0.0172176
753.049	0.0170902
753.128	0.0171322
753.206	0.0169435
753.284	0.0168829
753.362	0.0167813
753.440	0.0166182
753.518	0.0165530
753.596	0.0165081
753.674	0.0162503
753.753	0.0162418
753.831	0.0160614
753.909	0.0158194
753.987	0.0159658
754.065	0.0156441
754.143	0.0155684
754.221	0.0154494
754.299	0.0153434
754.378	0.0152788
754.456	0.0152930
754.534	0.0151917
754.612	0.0152791
754.690	0.0151809
754.768	0.0153580
754.846	0.0152695
754.924	0.0154130
755.003	0.0155109
755.081	0.0156461
755.159	0.0156039
755.237	0.0157388
755.315	0.0156793
755.393	0.0157817
755.471	0.0159998
755.549	0.0157514
755.628	0.0159513
755.706	0.0159705
755.784	0.0159483
755.862	0.0158679
755.940	0.0158484
756.018	0.0159490
756.096	0.0160458
756.174	0.0159496
756.253	0.0159441
756.331	0.0159145
756.409	0.0160647
756.487	0.0161012
756.565	0.0159959
756.643	0.0159736
756.721	0.0159708
756.799	0.0160751
756.878	0.0156960
756.956	0.0155984
757.034	0.0154704
757.112	0.0153136
757.190	0.0152438
757.268	0.0149702
757.346	0.0148012
757.424	0.0147247
757.503	0.0145850
757.581	0.0145921
757.659	0.0147201
757.737	0.0147125
757.815	0.0149751
757.893	0.0150526
757.971	0.0152280
758.049	0.0153436
758.128	0.0156531
758.206	0.0160170
758.284	0.0162170
758.362	0.0162944
758.440	0.0166943
758.518	0.0170192
758.596	0.0172852
758.674	0.0174768
758.753	0.0177028
758.831	0.0176899
758.909	0.0177088
758.987	0.0177498
759.065	0.0176903
759.143	0.0174915
759.221	0.0173113
759.299	0.0170485
759.378	0.0167618
759.456	0.0165620
759.534	0.0163062
759.612	0.0160822
759.690	0.0158083
759.768	0.0155117
759.846	0.0153249
759.924	0.0151453
760.003	0.0150977
760.081	0.0149657
760.159	0.0147267
760.237	0.0148005
760.315	0.0149891
760.393	0.0150107
760.471	0.0150264
760.549	0.0152146
760.628	0.0154056
760.706	0.0154884
760.784	0.0156335
760.862	0.0157379
760.940	0.0160526
761.018	0.0160167
761.096	0.0161667
761.174	0.0162707
761.253	0.0164173
761.331	0.0162969
761.409	0.0163896
761.487	0.0162858
761.565	0.0162711
761.643	0.0163197
761.721	0.0164987
761.799	0.0163844
761.878	0.0164930
761.956	0.0164258
762.034	0.0162964
762.112	0.0162953
762.190	0.0163582
762.268	0.0161951
762.346	0.0160536
762.424	0.0159262
762.503	0.0158817
762.581	0.0158861
762.659	0.0157193
762.737	0.0157327
762.815	0.0157601
762.893	0.0155912
762.971	0.0155212
763.049	0.0152764
763.128	0.0151254
763.206	0.0149149
763.284	0.0147064
763.362	0.0144481
763.440	0.0141098
763.518	0.0141282
763.596	0.0139601
763.674	0.0137389
763.753	0.0137535
763.831	0.0139079
763.909	0.0139841
763.987	0.0140602
764.065	0.0143520
764.143	0.0147296
764.221	0.0151308
764.299	0.0156438
764.378	0.0160577
764.456	0.0164516
764.534	0.0171693
764.612	0.0173250
764.690	0.0178470
764.768	0.0181799
764.846	0.0182820
764.924	0.0184930
765.003	0.0184568
765.081	0.0184346
765.159	0.0182684
765.237	0.0180854
765.315	0.0177586
765.393	0.0174677
765.471	0.0170884
765.549	0.0166001
765.628	0.0162451
765.706	0.0158546
765.784	0.0155956
765.862	0.0153285
765.940	0.0151662
766.018	0.0150043
766.096	0.0149958
766.174	0.0150018
766.253	0.0149871
766.331	0.0151203
766.409	0.0150652
766.487	0.0153275
766.565	0.0155227
766.643	0.0155156
766.721	0.0155735
766.799	0.0157930
766.878	0.0160538
766.956	0.0161116
767.034	0.0159945
767.112	0.0160746
767.190	0.0160664
767.268	0.0162437
767.346	0.0161388
767.424	0.0160851
767.503	0.0161555
767.581	0.0161118
767.659	0.0159469
767.737	0.0159971
767.815	0.0158003
767.893	0.0157636
767.971	0.0158664
768.049	0.0158418
768.128	0.0158637
768.206	0.0158342
768.284	0.0158527
768.362	0.0158331
768.440	0.0156542
768.518	0.0157324
768.596	0.0157614
768.674	0.0158205
768.753	0.0156786
768.831	0.0156554
768.909	0.0156616
768.987	0.0155917
769.065	0.0154401
769.143	0.0154586
769.221	0.0153014
769.299	0.0149949
769.378	0.0149112
769.456	0.0146620
769.534	0.0143900
769.612	0.0142501
769.690	0.0141682
769.768	0.0139758
769.846	0.0140444
769.924	0.0139591
770.003	0.0141342
770.081	0.0142377
770.159	0.0144913
770.237	0.0147498
770.315	0.0153420
770.393	0.0157487
770.471	0.0162058
770.549	0.0165823
770.628	0.0169633
770.706	0.0173518
770.784	0.0175578
770.862	0.0180966
770.940	0.0181681
771.018	0.0181646
771.096	0.0181351
771.174	0.0182092
771.253	0.0182468
771.331	0.0180307
771.409	0.0176669
771.487	0.0175745
771.565	0.0172272
771.643	0.0169476
771.721	0.0167775
771.799	0.0163171
771.878	0.0160848
771.956	0.0158322
772.034	0.0156695
772.112	0.0153345
772.190	0.0154736
772.268	0.0152953
772.346	0.0151237
772.424	0.0150581
772.503	0.0152510
772.581	0.0151100
772.659	0.0149908
772.737	0.0149612
772.815	0.0151963
772.893	0.0151496
772.971	0.0151526
773.049	0.0151108
773.128	0.0150920
773.206	0.0151108
773.284	0.0151640
773.362	0.0152303
773.440	0.0154642
773.518	0.0155650
773.596	0.0156435
773.674	0.0157732
773.753	0.0160040
773.831	0.0159680
773.909	0.0159258
773.987	0.0160977
774.065	0.0163236
774.143	0.0162709
774.221	0.0162518
774.299	0.0162642
774.378	0.0162740
774.456	0.0161490
774.534	0.0162112
774.612	0.0162991
774.690	0.0160219
774.768	0.0160087
774.846	0.0159943
774.924	0.0159289
775.003	0.0159254
775.081	0.0158345
775.159	0.0158035
775.237	0.0155530
775.315	0.0154156
775.393	0.0154987
775.471	0.0152131
775.549	0.0150568
775.628	0.0149194
775.706	0.0147478
775.784	0.0147170
775.862	0.0144984
775.940	0.0144278
776.018	0.0145672
776.096	0.0145847
776.174	0.0147277
776.253	0.0149827
776.331	0.0151532
776.409	0.0153419
776.487	0.0153578
776.565	0.0157932
776.643	0.0158837
776.721	0.0162651
776.799	0.0165456
776.878	0.0170223
776.956	0.0171998
777.034	0.0173151
777.112	0.0175243
777.190	0.0176327
777.268	0.0176245
777.346	0.0178185
777.424	0.0177448
777.503	0.0176223
777.581	0.0174794
777.659	0.0172873
777.737	0.0171133
777.815	0.0168457
777.893	0.0166973
777.971	0.0164099
778.049	0.0162151
778.128	0.0159766
778.206	0.0157974
778.284	0.0155434
778.362	0.0155837
778.440	0.0152413
778.518	0.0149881
778.596	0.0150288
778.674	0.0148628
778.753	0.0150233
778.831	0.0148150
778.909	0.0146191
778.987	0.0147536
779.065	0.0148330
779.143	0.0148499
779.221	0.0149757
779.299	0.0151507
779.378	0.0152249
779.456	0.0153516
779.534	0.0153403
779.612	0.0157479
779.690	0.0158242
779.768	0.0158952
779.846	0.0160250
779.924	0.0161343
780.003	0.0163031
780.081	0.0162344
780.159	0.0163042
780.237	0.0163670
780.315	0.0163100
780.393	0.0163884
780.471	0.0162701
780.549	0.0163139
780.628	0.0161886
780.706	0.0160753
780.784	0.0161853
780.862	0.0160970
780.940	0.0159498
781.018	0.0160474
781.096	0.0160055
781.174	0.0158408
781.253	0.0158857
781.331	0.0157556
781.409	0.0157095
781.487	0.0156072
781.565	0.0156622
781.643	0.0154765
781.721	0.0151608
781.799	0.0151323
781.878	0.0149452
781.956	0.0147264
782.034	0.0147743
782.112	0.0148888
782.190	0.0149040
782.268	0.0147565
782.346	0.0148805
782.424	0.0148965
782.503	0.0152048
782.581	0.0152408
782.659	0.0153326
782.737	0.0155612
782.815	0.0157561
782.893	0.0159272
782.971	0.0161579
783.049	0.0162842
783.128	0.0166180
783.206	0.0167794
783.284	0.0169688
783.362	0.0170365
783.440	0.0172350
783.518	0.0173385
783.596	0.0172897
783.674	0.0171671
783.753	0.0170290
783.831	0.0170226
783.909	0.0169559
783.987	0.0168497
784.065	0.0165973
784.143	0.0164626
784.221	0.0163692
784.299	0.0161742
784.378	0.0160127
784.456	0.0158999
784.534	0.0159062
784.612	0.0158425
784.690	0.0155961
784.768	0.0157463
784.846	0.0155416
784.924	0.0154198
785.003	0.0154974
785.081	0.0154948
785.159	0.0155279
785.237	0.0156222
785.315	0.0155356
785.393	0.0156747
785.471	0.0157780
785.549	0.0156727
785.628	0.0157272
785.706	0.0156281
785.784	0.0157572
785.862	0.0158567
785.940	0.0156499
786.018	0.0156699
786.096	0.0155891
786.174	0.0156693
786.253	0.0155063
786.331	0.0157339
786.409	0.0155519
786.487	0.0155823
786.565	0.0156618
786.643	0.0156369
786.721	0.0156329
786.799	0.0157978
786.878	0.0158747
786.956	0.0159731
787.034	0.0159779
787.112	0.0162128
787.190	0.0162058
787.268	0.0162470
787.346	0.0164154
787.424	0.0162689
787.503	0.0161781
787.581	0.0162611
787.659	0.0161547
787.737	0.0160918
787.815	0.0160111
787.893	0.0159087
787.971	0.0156871
788.049	0.0155036
788.128	0.0154874
788.206	0.0154276
788.284	0.0152824
788.362	0.0151531
788.440	0.0150602
788.518	0.0151759
788.596	0.0152171
788.674	0.0152812
788.753	0.0153087
788.831	0.0154668
788.909	0.0155480
788.987	0.0156050
789.065	0.0159195
789.143	0.0161081
789.221	0.0163146
789.299	0.0164454
789.378	0.0165694
789.456	0.0166948
789.534	0.0168124
789.612	0.0166924
789.690	0.0168130
789.768	0.0168709
789.846	0.0166605
789.924	0.0166553
790.003	0.0165247
790.081	0.0162740
790.159	0.0163201
790.237	0.0160805
790.315	0.0160152
790.393	0.0160587
790.471	0.0157673
790.549	0.0157265
790.628	0.0157532
790.706	0.0156666
790.784	0.0156154
790.862	0.0157158
790.940	0.0158279
791.018	0.0156757
791.096	0.0159216
791.174	0.0159859
791.253	0.0159559
791.331	0.0159259
791.409	0.0160228
791.487	0.0161408
791.565	0.0161185
791.643	0.0160648
791.721	0.0160233
791.799	0.0160477
791.878	0.0159441
791.956	0.0159544
792.034	0.0159846
792.112	0.0159029
792.190	0.0158263
792.268	0.0157990
792.346	0.0158041
792.424	0.0157224
792.503	0.0156297
792.581	0.0156660
792.659	0.0157925
792.737	0.0157220
792.815	0.0158946
792.893	0.0158021
792.971	0.0158488
793.049	0.0159570
793.128	0.0159847
793.206	0.0159125
793.284	0.0159221
793.362	0.0158588
793.440	0.0160548
793.518	0.0159061
793.596	0.0158374
793.674	0.0159103
793.753	0.0157841
793.831	0.0157333
793.909	0.0156924
793.987	0.0156438
794.065	0.0153696
794.143	0.0152142
794.221	0.0152984
794.299	0.0151952
794.378	0.0150333
794.456	0.0149930
794.534	0.0150507
794.612	0.0151684
794.690	0.0151829
794.768	0.0153020
794.846	0.0153798
794.924	0.0155064
795.003	0.0156159
795.081	0.0156284
795.159	0.0159142
795.237	0.0160840
795.315	0.0163042
795.393	0.0164849
795.471	0.0165552
795.549	0.0167381
795.628	0.0169157
795.706	0.0170029
795.784	0.0170694
795.862	0.0170805
795.940	0.0169070
796.018	0.0168230
796.096	0.0166013
796.174	0.0166434
796.253	0.0165829
796.331	0.0163866
796.409	0.0161829
796.487	0.0160508
796.565	0.0159481
796.643	0.0159951
796.721	0.0158657
796.799	0.0157148
796.878	0.0158221
796.956	0.0156618
797.034	0.0156414
797.112	0.0156801
797.190	0.0156771
797.268	0.0157115
797.346	0.0156236
797.424	0.0158082
797.503	0.0158640
797.581	0.0157581
797.659	0.0157023
797.737	0.0157175
797.815	0.0157105
797.893	0.0155804
797.971	0.0156992
798.049	0.0157829
798.128	0.0157317
798.206	0.0157423
798.284	0.0156544
798.362	0.0157505
798.440	0.0158421
798.518	0.0158495
798.596	0.0157241
798.674	0.0155973
798.753	0.0159123
798.831	0.0159422
798.909	0.0159418
798.987	0.0159273
799.065	0.0160880
799.143	0.0158163
799.221	0.0160228
799.299	0.0157819
799.378	0.0158105
799.456	0.0159351
799.534	0.0159727
799.612	0.0158437
799.690	0.0158382
799.768	0.0160078
799.846	0.0160587
799.924	0.0159103
800.003	0.0159660
800.081	0.0159323
800.159	0.0159791
800.237	0.0158429
800.315	0.0157453
800.393	0.0156752
800.471	0.0157383
800.549	0.0156477
800.628	0.0155055
800.706	0.0153357
800.784	0.0155218
800.862	0.0154993
800.940	0.0154298
801.018	0.0153767
801.096	0.0154385
801.174	0.0154303
801.253	0.0154431
801.331	0.0154124
801.409	0.0156655
801.487	0.0157602
801.565	0.0158862
801.643	0.0159335
801.721	0.0160767
801.799	0.0162186
801.878	0.0163877
801.956	0.0163855
802.034	0.0165274
802.112	0.0163700
802.190	0.0162756
802.268	0.0163795
802.346	0.0162803
802.424	0.0161890
802.503	0.0161353
802.581	0.0159768
802.659	0.0160169
802.737	0.0160154
802.815	0.0159245
802.893	0.0157066
802.971	0.0157558
803.049	0.0158303
803.128	0.0158232
803.206	0.0157451
803.284	0.0157259
803.362	0.0157539
803.440	0.0158558
803.518	0.0158083
803.596	0.0157869
803.674	0.0158712
803.753	0.0157510
803.831	0.0158168
803.909	0.0159109
803.987	0.0158349
804.065	0.0158601
804.143	0.0160096
804.221	0.0159444
804.299	0.0158375
804.378	0.0159708
804.456	0.0159753
804.534	0.0158024
804.612	0.0157353
804.690	0.0157000
804.768	0.0157879
804.846	0.0157792
804.924	0.0158491
805.003	0.0158399
805.081	0.0157478
805.159	0.0156828
805.237	0.0157114
805.315	0.0158468
805.393	0.0158659
805.471	0.0157243
805.549	0.0157942
805.628	0.0155876
805.706	0.0157468
805.784	0.0158781
805.862	0.0158790
805.940	0.0158190
806.018	0.0158598
806.096	0.0158372
806.174	0.0157842
806.253	0.0159188
806.331	0.0157465
806.409	0.0158185
806.487	0.0157920
806.565	0.0157624
806.643	0.0155806
806.721	0.0155099
806.799	0.0154723
806.878	0.0154260
806.956	0.0156559
807.034	0.0155498
807.112	0.0154985
807.190	0.0155460
807.268	0.0155383
807.346	0.0155111
807.424	0.0155937
807.503	0.0156860
807.581	0.0156344
807.659	0.0158183
807.737	0.0158719
807.815	0.0159638
807.893	0.0162329
807.971	0.0162402
808.049	0.0162904
808.128	0.0162184
808.206	0.0164935
808.284	0.0164606
808.362	0.0163967
808.440	0.0163634
808.518	0.0161331
808.596	0.0162044
808.674	0.0161852
808.753	0.0161684
808.831	0.0161459
808.909	0.0161798
808.987	0.0160515
809.065	0.0160788
809.143	0.0158630
809.221	0.0160126
809.299	0.0159336
809.378	0.0158685
809.456	0.0158896
809.534	0.0158068
809.612	0.0157298
809.690	0.0156483
809.768	0.0155980
809.846	0.0158342
809.924	0.0155653
810.003	0.0157546
810.081	0.0158500
810.159	0.0156052
810.237	0.0157632
810.315	0.0158646
810.393	0.0156664
810.471	0.0155706
810.549	0.0156997
810.628	0.0156943
810.706	0.0156783
810.784	0.0157166
810.862	0.0157748
810.940	0.0156960
811.018	0.0157726
811.096	0.0159238
811.174	0.0159818
811.253	0.0159563
811.331	0.0159141
811.409	0.0160489
811.487	0.0160446
811.565	0.0158785
811.643	0.0160576
811.721	0.0161509
811.799	0.0159620
811.878	0.0158459
811.956	0.0158994
812.034	0.0158527
812.112	0.0158936
812.190	0.0160000
812.268	0.0159595
812.346	0.0159384
812.424	0.0158169
812.503	0.0159293
812.581	0.0159060
812.659	0.0159061
812.737	0.0156937
812.815	0.0155836
812.893	0.0156985
812.971	0.0156235
813.049	0.0156096
813.128	0.0156804
813.206	0.0155954
813.284	0.0154866
813.362	0.0155337
813.440	0.0155098
813.518	0.0154758
813.596	0.0153211
813.674	0.0153929
813.753	0.0154974
813.831	0.0154994
813.909	0.0156339
813.987	0.0157435
814.065	0.0157854
814.143	0.0159082
814.221	0.0158704
814.299	0.0159653
814.378	0.0160823
814.456	0.0162820
814.534	0.0162195
814.612	0.0164607
814.690	0.0162714
814.768	0.0163235
814.846	0.0163783
814.924	0.0163181
815.003	0.0164413
815.081	0.0163225
815.159	0.0161694
815.237	0.0164220
815.315	0.0162295
815.393	0.0161858
815.471	0.0161241
815.549	0.0159462
815.628	0.0158855
815.706	0.0159760
815.784	0.0158247
815.862	0.0156549
815.940	0.0155260
816.018	0.0156560
816.096	0.0156894
816.174	0.0155881
816.253	0.0156366
816.331	0.0156564
816.409	0.0155801
816.487	0.0156004
816.565	0.0155016
816.643	0.0156341
816.721	0.0157507
816.799	0.0156778
816.878	0.0157418
816.956	0.0158018
817.034	0.0158069
817.112	0.0158003
817.190	0.0159451
817.268	0.0157970
817.346	0.0157837
817.424	0.0157928
817.503	0.0159350
817.581	0.0158303
817.659	0.0159438
817.737	0.0156953
817.815	0.0156849
817.893	0.0157470
817.971	0.0158325
818.049	0.0158031
818.128	0.0157285
818.206	0.0159097
818.284	0.0157349
818.362	0.0157552
818.440	0.0160250
818.518	0.0160676
818.596	0.0160358
818.674	0.0159711
818.753	0.0160783
818.831	0.0159200
818.909	0.0161294
818.987	0.0159017
819.065	0.0158923
819.143	0.0160661
819.221	0.0158897
819.299	0.0159617
819.378	0.0158953
819.456	0.0158167
819.534	0.0157526
819.612	0.0157350
819.690	0.0156055
819.768	0.0157518
819.846	0.0156254
819.924	0.0155701
820.003	0.0157595
820.081	0.0156761
820.159	0.0156872
820.237	0.0157256
820.315	0.0159234
820.393	0.0158996
820.471	0.0160625
820.549	0.0159711
820.628	0.0159841
820.706	0.0161265
820.784	0.0162204
820.862	0.0162544
820.940	0.0161229
821.018	0.0162529
821.096	0.0163506
821.174	0.0162433
821.253	0.0162644
821.331	0.0162253
821.409	0.0161220
821.487	0.0161581
821.565	0.0159126
821.643	0.0159382
821.721	0.0160415
821.799	0.0160503
821.878	0.0159205
821.956	0.0156739
822.034	0.0157217
822.112	0.0157910
822.190	0.0157617
822.268	0.0156474
822.346	0.0157387
822.424	0.0157425
822.503	0.0157175
822.581	0.0157590
822.659	0.0158423
822.737	0.0157514
822.815	0.0159194
822.893	0.0158649
822.971	0.0159166
823.049	0.0157932
823.128	0.0158496
823.206	0.0159178
823.284	0.0159008
823.362	0.0158324
823.440	0.0159763
823.518	0.0159283
823.596	0.0158804
823.674	0.0158372
823.753	0.0158960
823.831	0.0158472
823.909	0.0157462
823.987	0.0159042
824.065	0.0159029
824.143	0.0157198
824.221	0.0158057
824.299	0.0155802
824.378	0.0157389
824.456	0.0158118
824.534	0.0157099
824.612	0.0158520
824.690	0.0156741
824.768	0.0158220
824.846	0.0157379
824.924	0.0158517
825.003	0.0160223
825.081	0.0160770
825.159	0.0160513
825.237	0.0160464
825.315	0.0160694
825.393	0.0159745
825.471	0.0158381
825.549	0.0157813
825.628	0.0159099
825.706	0.0160096
825.784	0.0156231
825.862	0.0157328
825.940	0.0157359
826.018	0.0157134
826.096	0.0157374
826.174	0.0156830
826.253	0.0157845
826.331	0.0157617
826.409	0.0156563
826.487	0.0157013
826.565	0.0157703
826.643	0.0159470
826.721	0.0158553
826.799	0.0159695
826.878	0.0161483
826.956	0.0160901
827.034	0.0160281
827.112	0.0161805
827.190	0.0162697
827.268	0.0162650
827.346	0.0162826
827.424	0.0162114
827.503	0.0162892
827.581	0.0162284
827.659	0.0161419
827.737	0.0161343
827.815	0.0161385
827.893	0.0161485
827.971	0.0160167
828.049	0.0160448
828.128	0.0158270
828.206	0.0159239
828.284	0.0159238
828.362	0.0157793
828.440	0.0157466
828.518	0.0158416
828.596	0.0157859
828.674	0.0156716
828.753	0.0156582
828.831	0.0156860
828.909	0.0155982
828.987	0.0156930
829.065	0.0155903
829.143	0.0157195
829.221	0.0157521
829.299	0.0155829
829.378	0.0155932
829.456	0.0156285
829.534	0.0156489
829.612	0.0156545
829.690	0.0157089
829.768	0.0156063
829.846	0.0154364
829.924	0.0157492
830.003	0.0158064
830.081	0.0157312
830.159	0.0157958
830.237	0.0157065
830.315	0.0157327
830.393	0.0156351
830.471	0.0159138
830.549	0.0159304
830.628	0.0158475
830.706	0.0158349
830.784	0.0159802
830.862	0.0161050
830.940	0.0161409
831.018	0.0159929
831.096	0.0160154
831.174	0.0161415
831.253	0.0159887
831.331	0.0160357
831.409	0.0160472
831.487	0.0160184
831.565	0.0161107
831.643	0.0161050
831.721	0.0161294
831.799	0.0161008
831.878	0.0160244
831.956	0.0159473
832.034	0.0159385
832.112	0.0162014
832.190	0.0161184
832.268	0.0161172
832.346	0.0160117
832.424	0.0158823
832.503	0.0160307
832.581	0.0159296
832.659	0.0158374
832.737	0.0159723
832.815	0.0158471
832.893	0.0158002
832.971	0.0156646
833.049	0.0157967
833.128	0.0156564
833.206	0.0156682
833.284	0.0155556
833.362	0.0155854
833.440	0.0155777
833.518	0.0156312
833.596	0.0156842
833.674	0.0157153
833.753	0.0157304
833.831	0.0157298
833.909	0.0157111
833.987	0.0158459
834.065	0.0158057
834.143	0.0158088
834.221	0.0158546
834.299	0.0159399
834.378	0.0158539
834.456	0.0159308
834.534	0.0158528
834.612	0.0159895
834.690	0.0159003
834.768	0.0159318
834.846	0.0159574
834.924	0.0159431
835.003	0.0160136
835.081	0.0159951
835.159	0.0159343
835.237	0.0159367
835.315	0.0160012
835.393	0.0160540
835.471	0.0160271
835.549	0.0159566
835.628	0.0159889
835.706	0.0160928
835.784	0.0160509
835.862	0.0159670
835.940	0.0160719
836.018	0.0159509
836.096	0.0159235
836.174	0.0159058
836.253	0.0159628
836.331	0.0158984
836.409	0.0158229
836.487	0.0159693
836.565	0.0158800
836.643	0.0157755
836.721	0.0158660
836.799	0.0158070
836.878	0.0157973
836.956	0.0158051
837.034	0.0157097
837.112	0.0156664
837.190	0.0156329
837.268	0.0157438
837.346	0.0155428
837.424	0.0156216
837.503	0.0156863
837.581	0.0156754
837.659	0.0157625
837.737	0.0156038
837.815	0.0156211
837.893	0.0156114
837.971	0.0158182
838.049	0.0158537
838.128	0.0157259
838.206	0.0158031
838.284	0.0158276
838.362	0.0157672
838.440	0.0159980
838.518	0.0160622
838.596	0.0160439
838.674	0.0160424
838.753	0.0159214
838.831	0.0160593
838.909	0.0160388
838.987	0.0159760
839.065	0.0161237
839.143	0.0161808
839.221	0.0160578
839.299	0.0160147
839.378	0.0159672
839.456	0.0161086
839.534	0.0160410
839.612	0.0159003
839.690	0.0160395
839.768	0.0159940
839.846	0.0161588
839.924	0.0160400
840.003	0.0159395
840.081	0.0159541
840.159	0.0160222
840.237	0.0159316
840.315	0.0158683
840.393	0.0158854
840.471	0.0159943
840.549	0.0157977
840.628	0.0159028
840.706	0.0158758
840.784	0.0159389
840.862	0.0157198
840.940	0.0158012
841.018	0.0157598
841.096	0.0155990
841.174	0.0156777
841.253	0.0157068
841.331	0.0157230
841.409	0.0156622
841.487	0.0156101
841.565	0.0157729
841.643	0.0158149
841.721	0.0156367
841.799	0.0156863
841.878	0.0157239
841.956	0.0157632
842.034	0.0157156
842.112	0.0156676
842.190	0.0157508
842.268	0.0157524
842.346	0.0158289
842.424	0.0159673
842.503	0.0159293
842.581	0.0158208
842.659	0.0158382
842.737	0.0158246
842.815	0.0158439
842.893	0.0158128
842.971	0.0157254
843.049	0.0160583
843.128	0.0160184
843.206	0.0159204
843.284	0.0159035
843.362	0.0159442
843.440	0.0159827
843.518	0.0160114
843.596	0.0159621
843.674	0.0158916
843.753	0.0159673
843.831	0.0159170
843.909	0.0159569
843.987	0.0161546
844.065	0.0161407
844.143	0.0159639
844.221	0.0158909
844.299	0.0161521
844.378	0.0160262
844.456	0.0159834
844.534	0.0160347
844.612	0.0160728
844.690	0.0160883
844.768	0.0160832
844.846	0.0160363
844.924	0.0161452
845.003	0.0159953
845.081	0.0161071
845.159	0.0160022
845.237	0.0160585
845.315	0.0160811
845.393	0.0159924
845.471	0.0159699
845.549	0.0157908
845.628	0.0158361
845.706	0.0158959
845.784	0.0159080
845.862	0.0157692
845.940	0.0159433
846.018	0.0158952
846.096	0.0158858
846.174	0.0159898
846.253	0.0157099
846.331	0.0157463
846.409	0.0158238
846.487	0.0158512
846.565	0.0157639
846.643	0.0157377
846.721	0.0157425
846.799	0.0157726
846.878	0.0159150
846.956	0.0157224
847.034	0.0156137
847.112	0.0156235
847.190	0.0156226
847.268	0.0156612
847.346	0.0159007
847.424	0.0157974
847.503	0.0156192
847.581	0.0156073
847.659	0.0156671
847.737	0.0156258
847.815	0.0156682
847.893	0.0156187
847.971	0.0156080
848.049	0.0156535
848.128	0.0157846
848.206	0.0157278
848.284	0.0157070
848.362	0.0159682
848.440	0.0158116
848.518	0.0158797
848.596	0.0159592
848.674	0.0159480
848.753	0.0159785
848.831	0.0160031
848.909	0.0160279
848.987	0.0161125
849.065	0.0161308
849.143	0.0160701
849.221	0.0160649
849.299	0.0159323
849.378	0.0159941
849.456	0.0161048
849.534	0.0159970
849.612	0.0160295
849.690	0.0160693
849.768	0.0160909
849.846	0.0160483
849.924	0.0161578
850.003	0.0160747
850.081	0.0160577
850.159	0.0159768
850.237	0.0159940
850.315	0.0160374
850.393	0.0159541
850.471	0.0156662
850.549	0.0158658
850.628	0.0158025
850.706	0.0157710
850.784	0.0159057
850.862	0.0158186
850.940	0.0157440
851.018	0.0156859
851.096	0.0157777
851.174	0.0157891
851.253	0.0156917
851.331	0.0156266
851.409	0.0158681
851.487	0.0156357
851.565	0.0157361
851.643	0.0158498
851.721	0.0157368
851.799	0.0158431
851.878	0.0158306
851.956	0.0158620
852.034	0.0158720
852.112	0.0158411
852.190	0.0158068
852.268	0.0158512
852.346	0.0159264
852.424	0.0159590
852.503	0.0158786
852.581	0.0158527
852.659	0.0158477
852.737	0.0158945
852.815	0.0158177
852.893	0.0159645
852.971	0.0158412
853.049	0.0158056
853.128	0.0158685
853.206	0.0156358
853.284	0.0157254
853.362	0.0156886
853.440	0.0156788
853.518	0.0156723
853.596	0.0157314
853.674	0.0157146
853.753	0.0156655
853.831	0.0157412
853.909	0.0157385
853.987	0.0158222
854.065	0.0156574
854.143	0.0156034
854.221	0.0155761
854.299	0.0156983
854.378	0.0157763
854.456	0.0158231
854.534	0.0158402
854.612	0.0158399
854.690	0.0160840
854.768	0.0159531
854.846	0.0159875
854.924	0.0160695
855.003	0.0159438
855.081	0.0161339
855.159	0.0162075
855.237	0.0161047
855.315	0.0162853
855.393	0.0162661
855.471	0.0160906
855.549	0.0162467
855.628	0.0161664
855.706	0.0160641
855.784	0.0160897
855.862	0.0160022
855.940	0.0160843
856.018	0.0159070
856.096	0.0157822
856.174	0.0158446
856.253	0.0158931
856.331	0.0158131
856.409	0.0157200
856.487	0.0157656
856.565	0.0155850
856.643	0.0155888
856.721	0.0156816
856.799	0.0157902
856.878	0.0156969
856.956	0.0156537
857.034	0.0157344
857.112	0.0157211
857.190	0.0157449
857.268	0.0158199
857.346	0.0158356
857.424	0.0157948
857.503	0.0157384
857.581	0.0158250
857.659	0.0158669
857.737	0.0158098
857.815	0.0158865
857.893	0.0157802
857.971	0.0158113
858.049	0.0159316
858.128	0.0158553
858.206	0.0158179
858.284	0.0158509
858.362	0.0158834
858.440	0.0158701
858.518	0.0158421
858.596	0.0159035
858.674	0.0160184
858.753	0.0158777
858.831	0.0158502
858.909	0.0158084
858.987	0.0158966
859.065	0.0158191
859.143	0.0158159
859.221	0.0159440
859.299	0.0157607
859.378	0.0158321
859.456	0.0158536
859.534	0.0157244
859.612	0.0157378
859.690	0.0157135
859.768	0.0156501
859.846	0.0157133
859.924	0.0156215
860.003	0.0156698
860.081	0.0157040
860.159	0.0155572
860.237	0.0156593
860.315	0.0155531
860.393	0.0155145
860.471	0.0155548
860.549	0.0157241
860.628	0.0158735
860.706	0.0157259
860.784	0.0159680
860.862	0.0159737
860.940	0.0157221
861.018	0.0159215
861.096	0.0159917
861.174	0.0159492
861.253	0.0160155
861.331	0.0161197
861.409	0.0161295
861.487	0.0161276
861.565	0.0160646
861.643	0.0160483
861.721	0.0162579
861.799	0.0160934
861.878	0.0161564
861.956	0.0159342
862.034	0.0160580
862.112	0.0159860
862.190	0.0161216
862.268	0.0159499
862.346	0.0159940
862.424	0.0160085
862.503	0.0158666
862.581	0.0159016
862.659	0.0159304
862.737	0.0157298
862.815	0.0157873
862.893	0.0157990
862.971	0.0157703
863.049	0.0158747
863.128	0.0157580
863.206	0.0157449
863.284	0.0157585
863.362	0.0158121
863.440	0.0157128
863.518	0.0156917
863.596	0.0156792
863.674	0.0157685
863.753	0.0158337
863.831	0.0157598
863.909	0.0157531
863.987	0.0158377
864.065	0.0157465
864.143	0.0157482
864.221	0.0156686
864.299	0.0157983
864.378	0.0157898
864.456	0.0157867
864.534	0.0157854
864.612	0.0158013
864.690	0.0156417
864.768	0.0157500
864.846	0.0158577
864.924	0.0158737
865.003	0.0157125
865.081	0.0157610
865.159	0.0158789
865.237	0.0158432
865.315	0.0157564
865.393	0.0157857
865.471	0.0159068
865.549	0.0158900
865.628	0.0156919
865.706	0.0157559
865.784	0.0155787
865.862	0.0157063
865.940	0.0157275
866.018	0.0157759
866.096	0.0157135
866.174	0.0155309
866.253	0.0156986
866.331	0.0158963
866.409	0.0156706
866.487	0.0155550
866.565	0.0157405
866.643	0.0157140
866.721	0.0155653
866.799	0.0157866
866.878	0.0158105
866.956	0.0158260
867.034	0.0160055
867.112	0.0159239
867.190	0.0159007
867.268	0.0161155
867.346	0.0161765
867.424	0.0160458
867.503	0.0162305
867.581	0.0162109
867.659	0.0161916
867.737	0.0162016
867.815	0.0162814
867.893	0.0162573
867.971	0.0162471
868.049	0.0161539
868.128	0.0162589
868.206	0.0163316
868.284	0.0162372
868.362	0.0161806
868.440	0.0159566
868.518	0.0158697
868.596	0.0158308
868.674	0.0158006
868.753	0.0158567
868.831	0.0157858
868.909	0.0157888
868.987	0.0156862
869.065	0.0155870
869.143	0.0156550
869.221	0.0155743
869.299	0.0155833
869.378	0.0155029
869.456	0.0156449
869.534	0.0155503
869.612	0.0156332
869.690	0.0155663
869.768	0.0155517
869.846	0.0156159
869.924	0.0156993
870.003	0.0155788
870.081	0.0156361
870.159	0.0156252
870.237	0.0158185
870.315	0.0158310
870.393	0.0158251
870.471	0.0156373
870.549	0.0157435
870.628	0.0158446
870.706	0.0159292
870.784	0.0158962
870.862	0.0158992
870.940	0.0159015
871.018	0.0158974
871.096	0.0159389
871.174	0.0159098
871.253	0.0158550
871.331	0.0158942
871.409	0.0159562
871.487	0.0158650
871.565	0.0159138
871.643	0.0158772
871.721	0.0158265
871.799	0.0158630
871.878	0.0157278
871.956	0.0157941
872.034	0.0158331
872.112	0.0156317
872.190	0.0157169
872.268	0.0156099
872.346	0.0157025
872.424	0.0157808
872.503	0.0155603
872.581	0.0157300
872.659	0.0155207
872.737	0.0155984
872.815	0.0157654
872.893	0.0157606
872.971	0.0157642
873.049	0.0156409
873.128	0.0158006
873.206	0.0158953
873.284	0.0158298
873.362	0.0159364
873.440	0.0161475
873.518	0.0159257
873.596	0.0159983
873.674	0.0161600
873.753	0.0159666
873.831	0.0161716
873.909	0.0162578
873.987	0.0160555
874.065	0.0161150
874.143	0.0162194
874.221	0.0162027
874.299	0.0161079
874.378	0.0160244
874.456	0.0159685
874.534	0.0160497
874.612	0.0159947
874.690	0.0158788
874.768	0.0158734
874.846	0.0157604
874.924	0.0158350
875.003	0.0158787
875.081	0.0157999
875.159	0.0157944
875.237	0.0157749
875.315	0.0157169
875.393	0.0156116
875.471	0.0157607
875.549	0.0156819
875.628	0.0157384
875.706	0.0154941
875.784	0.0156564
875.862	0.0157562
875.940	0.0156959
876.018	0.0156058
876.096	0.0156390
876.174	0.0157501
876.253	0.0158037
876.331	0.0156494
876.409	0.0158434
876.487	0.0157899
876.565	0.0157692
876.643	0.0158245
876.721	0.0158236
876.799	0.0159350
876.878	0.0158199
876.956	0.0159417
877.034	0.0159867
877.112	0.0158374
877.190	0.0157321
877.268	0.0159879
877.346	0.0158291
877.424	0.0158129
877.503	0.0158147
877.581	0.0158379
877.659	0.0158317
877.737	0.0156995
877.815	0.0157619
877.893	0.0157610
877.971	0.0156136
878.049	0.0156974
878.128	0.0158295
878.206	0.0157752
878.284	0.0157463
878.362	0.0156367
878.440	0.0157160
878.518	0.0157454
878.596	0.0156516
878.674	0.0157640
878.753	0.0158293
878.831	0.0158727
878.909	0.0156332
878.987	0.0158742
879.065	0.0157880
879.143	0.0157349
879.221	0.0158095
879.299	0.0159191
879.378	0.0159117
879.456	0.0158004
879.534	0.0160069
879.612	0.0160693
879.690	0.0161418
879.768	0.0159969
879.846	0.0159475
879.924	0.0160457
880.003	0.0161154
880.081	0.0159769
880.159	0.0160166
880.237	0.0162273
880.315	0.0160188
880.393	0.0159948
880.471	0.0160139
880.549	0.0159155
880.628	0.0160628
880.706	0.0160910
880.784	0.0160970
880.862	0.0159562
880.940	0.0160021
881.018	0.0159272
881.096	0.0159240
881.174	0.0158549
881.253	0.0158740
881.331	0.0157339
881.409	0.0159479
881.487	0.0159992
881.565	0.0158746
881.643	0.0158220
881.721	0.0158567
881.799	0.0157897
881.878	0.0157844
881.956	0.0157675
882.034	0.0157881
882.112	0.0158377
882.190	0.0157399
882.268	0.0157551
882.346	0.0156787
882.424	0.0155766
882.503	0.0156599
882.581	0.0156561
882.659	0.0156158
882.737	0.0157115
882.815	0.0156046
882.893	0.0157513
882.971	0.0157026
883.049	0.0156703
883.128	0.0157423
883.206	0.0157819
883.284	0.0158865
883.362	0.0158585
883.440	0.0157984
883.518	0.0158745
883.596	0.0160093
883.674	0.0158958
883.753	0.0158739
883.831	0.0158965
883.909	0.0158203
883.987	0.0158817
884.065	0.0159666
884.143	0.0159482
884.221	0.0157932
884.299	0.0159426
884.378	0.0158897
884.456	0.0159032
884.534	0.0160114
884.612	0.0158258
884.690	0.0159043
884.768	0.0159579
884.846	0.0159648
884.924	0.0158530
885.003	0.0158035
885.081	0.0159060
885.159	0.0157568
885.237	0.0158889
885.315	0.0159971
885.393	0.0158592
885.471	0.0159493
885.549	0.0159113
885.628	0.0159346
885.706	0.0159450
885.784	0.0160011
885.862	0.0159830
885.940	0.0159878
886.018	0.0159721
886.096	0.0160577
886.174	0.0159881
886.253	0.0159609
886.331	0.0158318
886.409	0.0157903
886.487	0.0158781
886.565	0.0160174
886.643	0.0159297
886.721	0.0158913
886.799	0.0159700
886.878	0.0159179
886.956	0.0159167
887.034	0.0159324
887.112	0.0158519
887.190	0.0159251
887.268	0.0159528
887.346	0.0158146
887.424	0.0157137
887.503	0.0158279
887.581	0.0158617
887.659	0.0158172
887.737	0.0156444
887.815	0.0156384
887.893	0.0157125
887.971	0.0157523
888.049	0.0156213
888.128	0.0157961
888.206	0.0157992
888.284	0.0156901
888.362	0.0156059
888.440	0.0156732
888.518	0.0156712
888.596	0.0157166
888.674	0.0155843
888.753	0.0157186
888.831	0.0156989
888.909	0.0157304
888.987	0.0158401
889.065	0.0157938
889.143	0.0157071
889.221	0.0158699
889.299	0.0158778
889.378	0.0158215
889.456	0.0158801
889.534	0.0158591
889.612	0.0158526
889.690	0.0159756
889.768	0.0158755
889.846	0.0159184
889.924	0.0159235
890.003	0.0160115
890.081	0.0157932
890.159	0.0159613
890.237	0.0159293
890.315	0.0159934
890.393	0.0159170
890.471	0.0160078
890.549	0.0157993
890.628	0.0158434
890.706	0.0159422
890.784	0.0158485
890.862	0.0158415
890.940	0.0158448
891.018	0.0158239
891.096	0.0158437
891.174	0.0159048
891.253	0.0158158
891.331	0.0158128
891.409	0.0159904
891.487	0.0158620
891.565	0.0158706
891.643	0.0159240
891.721	0.0158871
891.799	0.0158555
891.878	0.0159107
891.956	0.0158994
892.034	0.0160345
892.112	0.0157130
892.190	0.0157338
892.268	0.0159642
892.346	0.0159521
892.424	0.0157044
892.503	0.0158272
892.581	0.0157673
892.659	0.0157725
892.737	0.0159190
892.815	0.0157949
892.893	0.0158679
892.971	0.0158591
893.049	0.0158219
893.128	0.0157567
893.206	0.0158086
893.284	0.0158571
893.362	0.0157199
893.440	0.0157997
893.518	0.0157891
893.596	0.0157713
893.674	0.0157304
893.753	0.0156751
893.831	0.0157211
893.909	0.0159450
893.987	0.0157230
894.065	0.0158482
894.143	0.0158894
894.221	0.0158150
894.299	0.0158214
894.378	0.0157360
894.456	0.0157623
894.534	0.0157509
894.612	0.0158040
894.690	0.0159924
894.768	0.0158152
894.846	0.0158507
894.924	0.0158094
895.003	0.0158304
895.081	0.0158428
895.159	0.0158611
895.237	0.0158020
895.315	0.0156975
895.393	0.0158420
895.471	0.0158424
895.549	0.0159411
895.628	0.0158600
895.706	0.0159186
895.784	0.0158836
895.862	0.0158854
895.940	0.0159560
896.018	0.0159348
896.096	0.0158802
896.174	0.0158079
896.253	0.0158039
896.331	0.0158064
896.409	0.0158324
896.487	0.0159008
896.565	0.0158527
896.643	0.0159002
896.721	0.0157933
896.799	0.0157533
896.878	0.0159775
896.956	0.0159267
897.034	0.0156855
897.112	0.0158455
897.190	0.0159138
897.268	0.0158893
897.346	0.0157883
897.424	0.0157998
897.503	0.0159241
897.581	0.0160300
897.659	0.0159918
897.737	0.0159489
897.815	0.0160235
897.893	0.0161018
897.971	0.0160310
898.049	0.0158318
898.128	0.0159402
898.206	0.0159860
898.284	0.0158289
898.362	0.0158743
898.440	0.0158511
898.518	0.0158510
898.596	0.0159384
898.674	0.0158459
898.753	0.0156705
898.831	0.0157885
898.909	0.0158798
898.987	0.0158765
899.065	0.0158350
899.143	0.0157613
899.221	0.0157343
899.299	0.0157384
899.378	0.0157469
899.456	0.0156764
899.534	0.0158270
899.612	0.0158571
899.690	0.0157175
899.768	0.0159090
899.846	0.0160422
899.924	0.0159431
900.003	0.0158846
900.081	0.0158395
900.159	0.0158177
900.237	0.0158743
900.315	0.0158230
900.393	0.0159514
900.471	0.0159601
900.549	0.0158825
900.628	0.0159378
900.706	0.0159483
900.784	0.0158579
900.862	0.0158311
900.940	0.0158308
901.018	0.0157778
901.096	0.0158955
901.174	0.0159653
901.253	0.0159045
901.331	0.0158535
901.409	0.0158369
901.487	0.0158769
901.565	0.0158298
901.643	0.0158501
901.721	0.0160193
901.799	0.0158749
901.878	0.0158028
901.956	0.0157841
902.034	0.0159724
902.112	0.0158142
902.190	0.0159131
902.268	0.0157629
902.346	0.0157895
902.424	0.0157915
902.503	0.0158685
902.581	0.0158525
902.659	0.0159663
902.737	0.0158887
902.815	0.0159693
902.893	0.0158897
902.971	0.0159309
903.049	0.0158833
903.128	0.0158269
903.206	0.0158251
903.284	0.0160932
903.362	0.0157915
903.440	0.0159015
903.518	0.0159222
903.596	0.0158919
903.674	0.0159933
903.753	0.0158754
903.831	0.0159025
903.909	0.0157603
903.987	0.0158873
904.065	0.0158891
904.143	0.0158466
904.221	0.0157993
904.299	0.0158084
904.378	0.0159613
904.456	0.0158385
904.534	0.0159082
904.612	0.0158897
904.690	0.0157479
904.768	0.0158300
904.846	0.0158016
904.924	0.0157684
905.003	0.0159241
905.081	0.0157973
905.159	0.0157162
905.237	0.0158013
905.315	0.0158726
905.393	0.0158330
905.471	0.0157922
905.549	0.0158813
905.628	0.0158841
905.706	0.0159222
905.784	0.0158607
905.862	0.0158395
905.940	0.0158228
906.018	0.0157819
906.096	0.0158905
906.174	0.0157880
906.253	0.0158577
906.331	0.0159739
906.409	0.0158342
906.487	0.0158212
906.565	0.0159093
906.643	0.0158424
906.721	0.0158091
906.799	0.0158752
906.878	0.0158278
906.956	0.0157037
907.034	0.0159386
907.112	0.0159723
907.190	0.0158766
907.268	0.0159901
907.346	0.0159165
907.424	0.0157970
907.503	0.0159174
907.581	0.0158943
907.659	0.0159059
907.737	0.0158685
907.815	0.0156840
907.893	0.0159721
907.971	0.0160546
908.049	0.0159045
908.128	0.0158443
908.206	0.0159262
908.284	0.0160004
908.362	0.0159156
908.440	0.0159274
908.518	0.0159668
908.596	0.0160270
908.674	0.0160811
908.753	0.0159235
908.831	0.0159521
908.909	0.0161201
908.987	0.0159885
909.065	0.0159967
909.143	0.0160355
909.221	0.0160546
909.299	0.0160342
909.378	0.0160093
909.456	0.0160379
909.534	0.0159579
909.612	0.0159190
909.690	0.0158825
909.768	0.0158633
909.846	0.0157594
909.924	0.0159227
910.003	0.0158336
910.081	0.0157162
910.159	0.0158631
910.237	0.0159016
910.315	0.0157968
910.393	0.0158385
910.471	0.0157846
910.549	0.0158466
910.628	0.0157984
910.706	0.0157200
910.784	0.0159281
910.862	0.0158081
910.940	0.0156529
911.018	0.0157567
911.096	0.0156818
911.174	0.0158002
911.253	0.0159249
911.331	0.0157420
911.409	0.0158109
911.487	0.0157867
911.565	0.0158237
911.643	0.0158396
911.721	0.0158250
911.799	0.0158009
911.878	0.0158945
911.956	0.0158290
912.034	0.0159184
912.112	0.0158841
912.190	0.0158508
912.268	0.0158504
912.346	0.0159099
912.424	0.0159206
912.503	0.0158765
912.581	0.0158596
912.659	0.0159921
912.737	0.0160532
912.815	0.0158920
912.893	0.0158002
912.971	0.0157817
913.049	0.0158353
913.128	0.0159816
913.206	0.0158019
913.284	0.0158443
913.362	0.0157606
913.440	0.0158363
913.518	0.0159481
913.596	0.0157793
913.674	0.0157265
913.753	0.0157442
913.831	0.0159077
913.909	0.0159418
913.987	0.0158659
914.065	0.0157478
914.143	0.0158924
914.221	0.0158804
914.299	0.0158685
914.378	0.0161046
914.456	0.0160255
914.534	0.0159956
914.612	0.0159996
914.690	0.0160824
914.768	0.0160452
914.846	0.0160251
914.924	0.0160584
915.003	0.0160247
915.081	0.0160321
915.159	0.0160014
915.237	0.0160403
915.315	0.0159585
915.393	0.0159021
915.471	0.0161578
915.549	0.0158973
915.628	0.0158117
915.706	0.0159599
915.784	0.0158121
915.862	0.0158135
915.940	0.0159567
916.018	0.0157481
916.096	0.0157498
916.174	0.0157140
916.253	0.0157177
916.331	0.0157715
916.409	0.0158236
916.487	0.0156660
916.565	0.0159811
916.643	0.0157997
916.721	0.0157278
916.799	0.0157056
916.878	0.0157762
916.956	0.0158447
917.034	0.0157571
917.112	0.0157227
917.190	0.0157127
917.268	0.0157566
917.346	0.0157017
917.424	0.0156232
917.503	0.0158276
917.581	0.0158501
917.659	0.0157829
917.737	0.0158828
917.815	0.0159171
917.893	0.0157798
917.971	0.0159684
918.049	0.0160526
918.128	0.0160397
918.206	0.0159410
918.284	0.0158788
918.362	0.0159115
918.440	0.0158530
918.518	0.0158611
918.596	0.0158197
918.674	0.0158331
918.753	0.0158866
918.831	0.0158931
918.909	0.0157999
918.987	0.0158424
919.065	0.0157770
919.143	0.0158908
919.221	0.0158104
919.299	0.0159414
919.378	0.0158906
919.456	0.0159179
919.534	0.0159454
919.612	0.0160121
919.690	0.0158886
919.768	0.0159659
919.846	0.0158232
919.924	0.0158271
920.003	0.0160056
920.081	0.0158543
920.159	0.0159394
920.237	0.0158647
920.315	0.0157577
920.393	0.0157751
920.471	0.0159126
920.549	0.0159319
920.628	0.0159218
920.706	0.0158275
920.784	0.0158902
920.862	0.0159781
920.940	0.0159180
921.018	0.0159612
921.096	0.0159335
921.174	0.0159015
921.253	0.0160892
921.331	0.0159877
921.409	0.0159904
921.487	0.0160204
921.565	0.0160146
921.643	0.0160079
921.721	0.0159978
921.799	0.0159575
921.878	0.0159274
921.956	0.0159554
922.034	0.0160661
922.112	0.0159708
922.190	0.0159639
922.268	0.0158841
922.346	0.0158931
922.424	0.0159251
922.503	0.0158302
922.581	0.0158862
922.659	0.0158347
922.737	0.0156144
922.815	0.0157568
922.893	0.0158286
922.971	0.0158110
923.049	0.0158412
923.128	0.0157716
923.206	0.0158150
923.284	0.0158442
923.362	0.0158019
923.440	0.0157392
923.518	0.0159357
923.596	0.0157854
923.674	0.0158849
923.753	0.0158324
923.831	0.0156696
923.909	0.0158685
923.987	0.0159128
924.065	0.0158114
924.143	0.0159459
924.221	0.0158965
924.299	0.0159328
924.378	0.0158081
924.456	0.0158098
924.534	0.0157819
924.612	0.0158997
924.690	0.0159212
924.768	0.0159886
924.846	0.0158791
924.924	0.0159082
925.003	0.0160016
925.081	0.0157653
925.159	0.0159259
925.237	0.0159329
925.315	0.0158257
925.393	0.0159705
925.471	0.0156853
925.549	0.0157601
925.628	0.0158137
925.706	0.0159611
925.784	0.0158469
925.862	0.0159435
925.940	0.0159666
926.018	0.0157902
926.096	0.0158775
926.174	0.0159054
926.253	0.0158777
926.331	0.0158524
926.409	0.0158098
926.487	0.0157363
926.565	0.0159444
926.643	0.0159879
926.721	0.0158362
926.799	0.0159148
926.878	0.0157187
926.956	0.0157934
927.034	0.0158772
927.112	0.0157208
927.190	0.0157979
927.268	0.0158833
927.346	0.0158634
927.424	0.0158817
927.503	0.0159833
927.581	0.0157297
927.659	0.0159220
927.737	0.0159424
927.815	0.0158372
927.893	0.0158335
927.971	0.0158111
928.049	0.0158567
928.128	0.0158804
928.206	0.0157229
928.284	0.0157959
928.362	0.0158728
928.440	0.0158138
928.518	0.0157018
928.596	0.0156828
928.674	0.0157523
928.753	0.0158404
928.831	0.0159288
928.909	0.0159313
928.987	0.0160077
929.065	0.0159747
929.143	0.0160460
929.221	0.0159271
929.299	0.0160613
929.378	0.0159448
929.456	0.0161072
929.534	0.0160172
929.612	0.0159123
929.690	0.0158249
929.768	0.0159512
929.846	0.0158764
929.924	0.0157817
930.003	0.0157092
930.081	0.0158281
930.159	0.0158271
930.237	0.0157101
930.315	0.0159341
930.393	0.0158183
930.471	0.0157955
930.549	0.0157909
930.628	0.0158592
930.706	0.0158583
930.784	0.0158083
930.862	0.0159161
930.940	0.0158147
931.018	0.0157879
931.096	0.0158485
931.174	0.0157358
931.253	0.0157803
931.331	0.0157260
931.409	0.0157545
931.487	0.0159223
931.565	0.0157503
931.643	0.0157668
931.721	0.0158646
931.799	0.0157688
931.878	0.0157987
931.956	0.0158278
932.034	0.0158454
932.112	0.0159544
932.190	0.0159135
932.268	0.0160129
932.346	0.0159103
932.424	0.0158328
932.503	0.0159566
932.581	0.0159911
932.659	0.0157944
932.737	0.0158765
932.815	0.0159059
932.893	0.0159495
932.971	0.0158537
933.049	0.0159315
933.128	0.0158832
933.206	0.0157573
933.284	0.0158627
933.362	0.0157922
933.440	0.0159263
933.518	0.0159772
933.596	0.0160391
933.674	0.0159573
933.753	0.0157674
933.831	0.0158743
933.909	0.0159447
933.987	0.0159493
934.065	0.0159169
934.143	0.0159413
934.221	0.0160023
934.299	0.0160104
934.378	0.0159355
934.456	0.0159833
934.534	0.0159303
934.612	0.0159796
934.690	0.0158840
934.768	0.0158674
934.846	0.0158271
934.924	0.0158009
935.003	0.0159723
935.081	0.0157816
935.159	0.0158440
935.237	0.0158989
935.315	0.0159930
935.393	0.0159048
935.471	0.0160260
935.549	0.0160321
935.628	0.0160041
935.706	0.0158865
935.784	0.0159612
935.862	0.0158613
935.940	0.0159726
936.018	0.0160405
936.096	0.0159984
936.174	0.0159387
936.253	0.0158681
936.331	0.0158999
936.409	0.0159240
936.487	0.0157878
936.565	0.0158628
936.643	0.0156793
936.721	0.0157036
936.799	0.0157954
936.878	0.0157526
936.956	0.0156324
937.034	0.0156715
937.112	0.0157639
937.190	0.0158550
937.268	0.0157571
937.346	0.0158598
937.424	0.0158591
937.503	0.0157310
937.581	0.0156473
937.659	0.0159065
937.737	0.0159337
937.815	0.0159365
937.893	0.0160083
937.971	0.0160429
938.049	0.0158275
938.128	0.0159367
938.206	0.0160014
938.284	0.0160419
938.362	0.0160156
938.440	0.0161668
938.518	0.0159457
938.596	0.0158848
938.674	0.0159980
938.753	0.0160596
938.831	0.0159827
938.909	0.0159222
938.987	0.0157466
939.065	0.0158832
939.143	0.0159776
939.221	0.0158631
939.299	0.0160893
939.378	0.0159161
939.456	0.0159241
939.534	0.0158666
939.612	0.0159150
939.690	0.0157365
939.768	0.0157848
939.846	0.0159346
939.924	0.0159511
940.003	0.0157993
940.081	0.0159116
940.159	0.0158459
940.237	0.0157906
940.315	0.0159451
940.393	0.0160092
940.471	0.0158881
940.549	0.0159053
940.628	0.0159800
940.706	0.0159323
940.784	0.0158739
940.862	0.0158603
940.940	0.0156620
941.018	0.0158544
941.096	0.0159358
941.174	0.0157764
941.253	0.0158128
941.331	0.0158450
941.409	0.0157151
941.487	0.0157574
941.565	0.0158244
941.643	0.0158534
941.721	0.0157552
941.799	0.0159703
941.878	0.0159499
941.956	0.0157839
942.034	0.0158965
942.112	0.0159514
942.190	0.0159598
942.268	0.0158334
942.346	0.0157626
942.424	0.0157133
942.503	0.0157713
942.581	0.0156454
942.659	0.0157150
942.737	0.0158673
942.815	0.0157901
942.893	0.0156738
942.971	0.0157914
943.049	0.0157691
943.128	0.0158813
943.206	0.0158597
943.284	0.0157544
943.362	0.0158099
943.440	0.0158207
943.518	0.0159545
943.596	0.0159472
943.674	0.0158263
943.753	0.0158232
943.831	0.0159306
943.909	0.0159212
943.987	0.0160001
944.065	0.0158093
944.143	0.0160442
944.221	0.0159341
944.299	0.0158361
944.378	0.0158913
944.456	0.0159905
944.534	0.0160771
944.612	0.0159161
944.690	0.0160456
944.768	0.0161111
944.846	0.0159673
944.924	0.0159132
945.003	0.0159006
945.081	0.0159098
945.159	0.0159158
945.237	0.0157131
945.315	0.0157507
945.393	0.0157941
945.471	0.0157806
945.549	0.0157426
945.628	0.0157561
945.706	0.0157574
945.784	0.0155651
945.862	0.0157213
945.940	0.0156490
946.018	0.0157435
946.096	0.0157948
946.174	0.0158568
946.253	0.0157567
946.331	0.0157713
946.409	0.0157899
946.487	0.0158219
946.565	0.0157513
946.643	0.0158218
946.721	0.0158360
946.799	0.0158312
946.878	0.0157992
946.956	0.0158200
947.034	0.0159207
947.112	0.0159997
947.190	0.0159417
947.268	0.0159236
947.346	0.0159715
947.424	0.0159052
947.503	0.0159385
947.581	0.0160442
947.659	0.0159065
947.737	0.0157353
947.815	0.0158354
947.893	0.0159627
947.971	0.0159094
948.049	0.0159743
948.128	0.0157040
948.206	0.0158333
948.284	0.0159734
948.362	0.0159074
948.440	0.0157742
948.518	0.0157064
948.596	0.0157828
948.674	0.0158480
948.753	0.0157553
948.831	0.0158977
948.909	0.0157764
948.987	0.0157828
949.065	0.0156164
949.143	0.0158001
949.221	0.0157908
949.299	0.0158273
949.378	0.0158237
949.456	0.0157851
949.534	0.0156738
949.612	0.0157803
949.690	0.0159161
949.768	0.0158730
949.846	0.0157194
949.924	0.0157623
