06/29/2022	23:03:41	Ver.	4.1	UNKNOWN
Optical Delay	630.002507	Delta X		0.078125	Sweeps	1	Scan Rate	0/0
Coordinates	Axis 1	NaN	Axis 2	NaN	Axis 3	NaN	Axis 4	NaN	Axis 5	NaN	Axis 6	0.000000
TX Power	0.000000	RX Power	0.000000

630.003	0.0160976
630.081	0.0161246
630.159	0.0160648
630.237	0.0160590
630.315	0.0160698
630.393	0.0161244
630.471	0.0160715
630.549	0.0160970
630.628	0.0161202
630.706	0.0161421
630.784	0.0161073
630.862	0.0160391
630.940	0.0160248
631.018	0.0160577
631.096	0.0161646
631.174	0.0160081
631.253	0.0160877
631.331	0.0160091
631.409	0.0161831
631.487	0.0162352
631.565	0.0160787
631.643	0.0161189
631.721	0.0161635
631.799	0.0161409
631.878	0.0161327
631.956	0.0160222
632.034	0.0160931
632.112	0.0161185
632.190	0.0161470
632.268	0.0161623
632.346	0.0161467
632.424	0.0159871
632.503	0.0160587
632.581	0.0161030
632.659	0.0161780
632.737	0.0159750
632.815	0.0160780
632.893	0.0160761
632.971	0.0160792
633.049	0.0160843
633.128	0.0161816
633.206	0.0161200
633.284	0.0161290
633.362	0.0161669
633.440	0.0161871
633.518	0.0161342
633.596	0.0160034
633.674	0.0161229
633.753	0.0160087
633.831	0.0160979
633.909	0.0161691
633.987	0.0161677
634.065	0.0160499
634.143	0.0161814
634.221	0.0161578
634.299	0.0161752
634.378	0.0160269
634.456	0.0161111
634.534	0.0161159
634.612	0.0160284
634.690	0.0162643
634.768	0.0160858
634.846	0.0160529
634.924	0.0160668
635.003	0.0160506
635.081	0.0162312
635.159	0.0162676
635.237	0.0159462
635.315	0.0160873
635.393	0.0160043
635.471	0.0160564
635.549	0.0162223
635.628	0.0161317
635.706	0.0161266
635.784	0.0161923
635.862	0.0161049
635.940	0.0161716
636.018	0.0161733
636.096	0.0161533
636.174	0.0160588
636.253	0.0159892
636.331	0.0161746
636.409	0.0161436
636.487	0.0161107
636.565	0.0161265
636.643	0.0160938
636.721	0.0160450
636.799	0.0162257
636.878	0.0161222
636.956	0.0161191
637.034	0.0161347
637.112	0.0160358
637.190	0.0160051
637.268	0.0160706
637.346	0.0161227
637.424	0.0161047
637.503	0.0160596
637.581	0.0161832
637.659	0.0161256
637.737	0.0160941
637.815	0.0162598
637.893	0.0160467
637.971	0.0159614
638.049	0.0160488
638.128	0.0160462
638.206	0.0161247
638.284	0.0161379
638.362	0.0161184
638.440	0.0159673
638.518	0.0160914
638.596	0.0161781
638.674	0.0161749
638.753	0.0159660
638.831	0.0160693
638.909	0.0161549
638.987	0.0160640
639.065	0.0161514
639.143	0.0159801
639.221	0.0160788
639.299	0.0161588
639.378	0.0160934
639.456	0.0160977
639.534	0.0160128
639.612	0.0160621
639.690	0.0160065
639.768	0.0161676
639.846	0.0160729
639.924	0.0161255
640.003	0.0160526
640.081	0.0160939
640.159	0.0160880
640.237	0.0160894
640.315	0.0160489
640.393	0.0161879
640.471	0.0160570
640.549	0.0161782
640.628	0.0161288
640.706	0.0161554
640.784	0.0160966
640.862	0.0160181
640.940	0.0160397
641.018	0.0161606
641.096	0.0161468
641.174	0.0160711
641.253	0.0160735
641.331	0.0161123
641.409	0.0160625
641.487	0.0161127
641.565	0.0160126
641.643	0.0161037
641.721	0.0160360
641.799	0.0161012
641.878	0.0160687
641.956	0.0161880
642.034	0.0161286
642.112	0.0161053
642.190	0.0161578
642.268	0.0160828
642.346	0.0160416
642.424	0.0159986
642.503	0.0159835
642.581	0.0161066
642.659	0.0159627
642.737	0.0161626
642.815	0.0160536
642.893	0.0160168
642.971	0.0163172
643.049	0.0160951
643.128	0.0161698
643.206	0.0161160
643.284	0.0161366
643.362	0.0161436
643.440	0.0160143
643.518	0.0159936
643.596	0.0162720
643.674	0.0160055
643.753	0.0160859
643.831	0.0161694
643.909	0.0162495
643.987	0.0160889
644.065	0.0160977
644.143	0.0160616
644.221	0.0161287
644.299	0.0161237
644.378	0.0160220
644.456	0.0161053
644.534	0.0161565
644.612	0.0161963
644.690	0.0161144
644.768	0.0161514
644.846	0.0161069
644.924	0.0161308
645.003	0.0160780
645.081	0.0160424
645.159	0.0160017
645.237	0.0161293
645.315	0.0161388
645.393	0.0160578
645.471	0.0160863
645.549	0.0160574
645.628	0.0160233
645.706	0.0160760
645.784	0.0161791
645.862	0.0160342
645.940	0.0161105
646.018	0.0161006
646.096	0.0160368
646.174	0.0160609
646.253	0.0161311
646.331	0.0161021
646.409	0.0161568
646.487	0.0161323
646.565	0.0159925
646.643	0.0159651
646.721	0.0160693
646.799	0.0160535
646.878	0.0160529
646.956	0.0161661
647.034	0.0161169
647.112	0.0159975
647.190	0.0160346
647.268	0.0160385
647.346	0.0159588
647.424	0.0161106
647.503	0.0161755
647.581	0.0161089
647.659	0.0161253
647.737	0.0160905
647.815	0.0160802
647.893	0.0161356
647.971	0.0161198
648.049	0.0159348
648.128	0.0159608
648.206	0.0159833
648.284	0.0160206
648.362	0.0160033
648.440	0.0161416
648.518	0.0161604
648.596	0.0161359
648.674	0.0160026
648.753	0.0159496
648.831	0.0161207
648.909	0.0161507
648.987	0.0160432
649.065	0.0159898
649.143	0.0161190
649.221	0.0159478
649.299	0.0158945
649.378	0.0160670
649.456	0.0160631
649.534	0.0161414
649.612	0.0160723
649.690	0.0160438
649.768	0.0161929
649.846	0.0160883
649.924	0.0160580
650.003	0.0161375
650.081	0.0161189
650.159	0.0160632
650.237	0.0160772
650.315	0.0160825
650.393	0.0160548
650.471	0.0159743
650.549	0.0159678
650.628	0.0160389
650.706	0.0161063
650.784	0.0160772
650.862	0.0161971
650.940	0.0161896
651.018	0.0159638
651.096	0.0159716
651.174	0.0160966
651.253	0.0161142
651.331	0.0160794
651.409	0.0160092
651.487	0.0159575
651.565	0.0161810
651.643	0.0160892
651.721	0.0160959
651.799	0.0161546
651.878	0.0161076
651.956	0.0160973
652.034	0.0161043
652.112	0.0160920
652.190	0.0159785
652.268	0.0159769
652.346	0.0161316
652.424	0.0160743
652.503	0.0159595
652.581	0.0160165
652.659	0.0159875
652.737	0.0161497
652.815	0.0161022
652.893	0.0159660
652.971	0.0160806
653.049	0.0160371
653.128	0.0161086
653.206	0.0161236
653.284	0.0160241
653.362	0.0159307
653.440	0.0160777
653.518	0.0161738
653.596	0.0161118
653.674	0.0160368
653.753	0.0160918
653.831	0.0160577
653.909	0.0160925
653.987	0.0160506
654.065	0.0160081
654.143	0.0160842
654.221	0.0161015
654.299	0.0160828
654.378	0.0160490
654.456	0.0160853
654.534	0.0161662
654.612	0.0159680
654.690	0.0161369
654.768	0.0161065
654.846	0.0161493
654.924	0.0161082
655.003	0.0162073
655.081	0.0161069
655.159	0.0160051
655.237	0.0162353
655.315	0.0160982
655.393	0.0160855
655.471	0.0162129
655.549	0.0161297
655.628	0.0160947
655.706	0.0160663
655.784	0.0160633
655.862	0.0160313
655.940	0.0161428
656.018	0.0161044
656.096	0.0159829
656.174	0.0160493
656.253	0.0160867
656.331	0.0161726
656.409	0.0161560
656.487	0.0161214
656.565	0.0160634
656.643	0.0159740
656.721	0.0161675
656.799	0.0161036
656.878	0.0161382
656.956	0.0160808
657.034	0.0161097
657.112	0.0160776
657.190	0.0160818
657.268	0.0161179
657.346	0.0162061
657.424	0.0161446
657.503	0.0158930
657.581	0.0160783
657.659	0.0161749
657.737	0.0159914
657.815	0.0161620
657.893	0.0160471
657.971	0.0160146
658.049	0.0161280
658.128	0.0161701
658.206	0.0161923
658.284	0.0160826
658.362	0.0160497
658.440	0.0159754
658.518	0.0161692
658.596	0.0160795
658.674	0.0161113
658.753	0.0160547
658.831	0.0160844
658.909	0.0160398
658.987	0.0162265
659.065	0.0160970
659.143	0.0161633
659.221	0.0161240
659.299	0.0160655
659.378	0.0160806
659.456	0.0161179
659.534	0.0161192
659.612	0.0162333
659.690	0.0161169
659.768	0.0160274
659.846	0.0159987
659.924	0.0160373
660.003	0.0160063
660.081	0.0161176
660.159	0.0161702
660.237	0.0161044
660.315	0.0160822
660.393	0.0161156
660.471	0.0160412
660.549	0.0161055
660.628	0.0160340
660.706	0.0161194
660.784	0.0161855
660.862	0.0160644
660.940	0.0159689
661.018	0.0161913
661.096	0.0162299
661.174	0.0159589
661.253	0.0160752
661.331	0.0161114
661.409	0.0161387
661.487	0.0160996
661.565	0.0160146
661.643	0.0161209
661.721	0.0161578
661.799	0.0161256
661.878	0.0160727
661.956	0.0160957
662.034	0.0160191
662.112	0.0160267
662.190	0.0161443
662.268	0.0160105
662.346	0.0160901
662.424	0.0161031
662.503	0.0161160
662.581	0.0162220
662.659	0.0160480
662.737	0.0159204
662.815	0.0161076
662.893	0.0161406
662.971	0.0160490
663.049	0.0161991
663.128	0.0161050
663.206	0.0160275
663.284	0.0160807
663.362	0.0161272
663.440	0.0161150
663.518	0.0160719
663.596	0.0159783
663.674	0.0159478
663.753	0.0159972
663.831	0.0161140
663.909	0.0160512
663.987	0.0160171
664.065	0.0160228
664.143	0.0160344
664.221	0.0161670
664.299	0.0160528
664.378	0.0160621
664.456	0.0161880
664.534	0.0160206
664.612	0.0160694
664.690	0.0160578
664.768	0.0161239
664.846	0.0160204
664.924	0.0159968
665.003	0.0161513
665.081	0.0162084
665.159	0.0160328
665.237	0.0160868
665.315	0.0161135
665.393	0.0160933
665.471	0.0160321
665.549	0.0159207
665.628	0.0161330
665.706	0.0160944
665.784	0.0160799
665.862	0.0160636
665.940	0.0160662
666.018	0.0161440
666.096	0.0160438
666.174	0.0160314
666.253	0.0161661
666.331	0.0160680
666.409	0.0160169
666.487	0.0161380
666.565	0.0161252
666.643	0.0160992
666.721	0.0160602
666.799	0.0160651
666.878	0.0162060
666.956	0.0161332
667.034	0.0162303
667.112	0.0161049
667.190	0.0160938
667.268	0.0160229
667.346	0.0161922
667.424	0.0161011
667.503	0.0161393
667.581	0.0161823
667.659	0.0161944
667.737	0.0161371
667.815	0.0160848
667.893	0.0160364
667.971	0.0162086
668.049	0.0160899
668.128	0.0160555
668.206	0.0160482
668.284	0.0161608
668.362	0.0160792
668.440	0.0160592
668.518	0.0161409
668.596	0.0161761
668.674	0.0161066
668.753	0.0160641
668.831	0.0159657
668.909	0.0161776
668.987	0.0160268
669.065	0.0160396
669.143	0.0160608
669.221	0.0160665
669.299	0.0159925
669.378	0.0161565
669.456	0.0161806
669.534	0.0160751
669.612	0.0161510
669.690	0.0162129
669.768	0.0159690
669.846	0.0161649
669.924	0.0162047
670.003	0.0161357
670.081	0.0160344
670.159	0.0160811
670.237	0.0161186
670.315	0.0161581
670.393	0.0160794
670.471	0.0161363
670.549	0.0161385
670.628	0.0160898
670.706	0.0161115
670.784	0.0160981
670.862	0.0162029
670.940	0.0161236
671.018	0.0160544
671.096	0.0160959
671.174	0.0161645
671.253	0.0161461
671.331	0.0160424
671.409	0.0162611
671.487	0.0160631
671.565	0.0161152
671.643	0.0161229
671.721	0.0161711
671.799	0.0160934
671.878	0.0162070
671.956	0.0160503
672.034	0.0160271
672.112	0.0160789
672.190	0.0159482
672.268	0.0160616
672.346	0.0161466
672.424	0.0161202
672.503	0.0160912
672.581	0.0161046
672.659	0.0161307
672.737	0.0160561
672.815	0.0160828
672.893	0.0160773
672.971	0.0160120
673.049	0.0160285
673.128	0.0160731
673.206	0.0161671
673.284	0.0161495
673.362	0.0161389
673.440	0.0161512
673.518	0.0160457
673.596	0.0160894
673.674	0.0161096
673.753	0.0160927
673.831	0.0159862
673.909	0.0161050
673.987	0.0159996
674.065	0.0158788
674.143	0.0160889
674.221	0.0159636
674.299	0.0161211
674.378	0.0161007
674.456	0.0160428
674.534	0.0160869
674.612	0.0160609
674.690	0.0161505
674.768	0.0162337
674.846	0.0161407
674.924	0.0160556
675.003	0.0161259
675.081	0.0160894
675.159	0.0160517
675.237	0.0161253
675.315	0.0160099
675.393	0.0160309
675.471	0.0162769
675.549	0.0160975
675.628	0.0160002
675.706	0.0161716
675.784	0.0160937
675.862	0.0160434
675.940	0.0160223
676.018	0.0161465
676.096	0.0160491
676.174	0.0160881
676.253	0.0159851
676.331	0.0160258
676.409	0.0160395
676.487	0.0160755
676.565	0.0158929
676.643	0.0158929
676.721	0.0160520
676.799	0.0160367
676.878	0.0159868
676.956	0.0159592
677.034	0.0160274
677.112	0.0159191
677.190	0.0159734
677.268	0.0158313
677.346	0.0160238
677.424	0.0160209
677.503	0.0160690
677.581	0.0161642
677.659	0.0161252
677.737	0.0160400
677.815	0.0161166
677.893	0.0159957
677.971	0.0159805
678.049	0.0162405
678.128	0.0161407
678.206	0.0159898
678.284	0.0159940
678.362	0.0159689
678.440	0.0159415
678.518	0.0159547
678.596	0.0157927
678.674	0.0160045
678.753	0.0159629
678.831	0.0160533
678.909	0.0160375
678.987	0.0161111
679.065	0.0161279
679.143	0.0161755
679.221	0.0161466
679.299	0.0161910
679.378	0.0162602
679.456	0.0161138
679.534	0.0161231
679.612	0.0161461
679.690	0.0160423
679.768	0.0161138
679.846	0.0160537
679.924	0.0159290
680.003	0.0157890
680.081	0.0159975
680.159	0.0159991
680.237	0.0159174
680.315	0.0159701
680.393	0.0160207
680.471	0.0160489
680.549	0.0160728
680.628	0.0161552
680.706	0.0162912
680.784	0.0163941
680.862	0.0161668
680.940	0.0161944
681.018	0.0162480
681.096	0.0161637
681.174	0.0162184
681.253	0.0160792
681.331	0.0162280
681.409	0.0160181
681.487	0.0161328
681.565	0.0161190
681.643	0.0160456
681.721	0.0158664
681.799	0.0160715
681.878	0.0158469
681.956	0.0159240
682.034	0.0159331
682.112	0.0159624
682.190	0.0161661
682.268	0.0161083
682.346	0.0162492
682.424	0.0162594
682.503	0.0161311
682.581	0.0161481
682.659	0.0163552
682.737	0.0163453
682.815	0.0162192
682.893	0.0161863
682.971	0.0161590
683.049	0.0161404
683.128	0.0161325
683.206	0.0160677
683.284	0.0158984
683.362	0.0160002
683.440	0.0159940
683.518	0.0159574
683.596	0.0160547
683.674	0.0160642
683.753	0.0161629
683.831	0.0162093
683.909	0.0160076
683.987	0.0161749
684.065	0.0162258
684.143	0.0161147
684.221	0.0161161
684.299	0.0163273
684.378	0.0162113
684.456	0.0164089
684.534	0.0164393
684.612	0.0162484
684.690	0.0162090
684.768	0.0162354
684.846	0.0161942
684.924	0.0162156
685.003	0.0161090
685.081	0.0159381
685.159	0.0160165
685.237	0.0158797
685.315	0.0159274
685.393	0.0157806
685.471	0.0159821
685.549	0.0159689
685.628	0.0159457
685.706	0.0159529
685.784	0.0160275
685.862	0.0160777
685.940	0.0160770
686.018	0.0163190
686.096	0.0161871
686.174	0.0162911
686.253	0.0162702
686.331	0.0161856
686.409	0.0161736
686.487	0.0162864
686.565	0.0161285
686.643	0.0160821
686.721	0.0161496
686.799	0.0162303
686.878	0.0158932
686.956	0.0158698
687.034	0.0159010
687.112	0.0159321
687.190	0.0159077
687.268	0.0158018
687.346	0.0158805
687.424	0.0159644
687.503	0.0160056
687.581	0.0159892
687.659	0.0160201
687.737	0.0161505
687.815	0.0161641
687.893	0.0161104
687.971	0.0160890
688.049	0.0162471
688.128	0.0163304
688.206	0.0160606
688.284	0.0163054
688.362	0.0163516
688.440	0.0161381
688.518	0.0159779
688.596	0.0160709
688.674	0.0160274
688.753	0.0160551
688.831	0.0159840
688.909	0.0159450
688.987	0.0158793
689.065	0.0160331
689.143	0.0159031
689.221	0.0160348
689.299	0.0159874
689.378	0.0158691
689.456	0.0160728
689.534	0.0160818
689.612	0.0160721
689.690	0.0161121
689.768	0.0161105
689.846	0.0160873
689.924	0.0162267
690.003	0.0162248
690.081	0.0162191
690.159	0.0162215
690.237	0.0162362
690.315	0.0164088
690.393	0.0162294
690.471	0.0161407
690.549	0.0159912
690.628	0.0159811
690.706	0.0159453
690.784	0.0159926
690.862	0.0158968
690.940	0.0157932
691.018	0.0156902
691.096	0.0158105
691.174	0.0158409
691.253	0.0158578
691.331	0.0158662
691.409	0.0160500
691.487	0.0160471
691.565	0.0160835
691.643	0.0162018
691.721	0.0163099
691.799	0.0162941
691.878	0.0163123
691.956	0.0162287
692.034	0.0161782
692.112	0.0162596
692.190	0.0161638
692.268	0.0160635
692.346	0.0160066
692.424	0.0160400
692.503	0.0159070
692.581	0.0159422
692.659	0.0158813
692.737	0.0158807
692.815	0.0157840
692.893	0.0158064
692.971	0.0158488
693.049	0.0158912
693.128	0.0160337
693.206	0.0160158
693.284	0.0161998
693.362	0.0161178
693.440	0.0163615
693.518	0.0162135
693.596	0.0161777
693.674	0.0163186
693.753	0.0162244
693.831	0.0161712
693.909	0.0160948
693.987	0.0159622
694.065	0.0159003
694.143	0.0158528
694.221	0.0160139
694.299	0.0159840
694.378	0.0159930
694.456	0.0159795
694.534	0.0159530
694.612	0.0161346
694.690	0.0161315
694.768	0.0161215
694.846	0.0161778
694.924	0.0161571
695.003	0.0162572
695.081	0.0161948
695.159	0.0162775
695.237	0.0161239
695.315	0.0162979
695.393	0.0161001
695.471	0.0159766
695.549	0.0159533
695.628	0.0157562
695.706	0.0159483
695.784	0.0160381
695.862	0.0159293
695.940	0.0160920
696.018	0.0160588
696.096	0.0159437
696.174	0.0160263
696.253	0.0160757
696.331	0.0161210
696.409	0.0162766
696.487	0.0161630
696.565	0.0163491
696.643	0.0163670
696.721	0.0163592
696.799	0.0163169
696.878	0.0163197
696.956	0.0162782
697.034	0.0163271
697.112	0.0162536
697.190	0.0159145
697.268	0.0158764
697.346	0.0158916
697.424	0.0159695
697.503	0.0159617
697.581	0.0158688
697.659	0.0159626
697.737	0.0160149
697.815	0.0159310
697.893	0.0159756
697.971	0.0161817
698.049	0.0160794
698.128	0.0161675
698.206	0.0161504
698.284	0.0161436
698.362	0.0162103
698.440	0.0163021
698.518	0.0162553
698.596	0.0162376
698.674	0.0163222
698.753	0.0163374
698.831	0.0161848
698.909	0.0162547
698.987	0.0162404
699.065	0.0161784
699.143	0.0161877
699.221	0.0159657
699.299	0.0158054
699.378	0.0158001
699.456	0.0157589
699.534	0.0159673
699.612	0.0159383
699.690	0.0159190
699.768	0.0157019
699.846	0.0158198
699.924	0.0158978
700.003	0.0160324
700.081	0.0161040
700.159	0.0161873
700.237	0.0162290
700.315	0.0164415
700.393	0.0163927
700.471	0.0163746
700.549	0.0165126
700.628	0.0165296
700.706	0.0163345
700.784	0.0162737
700.862	0.0160059
700.940	0.0159776
701.018	0.0160113
701.096	0.0158289
701.174	0.0157551
701.253	0.0158364
701.331	0.0157248
701.409	0.0157910
701.487	0.0158331
701.565	0.0158668
701.643	0.0158980
701.721	0.0159554
701.799	0.0159489
701.878	0.0159120
701.956	0.0161382
702.034	0.0161728
702.112	0.0162349
702.190	0.0163397
702.268	0.0162508
702.346	0.0162139
702.424	0.0161959
702.503	0.0162621
702.581	0.0159674
702.659	0.0162051
702.737	0.0162383
702.815	0.0160397
702.893	0.0161891
702.971	0.0161127
703.049	0.0161058
703.128	0.0160583
703.206	0.0159414
703.284	0.0160387
703.362	0.0161988
703.440	0.0159838
703.518	0.0159299
703.596	0.0162530
703.674	0.0162495
703.753	0.0161819
703.831	0.0160928
703.909	0.0162016
703.987	0.0161913
704.065	0.0163848
704.143	0.0161799
704.221	0.0162379
704.299	0.0162000
704.378	0.0161532
704.456	0.0160795
704.534	0.0160205
704.612	0.0159547
704.690	0.0160770
704.768	0.0158961
704.846	0.0158609
704.924	0.0158781
705.003	0.0158893
705.081	0.0160606
705.159	0.0160503
705.237	0.0160381
705.315	0.0160986
705.393	0.0160903
705.471	0.0162116
705.549	0.0163638
705.628	0.0162097
705.706	0.0162344
705.784	0.0161253
705.862	0.0161645
705.940	0.0162531
706.018	0.0161993
706.096	0.0163452
706.174	0.0161311
706.253	0.0161749
706.331	0.0162658
706.409	0.0161986
706.487	0.0161378
706.565	0.0161328
706.643	0.0161711
706.721	0.0162243
706.799	0.0162157
706.878	0.0160539
706.956	0.0160454
707.034	0.0161656
707.112	0.0161848
707.190	0.0161898
707.268	0.0159836
707.346	0.0159209
707.424	0.0161114
707.503	0.0161102
707.581	0.0160722
707.659	0.0160922
707.737	0.0159875
707.815	0.0161620
707.893	0.0160538
707.971	0.0160345
708.049	0.0159577
708.128	0.0158577
708.206	0.0160287
708.284	0.0160693
708.362	0.0160714
708.440	0.0159596
708.518	0.0159721
708.596	0.0160041
708.674	0.0159983
708.753	0.0160529
708.831	0.0161589
708.909	0.0160397
708.987	0.0159913
709.065	0.0161677
709.143	0.0161623
709.221	0.0162045
709.299	0.0162598
709.378	0.0160950
709.456	0.0159914
709.534	0.0161838
709.612	0.0160642
709.690	0.0161932
709.768	0.0159713
709.846	0.0159489
709.924	0.0160757
710.003	0.0158780
710.081	0.0160281
710.159	0.0160137
710.237	0.0161359
710.315	0.0158606
710.393	0.0161112
710.471	0.0162971
710.549	0.0160824
710.628	0.0159755
710.706	0.0161369
710.784	0.0162230
710.862	0.0161501
710.940	0.0161337
711.018	0.0161294
711.096	0.0162145
711.174	0.0162099
711.253	0.0161884
711.331	0.0162305
711.409	0.0160229
711.487	0.0161392
711.565	0.0161771
711.643	0.0161021
711.721	0.0160786
711.799	0.0161020
711.878	0.0160030
711.956	0.0160197
712.034	0.0159985
712.112	0.0158516
712.190	0.0160017
712.268	0.0160223
712.346	0.0158984
712.424	0.0159873
712.503	0.0160020
712.581	0.0160944
712.659	0.0161153
712.737	0.0160842
712.815	0.0161135
712.893	0.0161185
712.971	0.0161419
713.049	0.0162529
713.128	0.0161487
713.206	0.0161709
713.284	0.0161140
713.362	0.0161559
713.440	0.0159873
713.518	0.0160638
713.596	0.0160859
713.674	0.0161273
713.753	0.0160847
713.831	0.0161201
713.909	0.0160273
713.987	0.0160625
714.065	0.0159138
714.143	0.0160336
714.221	0.0160740
714.299	0.0161294
714.378	0.0161045
714.456	0.0160863
714.534	0.0160023
714.612	0.0161182
714.690	0.0159782
714.768	0.0159715
714.846	0.0161020
714.924	0.0159904
715.003	0.0160053
715.081	0.0160572
715.159	0.0160345
715.237	0.0161730
715.315	0.0162171
715.393	0.0162109
715.471	0.0161782
715.549	0.0162909
715.628	0.0163893
715.706	0.0163483
715.784	0.0163202
715.862	0.0162540
715.940	0.0162188
716.018	0.0161773
716.096	0.0159440
716.174	0.0160461
716.253	0.0158297
716.331	0.0158080
716.409	0.0157320
716.487	0.0155581
716.565	0.0157271
716.643	0.0155431
716.721	0.0155509
716.799	0.0155901
716.878	0.0157307
716.956	0.0157883
717.034	0.0157013
717.112	0.0158435
717.190	0.0158621
717.268	0.0160555
717.346	0.0160685
717.424	0.0162773
717.503	0.0166212
717.581	0.0165421
717.659	0.0166285
717.737	0.0166113
717.815	0.0168273
717.893	0.0167604
717.971	0.0167747
718.049	0.0168185
718.128	0.0168667
718.206	0.0166956
718.284	0.0166303
718.362	0.0166026
718.440	0.0163723
718.518	0.0164127
718.596	0.0162516
718.674	0.0160461
718.753	0.0159856
718.831	0.0158507
718.909	0.0157742
718.987	0.0157110
719.065	0.0155473
719.143	0.0155003
719.221	0.0156660
719.299	0.0154913
719.378	0.0155564
719.456	0.0154486
719.534	0.0154227
719.612	0.0153517
719.690	0.0156676
719.768	0.0155431
719.846	0.0157197
719.924	0.0156245
720.003	0.0156551
720.081	0.0158421
720.159	0.0160190
720.237	0.0160439
720.315	0.0163072
720.393	0.0163831
720.471	0.0163748
720.549	0.0166293
720.628	0.0166816
720.706	0.0166787
720.784	0.0167866
720.862	0.0168942
720.940	0.0168035
721.018	0.0167723
721.096	0.0168600
721.174	0.0166563
721.253	0.0163708
721.331	0.0164330
721.409	0.0163322
721.487	0.0160476
721.565	0.0160363
721.643	0.0160809
721.721	0.0157311
721.799	0.0157880
721.878	0.0156008
721.956	0.0156513
722.034	0.0154242
722.112	0.0155470
722.190	0.0154929
722.268	0.0155486
722.346	0.0154398
722.424	0.0156105
722.503	0.0155873
722.581	0.0157031
722.659	0.0157003
722.737	0.0158424
722.815	0.0159401
722.893	0.0159582
722.971	0.0161182
723.049	0.0162656
723.128	0.0164404
723.206	0.0163961
723.284	0.0164056
723.362	0.0166038
723.440	0.0166996
723.518	0.0167608
723.596	0.0167242
723.674	0.0166790
723.753	0.0166933
723.831	0.0165338
723.909	0.0165562
723.987	0.0165231
724.065	0.0164154
724.143	0.0163466
724.221	0.0161617
724.299	0.0161233
724.378	0.0159447
724.456	0.0159003
724.534	0.0158614
724.612	0.0156693
724.690	0.0156540
724.768	0.0156847
724.846	0.0156189
724.924	0.0154794
725.003	0.0155699
725.081	0.0156377
725.159	0.0155345
725.237	0.0156374
725.315	0.0154234
725.393	0.0156375
725.471	0.0156216
725.549	0.0155673
725.628	0.0156637
725.706	0.0158940
725.784	0.0159795
725.862	0.0160512
725.940	0.0160328
726.018	0.0161203
726.096	0.0162840
726.174	0.0163361
726.253	0.0164656
726.331	0.0163937
726.409	0.0165170
726.487	0.0164987
726.565	0.0165214
726.643	0.0165013
726.721	0.0163390
726.799	0.0162638
726.878	0.0163249
726.956	0.0161924
727.034	0.0161815
727.112	0.0159840
727.190	0.0159594
727.268	0.0159696
727.346	0.0158182
727.424	0.0157787
727.503	0.0158852
727.581	0.0160059
727.659	0.0159347
727.737	0.0159409
727.815	0.0162146
727.893	0.0163208
727.971	0.0165105
728.049	0.0166092
728.128	0.0166657
728.206	0.0167442
728.284	0.0168528
728.362	0.0168201
728.440	0.0169363
728.518	0.0165977
728.596	0.0166624
728.674	0.0165620
728.753	0.0163692
728.831	0.0161190
728.909	0.0161234
728.987	0.0158892
729.065	0.0157313
729.143	0.0155900
729.221	0.0153439
729.299	0.0153475
729.378	0.0154610
729.456	0.0151516
729.534	0.0151836
729.612	0.0152678
729.690	0.0153994
729.768	0.0154731
729.846	0.0154259
729.924	0.0154615
730.003	0.0155704
730.081	0.0157460
730.159	0.0158655
730.237	0.0158132
730.315	0.0158767
730.393	0.0158727
730.471	0.0159456
730.549	0.0161380
730.628	0.0160372
730.706	0.0159865
730.784	0.0160757
730.862	0.0161217
730.940	0.0160931
731.018	0.0160780
731.096	0.0161177
731.174	0.0160868
731.253	0.0162029
731.331	0.0162634
731.409	0.0161757
731.487	0.0163145
731.565	0.0164465
731.643	0.0163377
731.721	0.0165386
731.799	0.0165408
731.878	0.0166143
731.956	0.0168023
732.034	0.0169360
732.112	0.0169341
732.190	0.0169102
732.268	0.0169371
732.346	0.0169018
732.424	0.0168659
732.503	0.0169271
732.581	0.0167877
732.659	0.0166140
732.737	0.0164735
732.815	0.0163467
732.893	0.0161117
732.971	0.0160348
733.049	0.0158809
733.128	0.0155699
733.206	0.0154529
733.284	0.0155102
733.362	0.0153556
733.440	0.0152631
733.518	0.0151908
733.596	0.0151067
733.674	0.0151216
733.753	0.0152441
733.831	0.0153779
733.909	0.0154308
733.987	0.0154536
734.065	0.0155376
734.143	0.0157615
734.221	0.0158841
734.299	0.0160970
734.378	0.0162281
734.456	0.0162506
734.534	0.0165489
734.612	0.0166013
734.690	0.0165901
734.768	0.0165962
734.846	0.0166994
734.924	0.0165688
735.003	0.0167530
735.081	0.0164830
735.159	0.0166173
735.237	0.0164457
735.315	0.0163219
735.393	0.0162715
735.471	0.0163165
735.549	0.0160938
735.628	0.0160955
735.706	0.0160079
735.784	0.0159852
735.862	0.0159279
735.940	0.0161498
736.018	0.0160433
736.096	0.0160993
736.174	0.0162303
736.253	0.0161597
736.331	0.0163380
736.409	0.0164041
736.487	0.0164820
736.565	0.0163120
736.643	0.0164232
736.721	0.0164548
736.799	0.0164884
736.878	0.0162692
736.956	0.0162502
737.034	0.0163248
737.112	0.0161322
737.190	0.0159989
737.268	0.0158395
737.346	0.0157700
737.424	0.0156082
737.503	0.0154305
737.581	0.0153809
737.659	0.0153207
737.737	0.0153077
737.815	0.0153248
737.893	0.0152821
737.971	0.0154918
738.049	0.0156733
738.128	0.0156834
738.206	0.0157845
738.284	0.0160161
738.362	0.0160159
738.440	0.0162672
738.518	0.0162691
738.596	0.0165054
738.674	0.0165863
738.753	0.0166600
738.831	0.0166080
738.909	0.0165944
738.987	0.0164268
739.065	0.0164983
739.143	0.0165054
739.221	0.0164143
739.299	0.0164135
739.378	0.0163004
739.456	0.0164199
739.534	0.0163550
739.612	0.0162507
739.690	0.0162210
739.768	0.0162118
739.846	0.0162875
739.924	0.0162787
740.003	0.0161882
740.081	0.0163072
740.159	0.0163041
740.237	0.0162721
740.315	0.0162263
740.393	0.0162247
740.471	0.0162788
740.549	0.0160538
740.628	0.0161549
740.706	0.0162185
740.784	0.0160581
740.862	0.0160629
740.940	0.0158501
741.018	0.0161057
741.096	0.0160595
741.174	0.0160145
741.253	0.0160068
741.331	0.0160844
741.409	0.0159851
741.487	0.0159042
741.565	0.0158591
741.643	0.0159359
741.721	0.0156870
741.799	0.0157899
741.878	0.0158398
741.956	0.0159104
742.034	0.0158645
742.112	0.0158736
742.190	0.0158045
742.268	0.0156686
742.346	0.0156951
742.424	0.0158239
742.503	0.0157629
742.581	0.0157844
742.659	0.0157973
742.737	0.0157699
742.815	0.0157201
742.893	0.0158006
742.971	0.0157520
743.049	0.0158533
743.128	0.0159789
743.206	0.0160878
743.284	0.0161349
743.362	0.0162912
743.440	0.0163673
743.518	0.0162137
743.596	0.0163488
743.674	0.0163687
743.753	0.0163529
743.831	0.0162134
743.909	0.0163565
743.987	0.0163461
744.065	0.0161880
744.143	0.0162575
744.221	0.0163004
744.299	0.0163709
744.378	0.0162663
744.456	0.0163216
744.534	0.0165789
744.612	0.0164890
744.690	0.0164912
744.768	0.0165179
744.846	0.0165686
744.924	0.0167308
745.003	0.0164165
745.081	0.0165083
745.159	0.0165528
745.237	0.0162793
745.315	0.0162308
745.393	0.0161695
745.471	0.0161070
745.549	0.0159578
745.628	0.0158069
745.706	0.0156905
745.784	0.0156282
745.862	0.0155048
745.940	0.0154386
746.018	0.0155048
746.096	0.0154709
746.174	0.0155920
746.253	0.0157286
746.331	0.0156573
746.409	0.0160559
746.487	0.0160477
746.565	0.0161680
746.643	0.0162990
746.721	0.0162795
746.799	0.0163982
746.878	0.0165965
746.956	0.0165910
747.034	0.0165021
747.112	0.0164163
747.190	0.0162691
747.268	0.0161977
747.346	0.0160793
747.424	0.0159958
747.503	0.0158114
747.581	0.0156728
747.659	0.0155467
747.737	0.0154575
747.815	0.0153535
747.893	0.0153310
747.971	0.0152980
748.049	0.0153675
748.128	0.0155304
748.206	0.0155160
748.284	0.0155373
748.362	0.0157605
748.440	0.0158328
748.518	0.0159354
748.596	0.0160884
748.674	0.0162074
748.753	0.0164101
748.831	0.0163982
748.909	0.0163658
748.987	0.0165896
749.065	0.0166040
749.143	0.0166279
749.221	0.0166987
749.299	0.0167791
749.378	0.0167211
749.456	0.0167390
749.534	0.0168114
749.612	0.0168472
749.690	0.0167851
749.768	0.0168111
749.846	0.0167475
749.924	0.0166478
750.003	0.0165793
750.081	0.0165401
750.159	0.0164079
750.237	0.0164426
750.315	0.0161599
750.393	0.0161096
750.471	0.0162108
750.549	0.0159241
750.628	0.0159286
750.706	0.0159192
750.784	0.0156567
750.862	0.0156946
750.940	0.0156178
751.018	0.0155504
751.096	0.0154522
751.174	0.0152094
751.253	0.0154655
751.331	0.0154982
751.409	0.0155779
751.487	0.0154652
751.565	0.0154792
751.643	0.0156983
751.721	0.0156790
751.799	0.0157776
751.878	0.0158932
751.956	0.0160304
752.034	0.0160484
752.112	0.0159664
752.190	0.0161970
752.268	0.0163039
752.346	0.0162807
752.424	0.0163860
752.503	0.0164509
752.581	0.0164821
752.659	0.0166132
752.737	0.0164487
752.815	0.0164730
752.893	0.0165793
752.971	0.0164883
753.049	0.0163136
753.128	0.0164790
753.206	0.0162788
753.284	0.0161171
753.362	0.0160923
753.440	0.0160452
753.518	0.0160334
753.596	0.0160017
753.674	0.0158504
753.753	0.0158102
753.831	0.0158720
753.909	0.0157768
753.987	0.0157661
754.065	0.0158109
754.143	0.0157930
754.221	0.0158046
754.299	0.0158659
754.378	0.0159330
754.456	0.0160194
754.534	0.0161473
754.612	0.0161230
754.690	0.0161036
754.768	0.0164150
754.846	0.0163969
754.924	0.0164680
755.003	0.0165068
755.081	0.0166218
755.159	0.0165802
755.237	0.0167015
755.315	0.0165453
755.393	0.0165659
755.471	0.0163569
755.549	0.0164052
755.628	0.0163561
755.706	0.0161829
755.784	0.0161192
755.862	0.0159566
755.940	0.0157315
756.018	0.0157402
756.096	0.0157447
756.174	0.0155312
756.253	0.0156660
756.331	0.0156082
756.409	0.0155376
756.487	0.0156509
756.565	0.0156877
756.643	0.0155828
756.721	0.0156549
756.799	0.0157094
756.878	0.0155502
756.956	0.0157335
757.034	0.0156660
757.112	0.0157725
757.190	0.0156626
757.268	0.0158219
757.346	0.0159051
757.424	0.0159828
757.503	0.0159803
757.581	0.0161095
757.659	0.0161612
757.737	0.0162676
757.815	0.0162521
757.893	0.0163331
757.971	0.0163910
758.049	0.0164944
758.128	0.0163982
758.206	0.0165611
758.284	0.0166829
758.362	0.0166827
758.440	0.0166334
758.518	0.0167050
758.596	0.0166861
758.674	0.0166328
758.753	0.0165625
758.831	0.0166271
758.909	0.0165549
758.987	0.0164915
759.065	0.0164866
759.143	0.0164507
759.221	0.0164932
759.299	0.0162924
759.378	0.0161774
759.456	0.0162543
759.534	0.0163532
759.612	0.0163412
759.690	0.0162484
759.768	0.0161965
759.846	0.0163159
759.924	0.0163937
760.003	0.0163833
760.081	0.0161402
760.159	0.0160670
760.237	0.0160776
760.315	0.0160437
760.393	0.0159512
760.471	0.0160243
760.549	0.0157134
760.628	0.0156257
760.706	0.0153938
760.784	0.0154555
760.862	0.0155531
760.940	0.0153245
761.018	0.0152828
761.096	0.0152064
761.174	0.0152457
761.253	0.0152493
761.331	0.0150424
761.409	0.0152422
761.487	0.0153117
761.565	0.0155334
761.643	0.0155736
761.721	0.0157142
761.799	0.0157828
761.878	0.0157997
761.956	0.0162185
762.034	0.0162276
762.112	0.0162697
762.190	0.0163503
762.268	0.0164234
762.346	0.0162815
762.424	0.0164441
762.503	0.0163784
762.581	0.0165439
762.659	0.0163512
762.737	0.0163107
762.815	0.0162898
762.893	0.0162862
762.971	0.0162183
763.049	0.0160529
763.128	0.0159109
763.206	0.0158766
763.284	0.0159271
763.362	0.0159586
763.440	0.0160451
763.518	0.0161511
763.596	0.0163112
763.674	0.0162358
763.753	0.0163067
763.831	0.0164074
763.909	0.0165179
763.987	0.0163759
764.065	0.0165922
764.143	0.0167616
764.221	0.0165643
764.299	0.0165002
764.378	0.0165151
764.456	0.0164726
764.534	0.0164516
764.612	0.0165388
764.690	0.0165546
764.768	0.0164426
764.846	0.0164388
764.924	0.0166119
765.003	0.0164113
765.081	0.0164330
765.159	0.0165563
765.237	0.0163554
765.315	0.0163821
765.393	0.0165220
765.471	0.0164120
765.549	0.0164684
765.628	0.0164127
765.706	0.0162077
765.784	0.0162248
765.862	0.0162508
765.940	0.0162613
766.018	0.0159966
766.096	0.0159546
766.174	0.0158428
766.253	0.0158375
766.331	0.0155971
766.409	0.0154968
766.487	0.0153386
766.565	0.0154414
766.643	0.0152444
766.721	0.0152979
766.799	0.0152721
766.878	0.0152647
766.956	0.0152374
767.034	0.0152538
767.112	0.0151593
767.190	0.0152042
767.268	0.0151966
767.346	0.0154098
767.424	0.0153571
767.503	0.0153014
767.581	0.0153858
767.659	0.0155965
767.737	0.0156038
767.815	0.0156531
767.893	0.0157390
767.971	0.0157924
768.049	0.0159937
768.128	0.0159458
768.206	0.0161742
768.284	0.0163113
768.362	0.0165619
768.440	0.0165028
768.518	0.0165213
768.596	0.0167194
768.674	0.0166539
768.753	0.0167598
768.831	0.0165990
768.909	0.0167872
768.987	0.0167567
769.065	0.0167666
769.143	0.0165530
769.221	0.0164348
769.299	0.0165871
769.378	0.0165324
769.456	0.0163597
769.534	0.0163288
769.612	0.0161797
769.690	0.0162236
769.768	0.0161743
769.846	0.0160571
769.924	0.0160207
770.003	0.0160614
770.081	0.0160109
770.159	0.0160194
770.237	0.0160748
770.315	0.0161514
770.393	0.0161905
770.471	0.0161857
770.549	0.0162810
770.628	0.0164408
770.706	0.0162930
770.784	0.0164497
770.862	0.0165370
770.940	0.0165492
771.018	0.0166090
771.096	0.0164054
771.174	0.0164604
771.253	0.0163123
771.331	0.0161638
771.409	0.0162479
771.487	0.0161812
771.565	0.0160722
771.643	0.0160141
771.721	0.0159608
771.799	0.0159113
771.878	0.0158092
771.956	0.0156174
772.034	0.0156206
772.112	0.0154848
772.190	0.0154925
772.268	0.0155573
772.346	0.0155928
772.424	0.0156710
772.503	0.0155776
772.581	0.0156320
772.659	0.0157626
772.737	0.0158165
772.815	0.0157744
772.893	0.0158155
772.971	0.0159052
773.049	0.0157866
773.128	0.0158596
773.206	0.0158781
773.284	0.0158634
773.362	0.0157521
773.440	0.0155791
773.518	0.0156782
773.596	0.0157298
773.674	0.0156779
773.753	0.0155869
773.831	0.0155148
773.909	0.0156663
773.987	0.0156256
774.065	0.0156497
774.143	0.0158284
774.221	0.0158990
774.299	0.0159624
774.378	0.0158968
774.456	0.0159757
774.534	0.0161645
774.612	0.0161810
774.690	0.0163247
774.768	0.0164644
774.846	0.0164488
774.924	0.0166351
775.003	0.0166212
775.081	0.0166930
775.159	0.0166144
775.237	0.0167415
775.315	0.0167822
775.393	0.0167041
775.471	0.0167416
775.549	0.0167241
775.628	0.0166805
775.706	0.0166035
775.784	0.0164909
775.862	0.0163525
775.940	0.0163036
776.018	0.0161104
776.096	0.0162139
776.174	0.0162395
776.253	0.0161325
776.331	0.0159691
776.409	0.0160101
776.487	0.0161499
776.565	0.0161999
776.643	0.0160850
776.721	0.0162585
776.799	0.0162305
776.878	0.0162392
776.956	0.0163306
777.034	0.0162846
777.112	0.0162428
777.190	0.0161883
777.268	0.0162937
777.346	0.0162778
777.424	0.0161230
777.503	0.0161639
777.581	0.0160763
777.659	0.0160903
777.737	0.0159584
777.815	0.0160110
777.893	0.0158514
777.971	0.0157923
778.049	0.0157373
778.128	0.0156625
778.206	0.0155779
778.284	0.0155236
778.362	0.0155516
778.440	0.0155968
778.518	0.0155614
778.596	0.0156465
778.674	0.0156370
778.753	0.0155910
778.831	0.0157704
778.909	0.0158318
778.987	0.0158099
779.065	0.0159001
779.143	0.0160008
779.221	0.0161171
779.299	0.0160630
779.378	0.0161876
779.456	0.0162865
779.534	0.0161026
779.612	0.0160929
779.690	0.0161407
779.768	0.0160358
779.846	0.0161081
779.924	0.0159750
780.003	0.0160194
780.081	0.0159308
780.159	0.0159711
780.237	0.0159217
780.315	0.0159693
780.393	0.0158115
780.471	0.0159065
780.549	0.0159023
780.628	0.0159813
780.706	0.0160271
780.784	0.0159133
780.862	0.0158787
780.940	0.0160759
781.018	0.0160889
781.096	0.0161910
781.174	0.0163564
781.253	0.0162739
781.331	0.0162181
781.409	0.0163029
781.487	0.0165051
781.565	0.0165494
781.643	0.0164120
781.721	0.0165416
781.799	0.0166599
781.878	0.0166647
781.956	0.0165128
782.034	0.0166105
782.112	0.0164777
782.190	0.0165678
782.268	0.0166904
782.346	0.0165472
782.424	0.0165202
782.503	0.0164516
782.581	0.0162714
782.659	0.0161890
782.737	0.0161884
782.815	0.0161813
782.893	0.0161889
782.971	0.0160244
783.049	0.0159980
783.128	0.0160095
783.206	0.0160953
783.284	0.0160094
783.362	0.0159599
783.440	0.0158562
783.518	0.0160252
783.596	0.0160050
783.674	0.0158299
783.753	0.0158595
783.831	0.0158728
783.909	0.0158685
783.987	0.0157508
784.065	0.0158625
784.143	0.0156234
784.221	0.0156976
784.299	0.0158532
784.378	0.0157556
784.456	0.0157441
784.534	0.0156724
784.612	0.0157565
784.690	0.0158031
784.768	0.0158031
784.846	0.0157859
784.924	0.0159691
785.003	0.0158736
785.081	0.0158945
785.159	0.0160143
785.237	0.0159601
785.315	0.0159494
785.393	0.0161114
785.471	0.0161986
785.549	0.0163161
785.628	0.0161763
785.706	0.0162044
785.784	0.0162832
785.862	0.0162178
785.940	0.0165034
786.018	0.0165120
786.096	0.0163212
786.174	0.0163721
786.253	0.0162756
786.331	0.0163381
786.409	0.0161787
786.487	0.0161397
786.565	0.0160342
786.643	0.0158785
786.721	0.0158063
786.799	0.0155999
786.878	0.0156691
786.956	0.0156192
787.034	0.0157082
787.112	0.0155528
787.190	0.0155946
787.268	0.0155154
787.346	0.0154879
787.424	0.0157234
787.503	0.0157062
787.581	0.0158024
787.659	0.0157174
787.737	0.0158916
787.815	0.0160035
787.893	0.0161550
787.971	0.0162585
788.049	0.0164198
788.128	0.0165659
788.206	0.0166122
788.284	0.0167073
788.362	0.0167048
788.440	0.0167880
788.518	0.0169378
788.596	0.0169071
788.674	0.0170052
788.753	0.0169530
788.831	0.0169263
788.909	0.0168029
788.987	0.0167772
789.065	0.0165327
789.143	0.0164682
789.221	0.0163994
789.299	0.0161604
789.378	0.0160702
789.456	0.0158530
789.534	0.0156044
789.612	0.0156733
789.690	0.0156011
789.768	0.0155084
789.846	0.0153410
789.924	0.0154996
790.003	0.0151648
790.081	0.0153334
790.159	0.0154285
790.237	0.0153602
790.315	0.0154933
790.393	0.0156192
790.471	0.0155888
790.549	0.0157385
790.628	0.0158385
790.706	0.0159560
790.784	0.0159310
790.862	0.0158841
790.940	0.0160759
791.018	0.0159871
791.096	0.0161053
791.174	0.0159756
791.253	0.0160255
791.331	0.0161765
791.409	0.0159663
791.487	0.0159738
791.565	0.0160766
791.643	0.0162223
791.721	0.0161936
791.799	0.0160210
791.878	0.0162047
791.956	0.0163303
792.034	0.0164875
792.112	0.0164670
792.190	0.0164059
792.268	0.0164462
792.346	0.0164227
792.424	0.0163962
792.503	0.0163815
792.581	0.0162716
792.659	0.0163254
792.737	0.0162791
792.815	0.0162888
792.893	0.0161257
792.971	0.0160845
793.049	0.0159959
793.128	0.0158603
793.206	0.0157799
793.284	0.0157028
793.362	0.0156676
793.440	0.0154194
793.518	0.0153418
793.596	0.0154955
793.674	0.0154318
793.753	0.0154855
793.831	0.0153996
793.909	0.0153403
793.987	0.0154948
794.065	0.0156310
794.143	0.0156101
794.221	0.0157594
794.299	0.0158246
794.378	0.0160241
794.456	0.0162376
794.534	0.0163190
794.612	0.0164449
794.690	0.0166350
794.768	0.0168583
794.846	0.0168488
794.924	0.0169070
795.003	0.0171638
795.081	0.0169817
795.159	0.0170337
795.237	0.0171289
795.315	0.0169003
795.393	0.0168646
795.471	0.0168445
795.549	0.0166018
795.628	0.0163995
795.706	0.0163274
795.784	0.0160613
795.862	0.0158869
795.940	0.0157347
796.018	0.0156374
796.096	0.0156856
796.174	0.0156524
796.253	0.0155665
796.331	0.0155243
796.409	0.0154250
796.487	0.0154950
796.565	0.0154616
796.643	0.0157168
796.721	0.0156355
796.799	0.0156695
796.878	0.0156389
796.956	0.0159196
797.034	0.0160073
797.112	0.0159880
797.190	0.0159376
797.268	0.0161362
797.346	0.0162051
797.424	0.0161055
797.503	0.0160883
797.581	0.0161507
797.659	0.0162304
797.737	0.0163123
797.815	0.0160957
797.893	0.0160275
797.971	0.0160986
798.049	0.0159827
798.128	0.0160041
798.206	0.0160942
798.284	0.0159829
798.362	0.0160029
798.440	0.0160177
798.518	0.0161860
798.596	0.0162605
798.674	0.0163546
798.753	0.0162171
798.831	0.0162645
798.909	0.0162086
798.987	0.0162055
799.065	0.0162331
799.143	0.0163450
799.221	0.0163740
799.299	0.0162972
799.378	0.0161919
799.456	0.0161872
799.534	0.0161664
799.612	0.0159324
799.690	0.0161507
799.768	0.0159561
799.846	0.0157992
799.924	0.0157735
800.003	0.0156395
800.081	0.0154524
800.159	0.0155897
800.237	0.0155612
800.315	0.0155509
800.393	0.0155234
800.471	0.0155298
800.549	0.0156325
800.628	0.0156031
800.706	0.0156480
800.784	0.0156906
800.862	0.0157357
800.940	0.0158675
801.018	0.0162434
801.096	0.0163825
801.174	0.0163818
801.253	0.0165568
801.331	0.0167997
801.409	0.0168230
801.487	0.0169409
801.565	0.0170596
801.643	0.0170435
801.721	0.0168755
801.799	0.0169127
801.878	0.0169518
801.956	0.0168476
802.034	0.0166865
802.112	0.0166891
802.190	0.0164901
802.268	0.0163861
802.346	0.0160742
802.424	0.0159325
802.503	0.0158164
802.581	0.0157368
802.659	0.0156883
802.737	0.0154913
802.815	0.0155296
802.893	0.0152973
802.971	0.0154520
803.049	0.0155035
803.128	0.0153649
803.206	0.0155511
803.284	0.0157090
803.362	0.0157697
803.440	0.0158525
803.518	0.0159830
803.596	0.0160437
803.674	0.0159661
803.753	0.0160048
803.831	0.0161243
803.909	0.0161769
803.987	0.0162032
804.065	0.0162534
804.143	0.0163125
804.221	0.0162369
804.299	0.0161562
804.378	0.0161085
804.456	0.0161494
804.534	0.0161317
804.612	0.0159755
804.690	0.0160885
804.768	0.0161305
804.846	0.0158649
804.924	0.0160661
805.003	0.0160851
805.081	0.0160682
805.159	0.0161819
805.237	0.0160648
805.315	0.0162029
805.393	0.0161443
805.471	0.0162571
805.549	0.0163644
805.628	0.0162326
805.706	0.0162788
805.784	0.0162543
805.862	0.0160813
805.940	0.0162961
806.018	0.0161961
806.096	0.0160477
806.174	0.0160669
806.253	0.0160847
806.331	0.0159110
806.409	0.0156311
806.487	0.0155017
806.565	0.0154610
806.643	0.0152924
806.721	0.0153630
806.799	0.0152657
806.878	0.0153632
806.956	0.0152644
807.034	0.0152383
807.112	0.0152197
807.190	0.0155139
807.268	0.0156852
807.346	0.0158288
807.424	0.0159102
807.503	0.0160236
807.581	0.0162789
807.659	0.0163400
807.737	0.0165875
807.815	0.0167377
807.893	0.0168668
807.971	0.0169009
808.049	0.0168999
808.128	0.0168884
808.206	0.0169030
808.284	0.0169622
808.362	0.0170331
808.440	0.0167226
808.518	0.0167787
808.596	0.0167292
808.674	0.0165305
808.753	0.0165545
808.831	0.0163386
808.909	0.0162784
808.987	0.0158588
809.065	0.0158228
809.143	0.0158140
809.221	0.0157328
809.299	0.0157126
809.378	0.0156482
809.456	0.0154707
809.534	0.0156432
809.612	0.0156404
809.690	0.0156286
809.768	0.0156280
809.846	0.0155746
809.924	0.0157244
810.003	0.0157983
810.081	0.0159649
810.159	0.0160112
810.237	0.0160094
810.315	0.0160680
810.393	0.0159841
810.471	0.0161028
810.549	0.0161810
810.628	0.0161056
810.706	0.0160413
810.784	0.0162168
810.862	0.0161906
810.940	0.0160886
811.018	0.0161147
811.096	0.0161450
811.174	0.0161197
811.253	0.0160899
811.331	0.0160741
811.409	0.0161098
811.487	0.0161228
811.565	0.0160128
811.643	0.0161384
811.721	0.0161266
811.799	0.0162290
811.878	0.0162668
811.956	0.0162292
812.034	0.0163844
812.112	0.0163553
812.190	0.0161343
812.268	0.0161546
812.346	0.0163380
812.424	0.0162637
812.503	0.0161444
812.581	0.0161302
812.659	0.0161478
812.737	0.0160602
812.815	0.0159164
812.893	0.0158292
812.971	0.0157958
813.049	0.0158128
813.128	0.0157007
813.206	0.0155801
813.284	0.0154066
813.362	0.0155776
813.440	0.0154517
813.518	0.0153929
813.596	0.0154168
813.674	0.0156166
813.753	0.0155674
813.831	0.0157525
813.909	0.0158978
813.987	0.0158610
814.065	0.0159715
814.143	0.0162498
814.221	0.0163040
814.299	0.0164277
814.378	0.0166911
814.456	0.0167197
814.534	0.0168700
814.612	0.0168889
814.690	0.0168913
814.768	0.0168898
814.846	0.0168118
814.924	0.0169262
815.003	0.0167550
815.081	0.0166709
815.159	0.0166505
815.237	0.0165658
815.315	0.0164095
815.393	0.0164249
815.471	0.0162159
815.549	0.0161230
815.628	0.0160358
815.706	0.0158483
815.784	0.0158623
815.862	0.0157469
815.940	0.0156557
816.018	0.0155874
816.096	0.0157455
816.174	0.0156097
816.253	0.0156434
816.331	0.0158741
816.409	0.0156258
816.487	0.0156896
816.565	0.0158388
816.643	0.0158015
816.721	0.0158791
816.799	0.0159865
816.878	0.0158724
816.956	0.0159183
817.034	0.0160754
817.112	0.0160519
817.190	0.0160314
817.268	0.0162488
817.346	0.0161340
817.424	0.0162367
817.503	0.0162025
817.581	0.0162080
817.659	0.0161673
817.737	0.0162040
817.815	0.0161817
817.893	0.0162362
817.971	0.0163902
818.049	0.0161372
818.128	0.0162685
818.206	0.0164061
818.284	0.0161227
818.362	0.0163219
818.440	0.0162511
818.518	0.0162165
818.596	0.0161954
818.674	0.0162297
818.753	0.0161462
818.831	0.0161580
818.909	0.0162884
818.987	0.0162019
819.065	0.0161860
819.143	0.0158787
819.221	0.0159599
819.299	0.0161443
819.378	0.0159087
819.456	0.0158538
819.534	0.0159468
819.612	0.0159016
819.690	0.0158654
819.768	0.0157650
819.846	0.0158987
819.924	0.0157063
820.003	0.0157273
820.081	0.0156880
820.159	0.0157330
820.237	0.0157782
820.315	0.0159238
820.393	0.0159477
820.471	0.0159885
820.549	0.0159531
820.628	0.0158667
820.706	0.0161387
820.784	0.0161607
820.862	0.0161124
820.940	0.0162408
821.018	0.0163249
821.096	0.0164198
821.174	0.0164149
821.253	0.0164179
821.331	0.0166058
821.409	0.0167642
821.487	0.0164619
821.565	0.0165627
821.643	0.0165154
821.721	0.0164616
821.799	0.0164038
821.878	0.0163670
821.956	0.0162701
822.034	0.0162506
822.112	0.0161722
822.190	0.0161349
822.268	0.0161527
822.346	0.0160989
822.424	0.0159743
822.503	0.0158732
822.581	0.0160170
822.659	0.0158691
822.737	0.0159367
822.815	0.0158590
822.893	0.0157572
822.971	0.0158503
823.049	0.0157675
823.128	0.0158694
823.206	0.0157962
823.284	0.0158994
823.362	0.0159240
823.440	0.0159363
823.518	0.0160627
823.596	0.0160292
823.674	0.0159126
823.753	0.0159335
823.831	0.0160767
823.909	0.0160332
823.987	0.0161591
824.065	0.0161270
824.143	0.0162527
824.221	0.0160907
824.299	0.0162484
824.378	0.0162964
824.456	0.0163705
824.534	0.0162810
824.612	0.0163483
824.690	0.0164689
824.768	0.0164761
824.846	0.0163669
824.924	0.0163985
825.003	0.0163908
825.081	0.0163380
825.159	0.0163053
825.237	0.0162829
825.315	0.0162849
825.393	0.0162016
825.471	0.0160824
825.549	0.0161739
825.628	0.0159853
825.706	0.0160708
825.784	0.0158558
825.862	0.0157975
825.940	0.0159306
826.018	0.0159299
826.096	0.0156516
826.174	0.0156278
826.253	0.0155772
826.331	0.0156918
826.409	0.0156841
826.487	0.0157407
826.565	0.0155581
826.643	0.0154973
826.721	0.0156362
826.799	0.0156712
826.878	0.0157705
826.956	0.0158244
827.034	0.0158337
827.112	0.0157876
827.190	0.0158689
827.268	0.0159904
827.346	0.0160773
827.424	0.0160899
827.503	0.0163394
827.581	0.0164041
827.659	0.0163460
827.737	0.0163983
827.815	0.0164733
827.893	0.0165605
827.971	0.0165314
828.049	0.0166460
828.128	0.0166260
828.206	0.0166278
828.284	0.0166502
828.362	0.0165796
828.440	0.0165470
828.518	0.0166048
828.596	0.0164372
828.674	0.0163733
828.753	0.0164633
828.831	0.0164057
828.909	0.0161430
828.987	0.0161124
829.065	0.0161904
829.143	0.0161253
829.221	0.0160963
829.299	0.0160686
829.378	0.0159666
829.456	0.0159086
829.534	0.0159274
829.612	0.0159219
829.690	0.0158614
829.768	0.0158088
829.846	0.0157574
829.924	0.0157550
830.003	0.0157241
830.081	0.0155778
830.159	0.0157002
830.237	0.0155684
830.315	0.0156807
830.393	0.0157862
830.471	0.0158650
830.549	0.0157397
830.628	0.0158134
830.706	0.0159396
830.784	0.0159374
830.862	0.0159089
830.940	0.0159626
831.018	0.0159817
831.096	0.0160089
831.174	0.0161160
831.253	0.0160851
831.331	0.0161366
831.409	0.0162302
831.487	0.0162559
831.565	0.0161415
831.643	0.0162256
831.721	0.0163798
831.799	0.0163245
831.878	0.0161433
831.956	0.0163625
832.034	0.0162782
832.112	0.0162271
832.190	0.0162687
832.268	0.0161990
832.346	0.0161269
832.424	0.0161318
832.503	0.0160363
832.581	0.0160259
832.659	0.0160606
832.737	0.0160921
832.815	0.0159419
832.893	0.0159764
832.971	0.0158494
833.049	0.0160156
833.128	0.0159249
833.206	0.0158816
833.284	0.0158700
833.362	0.0159157
833.440	0.0159084
833.518	0.0159456
833.596	0.0160049
833.674	0.0158622
833.753	0.0159190
833.831	0.0160759
833.909	0.0160397
833.987	0.0160182
834.065	0.0161312
834.143	0.0160568
834.221	0.0160273
834.299	0.0162074
834.378	0.0162071
834.456	0.0162984
834.534	0.0162959
834.612	0.0161247
834.690	0.0162905
834.768	0.0162460
834.846	0.0162235
834.924	0.0163326
835.003	0.0163964
835.081	0.0164477
835.159	0.0162962
835.237	0.0161920
835.315	0.0163033
835.393	0.0162121
835.471	0.0162103
835.549	0.0163004
835.628	0.0163274
835.706	0.0162006
835.784	0.0161494
835.862	0.0161018
835.940	0.0159777
836.018	0.0161485
836.096	0.0161803
836.174	0.0161566
836.253	0.0159966
836.331	0.0158547
836.409	0.0159582
836.487	0.0159270
836.565	0.0158788
836.643	0.0158332
836.721	0.0158460
836.799	0.0159328
836.878	0.0158150
836.956	0.0157824
837.034	0.0158869
837.112	0.0159350
837.190	0.0158770
837.268	0.0158482
837.346	0.0159204
837.424	0.0161064
837.503	0.0159832
837.581	0.0158990
837.659	0.0160217
837.737	0.0160420
837.815	0.0162293
837.893	0.0161674
837.971	0.0160817
838.049	0.0159958
838.128	0.0161844
838.206	0.0163037
838.284	0.0162659
838.362	0.0162704
838.440	0.0162103
838.518	0.0161982
838.596	0.0161977
838.674	0.0162814
838.753	0.0162863
838.831	0.0161381
838.909	0.0162778
838.987	0.0161706
839.065	0.0160535
839.143	0.0162202
839.221	0.0162148
839.299	0.0160346
839.378	0.0160878
839.456	0.0161049
839.534	0.0160162
839.612	0.0160941
839.690	0.0159921
839.768	0.0159325
839.846	0.0159597
839.924	0.0160518
840.003	0.0161164
840.081	0.0159676
840.159	0.0160260
840.237	0.0159390
840.315	0.0160303
840.393	0.0161363
840.471	0.0161263
840.549	0.0161124
840.628	0.0161219
840.706	0.0160681
840.784	0.0161556
840.862	0.0162129
840.940	0.0162568
841.018	0.0163193
841.096	0.0162680
841.174	0.0161478
841.253	0.0162106
841.331	0.0162182
841.409	0.0161633
841.487	0.0162662
841.565	0.0163029
841.643	0.0162984
841.721	0.0163594
841.799	0.0164497
841.878	0.0161788
841.956	0.0161275
842.034	0.0162028
842.112	0.0160823
842.190	0.0160887
842.268	0.0162054
842.346	0.0161405
842.424	0.0160642
842.503	0.0159927
842.581	0.0159512
842.659	0.0158942
842.737	0.0159364
842.815	0.0158270
842.893	0.0159711
842.971	0.0159612
843.049	0.0160522
843.128	0.0160439
843.206	0.0159537
843.284	0.0159047
843.362	0.0159090
843.440	0.0160455
843.518	0.0158310
843.596	0.0158075
843.674	0.0160078
843.753	0.0159874
843.831	0.0158085
843.909	0.0160239
843.987	0.0160660
844.065	0.0160239
844.143	0.0160690
844.221	0.0162103
844.299	0.0161153
844.378	0.0160112
844.456	0.0161037
844.534	0.0161091
844.612	0.0161916
844.690	0.0160549
844.768	0.0162158
844.846	0.0162386
844.924	0.0160943
845.003	0.0162482
845.081	0.0161810
845.159	0.0161946
845.237	0.0162259
845.315	0.0161663
845.393	0.0161587
845.471	0.0161371
845.549	0.0161250
845.628	0.0159719
845.706	0.0161600
845.784	0.0161192
845.862	0.0160001
845.940	0.0159795
846.018	0.0160571
846.096	0.0161140
846.174	0.0160928
846.253	0.0159483
846.331	0.0158771
846.409	0.0157574
846.487	0.0159087
846.565	0.0159521
846.643	0.0160619
846.721	0.0159824
846.799	0.0159590
846.878	0.0158545
846.956	0.0159761
847.034	0.0160212
847.112	0.0160104
847.190	0.0160583
847.268	0.0159615
847.346	0.0160011
847.424	0.0162209
847.503	0.0161321
847.581	0.0161885
847.659	0.0161122
847.737	0.0161102
847.815	0.0160477
847.893	0.0160925
847.971	0.0162263
848.049	0.0160327
848.128	0.0161884
848.206	0.0162521
848.284	0.0161767
848.362	0.0162534
848.440	0.0161356
848.518	0.0161565
848.596	0.0161702
848.674	0.0162007
848.753	0.0161494
848.831	0.0161918
848.909	0.0162662
848.987	0.0162321
849.065	0.0162800
849.143	0.0161559
849.221	0.0161215
849.299	0.0161650
849.378	0.0162186
849.456	0.0161884
849.534	0.0160472
849.612	0.0160853
849.690	0.0161362
849.768	0.0161163
849.846	0.0162321
849.924	0.0162463
850.003	0.0161752
850.081	0.0161469
850.159	0.0159836
850.237	0.0160265
850.315	0.0160317
850.393	0.0160276
850.471	0.0159882
850.549	0.0159454
850.628	0.0158878
850.706	0.0158309
850.784	0.0159028
850.862	0.0158952
850.940	0.0160249
851.018	0.0160545
851.096	0.0159069
851.174	0.0160187
851.253	0.0159955
851.331	0.0160789
851.409	0.0160500
851.487	0.0160090
851.565	0.0161142
851.643	0.0160699
851.721	0.0161447
851.799	0.0161115
851.878	0.0161117
851.956	0.0159968
852.034	0.0158335
852.112	0.0160502
852.190	0.0159446
852.268	0.0159307
852.346	0.0160060
852.424	0.0160184
852.503	0.0160069
852.581	0.0159813
852.659	0.0160320
852.737	0.0158055
852.815	0.0158218
852.893	0.0159084
852.971	0.0159800
853.049	0.0159879
853.128	0.0158665
853.206	0.0159206
853.284	0.0159222
853.362	0.0159926
853.440	0.0159810
853.518	0.0159615
853.596	0.0161195
853.674	0.0160192
853.753	0.0159635
853.831	0.0161155
853.909	0.0162560
853.987	0.0160218
854.065	0.0161452
854.143	0.0160409
854.221	0.0161484
854.299	0.0160992
854.378	0.0161426
854.456	0.0162539
854.534	0.0162766
854.612	0.0162334
854.690	0.0161842
854.768	0.0161855
854.846	0.0161095
854.924	0.0161767
855.003	0.0162820
855.081	0.0161782
855.159	0.0163038
855.237	0.0162381
855.315	0.0161763
855.393	0.0162554
855.471	0.0160865
855.549	0.0161141
855.628	0.0162050
855.706	0.0161369
855.784	0.0163479
855.862	0.0162943
855.940	0.0162575
856.018	0.0160935
856.096	0.0163571
856.174	0.0163848
856.253	0.0163194
856.331	0.0161734
856.409	0.0162605
856.487	0.0161308
856.565	0.0160214
856.643	0.0161602
856.721	0.0159953
856.799	0.0160906
856.878	0.0160381
856.956	0.0159179
857.034	0.0158284
857.112	0.0158949
857.190	0.0158582
857.268	0.0159304
857.346	0.0156522
857.424	0.0158056
857.503	0.0156713
857.581	0.0158174
857.659	0.0157748
857.737	0.0156944
857.815	0.0158229
857.893	0.0158396
857.971	0.0158809
858.049	0.0158420
858.128	0.0159182
858.206	0.0159424
858.284	0.0157603
858.362	0.0159173
858.440	0.0160622
858.518	0.0160294
858.596	0.0161414
858.674	0.0161157
858.753	0.0160281
858.831	0.0160688
858.909	0.0162605
858.987	0.0161693
859.065	0.0161900
859.143	0.0162788
859.221	0.0161777
859.299	0.0160645
859.378	0.0160750
859.456	0.0160655
859.534	0.0160288
859.612	0.0160406
859.690	0.0161432
859.768	0.0160342
859.846	0.0161296
859.924	0.0162584
860.003	0.0160583
860.081	0.0161224
860.159	0.0160498
860.237	0.0163016
860.315	0.0160651
860.393	0.0161362
860.471	0.0163829
860.549	0.0161978
860.628	0.0163342
860.706	0.0162965
860.784	0.0162863
860.862	0.0162939
860.940	0.0162386
861.018	0.0162578
861.096	0.0161692
861.174	0.0162799
861.253	0.0162032
861.331	0.0161885
861.409	0.0162076
861.487	0.0160563
861.565	0.0161948
861.643	0.0162182
861.721	0.0161030
861.799	0.0160776
861.878	0.0159569
861.956	0.0160968
862.034	0.0160426
862.112	0.0160812
862.190	0.0160783
862.268	0.0159558
862.346	0.0160282
862.424	0.0161057
862.503	0.0160330
862.581	0.0160151
862.659	0.0160815
862.737	0.0160000
862.815	0.0160765
862.893	0.0159412
862.971	0.0159959
863.049	0.0161754
863.128	0.0159018
863.206	0.0159224
863.284	0.0159191
863.362	0.0159625
863.440	0.0159259
863.518	0.0159045
863.596	0.0159875
863.674	0.0159477
863.753	0.0157798
863.831	0.0159271
863.909	0.0158228
863.987	0.0157833
864.065	0.0159184
864.143	0.0158938
864.221	0.0159139
864.299	0.0158919
864.378	0.0160302
864.456	0.0158413
864.534	0.0159247
864.612	0.0160401
864.690	0.0159404
864.768	0.0162000
864.846	0.0160611
864.924	0.0162732
865.003	0.0161807
865.081	0.0163831
865.159	0.0163238
865.237	0.0162526
865.315	0.0162078
865.393	0.0162103
865.471	0.0163308
865.549	0.0163091
865.628	0.0163855
865.706	0.0162985
865.784	0.0162797
865.862	0.0162307
865.940	0.0162252
866.018	0.0162774
866.096	0.0162776
866.174	0.0161428
866.253	0.0160817
866.331	0.0161902
866.409	0.0160863
866.487	0.0161597
866.565	0.0160715
866.643	0.0161111
866.721	0.0162041
866.799	0.0159936
866.878	0.0161873
866.956	0.0160533
867.034	0.0161129
867.112	0.0162485
867.190	0.0162119
867.268	0.0160814
867.346	0.0162025
867.424	0.0162855
867.503	0.0162390
867.581	0.0162118
867.659	0.0161228
867.737	0.0161958
867.815	0.0161206
867.893	0.0161824
867.971	0.0161100
868.049	0.0159716
868.128	0.0159579
868.206	0.0161089
868.284	0.0160359
868.362	0.0159125
868.440	0.0159869
868.518	0.0160063
868.596	0.0158805
868.674	0.0158118
868.753	0.0158768
868.831	0.0160733
868.909	0.0160204
868.987	0.0159736
869.065	0.0159341
869.143	0.0159812
869.221	0.0161134
869.299	0.0159464
869.378	0.0161637
869.456	0.0161344
869.534	0.0161312
869.612	0.0159496
869.690	0.0160506
869.768	0.0162304
869.846	0.0161610
869.924	0.0160040
870.003	0.0161582
870.081	0.0160763
870.159	0.0159409
870.237	0.0161195
870.315	0.0160920
870.393	0.0159294
870.471	0.0159225
870.549	0.0160136
870.628	0.0159194
870.706	0.0159310
870.784	0.0159454
870.862	0.0159547
870.940	0.0157697
871.018	0.0159295
871.096	0.0160704
871.174	0.0160232
871.253	0.0160043
871.331	0.0160409
871.409	0.0159325
871.487	0.0161819
871.565	0.0162245
871.643	0.0161623
871.721	0.0162220
871.799	0.0161623
871.878	0.0163665
871.956	0.0162679
872.034	0.0162580
872.112	0.0162640
872.190	0.0162904
872.268	0.0162584
872.346	0.0164221
872.424	0.0162498
872.503	0.0162058
872.581	0.0162860
872.659	0.0161432
872.737	0.0160482
872.815	0.0161021
872.893	0.0162196
872.971	0.0160036
873.049	0.0160468
873.128	0.0159927
873.206	0.0160556
873.284	0.0159363
873.362	0.0159708
873.440	0.0159732
873.518	0.0160273
873.596	0.0160181
873.674	0.0159939
873.753	0.0161915
873.831	0.0160709
873.909	0.0160818
873.987	0.0161659
874.065	0.0161515
874.143	0.0161520
874.221	0.0160886
874.299	0.0161536
874.378	0.0161758
874.456	0.0160172
874.534	0.0160369
874.612	0.0160432
874.690	0.0160243
874.768	0.0159872
874.846	0.0158298
874.924	0.0160059
875.003	0.0158153
875.081	0.0159665
875.159	0.0159524
875.237	0.0159421
875.315	0.0159350
875.393	0.0159805
875.471	0.0159175
875.549	0.0159503
875.628	0.0159885
875.706	0.0160975
875.784	0.0159632
875.862	0.0162388
875.940	0.0161710
876.018	0.0162338
876.096	0.0163218
876.174	0.0161369
876.253	0.0163165
876.331	0.0162080
876.409	0.0161388
876.487	0.0161848
876.565	0.0160125
876.643	0.0161723
876.721	0.0160525
876.799	0.0160369
876.878	0.0159866
876.956	0.0160749
877.034	0.0159218
877.112	0.0160440
877.190	0.0160094
877.268	0.0159549
877.346	0.0160177
877.424	0.0160749
877.503	0.0159261
877.581	0.0159473
877.659	0.0159997
877.737	0.0160200
877.815	0.0160497
877.893	0.0161297
877.971	0.0160338
878.049	0.0161046
878.128	0.0161877
878.206	0.0162323
878.284	0.0162687
878.362	0.0161906
878.440	0.0163271
878.518	0.0161522
878.596	0.0162427
878.674	0.0162537
878.753	0.0163623
878.831	0.0162292
878.909	0.0163483
878.987	0.0162345
879.065	0.0162142
879.143	0.0161465
879.221	0.0162277
879.299	0.0162106
879.378	0.0160468
879.456	0.0161138
879.534	0.0161466
879.612	0.0160618
879.690	0.0160939
879.768	0.0160677
879.846	0.0159839
879.924	0.0159613
880.003	0.0160434
880.081	0.0159911
880.159	0.0159708
880.237	0.0160883
880.315	0.0160010
880.393	0.0161047
880.471	0.0161469
880.549	0.0159535
880.628	0.0159935
880.706	0.0160451
880.784	0.0162148
880.862	0.0162165
880.940	0.0160047
881.018	0.0161778
881.096	0.0161358
881.174	0.0161253
881.253	0.0161136
881.331	0.0161755
881.409	0.0159390
881.487	0.0160822
881.565	0.0160796
881.643	0.0161563
881.721	0.0160336
881.799	0.0160857
881.878	0.0160106
881.956	0.0159959
882.034	0.0159903
882.112	0.0160139
882.190	0.0159518
882.268	0.0160458
882.346	0.0160101
882.424	0.0161326
882.503	0.0161334
882.581	0.0160188
882.659	0.0160683
882.737	0.0161219
882.815	0.0161786
882.893	0.0161445
882.971	0.0161930
883.049	0.0160461
883.128	0.0162143
883.206	0.0161117
883.284	0.0160603
883.362	0.0162058
883.440	0.0160333
883.518	0.0160237
883.596	0.0159437
883.674	0.0160506
883.753	0.0160176
883.831	0.0159934
883.909	0.0160795
883.987	0.0160863
884.065	0.0159997
884.143	0.0160277
884.221	0.0159997
884.299	0.0160184
884.378	0.0160314
884.456	0.0160018
884.534	0.0159975
884.612	0.0160409
884.690	0.0160787
884.768	0.0161048
884.846	0.0162394
884.924	0.0160969
885.003	0.0162382
885.081	0.0161716
885.159	0.0161576
885.237	0.0161283
885.315	0.0161440
885.393	0.0161879
885.471	0.0161848
885.549	0.0161648
885.628	0.0161704
885.706	0.0161265
885.784	0.0161117
885.862	0.0160696
885.940	0.0160847
886.018	0.0161080
886.096	0.0161177
886.174	0.0161176
886.253	0.0160720
886.331	0.0160367
886.409	0.0158768
886.487	0.0160487
886.565	0.0161282
886.643	0.0159492
886.721	0.0160865
886.799	0.0159830
886.878	0.0159471
886.956	0.0159943
887.034	0.0160570
887.112	0.0160272
887.190	0.0161125
887.268	0.0161367
887.346	0.0160417
887.424	0.0160526
887.503	0.0160150
887.581	0.0159318
887.659	0.0161176
887.737	0.0162331
887.815	0.0160063
887.893	0.0161031
887.971	0.0160490
888.049	0.0158653
888.128	0.0160664
888.206	0.0161928
888.284	0.0161043
888.362	0.0160353
888.440	0.0161336
888.518	0.0161326
888.596	0.0160101
888.674	0.0161869
888.753	0.0160973
888.831	0.0161568
888.909	0.0159715
888.987	0.0160255
889.065	0.0160162
889.143	0.0161084
889.221	0.0160845
889.299	0.0161987
889.378	0.0160201
889.456	0.0161298
889.534	0.0159644
889.612	0.0160114
889.690	0.0160636
889.768	0.0160705
889.846	0.0159632
889.924	0.0160135
890.003	0.0160607
890.081	0.0159306
890.159	0.0159511
890.237	0.0159271
890.315	0.0159203
890.393	0.0159534
890.471	0.0159743
890.549	0.0160714
890.628	0.0159119
890.706	0.0159102
890.784	0.0162222
890.862	0.0160105
890.940	0.0160040
891.018	0.0159924
891.096	0.0158939
891.174	0.0160922
891.253	0.0161523
891.331	0.0161889
891.409	0.0160421
891.487	0.0160979
891.565	0.0162806
891.643	0.0161652
891.721	0.0162596
891.799	0.0161501
891.878	0.0162760
891.956	0.0161813
892.034	0.0162730
892.112	0.0162050
892.190	0.0161418
892.268	0.0162274
892.346	0.0162610
892.424	0.0162042
892.503	0.0161104
892.581	0.0162671
892.659	0.0161021
892.737	0.0160255
892.815	0.0160902
892.893	0.0159879
892.971	0.0159890
893.049	0.0160097
893.128	0.0158714
893.206	0.0159592
893.284	0.0160272
893.362	0.0159724
893.440	0.0159421
893.518	0.0159740
893.596	0.0160126
893.674	0.0159617
893.753	0.0161253
893.831	0.0160413
893.909	0.0160577
893.987	0.0161018
894.065	0.0161147
894.143	0.0162386
894.221	0.0161150
894.299	0.0161028
894.378	0.0161803
894.456	0.0163249
894.534	0.0160815
894.612	0.0161073
894.690	0.0161494
894.768	0.0160006
894.846	0.0161220
894.924	0.0162890
895.003	0.0161213
895.081	0.0161102
895.159	0.0161475
895.237	0.0161893
895.315	0.0161053
895.393	0.0161626
895.471	0.0160294
895.549	0.0160370
895.628	0.0161095
895.706	0.0160235
895.784	0.0162085
895.862	0.0161535
895.940	0.0160999
896.018	0.0159106
896.096	0.0160841
896.174	0.0160829
896.253	0.0160482
896.331	0.0161465
896.409	0.0160548
896.487	0.0161043
896.565	0.0160912
896.643	0.0161845
896.721	0.0161884
896.799	0.0161121
896.878	0.0159200
896.956	0.0160834
897.034	0.0160542
897.112	0.0160757
897.190	0.0160851
897.268	0.0159875
897.346	0.0159633
897.424	0.0160011
897.503	0.0160773
897.581	0.0160319
897.659	0.0160445
897.737	0.0160825
897.815	0.0160535
897.893	0.0160931
897.971	0.0160211
898.049	0.0160537
898.128	0.0161887
898.206	0.0160323
898.284	0.0160560
898.362	0.0160979
898.440	0.0159370
898.518	0.0160689
898.596	0.0159983
898.674	0.0160236
898.753	0.0161333
898.831	0.0161040
898.909	0.0158926
898.987	0.0159430
899.065	0.0159339
899.143	0.0160442
899.221	0.0161287
899.299	0.0161533
899.378	0.0161696
899.456	0.0160091
899.534	0.0159811
899.612	0.0160883
899.690	0.0161874
899.768	0.0160218
899.846	0.0160978
899.924	0.0161159
900.003	0.0159345
900.081	0.0159782
900.159	0.0161113
900.237	0.0160915
900.315	0.0160425
900.393	0.0160441
900.471	0.0160030
900.549	0.0161668
900.628	0.0162197
900.706	0.0161265
900.784	0.0161322
900.862	0.0160162
900.940	0.0160845
901.018	0.0160500
901.096	0.0161348
901.174	0.0160905
901.253	0.0161680
901.331	0.0161816
901.409	0.0161065
901.487	0.0161106
901.565	0.0162299
901.643	0.0161758
901.721	0.0161613
901.799	0.0161183
901.878	0.0160293
901.956	0.0161633
902.034	0.0162048
902.112	0.0161578
902.190	0.0160950
902.268	0.0161706
902.346	0.0161904
902.424	0.0161983
902.503	0.0161572
902.581	0.0160054
902.659	0.0160564
902.737	0.0160963
902.815	0.0161432
902.893	0.0161492
902.971	0.0160709
903.049	0.0159004
903.128	0.0159282
903.206	0.0160500
903.284	0.0161111
903.362	0.0160700
903.440	0.0159259
903.518	0.0160469
903.596	0.0159522
903.674	0.0159326
903.753	0.0160783
903.831	0.0160627
903.909	0.0160162
903.987	0.0161507
904.065	0.0160393
904.143	0.0160338
904.221	0.0160113
904.299	0.0160148
904.378	0.0159092
904.456	0.0159481
904.534	0.0159840
904.612	0.0160175
904.690	0.0161297
904.768	0.0160533
904.846	0.0160571
904.924	0.0161095
905.003	0.0160737
905.081	0.0160338
905.159	0.0160564
905.237	0.0161990
905.315	0.0161371
905.393	0.0161089
905.471	0.0162048
905.549	0.0162248
905.628	0.0161298
905.706	0.0160392
905.784	0.0161037
905.862	0.0160258
905.940	0.0161385
906.018	0.0161623
906.096	0.0160928
906.174	0.0161776
906.253	0.0160767
906.331	0.0160846
906.409	0.0162440
906.487	0.0161835
906.565	0.0162607
906.643	0.0160467
906.721	0.0160578
906.799	0.0161492
906.878	0.0160561
906.956	0.0160036
907.034	0.0160548
907.112	0.0160468
907.190	0.0160542
907.268	0.0160879
907.346	0.0162431
907.424	0.0161864
907.503	0.0162602
907.581	0.0161452
907.659	0.0161781
907.737	0.0160958
907.815	0.0161332
907.893	0.0161764
907.971	0.0160559
908.049	0.0161898
908.128	0.0162632
908.206	0.0161668
908.284	0.0161461
908.362	0.0161080
908.440	0.0161158
908.518	0.0161325
908.596	0.0160647
908.674	0.0161061
908.753	0.0159081
908.831	0.0159883
908.909	0.0160780
908.987	0.0160938
909.065	0.0159745
909.143	0.0159951
909.221	0.0160014
909.299	0.0161192
909.378	0.0160579
909.456	0.0160690
909.534	0.0160587
909.612	0.0159572
909.690	0.0161098
909.768	0.0161914
909.846	0.0159438
909.924	0.0159684
910.003	0.0159985
910.081	0.0159689
910.159	0.0158785
910.237	0.0159400
910.315	0.0159557
910.393	0.0159489
910.471	0.0161020
910.549	0.0160069
910.628	0.0160553
910.706	0.0160086
910.784	0.0159789
910.862	0.0160401
910.940	0.0160118
911.018	0.0160867
911.096	0.0160966
911.174	0.0160983
911.253	0.0160578
911.331	0.0161066
911.409	0.0159707
911.487	0.0159850
911.565	0.0162370
911.643	0.0162538
911.721	0.0161761
911.799	0.0161882
911.878	0.0163236
911.956	0.0161943
912.034	0.0162121
912.112	0.0161575
912.190	0.0162910
912.268	0.0161687
912.346	0.0163493
912.424	0.0163531
912.503	0.0162703
912.581	0.0161369
912.659	0.0161580
912.737	0.0162334
912.815	0.0161605
912.893	0.0160946
912.971	0.0160599
913.049	0.0160269
913.128	0.0160305
913.206	0.0161202
913.284	0.0158997
913.362	0.0158952
913.440	0.0161319
913.518	0.0160638
913.596	0.0159292
913.674	0.0160112
913.753	0.0159750
913.831	0.0159200
913.909	0.0160055
913.987	0.0160348
914.065	0.0161166
914.143	0.0161532
914.221	0.0162115
914.299	0.0160934
914.378	0.0162480
914.456	0.0161695
914.534	0.0162255
914.612	0.0161798
914.690	0.0161342
914.768	0.0162115
914.846	0.0162872
914.924	0.0162093
915.003	0.0160987
915.081	0.0160911
915.159	0.0161821
915.237	0.0160561
915.315	0.0160823
915.393	0.0160976
915.471	0.0160999
915.549	0.0160147
915.628	0.0160149
915.706	0.0159828
915.784	0.0160159
915.862	0.0159365
915.940	0.0159772
916.018	0.0159442
916.096	0.0159673
916.174	0.0159902
916.253	0.0159775
916.331	0.0158957
916.409	0.0158422
916.487	0.0158951
916.565	0.0158624
916.643	0.0159710
916.721	0.0159957
916.799	0.0158949
916.878	0.0161216
916.956	0.0160137
917.034	0.0159295
917.112	0.0160415
917.190	0.0161382
917.268	0.0160421
917.346	0.0162167
917.424	0.0160873
917.503	0.0160061
917.581	0.0160143
917.659	0.0161250
917.737	0.0159646
917.815	0.0160641
917.893	0.0162584
917.971	0.0161530
918.049	0.0161604
918.128	0.0162045
918.206	0.0161213
918.284	0.0160423
918.362	0.0162138
918.440	0.0161181
918.518	0.0161395
918.596	0.0160748
918.674	0.0159746
918.753	0.0161197
918.831	0.0160673
918.909	0.0160483
918.987	0.0161292
919.065	0.0160802
919.143	0.0158345
919.221	0.0160400
919.299	0.0160672
919.378	0.0161028
919.456	0.0161350
919.534	0.0160062
919.612	0.0159557
919.690	0.0160458
919.768	0.0161698
919.846	0.0161021
919.924	0.0161817
920.003	0.0162061
920.081	0.0162494
920.159	0.0162015
920.237	0.0160394
920.315	0.0160983
920.393	0.0160855
920.471	0.0160732
920.549	0.0160774
920.628	0.0159953
920.706	0.0160405
920.784	0.0160187
920.862	0.0160501
920.940	0.0160049
921.018	0.0159840
921.096	0.0160578
921.174	0.0160464
921.253	0.0159858
921.331	0.0160746
921.409	0.0159995
921.487	0.0161259
921.565	0.0160860
921.643	0.0159949
921.721	0.0162161
921.799	0.0161042
921.878	0.0160311
921.956	0.0160516
922.034	0.0160092
922.112	0.0161163
922.190	0.0161417
922.268	0.0161148
922.346	0.0160077
922.424	0.0160931
922.503	0.0161549
922.581	0.0159648
922.659	0.0160653
922.737	0.0161131
922.815	0.0161296
922.893	0.0161338
922.971	0.0160294
923.049	0.0160738
923.128	0.0159815
923.206	0.0160522
923.284	0.0159850
923.362	0.0160114
923.440	0.0159743
923.518	0.0160412
923.596	0.0161113
923.674	0.0159715
923.753	0.0161414
923.831	0.0161015
923.909	0.0160886
923.987	0.0161126
924.065	0.0160708
924.143	0.0160573
924.221	0.0161348
924.299	0.0160693
924.378	0.0161081
924.456	0.0160010
924.534	0.0159298
924.612	0.0161396
924.690	0.0161235
924.768	0.0160990
924.846	0.0159919
924.924	0.0161185
925.003	0.0159274
925.081	0.0160229
925.159	0.0160045
925.237	0.0160423
925.315	0.0161366
925.393	0.0160639
925.471	0.0161404
925.549	0.0162027
925.628	0.0160877
925.706	0.0161158
925.784	0.0161839
925.862	0.0161983
925.940	0.0161023
926.018	0.0161960
926.096	0.0161771
926.174	0.0161895
926.253	0.0162096
926.331	0.0162916
926.409	0.0161001
926.487	0.0162003
926.565	0.0161844
926.643	0.0161012
926.721	0.0161425
926.799	0.0161243
926.878	0.0160982
926.956	0.0160684
927.034	0.0160983
927.112	0.0159839
927.190	0.0160583
927.268	0.0160901
927.346	0.0160761
927.424	0.0160085
927.503	0.0158833
927.581	0.0157478
927.659	0.0159357
927.737	0.0160321
927.815	0.0159592
927.893	0.0160314
927.971	0.0160046
928.049	0.0160469
928.128	0.0160016
928.206	0.0160764
928.284	0.0160004
928.362	0.0161268
928.440	0.0161391
928.518	0.0159985
928.596	0.0159850
928.674	0.0161430
928.753	0.0160526
928.831	0.0161642
928.909	0.0159799
928.987	0.0159928
929.065	0.0159335
929.143	0.0160686
929.221	0.0160719
929.299	0.0161054
929.378	0.0159500
929.456	0.0160925
929.534	0.0161290
929.612	0.0161338
929.690	0.0160717
929.768	0.0160555
929.846	0.0161382
929.924	0.0161135
930.003	0.0161221
930.081	0.0160670
930.159	0.0161687
930.237	0.0161959
930.315	0.0162850
930.393	0.0161835
930.471	0.0162993
930.549	0.0162271
930.628	0.0161565
930.706	0.0161183
930.784	0.0160591
930.862	0.0160704
930.940	0.0161279
931.018	0.0160313
931.096	0.0159863
931.174	0.0161380
931.253	0.0160368
931.331	0.0161047
931.409	0.0161124
931.487	0.0160114
931.565	0.0161315
931.643	0.0159787
931.721	0.0159859
931.799	0.0159846
931.878	0.0161112
931.956	0.0160725
932.034	0.0160803
932.112	0.0160317
932.190	0.0159745
932.268	0.0160418
932.346	0.0159540
932.424	0.0160329
932.503	0.0161896
932.581	0.0159621
932.659	0.0160012
932.737	0.0160814
932.815	0.0161652
932.893	0.0161749
932.971	0.0161242
933.049	0.0159827
933.128	0.0160096
933.206	0.0160632
933.284	0.0160126
933.362	0.0160839
933.440	0.0160637
933.518	0.0161311
933.596	0.0160947
933.674	0.0160880
933.753	0.0161421
933.831	0.0160433
933.909	0.0160914
933.987	0.0161685
934.065	0.0159296
934.143	0.0159303
934.221	0.0161180
934.299	0.0160278
934.378	0.0160568
934.456	0.0160459
934.534	0.0159967
934.612	0.0161763
934.690	0.0158784
934.768	0.0160477
934.846	0.0160912
934.924	0.0160261
935.003	0.0159663
935.081	0.0161371
935.159	0.0159813
935.237	0.0161147
935.315	0.0160632
935.393	0.0160847
935.471	0.0161432
935.549	0.0162225
935.628	0.0159200
935.706	0.0162112
935.784	0.0161533
935.862	0.0160147
935.940	0.0160641
936.018	0.0161354
936.096	0.0160294
936.174	0.0159888
936.253	0.0158431
936.331	0.0159785
936.409	0.0162150
936.487	0.0160226
936.565	0.0160910
936.643	0.0160148
936.721	0.0160860
936.799	0.0160873
936.878	0.0162649
936.956	0.0162057
937.034	0.0161246
937.112	0.0161528
937.190	0.0160897
937.268	0.0160346
937.346	0.0160890
937.424	0.0160590
937.503	0.0161456
937.581	0.0158939
937.659	0.0158817
937.737	0.0159803
937.815	0.0159412
937.893	0.0159039
937.971	0.0160634
938.049	0.0160492
938.128	0.0159348
938.206	0.0161004
938.284	0.0160979
938.362	0.0160413
938.440	0.0161742
938.518	0.0159782
938.596	0.0160316
938.674	0.0160215
938.753	0.0160219
938.831	0.0161508
938.909	0.0161646
938.987	0.0160384
939.065	0.0159408
939.143	0.0161385
939.221	0.0160621
939.299	0.0161237
939.378	0.0159626
939.456	0.0159740
939.534	0.0160880
939.612	0.0161100
939.690	0.0159927
939.768	0.0160525
939.846	0.0159930
939.924	0.0160256
940.003	0.0160715
940.081	0.0159618
940.159	0.0159000
940.237	0.0161035
940.315	0.0161032
940.393	0.0161227
940.471	0.0160501
940.549	0.0160931
940.628	0.0161768
940.706	0.0161188
940.784	0.0160313
940.862	0.0159808
940.940	0.0160995
941.018	0.0161570
941.096	0.0161801
941.174	0.0161579
941.253	0.0160284
941.331	0.0160007
941.409	0.0160519
941.487	0.0160917
941.565	0.0160907
941.643	0.0161717
941.721	0.0161926
941.799	0.0161145
941.878	0.0158737
941.956	0.0160307
942.034	0.0159660
942.112	0.0161001
942.190	0.0160073
942.268	0.0160868
942.346	0.0161065
942.424	0.0161124
942.503	0.0160809
942.581	0.0160770
942.659	0.0159576
942.737	0.0159978
942.815	0.0160827
942.893	0.0160206
942.971	0.0159452
943.049	0.0160287
943.128	0.0160168
943.206	0.0159867
943.284	0.0159971
943.362	0.0159399
943.440	0.0160188
943.518	0.0159467
943.596	0.0160487
943.674	0.0160368
943.753	0.0161437
943.831	0.0161092
943.909	0.0162807
943.987	0.0161063
944.065	0.0162119
944.143	0.0160375
944.221	0.0160103
944.299	0.0161993
944.378	0.0161489
944.456	0.0161698
944.534	0.0159917
944.612	0.0160343
944.690	0.0160061
944.768	0.0160641
944.846	0.0160416
944.924	0.0161064
945.003	0.0159543
945.081	0.0159766
945.159	0.0161178
945.237	0.0159723
945.315	0.0160658
945.393	0.0160664
945.471	0.0160914
945.549	0.0160799
945.628	0.0160114
945.706	0.0160712
945.784	0.0159106
945.862	0.0160356
945.940	0.0160347
946.018	0.0159026
946.096	0.0160173
946.174	0.0160708
946.253	0.0159998
946.331	0.0160900
946.409	0.0160629
946.487	0.0160388
946.565	0.0160313
946.643	0.0160250
946.721	0.0161057
946.799	0.0161391
946.878	0.0160765
946.956	0.0160461
947.034	0.0161089
947.112	0.0161967
947.190	0.0161101
947.268	0.0161110
947.346	0.0161359
947.424	0.0160723
947.503	0.0160266
947.581	0.0159938
947.659	0.0161465
947.737	0.0161459
947.815	0.0161096
947.893	0.0162401
947.971	0.0161243
948.049	0.0161111
948.128	0.0160349
948.206	0.0160889
948.284	0.0160756
948.362	0.0160149
948.440	0.0161526
948.518	0.0160642
948.596	0.0160378
948.674	0.0161671
948.753	0.0160027
948.831	0.0160848
948.909	0.0159734
948.987	0.0161022
949.065	0.0160251
949.143	0.0159643
949.221	0.0160126
949.299	0.0160378
949.378	0.0160731
949.456	0.0160693
949.534	0.0160826
949.612	0.0161024
949.690	0.0161008
949.768	0.0158889
949.846	0.0160337
949.924	0.0161229
