06/29/2022	23:04:01	Ver.	4.1	UNKNOWN
Optical Delay	630.002507	Delta X		0.078125	Sweeps	1	Scan Rate	0/0
Coordinates	Axis 1	NaN	Axis 2	NaN	Axis 3	NaN	Axis 4	NaN	Axis 5	NaN	Axis 6	0.000000
TX Power	0.000000	RX Power	0.000000

630.003	0.0158100
630.081	0.0158440
630.159	0.0158643
630.237	0.0158027
630.315	0.0157621
630.393	0.0158138
630.471	0.0159547
630.549	0.0158086
630.628	0.0157992
630.706	0.0157914
630.784	0.0157813
630.862	0.0159400
630.940	0.0158064
631.018	0.0158122
631.096	0.0158411
631.174	0.0157869
631.253	0.0158038
631.331	0.0157504
631.409	0.0159089
631.487	0.0157365
631.565	0.0157727
631.643	0.0157519
631.721	0.0158899
631.799	0.0160176
631.878	0.0158488
631.956	0.0157623
632.034	0.0159060
632.112	0.0158070
632.190	0.0158873
632.268	0.0157072
632.346	0.0158640
632.424	0.0157777
632.503	0.0158471
632.581	0.0157854
632.659	0.0158003
632.737	0.0158279
632.815	0.0157614
632.893	0.0156911
632.971	0.0157211
633.049	0.0157205
633.128	0.0156219
633.206	0.0158186
633.284	0.0158471
633.362	0.0159892
633.440	0.0158477
633.518	0.0158165
633.596	0.0157072
633.674	0.0158554
633.753	0.0159098
633.831	0.0158577
633.909	0.0157762
633.987	0.0157958
634.065	0.0159081
634.143	0.0157018
634.221	0.0158311
634.299	0.0158878
634.378	0.0157883
634.456	0.0158353
634.534	0.0157976
634.612	0.0157948
634.690	0.0156278
634.768	0.0159650
634.846	0.0158011
634.924	0.0156753
635.003	0.0157789
635.081	0.0157793
635.159	0.0158860
635.237	0.0157743
635.315	0.0157962
635.393	0.0156823
635.471	0.0157373
635.549	0.0157720
635.628	0.0157381
635.706	0.0158140
635.784	0.0157605
635.862	0.0157860
635.940	0.0157780
636.018	0.0156867
636.096	0.0157677
636.174	0.0157919
636.253	0.0157477
636.331	0.0158389
636.409	0.0157986
636.487	0.0156504
636.565	0.0157758
636.643	0.0158279
636.721	0.0158284
636.799	0.0157754
636.878	0.0158109
636.956	0.0158363
637.034	0.0158833
637.112	0.0157236
637.190	0.0159252
637.268	0.0157578
637.346	0.0158793
637.424	0.0157887
637.503	0.0158083
637.581	0.0159584
637.659	0.0156961
637.737	0.0157883
637.815	0.0158043
637.893	0.0157597
637.971	0.0157564
638.049	0.0159287
638.128	0.0158334
638.206	0.0156236
638.284	0.0158142
638.362	0.0158646
638.440	0.0157200
638.518	0.0159987
638.596	0.0159362
638.674	0.0157885
638.753	0.0157860
638.831	0.0158430
638.909	0.0156732
638.987	0.0157414
639.065	0.0157336
639.143	0.0159415
639.221	0.0158501
639.299	0.0157933
639.378	0.0158352
639.456	0.0158073
639.534	0.0158156
639.612	0.0159205
639.690	0.0158794
639.768	0.0158170
639.846	0.0158102
639.924	0.0158414
640.003	0.0157226
640.081	0.0157413
640.159	0.0159068
640.237	0.0157835
640.315	0.0158633
640.393	0.0158117
640.471	0.0158419
640.549	0.0157973
640.628	0.0158621
640.706	0.0158454
640.784	0.0156819
640.862	0.0157523
640.940	0.0157907
641.018	0.0158594
641.096	0.0157682
641.174	0.0158617
641.253	0.0157799
641.331	0.0157970
641.409	0.0159179
641.487	0.0158760
641.565	0.0158202
641.643	0.0155996
641.721	0.0158282
641.799	0.0157854
641.878	0.0158054
641.956	0.0159519
642.034	0.0157243
642.112	0.0158202
642.190	0.0157052
642.268	0.0158067
642.346	0.0156657
642.424	0.0157544
642.503	0.0157616
642.581	0.0157935
642.659	0.0158656
642.737	0.0156801
642.815	0.0157078
642.893	0.0157873
642.971	0.0158392
643.049	0.0157110
643.128	0.0157539
643.206	0.0157540
643.284	0.0157856
643.362	0.0157384
643.440	0.0158540
643.518	0.0157227
643.596	0.0157639
643.674	0.0156914
643.753	0.0157780
643.831	0.0156448
643.909	0.0158020
643.987	0.0158250
644.065	0.0156332
644.143	0.0156823
644.221	0.0157188
644.299	0.0159363
644.378	0.0157365
644.456	0.0157571
644.534	0.0158091
644.612	0.0158003
644.690	0.0157744
644.768	0.0157392
644.846	0.0156811
644.924	0.0157473
645.003	0.0158300
645.081	0.0156784
645.159	0.0157589
645.237	0.0157758
645.315	0.0156912
645.393	0.0156938
645.471	0.0157336
645.549	0.0157986
645.628	0.0157554
645.706	0.0156454
645.784	0.0156686
645.862	0.0157337
645.940	0.0156698
646.018	0.0157484
646.096	0.0158606
646.174	0.0159044
646.253	0.0158105
646.331	0.0158039
646.409	0.0156733
646.487	0.0157474
646.565	0.0156852
646.643	0.0157668
646.721	0.0157669
646.799	0.0158021
646.878	0.0157292
646.956	0.0158764
647.034	0.0156808
647.112	0.0157011
647.190	0.0157546
647.268	0.0157851
647.346	0.0158300
647.424	0.0158521
647.503	0.0156419
647.581	0.0156950
647.659	0.0158405
647.737	0.0157705
647.815	0.0157161
647.893	0.0157416
647.971	0.0158632
648.049	0.0158170
648.128	0.0157503
648.206	0.0157265
648.284	0.0158811
648.362	0.0157670
648.440	0.0157914
648.518	0.0158316
648.596	0.0157601
648.674	0.0156927
648.753	0.0159401
648.831	0.0157812
648.909	0.0157147
648.987	0.0158434
649.065	0.0157995
649.143	0.0158370
649.221	0.0157816
649.299	0.0157905
649.378	0.0157848
649.456	0.0157748
649.534	0.0158257
649.612	0.0157080
649.690	0.0156590
649.768	0.0157944
649.846	0.0157855
649.924	0.0157955
650.003	0.0158910
650.081	0.0158242
650.159	0.0156892
650.237	0.0157650
650.315	0.0158427
650.393	0.0156459
650.471	0.0157845
650.549	0.0156374
650.628	0.0157420
650.706	0.0158242
650.784	0.0156943
650.862	0.0158310
650.940	0.0158253
651.018	0.0157854
651.096	0.0156528
651.174	0.0156652
651.253	0.0157641
651.331	0.0158166
651.409	0.0158473
651.487	0.0157887
651.565	0.0156967
651.643	0.0157812
651.721	0.0155817
651.799	0.0157302
651.878	0.0158442
651.956	0.0157155
652.034	0.0158229
652.112	0.0158577
652.190	0.0158334
652.268	0.0159043
652.346	0.0158040
652.424	0.0158878
652.503	0.0157705
652.581	0.0157581
652.659	0.0159000
652.737	0.0158421
652.815	0.0157805
652.893	0.0156812
652.971	0.0159321
653.049	0.0157589
653.128	0.0156919
653.206	0.0159175
653.284	0.0157565
653.362	0.0156857
653.440	0.0159334
653.518	0.0157891
653.596	0.0157536
653.674	0.0158855
653.753	0.0157536
653.831	0.0158536
653.909	0.0158308
653.987	0.0158222
654.065	0.0159065
654.143	0.0156962
654.221	0.0158236
654.299	0.0158390
654.378	0.0158163
654.456	0.0157610
654.534	0.0157915
654.612	0.0158623
654.690	0.0158733
654.768	0.0157713
654.846	0.0157706
654.924	0.0158681
655.003	0.0157405
655.081	0.0157906
655.159	0.0158215
655.237	0.0158491
655.315	0.0156960
655.393	0.0157295
655.471	0.0157713
655.549	0.0158625
655.628	0.0158640
655.706	0.0157895
655.784	0.0156765
655.862	0.0157498
655.940	0.0157781
656.018	0.0158033
656.096	0.0159161
656.174	0.0158254
656.253	0.0157516
656.331	0.0158187
656.409	0.0157184
656.487	0.0158041
656.565	0.0157587
656.643	0.0156939
656.721	0.0158311
656.799	0.0158231
656.878	0.0158041
656.956	0.0157861
657.034	0.0158685
657.112	0.0157010
657.190	0.0157907
657.268	0.0159615
657.346	0.0158164
657.424	0.0156708
657.503	0.0157795
657.581	0.0158425
657.659	0.0158629
657.737	0.0159291
657.815	0.0157791
657.893	0.0157670
657.971	0.0157793
658.049	0.0158144
658.128	0.0157114
658.206	0.0158540
658.284	0.0158776
658.362	0.0159236
658.440	0.0157616
658.518	0.0157610
658.596	0.0158321
658.674	0.0157740
658.753	0.0157710
658.831	0.0157696
658.909	0.0157896
658.987	0.0157943
659.065	0.0156950
659.143	0.0158799
659.221	0.0158527
659.299	0.0156884
659.378	0.0156467
659.456	0.0158407
659.534	0.0158703
659.612	0.0158927
659.690	0.0157628
659.768	0.0158723
659.846	0.0157911
659.924	0.0157537
660.003	0.0157213
660.081	0.0157431
660.159	0.0159174
660.237	0.0156923
660.315	0.0157533
660.393	0.0158698
660.471	0.0157159
660.549	0.0158258
660.628	0.0158926
660.706	0.0158506
660.784	0.0157171
660.862	0.0157521
660.940	0.0157549
661.018	0.0157957
661.096	0.0158398
661.174	0.0158047
661.253	0.0157188
661.331	0.0158193
661.409	0.0158461
661.487	0.0157403
661.565	0.0157767
661.643	0.0157777
661.721	0.0158020
661.799	0.0157330
661.878	0.0158543
661.956	0.0158116
662.034	0.0157796
662.112	0.0157906
662.190	0.0157299
662.268	0.0158643
662.346	0.0157481
662.424	0.0157890
662.503	0.0158065
662.581	0.0157526
662.659	0.0158155
662.737	0.0158288
662.815	0.0157020
662.893	0.0157597
662.971	0.0158031
663.049	0.0157915
663.128	0.0158695
663.206	0.0158075
663.284	0.0158486
663.362	0.0157156
663.440	0.0158290
663.518	0.0158257
663.596	0.0157589
663.674	0.0157248
663.753	0.0157719
663.831	0.0158719
663.909	0.0157029
663.987	0.0156812
664.065	0.0157594
664.143	0.0159624
664.221	0.0158370
664.299	0.0158276
664.378	0.0156939
664.456	0.0158798
664.534	0.0157966
664.612	0.0156860
664.690	0.0156661
664.768	0.0158027
664.846	0.0157303
664.924	0.0158293
665.003	0.0157961
665.081	0.0156581
665.159	0.0160000
665.237	0.0158327
665.315	0.0158048
665.393	0.0158937
665.471	0.0157433
665.549	0.0159071
665.628	0.0158475
665.706	0.0157041
665.784	0.0158324
665.862	0.0159180
665.940	0.0158061
666.018	0.0158231
666.096	0.0157709
666.174	0.0159323
666.253	0.0156733
666.331	0.0157158
666.409	0.0158065
666.487	0.0157913
666.565	0.0157607
666.643	0.0158533
666.721	0.0158448
666.799	0.0157486
666.878	0.0157929
666.956	0.0157964
667.034	0.0157586
667.112	0.0158545
667.190	0.0158769
667.268	0.0156794
667.346	0.0157249
667.424	0.0158515
667.503	0.0158070
667.581	0.0159360
667.659	0.0156345
667.737	0.0157738
667.815	0.0158482
667.893	0.0158570
667.971	0.0157285
668.049	0.0157713
668.128	0.0159077
668.206	0.0157038
668.284	0.0156855
668.362	0.0158466
668.440	0.0158334
668.518	0.0157808
668.596	0.0158380
668.674	0.0158186
668.753	0.0156776
668.831	0.0158479
668.909	0.0158681
668.987	0.0157301
669.065	0.0158546
669.143	0.0157775
669.221	0.0158500
669.299	0.0159023
669.378	0.0159583
669.456	0.0157984
669.534	0.0156313
669.612	0.0159286
669.690	0.0157381
669.768	0.0157604
669.846	0.0158839
669.924	0.0158247
670.003	0.0158108
670.081	0.0158491
670.159	0.0157856
670.237	0.0159114
670.315	0.0158030
670.393	0.0159414
670.471	0.0157704
670.549	0.0158876
670.628	0.0157866
670.706	0.0158653
670.784	0.0158223
670.862	0.0158208
670.940	0.0157185
671.018	0.0156735
671.096	0.0157931
671.174	0.0157571
671.253	0.0157990
671.331	0.0157221
671.409	0.0157603
671.487	0.0159187
671.565	0.0156757
671.643	0.0157816
671.721	0.0157939
671.799	0.0159157
671.878	0.0157806
671.956	0.0156351
672.034	0.0158824
672.112	0.0158572
672.190	0.0157590
672.268	0.0158423
672.346	0.0157243
672.424	0.0158016
672.503	0.0158795
672.581	0.0158581
672.659	0.0158343
672.737	0.0158810
672.815	0.0157825
672.893	0.0157762
672.971	0.0157877
673.049	0.0158268
673.128	0.0157517
673.206	0.0157162
673.284	0.0157322
673.362	0.0158597
673.440	0.0158585
673.518	0.0158167
673.596	0.0158498
673.674	0.0158411
673.753	0.0159402
673.831	0.0159160
673.909	0.0159141
673.987	0.0158990
674.065	0.0158325
674.143	0.0157987
674.221	0.0157837
674.299	0.0157379
674.378	0.0158207
674.456	0.0157914
674.534	0.0157942
674.612	0.0157932
674.690	0.0157902
674.768	0.0157657
674.846	0.0158180
674.924	0.0158457
675.003	0.0158686
675.081	0.0159496
675.159	0.0158959
675.237	0.0158167
675.315	0.0157333
675.393	0.0157667
675.471	0.0157012
675.549	0.0158179
675.628	0.0156423
675.706	0.0156287
675.784	0.0157419
675.862	0.0157029
675.940	0.0159393
676.018	0.0156611
676.096	0.0158212
676.174	0.0156975
676.253	0.0157378
676.331	0.0158666
676.409	0.0158730
676.487	0.0157275
676.565	0.0158846
676.643	0.0159167
676.721	0.0158257
676.799	0.0157591
676.878	0.0158176
676.956	0.0158126
677.034	0.0158723
677.112	0.0157185
677.190	0.0157895
677.268	0.0158447
677.346	0.0158437
677.424	0.0157946
677.503	0.0157967
677.581	0.0156486
677.659	0.0156085
677.737	0.0156976
677.815	0.0157808
677.893	0.0156592
677.971	0.0158156
678.049	0.0157904
678.128	0.0158351
678.206	0.0158524
678.284	0.0157668
678.362	0.0159855
678.440	0.0159999
678.518	0.0158348
678.596	0.0159188
678.674	0.0158489
678.753	0.0156003
678.831	0.0157515
678.909	0.0156578
678.987	0.0156643
679.065	0.0155942
679.143	0.0156434
679.221	0.0154961
679.299	0.0157401
679.378	0.0158196
679.456	0.0156982
679.534	0.0156793
679.612	0.0158181
679.690	0.0158488
679.768	0.0158575
679.846	0.0159843
679.924	0.0159280
680.003	0.0160242
680.081	0.0159691
680.159	0.0158616
680.237	0.0158488
680.315	0.0158773
680.393	0.0160162
680.471	0.0158147
680.549	0.0157472
680.628	0.0156247
680.706	0.0156709
680.784	0.0158083
680.862	0.0157343
680.940	0.0156780
681.018	0.0155983
681.096	0.0156990
681.174	0.0156791
681.253	0.0157028
681.331	0.0157125
681.409	0.0157403
681.487	0.0158733
681.565	0.0158398
681.643	0.0158685
681.721	0.0158681
681.799	0.0159217
681.878	0.0160033
681.956	0.0159216
682.034	0.0158899
682.112	0.0159031
682.190	0.0158524
682.268	0.0157569
682.346	0.0158923
682.424	0.0157661
682.503	0.0156859
682.581	0.0158611
682.659	0.0157844
682.737	0.0157021
682.815	0.0155694
682.893	0.0158355
682.971	0.0157796
683.049	0.0158204
683.128	0.0158279
683.206	0.0157455
683.284	0.0158439
683.362	0.0157795
683.440	0.0158176
683.518	0.0159366
683.596	0.0159304
683.674	0.0159450
683.753	0.0160127
683.831	0.0158703
683.909	0.0160411
683.987	0.0160233
684.065	0.0158183
684.143	0.0157713
684.221	0.0156898
684.299	0.0157520
684.378	0.0156938
684.456	0.0157566
684.534	0.0154945
684.612	0.0155855
684.690	0.0157076
684.768	0.0157134
684.846	0.0157064
684.924	0.0158005
685.003	0.0157743
685.081	0.0158652
685.159	0.0158370
685.237	0.0159532
685.315	0.0158994
685.393	0.0158744
685.471	0.0160204
685.549	0.0159259
685.628	0.0157290
685.706	0.0158805
685.784	0.0158652
685.862	0.0156688
685.940	0.0156612
686.018	0.0157751
686.096	0.0156862
686.174	0.0155031
686.253	0.0156519
686.331	0.0156394
686.409	0.0157232
686.487	0.0157240
686.565	0.0156554
686.643	0.0156988
686.721	0.0157990
686.799	0.0156754
686.878	0.0157945
686.956	0.0158681
687.034	0.0158392
687.112	0.0158944
687.190	0.0158321
687.268	0.0159113
687.346	0.0158760
687.424	0.0158379
687.503	0.0159258
687.581	0.0158479
687.659	0.0159096
687.737	0.0157973
687.815	0.0157906
687.893	0.0157932
687.971	0.0155505
688.049	0.0157594
688.128	0.0156862
688.206	0.0157703
688.284	0.0155975
688.362	0.0156535
688.440	0.0156625
688.518	0.0155807
688.596	0.0157278
688.674	0.0157720
688.753	0.0157393
688.831	0.0159078
688.909	0.0159023
688.987	0.0158577
689.065	0.0159578
689.143	0.0158825
689.221	0.0158843
689.299	0.0158845
689.378	0.0158918
689.456	0.0159864
689.534	0.0158670
689.612	0.0158175
689.690	0.0158530
689.768	0.0156705
689.846	0.0157439
689.924	0.0155381
690.003	0.0155903
690.081	0.0155704
690.159	0.0155706
690.237	0.0155279
690.315	0.0154750
690.393	0.0156077
690.471	0.0156661
690.549	0.0158302
690.628	0.0158113
690.706	0.0159210
690.784	0.0159006
690.862	0.0161402
690.940	0.0160750
691.018	0.0160281
691.096	0.0159913
691.174	0.0160945
691.253	0.0160182
691.331	0.0158581
691.409	0.0157446
691.487	0.0158230
691.565	0.0156311
691.643	0.0157621
691.721	0.0156362
691.799	0.0156065
691.878	0.0155790
691.956	0.0156439
692.034	0.0156572
692.112	0.0156197
692.190	0.0157987
692.268	0.0157854
692.346	0.0160121
692.424	0.0158815
692.503	0.0158709
692.581	0.0159662
692.659	0.0158793
692.737	0.0160535
692.815	0.0160401
692.893	0.0159553
692.971	0.0159022
693.049	0.0156844
693.128	0.0156706
693.206	0.0158320
693.284	0.0158491
693.362	0.0154922
693.440	0.0157445
693.518	0.0156871
693.596	0.0157175
693.674	0.0157458
693.753	0.0157592
693.831	0.0158540
693.909	0.0159963
693.987	0.0160322
694.065	0.0158122
694.143	0.0159805
694.221	0.0158962
694.299	0.0158528
694.378	0.0159486
694.456	0.0158826
694.534	0.0158750
694.612	0.0157874
694.690	0.0156771
694.768	0.0157304
694.846	0.0157764
694.924	0.0156702
695.003	0.0156403
695.081	0.0156156
695.159	0.0158031
695.237	0.0157836
695.315	0.0157965
695.393	0.0158134
695.471	0.0159788
695.549	0.0160568
695.628	0.0159594
695.706	0.0159909
695.784	0.0160558
695.862	0.0160050
695.940	0.0160100
696.018	0.0161112
696.096	0.0158941
696.174	0.0159454
696.253	0.0157160
696.331	0.0158109
696.409	0.0158565
696.487	0.0156821
696.565	0.0156084
696.643	0.0156367
696.721	0.0156599
696.799	0.0156734
696.878	0.0157768
696.956	0.0156869
697.034	0.0158525
697.112	0.0157415
697.190	0.0157130
697.268	0.0158493
697.346	0.0157726
697.424	0.0158113
697.503	0.0159673
697.581	0.0159892
697.659	0.0158857
697.737	0.0159108
697.815	0.0160162
697.893	0.0160168
697.971	0.0159909
698.049	0.0157746
698.128	0.0158515
698.206	0.0158427
698.284	0.0157482
698.362	0.0157224
698.440	0.0155381
698.518	0.0156116
698.596	0.0155100
698.674	0.0155049
698.753	0.0155535
698.831	0.0155290
698.909	0.0155396
698.987	0.0155617
699.065	0.0156598
699.143	0.0156234
699.221	0.0158092
699.299	0.0159615
699.378	0.0160236
699.456	0.0160247
699.534	0.0161507
699.612	0.0162418
699.690	0.0160781
699.768	0.0159574
699.846	0.0158462
699.924	0.0158046
700.003	0.0158431
700.081	0.0157922
700.159	0.0157042
700.237	0.0155699
700.315	0.0155653
700.393	0.0153870
700.471	0.0156105
700.549	0.0155737
700.628	0.0154069
700.706	0.0156402
700.784	0.0155939
700.862	0.0158057
700.940	0.0157344
701.018	0.0158463
701.096	0.0158489
701.174	0.0156711
701.253	0.0158949
701.331	0.0159987
701.409	0.0158493
701.487	0.0157628
701.565	0.0158518
701.643	0.0158961
701.721	0.0158337
701.799	0.0158394
701.878	0.0157309
701.956	0.0156604
702.034	0.0156710
702.112	0.0157188
702.190	0.0156511
702.268	0.0156112
702.346	0.0157275
702.424	0.0155520
702.503	0.0155958
702.581	0.0158193
702.659	0.0157278
702.737	0.0158640
702.815	0.0158800
702.893	0.0159102
702.971	0.0159562
703.049	0.0160043
703.128	0.0159716
703.206	0.0159493
703.284	0.0159726
703.362	0.0159343
703.440	0.0159602
703.518	0.0158315
703.596	0.0158983
703.674	0.0156406
703.753	0.0156606
703.831	0.0156445
703.909	0.0156728
703.987	0.0154742
704.065	0.0157369
704.143	0.0156055
704.221	0.0156164
704.299	0.0157193
704.378	0.0156419
704.456	0.0158087
704.534	0.0157192
704.612	0.0156418
704.690	0.0157771
704.768	0.0157404
704.846	0.0157037
704.924	0.0157699
705.003	0.0157578
705.081	0.0157516
705.159	0.0159414
705.237	0.0158279
705.315	0.0158307
705.393	0.0158466
705.471	0.0159676
705.549	0.0158544
705.628	0.0158470
705.706	0.0159211
705.784	0.0159104
705.862	0.0158953
705.940	0.0159141
706.018	0.0160921
706.096	0.0160285
706.174	0.0160343
706.253	0.0158336
706.331	0.0159000
706.409	0.0158884
706.487	0.0159096
706.565	0.0158826
706.643	0.0158625
706.721	0.0157336
706.799	0.0157311
706.878	0.0158229
706.956	0.0158117
707.034	0.0156725
707.112	0.0158484
707.190	0.0158591
707.268	0.0156670
707.346	0.0156530
707.424	0.0156195
707.503	0.0156178
707.581	0.0156705
707.659	0.0156069
707.737	0.0156113
707.815	0.0156263
707.893	0.0157736
707.971	0.0158297
708.049	0.0157246
708.128	0.0158714
708.206	0.0158918
708.284	0.0157916
708.362	0.0158500
708.440	0.0159602
708.518	0.0159792
708.596	0.0158572
708.674	0.0158899
708.753	0.0158050
708.831	0.0157463
708.909	0.0157293
708.987	0.0157565
709.065	0.0157513
709.143	0.0156309
709.221	0.0156990
709.299	0.0156770
709.378	0.0156894
709.456	0.0157177
709.534	0.0158239
709.612	0.0158243
709.690	0.0159293
709.768	0.0158557
709.846	0.0157688
709.924	0.0159033
710.003	0.0159203
710.081	0.0158727
710.159	0.0157802
710.237	0.0159219
710.315	0.0159311
710.393	0.0159576
710.471	0.0158363
710.549	0.0157369
710.628	0.0159877
710.706	0.0159988
710.784	0.0159428
710.862	0.0160291
710.940	0.0157992
711.018	0.0157401
711.096	0.0158923
711.174	0.0158450
711.253	0.0158251
711.331	0.0158574
711.409	0.0158700
711.487	0.0157178
711.565	0.0156593
711.643	0.0156026
711.721	0.0158854
711.799	0.0157787
711.878	0.0157075
711.956	0.0157511
712.034	0.0157872
712.112	0.0157034
712.190	0.0158967
712.268	0.0157401
712.346	0.0156515
712.424	0.0157789
712.503	0.0157351
712.581	0.0158085
712.659	0.0157671
712.737	0.0158257
712.815	0.0157788
712.893	0.0158849
712.971	0.0157385
713.049	0.0158248
713.128	0.0157758
713.206	0.0158396
713.284	0.0157847
713.362	0.0157348
713.440	0.0159241
713.518	0.0159252
713.596	0.0157993
713.674	0.0157798
713.753	0.0159117
713.831	0.0157843
713.909	0.0157655
713.987	0.0158813
714.065	0.0158046
714.143	0.0157288
714.221	0.0157632
714.299	0.0159400
714.378	0.0159584
714.456	0.0159023
714.534	0.0159139
714.612	0.0159022
714.690	0.0157928
714.768	0.0158367
714.846	0.0159304
714.924	0.0157077
715.003	0.0157906
715.081	0.0158474
715.159	0.0158211
715.237	0.0158028
715.315	0.0157443
715.393	0.0156378
715.471	0.0158185
715.549	0.0157137
715.628	0.0158181
715.706	0.0158149
715.784	0.0157223
715.862	0.0157713
715.940	0.0159277
716.018	0.0159320
716.096	0.0158520
716.174	0.0157393
716.253	0.0159045
716.331	0.0156808
716.409	0.0155285
716.487	0.0154637
716.565	0.0156235
716.643	0.0154464
716.721	0.0154379
716.799	0.0154291
716.878	0.0153459
716.956	0.0152811
717.034	0.0153301
717.112	0.0154518
717.190	0.0154940
717.268	0.0154795
717.346	0.0157021
717.424	0.0157857
717.503	0.0158902
717.581	0.0160365
717.659	0.0161894
717.737	0.0161922
717.815	0.0164101
717.893	0.0165781
717.971	0.0165996
718.049	0.0163904
718.128	0.0164638
718.206	0.0166578
718.284	0.0165262
718.362	0.0163812
718.440	0.0163955
718.518	0.0163155
718.596	0.0161300
718.674	0.0160379
718.753	0.0157918
718.831	0.0155671
718.909	0.0155992
718.987	0.0153690
719.065	0.0151936
719.143	0.0150416
719.221	0.0151176
719.299	0.0150488
719.378	0.0148959
719.456	0.0149341
719.534	0.0150344
719.612	0.0151643
719.690	0.0152081
719.768	0.0150571
719.846	0.0151725
719.924	0.0153214
720.003	0.0155124
720.081	0.0154815
720.159	0.0156359
720.237	0.0156155
720.315	0.0160123
720.393	0.0159831
720.471	0.0159869
720.549	0.0162512
720.628	0.0163678
720.706	0.0163203
720.784	0.0163498
720.862	0.0164391
720.940	0.0165885
721.018	0.0165123
721.096	0.0165794
721.174	0.0164896
721.253	0.0164544
721.331	0.0163675
721.409	0.0162167
721.487	0.0162530
721.565	0.0160891
721.643	0.0157751
721.721	0.0158463
721.799	0.0158011
721.878	0.0156294
721.956	0.0154646
722.034	0.0153395
722.112	0.0153381
722.190	0.0152844
722.268	0.0151944
722.346	0.0151755
722.424	0.0152465
722.503	0.0150602
722.581	0.0152776
722.659	0.0153019
722.737	0.0151648
722.815	0.0153603
722.893	0.0154690
722.971	0.0155111
723.049	0.0155792
723.128	0.0157738
723.206	0.0158628
723.284	0.0160456
723.362	0.0160403
723.440	0.0162325
723.518	0.0162887
723.596	0.0163268
723.674	0.0167218
723.753	0.0166651
723.831	0.0165462
723.909	0.0165858
723.987	0.0164927
724.065	0.0164030
724.143	0.0163438
724.221	0.0161656
724.299	0.0159976
724.378	0.0158521
724.456	0.0157659
724.534	0.0156564
724.612	0.0154786
724.690	0.0153072
724.768	0.0152899
724.846	0.0151639
724.924	0.0151524
725.003	0.0152023
725.081	0.0150997
725.159	0.0151143
725.237	0.0152913
725.315	0.0153385
725.393	0.0153612
725.471	0.0152437
725.549	0.0155172
725.628	0.0155866
725.706	0.0157352
725.784	0.0156544
725.862	0.0157622
725.940	0.0158151
726.018	0.0158303
726.096	0.0159550
726.174	0.0159014
726.253	0.0160328
726.331	0.0160783
726.409	0.0160888
726.487	0.0160647
726.565	0.0161426
726.643	0.0160914
726.721	0.0161465
726.799	0.0161105
726.878	0.0161034
726.956	0.0159945
727.034	0.0159402
727.112	0.0158554
727.190	0.0158958
727.268	0.0158684
727.346	0.0157485
727.424	0.0158182
727.503	0.0157784
727.581	0.0157669
727.659	0.0158698
727.737	0.0157674
727.815	0.0158272
727.893	0.0158452
727.971	0.0158895
728.049	0.0159388
728.128	0.0161547
728.206	0.0161628
728.284	0.0160658
728.362	0.0162821
728.440	0.0162354
728.518	0.0161625
728.596	0.0163056
728.674	0.0162190
728.753	0.0161475
728.831	0.0161218
728.909	0.0160941
728.987	0.0160097
729.065	0.0158951
729.143	0.0157058
729.221	0.0156026
729.299	0.0155208
729.378	0.0154182
729.456	0.0153355
729.534	0.0152683
729.612	0.0152725
729.690	0.0151172
729.768	0.0152917
729.846	0.0151278
729.924	0.0151889
730.003	0.0152042
730.081	0.0152073
730.159	0.0154003
730.237	0.0154575
730.315	0.0154703
730.393	0.0155789
730.471	0.0154297
730.549	0.0154260
730.628	0.0156576
730.706	0.0157259
730.784	0.0157489
730.862	0.0157076
730.940	0.0156727
731.018	0.0157497
731.096	0.0157150
731.174	0.0159286
731.253	0.0160394
731.331	0.0159312
731.409	0.0158727
731.487	0.0159888
731.565	0.0160643
731.643	0.0161687
731.721	0.0162652
731.799	0.0163071
731.878	0.0164529
731.956	0.0166592
732.034	0.0166929
732.112	0.0167043
732.190	0.0167446
732.268	0.0167471
732.346	0.0167513
732.424	0.0168864
732.503	0.0168694
732.581	0.0165388
732.659	0.0166094
732.737	0.0165096
732.815	0.0163838
732.893	0.0162413
732.971	0.0161027
733.049	0.0157719
733.128	0.0155657
733.206	0.0154160
733.284	0.0153052
733.362	0.0149577
733.440	0.0150241
733.518	0.0148595
733.596	0.0148643
733.674	0.0147086
733.753	0.0146597
733.831	0.0148592
733.909	0.0147961
733.987	0.0149248
734.065	0.0150888
734.143	0.0150443
734.221	0.0152135
734.299	0.0154745
734.378	0.0155855
734.456	0.0156023
734.534	0.0158507
734.612	0.0159375
734.690	0.0160185
734.768	0.0161760
734.846	0.0162701
734.924	0.0163798
735.003	0.0164108
735.081	0.0163133
735.159	0.0163815
735.237	0.0163602
735.315	0.0164437
735.393	0.0162038
735.471	0.0161358
735.549	0.0159262
735.628	0.0158540
735.706	0.0158556
735.784	0.0157319
735.862	0.0157720
735.940	0.0157172
736.018	0.0159210
736.096	0.0158920
736.174	0.0159633
736.253	0.0159725
736.331	0.0158669
736.409	0.0159405
736.487	0.0163020
736.565	0.0161813
736.643	0.0162750
736.721	0.0162128
736.799	0.0162829
736.878	0.0162792
736.956	0.0160281
737.034	0.0159860
737.112	0.0158695
737.190	0.0157993
737.268	0.0156336
737.346	0.0154401
737.424	0.0153996
737.503	0.0152686
737.581	0.0152061
737.659	0.0150642
737.737	0.0151985
737.815	0.0151817
737.893	0.0149678
737.971	0.0149709
738.049	0.0148997
738.128	0.0152055
738.206	0.0153413
738.284	0.0156096
738.362	0.0157370
738.440	0.0156947
738.518	0.0158311
738.596	0.0158623
738.674	0.0161292
738.753	0.0163283
738.831	0.0162703
738.909	0.0163218
738.987	0.0163725
739.065	0.0162952
739.143	0.0162965
739.221	0.0161847
739.299	0.0161950
739.378	0.0162845
739.456	0.0162901
739.534	0.0161079
739.612	0.0161486
739.690	0.0160777
739.768	0.0160420
739.846	0.0160027
739.924	0.0159264
740.003	0.0159685
740.081	0.0159403
740.159	0.0158443
740.237	0.0157971
740.315	0.0159711
740.393	0.0158020
740.471	0.0157571
740.549	0.0158378
740.628	0.0155399
740.706	0.0157532
740.784	0.0156205
740.862	0.0156456
740.940	0.0157823
741.018	0.0156197
741.096	0.0157566
741.174	0.0158528
741.253	0.0158388
741.331	0.0158516
741.409	0.0158575
741.487	0.0158077
741.565	0.0157753
741.643	0.0159221
741.721	0.0157391
741.799	0.0156596
741.878	0.0156532
741.956	0.0157053
742.034	0.0155631
742.112	0.0156646
742.190	0.0155114
742.268	0.0156387
742.346	0.0154034
742.424	0.0155477
742.503	0.0155888
742.581	0.0156550
742.659	0.0155314
742.737	0.0154522
742.815	0.0154873
742.893	0.0156333
742.971	0.0156313
743.049	0.0154907
743.128	0.0156866
743.206	0.0156311
743.284	0.0156938
743.362	0.0157625
743.440	0.0158033
743.518	0.0159202
743.596	0.0158964
743.674	0.0160330
743.753	0.0159277
743.831	0.0158389
743.909	0.0158447
743.987	0.0158741
744.065	0.0157557
744.143	0.0157790
744.221	0.0157800
744.299	0.0158649
744.378	0.0158284
744.456	0.0158355
744.534	0.0158527
744.612	0.0159435
744.690	0.0160866
744.768	0.0161854
744.846	0.0162916
744.924	0.0162233
745.003	0.0161903
745.081	0.0161149
745.159	0.0162015
745.237	0.0161895
745.315	0.0162323
745.393	0.0161253
745.471	0.0160776
745.549	0.0160767
745.628	0.0159557
745.706	0.0158134
745.784	0.0157765
745.862	0.0158218
745.940	0.0156477
746.018	0.0155463
746.096	0.0156550
746.174	0.0155679
746.253	0.0154413
746.331	0.0154652
746.409	0.0156329
746.487	0.0157051
746.565	0.0158623
746.643	0.0157589
746.721	0.0157194
746.799	0.0158827
746.878	0.0161486
746.956	0.0161279
747.034	0.0159888
747.112	0.0160066
747.190	0.0159705
747.268	0.0160358
747.346	0.0158325
747.424	0.0157764
747.503	0.0155891
747.581	0.0155796
747.659	0.0154414
747.737	0.0151231
747.815	0.0151576
747.893	0.0151678
747.971	0.0150246
748.049	0.0151550
748.128	0.0151282
748.206	0.0149453
748.284	0.0150819
748.362	0.0153012
748.440	0.0154018
748.518	0.0154018
748.596	0.0156532
748.674	0.0157854
748.753	0.0159414
748.831	0.0160284
748.909	0.0161407
748.987	0.0161999
749.065	0.0162269
749.143	0.0163691
749.221	0.0164503
749.299	0.0165504
749.378	0.0164030
749.456	0.0165186
749.534	0.0165904
749.612	0.0166435
749.690	0.0165195
749.768	0.0164338
749.846	0.0165022
749.924	0.0162905
750.003	0.0162897
750.081	0.0163535
750.159	0.0164675
750.237	0.0162408
750.315	0.0160007
750.393	0.0160021
750.471	0.0159712
750.549	0.0158999
750.628	0.0158218
750.706	0.0156232
750.784	0.0156293
750.862	0.0155688
750.940	0.0155395
751.018	0.0154661
751.096	0.0153885
751.174	0.0153241
751.253	0.0154108
751.331	0.0154337
751.409	0.0153985
751.487	0.0154060
751.565	0.0154069
751.643	0.0154526
751.721	0.0153099
751.799	0.0153973
751.878	0.0155286
751.956	0.0154771
752.034	0.0155825
752.112	0.0157339
752.190	0.0158188
752.268	0.0158511
752.346	0.0159678
752.424	0.0158939
752.503	0.0159721
752.581	0.0161357
752.659	0.0161572
752.737	0.0160587
752.815	0.0160595
752.893	0.0160242
752.971	0.0160039
753.049	0.0159689
753.128	0.0158749
753.206	0.0158543
753.284	0.0157748
753.362	0.0157143
753.440	0.0157566
753.518	0.0156618
753.596	0.0155394
753.674	0.0156445
753.753	0.0156316
753.831	0.0156339
753.909	0.0155486
753.987	0.0155165
754.065	0.0155621
754.143	0.0154201
754.221	0.0154628
754.299	0.0155079
754.378	0.0156580
754.456	0.0156754
754.534	0.0158167
754.612	0.0158628
754.690	0.0159586
754.768	0.0159496
754.846	0.0159756
754.924	0.0162387
755.003	0.0161938
755.081	0.0161938
755.159	0.0164830
755.237	0.0164294
755.315	0.0165442
755.393	0.0165162
755.471	0.0164133
755.549	0.0165242
755.628	0.0163054
755.706	0.0162479
755.784	0.0161504
755.862	0.0162099
755.940	0.0159685
756.018	0.0158521
756.096	0.0156275
756.174	0.0156463
756.253	0.0154412
756.331	0.0153023
756.409	0.0151572
756.487	0.0150591
756.565	0.0149845
756.643	0.0150032
756.721	0.0152004
756.799	0.0150528
756.878	0.0152496
756.956	0.0151644
757.034	0.0152775
757.112	0.0152809
757.190	0.0154663
757.268	0.0155000
757.346	0.0153607
757.424	0.0155624
757.503	0.0157195
757.581	0.0156737
757.659	0.0158563
757.737	0.0159503
757.815	0.0160412
757.893	0.0161600
757.971	0.0163166
758.049	0.0161679
758.128	0.0163045
758.206	0.0164045
758.284	0.0162843
758.362	0.0165141
758.440	0.0163963
758.518	0.0163492
758.596	0.0164406
758.674	0.0162354
758.753	0.0162033
758.831	0.0161809
758.909	0.0160939
758.987	0.0160715
759.065	0.0159309
759.143	0.0158605
759.221	0.0157445
759.299	0.0156622
759.378	0.0156332
759.456	0.0158202
759.534	0.0156168
759.612	0.0156481
759.690	0.0156881
759.768	0.0157082
759.846	0.0158174
759.924	0.0158693
760.003	0.0158703
760.081	0.0159546
760.159	0.0160411
760.237	0.0159109
760.315	0.0158621
760.393	0.0159067
760.471	0.0158709
760.549	0.0157222
760.628	0.0156926
760.706	0.0155476
760.784	0.0155756
760.862	0.0154559
760.940	0.0153994
761.018	0.0152431
761.096	0.0152539
761.174	0.0153834
761.253	0.0152500
761.331	0.0152121
761.409	0.0153223
761.487	0.0154952
761.565	0.0154501
761.643	0.0155038
761.721	0.0156936
761.799	0.0156344
761.878	0.0157565
761.956	0.0158358
762.034	0.0158749
762.112	0.0158628
762.190	0.0158453
762.268	0.0159435
762.346	0.0158803
762.424	0.0158315
762.503	0.0158804
762.581	0.0159105
762.659	0.0159083
762.737	0.0158062
762.815	0.0156807
762.893	0.0157266
762.971	0.0156236
763.049	0.0154520
763.128	0.0153873
763.206	0.0154620
763.284	0.0153728
763.362	0.0155554
763.440	0.0157096
763.518	0.0156991
763.596	0.0157977
763.674	0.0160078
763.753	0.0160687
763.831	0.0161339
763.909	0.0162128
763.987	0.0161795
764.065	0.0163027
764.143	0.0162441
764.221	0.0162730
764.299	0.0162412
764.378	0.0162576
764.456	0.0162592
764.534	0.0161298
764.612	0.0162099
764.690	0.0162508
764.768	0.0161889
764.846	0.0160427
764.924	0.0161450
765.003	0.0162689
765.081	0.0160650
765.159	0.0160353
765.237	0.0161031
765.315	0.0160955
765.393	0.0160550
765.471	0.0160117
765.549	0.0161395
765.628	0.0160853
765.706	0.0160606
765.784	0.0161216
765.862	0.0161231
765.940	0.0159227
766.018	0.0160269
766.096	0.0159223
766.174	0.0157634
766.253	0.0155582
766.331	0.0154819
766.409	0.0154272
766.487	0.0152595
766.565	0.0151206
766.643	0.0150819
766.721	0.0149383
766.799	0.0148521
766.878	0.0148789
766.956	0.0150044
767.034	0.0149905
767.112	0.0150206
767.190	0.0151366
767.268	0.0152092
767.346	0.0152243
767.424	0.0152238
767.503	0.0153754
767.581	0.0154185
767.659	0.0155371
767.737	0.0155709
767.815	0.0153725
767.893	0.0155380
767.971	0.0156239
768.049	0.0156051
768.128	0.0156916
768.206	0.0157647
768.284	0.0158881
768.362	0.0158813
768.440	0.0160257
768.518	0.0160234
768.596	0.0161634
768.674	0.0162379
768.753	0.0160503
768.831	0.0162328
768.909	0.0161909
768.987	0.0163059
769.065	0.0163080
769.143	0.0161668
769.221	0.0161044
769.299	0.0160915
769.378	0.0160109
769.456	0.0161273
769.534	0.0160841
769.612	0.0160471
769.690	0.0160670
769.768	0.0158356
769.846	0.0160445
769.924	0.0160102
770.003	0.0159039
770.081	0.0159760
770.159	0.0159699
770.237	0.0158540
770.315	0.0158624
770.393	0.0160616
770.471	0.0160551
770.549	0.0159280
770.628	0.0161179
770.706	0.0160873
770.784	0.0162625
770.862	0.0161971
770.940	0.0161799
771.018	0.0162113
771.096	0.0162650
771.174	0.0162305
771.253	0.0161136
771.331	0.0160351
771.409	0.0160828
771.487	0.0160704
771.565	0.0160125
771.643	0.0159327
771.721	0.0158188
771.799	0.0157790
771.878	0.0156801
771.956	0.0155658
772.034	0.0154234
772.112	0.0154445
772.190	0.0153270
772.268	0.0152317
772.346	0.0151197
772.424	0.0152027
772.503	0.0153095
772.581	0.0152806
772.659	0.0153146
772.737	0.0153624
772.815	0.0151409
772.893	0.0153458
772.971	0.0153665
773.049	0.0154841
773.128	0.0153339
773.206	0.0153215
773.284	0.0153873
773.362	0.0154515
773.440	0.0152805
773.518	0.0154285
773.596	0.0153882
773.674	0.0153413
773.753	0.0153172
773.831	0.0153563
773.909	0.0153513
773.987	0.0154009
774.065	0.0154666
774.143	0.0156155
774.221	0.0155747
774.299	0.0156335
774.378	0.0157110
774.456	0.0158553
774.534	0.0159367
774.612	0.0161043
774.690	0.0160662
774.768	0.0160319
774.846	0.0162472
774.924	0.0163234
775.003	0.0162084
775.081	0.0164034
775.159	0.0163548
775.237	0.0164957
775.315	0.0164817
775.393	0.0164868
775.471	0.0163949
775.549	0.0163484
775.628	0.0163395
775.706	0.0162918
775.784	0.0163605
775.862	0.0162183
775.940	0.0160989
776.018	0.0160204
776.096	0.0160966
776.174	0.0161342
776.253	0.0158324
776.331	0.0159415
776.409	0.0159855
776.487	0.0159812
776.565	0.0159235
776.643	0.0159090
776.721	0.0159366
776.799	0.0158250
776.878	0.0160942
776.956	0.0160548
777.034	0.0159922
777.112	0.0159074
777.190	0.0159697
777.268	0.0160525
777.346	0.0159383
777.424	0.0158871
777.503	0.0159844
777.581	0.0159452
777.659	0.0158649
777.737	0.0158255
777.815	0.0157508
777.893	0.0157954
777.971	0.0156695
778.049	0.0155739
778.128	0.0155050
778.206	0.0155145
778.284	0.0154607
778.362	0.0153339
778.440	0.0153957
778.518	0.0153127
778.596	0.0152285
778.674	0.0154335
778.753	0.0153512
778.831	0.0152888
778.909	0.0152636
778.987	0.0154134
779.065	0.0154337
779.143	0.0153703
779.221	0.0156219
779.299	0.0155943
779.378	0.0156683
779.456	0.0156976
779.534	0.0155952
779.612	0.0156349
779.690	0.0157119
779.768	0.0156394
779.846	0.0157771
779.924	0.0157351
780.003	0.0155927
780.081	0.0156592
780.159	0.0157339
780.237	0.0156723
780.315	0.0156842
780.393	0.0157196
780.471	0.0157523
780.549	0.0158936
780.628	0.0160087
780.706	0.0158649
780.784	0.0161459
780.862	0.0161843
780.940	0.0161567
781.018	0.0160648
781.096	0.0162289
781.174	0.0161645
781.253	0.0163480
781.331	0.0163273
781.409	0.0162926
781.487	0.0164890
781.565	0.0164622
781.643	0.0164288
781.721	0.0163409
781.799	0.0164084
781.878	0.0164059
781.956	0.0161678
782.034	0.0161662
782.112	0.0159175
782.190	0.0158586
782.268	0.0159866
782.346	0.0159842
782.424	0.0157877
782.503	0.0158138
782.581	0.0158694
782.659	0.0157627
782.737	0.0157442
782.815	0.0157600
782.893	0.0157418
782.971	0.0159335
783.049	0.0157330
783.128	0.0156875
783.206	0.0159069
783.284	0.0157346
783.362	0.0156660
783.440	0.0157685
783.518	0.0158579
783.596	0.0157487
783.674	0.0157906
783.753	0.0158662
783.831	0.0157592
783.909	0.0156908
783.987	0.0157504
784.065	0.0156291
784.143	0.0156454
784.221	0.0157052
784.299	0.0156749
784.378	0.0157233
784.456	0.0155199
784.534	0.0155852
784.612	0.0156193
784.690	0.0156152
784.768	0.0156882
784.846	0.0154926
784.924	0.0155882
785.003	0.0155924
785.081	0.0157665
785.159	0.0156947
785.237	0.0157287
785.315	0.0157652
785.393	0.0157501
785.471	0.0158052
785.549	0.0157098
785.628	0.0158724
785.706	0.0158376
785.784	0.0158108
785.862	0.0158124
785.940	0.0157961
786.018	0.0159151
786.096	0.0159373
786.174	0.0158362
786.253	0.0159328
786.331	0.0157884
786.409	0.0157054
786.487	0.0158746
786.565	0.0157628
786.643	0.0158112
786.721	0.0157108
786.799	0.0157862
786.878	0.0157201
786.956	0.0155674
787.034	0.0158305
787.112	0.0156895
787.190	0.0155707
787.268	0.0154604
787.346	0.0158196
787.424	0.0157592
787.503	0.0155652
787.581	0.0157595
787.659	0.0159400
787.737	0.0158581
787.815	0.0161237
787.893	0.0160435
787.971	0.0162573
788.049	0.0162408
788.128	0.0163773
788.206	0.0165384
788.284	0.0164380
788.362	0.0166167
788.440	0.0165884
788.518	0.0165406
788.596	0.0165661
788.674	0.0164895
788.753	0.0163667
788.831	0.0163270
788.909	0.0162695
788.987	0.0161257
789.065	0.0160873
789.143	0.0160426
789.221	0.0159140
789.299	0.0158347
789.378	0.0157433
789.456	0.0156109
789.534	0.0154695
789.612	0.0154075
789.690	0.0154145
789.768	0.0154197
789.846	0.0154022
789.924	0.0153274
790.003	0.0155226
790.081	0.0154249
790.159	0.0154947
790.237	0.0154694
790.315	0.0154517
790.393	0.0156073
790.471	0.0156387
790.549	0.0154963
790.628	0.0156165
790.706	0.0156448
790.784	0.0157011
790.862	0.0156933
790.940	0.0155317
791.018	0.0155592
791.096	0.0155511
791.174	0.0157242
791.253	0.0156706
791.331	0.0157742
791.409	0.0155963
791.487	0.0157467
791.565	0.0158791
791.643	0.0158293
791.721	0.0158607
791.799	0.0159884
791.878	0.0161376
791.956	0.0160883
792.034	0.0161437
792.112	0.0161613
792.190	0.0161423
792.268	0.0162431
792.346	0.0162885
792.424	0.0163229
792.503	0.0161729
792.581	0.0161562
792.659	0.0161431
792.737	0.0159319
792.815	0.0160362
792.893	0.0157742
792.971	0.0157803
793.049	0.0155798
793.128	0.0154539
793.206	0.0153712
793.284	0.0154258
793.362	0.0154227
793.440	0.0152644
793.518	0.0153642
793.596	0.0152785
793.674	0.0153111
793.753	0.0154858
793.831	0.0154662
793.909	0.0154194
793.987	0.0155399
794.065	0.0156077
794.143	0.0156690
794.221	0.0155676
794.299	0.0158583
794.378	0.0158662
794.456	0.0159788
794.534	0.0162086
794.612	0.0161526
794.690	0.0163040
794.768	0.0164526
794.846	0.0165582
794.924	0.0164338
795.003	0.0164119
795.081	0.0165999
795.159	0.0166206
795.237	0.0164260
795.315	0.0165393
795.393	0.0163303
795.471	0.0162406
795.549	0.0160251
795.628	0.0160364
795.706	0.0160004
795.784	0.0158417
795.862	0.0156561
795.940	0.0155148
796.018	0.0154888
796.096	0.0152729
796.174	0.0153526
796.253	0.0152238
796.331	0.0151184
796.409	0.0151493
796.487	0.0152586
796.565	0.0153355
796.643	0.0153934
796.721	0.0154289
796.799	0.0155831
796.878	0.0156623
796.956	0.0156908
797.034	0.0156313
797.112	0.0156243
797.190	0.0159808
797.268	0.0160425
797.346	0.0158916
797.424	0.0159299
797.503	0.0158430
797.581	0.0158386
797.659	0.0158917
797.737	0.0160007
797.815	0.0159039
797.893	0.0158176
797.971	0.0157856
798.049	0.0156664
798.128	0.0157777
798.206	0.0157513
798.284	0.0158569
798.362	0.0158543
798.440	0.0159220
798.518	0.0159021
798.596	0.0158481
798.674	0.0159030
798.753	0.0159624
798.831	0.0160260
798.909	0.0160479
798.987	0.0160507
799.065	0.0159654
799.143	0.0160226
799.221	0.0160429
799.299	0.0160889
799.378	0.0159621
799.456	0.0159906
799.534	0.0158632
799.612	0.0157266
799.690	0.0156784
799.768	0.0155732
799.846	0.0155187
799.924	0.0155035
800.003	0.0154193
800.081	0.0155128
800.159	0.0153022
800.237	0.0152589
800.315	0.0153012
800.393	0.0152482
800.471	0.0153664
800.549	0.0152620
800.628	0.0153727
800.706	0.0155619
800.784	0.0156181
800.862	0.0156603
800.940	0.0158380
801.018	0.0161443
801.096	0.0161826
801.174	0.0162965
801.253	0.0163054
801.331	0.0164601
801.409	0.0166297
801.487	0.0167097
801.565	0.0168043
801.643	0.0166266
801.721	0.0165553
801.799	0.0165282
801.878	0.0165110
801.956	0.0164421
802.034	0.0161723
802.112	0.0161150
802.190	0.0159862
802.268	0.0158653
802.346	0.0158000
802.424	0.0158010
802.503	0.0155963
802.581	0.0154739
802.659	0.0153725
802.737	0.0153274
802.815	0.0152692
802.893	0.0153503
802.971	0.0153007
803.049	0.0152828
803.128	0.0154431
803.206	0.0154777
803.284	0.0154006
803.362	0.0154095
803.440	0.0155659
803.518	0.0156722
803.596	0.0158441
803.674	0.0157647
803.753	0.0159332
803.831	0.0160406
803.909	0.0159624
803.987	0.0158266
804.065	0.0158570
804.143	0.0159740
804.221	0.0158273
804.299	0.0159503
804.378	0.0158954
804.456	0.0160221
804.534	0.0159630
804.612	0.0159560
804.690	0.0158003
804.768	0.0159405
804.846	0.0159795
804.924	0.0159078
805.003	0.0158868
805.081	0.0159205
805.159	0.0159512
805.237	0.0159435
805.315	0.0160078
805.393	0.0159724
805.471	0.0159701
805.549	0.0158984
805.628	0.0161002
805.706	0.0159610
805.784	0.0159395
805.862	0.0158753
805.940	0.0158037
806.018	0.0157544
806.096	0.0157984
806.174	0.0157291
806.253	0.0155139
806.331	0.0154341
806.409	0.0155222
806.487	0.0153883
806.565	0.0152281
806.643	0.0152236
806.721	0.0152594
806.799	0.0150683
806.878	0.0151792
806.956	0.0152168
807.034	0.0150793
807.112	0.0154089
807.190	0.0154757
807.268	0.0153587
807.346	0.0155813
807.424	0.0157291
807.503	0.0157268
807.581	0.0160467
807.659	0.0160751
807.737	0.0163438
807.815	0.0165069
807.893	0.0164238
807.971	0.0165342
808.049	0.0165138
808.128	0.0166721
808.206	0.0167134
808.284	0.0168081
808.362	0.0167375
808.440	0.0167644
808.518	0.0164408
808.596	0.0164272
808.674	0.0162582
808.753	0.0161538
808.831	0.0160161
808.909	0.0158999
808.987	0.0157597
809.065	0.0154384
809.143	0.0155271
809.221	0.0154439
809.299	0.0153990
809.378	0.0153734
809.456	0.0152034
809.534	0.0151749
809.612	0.0152158
809.690	0.0151768
809.768	0.0154778
809.846	0.0154099
809.924	0.0155870
810.003	0.0156808
810.081	0.0157927
810.159	0.0159283
810.237	0.0160130
810.315	0.0158798
810.393	0.0159609
810.471	0.0160435
810.549	0.0160936
810.628	0.0160150
810.706	0.0158459
810.784	0.0159733
810.862	0.0159502
810.940	0.0160012
811.018	0.0159409
811.096	0.0158868
811.174	0.0156982
811.253	0.0158473
811.331	0.0158017
811.409	0.0158309
811.487	0.0159479
811.565	0.0159887
811.643	0.0157941
811.721	0.0158767
811.799	0.0159561
811.878	0.0159579
811.956	0.0161060
812.034	0.0161725
812.112	0.0160435
812.190	0.0160507
812.268	0.0160865
812.346	0.0161205
812.424	0.0160203
812.503	0.0157771
812.581	0.0159818
812.659	0.0157081
812.737	0.0158381
812.815	0.0157115
812.893	0.0154913
812.971	0.0154046
813.049	0.0152702
813.128	0.0152389
813.206	0.0152615
813.284	0.0152558
813.362	0.0152586
813.440	0.0152327
813.518	0.0151797
813.596	0.0152484
813.674	0.0153675
813.753	0.0154391
813.831	0.0156946
813.909	0.0156704
813.987	0.0157446
814.065	0.0159271
814.143	0.0161883
814.221	0.0162832
814.299	0.0162823
814.378	0.0165424
814.456	0.0165000
814.534	0.0166499
814.612	0.0167427
814.690	0.0167776
814.768	0.0167770
814.846	0.0166334
814.924	0.0166396
815.003	0.0165669
815.081	0.0164319
815.159	0.0164246
815.237	0.0163005
815.315	0.0161211
815.393	0.0159409
815.471	0.0158900
815.549	0.0156031
815.628	0.0156012
815.706	0.0156040
815.784	0.0153294
815.862	0.0153084
815.940	0.0153784
816.018	0.0153408
816.096	0.0152784
816.174	0.0152670
816.253	0.0152587
816.331	0.0154011
816.409	0.0155277
816.487	0.0154632
816.565	0.0156255
816.643	0.0156946
816.721	0.0157802
816.799	0.0156696
816.878	0.0158315
816.956	0.0159160
817.034	0.0158710
817.112	0.0160390
817.190	0.0159850
817.268	0.0159277
817.346	0.0160571
817.424	0.0159314
817.503	0.0159174
817.581	0.0158319
817.659	0.0159146
817.737	0.0159064
817.815	0.0158265
817.893	0.0159770
817.971	0.0158669
818.049	0.0157874
818.128	0.0160825
818.206	0.0159427
818.284	0.0159480
818.362	0.0160010
818.440	0.0161185
818.518	0.0159741
818.596	0.0160036
818.674	0.0159756
818.753	0.0160242
818.831	0.0160686
818.909	0.0157976
818.987	0.0159724
819.065	0.0159276
819.143	0.0157972
819.221	0.0156456
819.299	0.0156866
819.378	0.0157507
819.456	0.0156485
819.534	0.0155682
819.612	0.0154357
819.690	0.0155072
819.768	0.0154724
819.846	0.0153827
819.924	0.0154267
820.003	0.0153838
820.081	0.0153433
820.159	0.0153773
820.237	0.0155733
820.315	0.0153980
820.393	0.0156481
820.471	0.0156722
820.549	0.0159411
820.628	0.0158504
820.706	0.0159656
820.784	0.0160603
820.862	0.0161134
820.940	0.0160144
821.018	0.0161473
821.096	0.0162301
821.174	0.0162240
821.253	0.0162121
821.331	0.0164571
821.409	0.0163815
821.487	0.0162438
821.565	0.0162640
821.643	0.0161559
821.721	0.0162162
821.799	0.0161058
821.878	0.0160641
821.956	0.0160093
822.034	0.0159732
822.112	0.0159348
822.190	0.0158710
822.268	0.0156880
822.346	0.0156200
822.424	0.0156239
822.503	0.0157315
822.581	0.0155527
822.659	0.0155302
822.737	0.0154366
822.815	0.0154281
822.893	0.0156068
822.971	0.0154306
823.049	0.0156266
823.128	0.0155801
823.206	0.0156194
823.284	0.0156573
823.362	0.0156629
823.440	0.0158491
823.518	0.0157204
823.596	0.0157729
823.674	0.0159147
823.753	0.0157999
823.831	0.0158472
823.909	0.0158792
823.987	0.0159875
824.065	0.0159096
824.143	0.0158958
824.221	0.0160274
824.299	0.0159684
824.378	0.0159112
824.456	0.0158953
824.534	0.0159805
824.612	0.0159110
824.690	0.0160911
824.768	0.0159344
824.846	0.0159777
824.924	0.0160835
825.003	0.0159850
825.081	0.0160452
825.159	0.0160170
825.237	0.0159871
825.315	0.0161189
825.393	0.0159898
825.471	0.0159846
825.549	0.0160765
825.628	0.0158346
825.706	0.0158318
825.784	0.0157867
825.862	0.0158177
825.940	0.0156586
826.018	0.0155006
826.096	0.0155270
826.174	0.0155159
826.253	0.0153882
826.331	0.0152955
826.409	0.0151959
826.487	0.0152995
826.565	0.0153911
826.643	0.0153106
826.721	0.0152583
826.799	0.0153857
826.878	0.0152708
826.956	0.0155320
827.034	0.0156824
827.112	0.0156069
827.190	0.0156709
827.268	0.0156931
827.346	0.0157922
827.424	0.0159370
827.503	0.0160918
827.581	0.0159364
827.659	0.0161470
827.737	0.0161066
827.815	0.0162936
827.893	0.0162299
827.971	0.0163085
828.049	0.0163202
828.128	0.0164413
828.206	0.0163217
828.284	0.0162974
828.362	0.0161246
828.440	0.0162128
828.518	0.0162093
828.596	0.0161729
828.674	0.0161407
828.753	0.0161260
828.831	0.0161456
828.909	0.0160992
828.987	0.0159745
829.065	0.0158040
829.143	0.0159123
829.221	0.0157436
829.299	0.0157596
829.378	0.0157330
829.456	0.0157568
829.534	0.0156243
829.612	0.0155499
829.690	0.0156525
829.768	0.0154416
829.846	0.0155014
829.924	0.0154404
830.003	0.0155571
830.081	0.0156395
830.159	0.0155389
830.237	0.0155541
830.315	0.0155905
830.393	0.0155307
830.471	0.0153995
830.549	0.0155230
830.628	0.0156234
830.706	0.0156581
830.784	0.0157008
830.862	0.0157118
830.940	0.0157848
831.018	0.0157887
831.096	0.0158668
831.174	0.0158835
831.253	0.0157487
831.331	0.0158012
831.409	0.0160476
831.487	0.0159494
831.565	0.0159492
831.643	0.0159754
831.721	0.0160506
831.799	0.0160403
831.878	0.0158158
831.956	0.0159570
832.034	0.0159655
832.112	0.0158410
832.190	0.0158537
832.268	0.0159605
832.346	0.0159756
832.424	0.0158661
832.503	0.0158752
832.581	0.0159124
832.659	0.0157232
832.737	0.0157070
832.815	0.0156821
832.893	0.0157275
832.971	0.0157822
833.049	0.0156990
833.128	0.0156908
833.206	0.0156125
833.284	0.0157756
833.362	0.0155305
833.440	0.0156507
833.518	0.0156077
833.596	0.0157432
833.674	0.0156476
833.753	0.0157504
833.831	0.0156317
833.909	0.0157150
833.987	0.0159135
834.065	0.0158662
834.143	0.0158434
834.221	0.0159621
834.299	0.0159691
834.378	0.0160959
834.456	0.0159299
834.534	0.0159993
834.612	0.0161409
834.690	0.0158791
834.768	0.0161148
834.846	0.0160946
834.924	0.0160929
835.003	0.0161298
835.081	0.0161282
835.159	0.0159814
835.237	0.0161127
835.315	0.0161855
835.393	0.0159920
835.471	0.0158922
835.549	0.0159099
835.628	0.0159174
835.706	0.0158643
835.784	0.0159421
835.862	0.0158630
835.940	0.0156432
836.018	0.0157594
836.096	0.0157954
836.174	0.0158922
836.253	0.0156444
836.331	0.0154711
836.409	0.0157098
836.487	0.0156834
836.565	0.0155822
836.643	0.0155461
836.721	0.0155839
836.799	0.0155685
836.878	0.0155718
836.956	0.0155961
837.034	0.0155930
837.112	0.0157167
837.190	0.0155203
837.268	0.0157279
837.346	0.0157430
837.424	0.0157478
837.503	0.0156931
837.581	0.0157814
837.659	0.0159042
837.737	0.0160314
837.815	0.0160028
837.893	0.0159049
837.971	0.0158334
838.049	0.0159541
838.128	0.0159001
838.206	0.0158729
838.284	0.0159963
838.362	0.0160414
838.440	0.0160181
838.518	0.0159779
838.596	0.0159755
838.674	0.0158155
838.753	0.0158663
838.831	0.0158575
838.909	0.0159415
838.987	0.0157169
839.065	0.0157504
839.143	0.0158477
839.221	0.0157191
839.299	0.0157681
839.378	0.0158450
839.456	0.0155633
839.534	0.0156630
839.612	0.0158263
839.690	0.0158314
839.768	0.0156861
839.846	0.0157789
839.924	0.0157527
840.003	0.0158872
840.081	0.0156909
840.159	0.0157883
840.237	0.0157358
840.315	0.0157473
840.393	0.0158871
840.471	0.0159100
840.549	0.0157925
840.628	0.0157777
840.706	0.0160701
840.784	0.0158612
840.862	0.0158807
840.940	0.0160500
841.018	0.0159079
841.096	0.0159448
841.174	0.0159804
841.253	0.0160390
841.331	0.0159275
841.409	0.0159960
841.487	0.0160699
841.565	0.0161446
841.643	0.0161751
841.721	0.0161129
841.799	0.0160127
841.878	0.0160626
841.956	0.0160486
842.034	0.0160355
842.112	0.0160133
842.190	0.0160630
842.268	0.0158301
842.346	0.0158823
842.424	0.0158044
842.503	0.0157314
842.581	0.0157462
842.659	0.0157444
842.737	0.0157865
842.815	0.0157645
842.893	0.0155570
842.971	0.0156050
843.049	0.0156304
843.128	0.0156216
843.206	0.0157221
843.284	0.0156557
843.362	0.0156068
843.440	0.0157439
843.518	0.0157263
843.596	0.0156662
843.674	0.0156165
843.753	0.0157565
843.831	0.0158948
843.909	0.0157075
843.987	0.0157825
844.065	0.0158257
844.143	0.0158302
844.221	0.0158296
844.299	0.0159466
844.378	0.0159600
844.456	0.0159190
844.534	0.0159374
844.612	0.0158907
844.690	0.0158345
844.768	0.0159148
844.846	0.0157567
844.924	0.0158024
845.003	0.0160670
845.081	0.0159341
845.159	0.0159695
845.237	0.0159209
845.315	0.0158026
845.393	0.0158242
845.471	0.0159996
845.549	0.0157571
845.628	0.0158769
845.706	0.0158363
845.784	0.0157655
845.862	0.0158308
845.940	0.0159109
846.018	0.0157204
846.096	0.0157413
846.174	0.0157703
846.253	0.0157528
846.331	0.0158427
846.409	0.0157005
846.487	0.0156600
846.565	0.0157440
846.643	0.0156526
846.721	0.0156385
846.799	0.0158901
846.878	0.0156772
846.956	0.0156728
847.034	0.0159010
847.112	0.0157845
847.190	0.0159035
847.268	0.0158822
847.346	0.0158149
847.424	0.0158478
847.503	0.0158490
847.581	0.0158076
847.659	0.0158558
847.737	0.0158357
847.815	0.0159866
847.893	0.0158983
847.971	0.0158313
848.049	0.0158905
848.128	0.0159830
848.206	0.0158575
848.284	0.0158375
848.362	0.0159035
848.440	0.0158939
848.518	0.0159039
848.596	0.0158510
848.674	0.0159350
848.753	0.0159875
848.831	0.0157910
848.909	0.0158188
848.987	0.0158621
849.065	0.0158881
849.143	0.0158422
849.221	0.0157275
849.299	0.0157964
849.378	0.0158287
849.456	0.0157093
849.534	0.0155784
849.612	0.0157516
849.690	0.0156918
849.768	0.0157187
849.846	0.0157409
849.924	0.0156846
850.003	0.0156075
850.081	0.0156419
850.159	0.0156729
850.237	0.0158237
850.315	0.0156091
850.393	0.0157102
850.471	0.0158332
850.549	0.0157294
850.628	0.0156110
850.706	0.0158396
850.784	0.0157885
850.862	0.0158113
850.940	0.0157555
851.018	0.0157449
851.096	0.0157821
851.174	0.0158510
851.253	0.0159468
851.331	0.0159804
851.409	0.0158991
851.487	0.0158887
851.565	0.0158057
851.643	0.0158854
851.721	0.0159300
851.799	0.0158966
851.878	0.0158875
851.956	0.0160879
852.034	0.0159179
852.112	0.0158363
852.190	0.0158607
852.268	0.0158061
852.346	0.0158125
852.424	0.0157867
852.503	0.0156586
852.581	0.0157948
852.659	0.0155946
852.737	0.0157851
852.815	0.0156807
852.893	0.0156877
852.971	0.0157917
853.049	0.0155962
853.128	0.0157096
853.206	0.0156485
853.284	0.0157729
853.362	0.0157329
853.440	0.0158825
853.518	0.0156987
853.596	0.0157655
853.674	0.0157389
853.753	0.0157976
853.831	0.0158223
853.909	0.0158263
853.987	0.0159412
854.065	0.0159235
854.143	0.0159519
854.221	0.0158354
854.299	0.0159406
854.378	0.0159109
854.456	0.0157996
854.534	0.0159569
854.612	0.0159985
854.690	0.0158868
854.768	0.0159710
854.846	0.0159038
854.924	0.0158941
855.003	0.0158972
855.081	0.0160752
855.159	0.0159835
855.237	0.0158678
855.315	0.0159534
855.393	0.0159875
855.471	0.0159499
855.549	0.0159946
855.628	0.0158389
855.706	0.0157741
855.784	0.0159175
855.862	0.0158768
855.940	0.0159676
856.018	0.0160136
856.096	0.0160143
856.174	0.0160823
856.253	0.0159047
856.331	0.0160470
856.409	0.0158877
856.487	0.0158546
856.565	0.0159386
856.643	0.0158753
856.721	0.0157903
856.799	0.0157040
856.878	0.0158000
856.956	0.0158967
857.034	0.0157762
857.112	0.0156882
857.190	0.0158085
857.268	0.0154745
857.346	0.0154900
857.424	0.0156962
857.503	0.0156248
857.581	0.0157100
857.659	0.0155035
857.737	0.0156065
857.815	0.0156020
857.893	0.0157202
857.971	0.0156732
858.049	0.0156585
858.128	0.0156876
858.206	0.0157112
858.284	0.0156369
858.362	0.0157888
858.440	0.0157284
858.518	0.0157037
858.596	0.0158279
858.674	0.0157178
858.753	0.0158411
858.831	0.0157548
858.909	0.0158655
858.987	0.0157288
859.065	0.0158614
859.143	0.0158317
859.221	0.0158936
859.299	0.0158198
859.378	0.0158446
859.456	0.0158250
859.534	0.0157106
859.612	0.0157673
859.690	0.0157570
859.768	0.0157841
859.846	0.0157728
859.924	0.0158477
860.003	0.0159519
860.081	0.0157787
860.159	0.0159805
860.237	0.0160023
860.315	0.0158570
860.393	0.0160629
860.471	0.0160223
860.549	0.0160075
860.628	0.0160477
860.706	0.0159399
860.784	0.0160826
860.862	0.0160616
860.940	0.0160911
861.018	0.0159805
861.096	0.0161292
861.174	0.0160714
861.253	0.0160187
861.331	0.0158454
861.409	0.0158237
861.487	0.0157956
861.565	0.0158912
861.643	0.0158495
861.721	0.0157371
861.799	0.0157999
861.878	0.0159138
861.956	0.0158433
862.034	0.0159583
862.112	0.0159009
862.190	0.0157518
862.268	0.0157558
862.346	0.0158661
862.424	0.0158547
862.503	0.0159443
862.581	0.0159660
862.659	0.0157793
862.737	0.0158517
862.815	0.0158749
862.893	0.0157618
862.971	0.0157390
863.049	0.0159686
863.128	0.0155853
863.206	0.0157699
863.284	0.0157916
863.362	0.0155642
863.440	0.0156181
863.518	0.0155978
863.596	0.0156303
863.674	0.0155598
863.753	0.0156232
863.831	0.0158018
863.909	0.0154936
863.987	0.0156483
864.065	0.0156828
864.143	0.0154485
864.221	0.0156575
864.299	0.0156884
864.378	0.0156267
864.456	0.0156200
864.534	0.0156882
864.612	0.0158044
864.690	0.0157807
864.768	0.0157259
864.846	0.0158526
864.924	0.0159543
865.003	0.0158850
865.081	0.0158981
865.159	0.0160068
865.237	0.0159827
865.315	0.0161303
865.393	0.0159726
865.471	0.0158929
865.549	0.0159371
865.628	0.0158545
865.706	0.0159339
865.784	0.0159158
865.862	0.0158932
865.940	0.0158643
866.018	0.0158214
866.096	0.0159846
866.174	0.0158148
866.253	0.0158513
866.331	0.0158923
866.409	0.0159574
866.487	0.0158161
866.565	0.0159314
866.643	0.0160357
866.721	0.0159733
866.799	0.0157665
866.878	0.0158163
866.956	0.0158955
867.034	0.0160411
867.112	0.0159953
867.190	0.0159539
867.268	0.0159386
867.346	0.0159940
867.424	0.0159833
867.503	0.0158960
867.581	0.0158612
867.659	0.0158589
867.737	0.0159380
867.815	0.0159435
867.893	0.0158522
867.971	0.0157697
868.049	0.0157910
868.128	0.0158556
868.206	0.0159015
868.284	0.0158743
868.362	0.0157629
868.440	0.0157573
868.518	0.0156992
868.596	0.0157420
868.674	0.0159598
868.753	0.0157881
868.831	0.0158051
868.909	0.0157459
868.987	0.0157868
869.065	0.0158614
869.143	0.0157894
869.221	0.0157748
869.299	0.0158275
869.378	0.0157451
869.456	0.0157885
869.534	0.0157481
869.612	0.0157612
869.690	0.0157009
869.768	0.0157996
869.846	0.0156676
869.924	0.0156236
870.003	0.0158115
870.081	0.0158759
870.159	0.0158448
870.237	0.0157616
870.315	0.0157275
870.393	0.0157432
870.471	0.0157191
870.549	0.0157246
870.628	0.0157435
870.706	0.0157758
870.784	0.0158274
870.862	0.0156972
870.940	0.0156788
871.018	0.0156110
871.096	0.0157883
871.174	0.0157909
871.253	0.0156979
871.331	0.0159052
871.409	0.0158011
871.487	0.0159452
871.565	0.0159418
871.643	0.0159518
871.721	0.0158865
871.799	0.0158878
871.878	0.0159042
871.956	0.0160223
872.034	0.0159650
872.112	0.0159109
872.190	0.0159641
872.268	0.0159457
872.346	0.0159932
872.424	0.0159438
872.503	0.0160061
872.581	0.0158816
872.659	0.0158837
872.737	0.0157001
872.815	0.0156538
872.893	0.0159682
872.971	0.0159377
873.049	0.0158552
873.128	0.0159660
873.206	0.0157921
873.284	0.0157527
873.362	0.0158440
873.440	0.0159274
873.518	0.0157861
873.596	0.0157583
873.674	0.0159161
873.753	0.0159114
873.831	0.0158698
873.909	0.0160291
873.987	0.0158189
874.065	0.0156679
874.143	0.0158672
874.221	0.0159440
874.299	0.0156830
874.378	0.0157064
874.456	0.0158343
874.534	0.0157491
874.612	0.0156604
874.690	0.0156551
874.768	0.0157066
874.846	0.0156258
874.924	0.0157190
875.003	0.0156429
875.081	0.0156776
875.159	0.0156714
875.237	0.0157424
875.315	0.0157214
875.393	0.0157406
875.471	0.0156747
875.549	0.0157634
875.628	0.0158334
875.706	0.0159080
875.784	0.0158936
875.862	0.0157519
875.940	0.0158755
876.018	0.0159113
876.096	0.0158681
876.174	0.0158868
876.253	0.0158215
876.331	0.0158517
876.409	0.0159323
876.487	0.0159387
876.565	0.0159836
876.643	0.0157928
876.721	0.0159180
876.799	0.0157544
876.878	0.0158038
876.956	0.0157819
877.034	0.0158586
877.112	0.0158240
877.190	0.0158156
877.268	0.0159587
877.346	0.0156396
877.424	0.0156995
877.503	0.0159177
877.581	0.0159017
877.659	0.0156794
877.737	0.0156425
877.815	0.0157823
877.893	0.0157782
877.971	0.0157111
878.049	0.0157953
878.128	0.0158282
878.206	0.0158290
878.284	0.0157776
878.362	0.0158617
878.440	0.0159238
878.518	0.0160336
878.596	0.0157809
878.674	0.0158936
878.753	0.0158298
878.831	0.0159269
878.909	0.0159203
878.987	0.0157890
879.065	0.0158999
879.143	0.0157239
879.221	0.0158073
879.299	0.0159463
879.378	0.0158151
879.456	0.0157863
879.534	0.0158609
879.612	0.0158687
879.690	0.0156129
879.768	0.0158294
879.846	0.0157688
879.924	0.0159119
880.003	0.0158800
880.081	0.0156640
880.159	0.0157676
880.237	0.0157737
880.315	0.0156731
880.393	0.0157915
880.471	0.0158437
880.549	0.0157693
880.628	0.0157822
880.706	0.0157592
880.784	0.0159389
880.862	0.0160412
880.940	0.0156735
881.018	0.0157730
881.096	0.0157208
881.174	0.0158328
881.253	0.0158185
881.331	0.0159602
881.409	0.0157894
881.487	0.0157470
881.565	0.0158634
881.643	0.0158248
881.721	0.0156487
881.799	0.0157793
881.878	0.0158721
881.956	0.0158508
882.034	0.0156755
882.112	0.0158382
882.190	0.0157966
882.268	0.0157793
882.346	0.0157875
882.424	0.0156846
882.503	0.0157451
882.581	0.0158799
882.659	0.0159034
882.737	0.0158532
882.815	0.0158644
882.893	0.0157043
882.971	0.0158167
883.049	0.0158942
883.128	0.0158279
883.206	0.0158549
883.284	0.0158095
883.362	0.0156785
883.440	0.0157760
883.518	0.0158132
883.596	0.0157446
883.674	0.0157994
883.753	0.0158923
883.831	0.0156617
883.909	0.0156692
883.987	0.0157464
884.065	0.0156905
884.143	0.0156857
884.221	0.0157285
884.299	0.0157964
884.378	0.0156052
884.456	0.0157396
884.534	0.0157294
884.612	0.0158221
884.690	0.0157729
884.768	0.0157388
884.846	0.0157516
884.924	0.0158804
885.003	0.0158765
885.081	0.0158852
885.159	0.0159084
885.237	0.0159738
885.315	0.0158961
885.393	0.0158666
885.471	0.0159437
885.549	0.0158614
885.628	0.0157968
885.706	0.0158452
885.784	0.0158082
885.862	0.0157710
885.940	0.0157792
886.018	0.0159332
886.096	0.0158757
886.174	0.0157249
886.253	0.0157326
886.331	0.0157682
886.409	0.0157920
886.487	0.0158772
886.565	0.0157031
886.643	0.0155974
886.721	0.0158366
886.799	0.0157281
886.878	0.0157773
886.956	0.0156738
887.034	0.0158562
887.112	0.0158305
887.190	0.0156422
887.268	0.0158109
887.346	0.0158680
887.424	0.0157661
887.503	0.0158740
887.581	0.0159190
887.659	0.0158150
887.737	0.0157693
887.815	0.0158122
887.893	0.0159048
887.971	0.0159435
888.049	0.0159554
888.128	0.0159648
888.206	0.0157597
888.284	0.0158967
888.362	0.0158691
888.440	0.0158764
888.518	0.0157423
888.596	0.0158712
888.674	0.0158472
888.753	0.0156693
888.831	0.0159216
888.909	0.0156828
888.987	0.0158406
889.065	0.0157365
889.143	0.0158674
889.221	0.0156973
889.299	0.0158894
889.378	0.0159566
889.456	0.0157671
889.534	0.0158533
889.612	0.0157584
889.690	0.0157713
889.768	0.0159226
889.846	0.0157449
889.924	0.0158385
890.003	0.0157263
890.081	0.0156231
890.159	0.0157018
890.237	0.0157631
890.315	0.0157932
890.393	0.0157133
890.471	0.0156668
890.549	0.0157384
890.628	0.0157761
890.706	0.0157806
890.784	0.0156827
890.862	0.0157740
890.940	0.0159113
891.018	0.0158925
891.096	0.0158114
891.174	0.0157825
891.253	0.0157772
891.331	0.0159418
891.409	0.0158488
891.487	0.0158619
891.565	0.0158296
891.643	0.0159354
891.721	0.0158276
891.799	0.0157888
891.878	0.0160191
891.956	0.0159583
892.034	0.0159859
892.112	0.0159743
892.190	0.0158830
892.268	0.0159016
892.346	0.0159171
892.424	0.0158558
892.503	0.0159818
892.581	0.0157823
892.659	0.0157710
892.737	0.0158323
892.815	0.0159365
892.893	0.0158370
892.971	0.0157946
893.049	0.0157940
893.128	0.0158695
893.206	0.0158215
893.284	0.0156704
893.362	0.0156541
893.440	0.0157046
893.518	0.0156449
893.596	0.0156413
893.674	0.0157214
893.753	0.0155915
893.831	0.0156035
893.909	0.0156270
893.987	0.0158624
894.065	0.0157770
894.143	0.0157494
894.221	0.0159000
894.299	0.0158150
894.378	0.0158719
894.456	0.0159550
894.534	0.0157970
894.612	0.0159188
894.690	0.0158763
894.768	0.0159693
894.846	0.0158285
894.924	0.0157099
895.003	0.0157844
895.081	0.0158340
895.159	0.0159841
895.237	0.0158135
895.315	0.0157224
895.393	0.0157406
895.471	0.0157069
895.549	0.0157342
895.628	0.0157540
895.706	0.0158115
895.784	0.0157574
895.862	0.0158203
895.940	0.0158794
896.018	0.0157323
896.096	0.0157271
896.174	0.0157251
896.253	0.0158694
896.331	0.0157594
896.409	0.0157568
896.487	0.0158765
896.565	0.0158807
896.643	0.0158172
896.721	0.0158685
896.799	0.0159827
896.878	0.0157590
896.956	0.0157613
897.034	0.0157288
897.112	0.0158775
897.190	0.0159219
897.268	0.0159702
897.346	0.0157787
897.424	0.0158846
897.503	0.0157463
897.581	0.0157574
897.659	0.0159016
897.737	0.0157806
897.815	0.0158594
897.893	0.0157624
897.971	0.0157412
898.049	0.0157905
898.128	0.0158215
898.206	0.0158233
898.284	0.0157504
898.362	0.0156941
898.440	0.0158311
898.518	0.0158562
898.596	0.0157058
898.674	0.0157056
898.753	0.0156553
898.831	0.0158717
898.909	0.0157153
898.987	0.0159661
899.065	0.0159315
899.143	0.0158145
899.221	0.0157363
899.299	0.0158343
899.378	0.0157629
899.456	0.0157140
899.534	0.0158018
899.612	0.0157862
899.690	0.0157354
899.768	0.0157005
899.846	0.0157424
899.924	0.0158393
900.003	0.0157239
900.081	0.0157285
900.159	0.0157909
900.237	0.0158796
900.315	0.0157775
900.393	0.0157684
900.471	0.0158208
900.549	0.0158104
900.628	0.0159229
900.706	0.0158503
900.784	0.0157702
900.862	0.0158430
900.940	0.0157299
901.018	0.0158610
901.096	0.0159106
901.174	0.0158830
901.253	0.0159814
901.331	0.0159486
901.409	0.0159591
901.487	0.0158803
901.565	0.0158353
901.643	0.0158773
901.721	0.0159276
901.799	0.0160502
901.878	0.0159657
901.956	0.0159576
902.034	0.0159245
902.112	0.0158710
902.190	0.0157986
902.268	0.0158466
902.346	0.0158827
902.424	0.0158707
902.503	0.0159464
902.581	0.0159854
902.659	0.0159492
902.737	0.0158028
902.815	0.0157218
902.893	0.0158146
902.971	0.0158265
903.049	0.0157578
903.128	0.0158233
903.206	0.0158340
903.284	0.0157535
903.362	0.0156597
903.440	0.0157088
903.518	0.0158901
903.596	0.0157405
903.674	0.0157573
903.753	0.0157487
903.831	0.0159373
903.909	0.0158172
903.987	0.0158295
904.065	0.0158485
904.143	0.0157340
904.221	0.0157133
904.299	0.0158247
904.378	0.0157699
904.456	0.0156480
904.534	0.0158263
904.612	0.0158519
904.690	0.0158535
904.768	0.0157718
904.846	0.0157543
904.924	0.0158187
905.003	0.0156771
905.081	0.0156954
905.159	0.0159364
905.237	0.0158732
905.315	0.0157750
905.393	0.0158062
905.471	0.0156751
905.549	0.0157208
905.628	0.0157673
905.706	0.0158371
905.784	0.0159803
905.862	0.0157305
905.940	0.0157088
906.018	0.0158087
906.096	0.0158499
906.174	0.0158192
906.253	0.0159005
906.331	0.0157508
906.409	0.0158431
906.487	0.0158688
906.565	0.0158675
906.643	0.0158937
906.721	0.0158089
906.799	0.0157328
906.878	0.0156696
906.956	0.0158552
907.034	0.0158020
907.112	0.0158525
907.190	0.0159800
907.268	0.0158160
907.346	0.0157877
907.424	0.0159048
907.503	0.0158528
907.581	0.0158969
907.659	0.0158511
907.737	0.0159717
907.815	0.0158748
907.893	0.0159332
907.971	0.0158025
908.049	0.0159162
908.128	0.0157729
908.206	0.0157587
908.284	0.0157802
908.362	0.0158070
908.440	0.0159380
908.518	0.0157820
908.596	0.0157679
908.674	0.0157477
908.753	0.0158730
908.831	0.0157174
908.909	0.0157860
908.987	0.0156624
909.065	0.0156882
909.143	0.0159303
909.221	0.0157757
909.299	0.0156535
909.378	0.0158393
909.456	0.0157460
909.534	0.0157941
909.612	0.0158459
909.690	0.0158319
909.768	0.0157072
909.846	0.0157789
909.924	0.0158109
910.003	0.0156997
910.081	0.0158316
910.159	0.0157137
910.237	0.0157419
910.315	0.0157436
910.393	0.0155804
910.471	0.0156648
910.549	0.0157538
910.628	0.0157203
910.706	0.0157778
910.784	0.0156263
910.862	0.0158389
910.940	0.0158218
911.018	0.0157498
911.096	0.0159061
911.174	0.0157860
911.253	0.0158642
911.331	0.0158908
911.409	0.0159017
911.487	0.0159237
911.565	0.0158589
911.643	0.0158171
911.721	0.0158905
911.799	0.0158535
911.878	0.0159177
911.956	0.0159317
912.034	0.0159381
912.112	0.0157731
912.190	0.0160019
912.268	0.0157882
912.346	0.0159138
912.424	0.0158343
912.503	0.0159042
912.581	0.0159552
912.659	0.0159479
912.737	0.0157647
912.815	0.0158871
912.893	0.0158141
912.971	0.0158293
913.049	0.0159172
913.128	0.0158214
913.206	0.0160168
913.284	0.0158250
913.362	0.0156390
913.440	0.0158090
913.518	0.0157303
913.596	0.0158633
913.674	0.0157472
913.753	0.0157914
913.831	0.0157279
913.909	0.0157092
913.987	0.0156079
914.065	0.0158165
914.143	0.0159079
914.221	0.0158213
914.299	0.0157898
914.378	0.0158072
914.456	0.0157785
914.534	0.0158382
914.612	0.0157663
914.690	0.0159541
914.768	0.0158820
914.846	0.0158353
914.924	0.0157790
915.003	0.0159447
915.081	0.0157539
915.159	0.0157769
915.237	0.0158484
915.315	0.0158666
915.393	0.0158040
915.471	0.0157808
915.549	0.0157848
915.628	0.0157732
915.706	0.0155901
915.784	0.0156483
915.862	0.0157481
915.940	0.0158105
916.018	0.0157214
916.096	0.0157162
916.174	0.0155502
916.253	0.0155427
916.331	0.0156001
916.409	0.0155673
916.487	0.0156413
916.565	0.0156182
916.643	0.0156478
916.721	0.0155614
916.799	0.0158194
916.878	0.0155923
916.956	0.0158027
917.034	0.0158866
917.112	0.0157523
917.190	0.0158562
917.268	0.0157963
917.346	0.0159195
917.424	0.0158833
917.503	0.0158354
917.581	0.0159488
917.659	0.0158981
917.737	0.0158417
917.815	0.0158993
917.893	0.0159627
917.971	0.0159528
918.049	0.0159888
918.128	0.0158246
918.206	0.0159433
918.284	0.0158883
918.362	0.0158134
918.440	0.0158092
918.518	0.0157621
918.596	0.0157756
918.674	0.0158463
918.753	0.0157838
918.831	0.0158261
918.909	0.0158263
918.987	0.0158157
919.065	0.0158476
919.143	0.0158131
919.221	0.0157056
919.299	0.0156808
919.378	0.0157734
919.456	0.0158409
919.534	0.0157805
919.612	0.0158313
919.690	0.0157260
919.768	0.0156847
919.846	0.0157166
919.924	0.0158472
920.003	0.0157266
920.081	0.0159924
920.159	0.0160687
920.237	0.0158759
920.315	0.0158884
920.393	0.0157947
920.471	0.0159085
920.549	0.0158273
920.628	0.0159055
920.706	0.0159804
920.784	0.0158868
920.862	0.0158286
920.940	0.0157574
921.018	0.0157991
921.096	0.0157190
921.174	0.0155640
921.253	0.0158006
921.331	0.0157167
921.409	0.0157987
921.487	0.0156969
921.565	0.0156413
921.643	0.0156833
921.721	0.0157608
921.799	0.0157409
921.878	0.0157884
921.956	0.0158317
922.034	0.0157471
922.112	0.0158041
922.190	0.0158496
922.268	0.0158939
922.346	0.0159254
922.424	0.0158567
922.503	0.0158711
922.581	0.0157841
922.659	0.0158678
922.737	0.0158038
922.815	0.0157174
922.893	0.0157589
922.971	0.0156528
923.049	0.0159167
923.128	0.0156945
923.206	0.0158960
923.284	0.0156849
923.362	0.0158340
923.440	0.0156678
923.518	0.0157817
923.596	0.0158356
923.674	0.0158637
923.753	0.0158897
923.831	0.0157535
923.909	0.0157978
923.987	0.0158836
924.065	0.0157566
924.143	0.0158216
924.221	0.0158360
924.299	0.0158121
924.378	0.0157868
924.456	0.0158607
924.534	0.0157708
924.612	0.0157510
924.690	0.0159032
924.768	0.0158598
924.846	0.0157281
924.924	0.0156450
925.003	0.0158163
925.081	0.0157177
925.159	0.0155630
925.237	0.0155860
925.315	0.0156760
925.393	0.0155664
925.471	0.0158146
925.549	0.0157725
925.628	0.0156076
925.706	0.0157558
925.784	0.0157809
925.862	0.0156714
925.940	0.0157458
926.018	0.0158944
926.096	0.0158627
926.174	0.0158533
926.253	0.0158835
926.331	0.0159412
926.409	0.0158349
926.487	0.0158586
926.565	0.0158802
926.643	0.0158748
926.721	0.0158685
926.799	0.0159335
926.878	0.0158921
926.956	0.0157927
927.034	0.0157757
927.112	0.0157179
927.190	0.0157216
927.268	0.0156947
927.346	0.0158153
927.424	0.0156458
927.503	0.0156482
927.581	0.0154968
927.659	0.0157264
927.737	0.0155727
927.815	0.0156133
927.893	0.0158073
927.971	0.0156926
928.049	0.0157063
928.128	0.0156857
928.206	0.0158816
928.284	0.0157570
928.362	0.0158365
928.440	0.0158645
928.518	0.0158976
928.596	0.0159592
928.674	0.0158040
928.753	0.0158372
928.831	0.0159221
928.909	0.0159218
928.987	0.0158614
929.065	0.0157503
929.143	0.0157257
929.221	0.0158602
929.299	0.0157309
929.378	0.0157399
929.456	0.0157111
929.534	0.0158543
929.612	0.0157625
929.690	0.0157338
929.768	0.0156757
929.846	0.0156381
929.924	0.0158160
930.003	0.0158684
930.081	0.0158014
930.159	0.0157856
930.237	0.0159258
930.315	0.0158325
930.393	0.0159265
930.471	0.0158620
930.549	0.0157207
930.628	0.0159358
930.706	0.0158649
930.784	0.0157925
930.862	0.0157637
930.940	0.0159058
931.018	0.0158160
931.096	0.0158865
931.174	0.0158735
931.253	0.0157707
931.331	0.0157605
931.409	0.0157874
931.487	0.0158277
931.565	0.0159167
931.643	0.0159102
931.721	0.0157759
931.799	0.0157917
931.878	0.0158658
931.956	0.0156166
932.034	0.0157568
932.112	0.0157726
932.190	0.0157455
932.268	0.0156561
932.346	0.0159048
932.424	0.0156046
932.503	0.0156837
932.581	0.0157880
932.659	0.0156848
932.737	0.0157005
932.815	0.0158850
932.893	0.0159151
932.971	0.0157077
933.049	0.0156698
933.128	0.0158250
933.206	0.0159113
933.284	0.0158566
933.362	0.0157114
933.440	0.0158973
933.518	0.0157967
933.596	0.0157712
933.674	0.0157442
933.753	0.0158096
933.831	0.0158127
933.909	0.0157784
933.987	0.0157717
934.065	0.0159645
934.143	0.0158324
934.221	0.0157884
934.299	0.0157409
934.378	0.0157159
934.456	0.0156823
934.534	0.0157027
934.612	0.0158742
934.690	0.0158266
934.768	0.0157127
934.846	0.0156697
934.924	0.0157564
935.003	0.0157117
935.081	0.0156984
935.159	0.0158553
935.237	0.0157793
935.315	0.0157156
935.393	0.0157062
935.471	0.0157650
935.549	0.0157968
935.628	0.0158858
935.706	0.0158642
935.784	0.0157869
935.862	0.0157871
935.940	0.0159212
936.018	0.0159641
936.096	0.0157076
936.174	0.0159464
936.253	0.0160157
936.331	0.0158733
936.409	0.0157983
936.487	0.0158305
936.565	0.0157874
936.643	0.0158288
936.721	0.0158450
936.799	0.0157072
936.878	0.0158374
936.956	0.0157973
937.034	0.0158264
937.112	0.0158832
937.190	0.0158553
937.268	0.0157684
937.346	0.0159364
937.424	0.0158804
937.503	0.0157573
937.581	0.0156960
937.659	0.0158115
937.737	0.0157397
937.815	0.0157655
937.893	0.0157831
937.971	0.0157399
938.049	0.0156630
938.128	0.0157330
938.206	0.0157423
938.284	0.0158163
938.362	0.0158146
938.440	0.0159405
938.518	0.0158171
938.596	0.0158365
938.674	0.0159215
938.753	0.0158041
938.831	0.0157803
938.909	0.0158608
938.987	0.0158600
939.065	0.0157520
939.143	0.0156657
939.221	0.0157385
939.299	0.0157102
939.378	0.0155989
939.456	0.0156453
939.534	0.0156853
939.612	0.0157499
939.690	0.0156393
939.768	0.0157064
939.846	0.0158329
939.924	0.0157512
940.003	0.0157711
940.081	0.0158144
940.159	0.0157034
940.237	0.0158041
940.315	0.0158009
940.393	0.0159686
940.471	0.0158989
940.549	0.0158989
940.628	0.0158449
940.706	0.0158456
940.784	0.0158415
940.862	0.0157174
940.940	0.0159122
941.018	0.0158647
941.096	0.0159034
941.174	0.0158275
941.253	0.0157375
941.331	0.0158916
941.409	0.0158656
941.487	0.0158083
941.565	0.0159061
941.643	0.0158190
941.721	0.0157584
941.799	0.0158170
941.878	0.0157245
941.956	0.0159260
942.034	0.0158102
942.112	0.0157252
942.190	0.0157156
942.268	0.0157724
942.346	0.0159102
942.424	0.0158909
942.503	0.0159046
942.581	0.0158479
942.659	0.0158620
942.737	0.0157722
942.815	0.0157735
942.893	0.0158152
942.971	0.0158739
943.049	0.0157896
943.128	0.0157058
943.206	0.0157545
943.284	0.0156820
943.362	0.0157314
943.440	0.0157040
943.518	0.0157630
943.596	0.0158605
943.674	0.0158620
943.753	0.0158060
943.831	0.0157443
943.909	0.0159149
943.987	0.0157372
944.065	0.0157761
944.143	0.0158349
944.221	0.0159415
944.299	0.0158098
944.378	0.0157719
944.456	0.0159326
944.534	0.0158043
944.612	0.0158510
944.690	0.0160817
944.768	0.0160855
944.846	0.0158361
944.924	0.0157281
945.003	0.0157203
945.081	0.0158779
945.159	0.0158369
945.237	0.0157909
945.315	0.0159190
945.393	0.0156892
945.471	0.0156806
945.549	0.0159171
945.628	0.0157877
945.706	0.0158487
945.784	0.0157062
945.862	0.0156596
945.940	0.0157278
946.018	0.0159164
946.096	0.0157902
946.174	0.0158164
946.253	0.0158686
946.331	0.0157746
946.409	0.0157772
946.487	0.0158829
946.565	0.0158077
946.643	0.0157958
946.721	0.0158607
946.799	0.0158612
946.878	0.0158015
946.956	0.0158038
947.034	0.0158830
947.112	0.0159788
947.190	0.0159026
947.268	0.0157594
947.346	0.0159261
947.424	0.0159095
947.503	0.0158620
947.581	0.0158383
947.659	0.0159029
947.737	0.0159872
947.815	0.0158149
947.893	0.0156889
947.971	0.0156363
948.049	0.0159257
948.128	0.0158436
948.206	0.0157957
948.284	0.0157462
948.362	0.0157211
948.440	0.0157597
948.518	0.0157971
948.596	0.0157742
948.674	0.0158809
948.753	0.0159435
948.831	0.0156673
948.909	0.0157648
948.987	0.0158289
949.065	0.0158467
949.143	0.0158174
949.221	0.0158134
949.299	0.0157465
949.378	0.0157410
949.456	0.0157508
949.534	0.0158383
949.612	0.0157452
949.690	0.0157468
949.768	0.0158267
949.846	0.0157792
949.924	0.0158444
