06/29/2022	23:04:16	Ver.	4.1	UNKNOWN
Optical Delay	630.002507	Delta X		0.078125	Sweeps	1	Scan Rate	0/0
Coordinates	Axis 1	NaN	Axis 2	NaN	Axis 3	NaN	Axis 4	NaN	Axis 5	NaN	Axis 6	0.000000
TX Power	0.000000	RX Power	0.000000

630.003	0.0163576
630.081	0.0162691
630.159	0.0163763
630.237	0.0163529
630.315	0.0164238
630.393	0.0163657
630.471	0.0162862
630.549	0.0165207
630.628	0.0162251
630.706	0.0163454
630.784	0.0161501
630.862	0.0163963
630.940	0.0161874
631.018	0.0162851
631.096	0.0163793
631.174	0.0162511
631.253	0.0162935
631.331	0.0164024
631.409	0.0163277
631.487	0.0163717
631.565	0.0163070
631.643	0.0162595
631.721	0.0162505
631.799	0.0163065
631.878	0.0163725
631.956	0.0163704
632.034	0.0163322
632.112	0.0163238
632.190	0.0164076
632.268	0.0164461
632.346	0.0163016
632.424	0.0163739
632.503	0.0162734
632.581	0.0161877
632.659	0.0163264
632.737	0.0163502
632.815	0.0163877
632.893	0.0162859
632.971	0.0162452
633.049	0.0162921
633.128	0.0163911
633.206	0.0163568
633.284	0.0162866
633.362	0.0163579
633.440	0.0162723
633.518	0.0164288
633.596	0.0161983
633.674	0.0163210
633.753	0.0163944
633.831	0.0162807
633.909	0.0163493
633.987	0.0161419
634.065	0.0162772
634.143	0.0163239
634.221	0.0163253
634.299	0.0164211
634.378	0.0163510
634.456	0.0162846
634.534	0.0162864
634.612	0.0163824
634.690	0.0162767
634.768	0.0162666
634.846	0.0162439
634.924	0.0162891
635.003	0.0162717
635.081	0.0164346
635.159	0.0163588
635.237	0.0163024
635.315	0.0164117
635.393	0.0163166
635.471	0.0162998
635.549	0.0162849
635.628	0.0163429
635.706	0.0161856
635.784	0.0164029
635.862	0.0164369
635.940	0.0163429
636.018	0.0163256
636.096	0.0164028
636.174	0.0164685
636.253	0.0163168
636.331	0.0163670
636.409	0.0162601
636.487	0.0163081
636.565	0.0163495
636.643	0.0165235
636.721	0.0163892
636.799	0.0162748
636.878	0.0163670
636.956	0.0163972
637.034	0.0163895
637.112	0.0163049
637.190	0.0163035
637.268	0.0163213
637.346	0.0162809
637.424	0.0162978
637.503	0.0162219
637.581	0.0163132
637.659	0.0162315
637.737	0.0162991
637.815	0.0163541
637.893	0.0164172
637.971	0.0163024
638.049	0.0164794
638.128	0.0163622
638.206	0.0163374
638.284	0.0163158
638.362	0.0163092
638.440	0.0162345
638.518	0.0162716
638.596	0.0162848
638.674	0.0162354
638.753	0.0161211
638.831	0.0163753
638.909	0.0163158
638.987	0.0162509
639.065	0.0162133
639.143	0.0162581
639.221	0.0162638
639.299	0.0162772
639.378	0.0163206
639.456	0.0162522
639.534	0.0162659
639.612	0.0164233
639.690	0.0162779
639.768	0.0162194
639.846	0.0163354
639.924	0.0162183
640.003	0.0163135
640.081	0.0163345
640.159	0.0163288
640.237	0.0163194
640.315	0.0163474
640.393	0.0163159
640.471	0.0162521
640.549	0.0163286
640.628	0.0163700
640.706	0.0162663
640.784	0.0162539
640.862	0.0162415
640.940	0.0161393
641.018	0.0163322
641.096	0.0163966
641.174	0.0163247
641.253	0.0161913
641.331	0.0162865
641.409	0.0162988
641.487	0.0162976
641.565	0.0162640
641.643	0.0164680
641.721	0.0164013
641.799	0.0164448
641.878	0.0162350
641.956	0.0161922
642.034	0.0163360
642.112	0.0163433
642.190	0.0163365
642.268	0.0164053
642.346	0.0163416
642.424	0.0163653
642.503	0.0163828
642.581	0.0162917
642.659	0.0163859
642.737	0.0163655
642.815	0.0162657
642.893	0.0161723
642.971	0.0161974
643.049	0.0163628
643.128	0.0162901
643.206	0.0162474
643.284	0.0162877
643.362	0.0162740
643.440	0.0162115
643.518	0.0164043
643.596	0.0163461
643.674	0.0163123
643.753	0.0162878
643.831	0.0163159
643.909	0.0161161
643.987	0.0163213
644.065	0.0162782
644.143	0.0162902
644.221	0.0164104
644.299	0.0162319
644.378	0.0162371
644.456	0.0162405
644.534	0.0162928
644.612	0.0162598
644.690	0.0163753
644.768	0.0162888
644.846	0.0164554
644.924	0.0163148
645.003	0.0162604
645.081	0.0162720
645.159	0.0163026
645.237	0.0162940
645.315	0.0163298
645.393	0.0163866
645.471	0.0163375
645.549	0.0161897
645.628	0.0164176
645.706	0.0161926
645.784	0.0162792
645.862	0.0163642
645.940	0.0161609
646.018	0.0163026
646.096	0.0163230
646.174	0.0162549
646.253	0.0163686
646.331	0.0162685
646.409	0.0162863
646.487	0.0163499
646.565	0.0162359
646.643	0.0162752
646.721	0.0163819
646.799	0.0164018
646.878	0.0162679
646.956	0.0162173
647.034	0.0161855
647.112	0.0162808
647.190	0.0162339
647.268	0.0163557
647.346	0.0163548
647.424	0.0162708
647.503	0.0162180
647.581	0.0162404
647.659	0.0163532
647.737	0.0162577
647.815	0.0161782
647.893	0.0164268
647.971	0.0163660
648.049	0.0163474
648.128	0.0163285
648.206	0.0163406
648.284	0.0162844
648.362	0.0163318
648.440	0.0163301
648.518	0.0162490
648.596	0.0163300
648.674	0.0162971
648.753	0.0163033
648.831	0.0164291
648.909	0.0164938
648.987	0.0163354
649.065	0.0162856
649.143	0.0162301
649.221	0.0163857
649.299	0.0163689
649.378	0.0164159
649.456	0.0162589
649.534	0.0164113
649.612	0.0163562
649.690	0.0163877
649.768	0.0163348
649.846	0.0162967
649.924	0.0162682
650.003	0.0163384
650.081	0.0162514
650.159	0.0162589
650.237	0.0163142
650.315	0.0164115
650.393	0.0163038
650.471	0.0162209
650.549	0.0164324
650.628	0.0163631
650.706	0.0163177
650.784	0.0162952
650.862	0.0163397
650.940	0.0164780
651.018	0.0163234
651.096	0.0163224
651.174	0.0162030
651.253	0.0161864
651.331	0.0162666
651.409	0.0163454
651.487	0.0163107
651.565	0.0163316
651.643	0.0162510
651.721	0.0162858
651.799	0.0162072
651.878	0.0162003
651.956	0.0163869
652.034	0.0163725
652.112	0.0162543
652.190	0.0162648
652.268	0.0163123
652.346	0.0163545
652.424	0.0163060
652.503	0.0162968
652.581	0.0163177
652.659	0.0163054
652.737	0.0163367
652.815	0.0165000
652.893	0.0162946
652.971	0.0163735
653.049	0.0163605
653.128	0.0163953
653.206	0.0163335
653.284	0.0164663
653.362	0.0164043
653.440	0.0162569
653.518	0.0162875
653.596	0.0161864
653.674	0.0163815
653.753	0.0164678
653.831	0.0162820
653.909	0.0164054
653.987	0.0164117
654.065	0.0162071
654.143	0.0162022
654.221	0.0162926
654.299	0.0163198
654.378	0.0164581
654.456	0.0163760
654.534	0.0162320
654.612	0.0163215
654.690	0.0162945
654.768	0.0163137
654.846	0.0165003
654.924	0.0163649
655.003	0.0163251
655.081	0.0164429
655.159	0.0163240
655.237	0.0163593
655.315	0.0164202
655.393	0.0162883
655.471	0.0163930
655.549	0.0163320
655.628	0.0163843
655.706	0.0163480
655.784	0.0163972
655.862	0.0164079
655.940	0.0163405
656.018	0.0164641
656.096	0.0163821
656.174	0.0163400
656.253	0.0163597
656.331	0.0162611
656.409	0.0161369
656.487	0.0162932
656.565	0.0163567
656.643	0.0162607
656.721	0.0162946
656.799	0.0163251
656.878	0.0164066
656.956	0.0162942
657.034	0.0163928
657.112	0.0164625
657.190	0.0163726
657.268	0.0161890
657.346	0.0163467
657.424	0.0162670
657.503	0.0162540
657.581	0.0163345
657.659	0.0163100
657.737	0.0162883
657.815	0.0163277
657.893	0.0163560
657.971	0.0163598
658.049	0.0163023
658.128	0.0164241
658.206	0.0163028
658.284	0.0164788
658.362	0.0164081
658.440	0.0161265
658.518	0.0163204
658.596	0.0162709
658.674	0.0164023
658.753	0.0164281
658.831	0.0162073
658.909	0.0162395
658.987	0.0162541
659.065	0.0162714
659.143	0.0164391
659.221	0.0164174
659.299	0.0162976
659.378	0.0163047
659.456	0.0163520
659.534	0.0163493
659.612	0.0164781
659.690	0.0163730
659.768	0.0162669
659.846	0.0164925
659.924	0.0163620
660.003	0.0163128
660.081	0.0162717
660.159	0.0163187
660.237	0.0161790
660.315	0.0164112
660.393	0.0163985
660.471	0.0162527
660.549	0.0163409
660.628	0.0163416
660.706	0.0162935
660.784	0.0162559
660.862	0.0163381
660.940	0.0164265
661.018	0.0163433
661.096	0.0163203
661.174	0.0163770
661.253	0.0162463
661.331	0.0163373
661.409	0.0162095
661.487	0.0164040
661.565	0.0161847
661.643	0.0162206
661.721	0.0163657
661.799	0.0163447
661.878	0.0163718
661.956	0.0163702
662.034	0.0163131
662.112	0.0162372
662.190	0.0162583
662.268	0.0163567
662.346	0.0162686
662.424	0.0163675
662.503	0.0162743
662.581	0.0162933
662.659	0.0162215
662.737	0.0163046
662.815	0.0162217
662.893	0.0163876
662.971	0.0164050
663.049	0.0162534
663.128	0.0164126
663.206	0.0163088
663.284	0.0163204
663.362	0.0162959
663.440	0.0162943
663.518	0.0163049
663.596	0.0162953
663.674	0.0162357
663.753	0.0163051
663.831	0.0164155
663.909	0.0161514
663.987	0.0162729
664.065	0.0163525
664.143	0.0162462
664.221	0.0163684
664.299	0.0162589
664.378	0.0163309
664.456	0.0162334
664.534	0.0162037
664.612	0.0163535
664.690	0.0163169
664.768	0.0163058
664.846	0.0162405
664.924	0.0164252
665.003	0.0162991
665.081	0.0162204
665.159	0.0162841
665.237	0.0163009
665.315	0.0162987
665.393	0.0163100
665.471	0.0162656
665.549	0.0162736
665.628	0.0163309
665.706	0.0162135
665.784	0.0162273
665.862	0.0163291
665.940	0.0162046
666.018	0.0162469
666.096	0.0163876
666.174	0.0162109
666.253	0.0162145
666.331	0.0164031
666.409	0.0161915
666.487	0.0163227
666.565	0.0163398
666.643	0.0164488
666.721	0.0163312
666.799	0.0163362
666.878	0.0163454
666.956	0.0160293
667.034	0.0162597
667.112	0.0164198
667.190	0.0163965
667.268	0.0163878
667.346	0.0163365
667.424	0.0163511
667.503	0.0162379
667.581	0.0164270
667.659	0.0162548
667.737	0.0162450
667.815	0.0164460
667.893	0.0163046
667.971	0.0162567
668.049	0.0162704
668.128	0.0164615
668.206	0.0162334
668.284	0.0163058
668.362	0.0164120
668.440	0.0163195
668.518	0.0162942
668.596	0.0165229
668.674	0.0163347
668.753	0.0163343
668.831	0.0163754
668.909	0.0163522
668.987	0.0163355
669.065	0.0163016
669.143	0.0163338
669.221	0.0163971
669.299	0.0163425
669.378	0.0162021
669.456	0.0162900
669.534	0.0162221
669.612	0.0163014
669.690	0.0162646
669.768	0.0163522
669.846	0.0163586
669.924	0.0163218
670.003	0.0163255
670.081	0.0162923
670.159	0.0161692
670.237	0.0162724
670.315	0.0164066
670.393	0.0164159
670.471	0.0162904
670.549	0.0162125
670.628	0.0162550
670.706	0.0163350
670.784	0.0162774
670.862	0.0162984
670.940	0.0163853
671.018	0.0162823
671.096	0.0162974
671.174	0.0164199
671.253	0.0162643
671.331	0.0162016
671.409	0.0163474
671.487	0.0162547
671.565	0.0162166
671.643	0.0162862
671.721	0.0163053
671.799	0.0163074
671.878	0.0162173
671.956	0.0163319
672.034	0.0162774
672.112	0.0163983
672.190	0.0163050
672.268	0.0162423
672.346	0.0162170
672.424	0.0163468
672.503	0.0164920
672.581	0.0163029
672.659	0.0163277
672.737	0.0162988
672.815	0.0163204
672.893	0.0163302
672.971	0.0164069
673.049	0.0163783
673.128	0.0163239
673.206	0.0162077
673.284	0.0163856
673.362	0.0164282
673.440	0.0163533
673.518	0.0163200
673.596	0.0163738
673.674	0.0163185
673.753	0.0163459
673.831	0.0164064
673.909	0.0163988
673.987	0.0164287
674.065	0.0163604
674.143	0.0162442
674.221	0.0163509
674.299	0.0163599
674.378	0.0162846
674.456	0.0162614
674.534	0.0162855
674.612	0.0161873
674.690	0.0162189
674.768	0.0162502
674.846	0.0162289
674.924	0.0163266
675.003	0.0163586
675.081	0.0162302
675.159	0.0162669
675.237	0.0161369
675.315	0.0162125
675.393	0.0162846
675.471	0.0162711
675.549	0.0162376
675.628	0.0163078
675.706	0.0162650
675.784	0.0163869
675.862	0.0163007
675.940	0.0162467
676.018	0.0163180
676.096	0.0163285
676.174	0.0162931
676.253	0.0162163
676.331	0.0163203
676.409	0.0161228
676.487	0.0163326
676.565	0.0161721
676.643	0.0162421
676.721	0.0162543
676.799	0.0161967
676.878	0.0162760
676.956	0.0161846
677.034	0.0161526
677.112	0.0164143
677.190	0.0163203
677.268	0.0163904
677.346	0.0165627
677.424	0.0164406
677.503	0.0164217
677.581	0.0164579
677.659	0.0164082
677.737	0.0163520
677.815	0.0162933
677.893	0.0163554
677.971	0.0162989
678.049	0.0161043
678.128	0.0162620
678.206	0.0162594
678.284	0.0161677
678.362	0.0162292
678.440	0.0162086
678.518	0.0162173
678.596	0.0162035
678.674	0.0163092
678.753	0.0165253
678.831	0.0164145
678.909	0.0163194
678.987	0.0164098
679.065	0.0164222
679.143	0.0163254
679.221	0.0164618
679.299	0.0163977
679.378	0.0163715
679.456	0.0164427
679.534	0.0164808
679.612	0.0162926
679.690	0.0162659
679.768	0.0162386
679.846	0.0161586
679.924	0.0162679
680.003	0.0160783
680.081	0.0161396
680.159	0.0162154
680.237	0.0160876
680.315	0.0162035
680.393	0.0163921
680.471	0.0164841
680.549	0.0164448
680.628	0.0163664
680.706	0.0163953
680.784	0.0164285
680.862	0.0164442
680.940	0.0163611
681.018	0.0164130
681.096	0.0163572
681.174	0.0164838
681.253	0.0163881
681.331	0.0163578
681.409	0.0163922
681.487	0.0163268
681.565	0.0163194
681.643	0.0162086
681.721	0.0163949
681.799	0.0163225
681.878	0.0162939
681.956	0.0163525
682.034	0.0164249
682.112	0.0164446
682.190	0.0164251
682.268	0.0163733
682.346	0.0164800
682.424	0.0163988
682.503	0.0165450
682.581	0.0166097
682.659	0.0163363
682.737	0.0164101
682.815	0.0166251
682.893	0.0166177
682.971	0.0164796
683.049	0.0163732
683.128	0.0164503
683.206	0.0163996
683.284	0.0164113
683.362	0.0161492
683.440	0.0162598
683.518	0.0162112
683.596	0.0161017
683.674	0.0161942
683.753	0.0162430
683.831	0.0162805
683.909	0.0162711
683.987	0.0161838
684.065	0.0163959
684.143	0.0165955
684.221	0.0165784
684.299	0.0166954
684.378	0.0164663
684.456	0.0164168
684.534	0.0165199
684.612	0.0165308
684.690	0.0163828
684.768	0.0164246
684.846	0.0163271
684.924	0.0162717
685.003	0.0162379
685.081	0.0163273
685.159	0.0162319
685.237	0.0161663
685.315	0.0161765
685.393	0.0161719
685.471	0.0161525
685.549	0.0163181
685.628	0.0163242
685.706	0.0162344
685.784	0.0163285
685.862	0.0163168
685.940	0.0164661
686.018	0.0163530
686.096	0.0162479
686.174	0.0163518
686.253	0.0164774
686.331	0.0165053
686.409	0.0164733
686.487	0.0164063
686.565	0.0164373
686.643	0.0161961
686.721	0.0163602
686.799	0.0163763
686.878	0.0163320
686.956	0.0163090
687.034	0.0161878
687.112	0.0161501
687.190	0.0161916
687.268	0.0162856
687.346	0.0161864
687.424	0.0160840
687.503	0.0162328
687.581	0.0162502
687.659	0.0162987
687.737	0.0162729
687.815	0.0164480
687.893	0.0164487
687.971	0.0162779
688.049	0.0164999
688.128	0.0163608
688.206	0.0164340
688.284	0.0165388
688.362	0.0164069
688.440	0.0163747
688.518	0.0163043
688.596	0.0163973
688.674	0.0163152
688.753	0.0162947
688.831	0.0164239
688.909	0.0162394
688.987	0.0160807
689.065	0.0161695
689.143	0.0161648
689.221	0.0162859
689.299	0.0161888
689.378	0.0160286
689.456	0.0162185
689.534	0.0162383
689.612	0.0163441
689.690	0.0162728
689.768	0.0163959
689.846	0.0166187
689.924	0.0165289
690.003	0.0164999
690.081	0.0165369
690.159	0.0166302
690.237	0.0165333
690.315	0.0164644
690.393	0.0165577
690.471	0.0163929
690.549	0.0162603
690.628	0.0163055
690.706	0.0162319
690.784	0.0161318
690.862	0.0160000
690.940	0.0162511
691.018	0.0162731
691.096	0.0161812
691.174	0.0162500
691.253	0.0164010
691.331	0.0163443
691.409	0.0161708
691.487	0.0165184
691.565	0.0163239
691.643	0.0164917
691.721	0.0164605
691.799	0.0165659
691.878	0.0165512
691.956	0.0162746
692.034	0.0163171
692.112	0.0162132
692.190	0.0163548
692.268	0.0162769
692.346	0.0161561
692.424	0.0161723
692.503	0.0162434
692.581	0.0162811
692.659	0.0162574
692.737	0.0163660
692.815	0.0162531
692.893	0.0163560
692.971	0.0163028
693.049	0.0163171
693.128	0.0165247
693.206	0.0164827
693.284	0.0163425
693.362	0.0164342
693.440	0.0163818
693.518	0.0163880
693.596	0.0164448
693.674	0.0161737
693.753	0.0161760
693.831	0.0162246
693.909	0.0161555
693.987	0.0161813
694.065	0.0162390
694.143	0.0162494
694.221	0.0161872
694.299	0.0162027
694.378	0.0163111
694.456	0.0163424
694.534	0.0164385
694.612	0.0164462
694.690	0.0165029
694.768	0.0165039
694.846	0.0165211
694.924	0.0165750
695.003	0.0165688
695.081	0.0163892
695.159	0.0163865
695.237	0.0163105
695.315	0.0164146
695.393	0.0164021
695.471	0.0160869
695.549	0.0160284
695.628	0.0160719
695.706	0.0160918
695.784	0.0163017
695.862	0.0161703
695.940	0.0162946
696.018	0.0161951
696.096	0.0162130
696.174	0.0162214
696.253	0.0163483
696.331	0.0164151
696.409	0.0163750
696.487	0.0162956
696.565	0.0163203
696.643	0.0165085
696.721	0.0164883
696.799	0.0164720
696.878	0.0164521
696.956	0.0164967
697.034	0.0165810
697.112	0.0165402
697.190	0.0163658
697.268	0.0162160
697.346	0.0162598
697.424	0.0162840
697.503	0.0160760
697.581	0.0160438
697.659	0.0160437
697.737	0.0161382
697.815	0.0162130
697.893	0.0160850
697.971	0.0160941
698.049	0.0161706
698.128	0.0162199
698.206	0.0163924
698.284	0.0162576
698.362	0.0164043
698.440	0.0164732
698.518	0.0166011
698.596	0.0165015
698.674	0.0165864
698.753	0.0165327
698.831	0.0164830
698.909	0.0163958
698.987	0.0163666
699.065	0.0162960
699.143	0.0162601
699.221	0.0161966
699.299	0.0161614
699.378	0.0160443
699.456	0.0159325
699.534	0.0160225
699.612	0.0162416
699.690	0.0161172
699.768	0.0162565
699.846	0.0161994
699.924	0.0162637
700.003	0.0162962
700.081	0.0163267
700.159	0.0164809
700.237	0.0164421
700.315	0.0162996
700.393	0.0164754
700.471	0.0163841
700.549	0.0164132
700.628	0.0164610
700.706	0.0164218
700.784	0.0163425
700.862	0.0163560
700.940	0.0163039
701.018	0.0162966
701.096	0.0161207
701.174	0.0162624
701.253	0.0162577
701.331	0.0161358
701.409	0.0161803
701.487	0.0161490
701.565	0.0162193
701.643	0.0161967
701.721	0.0161500
701.799	0.0162196
701.878	0.0162674
701.956	0.0163436
702.034	0.0165357
702.112	0.0163650
702.190	0.0164478
702.268	0.0165769
702.346	0.0165308
702.424	0.0165480
702.503	0.0165266
702.581	0.0165417
702.659	0.0165868
702.737	0.0163755
702.815	0.0163689
702.893	0.0163270
702.971	0.0163405
703.049	0.0163432
703.128	0.0163918
703.206	0.0162309
703.284	0.0162634
703.362	0.0162245
703.440	0.0164027
703.518	0.0163222
703.596	0.0162545
703.674	0.0164457
703.753	0.0164188
703.831	0.0161938
703.909	0.0162824
703.987	0.0162342
704.065	0.0162055
704.143	0.0161360
704.221	0.0162716
704.299	0.0162173
704.378	0.0160902
704.456	0.0161263
704.534	0.0162333
704.612	0.0162772
704.690	0.0162696
704.768	0.0162999
704.846	0.0165721
704.924	0.0163954
705.003	0.0163869
705.081	0.0164505
705.159	0.0164088
705.237	0.0164629
705.315	0.0165978
705.393	0.0165164
705.471	0.0165468
705.549	0.0165072
705.628	0.0165311
705.706	0.0164838
705.784	0.0165681
705.862	0.0164674
705.940	0.0163882
706.018	0.0163844
706.096	0.0163997
706.174	0.0162949
706.253	0.0162991
706.331	0.0161394
706.409	0.0162722
706.487	0.0163131
706.565	0.0161908
706.643	0.0160906
706.721	0.0161361
706.799	0.0161243
706.878	0.0161233
706.956	0.0162777
707.034	0.0162914
707.112	0.0162367
707.190	0.0163462
707.268	0.0163918
707.346	0.0163272
707.424	0.0164579
707.503	0.0163530
707.581	0.0164516
707.659	0.0164741
707.737	0.0164222
707.815	0.0163491
707.893	0.0163971
707.971	0.0163380
708.049	0.0162650
708.128	0.0162093
708.206	0.0162550
708.284	0.0163093
708.362	0.0163375
708.440	0.0162222
708.518	0.0162582
708.596	0.0163735
708.674	0.0162633
708.753	0.0163119
708.831	0.0164436
708.909	0.0163901
708.987	0.0163696
709.065	0.0163238
709.143	0.0165287
709.221	0.0164161
709.299	0.0165954
709.378	0.0165009
709.456	0.0162256
709.534	0.0162915
709.612	0.0163810
709.690	0.0162838
709.768	0.0162469
709.846	0.0163960
709.924	0.0163177
710.003	0.0164022
710.081	0.0164842
710.159	0.0162751
710.237	0.0161924
710.315	0.0162236
710.393	0.0162770
710.471	0.0163689
710.549	0.0163626
710.628	0.0162387
710.706	0.0164811
710.784	0.0164964
710.862	0.0163979
710.940	0.0164019
711.018	0.0164204
711.096	0.0162972
711.174	0.0163364
711.253	0.0164062
711.331	0.0164306
711.409	0.0162702
711.487	0.0162629
711.565	0.0162198
711.643	0.0162278
711.721	0.0162597
711.799	0.0161629
711.878	0.0162675
711.956	0.0162206
712.034	0.0161759
712.112	0.0162215
712.190	0.0162344
712.268	0.0161488
712.346	0.0162007
712.424	0.0162309
712.503	0.0162693
712.581	0.0162527
712.659	0.0163268
712.737	0.0164225
712.815	0.0163186
712.893	0.0162640
712.971	0.0163201
713.049	0.0163314
713.128	0.0163866
713.206	0.0165867
713.284	0.0163424
713.362	0.0161589
713.440	0.0163940
713.518	0.0162940
713.596	0.0164613
713.674	0.0163581
713.753	0.0162345
713.831	0.0163456
713.909	0.0165251
713.987	0.0163297
714.065	0.0162691
714.143	0.0162157
714.221	0.0163384
714.299	0.0162508
714.378	0.0162451
714.456	0.0161243
714.534	0.0161841
714.612	0.0161584
714.690	0.0161550
714.768	0.0161732
714.846	0.0161497
714.924	0.0160724
715.003	0.0161658
715.081	0.0162386
715.159	0.0162673
715.237	0.0164182
715.315	0.0163869
715.393	0.0164442
715.471	0.0163796
715.549	0.0164415
715.628	0.0164921
715.706	0.0164708
715.784	0.0165498
715.862	0.0164142
715.940	0.0165520
716.018	0.0164159
716.096	0.0163186
716.174	0.0161761
716.253	0.0161370
716.331	0.0161269
716.409	0.0159101
716.487	0.0159067
716.565	0.0159979
716.643	0.0158338
716.721	0.0157621
716.799	0.0158488
716.878	0.0158372
716.956	0.0157993
717.034	0.0158858
717.112	0.0160901
717.190	0.0162215
717.268	0.0163839
717.346	0.0164617
717.424	0.0165694
717.503	0.0168433
717.581	0.0169380
717.659	0.0167620
717.737	0.0169721
717.815	0.0169756
717.893	0.0170346
717.971	0.0170034
718.049	0.0170387
718.128	0.0170773
718.206	0.0169017
718.284	0.0167455
718.362	0.0166942
718.440	0.0165149
718.518	0.0162924
718.596	0.0163769
718.674	0.0161384
718.753	0.0160431
718.831	0.0159919
718.909	0.0160136
718.987	0.0158405
719.065	0.0156594
719.143	0.0156704
719.221	0.0156381
719.299	0.0156438
719.378	0.0156152
719.456	0.0154468
719.534	0.0155544
719.612	0.0156448
719.690	0.0157354
719.768	0.0157702
719.846	0.0157957
719.924	0.0158471
720.003	0.0158617
720.081	0.0159943
720.159	0.0161646
720.237	0.0164208
720.315	0.0164078
720.393	0.0164265
720.471	0.0166460
720.549	0.0168643
720.628	0.0167755
720.706	0.0169901
720.784	0.0170129
720.862	0.0169790
720.940	0.0170844
721.018	0.0171542
721.096	0.0171250
721.174	0.0170702
721.253	0.0170668
721.331	0.0169288
721.409	0.0167778
721.487	0.0167920
721.565	0.0166460
721.643	0.0164350
721.721	0.0163804
721.799	0.0160928
721.878	0.0160306
721.956	0.0160031
722.034	0.0157384
722.112	0.0155758
722.190	0.0157117
722.268	0.0156487
722.346	0.0154187
722.424	0.0155322
722.503	0.0155930
722.581	0.0156666
722.659	0.0155583
722.737	0.0156906
722.815	0.0159088
722.893	0.0159005
722.971	0.0158881
723.049	0.0160574
723.128	0.0162029
723.206	0.0163071
723.284	0.0164244
723.362	0.0165597
723.440	0.0166771
723.518	0.0167301
723.596	0.0169203
723.674	0.0170239
723.753	0.0170175
723.831	0.0170527
723.909	0.0171112
723.987	0.0169447
724.065	0.0169414
724.143	0.0167725
724.221	0.0166863
724.299	0.0165388
724.378	0.0164814
724.456	0.0163264
724.534	0.0160492
724.612	0.0161761
724.690	0.0159777
724.768	0.0159538
724.846	0.0158804
724.924	0.0156065
725.003	0.0157076
725.081	0.0157106
725.159	0.0156779
725.237	0.0158142
725.315	0.0157340
725.393	0.0157332
725.471	0.0158550
725.549	0.0159294
725.628	0.0159272
725.706	0.0160124
725.784	0.0162915
725.862	0.0163261
725.940	0.0162595
726.018	0.0163369
726.096	0.0165140
726.174	0.0165411
726.253	0.0166276
726.331	0.0166443
726.409	0.0168128
726.487	0.0166640
726.565	0.0166917
726.643	0.0167842
726.721	0.0166476
726.799	0.0167353
726.878	0.0166524
726.956	0.0165715
727.034	0.0164828
727.112	0.0162457
727.190	0.0162160
727.268	0.0161531
727.346	0.0163042
727.424	0.0162251
727.503	0.0161345
727.581	0.0162221
727.659	0.0162458
727.737	0.0163565
727.815	0.0163175
727.893	0.0163409
727.971	0.0163947
728.049	0.0165094
728.128	0.0164890
728.206	0.0165005
728.284	0.0166319
728.362	0.0166128
728.440	0.0164836
728.518	0.0166530
728.596	0.0165939
728.674	0.0165217
728.753	0.0164532
728.831	0.0164396
728.909	0.0162459
728.987	0.0161108
729.065	0.0161278
729.143	0.0160870
729.221	0.0159162
729.299	0.0158097
729.378	0.0157757
729.456	0.0158784
729.534	0.0157139
729.612	0.0159259
729.690	0.0157125
729.768	0.0158961
729.846	0.0158797
729.924	0.0158483
730.003	0.0159680
730.081	0.0159454
730.159	0.0160146
730.237	0.0160076
730.315	0.0160501
730.393	0.0161469
730.471	0.0160615
730.549	0.0159356
730.628	0.0160237
730.706	0.0161462
730.784	0.0159515
730.862	0.0160359
730.940	0.0160419
731.018	0.0161327
731.096	0.0159936
731.174	0.0160992
731.253	0.0163065
731.331	0.0164697
731.409	0.0165438
731.487	0.0166683
731.565	0.0167741
731.643	0.0169242
731.721	0.0169643
731.799	0.0171207
731.878	0.0169749
731.956	0.0171313
732.034	0.0171084
732.112	0.0174241
732.190	0.0175368
732.268	0.0174203
732.346	0.0173490
732.424	0.0172919
732.503	0.0172929
732.581	0.0171406
732.659	0.0170267
732.737	0.0169537
732.815	0.0167577
732.893	0.0165998
732.971	0.0166927
733.049	0.0163873
733.128	0.0159039
733.206	0.0158408
733.284	0.0156017
733.362	0.0155534
733.440	0.0153527
733.518	0.0152858
733.596	0.0151944
733.674	0.0152154
733.753	0.0152045
733.831	0.0151774
733.909	0.0151298
733.987	0.0154622
734.065	0.0153793
734.143	0.0154407
734.221	0.0157475
734.299	0.0158137
734.378	0.0159886
734.456	0.0161411
734.534	0.0161864
734.612	0.0164575
734.690	0.0165700
734.768	0.0166187
734.846	0.0167815
734.924	0.0167316
735.003	0.0167881
735.081	0.0168926
735.159	0.0167389
735.237	0.0168246
735.315	0.0167477
735.393	0.0166360
735.471	0.0165509
735.549	0.0163376
735.628	0.0165206
735.706	0.0164465
735.784	0.0163527
735.862	0.0162247
735.940	0.0161018
736.018	0.0165150
736.096	0.0164140
736.174	0.0165378
736.253	0.0165314
736.331	0.0166039
736.409	0.0168060
736.487	0.0167908
736.565	0.0166837
736.643	0.0168008
736.721	0.0168344
736.799	0.0167133
736.878	0.0166576
736.956	0.0165362
737.034	0.0164816
737.112	0.0165412
737.190	0.0163264
737.268	0.0160539
737.346	0.0159650
737.424	0.0157153
737.503	0.0156969
737.581	0.0156634
737.659	0.0155141
737.737	0.0154743
737.815	0.0153859
737.893	0.0154668
737.971	0.0155843
738.049	0.0155124
738.128	0.0156615
738.206	0.0157001
738.284	0.0159969
738.362	0.0159872
738.440	0.0161190
738.518	0.0163634
738.596	0.0163081
738.674	0.0166403
738.753	0.0166895
738.831	0.0167274
738.909	0.0169233
738.987	0.0169571
739.065	0.0170255
739.143	0.0169899
739.221	0.0168709
739.299	0.0167340
739.378	0.0168431
739.456	0.0168211
739.534	0.0167824
739.612	0.0166743
739.690	0.0164685
739.768	0.0163696
739.846	0.0164208
739.924	0.0163695
740.003	0.0161582
740.081	0.0161413
740.159	0.0161630
740.237	0.0160239
740.315	0.0160245
740.393	0.0160289
740.471	0.0159029
740.549	0.0159369
740.628	0.0157805
740.706	0.0159711
740.784	0.0159852
740.862	0.0160888
740.940	0.0161784
741.018	0.0161539
741.096	0.0162698
741.174	0.0163518
741.253	0.0164567
741.331	0.0164442
741.409	0.0164206
741.487	0.0165679
741.565	0.0166004
741.643	0.0165688
741.721	0.0165780
741.799	0.0163593
741.878	0.0162321
741.956	0.0163661
742.034	0.0162566
742.112	0.0161772
742.190	0.0161391
742.268	0.0162132
742.346	0.0160961
742.424	0.0161057
742.503	0.0161056
742.581	0.0160822
742.659	0.0161897
742.737	0.0161051
742.815	0.0159930
742.893	0.0161044
742.971	0.0161600
743.049	0.0162368
743.128	0.0162129
743.206	0.0163477
743.284	0.0164565
743.362	0.0164014
743.440	0.0164919
743.518	0.0163477
743.596	0.0164257
743.674	0.0164896
743.753	0.0162633
743.831	0.0163448
743.909	0.0162981
743.987	0.0161506
744.065	0.0160190
744.143	0.0159975
744.221	0.0160814
744.299	0.0160039
744.378	0.0162023
744.456	0.0161346
744.534	0.0162496
744.612	0.0162395
744.690	0.0164142
744.768	0.0164111
744.846	0.0165366
744.924	0.0166006
745.003	0.0165977
745.081	0.0166634
745.159	0.0168003
745.237	0.0166855
745.315	0.0167155
745.393	0.0167339
745.471	0.0166192
745.549	0.0165069
745.628	0.0166331
745.706	0.0166538
745.784	0.0164137
745.862	0.0165720
745.940	0.0165064
746.018	0.0162687
746.096	0.0162373
746.174	0.0162582
746.253	0.0163741
746.331	0.0162974
746.409	0.0161827
746.487	0.0164604
746.565	0.0164101
746.643	0.0164650
746.721	0.0164508
746.799	0.0163522
746.878	0.0164611
746.956	0.0164067
747.034	0.0162585
747.112	0.0162656
747.190	0.0163476
747.268	0.0161423
747.346	0.0160400
747.424	0.0160007
747.503	0.0159985
747.581	0.0157896
747.659	0.0157968
747.737	0.0157491
747.815	0.0155968
747.893	0.0155533
747.971	0.0156969
748.049	0.0156896
748.128	0.0156037
748.206	0.0158205
748.284	0.0159502
748.362	0.0160605
748.440	0.0159070
748.518	0.0160261
748.596	0.0162152
748.674	0.0163412
748.753	0.0163839
748.831	0.0164348
748.909	0.0165577
748.987	0.0165302
749.065	0.0168058
749.143	0.0168813
749.221	0.0168544
749.299	0.0169527
749.378	0.0169099
749.456	0.0170981
749.534	0.0171387
749.612	0.0171307
749.690	0.0171739
749.768	0.0169924
749.846	0.0169706
749.924	0.0170063
750.003	0.0167397
750.081	0.0167706
750.159	0.0167344
750.237	0.0166709
750.315	0.0165048
750.393	0.0164711
750.471	0.0162498
750.549	0.0163644
750.628	0.0163084
750.706	0.0161502
750.784	0.0160966
750.862	0.0160056
750.940	0.0159306
751.018	0.0158800
751.096	0.0158638
751.174	0.0157431
751.253	0.0157841
751.331	0.0159188
751.409	0.0159769
751.487	0.0159538
751.565	0.0159354
751.643	0.0159818
751.721	0.0159982
751.799	0.0161312
751.878	0.0161339
751.956	0.0161945
752.034	0.0163131
752.112	0.0162663
752.190	0.0163270
752.268	0.0164169
752.346	0.0164900
752.424	0.0165461
752.503	0.0164382
752.581	0.0165388
752.659	0.0165481
752.737	0.0164406
752.815	0.0163801
752.893	0.0162401
752.971	0.0162460
753.049	0.0161649
753.128	0.0161631
753.206	0.0160912
753.284	0.0159370
753.362	0.0160190
753.440	0.0159891
753.518	0.0159948
753.596	0.0160577
753.674	0.0159132
753.753	0.0159212
753.831	0.0159449
753.909	0.0160619
753.987	0.0160938
754.065	0.0159781
754.143	0.0160782
754.221	0.0161078
754.299	0.0162461
754.378	0.0161956
754.456	0.0162052
754.534	0.0162847
754.612	0.0164246
754.690	0.0165092
754.768	0.0166163
754.846	0.0166740
754.924	0.0165326
755.003	0.0168914
755.081	0.0168283
755.159	0.0169095
755.237	0.0168757
755.315	0.0168967
755.393	0.0169109
755.471	0.0169151
755.549	0.0170048
755.628	0.0167586
755.706	0.0168404
755.784	0.0165684
755.862	0.0164234
755.940	0.0163937
756.018	0.0163682
756.096	0.0161135
756.174	0.0159747
756.253	0.0160189
756.331	0.0159156
756.409	0.0158092
756.487	0.0157382
756.565	0.0157654
756.643	0.0157881
756.721	0.0156660
756.799	0.0155817
756.878	0.0156734
756.956	0.0156701
757.034	0.0156702
757.112	0.0158121
757.190	0.0158089
757.268	0.0160095
757.346	0.0160372
757.424	0.0162735
757.503	0.0162902
757.581	0.0163707
757.659	0.0163493
757.737	0.0165592
757.815	0.0166818
757.893	0.0168182
757.971	0.0167277
758.049	0.0167591
758.128	0.0169874
758.206	0.0169122
758.284	0.0168387
758.362	0.0168114
758.440	0.0167046
758.518	0.0167475
758.596	0.0166717
758.674	0.0165532
758.753	0.0164265
758.831	0.0163639
758.909	0.0162083
758.987	0.0163015
759.065	0.0160700
759.143	0.0161048
759.221	0.0160223
759.299	0.0161076
759.378	0.0160530
759.456	0.0159795
759.534	0.0160467
759.612	0.0160017
759.690	0.0160129
759.768	0.0162823
759.846	0.0162912
759.924	0.0161900
760.003	0.0162452
760.081	0.0164526
760.159	0.0165850
760.237	0.0164069
760.315	0.0163907
760.393	0.0165038
760.471	0.0164587
760.549	0.0164505
760.628	0.0164518
760.706	0.0163594
760.784	0.0162866
760.862	0.0162648
760.940	0.0162104
761.018	0.0161488
761.096	0.0161072
761.174	0.0161478
761.253	0.0160884
761.331	0.0162296
761.409	0.0161724
761.487	0.0161279
761.565	0.0161572
761.643	0.0162254
761.721	0.0163339
761.799	0.0162498
761.878	0.0163554
761.956	0.0163052
762.034	0.0162855
762.112	0.0162900
762.190	0.0163943
762.268	0.0163291
762.346	0.0162768
762.424	0.0164027
762.503	0.0163097
762.581	0.0163187
762.659	0.0162264
762.737	0.0162122
762.815	0.0160710
762.893	0.0160032
762.971	0.0160688
763.049	0.0159416
763.128	0.0159245
763.206	0.0158154
763.284	0.0157961
763.362	0.0158400
763.440	0.0160323
763.518	0.0162087
763.596	0.0162244
763.674	0.0163673
763.753	0.0165214
763.831	0.0164775
763.909	0.0167099
763.987	0.0166479
764.065	0.0168353
764.143	0.0167367
764.221	0.0169155
764.299	0.0167887
764.378	0.0168105
764.456	0.0166888
764.534	0.0166365
764.612	0.0166039
764.690	0.0166418
764.768	0.0165505
764.846	0.0164982
764.924	0.0165400
765.003	0.0163838
765.081	0.0164296
765.159	0.0164927
765.237	0.0164595
765.315	0.0165217
765.393	0.0164525
765.471	0.0163445
765.549	0.0166386
765.628	0.0165571
765.706	0.0163935
765.784	0.0164978
765.862	0.0164526
765.940	0.0166626
766.018	0.0163833
766.096	0.0162198
766.174	0.0161166
766.253	0.0161608
766.331	0.0161881
766.409	0.0159681
766.487	0.0158414
766.565	0.0157898
766.643	0.0158266
766.721	0.0157765
766.799	0.0156508
766.878	0.0156757
766.956	0.0157520
767.034	0.0158316
767.112	0.0157066
767.190	0.0157595
767.268	0.0157261
767.346	0.0158872
767.424	0.0160339
767.503	0.0160637
767.581	0.0160955
767.659	0.0161050
767.737	0.0162307
767.815	0.0162045
767.893	0.0161853
767.971	0.0161982
768.049	0.0163225
768.128	0.0163467
768.206	0.0163351
768.284	0.0163426
768.362	0.0162745
768.440	0.0164589
768.518	0.0163715
768.596	0.0161891
768.674	0.0162909
768.753	0.0162896
768.831	0.0162161
768.909	0.0163256
768.987	0.0163774
769.065	0.0162728
769.143	0.0163668
769.221	0.0163441
769.299	0.0163776
769.378	0.0163508
769.456	0.0163918
769.534	0.0164794
769.612	0.0164508
769.690	0.0165457
769.768	0.0166537
769.846	0.0166020
769.924	0.0165590
770.003	0.0165867
770.081	0.0163974
770.159	0.0165461
770.237	0.0166260
770.315	0.0164788
770.393	0.0166782
770.471	0.0166505
770.549	0.0167281
770.628	0.0167684
770.706	0.0166782
770.784	0.0167211
770.862	0.0167194
770.940	0.0166579
771.018	0.0167500
771.096	0.0167610
771.174	0.0165799
771.253	0.0167514
771.331	0.0166544
771.409	0.0165317
771.487	0.0164360
771.565	0.0164633
771.643	0.0163522
771.721	0.0163971
771.799	0.0162852
771.878	0.0161124
771.956	0.0161244
772.034	0.0158840
772.112	0.0159044
772.190	0.0158814
772.268	0.0158589
772.346	0.0156912
772.424	0.0156821
772.503	0.0156277
772.581	0.0157147
772.659	0.0157182
772.737	0.0157577
772.815	0.0157088
772.893	0.0157745
772.971	0.0156675
773.049	0.0157731
773.128	0.0157868
773.206	0.0157774
773.284	0.0156976
773.362	0.0156975
773.440	0.0156974
773.518	0.0157306
773.596	0.0156695
773.674	0.0157458
773.753	0.0157682
773.831	0.0158617
773.909	0.0159388
773.987	0.0160184
774.065	0.0162696
774.143	0.0162910
774.221	0.0165597
774.299	0.0164017
774.378	0.0166478
774.456	0.0168539
774.534	0.0167855
774.612	0.0169057
774.690	0.0167692
774.768	0.0167225
774.846	0.0168088
774.924	0.0166370
775.003	0.0167233
775.081	0.0168423
775.159	0.0166968
775.237	0.0165373
775.315	0.0165255
775.393	0.0166922
775.471	0.0167325
775.549	0.0166667
775.628	0.0165535
775.706	0.0165836
775.784	0.0166389
775.862	0.0166653
775.940	0.0165949
776.018	0.0164956
776.096	0.0163751
776.174	0.0164935
776.253	0.0164960
776.331	0.0165632
776.409	0.0164319
776.487	0.0164452
776.565	0.0165560
776.643	0.0163168
776.721	0.0166304
776.799	0.0165572
776.878	0.0164271
776.956	0.0163867
777.034	0.0164399
777.112	0.0162822
777.190	0.0164101
777.268	0.0163189
777.346	0.0163625
777.424	0.0163810
777.503	0.0162802
777.581	0.0162354
777.659	0.0162224
777.737	0.0161967
777.815	0.0160663
777.893	0.0161003
777.971	0.0159538
778.049	0.0161074
778.128	0.0161457
778.206	0.0159184
778.284	0.0158253
778.362	0.0159800
778.440	0.0159353
778.518	0.0159642
778.596	0.0158453
778.674	0.0158116
778.753	0.0158591
778.831	0.0157019
778.909	0.0157661
778.987	0.0158372
779.065	0.0158363
779.143	0.0159126
779.221	0.0159307
779.299	0.0158840
779.378	0.0157171
779.456	0.0158850
779.534	0.0158012
779.612	0.0160050
779.690	0.0159641
779.768	0.0159907
779.846	0.0160211
779.924	0.0160305
780.003	0.0160844
780.081	0.0161382
780.159	0.0162433
780.237	0.0161316
780.315	0.0163030
780.393	0.0165499
780.471	0.0164817
780.549	0.0166290
780.628	0.0167143
780.706	0.0166879
780.784	0.0168096
780.862	0.0169254
780.940	0.0169231
781.018	0.0170905
781.096	0.0170618
781.174	0.0169493
781.253	0.0170129
781.331	0.0170846
781.409	0.0170734
781.487	0.0169546
781.565	0.0167495
781.643	0.0169286
781.721	0.0168082
781.799	0.0168105
781.878	0.0165064
781.956	0.0163268
782.034	0.0164138
782.112	0.0162372
782.190	0.0161910
782.268	0.0160405
782.346	0.0160892
782.424	0.0159941
782.503	0.0160759
782.581	0.0161488
782.659	0.0161062
782.737	0.0160143
782.815	0.0161146
782.893	0.0163039
782.971	0.0162849
783.049	0.0163448
783.128	0.0163388
783.206	0.0164388
783.284	0.0164437
783.362	0.0163736
783.440	0.0164732
783.518	0.0163366
783.596	0.0163414
783.674	0.0162956
783.753	0.0164236
783.831	0.0163448
783.909	0.0162897
783.987	0.0160751
784.065	0.0161386
784.143	0.0159101
784.221	0.0160354
784.299	0.0160163
784.378	0.0159206
784.456	0.0160105
784.534	0.0159574
784.612	0.0160147
784.690	0.0160398
784.768	0.0160114
784.846	0.0160503
784.924	0.0160003
785.003	0.0160634
785.081	0.0162592
785.159	0.0161355
785.237	0.0161746
785.315	0.0162331
785.393	0.0163960
785.471	0.0162807
785.549	0.0163734
785.628	0.0163342
785.706	0.0162760
785.784	0.0162940
785.862	0.0162798
785.940	0.0163327
786.018	0.0164183
786.096	0.0162750
786.174	0.0162168
786.253	0.0162588
786.331	0.0162157
786.409	0.0163049
786.487	0.0161774
786.565	0.0163041
786.643	0.0163651
786.721	0.0162318
786.799	0.0161954
786.878	0.0163153
786.956	0.0161210
787.034	0.0162675
787.112	0.0163859
787.190	0.0164306
787.268	0.0164012
787.346	0.0164256
787.424	0.0164843
787.503	0.0165158
787.581	0.0166180
787.659	0.0164809
787.737	0.0164564
787.815	0.0166770
787.893	0.0167838
787.971	0.0167720
788.049	0.0168158
788.128	0.0167601
788.206	0.0166811
788.284	0.0167027
788.362	0.0168084
788.440	0.0167113
788.518	0.0166485
788.596	0.0166416
788.674	0.0165469
788.753	0.0164762
788.831	0.0165037
788.909	0.0164984
788.987	0.0163006
789.065	0.0162257
789.143	0.0163078
789.221	0.0162074
789.299	0.0161309
789.378	0.0158842
789.456	0.0160924
789.534	0.0160951
789.612	0.0161288
789.690	0.0160363
789.768	0.0161547
789.846	0.0160462
789.924	0.0161020
790.003	0.0161137
790.081	0.0162643
790.159	0.0160178
790.237	0.0161269
790.315	0.0161691
790.393	0.0161291
790.471	0.0161918
790.549	0.0162422
790.628	0.0161528
790.706	0.0161159
790.784	0.0160764
790.862	0.0159470
790.940	0.0160814
791.018	0.0160869
791.096	0.0160679
791.174	0.0161274
791.253	0.0161722
791.331	0.0161388
791.409	0.0162206
791.487	0.0162241
791.565	0.0163477
791.643	0.0164812
791.721	0.0164983
791.799	0.0165347
791.878	0.0164462
791.956	0.0164484
792.034	0.0165487
792.112	0.0165611
792.190	0.0166331
792.268	0.0166588
792.346	0.0165585
792.424	0.0165703
792.503	0.0166006
792.581	0.0164373
792.659	0.0163779
792.737	0.0162011
792.815	0.0162728
792.893	0.0162320
792.971	0.0162174
793.049	0.0160596
793.128	0.0161333
793.206	0.0160751
793.284	0.0159845
793.362	0.0160320
793.440	0.0159945
793.518	0.0161599
793.596	0.0161567
793.674	0.0160635
793.753	0.0161584
793.831	0.0162433
793.909	0.0162804
793.987	0.0163505
794.065	0.0163269
794.143	0.0164312
794.221	0.0164644
794.299	0.0165155
794.378	0.0166645
794.456	0.0166914
794.534	0.0167754
794.612	0.0169597
794.690	0.0168597
794.768	0.0169202
794.846	0.0168741
794.924	0.0167482
795.003	0.0167908
795.081	0.0166947
795.159	0.0166703
795.237	0.0164602
795.315	0.0165517
795.393	0.0165041
795.471	0.0162810
795.549	0.0161903
795.628	0.0162726
795.706	0.0161909
795.784	0.0160960
795.862	0.0160519
795.940	0.0160660
796.018	0.0159439
796.096	0.0159250
796.174	0.0159441
796.253	0.0160439
796.331	0.0160088
796.409	0.0160933
796.487	0.0161787
796.565	0.0160500
796.643	0.0162415
796.721	0.0163095
796.799	0.0162762
796.878	0.0161652
796.956	0.0161926
797.034	0.0163058
797.112	0.0163000
797.190	0.0163132
797.268	0.0163075
797.346	0.0163380
797.424	0.0163291
797.503	0.0162807
797.581	0.0161655
797.659	0.0162992
797.737	0.0162664
797.815	0.0162580
797.893	0.0161987
797.971	0.0163236
798.049	0.0162236
798.128	0.0162784
798.206	0.0163542
798.284	0.0164939
798.362	0.0165316
798.440	0.0164883
798.518	0.0165517
798.596	0.0165469
798.674	0.0165478
798.753	0.0166843
798.831	0.0165006
798.909	0.0163927
798.987	0.0164854
799.065	0.0164586
799.143	0.0164358
799.221	0.0161018
799.299	0.0161393
799.378	0.0161623
799.456	0.0162019
799.534	0.0160806
799.612	0.0159252
799.690	0.0159290
799.768	0.0158848
799.846	0.0159573
799.924	0.0158139
800.003	0.0159741
800.081	0.0157446
800.159	0.0158158
800.237	0.0159779
800.315	0.0160204
800.393	0.0161246
800.471	0.0160801
800.549	0.0161689
800.628	0.0163396
800.706	0.0163174
800.784	0.0164776
800.862	0.0166810
800.940	0.0167004
801.018	0.0167567
801.096	0.0168098
801.174	0.0167945
801.253	0.0170296
801.331	0.0169735
801.409	0.0169099
801.487	0.0169397
801.565	0.0167445
801.643	0.0169704
801.721	0.0167124
801.799	0.0167301
801.878	0.0166907
801.956	0.0164244
802.034	0.0164085
802.112	0.0163281
802.190	0.0163219
802.268	0.0161613
802.346	0.0159608
802.424	0.0159879
802.503	0.0158823
802.581	0.0158778
802.659	0.0158424
802.737	0.0158191
802.815	0.0159624
802.893	0.0158157
802.971	0.0158784
803.049	0.0160621
803.128	0.0160165
803.206	0.0161498
803.284	0.0160875
803.362	0.0162169
803.440	0.0162953
803.518	0.0163245
803.596	0.0163147
803.674	0.0164487
803.753	0.0163213
803.831	0.0163357
803.909	0.0163699
803.987	0.0164432
804.065	0.0163618
804.143	0.0163969
804.221	0.0164838
804.299	0.0162701
804.378	0.0164023
804.456	0.0163506
804.534	0.0164918
804.612	0.0163637
804.690	0.0163000
804.768	0.0164001
804.846	0.0164513
804.924	0.0164205
805.003	0.0164428
805.081	0.0164231
805.159	0.0164681
805.237	0.0166641
805.315	0.0165060
805.393	0.0165500
805.471	0.0166301
805.549	0.0164677
805.628	0.0164057
805.706	0.0165282
805.784	0.0163757
805.862	0.0162225
805.940	0.0162886
806.018	0.0161256
806.096	0.0159897
806.174	0.0160375
806.253	0.0159232
806.331	0.0158272
806.409	0.0157967
806.487	0.0156764
806.565	0.0157209
806.643	0.0159229
806.721	0.0157460
806.799	0.0159069
806.878	0.0159256
806.956	0.0159264
807.034	0.0160564
807.112	0.0162055
807.190	0.0163097
807.268	0.0163408
807.346	0.0164361
807.424	0.0165942
807.503	0.0167609
807.581	0.0168420
807.659	0.0168968
807.737	0.0169350
807.815	0.0171003
807.893	0.0169989
807.971	0.0169742
808.049	0.0172298
808.128	0.0171793
808.206	0.0170097
808.284	0.0169023
808.362	0.0168270
808.440	0.0168095
808.518	0.0166429
808.596	0.0166476
808.674	0.0165119
808.753	0.0163166
808.831	0.0162245
808.909	0.0161069
808.987	0.0160322
809.065	0.0159948
809.143	0.0158837
809.221	0.0157615
809.299	0.0160561
809.378	0.0159277
809.456	0.0158561
809.534	0.0160123
809.612	0.0161366
809.690	0.0162011
809.768	0.0160782
809.846	0.0160862
809.924	0.0162638
810.003	0.0164046
810.081	0.0163174
810.159	0.0164232
810.237	0.0163757
810.315	0.0163818
810.393	0.0163818
810.471	0.0166077
810.549	0.0164320
810.628	0.0163248
810.706	0.0164636
810.784	0.0163274
810.862	0.0163364
810.940	0.0164872
811.018	0.0163165
811.096	0.0164224
811.174	0.0163785
811.253	0.0161375
811.331	0.0163351
811.409	0.0163952
811.487	0.0164397
811.565	0.0164086
811.643	0.0164419
811.721	0.0163864
811.799	0.0164870
811.878	0.0165099
811.956	0.0163802
812.034	0.0165981
812.112	0.0164369
812.190	0.0164681
812.268	0.0164983
812.346	0.0164668
812.424	0.0162274
812.503	0.0162755
812.581	0.0162840
812.659	0.0161399
812.737	0.0161523
812.815	0.0159488
812.893	0.0159378
812.971	0.0159817
813.049	0.0158265
813.128	0.0156814
813.206	0.0157587
813.284	0.0158056
813.362	0.0159045
813.440	0.0157781
813.518	0.0158898
813.596	0.0158959
813.674	0.0160835
813.753	0.0163335
813.831	0.0164407
813.909	0.0165714
813.987	0.0164947
814.065	0.0167158
814.143	0.0167457
814.221	0.0169714
814.299	0.0169587
814.378	0.0171420
814.456	0.0171523
814.534	0.0172961
814.612	0.0171941
814.690	0.0171717
814.768	0.0170457
814.846	0.0169324
814.924	0.0170543
815.003	0.0169180
815.081	0.0165097
815.159	0.0164711
815.237	0.0165362
815.315	0.0162653
815.393	0.0161227
815.471	0.0159953
815.549	0.0159274
815.628	0.0156404
815.706	0.0157178
815.784	0.0157527
815.862	0.0157661
815.940	0.0158138
816.018	0.0157983
816.096	0.0158360
816.174	0.0158115
816.253	0.0158514
816.331	0.0160696
816.409	0.0160583
816.487	0.0161945
816.565	0.0162949
816.643	0.0163558
816.721	0.0162830
816.799	0.0163670
816.878	0.0164046
816.956	0.0164115
817.034	0.0164165
817.112	0.0163065
817.190	0.0166102
817.268	0.0165614
817.346	0.0163887
817.424	0.0164394
817.503	0.0163509
817.581	0.0164185
817.659	0.0164940
817.737	0.0164299
817.815	0.0163780
817.893	0.0164797
817.971	0.0165054
818.049	0.0165226
818.128	0.0165108
818.206	0.0164144
818.284	0.0167085
818.362	0.0166351
818.440	0.0164950
818.518	0.0164655
818.596	0.0165742
818.674	0.0165558
818.753	0.0166089
818.831	0.0164575
818.909	0.0164021
818.987	0.0164187
819.065	0.0161423
819.143	0.0161876
819.221	0.0163083
819.299	0.0161274
819.378	0.0160049
819.456	0.0159792
819.534	0.0159434
819.612	0.0158405
819.690	0.0159066
819.768	0.0159204
819.846	0.0160249
819.924	0.0159099
820.003	0.0159978
820.081	0.0160342
820.159	0.0162074
820.237	0.0162872
820.315	0.0162093
820.393	0.0162814
820.471	0.0164951
820.549	0.0165288
820.628	0.0165791
820.706	0.0167265
820.784	0.0166856
820.862	0.0168791
820.940	0.0167731
821.018	0.0168249
821.096	0.0169045
821.174	0.0169102
821.253	0.0168166
821.331	0.0167874
821.409	0.0168543
821.487	0.0168012
821.565	0.0167526
821.643	0.0165446
821.721	0.0164442
821.799	0.0165178
821.878	0.0163263
821.956	0.0162380
822.034	0.0162731
822.112	0.0161008
822.190	0.0162486
822.268	0.0160703
822.346	0.0159365
822.424	0.0159415
822.503	0.0159249
822.581	0.0159087
822.659	0.0158218
822.737	0.0158851
822.815	0.0160286
822.893	0.0159353
822.971	0.0160770
823.049	0.0160949
823.128	0.0162826
823.206	0.0161451
823.284	0.0163120
823.362	0.0163489
823.440	0.0164743
823.518	0.0162686
823.596	0.0164727
823.674	0.0164000
823.753	0.0164171
823.831	0.0164733
823.909	0.0164786
823.987	0.0165686
824.065	0.0165369
824.143	0.0165366
824.221	0.0164764
824.299	0.0164278
824.378	0.0165981
824.456	0.0165285
824.534	0.0165599
824.612	0.0165813
824.690	0.0163426
824.768	0.0166077
824.846	0.0164908
824.924	0.0165514
825.003	0.0164111
825.081	0.0163168
825.159	0.0164806
825.237	0.0164941
825.315	0.0166622
825.393	0.0164578
825.471	0.0163482
825.549	0.0163415
825.628	0.0163568
825.706	0.0164580
825.784	0.0163006
825.862	0.0162486
825.940	0.0159161
826.018	0.0159781
826.096	0.0159230
826.174	0.0157683
826.253	0.0158636
826.331	0.0158178
826.409	0.0157722
826.487	0.0157603
826.565	0.0157771
826.643	0.0157364
826.721	0.0159425
826.799	0.0159614
826.878	0.0160164
826.956	0.0161231
827.034	0.0161091
827.112	0.0162206
827.190	0.0162664
827.268	0.0164388
827.346	0.0165005
827.424	0.0165202
827.503	0.0165776
827.581	0.0167374
827.659	0.0168407
827.737	0.0167706
827.815	0.0167897
827.893	0.0168536
827.971	0.0168333
828.049	0.0167922
828.128	0.0168554
828.206	0.0170583
828.284	0.0167144
828.362	0.0167332
828.440	0.0165742
828.518	0.0166372
828.596	0.0166055
828.674	0.0163445
828.753	0.0164400
828.831	0.0164474
828.909	0.0163513
828.987	0.0162854
829.065	0.0162862
829.143	0.0162864
829.221	0.0163470
829.299	0.0161096
829.378	0.0162245
829.456	0.0160943
829.534	0.0161752
829.612	0.0162314
829.690	0.0161698
829.768	0.0161105
829.846	0.0160844
829.924	0.0162332
830.003	0.0162904
830.081	0.0161143
830.159	0.0161730
830.237	0.0162765
830.315	0.0161385
830.393	0.0161155
830.471	0.0161407
830.549	0.0160735
830.628	0.0161536
830.706	0.0162738
830.784	0.0161665
830.862	0.0161691
830.940	0.0162154
831.018	0.0162375
831.096	0.0162128
831.174	0.0162841
831.253	0.0163374
831.331	0.0163078
831.409	0.0164277
831.487	0.0164958
831.565	0.0164288
831.643	0.0165437
831.721	0.0164152
831.799	0.0165487
831.878	0.0164153
831.956	0.0164147
832.034	0.0164402
832.112	0.0165478
832.190	0.0162479
832.268	0.0163662
832.346	0.0164161
832.424	0.0162751
832.503	0.0163673
832.581	0.0161549
832.659	0.0162667
832.737	0.0160790
832.815	0.0160704
832.893	0.0160949
832.971	0.0160701
833.049	0.0160113
833.128	0.0161185
833.206	0.0160321
833.284	0.0159659
833.362	0.0161506
833.440	0.0161721
833.518	0.0162398
833.596	0.0164384
833.674	0.0164024
833.753	0.0164166
833.831	0.0163113
833.909	0.0164901
833.987	0.0164021
834.065	0.0163869
834.143	0.0166092
834.221	0.0165572
834.299	0.0166028
834.378	0.0165240
834.456	0.0165231
834.534	0.0167404
834.612	0.0167082
834.690	0.0166464
834.768	0.0167310
834.846	0.0165543
834.924	0.0165160
835.003	0.0165585
835.081	0.0165533
835.159	0.0164536
835.237	0.0164434
835.315	0.0165807
835.393	0.0165863
835.471	0.0163512
835.549	0.0162132
835.628	0.0162498
835.706	0.0162592
835.784	0.0162838
835.862	0.0161494
835.940	0.0160926
836.018	0.0161460
836.096	0.0161118
836.174	0.0161206
836.253	0.0161932
836.331	0.0162064
836.409	0.0161976
836.487	0.0160691
836.565	0.0162815
836.643	0.0161523
836.721	0.0161675
836.799	0.0162141
836.878	0.0161389
836.956	0.0161942
837.034	0.0162632
837.112	0.0162829
837.190	0.0162753
837.268	0.0162548
837.346	0.0163583
837.424	0.0161842
837.503	0.0163847
837.581	0.0162978
837.659	0.0163504
837.737	0.0162769
837.815	0.0163599
837.893	0.0163882
837.971	0.0163493
838.049	0.0163763
838.128	0.0163979
838.206	0.0164488
838.284	0.0164558
838.362	0.0163440
838.440	0.0163981
838.518	0.0162508
838.596	0.0163879
838.674	0.0165200
838.753	0.0163777
838.831	0.0163702
838.909	0.0162405
838.987	0.0163249
839.065	0.0162507
839.143	0.0162503
839.221	0.0162749
839.299	0.0161957
839.378	0.0161838
839.456	0.0161853
839.534	0.0161686
839.612	0.0162267
839.690	0.0162048
839.768	0.0162009
839.846	0.0162586
839.924	0.0161756
840.003	0.0162003
840.081	0.0162817
840.159	0.0162130
840.237	0.0161981
840.315	0.0164570
840.393	0.0164500
840.471	0.0163373
840.549	0.0164090
840.628	0.0165440
840.706	0.0166285
840.784	0.0163783
840.862	0.0164391
840.940	0.0166609
841.018	0.0165466
841.096	0.0165771
841.174	0.0167061
841.253	0.0166747
841.331	0.0166458
841.409	0.0165576
841.487	0.0167098
841.565	0.0166661
841.643	0.0165679
841.721	0.0164328
841.799	0.0164952
841.878	0.0164978
841.956	0.0163194
842.034	0.0163950
842.112	0.0163656
842.190	0.0164188
842.268	0.0163807
842.346	0.0161628
842.424	0.0162762
842.503	0.0163133
842.581	0.0160976
842.659	0.0162817
842.737	0.0161877
842.815	0.0161983
842.893	0.0160898
842.971	0.0159754
843.049	0.0161774
843.128	0.0160239
843.206	0.0161315
843.284	0.0161971
843.362	0.0160441
843.440	0.0161270
843.518	0.0161355
843.596	0.0160556
843.674	0.0163086
843.753	0.0161819
843.831	0.0162585
843.909	0.0161568
843.987	0.0163548
844.065	0.0164295
844.143	0.0163358
844.221	0.0162926
844.299	0.0163852
844.378	0.0163435
844.456	0.0163750
844.534	0.0163866
844.612	0.0164444
844.690	0.0163856
844.768	0.0164533
844.846	0.0163477
844.924	0.0163873
845.003	0.0163000
845.081	0.0162665
845.159	0.0164138
845.237	0.0163763
845.315	0.0163971
845.393	0.0162948
845.471	0.0161799
845.549	0.0162730
845.628	0.0163055
845.706	0.0162872
845.784	0.0162961
845.862	0.0162824
845.940	0.0161707
846.018	0.0162383
846.096	0.0163364
846.174	0.0162835
846.253	0.0162589
846.331	0.0163187
846.409	0.0161948
846.487	0.0163267
846.565	0.0163017
846.643	0.0162000
846.721	0.0162775
846.799	0.0162917
846.878	0.0164100
846.956	0.0163578
847.034	0.0162307
847.112	0.0162883
847.190	0.0165284
847.268	0.0163527
847.346	0.0163510
847.424	0.0163574
847.503	0.0164304
847.581	0.0164951
847.659	0.0163875
847.737	0.0163913
847.815	0.0163741
847.893	0.0163823
847.971	0.0164403
848.049	0.0164761
848.128	0.0164592
848.206	0.0163976
848.284	0.0164642
848.362	0.0163783
848.440	0.0163280
848.518	0.0164031
848.596	0.0164966
848.674	0.0164127
848.753	0.0162607
848.831	0.0162642
848.909	0.0164053
848.987	0.0163496
849.065	0.0162884
849.143	0.0163046
849.221	0.0163422
849.299	0.0163133
849.378	0.0163342
849.456	0.0162932
849.534	0.0161715
849.612	0.0163503
849.690	0.0161931
849.768	0.0162199
849.846	0.0162482
849.924	0.0162727
850.003	0.0161353
850.081	0.0162221
850.159	0.0163112
850.237	0.0161352
850.315	0.0163789
850.393	0.0161562
850.471	0.0161429
850.549	0.0163181
850.628	0.0162505
850.706	0.0162023
850.784	0.0163481
850.862	0.0162076
850.940	0.0163882
851.018	0.0164141
851.096	0.0163940
851.174	0.0164832
851.253	0.0164600
851.331	0.0163663
851.409	0.0164653
851.487	0.0165257
851.565	0.0163596
851.643	0.0164960
851.721	0.0163533
851.799	0.0164182
851.878	0.0165240
851.956	0.0166100
852.034	0.0163915
852.112	0.0163560
852.190	0.0163284
852.268	0.0162311
852.346	0.0162312
852.424	0.0162665
852.503	0.0162498
852.581	0.0162425
852.659	0.0160392
852.737	0.0161627
852.815	0.0161291
852.893	0.0161781
852.971	0.0161135
853.049	0.0161578
853.128	0.0161342
853.206	0.0161807
853.284	0.0162692
853.362	0.0162505
853.440	0.0162965
853.518	0.0163179
853.596	0.0164874
853.674	0.0164173
853.753	0.0163063
853.831	0.0163194
853.909	0.0163477
853.987	0.0164291
854.065	0.0164199
854.143	0.0163843
854.221	0.0164624
854.299	0.0163673
854.378	0.0164559
854.456	0.0162859
854.534	0.0164330
854.612	0.0163262
854.690	0.0165952
854.768	0.0165325
854.846	0.0163297
854.924	0.0162899
855.003	0.0163644
855.081	0.0164165
855.159	0.0164893
855.237	0.0165051
855.315	0.0164929
855.393	0.0165944
855.471	0.0164912
855.549	0.0163614
855.628	0.0164455
855.706	0.0164926
855.784	0.0164578
855.862	0.0164144
855.940	0.0163920
856.018	0.0163280
856.096	0.0164518
856.174	0.0164320
856.253	0.0163838
856.331	0.0163612
856.409	0.0163171
856.487	0.0163401
856.565	0.0161532
856.643	0.0163529
856.721	0.0161948
856.799	0.0162427
856.878	0.0162745
856.956	0.0160954
857.034	0.0162123
857.112	0.0161977
857.190	0.0161728
857.268	0.0163000
857.346	0.0162113
857.424	0.0162653
857.503	0.0162385
857.581	0.0162391
857.659	0.0162923
857.737	0.0162567
857.815	0.0161062
857.893	0.0163351
857.971	0.0164029
858.049	0.0162701
858.128	0.0162240
858.206	0.0163716
858.284	0.0163464
858.362	0.0162113
858.440	0.0161146
858.518	0.0162753
858.596	0.0161691
858.674	0.0162910
858.753	0.0162022
858.831	0.0161098
858.909	0.0162197
858.987	0.0162188
859.065	0.0161076
859.143	0.0161253
859.221	0.0162284
859.299	0.0162762
859.378	0.0160945
859.456	0.0162246
859.534	0.0161877
859.612	0.0164327
859.690	0.0164032
859.768	0.0162801
859.846	0.0162178
859.924	0.0162052
860.003	0.0162708
860.081	0.0165264
860.159	0.0164708
860.237	0.0163795
860.315	0.0164077
860.393	0.0163515
860.471	0.0164163
860.549	0.0165791
860.628	0.0164528
860.706	0.0164235
860.784	0.0165243
860.862	0.0164989
860.940	0.0163791
861.018	0.0164937
861.096	0.0163799
861.174	0.0163393
861.253	0.0163838
861.331	0.0163657
861.409	0.0163553
861.487	0.0163466
861.565	0.0163563
861.643	0.0163933
861.721	0.0164159
861.799	0.0163515
861.878	0.0164246
861.956	0.0164391
862.034	0.0164877
862.112	0.0163731
862.190	0.0164755
862.268	0.0162827
862.346	0.0163651
862.424	0.0164700
862.503	0.0163186
862.581	0.0163956
862.659	0.0162642
862.737	0.0163073
862.815	0.0163241
862.893	0.0162498
862.971	0.0161739
863.049	0.0162212
863.128	0.0163277
863.206	0.0161947
863.284	0.0161900
863.362	0.0162573
863.440	0.0160972
863.518	0.0161572
863.596	0.0160883
863.674	0.0162523
863.753	0.0160670
863.831	0.0161265
863.909	0.0163103
863.987	0.0163094
864.065	0.0161325
864.143	0.0161967
864.221	0.0162839
864.299	0.0163520
864.378	0.0162673
864.456	0.0162336
864.534	0.0163343
864.612	0.0163840
864.690	0.0163921
864.768	0.0163997
864.846	0.0162569
864.924	0.0164211
865.003	0.0163821
865.081	0.0163654
865.159	0.0163720
865.237	0.0164193
865.315	0.0164195
865.393	0.0163247
865.471	0.0163398
865.549	0.0162842
865.628	0.0163203
865.706	0.0162590
865.784	0.0162775
865.862	0.0162174
865.940	0.0163443
866.018	0.0162093
866.096	0.0162936
866.174	0.0163319
866.253	0.0162791
866.331	0.0163216
866.409	0.0163071
866.487	0.0164236
866.565	0.0164075
866.643	0.0165160
866.721	0.0164818
866.799	0.0163929
866.878	0.0164370
866.956	0.0164664
867.034	0.0165324
867.112	0.0164551
867.190	0.0163864
867.268	0.0164006
867.346	0.0164281
867.424	0.0165356
867.503	0.0164674
867.581	0.0165067
867.659	0.0164603
867.737	0.0164433
867.815	0.0164799
867.893	0.0164191
867.971	0.0164109
868.049	0.0163309
868.128	0.0162223
868.206	0.0164439
868.284	0.0164404
868.362	0.0164146
868.440	0.0162543
868.518	0.0162909
868.596	0.0163776
868.674	0.0163146
868.753	0.0163060
868.831	0.0162146
868.909	0.0162283
868.987	0.0162626
869.065	0.0161984
869.143	0.0162294
869.221	0.0163073
869.299	0.0162196
869.378	0.0162061
869.456	0.0161217
869.534	0.0162687
869.612	0.0161198
869.690	0.0162454
869.768	0.0161945
869.846	0.0161389
869.924	0.0162074
870.003	0.0162240
870.081	0.0161637
870.159	0.0161579
870.237	0.0162199
870.315	0.0161918
870.393	0.0161488
870.471	0.0162818
870.549	0.0162674
870.628	0.0161510
870.706	0.0162984
870.784	0.0162849
870.862	0.0162311
870.940	0.0163792
871.018	0.0163956
871.096	0.0163289
871.174	0.0163770
871.253	0.0162166
871.331	0.0164038
871.409	0.0163472
871.487	0.0164129
871.565	0.0164113
871.643	0.0163290
871.721	0.0163077
871.799	0.0162672
871.878	0.0164391
871.956	0.0162971
872.034	0.0164356
872.112	0.0163718
872.190	0.0164407
872.268	0.0165151
872.346	0.0163550
872.424	0.0163910
872.503	0.0163948
872.581	0.0163392
872.659	0.0163423
872.737	0.0163726
872.815	0.0162194
872.893	0.0164987
872.971	0.0164355
873.049	0.0162469
873.128	0.0162498
873.206	0.0164645
873.284	0.0165010
873.362	0.0163277
873.440	0.0162702
873.518	0.0164140
873.596	0.0163714
873.674	0.0163759
873.753	0.0164297
873.831	0.0163054
873.909	0.0163002
873.987	0.0163033
874.065	0.0164280
874.143	0.0164031
874.221	0.0162490
874.299	0.0163603
874.378	0.0163044
874.456	0.0163713
874.534	0.0162662
874.612	0.0163063
874.690	0.0162552
874.768	0.0161140
874.846	0.0161095
874.924	0.0162849
875.003	0.0164185
875.081	0.0162331
875.159	0.0163374
875.237	0.0162513
875.315	0.0162373
875.393	0.0162740
875.471	0.0162554
875.549	0.0163100
875.628	0.0163444
875.706	0.0163142
875.784	0.0164192
875.862	0.0164600
875.940	0.0163177
876.018	0.0163630
876.096	0.0163223
876.174	0.0163271
876.253	0.0162702
876.331	0.0163846
876.409	0.0163125
876.487	0.0164008
876.565	0.0161219
876.643	0.0163820
876.721	0.0162641
876.799	0.0162842
876.878	0.0161836
876.956	0.0162125
877.034	0.0163539
877.112	0.0163697
877.190	0.0161177
877.268	0.0161944
877.346	0.0163074
877.424	0.0163300
877.503	0.0162405
877.581	0.0162724
877.659	0.0162006
877.737	0.0163725
877.815	0.0163477
877.893	0.0162596
877.971	0.0162977
878.049	0.0163546
878.128	0.0163725
878.206	0.0164311
878.284	0.0162646
878.362	0.0163791
878.440	0.0162885
878.518	0.0163155
878.596	0.0162922
878.674	0.0163126
878.753	0.0164844
878.831	0.0163521
878.909	0.0162833
878.987	0.0163754
879.065	0.0163615
879.143	0.0163365
879.221	0.0163844
879.299	0.0164066
879.378	0.0163274
879.456	0.0162594
879.534	0.0163069
879.612	0.0162561
879.690	0.0163210
879.768	0.0164001
879.846	0.0163261
879.924	0.0165066
880.003	0.0162302
880.081	0.0162726
880.159	0.0164188
880.237	0.0163879
880.315	0.0164074
880.393	0.0163765
880.471	0.0163705
880.549	0.0164342
880.628	0.0163517
880.706	0.0163151
880.784	0.0162166
880.862	0.0162859
880.940	0.0163079
881.018	0.0163833
881.096	0.0164061
881.174	0.0163111
881.253	0.0164127
881.331	0.0164690
881.409	0.0163068
881.487	0.0162848
881.565	0.0164474
881.643	0.0163558
881.721	0.0163327
881.799	0.0162904
881.878	0.0163113
881.956	0.0163317
882.034	0.0164281
882.112	0.0163149
882.190	0.0163314
882.268	0.0163641
882.346	0.0164716
882.424	0.0164032
882.503	0.0163897
882.581	0.0163525
882.659	0.0164010
882.737	0.0163393
882.815	0.0163382
882.893	0.0163168
882.971	0.0162273
883.049	0.0163434
883.128	0.0163016
883.206	0.0163109
883.284	0.0163596
883.362	0.0162924
883.440	0.0162309
883.518	0.0162000
883.596	0.0162394
883.674	0.0162395
883.753	0.0164060
883.831	0.0163321
883.909	0.0163311
883.987	0.0162421
884.065	0.0162523
884.143	0.0163777
884.221	0.0163002
884.299	0.0162190
884.378	0.0163040
884.456	0.0162614
884.534	0.0163864
884.612	0.0163925
884.690	0.0164194
884.768	0.0163724
884.846	0.0163235
884.924	0.0163119
885.003	0.0164326
885.081	0.0164966
885.159	0.0163564
885.237	0.0163610
885.315	0.0164605
885.393	0.0163927
885.471	0.0163425
885.549	0.0163559
885.628	0.0164471
885.706	0.0163665
885.784	0.0164217
885.862	0.0163580
885.940	0.0164035
886.018	0.0165111
886.096	0.0163842
886.174	0.0163239
886.253	0.0164594
886.331	0.0165984
886.409	0.0164707
886.487	0.0164291
886.565	0.0163416
886.643	0.0164446
886.721	0.0163201
886.799	0.0163520
886.878	0.0163760
886.956	0.0163811
887.034	0.0163705
887.112	0.0164044
887.190	0.0163440
887.268	0.0162526
887.346	0.0162317
887.424	0.0164067
887.503	0.0165364
887.581	0.0163225
887.659	0.0163902
887.737	0.0164846
887.815	0.0164780
887.893	0.0164526
887.971	0.0163638
888.049	0.0165267
888.128	0.0164714
888.206	0.0164801
888.284	0.0165171
888.362	0.0164996
888.440	0.0165668
888.518	0.0164146
888.596	0.0164541
888.674	0.0164935
888.753	0.0164571
888.831	0.0165574
888.909	0.0163696
888.987	0.0162220
889.065	0.0164302
889.143	0.0165070
889.221	0.0163983
889.299	0.0163848
889.378	0.0163053
889.456	0.0162485
889.534	0.0162138
889.612	0.0163126
889.690	0.0163413
889.768	0.0162895
889.846	0.0163277
889.924	0.0164162
890.003	0.0163852
890.081	0.0161896
890.159	0.0163990
890.237	0.0163461
890.315	0.0161646
890.393	0.0162617
890.471	0.0162064
890.549	0.0163234
890.628	0.0163699
890.706	0.0162472
890.784	0.0163644
890.862	0.0163251
890.940	0.0162254
891.018	0.0163206
891.096	0.0162905
891.174	0.0164066
891.253	0.0163454
891.331	0.0164075
891.409	0.0163158
891.487	0.0162788
891.565	0.0163360
891.643	0.0165306
891.721	0.0164025
891.799	0.0164097
891.878	0.0163621
891.956	0.0163865
892.034	0.0163060
892.112	0.0165472
892.190	0.0163094
892.268	0.0163466
892.346	0.0163618
892.424	0.0164686
892.503	0.0164700
892.581	0.0163914
892.659	0.0162749
892.737	0.0163975
892.815	0.0163681
892.893	0.0162952
892.971	0.0163451
893.049	0.0163608
893.128	0.0162419
893.206	0.0162572
893.284	0.0162046
893.362	0.0162686
893.440	0.0163793
893.518	0.0162255
893.596	0.0162797
893.674	0.0162727
893.753	0.0162575
893.831	0.0163456
893.909	0.0161791
893.987	0.0163229
894.065	0.0161942
894.143	0.0163503
894.221	0.0164056
894.299	0.0163560
894.378	0.0164176
894.456	0.0163058
894.534	0.0162224
894.612	0.0163226
894.690	0.0164074
894.768	0.0163878
894.846	0.0164051
894.924	0.0164211
895.003	0.0164140
895.081	0.0163890
895.159	0.0164481
895.237	0.0164499
895.315	0.0163187
895.393	0.0162315
895.471	0.0163885
895.549	0.0163733
895.628	0.0163097
895.706	0.0163197
895.784	0.0161990
895.862	0.0162664
895.940	0.0164030
896.018	0.0163163
896.096	0.0162100
896.174	0.0163490
896.253	0.0162582
896.331	0.0163875
896.409	0.0163235
896.487	0.0162585
896.565	0.0162458
896.643	0.0163855
896.721	0.0163240
896.799	0.0164026
896.878	0.0164648
896.956	0.0162485
897.034	0.0162916
897.112	0.0163675
897.190	0.0164001
897.268	0.0164810
897.346	0.0163039
897.424	0.0163387
897.503	0.0163900
897.581	0.0162875
897.659	0.0163761
897.737	0.0164000
897.815	0.0162614
897.893	0.0163281
897.971	0.0163847
898.049	0.0164448
898.128	0.0165013
898.206	0.0163715
898.284	0.0161877
898.362	0.0161659
898.440	0.0163314
898.518	0.0162180
898.596	0.0163485
898.674	0.0163866
898.753	0.0163511
898.831	0.0164455
898.909	0.0163764
898.987	0.0163800
899.065	0.0163583
899.143	0.0164606
899.221	0.0163461
899.299	0.0164257
899.378	0.0165056
899.456	0.0164102
899.534	0.0163453
899.612	0.0164050
899.690	0.0163302
899.768	0.0162562
899.846	0.0163304
899.924	0.0163567
900.003	0.0163588
900.081	0.0163563
900.159	0.0163276
900.237	0.0162006
900.315	0.0162738
900.393	0.0163385
900.471	0.0162992
900.549	0.0162321
900.628	0.0163138
900.706	0.0162846
900.784	0.0162839
900.862	0.0162827
900.940	0.0162680
901.018	0.0162092
901.096	0.0162994
901.174	0.0163308
901.253	0.0163538
901.331	0.0163848
901.409	0.0164957
901.487	0.0162722
901.565	0.0163042
901.643	0.0163702
901.721	0.0164944
901.799	0.0163953
901.878	0.0163229
901.956	0.0165284
902.034	0.0164029
902.112	0.0164287
902.190	0.0163671
902.268	0.0164609
902.346	0.0163636
902.424	0.0163699
902.503	0.0163868
902.581	0.0164752
902.659	0.0164063
902.737	0.0163395
902.815	0.0162800
902.893	0.0163435
902.971	0.0162958
903.049	0.0162827
903.128	0.0163357
903.206	0.0161905
903.284	0.0163457
903.362	0.0162739
903.440	0.0163331
903.518	0.0161877
903.596	0.0162971
903.674	0.0163985
903.753	0.0163286
903.831	0.0163627
903.909	0.0162772
903.987	0.0162109
904.065	0.0163455
904.143	0.0162320
904.221	0.0162395
904.299	0.0162775
904.378	0.0163000
904.456	0.0163697
904.534	0.0163341
904.612	0.0163532
904.690	0.0162099
904.768	0.0162774
904.846	0.0163242
904.924	0.0163252
905.003	0.0162692
905.081	0.0163850
905.159	0.0161835
905.237	0.0161765
905.315	0.0163395
905.393	0.0162712
905.471	0.0164205
905.549	0.0161863
905.628	0.0163017
905.706	0.0162802
905.784	0.0162683
905.862	0.0163024
905.940	0.0163367
906.018	0.0164644
906.096	0.0163048
906.174	0.0164185
906.253	0.0163679
906.331	0.0163760
906.409	0.0164684
906.487	0.0163876
906.565	0.0162290
906.643	0.0163172
906.721	0.0163065
906.799	0.0163758
906.878	0.0162604
906.956	0.0162134
907.034	0.0163383
907.112	0.0163695
907.190	0.0163858
907.268	0.0163105
907.346	0.0162783
907.424	0.0163473
907.503	0.0162670
907.581	0.0161965
907.659	0.0162802
907.737	0.0163317
907.815	0.0163889
907.893	0.0163397
907.971	0.0163545
908.049	0.0164673
908.128	0.0165494
908.206	0.0163197
908.284	0.0164889
908.362	0.0165111
908.440	0.0163334
908.518	0.0164629
908.596	0.0164044
908.674	0.0163780
908.753	0.0164240
908.831	0.0163819
908.909	0.0164741
908.987	0.0162962
909.065	0.0163755
909.143	0.0163476
909.221	0.0162373
909.299	0.0163137
909.378	0.0162878
909.456	0.0163341
909.534	0.0163950
909.612	0.0162020
909.690	0.0163023
909.768	0.0162187
909.846	0.0160925
909.924	0.0163132
910.003	0.0160986
910.081	0.0162983
910.159	0.0162591
910.237	0.0161519
910.315	0.0161951
910.393	0.0162762
910.471	0.0162923
910.549	0.0162421
910.628	0.0163528
910.706	0.0163567
910.784	0.0162882
910.862	0.0163455
910.940	0.0163281
911.018	0.0163161
911.096	0.0163070
911.174	0.0164359
911.253	0.0163764
911.331	0.0164093
911.409	0.0164958
911.487	0.0162141
911.565	0.0161821
911.643	0.0163971
911.721	0.0165341
911.799	0.0164364
911.878	0.0164411
911.956	0.0163618
912.034	0.0164291
912.112	0.0163240
912.190	0.0163413
912.268	0.0164369
912.346	0.0165722
912.424	0.0164938
912.503	0.0164740
912.581	0.0163829
912.659	0.0163637
912.737	0.0165090
912.815	0.0165634
912.893	0.0165022
912.971	0.0164202
913.049	0.0163050
913.128	0.0163089
913.206	0.0163647
913.284	0.0164696
913.362	0.0161885
913.440	0.0164677
913.518	0.0163269
913.596	0.0162881
913.674	0.0163870
913.753	0.0162392
913.831	0.0163987
913.909	0.0162407
913.987	0.0162228
914.065	0.0162447
914.143	0.0162275
914.221	0.0163842
914.299	0.0163655
914.378	0.0163457
914.456	0.0163509
914.534	0.0162756
914.612	0.0164203
914.690	0.0163262
914.768	0.0163105
914.846	0.0163599
914.924	0.0164942
915.003	0.0163525
915.081	0.0164527
915.159	0.0164887
915.237	0.0163294
915.315	0.0164181
915.393	0.0163036
915.471	0.0163151
915.549	0.0162792
915.628	0.0164317
915.706	0.0162115
915.784	0.0162496
915.862	0.0163480
915.940	0.0161342
916.018	0.0163152
916.096	0.0161252
916.174	0.0160460
916.253	0.0161510
916.331	0.0162105
916.409	0.0162527
916.487	0.0162749
916.565	0.0162539
916.643	0.0161436
916.721	0.0162567
916.799	0.0162913
916.878	0.0162186
916.956	0.0164375
917.034	0.0164050
917.112	0.0164611
917.190	0.0164630
917.268	0.0165237
917.346	0.0163739
917.424	0.0165456
917.503	0.0165006
917.581	0.0163834
917.659	0.0164955
917.737	0.0165168
917.815	0.0164944
917.893	0.0163694
917.971	0.0163651
918.049	0.0164873
918.128	0.0164407
918.206	0.0163805
918.284	0.0164034
918.362	0.0163734
918.440	0.0164503
918.518	0.0162926
918.596	0.0162753
918.674	0.0163841
918.753	0.0163266
918.831	0.0162804
918.909	0.0162232
918.987	0.0162528
919.065	0.0163230
919.143	0.0162971
919.221	0.0162348
919.299	0.0163464
919.378	0.0163660
919.456	0.0163137
919.534	0.0163590
919.612	0.0164487
919.690	0.0163519
919.768	0.0163660
919.846	0.0163325
919.924	0.0164790
920.003	0.0163735
920.081	0.0163852
920.159	0.0165452
920.237	0.0165353
920.315	0.0163703
920.393	0.0164552
920.471	0.0164977
920.549	0.0164297
920.628	0.0163646
920.706	0.0163678
920.784	0.0162385
920.862	0.0162802
920.940	0.0163605
921.018	0.0162932
921.096	0.0163049
921.174	0.0162624
921.253	0.0163356
921.331	0.0162600
921.409	0.0162846
921.487	0.0161770
921.565	0.0162334
921.643	0.0162020
921.721	0.0162347
921.799	0.0163185
921.878	0.0163952
921.956	0.0163785
922.034	0.0163036
922.112	0.0163595
922.190	0.0162611
922.268	0.0165157
922.346	0.0162970
922.424	0.0163396
922.503	0.0163889
922.581	0.0163832
922.659	0.0163898
922.737	0.0161924
922.815	0.0162671
922.893	0.0162328
922.971	0.0162597
923.049	0.0161591
923.128	0.0162540
923.206	0.0162754
923.284	0.0163192
923.362	0.0164204
923.440	0.0163916
923.518	0.0163328
923.596	0.0162488
923.674	0.0163861
923.753	0.0162898
923.831	0.0165013
923.909	0.0163559
923.987	0.0163984
924.065	0.0163650
924.143	0.0163627
924.221	0.0164523
924.299	0.0163931
924.378	0.0164132
924.456	0.0163448
924.534	0.0164811
924.612	0.0163288
924.690	0.0163213
924.768	0.0162624
924.846	0.0164056
924.924	0.0162312
925.003	0.0162704
925.081	0.0163934
925.159	0.0162381
925.237	0.0161995
925.315	0.0162046
925.393	0.0162884
925.471	0.0163624
925.549	0.0163097
925.628	0.0163550
925.706	0.0162469
925.784	0.0162147
925.862	0.0163019
925.940	0.0163022
926.018	0.0163235
926.096	0.0164423
926.174	0.0164423
926.253	0.0165180
926.331	0.0164086
926.409	0.0164806
926.487	0.0164296
926.565	0.0164056
926.643	0.0164251
926.721	0.0165221
926.799	0.0165351
926.878	0.0164545
926.956	0.0163751
927.034	0.0164627
927.112	0.0164918
927.190	0.0162489
927.268	0.0162912
927.346	0.0161893
927.424	0.0161944
927.503	0.0161715
927.581	0.0161200
927.659	0.0162700
927.737	0.0161275
927.815	0.0161658
927.893	0.0161683
927.971	0.0162821
928.049	0.0162263
928.128	0.0162879
928.206	0.0163599
928.284	0.0162553
928.362	0.0164890
928.440	0.0163618
928.518	0.0162676
928.596	0.0164281
928.674	0.0162759
928.753	0.0162508
928.831	0.0162754
928.909	0.0163525
928.987	0.0163174
929.065	0.0163043
929.143	0.0163039
929.221	0.0162946
929.299	0.0161214
929.378	0.0162649
929.456	0.0160931
929.534	0.0161513
929.612	0.0161256
929.690	0.0161981
929.768	0.0161842
929.846	0.0162210
929.924	0.0162595
930.003	0.0163100
930.081	0.0163608
930.159	0.0162667
930.237	0.0162731
930.315	0.0162201
930.393	0.0163260
930.471	0.0164561
930.549	0.0163533
930.628	0.0163716
930.706	0.0164884
930.784	0.0165548
930.862	0.0163484
930.940	0.0163895
931.018	0.0164438
931.096	0.0164482
931.174	0.0165200
931.253	0.0164947
931.331	0.0163462
931.409	0.0164145
931.487	0.0162077
931.565	0.0163609
931.643	0.0163107
931.721	0.0162090
931.799	0.0162372
931.878	0.0163454
931.956	0.0163448
932.034	0.0162380
932.112	0.0164143
932.190	0.0162918
932.268	0.0162193
932.346	0.0162272
932.424	0.0163760
932.503	0.0163873
932.581	0.0164445
932.659	0.0163213
932.737	0.0164481
932.815	0.0164119
932.893	0.0164420
932.971	0.0163441
933.049	0.0162383
933.128	0.0164896
933.206	0.0163291
933.284	0.0163329
933.362	0.0164425
933.440	0.0163661
933.518	0.0161717
933.596	0.0162302
933.674	0.0163531
933.753	0.0163965
933.831	0.0163995
933.909	0.0163012
933.987	0.0164036
934.065	0.0162499
934.143	0.0162482
934.221	0.0162605
934.299	0.0162228
934.378	0.0162117
934.456	0.0162553
934.534	0.0162843
934.612	0.0164371
934.690	0.0163338
934.768	0.0162093
934.846	0.0162885
934.924	0.0163884
935.003	0.0162513
935.081	0.0162752
935.159	0.0162856
935.237	0.0162520
935.315	0.0162527
935.393	0.0163441
935.471	0.0163879
935.549	0.0163766
935.628	0.0163786
935.706	0.0163709
935.784	0.0163727
935.862	0.0164112
935.940	0.0164088
936.018	0.0162135
936.096	0.0163070
936.174	0.0162687
936.253	0.0164122
936.331	0.0164404
936.409	0.0163004
936.487	0.0162582
936.565	0.0164870
936.643	0.0165045
936.721	0.0164607
936.799	0.0164039
936.878	0.0164043
936.956	0.0164635
937.034	0.0163300
937.112	0.0164285
937.190	0.0165991
937.268	0.0165125
937.346	0.0163770
937.424	0.0163698
937.503	0.0164374
937.581	0.0163557
937.659	0.0163396
937.737	0.0163684
937.815	0.0163338
937.893	0.0162276
937.971	0.0163640
938.049	0.0163622
938.128	0.0162752
938.206	0.0162637
938.284	0.0163329
938.362	0.0162911
938.440	0.0163886
938.518	0.0162018
938.596	0.0163957
938.674	0.0162856
938.753	0.0162514
938.831	0.0163488
938.909	0.0164174
938.987	0.0163590
939.065	0.0163194
939.143	0.0161314
939.221	0.0162460
939.299	0.0161905
939.378	0.0163258
939.456	0.0163156
939.534	0.0161604
939.612	0.0162492
939.690	0.0162845
939.768	0.0162408
939.846	0.0164143
939.924	0.0164949
940.003	0.0162502
940.081	0.0162724
940.159	0.0163377
940.237	0.0165220
940.315	0.0162361
940.393	0.0164639
940.471	0.0165356
940.549	0.0163863
940.628	0.0163912
940.706	0.0163362
940.784	0.0164146
940.862	0.0164577
940.940	0.0163406
941.018	0.0163726
941.096	0.0163573
941.174	0.0163013
941.253	0.0162430
941.331	0.0164331
941.409	0.0163464
941.487	0.0163137
941.565	0.0163049
941.643	0.0163359
941.721	0.0163638
941.799	0.0163448
941.878	0.0163121
941.956	0.0162189
942.034	0.0162640
942.112	0.0164973
942.190	0.0163807
942.268	0.0162489
942.346	0.0164115
942.424	0.0162637
942.503	0.0162985
942.581	0.0164433
942.659	0.0162748
942.737	0.0163897
942.815	0.0164406
942.893	0.0163219
942.971	0.0163230
943.049	0.0162225
943.128	0.0164455
943.206	0.0163636
943.284	0.0162262
943.362	0.0164486
943.440	0.0163335
943.518	0.0162424
943.596	0.0163723
943.674	0.0164079
943.753	0.0163802
943.831	0.0163831
943.909	0.0162669
943.987	0.0163850
944.065	0.0164190
944.143	0.0162570
944.221	0.0164676
944.299	0.0164140
944.378	0.0163805
944.456	0.0163115
944.534	0.0163653
944.612	0.0165543
944.690	0.0163802
944.768	0.0163074
944.846	0.0164172
944.924	0.0164722
945.003	0.0163432
945.081	0.0163282
945.159	0.0161656
945.237	0.0161546
945.315	0.0162942
945.393	0.0161713
945.471	0.0162892
945.549	0.0161886
945.628	0.0162562
945.706	0.0161880
945.784	0.0162099
945.862	0.0161287
945.940	0.0163052
946.018	0.0163195
946.096	0.0162678
946.174	0.0162290
946.253	0.0162738
946.331	0.0163905
946.409	0.0162345
946.487	0.0163174
946.565	0.0163575
946.643	0.0165247
946.721	0.0164165
946.799	0.0163125
946.878	0.0163279
946.956	0.0163369
947.034	0.0163492
947.112	0.0163030
947.190	0.0163983
947.268	0.0164949
947.346	0.0163046
947.424	0.0162468
947.503	0.0164793
947.581	0.0163526
947.659	0.0163114
947.737	0.0163693
947.815	0.0162575
947.893	0.0163153
947.971	0.0163950
948.049	0.0163297
948.128	0.0162736
948.206	0.0162784
948.284	0.0162594
948.362	0.0163955
948.440	0.0162466
948.518	0.0162750
948.596	0.0161911
948.674	0.0163598
948.753	0.0162247
948.831	0.0162283
948.909	0.0163462
948.987	0.0162447
949.065	0.0163851
949.143	0.0163155
949.221	0.0162387
949.299	0.0163113
949.378	0.0163407
949.456	0.0164567
949.534	0.0163129
949.612	0.0163328
949.690	0.0162396
949.768	0.0164685
949.846	0.0163716
949.924	0.0164751
