06/29/2022	22:42:44	Ver.	4.1	UNKNOWN
Optical Delay	630.002507	Delta X		0.078125	Sweeps	1	Scan Rate	0/0
Coordinates	Axis 1	NaN	Axis 2	NaN	Axis 3	NaN	Axis 4	NaN	Axis 5	NaN	Axis 6	0.000000
TX Power	0.000000	RX Power	0.000000

630.003	0.0163760
630.081	0.0163055
630.159	0.0164607
630.237	0.0163291
630.315	0.0163762
630.393	0.0163453
630.471	0.0164189
630.549	0.0164507
630.628	0.0163419
630.706	0.0164118
630.784	0.0164091
630.862	0.0163744
630.940	0.0164332
631.018	0.0164105
631.096	0.0163619
631.174	0.0165034
631.253	0.0163947
631.331	0.0164181
631.409	0.0163543
631.487	0.0163508
631.565	0.0165161
631.643	0.0164016
631.721	0.0163367
631.799	0.0162274
631.878	0.0163758
631.956	0.0164148
632.034	0.0163324
632.112	0.0163806
632.190	0.0163403
632.268	0.0163913
632.346	0.0163576
632.424	0.0162506
632.503	0.0163882
632.581	0.0163692
632.659	0.0164896
632.737	0.0163313
632.815	0.0163865
632.893	0.0162963
632.971	0.0164137
633.049	0.0163491
633.128	0.0163472
633.206	0.0163631
633.284	0.0161884
633.362	0.0163488
633.440	0.0163390
633.518	0.0163788
633.596	0.0164545
633.674	0.0163351
633.753	0.0164200
633.831	0.0164043
633.909	0.0164616
633.987	0.0165350
634.065	0.0164594
634.143	0.0162113
634.221	0.0163456
634.299	0.0164747
634.378	0.0163520
634.456	0.0163802
634.534	0.0163338
634.612	0.0162352
634.690	0.0163892
634.768	0.0164074
634.846	0.0164114
634.924	0.0163851
635.003	0.0163511
635.081	0.0163788
635.159	0.0164232
635.237	0.0163176
635.315	0.0162733
635.393	0.0163137
635.471	0.0164518
635.549	0.0163834
635.628	0.0162938
635.706	0.0165157
635.784	0.0164247
635.862	0.0163340
635.940	0.0163696
636.018	0.0164334
636.096	0.0163612
636.174	0.0163126
636.253	0.0163609
636.331	0.0163235
636.409	0.0163091
636.487	0.0163131
636.565	0.0164197
636.643	0.0162572
636.721	0.0163103
636.799	0.0163864
636.878	0.0163208
636.956	0.0164827
637.034	0.0164658
637.112	0.0164375
637.190	0.0163969
637.268	0.0164214
637.346	0.0164388
637.424	0.0165193
637.503	0.0164220
637.581	0.0163061
637.659	0.0164204
637.737	0.0164168
637.815	0.0162914
637.893	0.0164112
637.971	0.0165145
638.049	0.0164246
638.128	0.0162787
638.206	0.0163562
638.284	0.0162389
638.362	0.0164390
638.440	0.0165226
638.518	0.0163454
638.596	0.0163650
638.674	0.0164249
638.753	0.0163767
638.831	0.0162892
638.909	0.0163957
638.987	0.0165200
639.065	0.0162508
639.143	0.0163992
639.221	0.0162460
639.299	0.0163921
639.378	0.0164309
639.456	0.0163746
639.534	0.0164147
639.612	0.0163548
639.690	0.0164183
639.768	0.0165374
639.846	0.0163897
639.924	0.0163229
640.003	0.0163908
640.081	0.0163306
640.159	0.0163171
640.237	0.0163631
640.315	0.0163523
640.393	0.0164895
640.471	0.0163249
640.549	0.0163210
640.628	0.0163349
640.706	0.0163518
640.784	0.0163258
640.862	0.0164082
640.940	0.0163457
641.018	0.0163456
641.096	0.0163429
641.174	0.0164201
641.253	0.0163297
641.331	0.0164305
641.409	0.0163634
641.487	0.0164403
641.565	0.0163371
641.643	0.0163426
641.721	0.0163641
641.799	0.0164469
641.878	0.0162151
641.956	0.0163591
642.034	0.0164531
642.112	0.0164494
642.190	0.0163567
642.268	0.0164230
642.346	0.0163868
642.424	0.0162804
642.503	0.0164701
642.581	0.0165257
642.659	0.0162910
642.737	0.0162944
642.815	0.0164259
642.893	0.0164223
642.971	0.0164423
643.049	0.0162828
643.128	0.0164407
643.206	0.0164272
643.284	0.0164081
643.362	0.0165003
643.440	0.0162952
643.518	0.0163885
643.596	0.0164221
643.674	0.0164870
643.753	0.0163219
643.831	0.0163701
643.909	0.0164128
643.987	0.0164568
644.065	0.0163155
644.143	0.0162725
644.221	0.0163507
644.299	0.0164444
644.378	0.0163068
644.456	0.0163174
644.534	0.0163264
644.612	0.0164368
644.690	0.0163890
644.768	0.0164575
644.846	0.0162643
644.924	0.0164347
645.003	0.0165146
645.081	0.0163832
645.159	0.0164366
645.237	0.0163185
645.315	0.0163921
645.393	0.0164051
645.471	0.0163876
645.549	0.0164474
645.628	0.0163714
645.706	0.0163371
645.784	0.0164253
645.862	0.0163874
645.940	0.0163971
646.018	0.0163728
646.096	0.0165139
646.174	0.0162567
646.253	0.0162119
646.331	0.0164388
646.409	0.0163000
646.487	0.0164233
646.565	0.0164272
646.643	0.0163142
646.721	0.0165115
646.799	0.0164126
646.878	0.0163471
646.956	0.0164957
647.034	0.0162824
647.112	0.0165381
647.190	0.0164748
647.268	0.0163547
647.346	0.0163676
647.424	0.0163664
647.503	0.0164416
647.581	0.0164091
647.659	0.0163848
647.737	0.0164061
647.815	0.0163956
647.893	0.0163700
647.971	0.0163881
648.049	0.0162692
648.128	0.0162975
648.206	0.0164288
648.284	0.0165157
648.362	0.0164872
648.440	0.0162011
648.518	0.0163492
648.596	0.0164432
648.674	0.0163060
648.753	0.0163919
648.831	0.0164021
648.909	0.0164232
648.987	0.0164227
649.065	0.0164423
649.143	0.0164354
649.221	0.0162757
649.299	0.0164507
649.378	0.0163610
649.456	0.0163157
649.534	0.0163789
649.612	0.0165005
649.690	0.0164510
649.768	0.0163852
649.846	0.0163291
649.924	0.0163810
650.003	0.0163503
650.081	0.0163570
650.159	0.0163888
650.237	0.0163129
650.315	0.0163058
650.393	0.0164912
650.471	0.0163223
650.549	0.0163548
650.628	0.0164559
650.706	0.0163351
650.784	0.0164134
650.862	0.0163053
650.940	0.0163882
651.018	0.0164135
651.096	0.0165656
651.174	0.0165074
651.253	0.0161828
651.331	0.0164215
651.409	0.0163708
651.487	0.0162496
651.565	0.0165079
651.643	0.0163595
651.721	0.0162064
651.799	0.0164916
651.878	0.0162435
651.956	0.0164544
652.034	0.0164131
652.112	0.0163911
652.190	0.0163264
652.268	0.0163830
652.346	0.0163643
652.424	0.0163267
652.503	0.0163364
652.581	0.0162382
652.659	0.0163448
652.737	0.0164038
652.815	0.0164608
652.893	0.0163505
652.971	0.0162097
653.049	0.0164547
653.128	0.0163466
653.206	0.0164462
653.284	0.0164045
653.362	0.0163326
653.440	0.0165460
653.518	0.0163174
653.596	0.0163593
653.674	0.0163709
653.753	0.0162962
653.831	0.0165038
653.909	0.0163640
653.987	0.0164207
654.065	0.0164101
654.143	0.0164079
654.221	0.0164869
654.299	0.0163090
654.378	0.0164113
654.456	0.0164234
654.534	0.0163822
654.612	0.0163570
654.690	0.0164858
654.768	0.0164107
654.846	0.0163086
654.924	0.0165028
655.003	0.0164944
655.081	0.0163979
655.159	0.0165038
655.237	0.0164202
655.315	0.0164140
655.393	0.0164303
655.471	0.0164099
655.549	0.0164303
655.628	0.0163428
655.706	0.0163191
655.784	0.0163177
655.862	0.0164178
655.940	0.0165252
656.018	0.0163602
656.096	0.0161940
656.174	0.0162834
656.253	0.0165224
656.331	0.0163234
656.409	0.0163457
656.487	0.0163445
656.565	0.0162772
656.643	0.0163803
656.721	0.0162463
656.799	0.0162263
656.878	0.0163725
656.956	0.0163534
657.034	0.0164309
657.112	0.0164417
657.190	0.0163636
657.268	0.0164160
657.346	0.0164404
657.424	0.0164839
657.503	0.0162148
657.581	0.0162206
657.659	0.0163857
657.737	0.0165874
657.815	0.0163330
657.893	0.0163412
657.971	0.0163145
658.049	0.0163656
658.128	0.0164267
658.206	0.0165047
658.284	0.0163653
658.362	0.0163891
658.440	0.0163583
658.518	0.0163342
658.596	0.0163600
658.674	0.0163711
658.753	0.0164662
658.831	0.0163555
658.909	0.0162606
658.987	0.0163638
659.065	0.0163919
659.143	0.0164352
659.221	0.0163696
659.299	0.0163442
659.378	0.0163882
659.456	0.0163986
659.534	0.0163537
659.612	0.0164173
659.690	0.0164100
659.768	0.0162676
659.846	0.0163284
659.924	0.0165004
660.003	0.0164414
660.081	0.0163184
660.159	0.0165318
660.237	0.0163506
660.315	0.0163843
660.393	0.0164830
660.471	0.0163627
660.549	0.0163151
660.628	0.0163789
660.706	0.0165163
660.784	0.0164350
660.862	0.0163604
660.940	0.0163983
661.018	0.0163252
661.096	0.0163615
661.174	0.0163203
661.253	0.0162874
661.331	0.0163447
661.409	0.0163956
661.487	0.0163831
661.565	0.0162473
661.643	0.0163731
661.721	0.0163632
661.799	0.0163324
661.878	0.0163088
661.956	0.0162994
662.034	0.0163323
662.112	0.0162566
662.190	0.0163639
662.268	0.0165495
662.346	0.0163521
662.424	0.0163326
662.503	0.0164207
662.581	0.0163499
662.659	0.0163035
662.737	0.0163202
662.815	0.0165078
662.893	0.0165084
662.971	0.0163921
663.049	0.0162056
663.128	0.0163091
663.206	0.0163519
663.284	0.0163651
663.362	0.0163232
663.440	0.0163800
663.518	0.0165575
663.596	0.0164261
663.674	0.0164611
663.753	0.0163852
663.831	0.0164023
663.909	0.0163020
663.987	0.0163261
664.065	0.0163863
664.143	0.0163683
664.221	0.0163647
664.299	0.0164543
664.378	0.0164777
664.456	0.0163209
664.534	0.0163473
664.612	0.0163455
664.690	0.0163895
664.768	0.0163723
664.846	0.0162799
664.924	0.0162755
665.003	0.0163305
665.081	0.0163963
665.159	0.0164127
665.237	0.0164297
665.315	0.0163097
665.393	0.0163692
665.471	0.0164409
665.549	0.0164151
665.628	0.0164804
665.706	0.0163033
665.784	0.0162570
665.862	0.0164475
665.940	0.0163570
666.018	0.0163347
666.096	0.0164124
666.174	0.0163041
666.253	0.0163797
666.331	0.0163946
666.409	0.0163873
666.487	0.0164235
666.565	0.0163263
666.643	0.0163756
666.721	0.0164228
666.799	0.0165127
666.878	0.0163442
666.956	0.0164239
667.034	0.0164635
667.112	0.0163693
667.190	0.0163563
667.268	0.0164258
667.346	0.0162779
667.424	0.0163933
667.503	0.0163776
667.581	0.0163025
667.659	0.0164395
667.737	0.0163504
667.815	0.0163522
667.893	0.0163725
667.971	0.0163607
668.049	0.0165022
668.128	0.0163618
668.206	0.0163194
668.284	0.0162080
668.362	0.0164582
668.440	0.0164027
668.518	0.0163220
668.596	0.0163953
668.674	0.0163929
668.753	0.0163495
668.831	0.0163867
668.909	0.0163552
668.987	0.0162559
669.065	0.0163443
669.143	0.0163689
669.221	0.0163264
669.299	0.0163810
669.378	0.0164143
669.456	0.0164022
669.534	0.0164122
669.612	0.0165144
669.690	0.0163084
669.768	0.0164994
669.846	0.0163580
669.924	0.0164679
670.003	0.0164466
670.081	0.0164711
670.159	0.0163307
670.237	0.0163634
670.315	0.0163048
670.393	0.0165117
670.471	0.0163750
670.549	0.0164169
670.628	0.0163097
670.706	0.0164709
670.784	0.0162984
670.862	0.0163580
670.940	0.0163773
671.018	0.0163215
671.096	0.0165202
671.174	0.0164407
671.253	0.0163878
671.331	0.0162498
671.409	0.0163264
671.487	0.0164489
671.565	0.0163311
671.643	0.0164351
671.721	0.0163448
671.799	0.0163869
671.878	0.0164767
671.956	0.0164153
672.034	0.0162996
672.112	0.0162927
672.190	0.0164204
672.268	0.0162452
672.346	0.0164242
672.424	0.0164129
672.503	0.0163623
672.581	0.0163566
672.659	0.0164410
672.737	0.0164381
672.815	0.0162572
672.893	0.0163299
672.971	0.0164967
673.049	0.0164557
673.128	0.0163583
673.206	0.0163043
673.284	0.0163866
673.362	0.0163903
673.440	0.0163097
673.518	0.0163582
673.596	0.0165266
673.674	0.0163766
673.753	0.0163611
673.831	0.0164437
673.909	0.0163188
673.987	0.0162864
674.065	0.0164025
674.143	0.0163466
674.221	0.0162392
674.299	0.0164039
674.378	0.0163375
674.456	0.0164028
674.534	0.0163239
674.612	0.0163152
674.690	0.0163605
674.768	0.0163613
674.846	0.0162186
674.924	0.0163416
675.003	0.0164052
675.081	0.0163522
675.159	0.0163586
675.237	0.0163609
675.315	0.0163104
675.393	0.0163982
675.471	0.0164230
675.549	0.0163342
675.628	0.0161977
675.706	0.0164186
675.784	0.0164374
675.862	0.0163092
675.940	0.0163792
676.018	0.0162772
676.096	0.0162823
676.174	0.0163199
676.253	0.0162621
676.331	0.0162589
676.409	0.0163817
676.487	0.0164256
676.565	0.0163811
676.643	0.0163515
676.721	0.0163005
676.799	0.0163766
676.878	0.0162574
676.956	0.0164301
677.034	0.0163554
677.112	0.0164276
677.190	0.0163904
677.268	0.0164052
677.346	0.0163606
677.424	0.0163118
677.503	0.0164237
677.581	0.0163680
677.659	0.0163731
677.737	0.0164834
677.815	0.0163632
677.893	0.0163057
677.971	0.0164406
678.049	0.0164659
678.128	0.0163786
678.206	0.0162603
678.284	0.0164436
678.362	0.0164057
678.440	0.0162840
678.518	0.0164483
678.596	0.0162595
678.674	0.0164290
678.753	0.0163063
678.831	0.0163210
678.909	0.0164111
678.987	0.0164255
679.065	0.0163777
679.143	0.0163638
679.221	0.0163442
679.299	0.0163417
679.378	0.0163053
679.456	0.0163791
679.534	0.0164056
679.612	0.0163721
679.690	0.0163782
679.768	0.0163634
679.846	0.0162679
679.924	0.0163537
680.003	0.0163314
680.081	0.0164491
680.159	0.0163794
680.237	0.0163083
680.315	0.0163856
680.393	0.0162893
680.471	0.0165009
680.549	0.0164879
680.628	0.0164207
680.706	0.0164364
680.784	0.0162609
680.862	0.0163106
680.940	0.0163490
681.018	0.0164268
681.096	0.0164024
681.174	0.0163482
681.253	0.0163673
681.331	0.0164041
681.409	0.0162615
681.487	0.0164317
681.565	0.0163728
681.643	0.0164878
681.721	0.0164227
681.799	0.0164244
681.878	0.0164288
681.956	0.0163348
682.034	0.0163963
682.112	0.0163899
682.190	0.0162836
682.268	0.0164559
682.346	0.0164326
682.424	0.0163963
682.503	0.0163490
682.581	0.0164348
682.659	0.0164940
682.737	0.0165048
682.815	0.0163202
682.893	0.0162158
682.971	0.0163176
683.049	0.0163972
683.128	0.0164131
683.206	0.0164283
683.284	0.0163730
683.362	0.0163953
683.440	0.0164680
683.518	0.0164745
683.596	0.0162347
683.674	0.0163847
683.753	0.0164152
683.831	0.0163937
683.909	0.0163028
683.987	0.0163445
684.065	0.0165285
684.143	0.0163668
684.221	0.0163664
684.299	0.0162920
684.378	0.0163127
684.456	0.0164138
684.534	0.0163664
684.612	0.0163896
684.690	0.0163559
684.768	0.0163608
684.846	0.0164500
684.924	0.0164126
685.003	0.0162695
685.081	0.0163962
685.159	0.0165026
685.237	0.0164370
685.315	0.0163670
685.393	0.0164868
685.471	0.0164961
685.549	0.0163078
685.628	0.0165109
685.706	0.0163888
685.784	0.0164363
685.862	0.0164487
685.940	0.0164030
686.018	0.0162970
686.096	0.0163860
686.174	0.0165369
686.253	0.0162824
686.331	0.0164233
686.409	0.0163417
686.487	0.0163625
686.565	0.0164877
686.643	0.0164021
686.721	0.0163488
686.799	0.0165148
686.878	0.0162787
686.956	0.0163721
687.034	0.0163438
687.112	0.0164263
687.190	0.0163773
687.268	0.0162649
687.346	0.0163406
687.424	0.0162832
687.503	0.0163467
687.581	0.0164182
687.659	0.0163586
687.737	0.0164757
687.815	0.0164967
687.893	0.0164552
687.971	0.0163457
688.049	0.0163160
688.128	0.0162554
688.206	0.0163298
688.284	0.0165131
688.362	0.0163263
688.440	0.0162834
688.518	0.0165277
688.596	0.0162874
688.674	0.0163628
688.753	0.0163792
688.831	0.0163877
688.909	0.0164017
688.987	0.0163093
689.065	0.0163942
689.143	0.0164774
689.221	0.0163738
689.299	0.0164604
689.378	0.0163249
689.456	0.0164085
689.534	0.0163377
689.612	0.0162562
689.690	0.0163530
689.768	0.0162785
689.846	0.0163313
689.924	0.0163470
690.003	0.0163632
690.081	0.0163145
690.159	0.0163415
690.237	0.0164225
690.315	0.0164117
690.393	0.0164603
690.471	0.0163261
690.549	0.0163583
690.628	0.0164217
690.706	0.0165169
690.784	0.0163438
690.862	0.0162933
690.940	0.0163775
691.018	0.0163570
691.096	0.0163929
691.174	0.0164497
691.253	0.0163558
691.331	0.0163561
691.409	0.0162848
691.487	0.0163607
691.565	0.0163366
691.643	0.0163242
691.721	0.0164204
691.799	0.0164171
691.878	0.0163559
691.956	0.0164624
692.034	0.0162558
692.112	0.0164162
692.190	0.0164868
692.268	0.0163676
692.346	0.0163076
692.424	0.0163452
692.503	0.0162475
692.581	0.0163918
692.659	0.0163406
692.737	0.0162972
692.815	0.0164193
692.893	0.0164858
692.971	0.0163975
693.049	0.0163696
693.128	0.0164091
693.206	0.0163490
693.284	0.0163074
693.362	0.0163235
693.440	0.0162973
693.518	0.0164257
693.596	0.0163732
693.674	0.0163618
693.753	0.0163445
693.831	0.0164233
693.909	0.0162605
693.987	0.0165024
694.065	0.0163460
694.143	0.0164676
694.221	0.0164323
694.299	0.0164629
694.378	0.0162056
694.456	0.0163345
694.534	0.0163626
694.612	0.0163993
694.690	0.0164774
694.768	0.0163887
694.846	0.0164509
694.924	0.0164525
695.003	0.0163565
695.081	0.0164460
695.159	0.0165018
695.237	0.0164549
695.315	0.0163844
695.393	0.0165118
695.471	0.0164246
695.549	0.0163412
695.628	0.0162918
695.706	0.0162909
695.784	0.0163677
695.862	0.0164079
695.940	0.0163644
696.018	0.0162714
696.096	0.0163605
696.174	0.0163111
696.253	0.0162448
696.331	0.0163618
696.409	0.0163721
696.487	0.0163029
696.565	0.0162584
696.643	0.0163940
696.721	0.0162681
696.799	0.0164687
696.878	0.0162787
696.956	0.0163618
697.034	0.0165208
697.112	0.0162888
697.190	0.0163071
697.268	0.0163657
697.346	0.0163125
697.424	0.0163173
697.503	0.0162624
697.581	0.0165121
697.659	0.0163693
697.737	0.0162331
697.815	0.0162940
697.893	0.0163278
697.971	0.0164724
698.049	0.0162797
698.128	0.0163279
698.206	0.0162719
698.284	0.0162307
698.362	0.0161385
698.440	0.0162678
698.518	0.0164122
698.596	0.0163934
698.674	0.0163643
698.753	0.0163431
698.831	0.0162886
698.909	0.0163551
698.987	0.0164163
699.065	0.0163503
699.143	0.0163136
699.221	0.0163623
699.299	0.0163194
699.378	0.0162521
699.456	0.0163784
699.534	0.0162656
699.612	0.0161769
699.690	0.0163477
699.768	0.0163653
699.846	0.0162776
699.924	0.0163790
700.003	0.0163564
700.081	0.0162245
700.159	0.0162223
700.237	0.0163660
700.315	0.0164838
700.393	0.0162581
700.471	0.0164088
700.549	0.0164719
700.628	0.0163665
700.706	0.0163564
700.784	0.0165092
700.862	0.0163647
700.940	0.0164867
701.018	0.0164467
701.096	0.0163187
701.174	0.0163882
701.253	0.0162555
701.331	0.0164405
701.409	0.0164600
701.487	0.0162148
701.565	0.0163779
701.643	0.0163664
701.721	0.0164128
701.799	0.0163525
701.878	0.0162618
701.956	0.0163543
702.034	0.0164621
702.112	0.0163135
702.190	0.0162914
702.268	0.0164981
702.346	0.0164692
702.424	0.0163708
702.503	0.0163297
702.581	0.0162897
702.659	0.0163200
702.737	0.0162943
702.815	0.0163518
702.893	0.0163583
702.971	0.0162960
703.049	0.0163277
703.128	0.0163374
703.206	0.0163953
703.284	0.0164826
703.362	0.0163316
703.440	0.0163917
703.518	0.0163666
703.596	0.0164151
703.674	0.0164783
703.753	0.0163968
703.831	0.0163361
703.909	0.0164312
703.987	0.0163751
704.065	0.0163740
704.143	0.0164997
704.221	0.0164045
704.299	0.0164233
704.378	0.0164641
704.456	0.0164896
704.534	0.0164816
704.612	0.0161147
704.690	0.0163478
704.768	0.0165160
704.846	0.0164725
704.924	0.0164677
705.003	0.0163540
705.081	0.0164993
705.159	0.0164445
705.237	0.0164085
705.315	0.0163834
705.393	0.0163853
705.471	0.0164355
705.549	0.0163654
705.628	0.0163191
705.706	0.0165145
705.784	0.0163935
705.862	0.0162722
705.940	0.0164153
706.018	0.0163107
706.096	0.0164405
706.174	0.0164510
706.253	0.0164001
706.331	0.0164624
706.409	0.0164468
706.487	0.0163532
706.565	0.0162314
706.643	0.0164845
706.721	0.0163921
706.799	0.0164504
706.878	0.0163658
706.956	0.0164706
707.034	0.0163270
707.112	0.0162804
707.190	0.0164309
707.268	0.0163694
707.346	0.0163979
707.424	0.0164066
707.503	0.0163495
707.581	0.0163098
707.659	0.0164556
707.737	0.0164147
707.815	0.0162315
707.893	0.0163908
707.971	0.0165280
708.049	0.0162999
708.128	0.0163728
708.206	0.0163524
708.284	0.0162702
708.362	0.0163705
708.440	0.0163756
708.518	0.0163850
708.596	0.0164101
708.674	0.0161808
708.753	0.0163668
708.831	0.0163139
708.909	0.0164336
708.987	0.0163528
709.065	0.0162634
709.143	0.0162904
709.221	0.0163194
709.299	0.0162881
709.378	0.0162709
709.456	0.0162372
709.534	0.0163256
709.612	0.0162634
709.690	0.0163524
709.768	0.0162359
709.846	0.0163876
709.924	0.0164835
710.003	0.0164297
710.081	0.0163383
710.159	0.0163020
710.237	0.0162540
710.315	0.0163445
710.393	0.0163192
710.471	0.0163371
710.549	0.0162653
710.628	0.0163586
710.706	0.0162475
710.784	0.0163313
710.862	0.0164543
710.940	0.0163644
711.018	0.0163670
711.096	0.0163896
711.174	0.0163022
711.253	0.0163686
711.331	0.0165136
711.409	0.0163032
711.487	0.0163067
711.565	0.0162473
711.643	0.0163960
711.721	0.0164050
711.799	0.0163889
711.878	0.0164111
711.956	0.0164890
712.034	0.0163690
712.112	0.0162738
712.190	0.0164635
712.268	0.0164075
712.346	0.0163640
712.424	0.0163096
712.503	0.0164433
712.581	0.0162886
712.659	0.0164081
712.737	0.0163980
712.815	0.0163623
712.893	0.0164371
712.971	0.0163739
713.049	0.0164962
713.128	0.0164624
713.206	0.0164857
713.284	0.0164102
713.362	0.0164149
713.440	0.0165443
713.518	0.0164793
713.596	0.0164981
713.674	0.0164035
713.753	0.0164423
713.831	0.0165253
713.909	0.0163770
713.987	0.0164360
714.065	0.0164561
714.143	0.0163899
714.221	0.0163760
714.299	0.0163465
714.378	0.0164452
714.456	0.0163089
714.534	0.0164619
714.612	0.0163792
714.690	0.0163338
714.768	0.0163079
714.846	0.0163329
714.924	0.0163032
715.003	0.0162009
715.081	0.0163087
715.159	0.0163478
715.237	0.0163165
715.315	0.0162979
715.393	0.0164592
715.471	0.0162710
715.549	0.0162726
715.628	0.0162746
715.706	0.0163654
715.784	0.0163711
715.862	0.0163991
715.940	0.0164080
716.018	0.0165279
716.096	0.0164285
716.174	0.0162553
716.253	0.0164806
716.331	0.0165580
716.409	0.0164273
716.487	0.0163975
716.565	0.0164434
716.643	0.0165170
716.721	0.0165472
716.799	0.0166910
716.878	0.0165644
716.956	0.0165228
717.034	0.0165889
717.112	0.0165900
717.190	0.0166554
717.268	0.0164256
717.346	0.0165762
717.424	0.0164729
717.503	0.0164968
717.581	0.0165408
717.659	0.0164600
717.737	0.0164828
717.815	0.0163148
717.893	0.0163168
717.971	0.0161937
718.049	0.0161728
718.128	0.0162685
718.206	0.0161119
718.284	0.0160670
718.362	0.0160638
718.440	0.0161634
718.518	0.0161568
718.596	0.0162091
718.674	0.0160342
718.753	0.0161893
718.831	0.0162405
718.909	0.0163023
718.987	0.0163775
719.065	0.0164140
719.143	0.0164052
719.221	0.0164667
719.299	0.0164409
719.378	0.0165791
719.456	0.0164230
719.534	0.0163848
719.612	0.0163883
719.690	0.0163251
719.768	0.0161954
719.846	0.0163680
719.924	0.0162072
720.003	0.0162632
720.081	0.0162902
720.159	0.0164301
720.237	0.0163039
720.315	0.0163790
720.393	0.0162566
720.471	0.0162803
720.549	0.0162635
720.628	0.0163994
720.706	0.0162484
720.784	0.0164388
720.862	0.0165617
720.940	0.0165443
721.018	0.0166109
721.096	0.0168548
721.174	0.0166485
721.253	0.0167880
721.331	0.0167944
721.409	0.0167456
721.487	0.0166891
721.565	0.0165916
721.643	0.0165712
721.721	0.0164611
721.799	0.0164505
721.878	0.0164061
721.956	0.0161836
722.034	0.0163123
722.112	0.0158936
722.190	0.0159030
722.268	0.0160270
722.346	0.0157732
722.424	0.0159303
722.503	0.0159203
722.581	0.0159255
722.659	0.0158990
722.737	0.0158904
722.815	0.0159717
722.893	0.0160191
722.971	0.0161861
723.049	0.0162265
723.128	0.0165025
723.206	0.0165189
723.284	0.0166011
723.362	0.0169200
723.440	0.0166730
723.518	0.0168262
723.596	0.0170073
723.674	0.0168285
723.753	0.0168662
723.831	0.0170188
723.909	0.0169056
723.987	0.0168273
724.065	0.0167065
724.143	0.0166199
724.221	0.0165283
724.299	0.0165106
724.378	0.0163689
724.456	0.0163551
724.534	0.0160627
724.612	0.0162135
724.690	0.0161411
724.768	0.0160786
724.846	0.0159262
724.924	0.0159502
725.003	0.0158836
725.081	0.0159773
725.159	0.0157014
725.237	0.0160209
725.315	0.0161678
725.393	0.0161438
725.471	0.0162166
725.549	0.0163481
725.628	0.0164260
725.706	0.0165127
725.784	0.0167103
725.862	0.0166821
725.940	0.0166597
726.018	0.0167233
726.096	0.0168468
726.174	0.0166553
726.253	0.0167657
726.331	0.0167549
726.409	0.0167274
726.487	0.0166432
726.565	0.0163497
726.643	0.0163190
726.721	0.0165465
726.799	0.0164643
726.878	0.0163075
726.956	0.0161619
727.034	0.0160892
727.112	0.0163843
727.190	0.0163073
727.268	0.0164095
727.346	0.0163416
727.424	0.0165793
727.503	0.0164245
727.581	0.0164342
727.659	0.0165049
727.737	0.0163890
727.815	0.0163828
727.893	0.0163644
727.971	0.0163560
728.049	0.0164174
728.128	0.0162698
728.206	0.0163272
728.284	0.0162141
728.362	0.0160509
728.440	0.0159895
728.518	0.0159104
728.596	0.0159821
728.674	0.0160141
728.753	0.0160368
728.831	0.0160626
728.909	0.0161298
728.987	0.0161803
729.065	0.0162379
729.143	0.0162885
729.221	0.0164375
729.299	0.0165295
729.378	0.0166637
729.456	0.0165473
729.534	0.0165971
729.612	0.0165354
729.690	0.0165759
729.768	0.0166080
729.846	0.0165935
729.924	0.0163918
730.003	0.0162994
730.081	0.0163066
730.159	0.0164377
730.237	0.0163084
730.315	0.0161913
730.393	0.0161385
730.471	0.0163290
730.549	0.0161714
730.628	0.0162336
730.706	0.0162266
730.784	0.0164635
730.862	0.0164268
730.940	0.0165253
731.018	0.0166452
731.096	0.0166885
731.174	0.0167263
731.253	0.0167345
731.331	0.0168421
731.409	0.0168906
731.487	0.0166982
731.565	0.0166635
731.643	0.0165948
731.721	0.0164975
731.799	0.0164487
731.878	0.0163851
731.956	0.0162830
732.034	0.0162358
732.112	0.0161655
732.190	0.0160780
732.268	0.0161469
732.346	0.0161487
732.424	0.0161058
732.503	0.0161968
732.581	0.0161111
732.659	0.0161045
732.737	0.0161398
732.815	0.0162703
732.893	0.0161359
732.971	0.0163110
733.049	0.0163895
733.128	0.0164043
733.206	0.0164468
733.284	0.0163992
733.362	0.0163588
733.440	0.0164283
733.518	0.0164127
733.596	0.0163519
733.674	0.0164518
733.753	0.0162503
733.831	0.0163600
733.909	0.0162732
733.987	0.0162859
734.065	0.0162060
734.143	0.0161257
734.221	0.0160412
734.299	0.0161617
734.378	0.0160522
734.456	0.0160327
734.534	0.0161983
734.612	0.0161982
734.690	0.0161813
734.768	0.0161634
734.846	0.0162421
734.924	0.0163426
735.003	0.0164156
735.081	0.0163977
735.159	0.0165521
735.237	0.0165673
735.315	0.0166554
735.393	0.0167461
735.471	0.0168310
735.549	0.0166770
735.628	0.0167695
735.706	0.0167698
735.784	0.0165563
735.862	0.0164861
735.940	0.0164324
736.018	0.0164045
736.096	0.0163980
736.174	0.0161967
736.253	0.0162036
736.331	0.0162258
736.409	0.0161111
736.487	0.0160737
736.565	0.0162017
736.643	0.0161027
736.721	0.0160336
736.799	0.0160929
736.878	0.0162259
736.956	0.0163165
737.034	0.0163012
737.112	0.0162506
737.190	0.0162159
737.268	0.0162643
737.346	0.0164400
737.424	0.0164130
737.503	0.0164041
737.581	0.0163369
737.659	0.0164735
737.737	0.0164442
737.815	0.0163553
737.893	0.0164163
737.971	0.0162189
738.049	0.0161371
738.128	0.0162194
738.206	0.0162522
738.284	0.0161756
738.362	0.0161118
738.440	0.0163093
738.518	0.0162096
738.596	0.0163345
738.674	0.0163885
738.753	0.0162549
738.831	0.0163078
738.909	0.0163474
738.987	0.0163646
739.065	0.0163554
739.143	0.0163580
739.221	0.0165210
739.299	0.0165886
739.378	0.0166911
739.456	0.0165984
739.534	0.0166280
739.612	0.0166298
739.690	0.0165949
739.768	0.0164740
739.846	0.0166040
739.924	0.0166132
740.003	0.0166170
740.081	0.0165098
740.159	0.0164390
740.237	0.0165683
740.315	0.0165462
740.393	0.0164692
740.471	0.0164307
740.549	0.0164667
740.628	0.0164308
740.706	0.0162915
740.784	0.0161504
740.862	0.0163364
740.940	0.0163260
741.018	0.0162883
741.096	0.0163251
741.174	0.0161750
741.253	0.0161703
741.331	0.0163596
741.409	0.0162141
741.487	0.0164425
741.565	0.0162961
741.643	0.0163778
741.721	0.0164382
741.799	0.0163522
741.878	0.0165263
741.956	0.0165176
742.034	0.0164393
742.112	0.0164600
742.190	0.0165160
742.268	0.0164369
742.346	0.0163613
742.424	0.0163301
742.503	0.0162681
742.581	0.0161221
742.659	0.0162717
742.737	0.0162208
742.815	0.0163071
742.893	0.0162970
742.971	0.0161122
743.049	0.0162258
743.128	0.0164137
743.206	0.0163102
743.284	0.0164069
743.362	0.0165013
743.440	0.0164254
743.518	0.0165119
743.596	0.0164268
743.674	0.0163160
743.753	0.0165469
743.831	0.0165182
743.909	0.0164854
743.987	0.0162979
744.065	0.0164291
744.143	0.0163719
744.221	0.0161825
744.299	0.0163135
744.378	0.0162782
744.456	0.0162669
744.534	0.0162463
744.612	0.0162317
744.690	0.0161516
744.768	0.0161528
744.846	0.0161829
744.924	0.0163659
745.003	0.0163200
745.081	0.0162951
745.159	0.0163986
745.237	0.0164359
745.315	0.0164623
745.393	0.0164110
745.471	0.0164687
745.549	0.0164688
745.628	0.0164761
745.706	0.0164939
745.784	0.0166006
745.862	0.0164784
745.940	0.0164584
746.018	0.0164035
746.096	0.0163256
746.174	0.0163092
746.253	0.0162158
746.331	0.0164166
746.409	0.0162553
746.487	0.0162648
746.565	0.0161929
746.643	0.0162541
746.721	0.0163957
746.799	0.0163168
746.878	0.0162985
746.956	0.0162944
747.034	0.0163633
747.112	0.0165411
747.190	0.0164968
747.268	0.0165092
747.346	0.0165926
747.424	0.0165875
747.503	0.0165654
747.581	0.0165163
747.659	0.0164314
747.737	0.0163673
747.815	0.0163621
747.893	0.0164222
747.971	0.0161957
748.049	0.0161845
748.128	0.0161370
748.206	0.0161001
748.284	0.0161791
748.362	0.0161020
748.440	0.0160292
748.518	0.0161794
748.596	0.0162932
748.674	0.0163722
748.753	0.0164657
748.831	0.0164351
748.909	0.0162198
748.987	0.0164589
749.065	0.0166039
749.143	0.0164890
749.221	0.0165704
749.299	0.0166412
749.378	0.0165106
749.456	0.0164481
749.534	0.0164749
749.612	0.0164691
749.690	0.0164569
749.768	0.0163017
749.846	0.0163622
749.924	0.0162261
750.003	0.0162511
750.081	0.0163041
750.159	0.0161733
750.237	0.0162026
750.315	0.0162235
750.393	0.0161806
750.471	0.0162012
750.549	0.0162920
750.628	0.0163876
750.706	0.0163177
750.784	0.0163726
750.862	0.0163351
750.940	0.0163357
751.018	0.0164352
751.096	0.0163934
751.174	0.0164165
751.253	0.0163696
751.331	0.0164016
751.409	0.0163696
751.487	0.0163579
751.565	0.0162540
751.643	0.0161231
751.721	0.0162487
751.799	0.0163152
751.878	0.0163303
751.956	0.0164363
752.034	0.0163418
752.112	0.0164276
752.190	0.0164938
752.268	0.0164408
752.346	0.0164743
752.424	0.0163751
752.503	0.0164961
752.581	0.0165020
752.659	0.0165137
752.737	0.0164578
752.815	0.0164067
752.893	0.0164777
752.971	0.0164871
753.049	0.0164938
753.128	0.0164390
753.206	0.0164897
753.284	0.0163132
753.362	0.0163402
753.440	0.0163882
753.518	0.0162955
753.596	0.0163531
753.674	0.0164200
753.753	0.0161803
753.831	0.0162688
753.909	0.0162331
753.987	0.0163400
754.065	0.0162164
754.143	0.0163985
754.221	0.0162980
754.299	0.0162453
754.378	0.0163904
754.456	0.0164125
754.534	0.0164274
754.612	0.0164091
754.690	0.0165927
754.768	0.0164600
754.846	0.0165725
754.924	0.0166540
755.003	0.0165107
755.081	0.0163680
755.159	0.0164949
755.237	0.0165503
755.315	0.0165061
755.393	0.0162480
755.471	0.0163278
755.549	0.0162994
755.628	0.0163257
755.706	0.0163313
755.784	0.0164281
755.862	0.0163080
755.940	0.0162932
756.018	0.0163730
756.096	0.0163239
756.174	0.0163499
756.253	0.0163071
756.331	0.0164976
756.409	0.0163343
756.487	0.0163644
756.565	0.0164626
756.643	0.0164796
756.721	0.0164014
756.799	0.0164258
756.878	0.0164517
756.956	0.0164117
757.034	0.0164748
757.112	0.0164404
757.190	0.0163182
757.268	0.0165430
757.346	0.0164474
757.424	0.0165311
757.503	0.0163348
757.581	0.0162323
757.659	0.0163671
757.737	0.0165411
757.815	0.0163711
757.893	0.0163220
757.971	0.0165083
758.049	0.0163773
758.128	0.0162704
758.206	0.0165137
758.284	0.0164803
758.362	0.0162737
758.440	0.0163215
758.518	0.0164456
758.596	0.0162260
758.674	0.0164325
758.753	0.0164151
758.831	0.0163735
758.909	0.0163421
758.987	0.0163828
759.065	0.0163860
759.143	0.0163464
759.221	0.0163177
759.299	0.0163447
759.378	0.0163766
759.456	0.0162623
759.534	0.0162310
759.612	0.0162849
759.690	0.0161299
759.768	0.0161652
759.846	0.0161579
759.924	0.0162127
760.003	0.0162045
760.081	0.0161979
760.159	0.0163643
760.237	0.0162343
760.315	0.0163626
760.393	0.0164098
760.471	0.0163748
760.549	0.0163895
760.628	0.0165652
760.706	0.0164570
760.784	0.0165251
760.862	0.0164420
760.940	0.0164803
761.018	0.0165160
761.096	0.0165927
761.174	0.0165513
761.253	0.0163892
761.331	0.0163416
761.409	0.0162782
761.487	0.0164184
761.565	0.0163609
761.643	0.0162630
761.721	0.0161901
761.799	0.0162867
761.878	0.0161494
761.956	0.0162160
762.034	0.0163120
762.112	0.0162283
762.190	0.0161790
762.268	0.0161502
762.346	0.0162348
762.424	0.0164237
762.503	0.0164426
762.581	0.0164157
762.659	0.0163225
762.737	0.0162605
762.815	0.0164058
762.893	0.0163377
762.971	0.0164057
763.049	0.0164845
763.128	0.0164793
763.206	0.0165620
763.284	0.0164922
763.362	0.0163119
763.440	0.0164643
763.518	0.0163783
763.596	0.0165484
763.674	0.0164746
763.753	0.0163631
763.831	0.0163615
763.909	0.0165123
763.987	0.0164500
764.065	0.0163823
764.143	0.0164211
764.221	0.0165005
764.299	0.0163863
764.378	0.0164199
764.456	0.0164582
764.534	0.0165275
764.612	0.0163729
764.690	0.0164501
764.768	0.0163971
764.846	0.0164722
764.924	0.0164382
765.003	0.0162854
765.081	0.0163237
765.159	0.0161938
765.237	0.0162281
765.315	0.0161810
765.393	0.0162933
765.471	0.0161632
765.549	0.0162487
765.628	0.0163366
765.706	0.0163130
765.784	0.0163050
765.862	0.0162904
765.940	0.0162724
766.018	0.0163345
766.096	0.0163134
766.174	0.0164690
766.253	0.0165036
766.331	0.0165730
766.409	0.0165538
766.487	0.0165557
766.565	0.0165136
766.643	0.0165539
766.721	0.0163675
766.799	0.0164566
766.878	0.0164850
766.956	0.0164735
767.034	0.0163153
767.112	0.0162377
767.190	0.0162961
767.268	0.0163321
767.346	0.0162695
767.424	0.0162688
767.503	0.0162130
767.581	0.0162763
767.659	0.0163084
767.737	0.0164070
767.815	0.0164451
767.893	0.0164641
767.971	0.0164803
768.049	0.0165106
768.128	0.0165972
768.206	0.0164919
768.284	0.0164349
768.362	0.0165307
768.440	0.0165156
768.518	0.0164210
768.596	0.0164139
768.674	0.0164609
768.753	0.0162553
768.831	0.0163051
768.909	0.0162730
768.987	0.0162714
769.065	0.0163353
769.143	0.0162809
769.221	0.0160848
769.299	0.0162711
769.378	0.0161633
769.456	0.0162057
769.534	0.0163669
769.612	0.0162196
769.690	0.0163869
769.768	0.0162799
769.846	0.0163997
769.924	0.0163766
770.003	0.0163648
770.081	0.0165334
770.159	0.0165294
770.237	0.0163383
770.315	0.0162639
770.393	0.0163699
770.471	0.0164262
770.549	0.0164555
770.628	0.0163995
770.706	0.0162511
770.784	0.0162881
770.862	0.0163261
770.940	0.0163943
771.018	0.0165049
771.096	0.0163201
771.174	0.0163964
771.253	0.0164969
771.331	0.0163672
771.409	0.0164055
771.487	0.0165081
771.565	0.0163941
771.643	0.0164133
771.721	0.0164783
771.799	0.0166110
771.878	0.0166082
771.956	0.0163835
772.034	0.0165076
772.112	0.0165126
772.190	0.0165280
772.268	0.0163842
772.346	0.0163592
772.424	0.0164076
772.503	0.0163533
772.581	0.0163170
772.659	0.0164298
772.737	0.0164403
772.815	0.0163259
772.893	0.0162371
772.971	0.0163968
773.049	0.0163649
773.128	0.0162310
773.206	0.0161721
773.284	0.0163226
773.362	0.0161856
773.440	0.0164392
773.518	0.0163057
773.596	0.0162123
773.674	0.0163881
773.753	0.0163727
773.831	0.0163907
773.909	0.0162675
773.987	0.0163006
774.065	0.0161916
774.143	0.0163000
774.221	0.0163771
774.299	0.0163869
774.378	0.0163190
774.456	0.0162617
774.534	0.0162890
774.612	0.0163077
774.690	0.0163983
774.768	0.0163418
774.846	0.0162955
774.924	0.0163058
775.003	0.0164088
775.081	0.0165235
775.159	0.0164877
775.237	0.0163943
775.315	0.0164763
775.393	0.0165935
775.471	0.0165762
775.549	0.0163469
775.628	0.0164542
775.706	0.0165886
775.784	0.0164706
775.862	0.0164481
775.940	0.0165652
776.018	0.0163249
776.096	0.0163405
776.174	0.0164897
776.253	0.0163982
776.331	0.0163892
776.409	0.0163667
776.487	0.0162039
776.565	0.0163271
776.643	0.0162689
776.721	0.0163409
776.799	0.0163022
776.878	0.0163116
776.956	0.0163797
777.034	0.0163530
777.112	0.0162428
777.190	0.0162331
777.268	0.0163412
777.346	0.0163045
777.424	0.0162333
777.503	0.0163964
777.581	0.0163897
777.659	0.0162543
777.737	0.0161892
777.815	0.0163811
777.893	0.0164770
777.971	0.0164415
778.049	0.0163803
778.128	0.0164068
778.206	0.0162827
778.284	0.0164551
778.362	0.0163923
778.440	0.0162174
778.518	0.0162726
778.596	0.0164540
778.674	0.0163156
778.753	0.0162949
778.831	0.0163105
778.909	0.0163759
778.987	0.0162642
779.065	0.0164095
779.143	0.0164731
779.221	0.0164260
779.299	0.0164032
779.378	0.0163714
779.456	0.0163399
779.534	0.0163645
779.612	0.0163201
779.690	0.0164505
779.768	0.0164027
779.846	0.0164580
779.924	0.0164624
780.003	0.0163938
780.081	0.0164572
780.159	0.0166774
780.237	0.0164806
780.315	0.0165287
780.393	0.0166788
780.471	0.0166518
780.549	0.0166029
780.628	0.0165202
780.706	0.0164420
780.784	0.0164602
780.862	0.0163701
780.940	0.0163673
781.018	0.0162668
781.096	0.0163550
781.174	0.0162896
781.253	0.0161368
781.331	0.0162261
781.409	0.0161104
781.487	0.0161482
781.565	0.0162194
781.643	0.0161483
781.721	0.0161099
781.799	0.0163080
781.878	0.0161973
781.956	0.0162283
782.034	0.0161585
782.112	0.0161904
782.190	0.0162905
782.268	0.0162363
782.346	0.0163194
782.424	0.0163804
782.503	0.0163393
782.581	0.0164965
782.659	0.0163906
782.737	0.0164082
782.815	0.0164298
782.893	0.0164537
782.971	0.0163898
783.049	0.0163500
783.128	0.0164648
783.206	0.0164581
783.284	0.0163000
783.362	0.0163961
783.440	0.0163998
783.518	0.0163670
783.596	0.0164682
783.674	0.0163314
783.753	0.0163535
783.831	0.0163213
783.909	0.0164992
783.987	0.0163955
784.065	0.0162676
784.143	0.0164064
784.221	0.0163789
784.299	0.0163834
784.378	0.0163597
784.456	0.0165188
784.534	0.0164405
784.612	0.0164565
784.690	0.0165163
784.768	0.0165239
784.846	0.0164219
784.924	0.0164367
785.003	0.0165069
785.081	0.0165125
785.159	0.0163594
785.237	0.0162039
785.315	0.0163420
785.393	0.0163731
785.471	0.0163424
785.549	0.0163522
785.628	0.0163304
785.706	0.0163084
785.784	0.0162593
785.862	0.0163637
785.940	0.0163066
786.018	0.0162334
786.096	0.0163046
786.174	0.0162518
786.253	0.0165656
786.331	0.0163267
786.409	0.0163694
786.487	0.0164019
786.565	0.0164120
786.643	0.0162720
786.721	0.0163973
786.799	0.0162927
786.878	0.0163322
786.956	0.0164818
787.034	0.0163550
787.112	0.0164379
787.190	0.0163757
787.268	0.0164291
787.346	0.0163216
787.424	0.0162575
787.503	0.0162240
787.581	0.0163776
787.659	0.0164251
787.737	0.0164688
787.815	0.0164006
787.893	0.0164050
787.971	0.0164529
788.049	0.0165286
788.128	0.0163703
788.206	0.0164024
788.284	0.0162503
788.362	0.0163141
788.440	0.0162433
788.518	0.0163746
788.596	0.0164577
788.674	0.0163612
788.753	0.0163245
788.831	0.0164241
788.909	0.0165241
788.987	0.0163220
789.065	0.0162351
789.143	0.0163675
789.221	0.0164638
789.299	0.0164793
789.378	0.0164404
789.456	0.0163998
789.534	0.0164855
789.612	0.0164556
789.690	0.0163812
789.768	0.0163447
789.846	0.0163229
789.924	0.0164776
790.003	0.0165280
790.081	0.0164307
790.159	0.0162608
790.237	0.0163183
790.315	0.0163250
790.393	0.0163729
790.471	0.0164469
790.549	0.0162887
790.628	0.0162291
790.706	0.0163757
790.784	0.0163429
790.862	0.0164017
790.940	0.0162318
791.018	0.0163181
791.096	0.0163126
791.174	0.0163576
791.253	0.0162999
791.331	0.0163777
791.409	0.0163363
791.487	0.0164019
791.565	0.0164051
791.643	0.0163836
791.721	0.0164300
791.799	0.0164595
791.878	0.0164220
791.956	0.0164497
792.034	0.0162751
792.112	0.0164277
792.190	0.0164211
792.268	0.0164661
792.346	0.0164275
792.424	0.0165069
792.503	0.0164928
792.581	0.0165356
792.659	0.0165858
792.737	0.0165748
792.815	0.0164416
792.893	0.0164063
792.971	0.0163258
793.049	0.0165929
793.128	0.0162627
793.206	0.0163086
793.284	0.0164362
793.362	0.0163578
793.440	0.0163398
793.518	0.0163081
793.596	0.0163516
793.674	0.0164695
793.753	0.0163519
793.831	0.0163104
793.909	0.0163624
793.987	0.0164660
794.065	0.0164321
794.143	0.0162984
794.221	0.0164053
794.299	0.0162581
794.378	0.0163034
794.456	0.0163325
794.534	0.0162527
794.612	0.0164246
794.690	0.0163317
794.768	0.0163992
794.846	0.0164619
794.924	0.0163740
795.003	0.0164428
795.081	0.0163987
795.159	0.0162878
795.237	0.0163950
795.315	0.0163837
795.393	0.0164653
795.471	0.0163943
795.549	0.0163175
795.628	0.0162479
795.706	0.0164031
795.784	0.0163255
795.862	0.0164068
795.940	0.0164265
796.018	0.0162364
796.096	0.0163334
796.174	0.0164259
796.253	0.0162663
796.331	0.0163164
796.409	0.0163087
796.487	0.0163941
796.565	0.0162740
796.643	0.0163731
796.721	0.0163885
796.799	0.0163122
796.878	0.0162766
796.956	0.0163386
797.034	0.0163156
797.112	0.0162608
797.190	0.0162956
797.268	0.0163108
797.346	0.0164700
797.424	0.0164503
797.503	0.0162728
797.581	0.0163722
797.659	0.0163994
797.737	0.0163775
797.815	0.0165015
797.893	0.0163406
797.971	0.0165211
798.049	0.0164987
798.128	0.0165343
798.206	0.0164877
798.284	0.0164991
798.362	0.0164315
798.440	0.0164037
798.518	0.0164304
798.596	0.0163787
798.674	0.0162872
798.753	0.0163811
798.831	0.0163541
798.909	0.0164048
798.987	0.0164722
799.065	0.0162724
799.143	0.0162634
799.221	0.0162849
799.299	0.0163970
799.378	0.0162035
799.456	0.0161689
799.534	0.0163174
799.612	0.0163964
799.690	0.0163215
799.768	0.0163298
799.846	0.0162231
799.924	0.0162695
800.003	0.0163119
800.081	0.0163290
800.159	0.0163613
800.237	0.0162888
800.315	0.0162849
800.393	0.0163067
800.471	0.0164496
800.549	0.0163030
800.628	0.0162736
800.706	0.0164189
800.784	0.0163607
800.862	0.0164959
800.940	0.0163116
801.018	0.0163371
801.096	0.0163650
801.174	0.0164645
801.253	0.0163840
801.331	0.0164207
801.409	0.0165398
801.487	0.0164774
801.565	0.0163596
801.643	0.0164708
801.721	0.0163690
801.799	0.0164411
801.878	0.0164196
801.956	0.0163254
802.034	0.0163989
802.112	0.0166622
802.190	0.0164130
802.268	0.0163794
802.346	0.0163704
802.424	0.0164590
802.503	0.0164027
802.581	0.0163849
802.659	0.0163818
802.737	0.0163117
802.815	0.0163174
802.893	0.0164824
802.971	0.0164864
803.049	0.0163715
803.128	0.0163862
803.206	0.0163953
803.284	0.0164866
803.362	0.0165223
803.440	0.0163857
803.518	0.0163691
803.596	0.0163960
803.674	0.0162851
803.753	0.0163053
803.831	0.0164869
803.909	0.0163598
803.987	0.0164169
804.065	0.0163360
804.143	0.0164422
804.221	0.0163087
804.299	0.0163750
804.378	0.0164444
804.456	0.0162315
804.534	0.0162804
804.612	0.0162161
804.690	0.0162656
804.768	0.0163769
804.846	0.0163194
804.924	0.0163822
805.003	0.0162299
805.081	0.0162967
805.159	0.0163074
805.237	0.0163493
805.315	0.0164233
805.393	0.0163956
805.471	0.0163793
805.549	0.0162057
805.628	0.0163245
805.706	0.0162959
805.784	0.0162850
805.862	0.0163706
805.940	0.0164293
806.018	0.0163681
806.096	0.0164126
806.174	0.0163630
806.253	0.0163065
806.331	0.0164353
806.409	0.0164532
806.487	0.0163908
806.565	0.0164053
806.643	0.0163867
806.721	0.0164541
806.799	0.0163879
806.878	0.0163819
806.956	0.0163349
807.034	0.0162953
807.112	0.0165691
807.190	0.0164149
807.268	0.0165059
807.346	0.0164100
807.424	0.0165041
807.503	0.0164375
807.581	0.0163224
807.659	0.0164099
807.737	0.0163299
807.815	0.0163087
807.893	0.0164423
807.971	0.0164548
808.049	0.0163818
808.128	0.0164173
808.206	0.0163175
808.284	0.0163456
808.362	0.0164230
808.440	0.0163339
808.518	0.0162570
808.596	0.0163340
808.674	0.0164914
808.753	0.0165180
808.831	0.0163507
808.909	0.0164370
808.987	0.0164905
809.065	0.0163515
809.143	0.0163895
809.221	0.0163780
809.299	0.0165478
809.378	0.0164602
809.456	0.0164189
809.534	0.0164094
809.612	0.0164468
809.690	0.0162284
809.768	0.0164525
809.846	0.0165341
809.924	0.0163130
810.003	0.0164093
810.081	0.0164452
810.159	0.0162123
810.237	0.0162716
810.315	0.0162014
810.393	0.0161253
810.471	0.0161230
810.549	0.0162687
810.628	0.0161947
810.706	0.0163476
810.784	0.0161776
810.862	0.0162800
810.940	0.0161936
811.018	0.0162188
811.096	0.0162091
811.174	0.0162796
811.253	0.0162347
811.331	0.0163727
811.409	0.0163606
811.487	0.0164423
811.565	0.0164369
811.643	0.0164745
811.721	0.0164685
811.799	0.0164297
811.878	0.0163708
811.956	0.0164039
812.034	0.0165053
812.112	0.0164954
812.190	0.0164114
812.268	0.0165723
812.346	0.0164123
812.424	0.0163570
812.503	0.0164013
812.581	0.0164364
812.659	0.0163566
812.737	0.0163762
812.815	0.0164382
812.893	0.0163317
812.971	0.0163781
813.049	0.0163987
813.128	0.0164220
813.206	0.0163398
813.284	0.0165211
813.362	0.0164522
813.440	0.0164672
813.518	0.0164827
813.596	0.0163648
813.674	0.0163979
813.753	0.0165486
813.831	0.0165285
813.909	0.0163824
813.987	0.0164723
814.065	0.0164512
814.143	0.0164603
814.221	0.0164609
814.299	0.0164855
814.378	0.0164205
814.456	0.0163541
814.534	0.0164078
814.612	0.0163184
814.690	0.0161904
814.768	0.0163234
814.846	0.0164120
814.924	0.0164407
815.003	0.0162232
815.081	0.0162290
815.159	0.0162419
815.237	0.0163512
815.315	0.0163663
815.393	0.0162420
815.471	0.0164159
815.549	0.0163459
815.628	0.0164722
815.706	0.0163171
815.784	0.0164586
815.862	0.0164670
815.940	0.0163267
816.018	0.0164070
816.096	0.0162838
816.174	0.0163549
816.253	0.0164227
816.331	0.0164379
816.409	0.0163413
816.487	0.0163042
816.565	0.0163931
816.643	0.0163531
816.721	0.0163569
816.799	0.0164272
816.878	0.0163680
816.956	0.0163836
817.034	0.0162589
817.112	0.0163481
817.190	0.0163983
817.268	0.0163176
817.346	0.0165521
817.424	0.0164994
817.503	0.0165167
817.581	0.0163859
817.659	0.0163539
817.737	0.0164408
817.815	0.0164187
817.893	0.0165366
817.971	0.0164723
818.049	0.0163829
818.128	0.0164969
818.206	0.0165060
818.284	0.0164610
818.362	0.0165005
818.440	0.0164072
818.518	0.0165724
818.596	0.0164295
818.674	0.0163570
818.753	0.0164057
818.831	0.0163719
818.909	0.0163051
818.987	0.0163685
819.065	0.0163405
819.143	0.0162750
819.221	0.0163956
819.299	0.0164143
819.378	0.0163540
819.456	0.0163673
819.534	0.0163095
819.612	0.0163276
819.690	0.0164111
819.768	0.0163364
819.846	0.0163363
819.924	0.0164742
820.003	0.0163696
820.081	0.0164249
820.159	0.0162917
820.237	0.0162234
820.315	0.0164064
820.393	0.0162461
820.471	0.0163136
820.549	0.0163036
820.628	0.0164268
820.706	0.0165822
820.784	0.0163300
820.862	0.0163535
820.940	0.0163538
821.018	0.0164349
821.096	0.0163320
821.174	0.0163506
821.253	0.0164687
821.331	0.0162890
821.409	0.0164046
821.487	0.0163400
821.565	0.0162769
821.643	0.0162859
821.721	0.0161758
821.799	0.0163269
821.878	0.0162910
821.956	0.0163387
822.034	0.0161798
822.112	0.0161971
822.190	0.0163629
822.268	0.0163371
822.346	0.0162550
822.424	0.0163919
822.503	0.0162958
822.581	0.0163078
822.659	0.0164608
822.737	0.0164320
822.815	0.0163514
822.893	0.0164661
822.971	0.0163837
823.049	0.0163928
823.128	0.0164153
823.206	0.0163660
823.284	0.0163860
823.362	0.0164091
823.440	0.0165793
823.518	0.0163183
823.596	0.0163976
823.674	0.0163697
823.753	0.0163673
823.831	0.0164171
823.909	0.0163714
823.987	0.0164472
824.065	0.0163422
824.143	0.0163377
824.221	0.0163783
824.299	0.0162848
824.378	0.0163308
824.456	0.0163116
824.534	0.0163085
824.612	0.0162443
824.690	0.0162817
824.768	0.0162991
824.846	0.0162730
824.924	0.0163948
825.003	0.0164652
825.081	0.0162830
825.159	0.0162238
825.237	0.0163958
825.315	0.0163230
825.393	0.0163286
825.471	0.0164969
825.549	0.0165527
825.628	0.0165290
825.706	0.0166122
825.784	0.0164360
825.862	0.0163879
825.940	0.0164946
826.018	0.0164740
826.096	0.0164083
826.174	0.0162957
826.253	0.0163847
826.331	0.0164931
826.409	0.0164815
826.487	0.0163544
826.565	0.0163609
826.643	0.0162651
826.721	0.0162727
826.799	0.0163292
826.878	0.0162995
826.956	0.0163519
827.034	0.0163400
827.112	0.0162767
827.190	0.0163199
827.268	0.0163817
827.346	0.0163685
827.424	0.0163881
827.503	0.0162540
827.581	0.0162563
827.659	0.0163673
827.737	0.0164030
827.815	0.0162698
827.893	0.0164002
827.971	0.0164186
828.049	0.0162859
828.128	0.0164381
828.206	0.0163499
828.284	0.0162720
828.362	0.0163936
828.440	0.0163039
828.518	0.0163185
828.596	0.0164010
828.674	0.0164143
828.753	0.0164178
828.831	0.0163615
828.909	0.0163827
828.987	0.0164082
829.065	0.0164170
829.143	0.0164548
829.221	0.0165161
829.299	0.0165158
829.378	0.0165748
829.456	0.0164310
829.534	0.0163573
829.612	0.0164082
829.690	0.0163461
829.768	0.0163795
829.846	0.0164374
829.924	0.0164358
830.003	0.0163264
830.081	0.0163373
830.159	0.0162152
830.237	0.0161798
830.315	0.0161640
830.393	0.0163825
830.471	0.0164272
830.549	0.0163223
830.628	0.0163860
830.706	0.0162788
830.784	0.0162627
830.862	0.0163084
830.940	0.0164414
831.018	0.0163255
831.096	0.0163597
831.174	0.0163271
831.253	0.0163422
831.331	0.0164434
831.409	0.0164207
831.487	0.0163831
831.565	0.0163087
831.643	0.0163174
831.721	0.0164845
831.799	0.0166290
831.878	0.0164895
831.956	0.0163850
832.034	0.0164617
832.112	0.0164383
832.190	0.0165225
832.268	0.0165134
832.346	0.0164249
832.424	0.0166102
832.503	0.0164953
832.581	0.0165009
832.659	0.0164205
832.737	0.0165223
832.815	0.0164192
832.893	0.0164738
832.971	0.0163752
833.049	0.0162290
833.128	0.0163966
833.206	0.0163905
833.284	0.0163580
833.362	0.0163415
833.440	0.0162823
833.518	0.0162828
833.596	0.0163657
833.674	0.0164030
833.753	0.0163642
833.831	0.0161060
833.909	0.0164317
833.987	0.0165222
834.065	0.0163512
834.143	0.0163909
834.221	0.0164449
834.299	0.0163565
834.378	0.0162545
834.456	0.0163000
834.534	0.0164408
834.612	0.0163044
834.690	0.0163115
834.768	0.0162784
834.846	0.0163667
834.924	0.0162772
835.003	0.0162794
835.081	0.0163454
835.159	0.0164072
835.237	0.0163029
835.315	0.0163580
835.393	0.0162065
835.471	0.0163741
835.549	0.0163706
835.628	0.0163323
835.706	0.0163130
835.784	0.0163103
835.862	0.0164093
835.940	0.0164652
836.018	0.0163139
836.096	0.0163535
836.174	0.0164613
836.253	0.0163821
836.331	0.0164103
836.409	0.0165157
836.487	0.0162304
836.565	0.0165198
836.643	0.0165172
836.721	0.0163577
836.799	0.0164904
836.878	0.0165927
836.956	0.0165371
837.034	0.0165063
837.112	0.0165643
837.190	0.0165506
837.268	0.0164397
837.346	0.0165820
837.424	0.0164983
837.503	0.0165866
837.581	0.0166228
837.659	0.0164909
837.737	0.0164402
837.815	0.0164698
837.893	0.0164743
837.971	0.0164088
838.049	0.0164568
838.128	0.0163531
838.206	0.0162466
838.284	0.0163680
838.362	0.0162383
838.440	0.0163419
838.518	0.0161776
838.596	0.0162603
838.674	0.0162964
838.753	0.0161768
838.831	0.0161208
838.909	0.0161967
838.987	0.0162017
839.065	0.0161624
839.143	0.0162598
839.221	0.0162523
839.299	0.0161943
839.378	0.0162106
839.456	0.0162960
839.534	0.0160880
839.612	0.0162847
839.690	0.0162194
839.768	0.0162709
839.846	0.0163655
839.924	0.0163914
840.003	0.0163723
840.081	0.0164541
840.159	0.0164683
840.237	0.0165390
840.315	0.0165638
840.393	0.0164525
840.471	0.0164201
840.549	0.0163825
840.628	0.0164414
840.706	0.0164006
840.784	0.0164839
840.862	0.0164266
840.940	0.0163142
841.018	0.0163771
841.096	0.0164888
841.174	0.0163932
841.253	0.0165124
841.331	0.0165324
841.409	0.0165405
841.487	0.0164902
841.565	0.0164467
841.643	0.0164626
841.721	0.0164677
841.799	0.0164664
841.878	0.0165109
841.956	0.0164328
842.034	0.0164217
842.112	0.0163788
842.190	0.0164075
842.268	0.0164221
842.346	0.0164316
842.424	0.0163837
842.503	0.0163551
842.581	0.0162675
842.659	0.0162710
842.737	0.0162075
842.815	0.0160733
842.893	0.0162408
842.971	0.0162503
843.049	0.0160662
843.128	0.0161585
843.206	0.0162342
843.284	0.0161103
843.362	0.0160859
843.440	0.0161147
843.518	0.0161312
843.596	0.0162439
843.674	0.0161818
843.753	0.0162546
843.831	0.0162988
843.909	0.0163199
843.987	0.0162645
844.065	0.0163327
844.143	0.0163282
844.221	0.0163319
844.299	0.0164425
844.378	0.0165514
844.456	0.0165561
844.534	0.0165049
844.612	0.0165696
844.690	0.0165504
844.768	0.0165432
844.846	0.0165260
844.924	0.0166221
845.003	0.0165926
845.081	0.0165131
845.159	0.0166419
845.237	0.0164707
845.315	0.0165353
845.393	0.0165413
845.471	0.0164926
845.549	0.0164883
845.628	0.0164049
845.706	0.0164040
845.784	0.0164141
845.862	0.0163518
845.940	0.0163329
846.018	0.0163752
846.096	0.0163414
846.174	0.0163308
846.253	0.0162251
846.331	0.0161997
846.409	0.0163501
846.487	0.0163594
846.565	0.0162575
846.643	0.0161737
846.721	0.0161848
846.799	0.0160943
846.878	0.0161923
846.956	0.0162711
847.034	0.0162091
847.112	0.0163029
847.190	0.0162493
847.268	0.0162466
847.346	0.0161611
847.424	0.0162334
847.503	0.0162211
847.581	0.0162693
847.659	0.0163350
847.737	0.0162949
847.815	0.0162825
847.893	0.0163268
847.971	0.0163127
848.049	0.0165223
848.128	0.0164141
848.206	0.0165865
848.284	0.0164405
848.362	0.0165427
848.440	0.0164477
848.518	0.0166174
848.596	0.0164841
848.674	0.0166317
848.753	0.0165205
848.831	0.0166840
848.909	0.0166424
848.987	0.0165028
849.065	0.0166143
849.143	0.0165630
849.221	0.0165335
849.299	0.0164552
849.378	0.0165560
849.456	0.0164590
849.534	0.0165201
849.612	0.0165167
849.690	0.0164848
849.768	0.0165153
849.846	0.0163853
849.924	0.0162723
850.003	0.0163619
850.081	0.0163313
850.159	0.0163477
850.237	0.0162723
850.315	0.0162737
850.393	0.0163567
850.471	0.0163859
850.549	0.0161910
850.628	0.0162566
850.706	0.0161964
850.784	0.0163470
850.862	0.0163219
850.940	0.0163281
851.018	0.0162061
851.096	0.0161898
851.174	0.0163174
851.253	0.0162728
851.331	0.0163023
851.409	0.0161578
851.487	0.0163316
851.565	0.0163663
851.643	0.0163684
851.721	0.0162094
851.799	0.0161983
851.878	0.0163176
851.956	0.0162295
852.034	0.0163171
852.112	0.0163450
852.190	0.0162940
852.268	0.0163860
852.346	0.0164165
852.424	0.0162800
852.503	0.0162950
852.581	0.0165183
852.659	0.0164070
852.737	0.0165005
852.815	0.0163274
852.893	0.0164944
852.971	0.0164965
853.049	0.0163997
853.128	0.0164605
853.206	0.0164598
853.284	0.0164405
853.362	0.0166227
853.440	0.0165101
853.518	0.0164550
853.596	0.0164040
853.674	0.0163438
853.753	0.0163988
853.831	0.0164503
853.909	0.0164855
853.987	0.0164445
854.065	0.0164179
854.143	0.0164172
854.221	0.0165454
854.299	0.0164417
854.378	0.0163494
854.456	0.0164132
854.534	0.0164101
854.612	0.0164234
854.690	0.0163801
854.768	0.0164048
854.846	0.0164953
854.924	0.0163874
855.003	0.0163190
855.081	0.0164356
855.159	0.0163371
855.237	0.0163563
855.315	0.0163323
855.393	0.0162391
855.471	0.0162820
855.549	0.0162389
855.628	0.0162975
855.706	0.0162991
855.784	0.0163404
855.862	0.0162606
855.940	0.0163048
856.018	0.0162410
856.096	0.0162618
856.174	0.0162753
856.253	0.0163927
856.331	0.0163689
856.409	0.0163368
856.487	0.0163621
856.565	0.0163616
856.643	0.0164364
856.721	0.0164657
856.799	0.0162972
856.878	0.0163540
856.956	0.0163458
857.034	0.0163849
857.112	0.0164665
857.190	0.0164816
857.268	0.0164231
857.346	0.0164045
857.424	0.0164549
857.503	0.0163255
857.581	0.0162907
857.659	0.0165527
857.737	0.0165119
857.815	0.0163807
857.893	0.0164689
857.971	0.0164034
858.049	0.0164822
858.128	0.0164122
858.206	0.0163727
858.284	0.0163435
858.362	0.0164398
858.440	0.0163168
858.518	0.0162715
858.596	0.0163245
858.674	0.0163733
858.753	0.0163465
858.831	0.0163957
858.909	0.0164534
858.987	0.0162665
859.065	0.0162504
859.143	0.0163367
859.221	0.0163079
859.299	0.0162891
859.378	0.0164125
859.456	0.0164393
859.534	0.0163801
859.612	0.0163446
859.690	0.0163979
859.768	0.0163560
859.846	0.0164927
859.924	0.0164648
860.003	0.0165253
860.081	0.0163162
860.159	0.0163309
860.237	0.0163316
860.315	0.0163644
860.393	0.0163942
860.471	0.0163766
860.549	0.0163425
860.628	0.0162842
860.706	0.0163309
860.784	0.0163301
860.862	0.0163527
860.940	0.0162732
861.018	0.0162521
861.096	0.0162613
861.174	0.0162293
861.253	0.0163017
861.331	0.0163218
861.409	0.0162220
861.487	0.0163972
861.565	0.0163396
861.643	0.0163669
861.721	0.0164083
861.799	0.0163512
861.878	0.0163701
861.956	0.0164517
862.034	0.0165588
862.112	0.0165211
862.190	0.0165064
862.268	0.0164825
862.346	0.0166067
862.424	0.0166103
862.503	0.0166409
862.581	0.0164717
862.659	0.0165161
862.737	0.0164985
862.815	0.0164884
862.893	0.0164974
862.971	0.0165575
863.049	0.0165717
863.128	0.0165063
863.206	0.0164769
863.284	0.0164656
863.362	0.0163493
863.440	0.0163371
863.518	0.0162469
863.596	0.0164348
863.674	0.0164498
863.753	0.0164251
863.831	0.0164160
863.909	0.0163634
863.987	0.0162205
864.065	0.0162101
864.143	0.0162833
864.221	0.0163541
864.299	0.0161992
864.378	0.0161581
864.456	0.0162533
864.534	0.0162134
864.612	0.0161355
864.690	0.0163105
864.768	0.0163844
864.846	0.0162791
864.924	0.0162330
865.003	0.0163758
865.081	0.0162724
865.159	0.0162926
865.237	0.0164328
865.315	0.0162852
865.393	0.0163322
865.471	0.0163049
865.549	0.0163214
865.628	0.0164265
865.706	0.0165597
865.784	0.0163201
865.862	0.0163093
865.940	0.0163986
866.018	0.0165340
866.096	0.0165175
866.174	0.0165255
866.253	0.0165331
866.331	0.0165078
866.409	0.0164508
866.487	0.0164458
866.565	0.0165031
866.643	0.0165520
866.721	0.0164827
866.799	0.0164873
866.878	0.0163874
866.956	0.0164114
867.034	0.0164526
867.112	0.0164938
867.190	0.0163013
867.268	0.0161489
867.346	0.0164845
867.424	0.0163460
867.503	0.0164623
867.581	0.0163925
867.659	0.0163088
867.737	0.0163715
867.815	0.0164165
867.893	0.0164082
867.971	0.0163011
868.049	0.0163329
868.128	0.0164259
868.206	0.0164736
868.284	0.0163786
868.362	0.0163924
868.440	0.0163548
868.518	0.0163754
868.596	0.0163688
868.674	0.0163176
868.753	0.0163182
868.831	0.0163653
868.909	0.0161913
868.987	0.0163172
869.065	0.0164337
869.143	0.0162514
869.221	0.0162728
869.299	0.0162926
869.378	0.0162765
869.456	0.0162601
869.534	0.0161996
869.612	0.0163317
869.690	0.0162969
869.768	0.0163332
869.846	0.0162394
869.924	0.0162935
870.003	0.0162658
870.081	0.0162357
870.159	0.0163462
870.237	0.0162303
870.315	0.0163270
870.393	0.0164580
870.471	0.0162664
870.549	0.0163508
870.628	0.0164255
870.706	0.0164674
870.784	0.0163322
870.862	0.0164802
870.940	0.0165739
871.018	0.0163950
871.096	0.0165070
871.174	0.0163377
871.253	0.0163206
871.331	0.0164979
871.409	0.0165853
871.487	0.0164799
871.565	0.0164171
871.643	0.0165956
871.721	0.0164735
871.799	0.0165434
871.878	0.0165532
871.956	0.0165421
872.034	0.0164563
872.112	0.0164751
872.190	0.0165159
872.268	0.0165214
872.346	0.0165567
872.424	0.0164063
872.503	0.0165108
872.581	0.0164630
872.659	0.0165654
872.737	0.0164625
872.815	0.0164446
872.893	0.0164906
872.971	0.0162978
873.049	0.0163177
873.128	0.0164866
873.206	0.0163676
873.284	0.0165015
873.362	0.0164005
873.440	0.0163905
873.518	0.0163703
873.596	0.0163898
873.674	0.0164392
873.753	0.0164478
873.831	0.0164587
873.909	0.0164619
873.987	0.0164081
874.065	0.0163785
874.143	0.0163938
874.221	0.0162706
874.299	0.0163866
874.378	0.0162851
874.456	0.0162221
874.534	0.0163276
874.612	0.0162289
874.690	0.0161500
874.768	0.0161582
874.846	0.0163299
874.924	0.0162702
875.003	0.0162853
875.081	0.0162682
875.159	0.0161787
875.237	0.0162013
875.315	0.0163955
875.393	0.0162625
875.471	0.0163216
875.549	0.0162708
875.628	0.0162259
875.706	0.0162737
875.784	0.0162637
875.862	0.0163705
875.940	0.0162378
876.018	0.0163870
876.096	0.0164564
876.174	0.0163065
876.253	0.0164608
876.331	0.0163933
876.409	0.0164066
876.487	0.0165790
876.565	0.0164854
876.643	0.0164286
876.721	0.0164301
876.799	0.0164515
876.878	0.0164226
876.956	0.0164551
877.034	0.0165622
877.112	0.0165276
877.190	0.0164299
877.268	0.0163737
877.346	0.0165411
877.424	0.0164430
877.503	0.0164608
877.581	0.0165342
877.659	0.0164478
877.737	0.0163667
877.815	0.0165058
877.893	0.0166364
877.971	0.0165098
878.049	0.0163853
878.128	0.0164126
878.206	0.0164135
878.284	0.0164143
878.362	0.0164699
878.440	0.0163426
878.518	0.0165215
878.596	0.0164567
878.674	0.0164742
878.753	0.0164672
878.831	0.0164190
878.909	0.0162196
878.987	0.0163544
879.065	0.0162639
879.143	0.0163285
879.221	0.0163045
879.299	0.0164288
879.378	0.0163892
879.456	0.0161865
879.534	0.0163228
879.612	0.0162733
879.690	0.0161751
879.768	0.0163882
879.846	0.0163682
879.924	0.0163205
880.003	0.0162367
880.081	0.0162513
880.159	0.0163332
880.237	0.0163515
880.315	0.0163408
880.393	0.0162846
880.471	0.0163726
880.549	0.0163545
880.628	0.0163189
880.706	0.0162981
880.784	0.0163561
880.862	0.0163271
880.940	0.0162164
881.018	0.0162373
881.096	0.0162139
881.174	0.0162199
881.253	0.0163132
881.331	0.0163530
881.409	0.0162796
881.487	0.0163004
881.565	0.0164059
881.643	0.0162579
881.721	0.0163145
881.799	0.0164892
881.878	0.0164450
881.956	0.0164856
882.034	0.0164884
882.112	0.0164015
882.190	0.0164501
882.268	0.0165417
882.346	0.0166071
882.424	0.0165523
882.503	0.0163750
882.581	0.0165669
882.659	0.0165038
882.737	0.0164629
882.815	0.0165108
882.893	0.0165495
882.971	0.0165582
883.049	0.0165252
883.128	0.0163840
883.206	0.0164191
883.284	0.0165298
883.362	0.0165853
883.440	0.0163876
883.518	0.0164333
883.596	0.0164404
883.674	0.0164960
883.753	0.0164167
883.831	0.0163667
883.909	0.0163582
883.987	0.0165011
884.065	0.0164523
884.143	0.0163599
884.221	0.0163011
884.299	0.0164597
884.378	0.0164658
884.456	0.0163442
884.534	0.0162307
884.612	0.0163354
884.690	0.0163579
884.768	0.0163687
884.846	0.0163451
884.924	0.0163450
885.003	0.0162103
885.081	0.0162328
885.159	0.0162540
885.237	0.0161624
885.315	0.0163478
885.393	0.0163908
885.471	0.0162581
885.549	0.0161770
885.628	0.0163255
885.706	0.0163462
885.784	0.0163451
885.862	0.0163207
885.940	0.0163575
886.018	0.0164303
886.096	0.0162870
886.174	0.0164660
886.253	0.0163427
886.331	0.0163738
886.409	0.0164187
886.487	0.0164011
886.565	0.0163394
886.643	0.0163129
886.721	0.0162659
886.799	0.0163854
886.878	0.0163184
886.956	0.0164959
887.034	0.0163389
887.112	0.0163435
887.190	0.0164722
887.268	0.0164594
887.346	0.0163682
887.424	0.0163361
887.503	0.0163294
887.581	0.0164532
887.659	0.0164636
887.737	0.0162463
887.815	0.0162060
887.893	0.0164538
887.971	0.0165852
888.049	0.0164254
888.128	0.0162956
888.206	0.0163645
888.284	0.0163225
888.362	0.0163228
888.440	0.0164086
888.518	0.0163861
888.596	0.0162213
888.674	0.0163922
888.753	0.0162960
888.831	0.0162833
888.909	0.0164328
888.987	0.0163640
889.065	0.0162007
889.143	0.0162346
889.221	0.0164792
889.299	0.0164856
889.378	0.0163338
889.456	0.0163229
889.534	0.0164457
889.612	0.0164413
889.690	0.0164930
889.768	0.0164529
889.846	0.0165601
889.924	0.0164771
890.003	0.0164464
890.081	0.0164667
890.159	0.0166473
890.237	0.0164912
890.315	0.0163580
890.393	0.0164147
890.471	0.0163620
890.549	0.0163651
890.628	0.0164822
890.706	0.0164964
890.784	0.0164036
890.862	0.0162884
890.940	0.0162923
891.018	0.0162447
891.096	0.0163620
891.174	0.0163676
891.253	0.0162856
891.331	0.0161859
891.409	0.0163490
891.487	0.0163522
891.565	0.0162804
891.643	0.0163380
891.721	0.0162867
891.799	0.0163412
891.878	0.0163010
891.956	0.0161964
892.034	0.0163453
892.112	0.0164636
892.190	0.0164616
892.268	0.0162630
892.346	0.0163657
892.424	0.0162729
892.503	0.0164973
892.581	0.0164092
892.659	0.0162065
892.737	0.0163779
892.815	0.0163226
892.893	0.0164127
892.971	0.0163713
893.049	0.0163951
893.128	0.0164553
893.206	0.0164368
893.284	0.0163271
893.362	0.0163434
893.440	0.0163084
893.518	0.0163898
893.596	0.0164436
893.674	0.0165156
893.753	0.0164974
893.831	0.0165544
893.909	0.0163971
893.987	0.0165656
894.065	0.0164386
894.143	0.0164155
894.221	0.0162791
894.299	0.0164492
894.378	0.0165591
894.456	0.0163937
894.534	0.0163850
894.612	0.0162957
894.690	0.0163509
894.768	0.0164738
894.846	0.0163883
894.924	0.0164512
895.003	0.0163387
895.081	0.0162428
895.159	0.0161854
895.237	0.0161910
895.315	0.0161370
895.393	0.0163463
895.471	0.0162610
895.549	0.0162430
895.628	0.0162382
895.706	0.0165246
895.784	0.0163413
895.862	0.0162293
895.940	0.0165477
896.018	0.0164241
896.096	0.0163037
896.174	0.0164149
896.253	0.0162993
896.331	0.0164371
896.409	0.0163875
896.487	0.0163797
896.565	0.0163938
896.643	0.0165075
896.721	0.0165536
896.799	0.0164375
896.878	0.0163186
896.956	0.0165636
897.034	0.0166158
897.112	0.0163213
897.190	0.0163757
897.268	0.0164063
897.346	0.0163854
897.424	0.0163239
897.503	0.0165424
897.581	0.0163777
897.659	0.0163358
897.737	0.0164107
897.815	0.0162984
897.893	0.0163009
897.971	0.0163634
898.049	0.0162640
898.128	0.0163703
898.206	0.0162267
898.284	0.0163860
898.362	0.0163438
898.440	0.0162256
898.518	0.0161536
898.596	0.0163161
898.674	0.0162708
898.753	0.0162953
898.831	0.0162030
898.909	0.0163764
898.987	0.0163354
899.065	0.0163296
899.143	0.0162256
899.221	0.0162350
899.299	0.0163475
899.378	0.0164234
899.456	0.0162738
899.534	0.0163557
899.612	0.0163150
899.690	0.0163515
899.768	0.0164226
899.846	0.0164691
899.924	0.0163526
900.003	0.0163730
900.081	0.0162910
900.159	0.0164556
900.237	0.0165091
900.315	0.0164169
900.393	0.0164413
900.471	0.0165128
900.549	0.0164267
900.628	0.0164513
900.706	0.0164675
900.784	0.0164417
900.862	0.0165858
900.940	0.0163274
901.018	0.0164584
901.096	0.0163933
901.174	0.0164803
901.253	0.0164722
901.331	0.0164485
901.409	0.0164082
901.487	0.0163644
901.565	0.0164647
901.643	0.0163523
901.721	0.0164257
901.799	0.0164762
901.878	0.0163438
901.956	0.0163374
902.034	0.0165017
902.112	0.0163871
902.190	0.0164224
902.268	0.0165260
902.346	0.0162910
902.424	0.0164820
902.503	0.0164720
902.581	0.0164600
902.659	0.0164018
902.737	0.0162443
902.815	0.0164846
902.893	0.0164225
902.971	0.0163967
903.049	0.0164011
903.128	0.0163414
903.206	0.0162871
903.284	0.0162897
903.362	0.0163390
903.440	0.0163970
903.518	0.0162212
903.596	0.0163013
903.674	0.0162290
903.753	0.0162173
903.831	0.0163522
903.909	0.0161980
903.987	0.0162741
904.065	0.0163757
904.143	0.0163680
904.221	0.0163464
904.299	0.0162569
904.378	0.0163186
904.456	0.0163500
904.534	0.0163536
904.612	0.0162881
904.690	0.0163995
904.768	0.0164484
904.846	0.0163631
904.924	0.0163528
905.003	0.0163578
905.081	0.0163584
905.159	0.0163612
905.237	0.0164159
905.315	0.0163221
905.393	0.0164340
905.471	0.0165411
905.549	0.0164232
905.628	0.0162753
905.706	0.0164239
905.784	0.0164223
905.862	0.0162988
905.940	0.0162688
906.018	0.0162220
906.096	0.0163368
906.174	0.0163302
906.253	0.0164744
906.331	0.0164164
906.409	0.0164906
906.487	0.0164214
906.565	0.0164355
906.643	0.0165009
906.721	0.0165226
906.799	0.0163459
906.878	0.0164350
906.956	0.0163578
907.034	0.0164926
907.112	0.0165549
907.190	0.0162206
907.268	0.0163146
907.346	0.0164265
907.424	0.0163681
907.503	0.0163128
907.581	0.0165289
907.659	0.0163046
907.737	0.0163499
907.815	0.0162932
907.893	0.0163810
907.971	0.0165026
908.049	0.0164095
908.128	0.0163097
908.206	0.0164781
908.284	0.0165926
908.362	0.0165680
908.440	0.0165565
908.518	0.0163948
908.596	0.0162918
908.674	0.0163610
908.753	0.0164792
908.831	0.0164140
908.909	0.0163940
908.987	0.0163730
909.065	0.0165639
909.143	0.0164326
909.221	0.0164075
909.299	0.0163861
909.378	0.0164021
909.456	0.0163062
909.534	0.0163362
909.612	0.0163585
909.690	0.0164615
909.768	0.0163654
909.846	0.0162873
909.924	0.0162404
910.003	0.0163834
910.081	0.0164474
910.159	0.0163389
910.237	0.0164655
910.315	0.0164869
910.393	0.0164266
910.471	0.0164848
910.549	0.0163924
910.628	0.0164472
910.706	0.0164582
910.784	0.0163938
910.862	0.0164087
910.940	0.0162901
911.018	0.0163112
911.096	0.0165446
911.174	0.0164872
911.253	0.0163811
911.331	0.0163721
911.409	0.0164886
911.487	0.0163127
911.565	0.0164395
911.643	0.0163775
911.721	0.0163280
911.799	0.0162449
911.878	0.0164130
911.956	0.0163048
912.034	0.0164745
912.112	0.0163043
912.190	0.0162070
912.268	0.0163006
912.346	0.0164767
912.424	0.0164406
912.503	0.0163755
912.581	0.0163406
912.659	0.0163562
912.737	0.0164169
912.815	0.0163614
912.893	0.0164208
912.971	0.0164337
913.049	0.0163799
913.128	0.0163398
913.206	0.0162876
913.284	0.0163618
913.362	0.0163724
913.440	0.0162584
913.518	0.0162797
913.596	0.0163795
913.674	0.0163269
913.753	0.0163338
913.831	0.0162375
913.909	0.0163725
913.987	0.0162766
914.065	0.0164939
914.143	0.0163828
914.221	0.0163278
914.299	0.0165223
914.378	0.0166607
914.456	0.0164568
914.534	0.0163200
914.612	0.0164420
914.690	0.0165979
914.768	0.0165392
914.846	0.0163885
914.924	0.0164536
915.003	0.0165418
915.081	0.0165794
915.159	0.0165266
915.237	0.0164288
915.315	0.0164513
915.393	0.0164106
915.471	0.0163986
915.549	0.0164504
915.628	0.0162805
915.706	0.0162495
915.784	0.0164594
915.862	0.0163746
915.940	0.0163541
916.018	0.0162661
916.096	0.0162473
916.174	0.0164266
916.253	0.0164474
916.331	0.0163153
916.409	0.0163088
916.487	0.0162697
916.565	0.0162289
916.643	0.0164088
916.721	0.0162968
916.799	0.0162739
916.878	0.0162560
916.956	0.0164885
917.034	0.0163764
917.112	0.0162524
917.190	0.0162278
917.268	0.0163210
917.346	0.0164818
917.424	0.0163458
917.503	0.0163737
917.581	0.0165514
917.659	0.0164010
917.737	0.0163243
917.815	0.0163464
917.893	0.0163514
917.971	0.0165244
918.049	0.0164232
918.128	0.0164313
918.206	0.0162885
918.284	0.0164989
918.362	0.0165228
918.440	0.0165341
918.518	0.0164037
918.596	0.0164679
918.674	0.0163192
918.753	0.0163605
918.831	0.0162845
918.909	0.0162737
918.987	0.0163213
919.065	0.0163938
919.143	0.0165456
919.221	0.0164001
919.299	0.0164069
919.378	0.0164204
919.456	0.0164619
919.534	0.0163284
919.612	0.0164681
919.690	0.0165881
919.768	0.0163715
919.846	0.0164923
919.924	0.0164965
920.003	0.0163648
920.081	0.0164584
920.159	0.0165029
920.237	0.0164144
920.315	0.0164094
920.393	0.0163657
920.471	0.0162813
920.549	0.0162450
920.628	0.0163676
920.706	0.0163806
920.784	0.0163118
920.862	0.0162440
920.940	0.0164045
921.018	0.0164011
921.096	0.0163615
921.174	0.0163512
921.253	0.0164286
921.331	0.0164468
921.409	0.0164140
921.487	0.0164065
921.565	0.0164878
921.643	0.0164770
921.721	0.0165150
921.799	0.0162823
921.878	0.0162369
921.956	0.0165471
922.034	0.0163283
922.112	0.0164494
922.190	0.0164345
922.268	0.0164355
922.346	0.0164120
922.424	0.0164729
922.503	0.0163486
922.581	0.0163559
922.659	0.0164078
922.737	0.0163620
922.815	0.0163638
922.893	0.0164829
922.971	0.0163653
923.049	0.0165057
923.128	0.0163715
923.206	0.0163394
923.284	0.0164014
923.362	0.0164110
923.440	0.0164252
923.518	0.0164331
923.596	0.0163274
923.674	0.0163052
923.753	0.0163003
923.831	0.0162465
923.909	0.0162952
923.987	0.0163325
924.065	0.0163520
924.143	0.0163038
924.221	0.0162794
924.299	0.0162564
924.378	0.0163367
924.456	0.0163562
924.534	0.0163680
924.612	0.0163451
924.690	0.0163741
924.768	0.0163811
924.846	0.0165002
924.924	0.0164111
925.003	0.0163933
925.081	0.0163773
925.159	0.0163717
925.237	0.0164099
925.315	0.0163348
925.393	0.0163917
925.471	0.0164540
925.549	0.0164166
925.628	0.0163457
925.706	0.0164055
925.784	0.0164341
925.862	0.0164319
925.940	0.0163607
926.018	0.0163341
926.096	0.0164216
926.174	0.0164295
926.253	0.0165400
926.331	0.0164659
926.409	0.0165273
926.487	0.0162867
926.565	0.0163830
926.643	0.0164367
926.721	0.0162859
926.799	0.0164439
926.878	0.0167083
926.956	0.0164462
927.034	0.0163872
927.112	0.0164079
927.190	0.0163979
927.268	0.0164813
927.346	0.0163631
927.424	0.0164445
927.503	0.0163493
927.581	0.0163718
927.659	0.0164724
927.737	0.0163771
927.815	0.0163331
927.893	0.0163997
927.971	0.0162955
928.049	0.0162858
928.128	0.0164146
928.206	0.0163249
928.284	0.0163174
928.362	0.0163489
928.440	0.0163599
928.518	0.0163004
928.596	0.0163768
928.674	0.0162547
928.753	0.0165251
928.831	0.0163318
928.909	0.0163695
928.987	0.0163127
929.065	0.0165324
929.143	0.0165458
929.221	0.0165166
929.299	0.0163691
929.378	0.0164449
929.456	0.0164814
929.534	0.0163655
929.612	0.0163910
929.690	0.0165126
929.768	0.0164848
929.846	0.0164014
929.924	0.0163417
930.003	0.0163192
930.081	0.0164037
930.159	0.0162887
930.237	0.0162642
930.315	0.0163665
930.393	0.0164380
930.471	0.0162932
930.549	0.0164315
930.628	0.0163389
930.706	0.0162900
930.784	0.0163888
930.862	0.0164359
930.940	0.0164738
931.018	0.0165009
931.096	0.0165102
931.174	0.0164582
931.253	0.0165161
931.331	0.0164564
931.409	0.0164783
931.487	0.0164096
931.565	0.0164218
931.643	0.0163715
931.721	0.0163950
931.799	0.0164022
931.878	0.0164647
931.956	0.0164414
932.034	0.0162676
932.112	0.0163914
932.190	0.0164245
932.268	0.0164481
932.346	0.0164265
932.424	0.0164604
932.503	0.0164348
932.581	0.0163788
932.659	0.0163998
932.737	0.0164401
932.815	0.0163708
932.893	0.0164816
932.971	0.0164029
933.049	0.0164361
933.128	0.0164832
933.206	0.0164305
933.284	0.0163234
933.362	0.0164411
933.440	0.0165487
933.518	0.0164512
933.596	0.0164692
933.674	0.0164832
933.753	0.0164505
933.831	0.0165202
933.909	0.0164133
933.987	0.0164057
934.065	0.0164167
934.143	0.0164507
934.221	0.0164542
934.299	0.0164597
934.378	0.0164426
934.456	0.0164490
934.534	0.0163886
934.612	0.0163104
934.690	0.0164355
934.768	0.0164662
934.846	0.0164355
934.924	0.0163918
935.003	0.0163789
935.081	0.0163409
935.159	0.0164240
935.237	0.0164233
935.315	0.0164311
935.393	0.0164442
935.471	0.0162262
935.549	0.0163260
935.628	0.0164890
935.706	0.0163937
935.784	0.0163110
935.862	0.0162582
935.940	0.0163737
936.018	0.0164562
936.096	0.0164446
936.174	0.0164914
936.253	0.0164265
936.331	0.0163763
936.409	0.0164103
936.487	0.0164352
936.565	0.0162714
936.643	0.0164031
936.721	0.0163743
936.799	0.0165083
936.878	0.0164648
936.956	0.0163581
937.034	0.0164041
937.112	0.0164180
937.190	0.0164812
937.268	0.0163215
937.346	0.0164840
937.424	0.0165316
937.503	0.0162990
937.581	0.0163682
937.659	0.0164289
937.737	0.0163609
937.815	0.0162643
937.893	0.0165050
937.971	0.0163296
938.049	0.0163267
938.128	0.0164327
938.206	0.0162894
938.284	0.0162385
938.362	0.0164001
938.440	0.0163576
938.518	0.0163278
938.596	0.0164146
938.674	0.0163438
938.753	0.0163624
938.831	0.0163873
938.909	0.0164723
938.987	0.0164423
939.065	0.0164146
939.143	0.0163375
939.221	0.0164307
939.299	0.0163709
939.378	0.0163863
939.456	0.0163180
939.534	0.0162905
939.612	0.0162234
939.690	0.0162656
939.768	0.0162439
939.846	0.0163488
939.924	0.0162964
940.003	0.0164673
940.081	0.0163227
940.159	0.0161031
940.237	0.0164449
940.315	0.0162598
940.393	0.0162808
940.471	0.0163143
940.549	0.0162476
940.628	0.0163519
940.706	0.0163156
940.784	0.0162747
940.862	0.0163383
940.940	0.0164355
941.018	0.0163747
941.096	0.0163293
941.174	0.0164265
941.253	0.0163787
941.331	0.0163891
941.409	0.0164231
941.487	0.0164548
941.565	0.0165709
941.643	0.0163758
941.721	0.0163949
941.799	0.0162774
941.878	0.0163289
941.956	0.0163406
942.034	0.0162866
942.112	0.0163574
942.190	0.0163171
942.268	0.0164146
942.346	0.0163673
942.424	0.0163364
942.503	0.0163695
942.581	0.0163380
942.659	0.0162164
942.737	0.0164175
942.815	0.0163731
942.893	0.0162604
942.971	0.0163760
943.049	0.0163819
943.128	0.0163802
943.206	0.0163940
943.284	0.0163683
943.362	0.0164577
943.440	0.0163882
943.518	0.0162592
943.596	0.0163744
943.674	0.0164331
943.753	0.0162250
943.831	0.0163327
943.909	0.0162823
943.987	0.0163335
944.065	0.0163416
944.143	0.0162746
944.221	0.0164069
944.299	0.0162940
944.378	0.0163748
944.456	0.0163107
944.534	0.0163300
944.612	0.0162762
944.690	0.0163438
944.768	0.0163113
944.846	0.0163322
944.924	0.0164303
945.003	0.0164214
945.081	0.0163620
945.159	0.0164986
945.237	0.0163629
945.315	0.0163636
945.393	0.0165106
945.471	0.0164474
945.549	0.0164656
945.628	0.0164138
945.706	0.0163004
945.784	0.0165853
945.862	0.0165376
945.940	0.0164822
946.018	0.0163978
946.096	0.0163365
946.174	0.0164798
946.253	0.0165044
946.331	0.0164735
946.409	0.0164074
946.487	0.0162939
946.565	0.0163623
946.643	0.0163754
946.721	0.0163789
946.799	0.0163428
946.878	0.0164131
946.956	0.0163397
947.034	0.0163537
947.112	0.0164784
947.190	0.0162862
947.268	0.0163170
947.346	0.0161811
947.424	0.0161669
947.503	0.0164858
947.581	0.0163906
947.659	0.0163745
947.737	0.0164782
947.815	0.0163912
947.893	0.0162388
947.971	0.0163499
948.049	0.0164493
948.128	0.0164043
948.206	0.0163246
948.284	0.0163229
948.362	0.0164489
948.440	0.0163668
948.518	0.0164738
948.596	0.0163685
948.674	0.0163786
948.753	0.0163714
948.831	0.0162858
948.909	0.0162021
948.987	0.0164644
949.065	0.0164352
949.143	0.0162785
949.221	0.0163499
949.299	0.0163608
949.378	0.0164663
949.456	0.0163182
949.534	0.0163496
949.612	0.0162212
949.690	0.0164265
949.768	0.0164572
949.846	0.0164401
949.924	0.0164321
