06/29/2022	23:04:51	Ver.	4.1	UNKNOWN
Optical Delay	630.002507	Delta X		0.078125	Sweeps	1	Scan Rate	0/0
Coordinates	Axis 1	NaN	Axis 2	NaN	Axis 3	NaN	Axis 4	NaN	Axis 5	NaN	Axis 6	0.000000
TX Power	0.000000	RX Power	0.000000

630.003	0.0164353
630.081	0.0164462
630.159	0.0163895
630.237	0.0164137
630.315	0.0164439
630.393	0.0165120
630.471	0.0163374
630.549	0.0163218
630.628	0.0164731
630.706	0.0165970
630.784	0.0166109
630.862	0.0163455
630.940	0.0164683
631.018	0.0164860
631.096	0.0164168
631.174	0.0165837
631.253	0.0164147
631.331	0.0164982
631.409	0.0164051
631.487	0.0164172
631.565	0.0164639
631.643	0.0165203
631.721	0.0164999
631.799	0.0164830
631.878	0.0164990
631.956	0.0164300
632.034	0.0165124
632.112	0.0163976
632.190	0.0164681
632.268	0.0164748
632.346	0.0163982
632.424	0.0165011
632.503	0.0164649
632.581	0.0165033
632.659	0.0164010
632.737	0.0163350
632.815	0.0164249
632.893	0.0163590
632.971	0.0164750
633.049	0.0163757
633.128	0.0165293
633.206	0.0164578
633.284	0.0164069
633.362	0.0165586
633.440	0.0166013
633.518	0.0165009
633.596	0.0164911
633.674	0.0164087
633.753	0.0165218
633.831	0.0164307
633.909	0.0164960
633.987	0.0164603
634.065	0.0163998
634.143	0.0165160
634.221	0.0164563
634.299	0.0164248
634.378	0.0164030
634.456	0.0165191
634.534	0.0165762
634.612	0.0165102
634.690	0.0166312
634.768	0.0164432
634.846	0.0164433
634.924	0.0165672
635.003	0.0165037
635.081	0.0164033
635.159	0.0164386
635.237	0.0165357
635.315	0.0165691
635.393	0.0162878
635.471	0.0165729
635.549	0.0164822
635.628	0.0165395
635.706	0.0165000
635.784	0.0164378
635.862	0.0165054
635.940	0.0165022
636.018	0.0163445
636.096	0.0163638
636.174	0.0163657
636.253	0.0166021
636.331	0.0165359
636.409	0.0165162
636.487	0.0163782
636.565	0.0162968
636.643	0.0164530
636.721	0.0164014
636.799	0.0164735
636.878	0.0164829
636.956	0.0164300
637.034	0.0164738
637.112	0.0163629
637.190	0.0164304
637.268	0.0165016
637.346	0.0165124
637.424	0.0164370
637.503	0.0165293
637.581	0.0163496
637.659	0.0163506
637.737	0.0164776
637.815	0.0164196
637.893	0.0163169
637.971	0.0163759
638.049	0.0163750
638.128	0.0164417
638.206	0.0164082
638.284	0.0164532
638.362	0.0164124
638.440	0.0164252
638.518	0.0165279
638.596	0.0165393
638.674	0.0163699
638.753	0.0165459
638.831	0.0164874
638.909	0.0163651
638.987	0.0164459
639.065	0.0164347
639.143	0.0166020
639.221	0.0165121
639.299	0.0165203
639.378	0.0164144
639.456	0.0165395
639.534	0.0164924
639.612	0.0164066
639.690	0.0164130
639.768	0.0164720
639.846	0.0164005
639.924	0.0163730
640.003	0.0164666
640.081	0.0164462
640.159	0.0165338
640.237	0.0165514
640.315	0.0164629
640.393	0.0165016
640.471	0.0163403
640.549	0.0162666
640.628	0.0164594
640.706	0.0165893
640.784	0.0163994
640.862	0.0165533
640.940	0.0164974
641.018	0.0165973
641.096	0.0163974
641.174	0.0165026
641.253	0.0164455
641.331	0.0164035
641.409	0.0163890
641.487	0.0163247
641.565	0.0163623
641.643	0.0165627
641.721	0.0164502
641.799	0.0163625
641.878	0.0163506
641.956	0.0164720
642.034	0.0164633
642.112	0.0164207
642.190	0.0165339
642.268	0.0164364
642.346	0.0164122
642.424	0.0164804
642.503	0.0164754
642.581	0.0164995
642.659	0.0164490
642.737	0.0164742
642.815	0.0164651
642.893	0.0164352
642.971	0.0164744
643.049	0.0164484
643.128	0.0164324
643.206	0.0163993
643.284	0.0164346
643.362	0.0162890
643.440	0.0164337
643.518	0.0166512
643.596	0.0164007
643.674	0.0164131
643.753	0.0164278
643.831	0.0164466
643.909	0.0164279
643.987	0.0164774
644.065	0.0164161
644.143	0.0163868
644.221	0.0165060
644.299	0.0164196
644.378	0.0164861
644.456	0.0164767
644.534	0.0165250
644.612	0.0164838
644.690	0.0164440
644.768	0.0164384
644.846	0.0165121
644.924	0.0165001
645.003	0.0165285
645.081	0.0164645
645.159	0.0163860
645.237	0.0164560
645.315	0.0165644
645.393	0.0164297
645.471	0.0164851
645.549	0.0164588
645.628	0.0163246
645.706	0.0164952
645.784	0.0164684
645.862	0.0164965
645.940	0.0164767
646.018	0.0162818
646.096	0.0164497
646.174	0.0163237
646.253	0.0164036
646.331	0.0164777
646.409	0.0164165
646.487	0.0164044
646.565	0.0164793
646.643	0.0162399
646.721	0.0163602
646.799	0.0164693
646.878	0.0165788
646.956	0.0163587
647.034	0.0163622
647.112	0.0163908
647.190	0.0164243
647.268	0.0164000
647.346	0.0164793
647.424	0.0165736
647.503	0.0162896
647.581	0.0162342
647.659	0.0164346
647.737	0.0163497
647.815	0.0162616
647.893	0.0163474
647.971	0.0163583
648.049	0.0165279
648.128	0.0165126
648.206	0.0163970
648.284	0.0163472
648.362	0.0162257
648.440	0.0164063
648.518	0.0163513
648.596	0.0165691
648.674	0.0164799
648.753	0.0164342
648.831	0.0164813
648.909	0.0166224
648.987	0.0164647
649.065	0.0163130
649.143	0.0164514
649.221	0.0163333
649.299	0.0166327
649.378	0.0164215
649.456	0.0164349
649.534	0.0164793
649.612	0.0164245
649.690	0.0164909
649.768	0.0165144
649.846	0.0165018
649.924	0.0164790
650.003	0.0163503
650.081	0.0165012
650.159	0.0165291
650.237	0.0165144
650.315	0.0164799
650.393	0.0164176
650.471	0.0164224
650.549	0.0165289
650.628	0.0164278
650.706	0.0164497
650.784	0.0164472
650.862	0.0163947
650.940	0.0162819
651.018	0.0164819
651.096	0.0163515
651.174	0.0163538
651.253	0.0164270
651.331	0.0164133
651.409	0.0164066
651.487	0.0163612
651.565	0.0162357
651.643	0.0164082
651.721	0.0165288
651.799	0.0164458
651.878	0.0163211
651.956	0.0164429
652.034	0.0165920
652.112	0.0164630
652.190	0.0164001
652.268	0.0164307
652.346	0.0164957
652.424	0.0164401
652.503	0.0164268
652.581	0.0163561
652.659	0.0163608
652.737	0.0163805
652.815	0.0164646
652.893	0.0162649
652.971	0.0164034
653.049	0.0164809
653.128	0.0163925
653.206	0.0163958
653.284	0.0163652
653.362	0.0163241
653.440	0.0164972
653.518	0.0164685
653.596	0.0163483
653.674	0.0164780
653.753	0.0164261
653.831	0.0163890
653.909	0.0164696
653.987	0.0165507
654.065	0.0164463
654.143	0.0163901
654.221	0.0165105
654.299	0.0164509
654.378	0.0163137
654.456	0.0164303
654.534	0.0165153
654.612	0.0165200
654.690	0.0164177
654.768	0.0163562
654.846	0.0164484
654.924	0.0165218
655.003	0.0164210
655.081	0.0164646
655.159	0.0165776
655.237	0.0165321
655.315	0.0164614
655.393	0.0165627
655.471	0.0164021
655.549	0.0163398
655.628	0.0163145
655.706	0.0163695
655.784	0.0165282
655.862	0.0164183
655.940	0.0164989
656.018	0.0164035
656.096	0.0165412
656.174	0.0165639
656.253	0.0164462
656.331	0.0165253
656.409	0.0164039
656.487	0.0165099
656.565	0.0164709
656.643	0.0164485
656.721	0.0163060
656.799	0.0164037
656.878	0.0164539
656.956	0.0164648
657.034	0.0165022
657.112	0.0164197
657.190	0.0164927
657.268	0.0164307
657.346	0.0164967
657.424	0.0164114
657.503	0.0164827
657.581	0.0165501
657.659	0.0163393
657.737	0.0164017
657.815	0.0165277
657.893	0.0165205
657.971	0.0165257
658.049	0.0163667
658.128	0.0164187
658.206	0.0165558
658.284	0.0163943
658.362	0.0163095
658.440	0.0165184
658.518	0.0164948
658.596	0.0165807
658.674	0.0165858
658.753	0.0164653
658.831	0.0164911
658.909	0.0165562
658.987	0.0165343
659.065	0.0164483
659.143	0.0164657
659.221	0.0164962
659.299	0.0164391
659.378	0.0164555
659.456	0.0164535
659.534	0.0163774
659.612	0.0164227
659.690	0.0165032
659.768	0.0164629
659.846	0.0164265
659.924	0.0164342
660.003	0.0165019
660.081	0.0163831
660.159	0.0164776
660.237	0.0164481
660.315	0.0163287
660.393	0.0164643
660.471	0.0164033
660.549	0.0163433
660.628	0.0165385
660.706	0.0164719
660.784	0.0163793
660.862	0.0164116
660.940	0.0164119
661.018	0.0164073
661.096	0.0162600
661.174	0.0163960
661.253	0.0165110
661.331	0.0164236
661.409	0.0164195
661.487	0.0164200
661.565	0.0164146
661.643	0.0165301
661.721	0.0164910
661.799	0.0164150
661.878	0.0164122
661.956	0.0164854
662.034	0.0163563
662.112	0.0163023
662.190	0.0163697
662.268	0.0163639
662.346	0.0164153
662.424	0.0163979
662.503	0.0164716
662.581	0.0164767
662.659	0.0164242
662.737	0.0164008
662.815	0.0165499
662.893	0.0164418
662.971	0.0164094
663.049	0.0163326
663.128	0.0165076
663.206	0.0164188
663.284	0.0164897
663.362	0.0164660
663.440	0.0164092
663.518	0.0162960
663.596	0.0164038
663.674	0.0163977
663.753	0.0164027
663.831	0.0163924
663.909	0.0163554
663.987	0.0163751
664.065	0.0165411
664.143	0.0165348
664.221	0.0165215
664.299	0.0164410
664.378	0.0165530
664.456	0.0164245
664.534	0.0164230
664.612	0.0164520
664.690	0.0164532
664.768	0.0164800
664.846	0.0165831
664.924	0.0164562
665.003	0.0165079
665.081	0.0164680
665.159	0.0164117
665.237	0.0165043
665.315	0.0163686
665.393	0.0165475
665.471	0.0164224
665.549	0.0164621
665.628	0.0165775
665.706	0.0164999
665.784	0.0164779
665.862	0.0164646
665.940	0.0164677
666.018	0.0163741
666.096	0.0165341
666.174	0.0165694
666.253	0.0165311
666.331	0.0165488
666.409	0.0164569
666.487	0.0164799
666.565	0.0164195
666.643	0.0164316
666.721	0.0165108
666.799	0.0165939
666.878	0.0163882
666.956	0.0164980
667.034	0.0165472
667.112	0.0166846
667.190	0.0165649
667.268	0.0163464
667.346	0.0163293
667.424	0.0164664
667.503	0.0165899
667.581	0.0166122
667.659	0.0164335
667.737	0.0164983
667.815	0.0163979
667.893	0.0164667
667.971	0.0165022
668.049	0.0163889
668.128	0.0162849
668.206	0.0164438
668.284	0.0165412
668.362	0.0164439
668.440	0.0163724
668.518	0.0164757
668.596	0.0164697
668.674	0.0163809
668.753	0.0164547
668.831	0.0163299
668.909	0.0164756
668.987	0.0163251
669.065	0.0165284
669.143	0.0165479
669.221	0.0164924
669.299	0.0166508
669.378	0.0166930
669.456	0.0163763
669.534	0.0164582
669.612	0.0163969
669.690	0.0164918
669.768	0.0165047
669.846	0.0164121
669.924	0.0164091
670.003	0.0163788
670.081	0.0163415
670.159	0.0163499
670.237	0.0163705
670.315	0.0163294
670.393	0.0164714
670.471	0.0164272
670.549	0.0162740
670.628	0.0164944
670.706	0.0167039
670.784	0.0164449
670.862	0.0164791
670.940	0.0163175
671.018	0.0165297
671.096	0.0165527
671.174	0.0163948
671.253	0.0165617
671.331	0.0163905
671.409	0.0164716
671.487	0.0165149
671.565	0.0164785
671.643	0.0164044
671.721	0.0164281
671.799	0.0164870
671.878	0.0164805
671.956	0.0165818
672.034	0.0163508
672.112	0.0166088
672.190	0.0165697
672.268	0.0165096
672.346	0.0166264
672.424	0.0165236
672.503	0.0165269
672.581	0.0162660
672.659	0.0164055
672.737	0.0164520
672.815	0.0165178
672.893	0.0164512
672.971	0.0165710
673.049	0.0164445
673.128	0.0163829
673.206	0.0163892
673.284	0.0164417
673.362	0.0163830
673.440	0.0163731
673.518	0.0163754
673.596	0.0163779
673.674	0.0165035
673.753	0.0164763
673.831	0.0164182
673.909	0.0164754
673.987	0.0164465
674.065	0.0164653
674.143	0.0164692
674.221	0.0164928
674.299	0.0166982
674.378	0.0164854
674.456	0.0164773
674.534	0.0163725
674.612	0.0163659
674.690	0.0163943
674.768	0.0164339
674.846	0.0162841
674.924	0.0165134
675.003	0.0165493
675.081	0.0163141
675.159	0.0165002
675.237	0.0165574
675.315	0.0165012
675.393	0.0165230
675.471	0.0165422
675.549	0.0166863
675.628	0.0166656
675.706	0.0166517
675.784	0.0165537
675.862	0.0164520
675.940	0.0163943
676.018	0.0164185
676.096	0.0164278
676.174	0.0163741
676.253	0.0163423
676.331	0.0163081
676.409	0.0165127
676.487	0.0163014
676.565	0.0162991
676.643	0.0164775
676.721	0.0165003
676.799	0.0164508
676.878	0.0165057
676.956	0.0165916
677.034	0.0164455
677.112	0.0164685
677.190	0.0165062
677.268	0.0166566
677.346	0.0164793
677.424	0.0165276
677.503	0.0164758
677.581	0.0166421
677.659	0.0164642
677.737	0.0162608
677.815	0.0163853
677.893	0.0164158
677.971	0.0163919
678.049	0.0163572
678.128	0.0162975
678.206	0.0164272
678.284	0.0163752
678.362	0.0164275
678.440	0.0165013
678.518	0.0163986
678.596	0.0163401
678.674	0.0164380
678.753	0.0167628
678.831	0.0166535
678.909	0.0164731
678.987	0.0165888
679.065	0.0166776
679.143	0.0166972
679.221	0.0166046
679.299	0.0164996
679.378	0.0164229
679.456	0.0163777
679.534	0.0164377
679.612	0.0163033
679.690	0.0164838
679.768	0.0164689
679.846	0.0163797
679.924	0.0164496
680.003	0.0165845
680.081	0.0164103
680.159	0.0164989
680.237	0.0163977
680.315	0.0165012
680.393	0.0164856
680.471	0.0165008
680.549	0.0165410
680.628	0.0165142
680.706	0.0163205
680.784	0.0166016
680.862	0.0166084
680.940	0.0164971
681.018	0.0165485
681.096	0.0165254
681.174	0.0165865
681.253	0.0165836
681.331	0.0163512
681.409	0.0164514
681.487	0.0163601
681.565	0.0163913
681.643	0.0163705
681.721	0.0164742
681.799	0.0163200
681.878	0.0163059
681.956	0.0162955
682.034	0.0164759
682.112	0.0164013
682.190	0.0164368
682.268	0.0165073
682.346	0.0166085
682.424	0.0165452
682.503	0.0165553
682.581	0.0165846
682.659	0.0165404
682.737	0.0165968
682.815	0.0165921
682.893	0.0164758
682.971	0.0164837
683.049	0.0164178
683.128	0.0162008
683.206	0.0165039
683.284	0.0163751
683.362	0.0161458
683.440	0.0162159
683.518	0.0164376
683.596	0.0163142
683.674	0.0163615
683.753	0.0164306
683.831	0.0164829
683.909	0.0163306
683.987	0.0163940
684.065	0.0163553
684.143	0.0165365
684.221	0.0164273
684.299	0.0165678
684.378	0.0165491
684.456	0.0164920
684.534	0.0165531
684.612	0.0164771
684.690	0.0164919
684.768	0.0164933
684.846	0.0163019
684.924	0.0165597
685.003	0.0165350
685.081	0.0163957
685.159	0.0163412
685.237	0.0163494
685.315	0.0162248
685.393	0.0161945
685.471	0.0162704
685.549	0.0163156
685.628	0.0164087
685.706	0.0162293
685.784	0.0163957
685.862	0.0163700
685.940	0.0165194
686.018	0.0164460
686.096	0.0163542
686.174	0.0164907
686.253	0.0165601
686.331	0.0165328
686.409	0.0166241
686.487	0.0165408
686.565	0.0164150
686.643	0.0164703
686.721	0.0165412
686.799	0.0163966
686.878	0.0164758
686.956	0.0165311
687.034	0.0162447
687.112	0.0163175
687.190	0.0163120
687.268	0.0162933
687.346	0.0163141
687.424	0.0162186
687.503	0.0162660
687.581	0.0162487
687.659	0.0164093
687.737	0.0163463
687.815	0.0163561
687.893	0.0165288
687.971	0.0165388
688.049	0.0167084
688.128	0.0166452
688.206	0.0165557
688.284	0.0166318
688.362	0.0165530
688.440	0.0165858
688.518	0.0165256
688.596	0.0165148
688.674	0.0163889
688.753	0.0165484
688.831	0.0163213
688.909	0.0162553
688.987	0.0161724
689.065	0.0163147
689.143	0.0162281
689.221	0.0162674
689.299	0.0163682
689.378	0.0163983
689.456	0.0165292
689.534	0.0163663
689.612	0.0163789
689.690	0.0164881
689.768	0.0165704
689.846	0.0166583
689.924	0.0165528
690.003	0.0166531
690.081	0.0165751
690.159	0.0164667
690.237	0.0162968
690.315	0.0163523
690.393	0.0163898
690.471	0.0164102
690.549	0.0164044
690.628	0.0162968
690.706	0.0161442
690.784	0.0163777
690.862	0.0164016
690.940	0.0164648
691.018	0.0164230
691.096	0.0165078
691.174	0.0165834
691.253	0.0165887
691.331	0.0166114
691.409	0.0165179
691.487	0.0165632
691.565	0.0163782
691.643	0.0164530
691.721	0.0164599
691.799	0.0163871
691.878	0.0164465
691.956	0.0163316
692.034	0.0163361
692.112	0.0163883
692.190	0.0164553
692.268	0.0163162
692.346	0.0163438
692.424	0.0164109
692.503	0.0164748
692.581	0.0163778
692.659	0.0164057
692.737	0.0165192
692.815	0.0164481
692.893	0.0165310
692.971	0.0165459
693.049	0.0164520
693.128	0.0165129
693.206	0.0165776
693.284	0.0166933
693.362	0.0165031
693.440	0.0165035
693.518	0.0163714
693.596	0.0164397
693.674	0.0162839
693.753	0.0163723
693.831	0.0162473
693.909	0.0163310
693.987	0.0164630
694.065	0.0163640
694.143	0.0164015
694.221	0.0164779
694.299	0.0165888
694.378	0.0164321
694.456	0.0164326
694.534	0.0166010
694.612	0.0165432
694.690	0.0165175
694.768	0.0165760
694.846	0.0166214
694.924	0.0165363
695.003	0.0167107
695.081	0.0167057
695.159	0.0165610
695.237	0.0166173
695.315	0.0165812
695.393	0.0165496
695.471	0.0163175
695.549	0.0164761
695.628	0.0164295
695.706	0.0163442
695.784	0.0164180
695.862	0.0163737
695.940	0.0162415
696.018	0.0162865
696.096	0.0163422
696.174	0.0164112
696.253	0.0163470
696.331	0.0164004
696.409	0.0164742
696.487	0.0165200
696.565	0.0165128
696.643	0.0167262
696.721	0.0166740
696.799	0.0165984
696.878	0.0166995
696.956	0.0165601
697.034	0.0165020
697.112	0.0165509
697.190	0.0164594
697.268	0.0163780
697.346	0.0163640
697.424	0.0163341
697.503	0.0161947
697.581	0.0161716
697.659	0.0162629
697.737	0.0161778
697.815	0.0161805
697.893	0.0164548
697.971	0.0163553
698.049	0.0162522
698.128	0.0162904
698.206	0.0163964
698.284	0.0163646
698.362	0.0165413
698.440	0.0166058
698.518	0.0165142
698.596	0.0165823
698.674	0.0166687
698.753	0.0165583
698.831	0.0166315
698.909	0.0165300
698.987	0.0165525
699.065	0.0165506
699.143	0.0164778
699.221	0.0164001
699.299	0.0164785
699.378	0.0163184
699.456	0.0162975
699.534	0.0162289
699.612	0.0164182
699.690	0.0163274
699.768	0.0162605
699.846	0.0162881
699.924	0.0163928
700.003	0.0162274
700.081	0.0164063
700.159	0.0164206
700.237	0.0164354
700.315	0.0165993
700.393	0.0165053
700.471	0.0165461
700.549	0.0164691
700.628	0.0164748
700.706	0.0163885
700.784	0.0165059
700.862	0.0165200
700.940	0.0164822
701.018	0.0165289
701.096	0.0164896
701.174	0.0162552
701.253	0.0162772
701.331	0.0164658
701.409	0.0163750
701.487	0.0165218
701.565	0.0164535
701.643	0.0164841
701.721	0.0165123
701.799	0.0165601
701.878	0.0165737
701.956	0.0166424
702.034	0.0166454
702.112	0.0165346
702.190	0.0166193
702.268	0.0166434
702.346	0.0166249
702.424	0.0164771
702.503	0.0164017
702.581	0.0165282
702.659	0.0164288
702.737	0.0164569
702.815	0.0164194
702.893	0.0163958
702.971	0.0164141
703.049	0.0163866
703.128	0.0163062
703.206	0.0162970
703.284	0.0163904
703.362	0.0163235
703.440	0.0163212
703.518	0.0163314
703.596	0.0162488
703.674	0.0163374
703.753	0.0164184
703.831	0.0164156
703.909	0.0163322
703.987	0.0163695
704.065	0.0163808
704.143	0.0165108
704.221	0.0166183
704.299	0.0163625
704.378	0.0165182
704.456	0.0164874
704.534	0.0164924
704.612	0.0164080
704.690	0.0164668
704.768	0.0164301
704.846	0.0164767
704.924	0.0165214
705.003	0.0165902
705.081	0.0164999
705.159	0.0165258
705.237	0.0165550
705.315	0.0164922
705.393	0.0165422
705.471	0.0166528
705.549	0.0165168
705.628	0.0163703
705.706	0.0164269
705.784	0.0163419
705.862	0.0164201
705.940	0.0162127
706.018	0.0163215
706.096	0.0162945
706.174	0.0161839
706.253	0.0161960
706.331	0.0161918
706.409	0.0163313
706.487	0.0163687
706.565	0.0162389
706.643	0.0161747
706.721	0.0163036
706.799	0.0163558
706.878	0.0165402
706.956	0.0164871
707.034	0.0163601
707.112	0.0165268
707.190	0.0164375
707.268	0.0165372
707.346	0.0166792
707.424	0.0164449
707.503	0.0165257
707.581	0.0166250
707.659	0.0165319
707.737	0.0165738
707.815	0.0165291
707.893	0.0165329
707.971	0.0165424
708.049	0.0164402
708.128	0.0164069
708.206	0.0164463
708.284	0.0163619
708.362	0.0162571
708.440	0.0161539
708.518	0.0161604
708.596	0.0163950
708.674	0.0162833
708.753	0.0162867
708.831	0.0163444
708.909	0.0163760
708.987	0.0163450
709.065	0.0164007
709.143	0.0164727
709.221	0.0164690
709.299	0.0164252
709.378	0.0164720
709.456	0.0165237
709.534	0.0164675
709.612	0.0165801
709.690	0.0163586
709.768	0.0164871
709.846	0.0164762
709.924	0.0164211
710.003	0.0166202
710.081	0.0164632
710.159	0.0164718
710.237	0.0163259
710.315	0.0164653
710.393	0.0166455
710.471	0.0165828
710.549	0.0164700
710.628	0.0164487
710.706	0.0163977
710.784	0.0164416
710.862	0.0164410
710.940	0.0164037
711.018	0.0163155
711.096	0.0162905
711.174	0.0163496
711.253	0.0164149
711.331	0.0164076
711.409	0.0163972
711.487	0.0163558
711.565	0.0163641
711.643	0.0162665
711.721	0.0164431
711.799	0.0164703
711.878	0.0164604
711.956	0.0164156
712.034	0.0164877
712.112	0.0164770
712.190	0.0164664
712.268	0.0165048
712.346	0.0164759
712.424	0.0164280
712.503	0.0163191
712.581	0.0163741
712.659	0.0164806
712.737	0.0164195
712.815	0.0164583
712.893	0.0163318
712.971	0.0164316
713.049	0.0163675
713.128	0.0164655
713.206	0.0165097
713.284	0.0165150
713.362	0.0162976
713.440	0.0164510
713.518	0.0165408
713.596	0.0165093
713.674	0.0165147
713.753	0.0165405
713.831	0.0164446
713.909	0.0164179
713.987	0.0166653
714.065	0.0165584
714.143	0.0163978
714.221	0.0164001
714.299	0.0163565
714.378	0.0164452
714.456	0.0162737
714.534	0.0162688
714.612	0.0163328
714.690	0.0163941
714.768	0.0163241
714.846	0.0163280
714.924	0.0163556
715.003	0.0163350
715.081	0.0164406
715.159	0.0164270
715.237	0.0165136
715.315	0.0166455
715.393	0.0165646
715.471	0.0166727
715.549	0.0167188
715.628	0.0166142
715.706	0.0165918
715.784	0.0167352
715.862	0.0165654
715.940	0.0165757
716.018	0.0165688
716.096	0.0164241
716.174	0.0163570
716.253	0.0163621
716.331	0.0162032
716.409	0.0161544
716.487	0.0160412
716.565	0.0160930
716.643	0.0160029
716.721	0.0160209
716.799	0.0161226
716.878	0.0161529
716.956	0.0163090
717.034	0.0163705
717.112	0.0164123
717.190	0.0166174
717.268	0.0166388
717.346	0.0167534
717.424	0.0168477
717.503	0.0169558
717.581	0.0171038
717.659	0.0169882
717.737	0.0172583
717.815	0.0173779
717.893	0.0170599
717.971	0.0171516
718.049	0.0169666
718.128	0.0170233
718.206	0.0170081
718.284	0.0167880
718.362	0.0165425
718.440	0.0164374
718.518	0.0162829
718.596	0.0162255
718.674	0.0161050
718.753	0.0158525
718.831	0.0158405
718.909	0.0157891
718.987	0.0157047
719.065	0.0155296
719.143	0.0155322
719.221	0.0155070
719.299	0.0156640
719.378	0.0158143
719.456	0.0158343
719.534	0.0157935
719.612	0.0158796
719.690	0.0160108
719.768	0.0160173
719.846	0.0161113
719.924	0.0162016
720.003	0.0163549
720.081	0.0163722
720.159	0.0165205
720.237	0.0165616
720.315	0.0166929
720.393	0.0168525
720.471	0.0169828
720.549	0.0169379
720.628	0.0172631
720.706	0.0172836
720.784	0.0172954
720.862	0.0173791
720.940	0.0174303
721.018	0.0174068
721.096	0.0172953
721.174	0.0172737
721.253	0.0172029
721.331	0.0169798
721.409	0.0170169
721.487	0.0167933
721.565	0.0164958
721.643	0.0165496
721.721	0.0163337
721.799	0.0160728
721.878	0.0159204
721.956	0.0159267
722.034	0.0159241
722.112	0.0156818
722.190	0.0157376
722.268	0.0156534
722.346	0.0155695
722.424	0.0155681
722.503	0.0156224
722.581	0.0156380
722.659	0.0155594
722.737	0.0156225
722.815	0.0157879
722.893	0.0159318
722.971	0.0161179
723.049	0.0161183
723.128	0.0161716
723.206	0.0165084
723.284	0.0165598
723.362	0.0166975
723.440	0.0168656
723.518	0.0169534
723.596	0.0169611
723.674	0.0170392
723.753	0.0171481
723.831	0.0171807
723.909	0.0172090
723.987	0.0171822
724.065	0.0169761
724.143	0.0169067
724.221	0.0170244
724.299	0.0167194
724.378	0.0168131
724.456	0.0167616
724.534	0.0166050
724.612	0.0163602
724.690	0.0162506
724.768	0.0163093
724.846	0.0161862
724.924	0.0162541
725.003	0.0160492
725.081	0.0159581
725.159	0.0158779
725.237	0.0160143
725.315	0.0160691
725.393	0.0159818
725.471	0.0160088
725.549	0.0160625
725.628	0.0160937
725.706	0.0163214
725.784	0.0164041
725.862	0.0165072
725.940	0.0166425
726.018	0.0164383
726.096	0.0165509
726.174	0.0167452
726.253	0.0166679
726.331	0.0166778
726.409	0.0167540
726.487	0.0166915
726.565	0.0167687
726.643	0.0168150
726.721	0.0167712
726.799	0.0166660
726.878	0.0166081
726.956	0.0165073
727.034	0.0164166
727.112	0.0165033
727.190	0.0165433
727.268	0.0165955
727.346	0.0163826
727.424	0.0163873
727.503	0.0165914
727.581	0.0166095
727.659	0.0164643
727.737	0.0165457
727.815	0.0165711
727.893	0.0166770
727.971	0.0166166
728.049	0.0166615
728.128	0.0167127
728.206	0.0166435
728.284	0.0167660
728.362	0.0167438
728.440	0.0166300
728.518	0.0164721
728.596	0.0166542
728.674	0.0165127
728.753	0.0163113
728.831	0.0163486
728.909	0.0162918
728.987	0.0163972
729.065	0.0164035
729.143	0.0161330
729.221	0.0162517
729.299	0.0162315
729.378	0.0163248
729.456	0.0162921
729.534	0.0162621
729.612	0.0162521
729.690	0.0164613
729.768	0.0163690
729.846	0.0163941
729.924	0.0163638
730.003	0.0163548
730.081	0.0162992
730.159	0.0161479
730.237	0.0162227
730.315	0.0162644
730.393	0.0163012
730.471	0.0161945
730.549	0.0162045
730.628	0.0162209
730.706	0.0163074
730.784	0.0161732
730.862	0.0161763
730.940	0.0162170
731.018	0.0163974
731.096	0.0163245
731.174	0.0163277
731.253	0.0163245
731.331	0.0163914
731.409	0.0164573
731.487	0.0166499
731.565	0.0168332
731.643	0.0167609
731.721	0.0170448
731.799	0.0172328
731.878	0.0171851
731.956	0.0174210
732.034	0.0174209
732.112	0.0174635
732.190	0.0174677
732.268	0.0175469
732.346	0.0175615
732.424	0.0174193
732.503	0.0173308
732.581	0.0173624
732.659	0.0172754
732.737	0.0170473
732.815	0.0169907
732.893	0.0166692
732.971	0.0165102
733.049	0.0164632
733.128	0.0162210
733.206	0.0160125
733.284	0.0157832
733.362	0.0157070
733.440	0.0155444
733.518	0.0154420
733.596	0.0153217
733.674	0.0153598
733.753	0.0153339
733.831	0.0154408
733.909	0.0154704
733.987	0.0154406
734.065	0.0155093
734.143	0.0155740
734.221	0.0158628
734.299	0.0157755
734.378	0.0160012
734.456	0.0162231
734.534	0.0162804
734.612	0.0163401
734.690	0.0165543
734.768	0.0166538
734.846	0.0167221
734.924	0.0166035
735.003	0.0168264
735.081	0.0168129
735.159	0.0167420
735.237	0.0166503
735.315	0.0166393
735.393	0.0168160
735.471	0.0165907
735.549	0.0166656
735.628	0.0167063
735.706	0.0167204
735.784	0.0166929
735.862	0.0168253
735.940	0.0167298
736.018	0.0167955
736.096	0.0167588
736.174	0.0170123
736.253	0.0171227
736.331	0.0170943
736.409	0.0172266
736.487	0.0172150
736.565	0.0170741
736.643	0.0172740
736.721	0.0171335
736.799	0.0171201
736.878	0.0170468
736.956	0.0168700
737.034	0.0167265
737.112	0.0165675
737.190	0.0163039
737.268	0.0160856
737.346	0.0159501
737.424	0.0158195
737.503	0.0156644
737.581	0.0155432
737.659	0.0154166
737.737	0.0153523
737.815	0.0153578
737.893	0.0155232
737.971	0.0153959
738.049	0.0155279
738.128	0.0156825
738.206	0.0159736
738.284	0.0162053
738.362	0.0161511
738.440	0.0161684
738.518	0.0165209
738.596	0.0166228
738.674	0.0167171
738.753	0.0167393
738.831	0.0169181
738.909	0.0171007
738.987	0.0169342
739.065	0.0170276
739.143	0.0170528
739.221	0.0169304
739.299	0.0169507
739.378	0.0169646
739.456	0.0167712
739.534	0.0166888
739.612	0.0167760
739.690	0.0165216
739.768	0.0164849
739.846	0.0164243
739.924	0.0162576
740.003	0.0162782
740.081	0.0162263
740.159	0.0160339
740.237	0.0161912
740.315	0.0160793
740.393	0.0158767
740.471	0.0159643
740.549	0.0159925
740.628	0.0159355
740.706	0.0160994
740.784	0.0161244
740.862	0.0161678
740.940	0.0163879
741.018	0.0164560
741.096	0.0165591
741.174	0.0167480
741.253	0.0166777
741.331	0.0167595
741.409	0.0168517
741.487	0.0167046
741.565	0.0167158
741.643	0.0168488
741.721	0.0167746
741.799	0.0167093
741.878	0.0166198
741.956	0.0164848
742.034	0.0163694
742.112	0.0165274
742.190	0.0164997
742.268	0.0164075
742.346	0.0163367
742.424	0.0163678
742.503	0.0164079
742.581	0.0163254
742.659	0.0161789
742.737	0.0163954
742.815	0.0163725
742.893	0.0161102
742.971	0.0163098
743.049	0.0162558
743.128	0.0163487
743.206	0.0163395
743.284	0.0162386
743.362	0.0162067
743.440	0.0164845
743.518	0.0162594
743.596	0.0162437
743.674	0.0162612
743.753	0.0163516
743.831	0.0162595
743.909	0.0162304
743.987	0.0162092
744.065	0.0161290
744.143	0.0162919
744.221	0.0161259
744.299	0.0161551
744.378	0.0163100
744.456	0.0163576
744.534	0.0164098
744.612	0.0163061
744.690	0.0162903
744.768	0.0164178
744.846	0.0164190
744.924	0.0165673
745.003	0.0165707
745.081	0.0165997
745.159	0.0166553
745.237	0.0167086
745.315	0.0167252
745.393	0.0166910
745.471	0.0167487
745.549	0.0166090
745.628	0.0167225
745.706	0.0165982
745.784	0.0165186
745.862	0.0166118
745.940	0.0165544
746.018	0.0166223
746.096	0.0166537
746.174	0.0166125
746.253	0.0165684
746.331	0.0165580
746.409	0.0166001
746.487	0.0165719
746.565	0.0165894
746.643	0.0166560
746.721	0.0166653
746.799	0.0165667
746.878	0.0167642
746.956	0.0166620
747.034	0.0166280
747.112	0.0165134
747.190	0.0165279
747.268	0.0163464
747.346	0.0162844
747.424	0.0162542
747.503	0.0160230
747.581	0.0160243
747.659	0.0159473
747.737	0.0158892
747.815	0.0156960
747.893	0.0156897
747.971	0.0156501
748.049	0.0155914
748.128	0.0155758
748.206	0.0155486
748.284	0.0157308
748.362	0.0158588
748.440	0.0159895
748.518	0.0160863
748.596	0.0160473
748.674	0.0162930
748.753	0.0164700
748.831	0.0164829
748.909	0.0165800
748.987	0.0168668
749.065	0.0167546
749.143	0.0170074
749.221	0.0168330
749.299	0.0168119
749.378	0.0169991
749.456	0.0170660
749.534	0.0170045
749.612	0.0170391
749.690	0.0169880
749.768	0.0168141
749.846	0.0168948
749.924	0.0169100
750.003	0.0166891
750.081	0.0168347
750.159	0.0166637
750.237	0.0167937
750.315	0.0166493
750.393	0.0166833
750.471	0.0167513
750.549	0.0165911
750.628	0.0166363
750.706	0.0166158
750.784	0.0165144
750.862	0.0163831
750.940	0.0163974
751.018	0.0163609
751.096	0.0163180
751.174	0.0163465
751.253	0.0162856
751.331	0.0163397
751.409	0.0163390
751.487	0.0162508
751.565	0.0163205
751.643	0.0164204
751.721	0.0165405
751.799	0.0163282
751.878	0.0164857
751.956	0.0163029
752.034	0.0165697
752.112	0.0164697
752.190	0.0165405
752.268	0.0163835
752.346	0.0164693
752.424	0.0164381
752.503	0.0164783
752.581	0.0164230
752.659	0.0162813
752.737	0.0163321
752.815	0.0161486
752.893	0.0162230
752.971	0.0162022
753.049	0.0161294
753.128	0.0161427
753.206	0.0162870
753.284	0.0160457
753.362	0.0161716
753.440	0.0160107
753.518	0.0159864
753.596	0.0162000
753.674	0.0161790
753.753	0.0160548
753.831	0.0161723
753.909	0.0161938
753.987	0.0162508
754.065	0.0162375
754.143	0.0163217
754.221	0.0162984
754.299	0.0163416
754.378	0.0163921
754.456	0.0164426
754.534	0.0165376
754.612	0.0167068
754.690	0.0168370
754.768	0.0167883
754.846	0.0169076
754.924	0.0169685
755.003	0.0170508
755.081	0.0170145
755.159	0.0169350
755.237	0.0171091
755.315	0.0170778
755.393	0.0169956
755.471	0.0170587
755.549	0.0168936
755.628	0.0169070
755.706	0.0169233
755.784	0.0168063
755.862	0.0166776
755.940	0.0166222
756.018	0.0164728
756.096	0.0162337
756.174	0.0162222
756.253	0.0162123
756.331	0.0160265
756.409	0.0159294
756.487	0.0159583
756.565	0.0160346
756.643	0.0159127
756.721	0.0159215
756.799	0.0159211
756.878	0.0158263
756.956	0.0159210
757.034	0.0159187
757.112	0.0159328
757.190	0.0160638
757.268	0.0161452
757.346	0.0162103
757.424	0.0163925
757.503	0.0165685
757.581	0.0167249
757.659	0.0167522
757.737	0.0167651
757.815	0.0169956
757.893	0.0170689
757.971	0.0170107
758.049	0.0169392
758.128	0.0169611
758.206	0.0170122
758.284	0.0169093
758.362	0.0167848
758.440	0.0165033
758.518	0.0165510
758.596	0.0163682
758.674	0.0164088
758.753	0.0161645
758.831	0.0159498
758.909	0.0158956
758.987	0.0156911
759.065	0.0156497
759.143	0.0158608
759.221	0.0157198
759.299	0.0156728
759.378	0.0158081
759.456	0.0158343
759.534	0.0158104
759.612	0.0158950
759.690	0.0162587
759.768	0.0163046
759.846	0.0163350
759.924	0.0165892
760.003	0.0167240
760.081	0.0168469
760.159	0.0169247
760.237	0.0170067
760.315	0.0169614
760.393	0.0169832
760.471	0.0170017
760.549	0.0169607
760.628	0.0169695
760.706	0.0169151
760.784	0.0169250
760.862	0.0168768
760.940	0.0167441
761.018	0.0166462
761.096	0.0166125
761.174	0.0164286
761.253	0.0165883
761.331	0.0165629
761.409	0.0164542
761.487	0.0163999
761.565	0.0162383
761.643	0.0163374
761.721	0.0163302
761.799	0.0162811
761.878	0.0162650
761.956	0.0160929
762.034	0.0161658
762.112	0.0164491
762.190	0.0162383
762.268	0.0163130
762.346	0.0162695
762.424	0.0162280
762.503	0.0162182
762.581	0.0162306
762.659	0.0162931
762.737	0.0162258
762.815	0.0162498
762.893	0.0161631
762.971	0.0161420
763.049	0.0160282
763.128	0.0160669
763.206	0.0163004
763.284	0.0163017
763.362	0.0161337
763.440	0.0163157
763.518	0.0164186
763.596	0.0164463
763.674	0.0166554
763.753	0.0166573
763.831	0.0168162
763.909	0.0168965
763.987	0.0166936
764.065	0.0167217
764.143	0.0165488
764.221	0.0165538
764.299	0.0166794
764.378	0.0164215
764.456	0.0164144
764.534	0.0163519
764.612	0.0162006
764.690	0.0161958
764.768	0.0162123
764.846	0.0161005
764.924	0.0162556
765.003	0.0163349
765.081	0.0161827
765.159	0.0163121
765.237	0.0164672
765.315	0.0163647
765.393	0.0164304
765.471	0.0164501
765.549	0.0166450
765.628	0.0166080
765.706	0.0165727
765.784	0.0165051
765.862	0.0165383
765.940	0.0165775
766.018	0.0165350
766.096	0.0164291
766.174	0.0163868
766.253	0.0162086
766.331	0.0163977
766.409	0.0161698
766.487	0.0162115
766.565	0.0162115
766.643	0.0161388
766.721	0.0163091
766.799	0.0162035
766.878	0.0162842
766.956	0.0164333
767.034	0.0164967
767.112	0.0165341
767.190	0.0166294
767.268	0.0165675
767.346	0.0164456
767.424	0.0165229
767.503	0.0163976
767.581	0.0163635
767.659	0.0163156
767.737	0.0163172
767.815	0.0163843
767.893	0.0163144
767.971	0.0163181
768.049	0.0163528
768.128	0.0161919
768.206	0.0161797
768.284	0.0162175
768.362	0.0162113
768.440	0.0160303
768.518	0.0161200
768.596	0.0160144
768.674	0.0160370
768.753	0.0160385
768.831	0.0159905
768.909	0.0159650
768.987	0.0161079
769.065	0.0162263
769.143	0.0163839
769.221	0.0163462
769.299	0.0163887
769.378	0.0166456
769.456	0.0166413
769.534	0.0167781
769.612	0.0168467
769.690	0.0169225
769.768	0.0169279
769.846	0.0168528
769.924	0.0168748
770.003	0.0168283
770.081	0.0168507
770.159	0.0168284
770.237	0.0166670
770.315	0.0165119
770.393	0.0165732
770.471	0.0166306
770.549	0.0166198
770.628	0.0164888
770.706	0.0165322
770.784	0.0165653
770.862	0.0165070
770.940	0.0166076
771.018	0.0165009
771.096	0.0165931
771.174	0.0167319
771.253	0.0165657
771.331	0.0165303
771.409	0.0165953
771.487	0.0167381
771.565	0.0166100
771.643	0.0165029
771.721	0.0165535
771.799	0.0162862
771.878	0.0161868
771.956	0.0161599
772.034	0.0161616
772.112	0.0161272
772.190	0.0160500
772.268	0.0158545
772.346	0.0158356
772.424	0.0158593
772.503	0.0159676
772.581	0.0160777
772.659	0.0158959
772.737	0.0159634
772.815	0.0160301
772.893	0.0161304
772.971	0.0161169
773.049	0.0160806
773.128	0.0161252
773.206	0.0161998
773.284	0.0162736
773.362	0.0162863
773.440	0.0162817
773.518	0.0162616
773.596	0.0162413
773.674	0.0163616
773.753	0.0163516
773.831	0.0164339
773.909	0.0164565
773.987	0.0163729
774.065	0.0165460
774.143	0.0163063
774.221	0.0166811
774.299	0.0165379
774.378	0.0166279
774.456	0.0166180
774.534	0.0165038
774.612	0.0165649
774.690	0.0165124
774.768	0.0165228
774.846	0.0163405
774.924	0.0166185
775.003	0.0165741
775.081	0.0164722
775.159	0.0164806
775.237	0.0165666
775.315	0.0165942
775.393	0.0165856
775.471	0.0166487
775.549	0.0166966
775.628	0.0168197
775.706	0.0168340
775.784	0.0167896
775.862	0.0168929
775.940	0.0168095
776.018	0.0169074
776.096	0.0168913
776.174	0.0168115
776.253	0.0167535
776.331	0.0168167
776.409	0.0168777
776.487	0.0166706
776.565	0.0167192
776.643	0.0168140
776.721	0.0166358
776.799	0.0166170
776.878	0.0165469
776.956	0.0165729
777.034	0.0165730
777.112	0.0164931
777.190	0.0164697
777.268	0.0164740
777.346	0.0163761
777.424	0.0164005
777.503	0.0163438
777.581	0.0162679
777.659	0.0165044
777.737	0.0164773
777.815	0.0164082
777.893	0.0163457
777.971	0.0164777
778.049	0.0163515
778.128	0.0163763
778.206	0.0162617
778.284	0.0161297
778.362	0.0161079
778.440	0.0160688
778.518	0.0160653
778.596	0.0159689
778.674	0.0159180
778.753	0.0158082
778.831	0.0157672
778.909	0.0158545
778.987	0.0157700
779.065	0.0157381
779.143	0.0158997
779.221	0.0157690
779.299	0.0157722
779.378	0.0157255
779.456	0.0158704
779.534	0.0161013
779.612	0.0159617
779.690	0.0160150
779.768	0.0162115
779.846	0.0162833
779.924	0.0165215
780.003	0.0166290
780.081	0.0166997
780.159	0.0167511
780.237	0.0170730
780.315	0.0170271
780.393	0.0170795
780.471	0.0170898
780.549	0.0170947
780.628	0.0171143
780.706	0.0170726
780.784	0.0171781
780.862	0.0172298
780.940	0.0170890
781.018	0.0169143
781.096	0.0168116
781.174	0.0169376
781.253	0.0168034
781.331	0.0168114
781.409	0.0167938
781.487	0.0166537
781.565	0.0166859
781.643	0.0165906
781.721	0.0165646
781.799	0.0164555
781.878	0.0164375
781.956	0.0165044
782.034	0.0163319
782.112	0.0164117
782.190	0.0162824
782.268	0.0163929
782.346	0.0164680
782.424	0.0164471
782.503	0.0163741
782.581	0.0163083
782.659	0.0163406
782.737	0.0164366
782.815	0.0165044
782.893	0.0163863
782.971	0.0162997
783.049	0.0164110
783.128	0.0163512
783.206	0.0163104
783.284	0.0163937
783.362	0.0164576
783.440	0.0163168
783.518	0.0164660
783.596	0.0165072
783.674	0.0165054
783.753	0.0164324
783.831	0.0163429
783.909	0.0163841
783.987	0.0164260
784.065	0.0163926
784.143	0.0162773
784.221	0.0161642
784.299	0.0163060
784.378	0.0163042
784.456	0.0163201
784.534	0.0162726
784.612	0.0162383
784.690	0.0161149
784.768	0.0161864
784.846	0.0162111
784.924	0.0162685
785.003	0.0159993
785.081	0.0160411
785.159	0.0162525
785.237	0.0161525
785.315	0.0160760
785.393	0.0161096
785.471	0.0161560
785.549	0.0162428
785.628	0.0161887
785.706	0.0160766
785.784	0.0161685
785.862	0.0162926
785.940	0.0163548
786.018	0.0163333
786.096	0.0163798
786.174	0.0165842
786.253	0.0164901
786.331	0.0164856
786.409	0.0164714
786.487	0.0165990
786.565	0.0165543
786.643	0.0166067
786.721	0.0167352
786.799	0.0167633
786.878	0.0166836
786.956	0.0168777
787.034	0.0167698
787.112	0.0167080
787.190	0.0168568
787.268	0.0167973
787.346	0.0167595
787.424	0.0166542
787.503	0.0167255
787.581	0.0166494
787.659	0.0166927
787.737	0.0166711
787.815	0.0164769
787.893	0.0164651
787.971	0.0165101
788.049	0.0165504
788.128	0.0165339
788.206	0.0165721
788.284	0.0164484
788.362	0.0163987
788.440	0.0163610
788.518	0.0164742
788.596	0.0164048
788.674	0.0165469
788.753	0.0164008
788.831	0.0162837
788.909	0.0164270
788.987	0.0163493
789.065	0.0163667
789.143	0.0165391
789.221	0.0164256
789.299	0.0163813
789.378	0.0165295
789.456	0.0165178
789.534	0.0164427
789.612	0.0165591
789.690	0.0164991
789.768	0.0165644
789.846	0.0163746
789.924	0.0164315
790.003	0.0164447
790.081	0.0163105
790.159	0.0163103
790.237	0.0162567
790.315	0.0163538
790.393	0.0163798
790.471	0.0161417
790.549	0.0160031
790.628	0.0161736
790.706	0.0161926
790.784	0.0160201
790.862	0.0160165
790.940	0.0161817
791.018	0.0160957
791.096	0.0158052
791.174	0.0160631
791.253	0.0162023
791.331	0.0162753
791.409	0.0163440
791.487	0.0162190
791.565	0.0162457
791.643	0.0163893
791.721	0.0164466
791.799	0.0164228
791.878	0.0165804
791.956	0.0164976
792.034	0.0164958
792.112	0.0164853
792.190	0.0165782
792.268	0.0164214
792.346	0.0164478
792.424	0.0164844
792.503	0.0164305
792.581	0.0163737
792.659	0.0164709
792.737	0.0164425
792.815	0.0164050
792.893	0.0164019
792.971	0.0163760
793.049	0.0165808
793.128	0.0167160
793.206	0.0165410
793.284	0.0164073
793.362	0.0164174
793.440	0.0167506
793.518	0.0167043
793.596	0.0167640
793.674	0.0167351
793.753	0.0168009
793.831	0.0168033
793.909	0.0168014
793.987	0.0167975
794.065	0.0167589
794.143	0.0169106
794.221	0.0169188
794.299	0.0169682
794.378	0.0166399
794.456	0.0166123
794.534	0.0166063
794.612	0.0165972
794.690	0.0165186
794.768	0.0165807
794.846	0.0164224
794.924	0.0164443
795.003	0.0163950
795.081	0.0163691
795.159	0.0164201
795.237	0.0163811
795.315	0.0162747
795.393	0.0162791
795.471	0.0162661
795.549	0.0163361
795.628	0.0163612
795.706	0.0163528
795.784	0.0165214
795.862	0.0164497
795.940	0.0163247
796.018	0.0163389
796.096	0.0163911
796.174	0.0164853
796.253	0.0165298
796.331	0.0162836
796.409	0.0163583
796.487	0.0164008
796.565	0.0164683
796.643	0.0164098
796.721	0.0164333
796.799	0.0163433
796.878	0.0162120
796.956	0.0163658
797.034	0.0163332
797.112	0.0163600
797.190	0.0163286
797.268	0.0163909
797.346	0.0162065
797.424	0.0162773
797.503	0.0163502
797.581	0.0163570
797.659	0.0163339
797.737	0.0164381
797.815	0.0163168
797.893	0.0164523
797.971	0.0165752
798.049	0.0164329
798.128	0.0164325
798.206	0.0164252
798.284	0.0165393
798.362	0.0165286
798.440	0.0163937
798.518	0.0165078
798.596	0.0164396
798.674	0.0164064
798.753	0.0163952
798.831	0.0163447
798.909	0.0161547
798.987	0.0162833
799.065	0.0164315
799.143	0.0162053
799.221	0.0163305
799.299	0.0162818
799.378	0.0162492
799.456	0.0163710
799.534	0.0162225
799.612	0.0161862
799.690	0.0165157
799.768	0.0164623
799.846	0.0160847
799.924	0.0163312
800.003	0.0164714
800.081	0.0165231
800.159	0.0165609
800.237	0.0164590
800.315	0.0166784
800.393	0.0167094
800.471	0.0166410
800.549	0.0168031
800.628	0.0166859
800.706	0.0167538
800.784	0.0168793
800.862	0.0168459
800.940	0.0169820
801.018	0.0168655
801.096	0.0167708
801.174	0.0168114
801.253	0.0167400
801.331	0.0166993
801.409	0.0165639
801.487	0.0164822
801.565	0.0163950
801.643	0.0163850
801.721	0.0163551
801.799	0.0164410
801.878	0.0163840
801.956	0.0163454
802.034	0.0162173
802.112	0.0163258
802.190	0.0161995
802.268	0.0163135
802.346	0.0162896
802.424	0.0162154
802.503	0.0163931
802.581	0.0164587
802.659	0.0163370
802.737	0.0162511
802.815	0.0163406
802.893	0.0163206
802.971	0.0163653
803.049	0.0163432
803.128	0.0163045
803.206	0.0164642
803.284	0.0163470
803.362	0.0162700
803.440	0.0163461
803.518	0.0163300
803.596	0.0163847
803.674	0.0163853
803.753	0.0163023
803.831	0.0164290
803.909	0.0164417
803.987	0.0164507
804.065	0.0165079
804.143	0.0164448
804.221	0.0166448
804.299	0.0165230
804.378	0.0164097
804.456	0.0165221
804.534	0.0166199
804.612	0.0166264
804.690	0.0165872
804.768	0.0165672
804.846	0.0165622
804.924	0.0166412
805.003	0.0166155
805.081	0.0165868
805.159	0.0165668
805.237	0.0164819
805.315	0.0164123
805.393	0.0163982
805.471	0.0163968
805.549	0.0164014
805.628	0.0162423
805.706	0.0163032
805.784	0.0162193
805.862	0.0162833
805.940	0.0161443
806.018	0.0160432
806.096	0.0162249
806.174	0.0162914
806.253	0.0161877
806.331	0.0160946
806.409	0.0161462
806.487	0.0162157
806.565	0.0162434
806.643	0.0162728
806.721	0.0165231
806.799	0.0165098
806.878	0.0166003
806.956	0.0165972
807.034	0.0165033
807.112	0.0167175
807.190	0.0169501
807.268	0.0169827
807.346	0.0168902
807.424	0.0168143
807.503	0.0169704
807.581	0.0168267
807.659	0.0168547
807.737	0.0168651
807.815	0.0168406
807.893	0.0168392
807.971	0.0166960
808.049	0.0166415
808.128	0.0165966
808.206	0.0165552
808.284	0.0165032
808.362	0.0163276
808.440	0.0163156
808.518	0.0163038
808.596	0.0162372
808.674	0.0163032
808.753	0.0160831
808.831	0.0160114
808.909	0.0162263
808.987	0.0162669
809.065	0.0160178
809.143	0.0161262
809.221	0.0161890
809.299	0.0163147
809.378	0.0162157
809.456	0.0163091
809.534	0.0163123
809.612	0.0163969
809.690	0.0164304
809.768	0.0163126
809.846	0.0162873
809.924	0.0162422
810.003	0.0163534
810.081	0.0164268
810.159	0.0162717
810.237	0.0163683
810.315	0.0164994
810.393	0.0165071
810.471	0.0164045
810.549	0.0164860
810.628	0.0165196
810.706	0.0164355
810.784	0.0164584
810.862	0.0164883
810.940	0.0165995
811.018	0.0164885
811.096	0.0166061
811.174	0.0166560
811.253	0.0167041
811.331	0.0165260
811.409	0.0166429
811.487	0.0166628
811.565	0.0165690
811.643	0.0165355
811.721	0.0164907
811.799	0.0164945
811.878	0.0164090
811.956	0.0164120
812.034	0.0162537
812.112	0.0163585
812.190	0.0162637
812.268	0.0161421
812.346	0.0163568
812.424	0.0162370
812.503	0.0163123
812.581	0.0160925
812.659	0.0161572
812.737	0.0159761
812.815	0.0161187
812.893	0.0160805
812.971	0.0161740
813.049	0.0161591
813.128	0.0161409
813.206	0.0161253
813.284	0.0163300
813.362	0.0165016
813.440	0.0163908
813.518	0.0163465
813.596	0.0166127
813.674	0.0165666
813.753	0.0168538
813.831	0.0168116
813.909	0.0166920
813.987	0.0170332
814.065	0.0170384
814.143	0.0170306
814.221	0.0170964
814.299	0.0169859
814.378	0.0169925
814.456	0.0171172
814.534	0.0170724
814.612	0.0169888
814.690	0.0168643
814.768	0.0168881
814.846	0.0166830
814.924	0.0166404
815.003	0.0163434
815.081	0.0161816
815.159	0.0162169
815.237	0.0162064
815.315	0.0160280
815.393	0.0159680
815.471	0.0158796
815.549	0.0158938
815.628	0.0159779
815.706	0.0160120
815.784	0.0158961
815.862	0.0160011
815.940	0.0161541
816.018	0.0161399
816.096	0.0160740
816.174	0.0162029
816.253	0.0162975
816.331	0.0162168
816.409	0.0162502
816.487	0.0164071
816.565	0.0163863
816.643	0.0165240
816.721	0.0164159
816.799	0.0164249
816.878	0.0164279
816.956	0.0164712
817.034	0.0164790
817.112	0.0164312
817.190	0.0163997
817.268	0.0164556
817.346	0.0164494
817.424	0.0164661
817.503	0.0166765
817.581	0.0164835
817.659	0.0165572
817.737	0.0166124
817.815	0.0166580
817.893	0.0167191
817.971	0.0166720
818.049	0.0167303
818.128	0.0167976
818.206	0.0166924
818.284	0.0167516
818.362	0.0166853
818.440	0.0166836
818.518	0.0166775
818.596	0.0163467
818.674	0.0164403
818.753	0.0164146
818.831	0.0162710
818.909	0.0161887
818.987	0.0161954
819.065	0.0159970
819.143	0.0159596
819.221	0.0159657
819.299	0.0159446
819.378	0.0160315
819.456	0.0160813
819.534	0.0161322
819.612	0.0160724
819.690	0.0161581
819.768	0.0161113
819.846	0.0164035
819.924	0.0163237
820.003	0.0164932
820.081	0.0166089
820.159	0.0166693
820.237	0.0167351
820.315	0.0167641
820.393	0.0167350
820.471	0.0169968
820.549	0.0169608
820.628	0.0169581
820.706	0.0169836
820.784	0.0170984
820.862	0.0170721
820.940	0.0168995
821.018	0.0170095
821.096	0.0169595
821.174	0.0167268
821.253	0.0167233
821.331	0.0167049
821.409	0.0166248
821.487	0.0164859
821.565	0.0164629
821.643	0.0162080
821.721	0.0161668
821.799	0.0160933
821.878	0.0161033
821.956	0.0159873
822.034	0.0158742
822.112	0.0160280
822.190	0.0158463
822.268	0.0158392
822.346	0.0159894
822.424	0.0160496
822.503	0.0160115
822.581	0.0161002
822.659	0.0161134
822.737	0.0160651
822.815	0.0161662
822.893	0.0162559
822.971	0.0162289
823.049	0.0162352
823.128	0.0163643
823.206	0.0165205
823.284	0.0164791
823.362	0.0164500
823.440	0.0164594
823.518	0.0164769
823.596	0.0164723
823.674	0.0167070
823.753	0.0165312
823.831	0.0166529
823.909	0.0165889
823.987	0.0165888
824.065	0.0165274
824.143	0.0165066
824.221	0.0166375
824.299	0.0165765
824.378	0.0166196
824.456	0.0164989
824.534	0.0166628
824.612	0.0167678
824.690	0.0166906
824.768	0.0166471
824.846	0.0166557
824.924	0.0166960
825.003	0.0166769
825.081	0.0166821
825.159	0.0165677
825.237	0.0164951
825.315	0.0164580
825.393	0.0165153
825.471	0.0162399
825.549	0.0162409
825.628	0.0162025
825.706	0.0161932
825.784	0.0161163
825.862	0.0160740
825.940	0.0161104
826.018	0.0160556
826.096	0.0160160
826.174	0.0159699
826.253	0.0160396
826.331	0.0159976
826.409	0.0159702
826.487	0.0160770
826.565	0.0162592
826.643	0.0161173
826.721	0.0160641
826.799	0.0163056
826.878	0.0164607
826.956	0.0165397
827.034	0.0166514
827.112	0.0166016
827.190	0.0167545
827.268	0.0167966
827.346	0.0166735
827.424	0.0168011
827.503	0.0168518
827.581	0.0168272
827.659	0.0168024
827.737	0.0167708
827.815	0.0167227
827.893	0.0165626
827.971	0.0167847
828.049	0.0166577
828.128	0.0164709
828.206	0.0164883
828.284	0.0162656
828.362	0.0163902
828.440	0.0164574
828.518	0.0162827
828.596	0.0162733
828.674	0.0162045
828.753	0.0161935
828.831	0.0163110
828.909	0.0163448
828.987	0.0162721
829.065	0.0162036
829.143	0.0163294
829.221	0.0164945
829.299	0.0163835
829.378	0.0164005
829.456	0.0163373
829.534	0.0163501
829.612	0.0163345
829.690	0.0163652
829.768	0.0165855
829.846	0.0162920
829.924	0.0164802
830.003	0.0164135
830.081	0.0162918
830.159	0.0163010
830.237	0.0162666
830.315	0.0160860
830.393	0.0162051
830.471	0.0160892
830.549	0.0161786
830.628	0.0163114
830.706	0.0163502
830.784	0.0161481
830.862	0.0162951
830.940	0.0162732
831.018	0.0163782
831.096	0.0164426
831.174	0.0164230
831.253	0.0164185
831.331	0.0164574
831.409	0.0163947
831.487	0.0164139
831.565	0.0165570
831.643	0.0166682
831.721	0.0165279
831.799	0.0164739
831.878	0.0165096
831.956	0.0166653
832.034	0.0166534
832.112	0.0163787
832.190	0.0164173
832.268	0.0164629
832.346	0.0164177
832.424	0.0162221
832.503	0.0162345
832.581	0.0163580
832.659	0.0164171
832.737	0.0162466
832.815	0.0163407
832.893	0.0161910
832.971	0.0162431
833.049	0.0163280
833.128	0.0163207
833.206	0.0162428
833.284	0.0165071
833.362	0.0164367
833.440	0.0164051
833.518	0.0164824
833.596	0.0167133
833.674	0.0166753
833.753	0.0165393
833.831	0.0167326
833.909	0.0166777
833.987	0.0166261
834.065	0.0168249
834.143	0.0168535
834.221	0.0168452
834.299	0.0168116
834.378	0.0167629
834.456	0.0164804
834.534	0.0165149
834.612	0.0166384
834.690	0.0165604
834.768	0.0164615
834.846	0.0162494
834.924	0.0163905
835.003	0.0165253
835.081	0.0162820
835.159	0.0162663
835.237	0.0162806
835.315	0.0161235
835.393	0.0161591
835.471	0.0161907
835.549	0.0160623
835.628	0.0160860
835.706	0.0161250
835.784	0.0162214
835.862	0.0161117
835.940	0.0162195
836.018	0.0162756
836.096	0.0164043
836.174	0.0162887
836.253	0.0163537
836.331	0.0165167
836.409	0.0164674
836.487	0.0164699
836.565	0.0165912
836.643	0.0165354
836.721	0.0163169
836.799	0.0164033
836.878	0.0164475
836.956	0.0163937
837.034	0.0163609
837.112	0.0163332
837.190	0.0164429
837.268	0.0164223
837.346	0.0165067
837.424	0.0164770
837.503	0.0165028
837.581	0.0163239
837.659	0.0163123
837.737	0.0165670
837.815	0.0165928
837.893	0.0165145
837.971	0.0165799
838.049	0.0165016
838.128	0.0164881
838.206	0.0166750
838.284	0.0165022
838.362	0.0164897
838.440	0.0165128
838.518	0.0164149
838.596	0.0164360
838.674	0.0163606
838.753	0.0165122
838.831	0.0163980
838.909	0.0163023
838.987	0.0163531
839.065	0.0162052
839.143	0.0162833
839.221	0.0161849
839.299	0.0161980
839.378	0.0162129
839.456	0.0163927
839.534	0.0162210
839.612	0.0163240
839.690	0.0162603
839.768	0.0164143
839.846	0.0163758
839.924	0.0164182
840.003	0.0163321
840.081	0.0164157
840.159	0.0164446
840.237	0.0166621
840.315	0.0165857
840.393	0.0165812
840.471	0.0165535
840.549	0.0166504
840.628	0.0166590
840.706	0.0167545
840.784	0.0167574
840.862	0.0167249
840.940	0.0166946
841.018	0.0166771
841.096	0.0167546
841.174	0.0167702
841.253	0.0168597
841.331	0.0165660
841.409	0.0164799
841.487	0.0166235
841.565	0.0165838
841.643	0.0165147
841.721	0.0163272
841.799	0.0165553
841.878	0.0164323
841.956	0.0163459
842.034	0.0163463
842.112	0.0164679
842.190	0.0164867
842.268	0.0162012
842.346	0.0163577
842.424	0.0163058
842.503	0.0162213
842.581	0.0163364
842.659	0.0163213
842.737	0.0163156
842.815	0.0163516
842.893	0.0163158
842.971	0.0166084
843.049	0.0164642
843.128	0.0165077
843.206	0.0164899
843.284	0.0164687
843.362	0.0164369
843.440	0.0164660
843.518	0.0165170
843.596	0.0165257
843.674	0.0166742
843.753	0.0164669
843.831	0.0166604
843.909	0.0164454
843.987	0.0163680
844.065	0.0165529
844.143	0.0164091
844.221	0.0165182
844.299	0.0164986
844.378	0.0165555
844.456	0.0163779
844.534	0.0164489
844.612	0.0165282
844.690	0.0165529
844.768	0.0164502
844.846	0.0165533
844.924	0.0163819
845.003	0.0164542
845.081	0.0164481
845.159	0.0164040
845.237	0.0164693
845.315	0.0164530
845.393	0.0164664
845.471	0.0164082
845.549	0.0163688
845.628	0.0164772
845.706	0.0163713
845.784	0.0163845
845.862	0.0163979
845.940	0.0163314
846.018	0.0163231
846.096	0.0162852
846.174	0.0161961
846.253	0.0163044
846.331	0.0163306
846.409	0.0163003
846.487	0.0162443
846.565	0.0163751
846.643	0.0164048
846.721	0.0164989
846.799	0.0165128
846.878	0.0165431
846.956	0.0166013
847.034	0.0164593
847.112	0.0165781
847.190	0.0166706
847.268	0.0166837
847.346	0.0167835
847.424	0.0167039
847.503	0.0168230
847.581	0.0167125
847.659	0.0166042
847.737	0.0166833
847.815	0.0167506
847.893	0.0167435
847.971	0.0165295
848.049	0.0166184
848.128	0.0165672
848.206	0.0165894
848.284	0.0165455
848.362	0.0165160
848.440	0.0164813
848.518	0.0164332
848.596	0.0163823
848.674	0.0164616
848.753	0.0163855
848.831	0.0163501
848.909	0.0163961
848.987	0.0162515
849.065	0.0161691
849.143	0.0162862
849.221	0.0164025
849.299	0.0163392
849.378	0.0162682
849.456	0.0162737
849.534	0.0164432
849.612	0.0162304
849.690	0.0164246
849.768	0.0163676
849.846	0.0162887
849.924	0.0162789
850.003	0.0162160
850.081	0.0161603
850.159	0.0163427
850.237	0.0164424
850.315	0.0163641
850.393	0.0163960
850.471	0.0164132
850.549	0.0164176
850.628	0.0164568
850.706	0.0164954
850.784	0.0164243
850.862	0.0164651
850.940	0.0165693
851.018	0.0164672
851.096	0.0164495
851.174	0.0164910
851.253	0.0167246
851.331	0.0165440
851.409	0.0165554
851.487	0.0166008
851.565	0.0166739
851.643	0.0166260
851.721	0.0165006
851.799	0.0164994
851.878	0.0164230
851.956	0.0164990
852.034	0.0165445
852.112	0.0165238
852.190	0.0164697
852.268	0.0163365
852.346	0.0162424
852.424	0.0163173
852.503	0.0163470
852.581	0.0163358
852.659	0.0162186
852.737	0.0163109
852.815	0.0163256
852.893	0.0162175
852.971	0.0162098
853.049	0.0162606
853.128	0.0164409
853.206	0.0163201
853.284	0.0164009
853.362	0.0164725
853.440	0.0163685
853.518	0.0163900
853.596	0.0164344
853.674	0.0165534
853.753	0.0165828
853.831	0.0165346
853.909	0.0164972
853.987	0.0166199
854.065	0.0166387
854.143	0.0166230
854.221	0.0165174
854.299	0.0165794
854.378	0.0165810
854.456	0.0166655
854.534	0.0165907
854.612	0.0165689
854.690	0.0164706
854.768	0.0165963
854.846	0.0166240
854.924	0.0164976
855.003	0.0163909
855.081	0.0165733
855.159	0.0164677
855.237	0.0164231
855.315	0.0164211
855.393	0.0163538
855.471	0.0163560
855.549	0.0163053
855.628	0.0163858
855.706	0.0163417
855.784	0.0164034
855.862	0.0163666
855.940	0.0163517
856.018	0.0162992
856.096	0.0163200
856.174	0.0164706
856.253	0.0163001
856.331	0.0164073
856.409	0.0164098
856.487	0.0163662
856.565	0.0164335
856.643	0.0164919
856.721	0.0164359
856.799	0.0164027
856.878	0.0165163
856.956	0.0164303
857.034	0.0165299
857.112	0.0165268
857.190	0.0165047
857.268	0.0164713
857.346	0.0163737
857.424	0.0165194
857.503	0.0165752
857.581	0.0163773
857.659	0.0164150
857.737	0.0164866
857.815	0.0164898
857.893	0.0165374
857.971	0.0165861
858.049	0.0163946
858.128	0.0164981
858.206	0.0165594
858.284	0.0165363
858.362	0.0165116
858.440	0.0164397
858.518	0.0163280
858.596	0.0164429
858.674	0.0163374
858.753	0.0163105
858.831	0.0163036
858.909	0.0163269
858.987	0.0161495
859.065	0.0161871
859.143	0.0162218
859.221	0.0162599
859.299	0.0162273
859.378	0.0163189
859.456	0.0163010
859.534	0.0163121
859.612	0.0164042
859.690	0.0163426
859.768	0.0163007
859.846	0.0164289
859.924	0.0164065
860.003	0.0165057
860.081	0.0164927
860.159	0.0165083
860.237	0.0165034
860.315	0.0165235
860.393	0.0164572
860.471	0.0165769
860.549	0.0166099
860.628	0.0166553
860.706	0.0166121
860.784	0.0166271
860.862	0.0165233
860.940	0.0163511
861.018	0.0165462
861.096	0.0165346
861.174	0.0164918
861.253	0.0164655
861.331	0.0164590
861.409	0.0164690
861.487	0.0164873
861.565	0.0164934
861.643	0.0165214
861.721	0.0166099
861.799	0.0164275
861.878	0.0164734
861.956	0.0165284
862.034	0.0165401
862.112	0.0164445
862.190	0.0165704
862.268	0.0165450
862.346	0.0164201
862.424	0.0165331
862.503	0.0163719
862.581	0.0163060
862.659	0.0163725
862.737	0.0162831
862.815	0.0163562
862.893	0.0163876
862.971	0.0163365
863.049	0.0161827
863.128	0.0162862
863.206	0.0162920
863.284	0.0163284
863.362	0.0163451
863.440	0.0163155
863.518	0.0163940
863.596	0.0163277
863.674	0.0164804
863.753	0.0164115
863.831	0.0163824
863.909	0.0163657
863.987	0.0165562
864.065	0.0164793
864.143	0.0163887
864.221	0.0163562
864.299	0.0164182
864.378	0.0162866
864.456	0.0164635
864.534	0.0164454
864.612	0.0165034
864.690	0.0164590
864.768	0.0164834
864.846	0.0164286
864.924	0.0163995
865.003	0.0164137
865.081	0.0163753
865.159	0.0164008
865.237	0.0164098
865.315	0.0163943
865.393	0.0162347
865.471	0.0162468
865.549	0.0163474
865.628	0.0164671
865.706	0.0164294
865.784	0.0164606
865.862	0.0162749
865.940	0.0164648
866.018	0.0164662
866.096	0.0163763
866.174	0.0163001
866.253	0.0164616
866.331	0.0163840
866.409	0.0163995
866.487	0.0164484
866.565	0.0164001
866.643	0.0163342
866.721	0.0165318
866.799	0.0164986
866.878	0.0164857
866.956	0.0164610
867.034	0.0165143
867.112	0.0166544
867.190	0.0165284
867.268	0.0165351
867.346	0.0165603
867.424	0.0166526
867.503	0.0165207
867.581	0.0164267
867.659	0.0164765
867.737	0.0164248
867.815	0.0164318
867.893	0.0165050
867.971	0.0164436
868.049	0.0163827
868.128	0.0164926
868.206	0.0166364
868.284	0.0164898
868.362	0.0164400
868.440	0.0163793
868.518	0.0164228
868.596	0.0165552
868.674	0.0164359
868.753	0.0164420
868.831	0.0164308
868.909	0.0164527
868.987	0.0164153
869.065	0.0163316
869.143	0.0164089
869.221	0.0164027
869.299	0.0162442
869.378	0.0162608
869.456	0.0163604
869.534	0.0163375
869.612	0.0162463
869.690	0.0162514
869.768	0.0163051
869.846	0.0162589
869.924	0.0162418
870.003	0.0164690
870.081	0.0162792
870.159	0.0163457
870.237	0.0165199
870.315	0.0164407
870.393	0.0164819
870.471	0.0166205
870.549	0.0165062
870.628	0.0165851
870.706	0.0164984
870.784	0.0165518
870.862	0.0166401
870.940	0.0165699
871.018	0.0163920
871.096	0.0165427
871.174	0.0165553
871.253	0.0164406
871.331	0.0163137
871.409	0.0164417
871.487	0.0166002
871.565	0.0162867
871.643	0.0163744
871.721	0.0164595
871.799	0.0164390
871.878	0.0164221
871.956	0.0164442
872.034	0.0163836
872.112	0.0164738
872.190	0.0165218
872.268	0.0165692
872.346	0.0163827
872.424	0.0164391
872.503	0.0164577
872.581	0.0165604
872.659	0.0164632
872.737	0.0164614
872.815	0.0165081
872.893	0.0165725
872.971	0.0165677
873.049	0.0164397
873.128	0.0165665
873.206	0.0164879
873.284	0.0165041
873.362	0.0165458
873.440	0.0165577
873.518	0.0164342
873.596	0.0164260
873.674	0.0166251
873.753	0.0167236
873.831	0.0164657
873.909	0.0164792
873.987	0.0165111
874.065	0.0165362
874.143	0.0165553
874.221	0.0165427
874.299	0.0165311
874.378	0.0164130
874.456	0.0164491
874.534	0.0163852
874.612	0.0164659
874.690	0.0164120
874.768	0.0162284
874.846	0.0163029
874.924	0.0163013
875.003	0.0163647
875.081	0.0164278
875.159	0.0164780
875.237	0.0165916
875.315	0.0163819
875.393	0.0163612
875.471	0.0163424
875.549	0.0164365
875.628	0.0165025
875.706	0.0163217
875.784	0.0163821
875.862	0.0162905
875.940	0.0164141
876.018	0.0162640
876.096	0.0162539
876.174	0.0163764
876.253	0.0164491
876.331	0.0164285
876.409	0.0165372
876.487	0.0164013
876.565	0.0161826
876.643	0.0163633
876.721	0.0163954
876.799	0.0164465
876.878	0.0165783
876.956	0.0166150
877.034	0.0164639
877.112	0.0164989
877.190	0.0164502
877.268	0.0165603
877.346	0.0164964
877.424	0.0164388
877.503	0.0165504
877.581	0.0166067
877.659	0.0165526
877.737	0.0164236
877.815	0.0165532
877.893	0.0165690
877.971	0.0164019
878.049	0.0165384
878.128	0.0164176
878.206	0.0163856
878.284	0.0164904
878.362	0.0163608
878.440	0.0163567
878.518	0.0165179
878.596	0.0164800
878.674	0.0164098
878.753	0.0164904
878.831	0.0164674
878.909	0.0164204
878.987	0.0165069
879.065	0.0165390
879.143	0.0166489
879.221	0.0163642
879.299	0.0165126
879.378	0.0164954
879.456	0.0164445
879.534	0.0166575
879.612	0.0164539
879.690	0.0164626
879.768	0.0165396
879.846	0.0164661
879.924	0.0164171
880.003	0.0164011
880.081	0.0164742
880.159	0.0165054
880.237	0.0164310
880.315	0.0163494
880.393	0.0165366
880.471	0.0164085
880.549	0.0162622
880.628	0.0163546
880.706	0.0165285
880.784	0.0164911
880.862	0.0164660
880.940	0.0164246
881.018	0.0163667
881.096	0.0164673
881.174	0.0165516
881.253	0.0164407
881.331	0.0165224
881.409	0.0165115
881.487	0.0164584
881.565	0.0164618
881.643	0.0164359
881.721	0.0165483
881.799	0.0164266
881.878	0.0164464
881.956	0.0164045
882.034	0.0164139
882.112	0.0164771
882.190	0.0165450
882.268	0.0163219
882.346	0.0164607
882.424	0.0163919
882.503	0.0164124
882.581	0.0162691
882.659	0.0164363
882.737	0.0164087
882.815	0.0164779
882.893	0.0163525
882.971	0.0164683
883.049	0.0165073
883.128	0.0163831
883.206	0.0165736
883.284	0.0165307
883.362	0.0164006
883.440	0.0164196
883.518	0.0164199
883.596	0.0165031
883.674	0.0165211
883.753	0.0163249
883.831	0.0164822
883.909	0.0163252
883.987	0.0165187
884.065	0.0165269
884.143	0.0165237
884.221	0.0164333
884.299	0.0165474
884.378	0.0165972
884.456	0.0162847
884.534	0.0163612
884.612	0.0164920
884.690	0.0164803
884.768	0.0165344
884.846	0.0163439
884.924	0.0163500
885.003	0.0163915
885.081	0.0163759
885.159	0.0164523
885.237	0.0164106
885.315	0.0165344
885.393	0.0164608
885.471	0.0163158
885.549	0.0164360
885.628	0.0163217
885.706	0.0165676
885.784	0.0165239
885.862	0.0163622
885.940	0.0164515
886.018	0.0165868
886.096	0.0165807
886.174	0.0164451
886.253	0.0164847
886.331	0.0164537
886.409	0.0165411
886.487	0.0164754
886.565	0.0165237
886.643	0.0165559
886.721	0.0164996
886.799	0.0165095
886.878	0.0165045
886.956	0.0164347
887.034	0.0164030
887.112	0.0163686
887.190	0.0164660
887.268	0.0164808
887.346	0.0164990
887.424	0.0162208
887.503	0.0165237
887.581	0.0164415
887.659	0.0163871
887.737	0.0165133
887.815	0.0165488
887.893	0.0165006
887.971	0.0165524
888.049	0.0164703
888.128	0.0165324
888.206	0.0165825
888.284	0.0166139
888.362	0.0165067
888.440	0.0165488
888.518	0.0165993
888.596	0.0166654
888.674	0.0167407
888.753	0.0165184
888.831	0.0166257
888.909	0.0163893
888.987	0.0164731
889.065	0.0164350
889.143	0.0163194
889.221	0.0164170
889.299	0.0163994
889.378	0.0163197
889.456	0.0165050
889.534	0.0164474
889.612	0.0163502
889.690	0.0164088
889.768	0.0163444
889.846	0.0163544
889.924	0.0162938
890.003	0.0163645
890.081	0.0165330
890.159	0.0163554
890.237	0.0163996
890.315	0.0163659
890.393	0.0164034
890.471	0.0164423
890.549	0.0164122
890.628	0.0164788
890.706	0.0164538
890.784	0.0164314
890.862	0.0163783
890.940	0.0163979
891.018	0.0163982
891.096	0.0163681
891.174	0.0163123
891.253	0.0164922
891.331	0.0163474
891.409	0.0163699
891.487	0.0164252
891.565	0.0164436
891.643	0.0165147
891.721	0.0162903
891.799	0.0165030
891.878	0.0164964
891.956	0.0163599
892.034	0.0163869
892.112	0.0163660
892.190	0.0163293
892.268	0.0164035
892.346	0.0165052
892.424	0.0165384
892.503	0.0165372
892.581	0.0164871
892.659	0.0164577
892.737	0.0164378
892.815	0.0164409
892.893	0.0165238
892.971	0.0165594
893.049	0.0164913
893.128	0.0165175
893.206	0.0163493
893.284	0.0164669
893.362	0.0166161
893.440	0.0164497
893.518	0.0164655
893.596	0.0164017
893.674	0.0163155
893.753	0.0163948
893.831	0.0163967
893.909	0.0163008
893.987	0.0164578
894.065	0.0165198
894.143	0.0163881
894.221	0.0164194
894.299	0.0164465
894.378	0.0162621
894.456	0.0164307
894.534	0.0164187
894.612	0.0165416
894.690	0.0165916
894.768	0.0166530
894.846	0.0164676
894.924	0.0164903
895.003	0.0166793
895.081	0.0166450
895.159	0.0165604
895.237	0.0165175
895.315	0.0163831
895.393	0.0164500
895.471	0.0164140
895.549	0.0165421
895.628	0.0163823
895.706	0.0164648
895.784	0.0163657
895.862	0.0164643
895.940	0.0165043
896.018	0.0163686
896.096	0.0164128
896.174	0.0164599
896.253	0.0164417
896.331	0.0165421
896.409	0.0165446
896.487	0.0164867
896.565	0.0164449
896.643	0.0165730
896.721	0.0164138
896.799	0.0165776
896.878	0.0166457
896.956	0.0164573
897.034	0.0164613
897.112	0.0165291
897.190	0.0165186
897.268	0.0165005
897.346	0.0165481
897.424	0.0165611
897.503	0.0164576
897.581	0.0164947
897.659	0.0165683
897.737	0.0164950
897.815	0.0164963
897.893	0.0165407
897.971	0.0164327
898.049	0.0163960
898.128	0.0163104
898.206	0.0164349
898.284	0.0163403
898.362	0.0163181
898.440	0.0165192
898.518	0.0163178
898.596	0.0164919
898.674	0.0164622
898.753	0.0164443
898.831	0.0164057
898.909	0.0164258
898.987	0.0165793
899.065	0.0164786
899.143	0.0164519
899.221	0.0165006
899.299	0.0165508
899.378	0.0165431
899.456	0.0164788
899.534	0.0165186
899.612	0.0164868
899.690	0.0164808
899.768	0.0165648
899.846	0.0164329
899.924	0.0163672
900.003	0.0163473
900.081	0.0163718
900.159	0.0162634
900.237	0.0164614
900.315	0.0163749
900.393	0.0164358
900.471	0.0163982
900.549	0.0164289
900.628	0.0163141
900.706	0.0162247
900.784	0.0164098
900.862	0.0164733
900.940	0.0164372
901.018	0.0164223
901.096	0.0165054
901.174	0.0163230
901.253	0.0164853
901.331	0.0164560
901.409	0.0163275
901.487	0.0164523
901.565	0.0164237
901.643	0.0166062
901.721	0.0164383
901.799	0.0164948
901.878	0.0165889
901.956	0.0164138
902.034	0.0165830
902.112	0.0164458
902.190	0.0165759
902.268	0.0165292
902.346	0.0164757
902.424	0.0164704
902.503	0.0164008
902.581	0.0164740
902.659	0.0164877
902.737	0.0164246
902.815	0.0163383
902.893	0.0163623
902.971	0.0164688
903.049	0.0165530
903.128	0.0164606
903.206	0.0164052
903.284	0.0165580
903.362	0.0165810
903.440	0.0165916
903.518	0.0166291
903.596	0.0166155
903.674	0.0164846
903.753	0.0166470
903.831	0.0165740
903.909	0.0164601
903.987	0.0165979
904.065	0.0165026
904.143	0.0164687
904.221	0.0165622
904.299	0.0164751
904.378	0.0165102
904.456	0.0164716
904.534	0.0166156
904.612	0.0164133
904.690	0.0163392
904.768	0.0163192
904.846	0.0164627
904.924	0.0165567
905.003	0.0163319
905.081	0.0163689
905.159	0.0162404
905.237	0.0162403
905.315	0.0164615
905.393	0.0164755
905.471	0.0163242
905.549	0.0163374
905.628	0.0164906
905.706	0.0164864
905.784	0.0163568
905.862	0.0163142
905.940	0.0164010
906.018	0.0165279
906.096	0.0164888
906.174	0.0164720
906.253	0.0165450
906.331	0.0164953
906.409	0.0163293
906.487	0.0165672
906.565	0.0164573
906.643	0.0164566
906.721	0.0163121
906.799	0.0164022
906.878	0.0163891
906.956	0.0163950
907.034	0.0163734
907.112	0.0165532
907.190	0.0164275
907.268	0.0163370
907.346	0.0164304
907.424	0.0164760
907.503	0.0165195
907.581	0.0165060
907.659	0.0164684
907.737	0.0165915
907.815	0.0164442
907.893	0.0164438
907.971	0.0165936
908.049	0.0166077
908.128	0.0166749
908.206	0.0166412
908.284	0.0166151
908.362	0.0166353
908.440	0.0165752
908.518	0.0165311
908.596	0.0164557
908.674	0.0164845
908.753	0.0164745
908.831	0.0164589
908.909	0.0165504
908.987	0.0165022
909.065	0.0164219
909.143	0.0163402
909.221	0.0163503
909.299	0.0164520
909.378	0.0164527
909.456	0.0164603
909.534	0.0164143
909.612	0.0164049
909.690	0.0164237
909.768	0.0163387
909.846	0.0163748
909.924	0.0164260
910.003	0.0164201
910.081	0.0164678
910.159	0.0163255
910.237	0.0162787
910.315	0.0163219
910.393	0.0164144
910.471	0.0162962
910.549	0.0163571
910.628	0.0164844
910.706	0.0164408
910.784	0.0164684
910.862	0.0165811
910.940	0.0164674
911.018	0.0164185
911.096	0.0164584
911.174	0.0164651
911.253	0.0163517
911.331	0.0164449
911.409	0.0164604
911.487	0.0163726
911.565	0.0164923
911.643	0.0164780
911.721	0.0164622
911.799	0.0162925
911.878	0.0162826
911.956	0.0164761
912.034	0.0164693
912.112	0.0165777
912.190	0.0165173
912.268	0.0164069
912.346	0.0166645
912.424	0.0165785
912.503	0.0166254
912.581	0.0164378
912.659	0.0166728
912.737	0.0166006
912.815	0.0165407
912.893	0.0164925
912.971	0.0165921
913.049	0.0165480
913.128	0.0164403
913.206	0.0165244
913.284	0.0164622
913.362	0.0165010
913.440	0.0164214
913.518	0.0164594
913.596	0.0164615
913.674	0.0164722
913.753	0.0164574
913.831	0.0163573
913.909	0.0163890
913.987	0.0164314
914.065	0.0164260
914.143	0.0164345
914.221	0.0165352
914.299	0.0165391
914.378	0.0165241
914.456	0.0165565
914.534	0.0165958
914.612	0.0164108
914.690	0.0165533
914.768	0.0166577
914.846	0.0165863
914.924	0.0165781
915.003	0.0167014
915.081	0.0166660
915.159	0.0165530
915.237	0.0165433
915.315	0.0164884
915.393	0.0165387
915.471	0.0164796
915.549	0.0165022
915.628	0.0163607
915.706	0.0163614
915.784	0.0163122
915.862	0.0164790
915.940	0.0162947
916.018	0.0161965
916.096	0.0161600
916.174	0.0162624
916.253	0.0161534
916.331	0.0161482
916.409	0.0162389
916.487	0.0162608
916.565	0.0162373
916.643	0.0163710
916.721	0.0163380
916.799	0.0164925
916.878	0.0163785
916.956	0.0164252
917.034	0.0164818
917.112	0.0164320
917.190	0.0164779
917.268	0.0165689
917.346	0.0166471
917.424	0.0167014
917.503	0.0166388
917.581	0.0166045
917.659	0.0166430
917.737	0.0168102
917.815	0.0166969
917.893	0.0166376
917.971	0.0165541
918.049	0.0165616
918.128	0.0165241
918.206	0.0164962
918.284	0.0163341
918.362	0.0165369
918.440	0.0164524
918.518	0.0166029
918.596	0.0164518
918.674	0.0165021
918.753	0.0164944
918.831	0.0165210
918.909	0.0165414
918.987	0.0164899
919.065	0.0163511
919.143	0.0165039
919.221	0.0166888
919.299	0.0163956
919.378	0.0164023
919.456	0.0163830
919.534	0.0166006
919.612	0.0165665
919.690	0.0166367
919.768	0.0166065
919.846	0.0166384
919.924	0.0163686
920.003	0.0164220
920.081	0.0165331
920.159	0.0164814
920.237	0.0165665
920.315	0.0164673
920.393	0.0164072
920.471	0.0165137
920.549	0.0165376
920.628	0.0163858
920.706	0.0163705
920.784	0.0163969
920.862	0.0164591
920.940	0.0164655
921.018	0.0165170
921.096	0.0164396
921.174	0.0163288
921.253	0.0163788
921.331	0.0163329
921.409	0.0164739
921.487	0.0164598
921.565	0.0163699
921.643	0.0163868
921.721	0.0164516
921.799	0.0163961
921.878	0.0163339
921.956	0.0165241
922.034	0.0163694
922.112	0.0163303
922.190	0.0163905
922.268	0.0163578
922.346	0.0163492
922.424	0.0163126
922.503	0.0164159
922.581	0.0164509
922.659	0.0163588
922.737	0.0164387
922.815	0.0164526
922.893	0.0163885
922.971	0.0164986
923.049	0.0163896
923.128	0.0163660
923.206	0.0165516
923.284	0.0164022
923.362	0.0164195
923.440	0.0165353
923.518	0.0163634
923.596	0.0165306
923.674	0.0164507
923.753	0.0165052
923.831	0.0164856
923.909	0.0165857
923.987	0.0165014
924.065	0.0164668
924.143	0.0166680
924.221	0.0165517
924.299	0.0164646
924.378	0.0165354
924.456	0.0165449
924.534	0.0164429
924.612	0.0163722
924.690	0.0162882
924.768	0.0162418
924.846	0.0163258
924.924	0.0162862
925.003	0.0164034
925.081	0.0163629
925.159	0.0162925
925.237	0.0163448
925.315	0.0162367
925.393	0.0163569
925.471	0.0163113
925.549	0.0163630
925.628	0.0163352
925.706	0.0163839
925.784	0.0164919
925.862	0.0165310
925.940	0.0164238
926.018	0.0165414
926.096	0.0167257
926.174	0.0166213
926.253	0.0167522
926.331	0.0166717
926.409	0.0166588
926.487	0.0165473
926.565	0.0166039
926.643	0.0165406
926.721	0.0166147
926.799	0.0165067
926.878	0.0165917
926.956	0.0165257
927.034	0.0162918
927.112	0.0164378
927.190	0.0164941
927.268	0.0165827
927.346	0.0163777
927.424	0.0162998
927.503	0.0163148
927.581	0.0162960
927.659	0.0163004
927.737	0.0162621
927.815	0.0163335
927.893	0.0163243
927.971	0.0164055
928.049	0.0164658
928.128	0.0163994
928.206	0.0164050
928.284	0.0165361
928.362	0.0165478
928.440	0.0164954
928.518	0.0163726
928.596	0.0163142
928.674	0.0164491
928.753	0.0165736
928.831	0.0164068
928.909	0.0164401
928.987	0.0163795
929.065	0.0163908
929.143	0.0163195
929.221	0.0163291
929.299	0.0163780
929.378	0.0162589
929.456	0.0162698
929.534	0.0161614
929.612	0.0163163
929.690	0.0163248
929.768	0.0162731
929.846	0.0164284
929.924	0.0163865
930.003	0.0163127
930.081	0.0164911
930.159	0.0164584
930.237	0.0164521
930.315	0.0165291
930.393	0.0163922
930.471	0.0164861
930.549	0.0166093
930.628	0.0165012
930.706	0.0165747
930.784	0.0166006
930.862	0.0165421
930.940	0.0165123
931.018	0.0164866
931.096	0.0164630
931.174	0.0164552
931.253	0.0165097
931.331	0.0164109
931.409	0.0164524
931.487	0.0164211
931.565	0.0164700
931.643	0.0165701
931.721	0.0164667
931.799	0.0163381
931.878	0.0163960
931.956	0.0164271
932.034	0.0164934
932.112	0.0162914
932.190	0.0163902
932.268	0.0164227
932.346	0.0165361
932.424	0.0164639
932.503	0.0163298
932.581	0.0163814
932.659	0.0163834
932.737	0.0164633
932.815	0.0164410
932.893	0.0165205
932.971	0.0164307
933.049	0.0164548
933.128	0.0163799
933.206	0.0163885
933.284	0.0164980
933.362	0.0163673
933.440	0.0164878
933.518	0.0163442
933.596	0.0164222
933.674	0.0164730
933.753	0.0163749
933.831	0.0163320
933.909	0.0163095
933.987	0.0163535
934.065	0.0163689
934.143	0.0162036
934.221	0.0162723
934.299	0.0160793
934.378	0.0163009
934.456	0.0164513
934.534	0.0163418
934.612	0.0163717
934.690	0.0163518
934.768	0.0164453
934.846	0.0163542
934.924	0.0163240
935.003	0.0163960
935.081	0.0164865
935.159	0.0164874
935.237	0.0164649
935.315	0.0164546
935.393	0.0163557
935.471	0.0164182
935.549	0.0164304
935.628	0.0163699
935.706	0.0163228
935.784	0.0164574
935.862	0.0164278
935.940	0.0162637
936.018	0.0165020
936.096	0.0163879
936.174	0.0163335
936.253	0.0162298
936.331	0.0162976
936.409	0.0163668
936.487	0.0164179
936.565	0.0165761
936.643	0.0163216
936.721	0.0164579
936.799	0.0165668
936.878	0.0164265
936.956	0.0166524
937.034	0.0166618
937.112	0.0166348
937.190	0.0165765
937.268	0.0165454
937.346	0.0165284
937.424	0.0166924
937.503	0.0165556
937.581	0.0165617
937.659	0.0166070
937.737	0.0165208
937.815	0.0164371
937.893	0.0164641
937.971	0.0165715
938.049	0.0164280
938.128	0.0164169
938.206	0.0163208
938.284	0.0164810
938.362	0.0164613
938.440	0.0163196
938.518	0.0164756
938.596	0.0165321
938.674	0.0164174
938.753	0.0164211
938.831	0.0163757
938.909	0.0162417
938.987	0.0164539
939.065	0.0164151
939.143	0.0163596
939.221	0.0162695
939.299	0.0164571
939.378	0.0162911
939.456	0.0163159
939.534	0.0163449
939.612	0.0163960
939.690	0.0163682
939.768	0.0163563
939.846	0.0162486
939.924	0.0163618
940.003	0.0163766
940.081	0.0163245
940.159	0.0163826
940.237	0.0164027
940.315	0.0163528
940.393	0.0163992
940.471	0.0165888
940.549	0.0164800
940.628	0.0163686
940.706	0.0164367
940.784	0.0165342
940.862	0.0164003
940.940	0.0164296
941.018	0.0165688
941.096	0.0164315
941.174	0.0164052
941.253	0.0164973
941.331	0.0163278
941.409	0.0164633
941.487	0.0163728
941.565	0.0164297
941.643	0.0164487
941.721	0.0163923
941.799	0.0163577
941.878	0.0164198
941.956	0.0164185
942.034	0.0164563
942.112	0.0164176
942.190	0.0163461
942.268	0.0165496
942.346	0.0164239
942.424	0.0165079
942.503	0.0164175
942.581	0.0164475
942.659	0.0165211
942.737	0.0164506
942.815	0.0164430
942.893	0.0163292
942.971	0.0164273
943.049	0.0165232
943.128	0.0165013
943.206	0.0164544
943.284	0.0163587
943.362	0.0164051
943.440	0.0163909
943.518	0.0164493
943.596	0.0165826
943.674	0.0164192
943.753	0.0164413
943.831	0.0163599
943.909	0.0163494
943.987	0.0165728
944.065	0.0164487
944.143	0.0165227
944.221	0.0166992
944.299	0.0164563
944.378	0.0165549
944.456	0.0164078
944.534	0.0164361
944.612	0.0164417
944.690	0.0165352
944.768	0.0163967
944.846	0.0163827
944.924	0.0163661
945.003	0.0164447
945.081	0.0164307
945.159	0.0164824
945.237	0.0163144
945.315	0.0162041
945.393	0.0162653
945.471	0.0162773
945.549	0.0163522
945.628	0.0163083
945.706	0.0162338
945.784	0.0163717
945.862	0.0163605
945.940	0.0162421
946.018	0.0163403
946.096	0.0162585
946.174	0.0163211
946.253	0.0165084
946.331	0.0163917
946.409	0.0163471
946.487	0.0163602
946.565	0.0162534
946.643	0.0165051
946.721	0.0165460
946.799	0.0162956
946.878	0.0163528
946.956	0.0163896
947.034	0.0163330
947.112	0.0164230
947.190	0.0165163
947.268	0.0164333
947.346	0.0165318
947.424	0.0165721
947.503	0.0165293
947.581	0.0163371
947.659	0.0163753
947.737	0.0163696
947.815	0.0163219
947.893	0.0163247
947.971	0.0164403
948.049	0.0163667
948.128	0.0165167
948.206	0.0162566
948.284	0.0162438
948.362	0.0164601
948.440	0.0164122
948.518	0.0164784
948.596	0.0163688
948.674	0.0163793
948.753	0.0164302
948.831	0.0163177
948.909	0.0164922
948.987	0.0164451
949.065	0.0164926
949.143	0.0165429
949.221	0.0163963
949.299	0.0164507
949.378	0.0164499
949.456	0.0164587
949.534	0.0163992
949.612	0.0164877
949.690	0.0166107
949.768	0.0165498
949.846	0.0165240
949.924	0.0166128
