06/29/2022	23:05:41	Ver.	4.1	UNKNOWN
Optical Delay	630.002507	Delta X		0.078125	Sweeps	1	Scan Rate	0/0
Coordinates	Axis 1	NaN	Axis 2	NaN	Axis 3	NaN	Axis 4	NaN	Axis 5	NaN	Axis 6	0.000000
TX Power	0.000000	RX Power	0.000000

630.003	0.0164066
630.081	0.0164016
630.159	0.0164526
630.237	0.0164816
630.315	0.0163225
630.393	0.0163988
630.471	0.0163612
630.549	0.0164330
630.628	0.0164804
630.706	0.0163635
630.784	0.0163826
630.862	0.0164720
630.940	0.0163851
631.018	0.0163235
631.096	0.0164416
631.174	0.0165189
631.253	0.0163255
631.331	0.0163323
631.409	0.0163718
631.487	0.0164278
631.565	0.0162463
631.643	0.0164028
631.721	0.0164272
631.799	0.0164455
631.878	0.0163416
631.956	0.0163332
632.034	0.0163432
632.112	0.0164750
632.190	0.0163936
632.268	0.0164941
632.346	0.0163513
632.424	0.0163884
632.503	0.0164666
632.581	0.0163114
632.659	0.0163236
632.737	0.0165601
632.815	0.0164737
632.893	0.0163590
632.971	0.0161475
633.049	0.0163606
633.128	0.0164483
633.206	0.0162900
633.284	0.0164107
633.362	0.0163369
633.440	0.0163488
633.518	0.0164564
633.596	0.0163681
633.674	0.0164037
633.753	0.0163992
633.831	0.0164687
633.909	0.0163519
633.987	0.0164572
634.065	0.0162666
634.143	0.0164207
634.221	0.0165110
634.299	0.0164907
634.378	0.0163473
634.456	0.0163853
634.534	0.0164410
634.612	0.0163361
634.690	0.0164293
634.768	0.0163962
634.846	0.0162322
634.924	0.0165177
635.003	0.0163756
635.081	0.0163437
635.159	0.0164001
635.237	0.0164893
635.315	0.0164653
635.393	0.0163992
635.471	0.0163747
635.549	0.0164819
635.628	0.0164603
635.706	0.0163428
635.784	0.0163950
635.862	0.0164373
635.940	0.0165327
636.018	0.0163206
636.096	0.0163684
636.174	0.0165056
636.253	0.0162503
636.331	0.0163117
636.409	0.0164137
636.487	0.0163457
636.565	0.0163063
636.643	0.0164487
636.721	0.0165221
636.799	0.0164236
636.878	0.0165349
636.956	0.0163930
637.034	0.0162534
637.112	0.0163692
637.190	0.0164260
637.268	0.0163509
637.346	0.0165144
637.424	0.0164151
637.503	0.0163079
637.581	0.0163772
637.659	0.0165434
637.737	0.0164584
637.815	0.0164509
637.893	0.0164278
637.971	0.0163654
638.049	0.0164163
638.128	0.0164048
638.206	0.0165092
638.284	0.0165008
638.362	0.0163745
638.440	0.0164552
638.518	0.0163203
638.596	0.0165026
638.674	0.0166134
638.753	0.0165184
638.831	0.0164436
638.909	0.0165559
638.987	0.0164717
639.065	0.0164234
639.143	0.0164314
639.221	0.0164271
639.299	0.0163421
639.378	0.0164001
639.456	0.0164397
639.534	0.0164178
639.612	0.0164589
639.690	0.0164903
639.768	0.0164061
639.846	0.0164584
639.924	0.0164166
640.003	0.0162688
640.081	0.0164676
640.159	0.0164418
640.237	0.0164298
640.315	0.0164152
640.393	0.0164349
640.471	0.0164342
640.549	0.0165610
640.628	0.0163613
640.706	0.0164364
640.784	0.0163949
640.862	0.0163468
640.940	0.0165144
641.018	0.0164243
641.096	0.0164854
641.174	0.0165520
641.253	0.0163907
641.331	0.0164725
641.409	0.0162761
641.487	0.0164700
641.565	0.0164772
641.643	0.0165429
641.721	0.0165384
641.799	0.0163857
641.878	0.0163930
641.956	0.0165527
642.034	0.0165393
642.112	0.0164692
642.190	0.0164412
642.268	0.0163248
642.346	0.0164318
642.424	0.0164881
642.503	0.0164944
642.581	0.0163504
642.659	0.0164792
642.737	0.0162892
642.815	0.0163698
642.893	0.0163965
642.971	0.0163503
643.049	0.0164175
643.128	0.0163643
643.206	0.0164610
643.284	0.0164799
643.362	0.0163672
643.440	0.0163987
643.518	0.0164307
643.596	0.0164338
643.674	0.0163607
643.753	0.0163904
643.831	0.0164491
643.909	0.0163448
643.987	0.0163422
644.065	0.0164670
644.143	0.0163422
644.221	0.0164816
644.299	0.0164857
644.378	0.0164362
644.456	0.0164084
644.534	0.0163599
644.612	0.0163780
644.690	0.0163244
644.768	0.0164335
644.846	0.0163648
644.924	0.0163877
645.003	0.0164692
645.081	0.0163042
645.159	0.0164512
645.237	0.0162876
645.315	0.0163122
645.393	0.0162747
645.471	0.0163475
645.549	0.0162706
645.628	0.0162695
645.706	0.0162529
645.784	0.0162888
645.862	0.0163860
645.940	0.0163904
646.018	0.0164258
646.096	0.0164828
646.174	0.0163774
646.253	0.0163479
646.331	0.0164919
646.409	0.0163477
646.487	0.0164542
646.565	0.0163438
646.643	0.0163641
646.721	0.0163942
646.799	0.0162610
646.878	0.0164247
646.956	0.0163755
647.034	0.0162337
647.112	0.0164311
647.190	0.0162789
647.268	0.0162260
647.346	0.0163230
647.424	0.0163635
647.503	0.0164277
647.581	0.0164787
647.659	0.0163723
647.737	0.0162894
647.815	0.0164130
647.893	0.0163495
647.971	0.0164335
648.049	0.0164678
648.128	0.0164273
648.206	0.0163964
648.284	0.0164862
648.362	0.0164014
648.440	0.0163249
648.518	0.0164770
648.596	0.0164402
648.674	0.0164520
648.753	0.0165376
648.831	0.0163659
648.909	0.0163374
648.987	0.0164166
649.065	0.0163551
649.143	0.0165559
649.221	0.0164867
649.299	0.0164270
649.378	0.0163602
649.456	0.0162875
649.534	0.0164055
649.612	0.0164191
649.690	0.0164297
649.768	0.0163997
649.846	0.0164362
649.924	0.0164941
650.003	0.0164925
650.081	0.0163435
650.159	0.0163350
650.237	0.0163279
650.315	0.0163658
650.393	0.0165308
650.471	0.0163998
650.549	0.0164411
650.628	0.0164349
650.706	0.0164321
650.784	0.0164267
650.862	0.0165020
650.940	0.0164169
651.018	0.0162260
651.096	0.0164183
651.174	0.0164579
651.253	0.0164848
651.331	0.0162997
651.409	0.0164341
651.487	0.0163356
651.565	0.0163689
651.643	0.0163406
651.721	0.0163291
651.799	0.0164587
651.878	0.0164870
651.956	0.0164219
652.034	0.0164063
652.112	0.0164202
652.190	0.0165109
652.268	0.0163659
652.346	0.0163787
652.424	0.0164582
652.503	0.0164198
652.581	0.0164746
652.659	0.0165319
652.737	0.0164687
652.815	0.0164747
652.893	0.0163599
652.971	0.0164420
653.049	0.0164056
653.128	0.0162946
653.206	0.0163694
653.284	0.0164863
653.362	0.0165178
653.440	0.0164005
653.518	0.0164132
653.596	0.0165008
653.674	0.0164252
653.753	0.0165446
653.831	0.0163563
653.909	0.0163814
653.987	0.0164266
654.065	0.0163782
654.143	0.0164717
654.221	0.0164600
654.299	0.0163825
654.378	0.0164095
654.456	0.0165524
654.534	0.0164187
654.612	0.0162883
654.690	0.0162919
654.768	0.0164745
654.846	0.0164670
654.924	0.0164374
655.003	0.0163691
655.081	0.0163557
655.159	0.0164219
655.237	0.0163395
655.315	0.0165602
655.393	0.0164100
655.471	0.0163315
655.549	0.0164056
655.628	0.0165623
655.706	0.0163847
655.784	0.0163736
655.862	0.0163929
655.940	0.0164031
656.018	0.0164455
656.096	0.0164628
656.174	0.0164180
656.253	0.0163855
656.331	0.0164845
656.409	0.0165479
656.487	0.0164950
656.565	0.0163141
656.643	0.0163934
656.721	0.0163870
656.799	0.0163905
656.878	0.0164563
656.956	0.0164166
657.034	0.0164292
657.112	0.0164141
657.190	0.0165684
657.268	0.0163307
657.346	0.0164138
657.424	0.0165749
657.503	0.0166042
657.581	0.0165977
657.659	0.0164211
657.737	0.0162776
657.815	0.0164303
657.893	0.0166149
657.971	0.0165350
658.049	0.0164752
658.128	0.0165192
658.206	0.0164232
658.284	0.0164273
658.362	0.0164183
658.440	0.0164587
658.518	0.0163254
658.596	0.0164330
658.674	0.0165074
658.753	0.0163094
658.831	0.0164309
658.909	0.0163332
658.987	0.0163647
659.065	0.0165829
659.143	0.0163537
659.221	0.0164525
659.299	0.0165738
659.378	0.0165073
659.456	0.0164757
659.534	0.0164187
659.612	0.0163358
659.690	0.0164828
659.768	0.0163664
659.846	0.0164703
659.924	0.0165012
660.003	0.0164081
660.081	0.0164415
660.159	0.0163750
660.237	0.0163537
660.315	0.0164880
660.393	0.0164469
660.471	0.0163324
660.549	0.0164073
660.628	0.0163877
660.706	0.0163780
660.784	0.0164740
660.862	0.0163577
660.940	0.0164433
661.018	0.0163750
661.096	0.0163937
661.174	0.0163936
661.253	0.0162869
661.331	0.0165227
661.409	0.0165115
661.487	0.0163902
661.565	0.0164554
661.643	0.0163467
661.721	0.0165210
661.799	0.0164519
661.878	0.0164380
661.956	0.0164098
662.034	0.0164618
662.112	0.0162486
662.190	0.0164839
662.268	0.0165817
662.346	0.0163464
662.424	0.0163027
662.503	0.0163749
662.581	0.0164017
662.659	0.0163188
662.737	0.0163938
662.815	0.0164090
662.893	0.0163964
662.971	0.0164414
663.049	0.0164909
663.128	0.0163962
663.206	0.0164271
663.284	0.0165222
663.362	0.0164447
663.440	0.0164729
663.518	0.0164858
663.596	0.0163954
663.674	0.0163540
663.753	0.0165677
663.831	0.0164825
663.909	0.0163737
663.987	0.0163846
664.065	0.0164417
664.143	0.0164046
664.221	0.0164979
664.299	0.0163723
664.378	0.0164847
664.456	0.0164127
664.534	0.0164938
664.612	0.0165130
664.690	0.0163912
664.768	0.0164329
664.846	0.0163271
664.924	0.0165002
665.003	0.0164695
665.081	0.0163541
665.159	0.0164096
665.237	0.0164681
665.315	0.0164807
665.393	0.0163708
665.471	0.0163940
665.549	0.0164168
665.628	0.0161824
665.706	0.0163661
665.784	0.0165822
665.862	0.0162447
665.940	0.0162275
666.018	0.0164040
666.096	0.0164886
666.174	0.0163480
666.253	0.0163650
666.331	0.0163456
666.409	0.0164293
666.487	0.0164234
666.565	0.0163147
666.643	0.0163924
666.721	0.0164310
666.799	0.0163998
666.878	0.0162881
666.956	0.0164848
667.034	0.0164462
667.112	0.0164352
667.190	0.0164556
667.268	0.0163268
667.346	0.0163680
667.424	0.0163461
667.503	0.0164323
667.581	0.0165125
667.659	0.0163442
667.737	0.0165715
667.815	0.0163789
667.893	0.0164143
667.971	0.0164583
668.049	0.0164689
668.128	0.0164440
668.206	0.0164175
668.284	0.0165038
668.362	0.0165105
668.440	0.0164657
668.518	0.0164037
668.596	0.0164497
668.674	0.0164471
668.753	0.0165054
668.831	0.0166063
668.909	0.0164726
668.987	0.0164689
669.065	0.0164210
669.143	0.0165647
669.221	0.0165773
669.299	0.0165096
669.378	0.0166333
669.456	0.0164689
669.534	0.0165469
669.612	0.0164652
669.690	0.0163766
669.768	0.0164356
669.846	0.0163805
669.924	0.0164723
670.003	0.0163762
670.081	0.0163320
670.159	0.0164085
670.237	0.0163830
670.315	0.0163869
670.393	0.0164322
670.471	0.0164198
670.549	0.0162866
670.628	0.0163105
670.706	0.0164267
670.784	0.0163949
670.862	0.0164841
670.940	0.0164982
671.018	0.0164558
671.096	0.0163747
671.174	0.0164669
671.253	0.0164202
671.331	0.0165067
671.409	0.0163542
671.487	0.0164323
671.565	0.0163927
671.643	0.0163824
671.721	0.0163853
671.799	0.0163839
671.878	0.0163145
671.956	0.0164008
672.034	0.0164281
672.112	0.0164851
672.190	0.0163825
672.268	0.0164552
672.346	0.0164328
672.424	0.0165311
672.503	0.0165221
672.581	0.0165204
672.659	0.0165820
672.737	0.0165705
672.815	0.0164440
672.893	0.0163746
672.971	0.0164024
673.049	0.0164147
673.128	0.0165749
673.206	0.0163887
673.284	0.0163343
673.362	0.0163311
673.440	0.0164732
673.518	0.0163111
673.596	0.0162315
673.674	0.0163419
673.753	0.0163464
673.831	0.0163680
673.909	0.0164895
673.987	0.0166537
674.065	0.0165069
674.143	0.0165253
674.221	0.0165240
674.299	0.0165203
674.378	0.0165714
674.456	0.0166196
674.534	0.0165873
674.612	0.0164853
674.690	0.0164124
674.768	0.0165337
674.846	0.0164819
674.924	0.0164289
675.003	0.0165303
675.081	0.0163056
675.159	0.0163828
675.237	0.0164635
675.315	0.0165331
675.393	0.0163918
675.471	0.0164303
675.549	0.0164420
675.628	0.0165419
675.706	0.0164537
675.784	0.0165649
675.862	0.0164898
675.940	0.0165039
676.018	0.0165263
676.096	0.0164984
676.174	0.0164691
676.253	0.0165397
676.331	0.0163694
676.409	0.0165723
676.487	0.0164937
676.565	0.0165246
676.643	0.0164386
676.721	0.0164978
676.799	0.0163921
676.878	0.0164103
676.956	0.0163815
677.034	0.0163180
677.112	0.0163765
677.190	0.0164069
677.268	0.0166312
677.346	0.0165639
677.424	0.0165985
677.503	0.0165160
677.581	0.0165401
677.659	0.0165765
677.737	0.0163774
677.815	0.0164964
677.893	0.0165423
677.971	0.0165656
678.049	0.0166006
678.128	0.0164861
678.206	0.0164847
678.284	0.0164492
678.362	0.0163918
678.440	0.0163719
678.518	0.0164799
678.596	0.0164812
678.674	0.0163730
678.753	0.0161449
678.831	0.0163704
678.909	0.0163567
678.987	0.0163122
679.065	0.0162527
679.143	0.0164816
679.221	0.0164449
679.299	0.0165009
679.378	0.0164233
679.456	0.0165259
679.534	0.0164684
679.612	0.0164900
679.690	0.0164006
679.768	0.0164658
679.846	0.0164758
679.924	0.0164558
680.003	0.0164810
680.081	0.0164526
680.159	0.0163641
680.237	0.0163996
680.315	0.0164053
680.393	0.0163847
680.471	0.0162854
680.549	0.0162477
680.628	0.0163424
680.706	0.0163533
680.784	0.0163752
680.862	0.0164288
680.940	0.0164353
681.018	0.0163422
681.096	0.0165879
681.174	0.0165778
681.253	0.0164929
681.331	0.0164558
681.409	0.0164674
681.487	0.0165214
681.565	0.0165338
681.643	0.0164650
681.721	0.0164835
681.799	0.0165232
681.878	0.0164611
681.956	0.0164347
682.034	0.0165520
682.112	0.0163363
682.190	0.0163501
682.268	0.0162628
682.346	0.0163255
682.424	0.0163456
682.503	0.0163271
682.581	0.0165260
682.659	0.0163369
682.737	0.0162946
682.815	0.0163355
682.893	0.0163632
682.971	0.0163214
683.049	0.0164103
683.128	0.0164433
683.206	0.0164590
683.284	0.0162939
683.362	0.0165733
683.440	0.0165079
683.518	0.0164984
683.596	0.0163674
683.674	0.0165545
683.753	0.0165333
683.831	0.0163887
683.909	0.0163422
683.987	0.0164940
684.065	0.0164479
684.143	0.0165215
684.221	0.0162267
684.299	0.0163343
684.378	0.0164737
684.456	0.0163299
684.534	0.0162740
684.612	0.0163040
684.690	0.0163799
684.768	0.0164760
684.846	0.0164790
684.924	0.0164083
685.003	0.0165392
685.081	0.0164991
685.159	0.0166069
685.237	0.0165301
685.315	0.0165372
685.393	0.0165339
685.471	0.0165575
685.549	0.0166264
685.628	0.0166241
685.706	0.0163363
685.784	0.0164907
685.862	0.0163752
685.940	0.0163449
686.018	0.0162897
686.096	0.0163175
686.174	0.0163506
686.253	0.0164732
686.331	0.0162933
686.409	0.0165112
686.487	0.0164491
686.565	0.0165397
686.643	0.0165649
686.721	0.0164911
686.799	0.0165163
686.878	0.0165747
686.956	0.0165592
687.034	0.0166129
687.112	0.0164649
687.190	0.0165564
687.268	0.0165295
687.346	0.0165073
687.424	0.0163640
687.503	0.0165096
687.581	0.0164430
687.659	0.0163599
687.737	0.0163712
687.815	0.0163609
687.893	0.0164371
687.971	0.0164816
688.049	0.0164722
688.128	0.0164497
688.206	0.0164520
688.284	0.0165311
688.362	0.0165765
688.440	0.0165378
688.518	0.0164439
688.596	0.0164754
688.674	0.0164759
688.753	0.0163847
688.831	0.0164895
688.909	0.0163545
688.987	0.0164890
689.065	0.0164219
689.143	0.0163725
689.221	0.0165112
689.299	0.0163468
689.378	0.0164261
689.456	0.0163936
689.534	0.0164803
689.612	0.0163300
689.690	0.0164995
689.768	0.0163206
689.846	0.0164440
689.924	0.0165556
690.003	0.0164710
690.081	0.0164807
690.159	0.0166187
690.237	0.0165242
690.315	0.0166137
690.393	0.0165018
690.471	0.0165628
690.549	0.0163249
690.628	0.0164450
690.706	0.0164147
690.784	0.0162619
690.862	0.0164054
690.940	0.0164778
691.018	0.0163728
691.096	0.0163060
691.174	0.0163941
691.253	0.0162714
691.331	0.0163718
691.409	0.0164391
691.487	0.0164230
691.565	0.0164928
691.643	0.0164969
691.721	0.0164362
691.799	0.0165474
691.878	0.0165496
691.956	0.0164527
692.034	0.0165844
692.112	0.0165627
692.190	0.0165398
692.268	0.0165836
692.346	0.0165990
692.424	0.0165147
692.503	0.0164594
692.581	0.0164381
692.659	0.0164989
692.737	0.0163677
692.815	0.0164005
692.893	0.0163002
692.971	0.0162428
693.049	0.0163978
693.128	0.0163814
693.206	0.0163263
693.284	0.0163371
693.362	0.0164954
693.440	0.0163468
693.518	0.0163657
693.596	0.0164950
693.674	0.0166103
693.753	0.0164478
693.831	0.0164563
693.909	0.0164547
693.987	0.0165614
694.065	0.0166032
694.143	0.0166093
694.221	0.0165232
694.299	0.0163264
694.378	0.0163587
694.456	0.0164078
694.534	0.0163197
694.612	0.0163019
694.690	0.0163319
694.768	0.0163389
694.846	0.0163342
694.924	0.0162795
695.003	0.0163332
695.081	0.0163467
695.159	0.0164684
695.237	0.0164352
695.315	0.0163829
695.393	0.0164275
695.471	0.0165633
695.549	0.0165089
695.628	0.0163083
695.706	0.0164194
695.784	0.0165630
695.862	0.0164834
695.940	0.0164317
696.018	0.0165031
696.096	0.0163663
696.174	0.0163722
696.253	0.0165672
696.331	0.0163752
696.409	0.0162411
696.487	0.0164281
696.565	0.0163927
696.643	0.0163118
696.721	0.0162830
696.799	0.0162917
696.878	0.0164402
696.956	0.0164034
697.034	0.0163554
697.112	0.0163430
697.190	0.0165256
697.268	0.0163656
697.346	0.0164663
697.424	0.0165267
697.503	0.0166165
697.581	0.0165847
697.659	0.0164606
697.737	0.0165353
697.815	0.0163784
697.893	0.0166845
697.971	0.0165510
698.049	0.0164747
698.128	0.0164171
698.206	0.0164542
698.284	0.0164834
698.362	0.0163909
698.440	0.0163828
698.518	0.0164291
698.596	0.0163937
698.674	0.0164420
698.753	0.0164334
698.831	0.0164916
698.909	0.0165582
698.987	0.0164339
699.065	0.0165152
699.143	0.0164651
699.221	0.0164524
699.299	0.0165226
699.378	0.0164598
699.456	0.0163444
699.534	0.0164971
699.612	0.0163793
699.690	0.0165277
699.768	0.0163312
699.846	0.0163136
699.924	0.0164539
700.003	0.0164477
700.081	0.0164136
700.159	0.0163962
700.237	0.0165601
700.315	0.0165459
700.393	0.0164867
700.471	0.0164110
700.549	0.0165497
700.628	0.0166840
700.706	0.0165048
700.784	0.0165696
700.862	0.0165715
700.940	0.0164726
701.018	0.0165894
701.096	0.0166579
701.174	0.0164936
701.253	0.0166288
701.331	0.0165046
701.409	0.0164551
701.487	0.0163747
701.565	0.0164336
701.643	0.0162775
701.721	0.0163424
701.799	0.0163799
701.878	0.0162419
701.956	0.0161957
702.034	0.0162346
702.112	0.0162194
702.190	0.0163218
702.268	0.0163612
702.346	0.0163261
702.424	0.0164196
702.503	0.0163902
702.581	0.0164027
702.659	0.0164586
702.737	0.0164043
702.815	0.0164647
702.893	0.0165128
702.971	0.0164784
703.049	0.0165351
703.128	0.0165116
703.206	0.0165173
703.284	0.0164192
703.362	0.0163457
703.440	0.0166628
703.518	0.0166213
703.596	0.0164678
703.674	0.0164696
703.753	0.0165898
703.831	0.0166827
703.909	0.0166595
703.987	0.0166341
704.065	0.0165100
704.143	0.0165195
704.221	0.0166830
704.299	0.0165591
704.378	0.0165004
704.456	0.0165429
704.534	0.0163934
704.612	0.0163577
704.690	0.0163366
704.768	0.0163351
704.846	0.0163129
704.924	0.0162470
705.003	0.0162669
705.081	0.0163012
705.159	0.0161366
705.237	0.0162661
705.315	0.0163408
705.393	0.0162926
705.471	0.0163051
705.549	0.0161976
705.628	0.0164334
705.706	0.0163847
705.784	0.0163672
705.862	0.0164929
705.940	0.0165144
706.018	0.0165153
706.096	0.0165586
706.174	0.0164959
706.253	0.0165168
706.331	0.0167308
706.409	0.0165550
706.487	0.0166396
706.565	0.0166387
706.643	0.0166749
706.721	0.0164676
706.799	0.0164738
706.878	0.0165895
706.956	0.0165488
707.034	0.0164201
707.112	0.0164759
707.190	0.0165694
707.268	0.0164217
707.346	0.0162556
707.424	0.0162943
707.503	0.0164164
707.581	0.0163828
707.659	0.0163383
707.737	0.0164215
707.815	0.0162319
707.893	0.0165375
707.971	0.0163062
708.049	0.0164055
708.128	0.0164267
708.206	0.0163840
708.284	0.0163232
708.362	0.0165506
708.440	0.0165820
708.518	0.0164964
708.596	0.0164488
708.674	0.0163490
708.753	0.0164493
708.831	0.0165482
708.909	0.0164539
708.987	0.0165325
709.065	0.0164156
709.143	0.0164152
709.221	0.0164752
709.299	0.0165012
709.378	0.0165501
709.456	0.0165024
709.534	0.0164780
709.612	0.0164328
709.690	0.0164256
709.768	0.0163354
709.846	0.0164285
709.924	0.0164394
710.003	0.0164621
710.081	0.0164012
710.159	0.0163243
710.237	0.0161475
710.315	0.0163659
710.393	0.0164384
710.471	0.0163197
710.549	0.0163158
710.628	0.0163219
710.706	0.0163102
710.784	0.0164137
710.862	0.0164458
710.940	0.0163565
711.018	0.0162665
711.096	0.0164382
711.174	0.0164706
711.253	0.0162637
711.331	0.0164281
711.409	0.0164041
711.487	0.0164410
711.565	0.0163815
711.643	0.0164915
711.721	0.0164856
711.799	0.0164049
711.878	0.0165761
711.956	0.0166200
712.034	0.0165719
712.112	0.0163605
712.190	0.0165496
712.268	0.0165877
712.346	0.0166703
712.424	0.0163712
712.503	0.0165162
712.581	0.0164033
712.659	0.0163803
712.737	0.0163959
712.815	0.0166311
712.893	0.0164010
712.971	0.0164175
713.049	0.0164234
713.128	0.0163343
713.206	0.0162848
713.284	0.0163874
713.362	0.0164000
713.440	0.0164847
713.518	0.0163206
713.596	0.0162835
713.674	0.0165181
713.753	0.0164813
713.831	0.0164181
713.909	0.0163476
713.987	0.0164961
714.065	0.0165830
714.143	0.0164217
714.221	0.0163625
714.299	0.0164185
714.378	0.0165485
714.456	0.0164064
714.534	0.0164629
714.612	0.0163909
714.690	0.0164690
714.768	0.0165811
714.846	0.0165256
714.924	0.0163153
715.003	0.0164368
715.081	0.0165593
715.159	0.0166764
715.237	0.0165842
715.315	0.0165571
715.393	0.0165040
715.471	0.0167159
715.549	0.0165804
715.628	0.0166269
715.706	0.0164442
715.784	0.0164318
715.862	0.0163850
715.940	0.0164152
716.018	0.0163635
716.096	0.0162653
716.174	0.0162770
716.253	0.0161988
716.331	0.0161144
716.409	0.0161860
716.487	0.0159921
716.565	0.0162298
716.643	0.0162496
716.721	0.0161996
716.799	0.0162721
716.878	0.0163428
716.956	0.0163036
717.034	0.0164240
717.112	0.0165049
717.190	0.0166128
717.268	0.0167361
717.346	0.0167551
717.424	0.0169563
717.503	0.0168644
717.581	0.0170074
717.659	0.0169283
717.737	0.0169846
717.815	0.0169494
717.893	0.0169343
717.971	0.0165616
718.049	0.0165927
718.128	0.0166262
718.206	0.0166428
718.284	0.0163738
718.362	0.0161348
718.440	0.0160986
718.518	0.0159187
718.596	0.0159364
718.674	0.0158985
718.753	0.0157189
718.831	0.0156805
718.909	0.0157881
718.987	0.0157339
719.065	0.0157813
719.143	0.0158572
719.221	0.0158011
719.299	0.0158686
719.378	0.0159219
719.456	0.0160070
719.534	0.0162505
719.612	0.0163459
719.690	0.0162995
719.768	0.0163617
719.846	0.0166929
719.924	0.0168031
720.003	0.0168690
720.081	0.0168337
720.159	0.0170230
720.237	0.0170631
720.315	0.0171536
720.393	0.0170468
720.471	0.0171098
720.549	0.0171047
720.628	0.0170371
720.706	0.0172763
720.784	0.0171423
720.862	0.0170306
720.940	0.0170998
721.018	0.0169509
721.096	0.0169183
721.174	0.0168006
721.253	0.0167999
721.331	0.0166309
721.409	0.0166817
721.487	0.0165588
721.565	0.0163365
721.643	0.0162774
721.721	0.0162190
721.799	0.0160396
721.878	0.0159435
721.956	0.0158109
722.034	0.0157584
722.112	0.0157086
722.190	0.0154799
722.268	0.0156233
722.346	0.0154627
722.424	0.0154818
722.503	0.0155048
722.581	0.0153407
722.659	0.0154533
722.737	0.0154510
722.815	0.0156205
722.893	0.0157084
722.971	0.0159448
723.049	0.0160072
723.128	0.0162303
723.206	0.0164265
723.284	0.0166090
723.362	0.0167749
723.440	0.0167761
723.518	0.0171799
723.596	0.0174541
723.674	0.0172285
723.753	0.0174588
723.831	0.0175602
723.909	0.0176099
723.987	0.0175259
724.065	0.0174362
724.143	0.0173725
724.221	0.0173435
724.299	0.0173692
724.378	0.0171989
724.456	0.0168653
724.534	0.0169884
724.612	0.0168166
724.690	0.0166495
724.768	0.0166280
724.846	0.0164199
724.924	0.0164795
725.003	0.0163753
725.081	0.0162229
725.159	0.0160945
725.237	0.0161925
725.315	0.0160759
725.393	0.0159844
725.471	0.0159026
725.549	0.0158994
725.628	0.0159404
725.706	0.0159617
725.784	0.0159824
725.862	0.0158231
725.940	0.0159349
726.018	0.0159736
726.096	0.0160658
726.174	0.0159521
726.253	0.0161586
726.331	0.0163424
726.409	0.0162939
726.487	0.0163574
726.565	0.0165045
726.643	0.0164384
726.721	0.0165727
726.799	0.0165800
726.878	0.0165028
726.956	0.0166236
727.034	0.0167535
727.112	0.0167050
727.190	0.0167061
727.268	0.0167040
727.346	0.0167567
727.424	0.0167380
727.503	0.0168518
727.581	0.0168972
727.659	0.0167451
727.737	0.0166830
727.815	0.0166984
727.893	0.0166595
727.971	0.0167455
728.049	0.0167155
728.128	0.0165137
728.206	0.0164291
728.284	0.0164956
728.362	0.0165092
728.440	0.0164646
728.518	0.0163201
728.596	0.0162260
728.674	0.0162798
728.753	0.0162563
728.831	0.0161754
728.909	0.0162298
728.987	0.0162888
729.065	0.0161810
729.143	0.0161671
729.221	0.0163094
729.299	0.0162119
729.378	0.0163994
729.456	0.0164459
729.534	0.0164548
729.612	0.0164357
729.690	0.0165404
729.768	0.0164275
729.846	0.0166454
729.924	0.0165791
730.003	0.0165578
730.081	0.0163676
730.159	0.0162711
730.237	0.0163376
730.315	0.0163414
730.393	0.0161474
730.471	0.0160192
730.549	0.0160897
730.628	0.0161024
730.706	0.0161930
730.784	0.0160827
730.862	0.0160893
730.940	0.0161567
731.018	0.0160071
731.096	0.0162349
731.174	0.0161846
731.253	0.0161108
731.331	0.0163684
731.409	0.0164297
731.487	0.0165364
731.565	0.0166639
731.643	0.0167525
731.721	0.0166233
731.799	0.0169532
731.878	0.0170203
731.956	0.0170885
732.034	0.0171990
732.112	0.0170580
732.190	0.0171869
732.268	0.0173591
732.346	0.0171137
732.424	0.0171902
732.503	0.0170113
732.581	0.0170753
732.659	0.0167690
732.737	0.0168584
732.815	0.0168013
732.893	0.0166606
732.971	0.0163284
733.049	0.0162846
733.128	0.0160624
733.206	0.0159654
733.284	0.0159447
733.362	0.0158553
733.440	0.0157251
733.518	0.0156646
733.596	0.0157064
733.674	0.0156590
733.753	0.0156480
733.831	0.0157082
733.909	0.0157709
733.987	0.0156155
734.065	0.0156453
734.143	0.0157472
734.221	0.0157911
734.299	0.0158779
734.378	0.0160086
734.456	0.0158795
734.534	0.0160515
734.612	0.0161266
734.690	0.0161927
734.768	0.0161343
734.846	0.0161685
734.924	0.0163909
735.003	0.0164808
735.081	0.0164616
735.159	0.0165156
735.237	0.0165742
735.315	0.0167429
735.393	0.0165858
735.471	0.0167217
735.549	0.0168323
735.628	0.0169662
735.706	0.0170314
735.784	0.0171442
735.862	0.0170336
735.940	0.0172498
736.018	0.0172822
736.096	0.0172726
736.174	0.0173583
736.253	0.0173869
736.331	0.0172578
736.409	0.0173621
736.487	0.0173673
736.565	0.0174281
736.643	0.0172757
736.721	0.0171825
736.799	0.0170641
736.878	0.0169453
736.956	0.0168294
737.034	0.0167369
737.112	0.0165926
737.190	0.0163902
737.268	0.0161848
737.346	0.0160706
737.424	0.0158405
737.503	0.0157865
737.581	0.0155858
737.659	0.0154488
737.737	0.0153776
737.815	0.0154179
737.893	0.0153463
737.971	0.0154260
738.049	0.0154205
738.128	0.0155164
738.206	0.0155946
738.284	0.0157504
738.362	0.0159080
738.440	0.0160701
738.518	0.0160712
738.596	0.0163004
738.674	0.0163759
738.753	0.0164212
738.831	0.0165575
738.909	0.0167396
738.987	0.0169283
739.065	0.0168436
739.143	0.0168339
739.221	0.0169193
739.299	0.0168572
739.378	0.0168292
739.456	0.0168899
739.534	0.0168745
739.612	0.0167149
739.690	0.0167432
739.768	0.0166630
739.846	0.0164787
739.924	0.0164400
740.003	0.0163600
740.081	0.0162155
740.159	0.0162096
740.237	0.0159759
740.315	0.0160435
740.393	0.0159138
740.471	0.0160177
740.549	0.0160224
740.628	0.0160968
740.706	0.0161072
740.784	0.0162896
740.862	0.0165360
740.940	0.0165788
741.018	0.0166102
741.096	0.0167899
741.174	0.0169541
741.253	0.0170113
741.331	0.0172601
741.409	0.0171046
741.487	0.0172691
741.565	0.0170843
741.643	0.0170895
741.721	0.0169174
741.799	0.0168691
741.878	0.0168457
741.956	0.0167271
742.034	0.0166764
742.112	0.0165223
742.190	0.0164172
742.268	0.0161756
742.346	0.0160719
742.424	0.0160902
742.503	0.0161591
742.581	0.0161427
742.659	0.0160274
742.737	0.0160559
742.815	0.0160799
742.893	0.0161234
742.971	0.0160389
743.049	0.0161831
743.128	0.0161771
743.206	0.0161890
743.284	0.0163142
743.362	0.0163335
743.440	0.0164190
743.518	0.0164785
743.596	0.0162965
743.674	0.0163593
743.753	0.0162790
743.831	0.0164194
743.909	0.0163080
743.987	0.0161677
744.065	0.0162498
744.143	0.0162646
744.221	0.0161993
744.299	0.0163759
744.378	0.0161196
744.456	0.0161127
744.534	0.0162562
744.612	0.0162033
744.690	0.0162521
744.768	0.0162578
744.846	0.0163527
744.924	0.0161906
745.003	0.0162288
745.081	0.0163445
745.159	0.0163914
745.237	0.0164026
745.315	0.0164506
745.393	0.0163737
745.471	0.0164027
745.549	0.0165070
745.628	0.0164585
745.706	0.0166013
745.784	0.0167603
745.862	0.0167202
745.940	0.0166740
746.018	0.0167693
746.096	0.0167162
746.174	0.0167942
746.253	0.0168316
746.331	0.0169453
746.409	0.0169282
746.487	0.0168809
746.565	0.0169457
746.643	0.0169651
746.721	0.0169244
746.799	0.0169494
746.878	0.0170185
746.956	0.0168529
747.034	0.0166586
747.112	0.0165975
747.190	0.0165707
747.268	0.0166204
747.346	0.0163900
747.424	0.0162369
747.503	0.0162309
747.581	0.0160081
747.659	0.0158549
747.737	0.0157983
747.815	0.0157343
747.893	0.0159066
747.971	0.0156449
748.049	0.0156583
748.128	0.0156568
748.206	0.0156360
748.284	0.0156600
748.362	0.0157388
748.440	0.0158951
748.518	0.0159181
748.596	0.0159623
748.674	0.0160378
748.753	0.0162294
748.831	0.0161601
748.909	0.0163831
748.987	0.0162672
749.065	0.0164077
749.143	0.0163917
749.221	0.0165288
749.299	0.0164603
749.378	0.0165737
749.456	0.0165874
749.534	0.0164087
749.612	0.0166129
749.690	0.0166379
749.768	0.0166553
749.846	0.0167165
749.924	0.0167824
750.003	0.0166312
750.081	0.0167935
750.159	0.0169281
750.237	0.0168987
750.315	0.0168362
750.393	0.0168925
750.471	0.0170647
750.549	0.0170486
750.628	0.0170142
750.706	0.0169038
750.784	0.0168462
750.862	0.0166442
750.940	0.0165277
751.018	0.0165765
751.096	0.0164316
751.174	0.0164047
751.253	0.0164717
751.331	0.0163689
751.409	0.0162736
751.487	0.0160401
751.565	0.0162836
751.643	0.0162737
751.721	0.0163165
751.799	0.0161571
751.878	0.0162889
751.956	0.0162944
752.034	0.0162781
752.112	0.0163548
752.190	0.0163622
752.268	0.0163380
752.346	0.0164162
752.424	0.0163260
752.503	0.0161243
752.581	0.0160547
752.659	0.0161315
752.737	0.0161790
752.815	0.0159928
752.893	0.0160547
752.971	0.0159344
753.049	0.0158685
753.128	0.0160331
753.206	0.0159725
753.284	0.0159887
753.362	0.0161205
753.440	0.0162990
753.518	0.0161018
753.596	0.0162254
753.674	0.0163902
753.753	0.0164249
753.831	0.0164136
753.909	0.0164446
753.987	0.0164869
754.065	0.0165443
754.143	0.0163894
754.221	0.0164274
754.299	0.0163863
754.378	0.0164412
754.456	0.0164090
754.534	0.0162831
754.612	0.0162852
754.690	0.0163419
754.768	0.0164320
754.846	0.0164271
754.924	0.0163988
755.003	0.0165306
755.081	0.0165507
755.159	0.0165122
755.237	0.0166904
755.315	0.0166631
755.393	0.0167086
755.471	0.0168374
755.549	0.0166782
755.628	0.0168153
755.706	0.0169169
755.784	0.0169340
755.862	0.0170234
755.940	0.0171062
756.018	0.0170178
756.096	0.0170103
756.174	0.0169924
756.253	0.0168472
756.331	0.0167702
756.409	0.0168654
756.487	0.0166776
756.565	0.0164422
756.643	0.0163549
756.721	0.0163081
756.799	0.0161130
756.878	0.0162218
756.956	0.0159354
757.034	0.0159063
757.112	0.0160466
757.190	0.0160286
757.268	0.0160026
757.346	0.0159821
757.424	0.0162430
757.503	0.0162080
757.581	0.0163223
757.659	0.0164588
757.737	0.0163957
757.815	0.0164780
757.893	0.0165009
757.971	0.0165544
758.049	0.0164722
758.128	0.0165111
758.206	0.0165530
758.284	0.0163786
758.362	0.0162970
758.440	0.0162672
758.518	0.0161954
758.596	0.0160072
758.674	0.0158629
758.753	0.0157725
758.831	0.0157019
758.909	0.0155251
758.987	0.0156116
759.065	0.0156886
759.143	0.0157504
759.221	0.0156965
759.299	0.0159355
759.378	0.0160674
759.456	0.0161241
759.534	0.0162313
759.612	0.0165607
759.690	0.0168383
759.768	0.0168179
759.846	0.0169220
759.924	0.0171980
760.003	0.0171130
760.081	0.0172328
760.159	0.0173327
760.237	0.0170965
760.315	0.0172107
760.393	0.0172295
760.471	0.0172271
760.549	0.0170627
760.628	0.0169952
760.706	0.0169080
760.784	0.0166648
760.862	0.0166799
760.940	0.0165582
761.018	0.0166002
761.096	0.0165388
761.174	0.0163179
761.253	0.0163193
761.331	0.0162470
761.409	0.0162340
761.487	0.0162784
761.565	0.0161982
761.643	0.0161133
761.721	0.0161584
761.799	0.0161623
761.878	0.0163068
761.956	0.0161174
762.034	0.0162006
762.112	0.0162436
762.190	0.0162119
762.268	0.0164143
762.346	0.0162425
762.424	0.0161676
762.503	0.0162903
762.581	0.0162853
762.659	0.0162548
762.737	0.0161295
762.815	0.0160873
762.893	0.0162580
762.971	0.0161058
763.049	0.0163189
763.128	0.0164864
763.206	0.0163992
763.284	0.0166714
763.362	0.0165583
763.440	0.0166462
763.518	0.0166483
763.596	0.0169391
763.674	0.0167274
763.753	0.0166698
763.831	0.0167071
763.909	0.0166080
763.987	0.0165206
764.065	0.0164024
764.143	0.0161900
764.221	0.0160839
764.299	0.0160588
764.378	0.0160468
764.456	0.0159183
764.534	0.0156972
764.612	0.0158315
764.690	0.0158237
764.768	0.0159797
764.846	0.0159218
764.924	0.0159965
765.003	0.0160811
765.081	0.0162148
765.159	0.0164435
765.237	0.0164979
765.315	0.0166051
765.393	0.0166171
765.471	0.0168771
765.549	0.0169098
765.628	0.0169791
765.706	0.0168903
765.784	0.0169024
765.862	0.0169114
765.940	0.0167337
766.018	0.0165882
766.096	0.0166273
766.174	0.0165649
766.253	0.0165536
766.331	0.0165837
766.409	0.0164345
766.487	0.0164782
766.565	0.0165528
766.643	0.0165039
766.721	0.0165619
766.799	0.0165718
766.878	0.0166856
766.956	0.0167157
767.034	0.0167617
767.112	0.0167143
767.190	0.0166548
767.268	0.0168395
767.346	0.0166754
767.424	0.0165400
767.503	0.0165599
767.581	0.0164384
767.659	0.0162889
767.737	0.0162402
767.815	0.0162012
767.893	0.0161126
767.971	0.0159789
768.049	0.0160011
768.128	0.0159434
768.206	0.0159034
768.284	0.0158346
768.362	0.0158502
768.440	0.0159874
768.518	0.0159787
768.596	0.0160423
768.674	0.0160461
768.753	0.0161059
768.831	0.0162416
768.909	0.0163725
768.987	0.0163053
769.065	0.0164778
769.143	0.0166193
769.221	0.0167706
769.299	0.0168867
769.378	0.0170027
769.456	0.0168995
769.534	0.0169675
769.612	0.0169397
769.690	0.0169817
769.768	0.0168496
769.846	0.0167871
769.924	0.0167324
770.003	0.0166059
770.081	0.0165159
770.159	0.0162521
770.237	0.0162921
770.315	0.0162289
770.393	0.0160151
770.471	0.0160699
770.549	0.0160295
770.628	0.0160644
770.706	0.0161905
770.784	0.0163605
770.862	0.0160677
770.940	0.0160957
771.018	0.0161893
771.096	0.0162490
771.174	0.0164320
771.253	0.0162889
771.331	0.0163734
771.409	0.0164397
771.487	0.0163588
771.565	0.0162648
771.643	0.0163117
771.721	0.0163973
771.799	0.0163597
771.878	0.0161333
771.956	0.0161972
772.034	0.0162025
772.112	0.0163774
772.190	0.0164226
772.268	0.0164037
772.346	0.0166095
772.424	0.0165690
772.503	0.0166945
772.581	0.0167628
772.659	0.0169244
772.737	0.0169744
772.815	0.0169257
772.893	0.0170829
772.971	0.0169651
773.049	0.0169141
773.128	0.0169159
773.206	0.0167599
773.284	0.0168262
773.362	0.0165820
773.440	0.0163431
773.518	0.0164584
773.596	0.0164133
773.674	0.0163150
773.753	0.0161006
773.831	0.0161935
773.909	0.0161443
773.987	0.0160213
774.065	0.0158775
774.143	0.0161033
774.221	0.0159543
774.299	0.0159413
774.378	0.0160471
774.456	0.0158989
774.534	0.0159966
774.612	0.0160522
774.690	0.0159880
774.768	0.0159688
774.846	0.0161625
774.924	0.0161194
775.003	0.0161082
775.081	0.0162321
775.159	0.0163224
775.237	0.0164009
775.315	0.0162997
775.393	0.0164882
775.471	0.0165205
775.549	0.0167273
775.628	0.0165867
775.706	0.0165678
775.784	0.0167049
775.862	0.0167175
775.940	0.0167209
776.018	0.0167812
776.096	0.0166502
776.174	0.0167325
776.253	0.0169043
776.331	0.0168353
776.409	0.0167665
776.487	0.0166471
776.565	0.0167726
776.643	0.0169269
776.721	0.0168562
776.799	0.0168563
776.878	0.0165852
776.956	0.0167338
777.034	0.0165435
777.112	0.0165377
777.190	0.0165749
777.268	0.0165276
777.346	0.0164574
777.424	0.0164024
777.503	0.0163890
777.581	0.0163634
777.659	0.0163763
777.737	0.0163889
777.815	0.0163105
777.893	0.0160766
777.971	0.0160835
778.049	0.0161922
778.128	0.0162868
778.206	0.0161168
778.284	0.0162685
778.362	0.0160582
778.440	0.0161068
778.518	0.0161438
778.596	0.0162623
778.674	0.0163633
778.753	0.0161124
778.831	0.0163025
778.909	0.0161974
778.987	0.0161993
779.065	0.0161470
779.143	0.0160880
779.221	0.0161026
779.299	0.0161916
779.378	0.0162020
779.456	0.0162794
779.534	0.0162650
779.612	0.0162814
779.690	0.0162806
779.768	0.0162914
779.846	0.0164594
779.924	0.0166325
780.003	0.0167414
780.081	0.0166017
780.159	0.0166990
780.237	0.0167364
780.315	0.0165990
780.393	0.0165554
780.471	0.0166106
780.549	0.0166594
780.628	0.0165706
780.706	0.0165961
780.784	0.0164578
780.862	0.0164439
780.940	0.0164993
781.018	0.0163567
781.096	0.0164332
781.174	0.0164934
781.253	0.0164557
781.331	0.0164771
781.409	0.0166535
781.487	0.0165168
781.565	0.0166604
781.643	0.0168081
781.721	0.0166128
781.799	0.0166549
781.878	0.0166489
781.956	0.0164447
782.034	0.0166283
782.112	0.0166995
782.190	0.0165461
782.268	0.0165983
782.346	0.0165931
782.424	0.0164639
782.503	0.0166445
782.581	0.0166225
782.659	0.0163871
782.737	0.0164398
782.815	0.0165094
782.893	0.0163398
782.971	0.0162418
783.049	0.0162147
783.128	0.0162945
783.206	0.0160912
783.284	0.0160904
783.362	0.0161607
783.440	0.0161935
783.518	0.0162105
783.596	0.0164258
783.674	0.0163324
783.753	0.0162778
783.831	0.0162113
783.909	0.0162227
783.987	0.0162462
784.065	0.0162227
784.143	0.0164429
784.221	0.0164110
784.299	0.0161658
784.378	0.0164366
784.456	0.0163966
784.534	0.0161507
784.612	0.0161080
784.690	0.0161892
784.768	0.0161347
784.846	0.0160494
784.924	0.0160688
785.003	0.0160313
785.081	0.0160271
785.159	0.0160344
785.237	0.0161324
785.315	0.0162409
785.393	0.0160841
785.471	0.0162118
785.549	0.0163885
785.628	0.0162530
785.706	0.0165131
785.784	0.0165049
785.862	0.0165891
785.940	0.0166770
786.018	0.0166977
786.096	0.0167139
786.174	0.0168016
786.253	0.0167719
786.331	0.0167603
786.409	0.0167178
786.487	0.0167419
786.565	0.0167404
786.643	0.0165846
786.721	0.0165118
786.799	0.0164274
786.878	0.0164886
786.956	0.0164985
787.034	0.0162769
787.112	0.0164245
787.190	0.0163437
787.268	0.0163352
787.346	0.0163258
787.424	0.0163166
787.503	0.0163993
787.581	0.0165694
787.659	0.0164119
787.737	0.0164415
787.815	0.0165424
787.893	0.0164955
787.971	0.0164105
788.049	0.0164158
788.128	0.0166181
788.206	0.0167222
788.284	0.0166601
788.362	0.0166701
788.440	0.0166239
788.518	0.0165931
788.596	0.0166818
788.674	0.0167020
788.753	0.0165676
788.831	0.0165285
788.909	0.0165690
788.987	0.0163927
789.065	0.0164841
789.143	0.0163451
789.221	0.0163445
789.299	0.0164536
789.378	0.0163650
789.456	0.0162895
789.534	0.0163250
789.612	0.0163869
789.690	0.0164829
789.768	0.0163874
789.846	0.0164257
789.924	0.0164960
790.003	0.0165027
790.081	0.0164439
790.159	0.0163828
790.237	0.0164149
790.315	0.0163467
790.393	0.0161591
790.471	0.0161490
790.549	0.0161162
790.628	0.0161227
790.706	0.0160413
790.784	0.0160085
790.862	0.0158974
790.940	0.0158428
791.018	0.0158070
791.096	0.0159302
791.174	0.0159178
791.253	0.0159084
791.331	0.0158459
791.409	0.0159874
791.487	0.0161287
791.565	0.0161611
791.643	0.0161716
791.721	0.0163260
791.799	0.0164612
791.878	0.0164456
791.956	0.0164979
792.034	0.0166006
792.112	0.0166010
792.190	0.0166251
792.268	0.0166708
792.346	0.0167827
792.424	0.0167865
792.503	0.0167248
792.581	0.0167916
792.659	0.0168834
792.737	0.0167841
792.815	0.0168900
792.893	0.0167494
792.971	0.0168172
793.049	0.0168993
793.128	0.0167260
793.206	0.0168714
793.284	0.0166528
793.362	0.0167595
793.440	0.0166171
793.518	0.0165101
793.596	0.0166373
793.674	0.0166871
793.753	0.0165481
793.831	0.0164188
793.909	0.0163540
793.987	0.0164228
794.065	0.0165109
794.143	0.0163452
794.221	0.0163288
794.299	0.0164161
794.378	0.0163342
794.456	0.0164634
794.534	0.0164223
794.612	0.0163329
794.690	0.0162242
794.768	0.0163738
794.846	0.0163939
794.924	0.0164409
795.003	0.0164246
795.081	0.0164024
795.159	0.0162624
795.237	0.0163927
795.315	0.0163145
795.393	0.0163875
795.471	0.0163957
795.549	0.0162479
795.628	0.0163666
795.706	0.0164467
795.784	0.0162830
795.862	0.0164071
795.940	0.0164687
796.018	0.0164052
796.096	0.0163177
796.174	0.0164201
796.253	0.0164433
796.331	0.0164111
796.409	0.0162941
796.487	0.0164743
796.565	0.0164434
796.643	0.0164238
796.721	0.0164198
796.799	0.0164565
796.878	0.0163771
796.956	0.0164072
797.034	0.0163733
797.112	0.0164635
797.190	0.0163582
797.268	0.0163647
797.346	0.0163489
797.424	0.0162949
797.503	0.0162312
797.581	0.0162972
797.659	0.0162412
797.737	0.0161916
797.815	0.0161670
797.893	0.0161954
797.971	0.0161476
798.049	0.0160635
798.128	0.0160841
798.206	0.0162440
798.284	0.0162518
798.362	0.0161736
798.440	0.0160844
798.518	0.0162914
798.596	0.0163568
798.674	0.0163712
798.753	0.0164627
798.831	0.0165184
798.909	0.0166484
798.987	0.0165105
799.065	0.0166474
799.143	0.0167348
799.221	0.0167870
799.299	0.0169090
799.378	0.0167674
799.456	0.0168661
799.534	0.0168210
799.612	0.0167863
799.690	0.0166614
799.768	0.0167439
799.846	0.0168446
799.924	0.0166860
800.003	0.0166277
800.081	0.0166512
800.159	0.0165926
800.237	0.0166242
800.315	0.0165509
800.393	0.0164179
800.471	0.0164373
800.549	0.0163239
800.628	0.0164397
800.706	0.0164286
800.784	0.0163979
800.862	0.0162802
800.940	0.0162908
801.018	0.0163907
801.096	0.0164552
801.174	0.0163282
801.253	0.0163701
801.331	0.0164006
801.409	0.0162833
801.487	0.0162042
801.565	0.0162815
801.643	0.0163816
801.721	0.0163200
801.799	0.0164138
801.878	0.0164664
801.956	0.0164171
802.034	0.0165862
802.112	0.0165697
802.190	0.0164362
802.268	0.0163778
802.346	0.0164246
802.424	0.0164181
802.503	0.0165067
802.581	0.0163658
802.659	0.0164145
802.737	0.0165110
802.815	0.0163531
802.893	0.0164143
802.971	0.0163760
803.049	0.0163911
803.128	0.0161691
803.206	0.0162746
803.284	0.0162982
803.362	0.0163065
803.440	0.0163662
803.518	0.0163078
803.596	0.0163446
803.674	0.0163768
803.753	0.0163360
803.831	0.0164465
803.909	0.0163730
803.987	0.0163574
804.065	0.0164151
804.143	0.0163840
804.221	0.0162955
804.299	0.0164544
804.378	0.0164281
804.456	0.0164330
804.534	0.0163318
804.612	0.0163716
804.690	0.0165072
804.768	0.0164607
804.846	0.0164207
804.924	0.0164806
805.003	0.0163559
805.081	0.0164819
805.159	0.0164990
805.237	0.0164488
805.315	0.0164461
805.393	0.0163599
805.471	0.0163888
805.549	0.0164445
805.628	0.0165194
805.706	0.0166182
805.784	0.0164976
805.862	0.0165309
805.940	0.0164642
806.018	0.0163702
806.096	0.0165047
806.174	0.0166122
806.253	0.0165293
806.331	0.0166669
806.409	0.0166989
806.487	0.0165262
806.565	0.0166778
806.643	0.0165444
806.721	0.0164056
806.799	0.0165067
806.878	0.0164667
806.956	0.0163741
807.034	0.0163850
807.112	0.0163428
807.190	0.0163287
807.268	0.0163374
807.346	0.0162468
807.424	0.0161552
807.503	0.0162705
807.581	0.0162509
807.659	0.0161968
807.737	0.0162759
807.815	0.0160872
807.893	0.0163115
807.971	0.0164863
808.049	0.0164160
808.128	0.0163448
808.206	0.0164043
808.284	0.0164857
808.362	0.0165002
808.440	0.0166875
808.518	0.0165954
808.596	0.0165969
808.674	0.0166797
808.753	0.0165489
808.831	0.0166853
808.909	0.0164789
808.987	0.0166434
809.065	0.0164168
809.143	0.0162125
809.221	0.0163049
809.299	0.0163067
809.378	0.0163821
809.456	0.0162719
809.534	0.0162428
809.612	0.0162972
809.690	0.0162398
809.768	0.0162653
809.846	0.0162341
809.924	0.0162418
810.003	0.0162328
810.081	0.0161956
810.159	0.0163033
810.237	0.0163284
810.315	0.0162845
810.393	0.0164320
810.471	0.0163956
810.549	0.0162952
810.628	0.0163808
810.706	0.0165292
810.784	0.0164669
810.862	0.0163960
810.940	0.0164799
811.018	0.0165050
811.096	0.0164933
811.174	0.0165078
811.253	0.0164140
811.331	0.0164200
811.409	0.0164389
811.487	0.0163902
811.565	0.0164985
811.643	0.0163766
811.721	0.0163750
811.799	0.0163850
811.878	0.0164524
811.956	0.0163898
812.034	0.0164944
812.112	0.0165479
812.190	0.0165200
812.268	0.0164107
812.346	0.0163364
812.424	0.0165521
812.503	0.0165816
812.581	0.0166398
812.659	0.0166063
812.737	0.0166721
812.815	0.0165934
812.893	0.0165843
812.971	0.0166930
813.049	0.0165240
813.128	0.0165694
813.206	0.0165767
813.284	0.0166043
813.362	0.0166199
813.440	0.0165259
813.518	0.0164565
813.596	0.0165845
813.674	0.0164593
813.753	0.0163235
813.831	0.0165913
813.909	0.0163851
813.987	0.0163619
814.065	0.0163844
814.143	0.0164595
814.221	0.0163634
814.299	0.0163541
814.378	0.0164366
814.456	0.0164295
814.534	0.0163852
814.612	0.0163904
814.690	0.0164480
814.768	0.0164083
814.846	0.0163633
814.924	0.0164056
815.003	0.0162862
815.081	0.0163124
815.159	0.0164345
815.237	0.0162987
815.315	0.0163359
815.393	0.0163674
815.471	0.0164043
815.549	0.0164291
815.628	0.0162382
815.706	0.0163728
815.784	0.0163237
815.862	0.0162811
815.940	0.0164430
816.018	0.0164072
816.096	0.0163932
816.174	0.0163667
816.253	0.0163601
816.331	0.0163606
816.409	0.0163350
816.487	0.0162755
816.565	0.0162906
816.643	0.0163019
816.721	0.0165424
816.799	0.0164661
816.878	0.0165884
816.956	0.0165218
817.034	0.0165869
817.112	0.0165392
817.190	0.0164997
817.268	0.0164822
817.346	0.0165547
817.424	0.0166000
817.503	0.0166037
817.581	0.0166160
817.659	0.0165574
817.737	0.0165560
817.815	0.0164267
817.893	0.0163607
817.971	0.0164251
818.049	0.0163978
818.128	0.0162389
818.206	0.0162848
818.284	0.0163486
818.362	0.0162571
818.440	0.0162479
818.518	0.0162411
818.596	0.0161481
818.674	0.0161492
818.753	0.0162997
818.831	0.0162232
818.909	0.0161790
818.987	0.0163218
819.065	0.0161994
819.143	0.0162225
819.221	0.0163097
819.299	0.0161484
819.378	0.0164051
819.456	0.0163148
819.534	0.0165165
819.612	0.0164600
819.690	0.0165910
819.768	0.0167660
819.846	0.0167728
819.924	0.0167963
820.003	0.0166962
820.081	0.0168526
820.159	0.0168879
820.237	0.0167525
820.315	0.0167844
820.393	0.0168600
820.471	0.0168753
820.549	0.0167149
820.628	0.0165713
820.706	0.0166404
820.784	0.0164874
820.862	0.0165638
820.940	0.0166476
821.018	0.0164327
821.096	0.0162527
821.174	0.0163921
821.253	0.0164577
821.331	0.0162888
821.409	0.0162421
821.487	0.0162254
821.565	0.0162493
821.643	0.0162958
821.721	0.0163802
821.799	0.0163497
821.878	0.0162006
821.956	0.0161461
822.034	0.0163103
822.112	0.0163014
822.190	0.0161574
822.268	0.0162556
822.346	0.0161639
822.424	0.0162463
822.503	0.0161032
822.581	0.0160933
822.659	0.0161909
822.737	0.0161999
822.815	0.0160781
822.893	0.0162547
822.971	0.0163180
823.049	0.0161939
823.128	0.0162104
823.206	0.0162967
823.284	0.0162882
823.362	0.0164421
823.440	0.0164788
823.518	0.0164558
823.596	0.0165720
823.674	0.0164632
823.753	0.0165247
823.831	0.0165650
823.909	0.0165613
823.987	0.0166936
824.065	0.0166724
824.143	0.0164426
824.221	0.0165618
824.299	0.0165926
824.378	0.0166696
824.456	0.0164995
824.534	0.0164982
824.612	0.0165516
824.690	0.0164610
824.768	0.0164262
824.846	0.0164753
824.924	0.0164761
825.003	0.0164285
825.081	0.0164594
825.159	0.0164101
825.237	0.0163789
825.315	0.0164246
825.393	0.0163948
825.471	0.0162226
825.549	0.0163682
825.628	0.0165520
825.706	0.0164529
825.784	0.0163900
825.862	0.0162933
825.940	0.0164451
826.018	0.0162847
826.096	0.0163740
826.174	0.0164161
826.253	0.0164793
826.331	0.0166080
826.409	0.0166147
826.487	0.0165572
826.565	0.0165691
826.643	0.0165318
826.721	0.0166445
826.799	0.0166199
826.878	0.0165981
826.956	0.0166613
827.034	0.0165662
827.112	0.0165948
827.190	0.0165552
827.268	0.0164189
827.346	0.0165222
827.424	0.0165469
827.503	0.0163042
827.581	0.0163900
827.659	0.0164790
827.737	0.0164948
827.815	0.0163647
827.893	0.0163635
827.971	0.0163043
828.049	0.0161951
828.128	0.0163262
828.206	0.0162700
828.284	0.0163058
828.362	0.0163689
828.440	0.0162683
828.518	0.0163953
828.596	0.0164892
828.674	0.0164568
828.753	0.0165152
828.831	0.0165701
828.909	0.0166383
828.987	0.0165470
829.065	0.0166817
829.143	0.0166093
829.221	0.0165414
829.299	0.0166138
829.378	0.0166624
829.456	0.0165600
829.534	0.0166161
829.612	0.0165396
829.690	0.0164165
829.768	0.0163028
829.846	0.0163493
829.924	0.0165414
830.003	0.0162939
830.081	0.0161785
830.159	0.0162902
830.237	0.0163412
830.315	0.0161736
830.393	0.0162508
830.471	0.0162466
830.549	0.0163742
830.628	0.0162608
830.706	0.0163274
830.784	0.0163206
830.862	0.0165520
830.940	0.0162717
831.018	0.0164640
831.096	0.0165440
831.174	0.0165124
831.253	0.0165165
831.331	0.0164795
831.409	0.0164075
831.487	0.0163320
831.565	0.0163894
831.643	0.0163268
831.721	0.0163120
831.799	0.0163281
831.878	0.0164001
831.956	0.0162617
832.034	0.0164173
832.112	0.0163528
832.190	0.0163689
832.268	0.0166731
832.346	0.0164786
832.424	0.0164241
832.503	0.0165568
832.581	0.0166340
832.659	0.0165965
832.737	0.0168328
832.815	0.0166152
832.893	0.0168075
832.971	0.0169524
833.049	0.0168237
833.128	0.0167762
833.206	0.0167638
833.284	0.0168085
833.362	0.0167930
833.440	0.0167380
833.518	0.0167418
833.596	0.0166525
833.674	0.0167011
833.753	0.0164774
833.831	0.0166216
833.909	0.0164497
833.987	0.0163486
834.065	0.0164085
834.143	0.0162064
834.221	0.0163067
834.299	0.0163365
834.378	0.0161155
834.456	0.0160538
834.534	0.0160059
834.612	0.0160862
834.690	0.0161858
834.768	0.0160242
834.846	0.0160015
834.924	0.0162378
835.003	0.0162912
835.081	0.0163165
835.159	0.0162564
835.237	0.0164265
835.315	0.0163685
835.393	0.0164118
835.471	0.0165301
835.549	0.0165918
835.628	0.0165366
835.706	0.0165597
835.784	0.0167580
835.862	0.0165968
835.940	0.0165535
836.018	0.0165618
836.096	0.0165785
836.174	0.0165939
836.253	0.0165601
836.331	0.0166618
836.409	0.0164964
836.487	0.0165084
836.565	0.0165447
836.643	0.0163735
836.721	0.0164011
836.799	0.0165754
836.878	0.0165456
836.956	0.0165083
837.034	0.0165066
837.112	0.0165020
837.190	0.0165223
837.268	0.0166020
837.346	0.0164725
837.424	0.0163645
837.503	0.0165454
837.581	0.0165784
837.659	0.0166466
837.737	0.0165073
837.815	0.0165837
837.893	0.0165340
837.971	0.0166092
838.049	0.0165154
838.128	0.0164085
838.206	0.0164703
838.284	0.0162889
838.362	0.0163679
838.440	0.0165192
838.518	0.0163406
838.596	0.0162496
838.674	0.0163145
838.753	0.0162142
838.831	0.0163838
838.909	0.0163107
838.987	0.0162210
839.065	0.0162118
839.143	0.0162302
839.221	0.0163763
839.299	0.0163427
839.378	0.0164820
839.456	0.0164561
839.534	0.0163773
839.612	0.0166103
839.690	0.0166087
839.768	0.0165048
839.846	0.0165095
839.924	0.0166438
840.003	0.0166342
840.081	0.0166779
840.159	0.0167165
840.237	0.0166267
840.315	0.0165873
840.393	0.0165699
840.471	0.0166456
840.549	0.0165485
840.628	0.0165633
840.706	0.0165578
840.784	0.0164179
840.862	0.0165099
840.940	0.0164430
841.018	0.0162305
841.096	0.0161311
841.174	0.0162186
841.253	0.0161980
841.331	0.0160915
841.409	0.0162486
841.487	0.0161758
841.565	0.0162829
841.643	0.0161827
841.721	0.0161408
841.799	0.0162432
841.878	0.0162168
841.956	0.0164298
842.034	0.0163914
842.112	0.0163226
842.190	0.0164738
842.268	0.0165788
842.346	0.0164999
842.424	0.0164990
842.503	0.0164011
842.581	0.0166257
842.659	0.0166171
842.737	0.0165533
842.815	0.0166468
842.893	0.0165313
842.971	0.0165406
843.049	0.0164262
843.128	0.0166042
843.206	0.0164555
843.284	0.0164819
843.362	0.0164629
843.440	0.0166844
843.518	0.0164203
843.596	0.0164106
843.674	0.0164861
843.753	0.0164701
843.831	0.0165314
843.909	0.0163161
843.987	0.0163778
844.065	0.0164112
844.143	0.0164823
844.221	0.0163802
844.299	0.0163561
844.378	0.0164387
844.456	0.0164217
844.534	0.0163988
844.612	0.0163902
844.690	0.0163158
844.768	0.0163203
844.846	0.0162560
844.924	0.0162620
845.003	0.0162273
845.081	0.0161268
845.159	0.0162731
845.237	0.0162584
845.315	0.0161205
845.393	0.0160638
845.471	0.0161900
845.549	0.0161619
845.628	0.0161310
845.706	0.0162063
845.784	0.0162353
845.862	0.0162527
845.940	0.0162512
846.018	0.0163682
846.096	0.0164460
846.174	0.0163499
846.253	0.0164185
846.331	0.0163515
846.409	0.0164865
846.487	0.0162568
846.565	0.0165504
846.643	0.0167348
846.721	0.0165623
846.799	0.0165933
846.878	0.0167371
846.956	0.0165611
847.034	0.0167221
847.112	0.0167607
847.190	0.0165942
847.268	0.0166127
847.346	0.0165144
847.424	0.0165539
847.503	0.0166847
847.581	0.0165720
847.659	0.0165085
847.737	0.0163818
847.815	0.0164428
847.893	0.0163242
847.971	0.0164438
848.049	0.0164091
848.128	0.0162525
848.206	0.0162752
848.284	0.0162394
848.362	0.0164961
848.440	0.0165203
848.518	0.0163221
848.596	0.0163238
848.674	0.0164556
848.753	0.0163728
848.831	0.0163355
848.909	0.0164226
848.987	0.0164881
849.065	0.0165791
849.143	0.0165530
849.221	0.0164150
849.299	0.0164371
849.378	0.0164836
849.456	0.0165295
849.534	0.0163380
849.612	0.0163565
849.690	0.0163922
849.768	0.0163092
849.846	0.0163517
849.924	0.0163417
850.003	0.0164298
850.081	0.0161891
850.159	0.0162989
850.237	0.0163974
850.315	0.0163166
850.393	0.0163901
850.471	0.0163216
850.549	0.0164027
850.628	0.0164661
850.706	0.0163033
850.784	0.0163561
850.862	0.0164398
850.940	0.0164254
851.018	0.0165092
851.096	0.0164703
851.174	0.0165020
851.253	0.0165961
851.331	0.0164912
851.409	0.0165144
851.487	0.0165081
851.565	0.0164034
851.643	0.0165627
851.721	0.0165890
851.799	0.0164492
851.878	0.0163905
851.956	0.0164164
852.034	0.0165375
852.112	0.0164531
852.190	0.0163985
852.268	0.0165049
852.346	0.0163692
852.424	0.0164542
852.503	0.0165899
852.581	0.0164347
852.659	0.0163409
852.737	0.0164768
852.815	0.0164545
852.893	0.0165676
852.971	0.0165698
853.049	0.0165001
853.128	0.0165530
853.206	0.0166602
853.284	0.0167148
853.362	0.0164962
853.440	0.0165188
853.518	0.0165627
853.596	0.0164818
853.674	0.0164571
853.753	0.0165829
853.831	0.0165507
853.909	0.0166129
853.987	0.0165760
854.065	0.0164750
854.143	0.0164223
854.221	0.0164110
854.299	0.0165819
854.378	0.0164021
854.456	0.0162136
854.534	0.0163575
854.612	0.0162575
854.690	0.0163136
854.768	0.0163938
854.846	0.0161880
854.924	0.0162942
855.003	0.0162045
855.081	0.0162554
855.159	0.0162636
855.237	0.0163100
855.315	0.0163174
855.393	0.0163067
855.471	0.0164255
855.549	0.0163377
855.628	0.0164897
855.706	0.0165053
855.784	0.0164967
855.862	0.0166496
855.940	0.0165069
856.018	0.0166102
856.096	0.0164739
856.174	0.0164726
856.253	0.0166061
856.331	0.0166311
856.409	0.0167113
856.487	0.0166176
856.565	0.0165646
856.643	0.0164603
856.721	0.0165955
856.799	0.0165698
856.878	0.0165785
856.956	0.0165293
857.034	0.0165611
857.112	0.0164526
857.190	0.0166319
857.268	0.0165144
857.346	0.0164967
857.424	0.0165969
857.503	0.0165453
857.581	0.0164595
857.659	0.0166063
857.737	0.0166927
857.815	0.0164681
857.893	0.0165888
857.971	0.0165696
858.049	0.0164578
858.128	0.0165299
858.206	0.0164747
858.284	0.0164807
858.362	0.0165131
858.440	0.0163236
858.518	0.0164893
858.596	0.0163936
858.674	0.0162244
858.753	0.0162834
858.831	0.0163627
858.909	0.0163902
858.987	0.0164257
859.065	0.0164278
859.143	0.0163335
859.221	0.0163354
859.299	0.0164368
859.378	0.0163915
859.456	0.0164398
859.534	0.0165082
859.612	0.0163356
859.690	0.0165532
859.768	0.0164571
859.846	0.0164898
859.924	0.0164301
860.003	0.0164608
860.081	0.0166187
860.159	0.0166208
860.237	0.0165352
860.315	0.0165019
860.393	0.0166624
860.471	0.0165557
860.549	0.0164758
860.628	0.0164079
860.706	0.0164503
860.784	0.0166640
860.862	0.0163168
860.940	0.0164599
861.018	0.0164922
861.096	0.0164895
861.174	0.0164065
861.253	0.0162964
861.331	0.0162062
861.409	0.0164855
861.487	0.0162803
861.565	0.0163604
861.643	0.0163283
861.721	0.0164034
861.799	0.0163438
861.878	0.0163321
861.956	0.0163370
862.034	0.0163773
862.112	0.0165111
862.190	0.0163235
862.268	0.0163847
862.346	0.0163663
862.424	0.0164445
862.503	0.0162961
862.581	0.0165525
862.659	0.0165968
862.737	0.0165836
862.815	0.0164450
862.893	0.0166386
862.971	0.0164800
863.049	0.0163642
863.128	0.0164442
863.206	0.0165765
863.284	0.0163823
863.362	0.0165652
863.440	0.0164998
863.518	0.0163681
863.596	0.0165614
863.674	0.0164260
863.753	0.0165065
863.831	0.0164661
863.909	0.0164160
863.987	0.0164034
864.065	0.0163660
864.143	0.0164838
864.221	0.0162643
864.299	0.0162880
864.378	0.0164438
864.456	0.0163014
864.534	0.0163893
864.612	0.0164213
864.690	0.0165402
864.768	0.0164007
864.846	0.0163655
864.924	0.0163780
865.003	0.0165502
865.081	0.0163580
865.159	0.0162809
865.237	0.0162822
865.315	0.0163832
865.393	0.0163620
865.471	0.0163656
865.549	0.0163769
865.628	0.0163567
865.706	0.0162614
865.784	0.0163480
865.862	0.0161967
865.940	0.0164036
866.018	0.0163568
866.096	0.0164465
866.174	0.0163548
866.253	0.0164622
866.331	0.0164378
866.409	0.0165034
866.487	0.0165636
866.565	0.0164001
866.643	0.0164996
866.721	0.0164880
866.799	0.0165113
866.878	0.0165368
866.956	0.0164174
867.034	0.0164999
867.112	0.0166179
867.190	0.0164684
867.268	0.0166094
867.346	0.0164292
867.424	0.0164261
867.503	0.0165894
867.581	0.0165686
867.659	0.0165872
867.737	0.0164675
867.815	0.0164240
867.893	0.0163010
867.971	0.0162881
868.049	0.0164896
868.128	0.0164565
868.206	0.0165080
868.284	0.0163234
868.362	0.0162789
868.440	0.0163852
868.518	0.0163416
868.596	0.0161940
868.674	0.0164035
868.753	0.0162656
868.831	0.0163727
868.909	0.0164188
868.987	0.0163901
869.065	0.0165361
869.143	0.0165270
869.221	0.0163979
869.299	0.0164407
869.378	0.0164897
869.456	0.0164870
869.534	0.0163017
869.612	0.0165898
869.690	0.0163797
869.768	0.0164785
869.846	0.0163923
869.924	0.0164407
870.003	0.0164758
870.081	0.0163237
870.159	0.0163712
870.237	0.0162789
870.315	0.0163992
870.393	0.0163679
870.471	0.0163055
870.549	0.0162872
870.628	0.0163129
870.706	0.0163500
870.784	0.0162388
870.862	0.0163608
870.940	0.0163284
871.018	0.0164349
871.096	0.0163430
871.174	0.0164338
871.253	0.0164370
871.331	0.0164270
871.409	0.0163902
871.487	0.0163107
871.565	0.0163060
871.643	0.0164485
871.721	0.0164090
871.799	0.0163907
871.878	0.0164885
871.956	0.0163840
872.034	0.0163754
872.112	0.0162675
872.190	0.0163519
872.268	0.0163214
872.346	0.0162881
872.424	0.0165798
872.503	0.0165160
872.581	0.0163670
872.659	0.0163812
872.737	0.0163412
872.815	0.0163257
872.893	0.0165257
872.971	0.0163174
873.049	0.0163766
873.128	0.0166110
873.206	0.0165311
873.284	0.0163899
873.362	0.0165168
873.440	0.0164287
873.518	0.0165965
873.596	0.0165859
873.674	0.0167346
873.753	0.0165743
873.831	0.0165559
873.909	0.0166243
873.987	0.0165576
874.065	0.0165013
874.143	0.0164044
874.221	0.0164925
874.299	0.0164642
874.378	0.0164342
874.456	0.0163555
874.534	0.0164283
874.612	0.0165367
874.690	0.0162907
874.768	0.0162800
874.846	0.0164631
874.924	0.0163609
875.003	0.0162905
875.081	0.0162180
875.159	0.0163868
875.237	0.0164265
875.315	0.0162829
875.393	0.0163900
875.471	0.0162234
875.549	0.0162339
875.628	0.0163102
875.706	0.0163020
875.784	0.0162483
875.862	0.0163658
875.940	0.0163551
876.018	0.0163673
876.096	0.0162938
876.174	0.0163908
876.253	0.0164597
876.331	0.0164257
876.409	0.0163248
876.487	0.0163564
876.565	0.0163567
876.643	0.0164449
876.721	0.0164575
876.799	0.0164046
876.878	0.0164501
876.956	0.0164448
877.034	0.0164614
877.112	0.0164446
877.190	0.0164162
877.268	0.0163660
877.346	0.0163811
877.424	0.0163822
877.503	0.0163516
877.581	0.0163049
877.659	0.0164965
877.737	0.0166128
877.815	0.0165083
877.893	0.0164844
877.971	0.0165263
878.049	0.0163903
878.128	0.0164257
878.206	0.0166205
878.284	0.0164544
878.362	0.0165499
878.440	0.0164579
878.518	0.0164338
878.596	0.0165397
878.674	0.0165032
878.753	0.0163813
878.831	0.0163444
878.909	0.0164965
878.987	0.0164906
879.065	0.0165923
879.143	0.0164767
879.221	0.0164908
879.299	0.0164584
879.378	0.0163365
879.456	0.0164147
879.534	0.0164758
879.612	0.0163834
879.690	0.0164548
879.768	0.0164890
879.846	0.0164889
879.924	0.0163795
880.003	0.0163559
880.081	0.0163457
880.159	0.0163744
880.237	0.0164418
880.315	0.0164732
880.393	0.0165746
880.471	0.0164940
880.549	0.0164191
880.628	0.0163786
880.706	0.0164898
880.784	0.0164888
880.862	0.0162612
880.940	0.0162739
881.018	0.0163980
881.096	0.0164021
881.174	0.0164243
881.253	0.0164517
881.331	0.0163994
881.409	0.0163799
881.487	0.0163683
881.565	0.0164377
881.643	0.0164066
881.721	0.0163745
881.799	0.0163728
881.878	0.0163501
881.956	0.0164092
882.034	0.0164923
882.112	0.0165214
882.190	0.0165646
882.268	0.0164602
882.346	0.0164235
882.424	0.0164052
882.503	0.0164708
882.581	0.0165752
882.659	0.0164909
882.737	0.0164503
882.815	0.0165043
882.893	0.0165115
882.971	0.0164330
883.049	0.0165407
883.128	0.0165629
883.206	0.0164082
883.284	0.0166078
883.362	0.0165953
883.440	0.0164725
883.518	0.0164975
883.596	0.0163446
883.674	0.0164556
883.753	0.0163972
883.831	0.0164448
883.909	0.0163600
883.987	0.0163747
884.065	0.0164358
884.143	0.0165228
884.221	0.0165477
884.299	0.0164336
884.378	0.0164650
884.456	0.0165941
884.534	0.0163235
884.612	0.0164082
884.690	0.0164199
884.768	0.0163521
884.846	0.0165686
884.924	0.0164595
885.003	0.0163570
885.081	0.0163679
885.159	0.0165140
885.237	0.0164079
885.315	0.0164679
885.393	0.0164333
885.471	0.0163934
885.549	0.0164595
885.628	0.0163316
885.706	0.0163947
885.784	0.0163606
885.862	0.0164718
885.940	0.0162560
886.018	0.0163330
886.096	0.0164883
886.174	0.0163713
886.253	0.0163861
886.331	0.0163229
886.409	0.0164317
886.487	0.0164301
886.565	0.0163396
886.643	0.0162886
886.721	0.0164981
886.799	0.0166174
886.878	0.0165708
886.956	0.0165720
887.034	0.0164427
887.112	0.0164593
887.190	0.0164500
887.268	0.0164433
887.346	0.0165553
887.424	0.0165335
887.503	0.0165151
887.581	0.0164701
887.659	0.0164230
887.737	0.0164647
887.815	0.0167806
887.893	0.0165153
887.971	0.0164549
888.049	0.0164648
888.128	0.0163577
888.206	0.0164445
888.284	0.0164787
888.362	0.0164748
888.440	0.0163821
888.518	0.0165192
888.596	0.0166066
888.674	0.0164703
888.753	0.0164725
888.831	0.0164680
888.909	0.0163766
888.987	0.0164195
889.065	0.0164899
889.143	0.0165659
889.221	0.0166862
889.299	0.0164793
889.378	0.0165752
889.456	0.0164957
889.534	0.0164045
889.612	0.0164914
889.690	0.0165337
889.768	0.0164455
889.846	0.0163955
889.924	0.0164365
890.003	0.0165031
890.081	0.0165619
890.159	0.0162753
890.237	0.0163568
890.315	0.0164588
890.393	0.0165855
890.471	0.0164034
890.549	0.0163680
890.628	0.0163915
890.706	0.0163802
890.784	0.0162928
890.862	0.0164144
890.940	0.0164106
891.018	0.0163912
891.096	0.0163565
891.174	0.0162844
891.253	0.0164235
891.331	0.0163766
891.409	0.0163295
891.487	0.0162673
891.565	0.0164096
891.643	0.0163078
891.721	0.0163287
891.799	0.0163869
891.878	0.0164430
891.956	0.0164317
892.034	0.0164837
892.112	0.0163100
892.190	0.0163210
892.268	0.0165931
892.346	0.0163853
892.424	0.0161864
892.503	0.0163567
892.581	0.0164307
892.659	0.0164983
892.737	0.0163419
892.815	0.0164006
892.893	0.0163617
892.971	0.0164557
893.049	0.0163712
893.128	0.0163891
893.206	0.0164679
893.284	0.0163618
893.362	0.0164379
893.440	0.0164691
893.518	0.0165147
893.596	0.0164502
893.674	0.0164508
893.753	0.0165194
893.831	0.0165258
893.909	0.0165159
893.987	0.0164951
894.065	0.0166241
894.143	0.0164396
894.221	0.0164351
894.299	0.0165329
894.378	0.0164022
894.456	0.0164902
894.534	0.0165443
894.612	0.0163873
894.690	0.0165694
894.768	0.0164822
894.846	0.0165241
894.924	0.0163307
895.003	0.0164270
895.081	0.0163467
895.159	0.0163601
895.237	0.0166178
895.315	0.0163069
895.393	0.0163053
895.471	0.0162856
895.549	0.0164163
895.628	0.0165175
895.706	0.0164731
895.784	0.0164391
895.862	0.0164358
895.940	0.0164472
896.018	0.0164463
896.096	0.0165087
896.174	0.0163376
896.253	0.0163704
896.331	0.0165335
896.409	0.0164105
896.487	0.0163389
896.565	0.0164929
896.643	0.0164219
896.721	0.0164926
896.799	0.0164729
896.878	0.0164565
896.956	0.0163989
897.034	0.0162763
897.112	0.0163430
897.190	0.0163872
897.268	0.0164417
897.346	0.0163219
897.424	0.0162342
897.503	0.0165594
897.581	0.0164767
897.659	0.0164320
897.737	0.0165220
897.815	0.0164275
897.893	0.0164571
897.971	0.0164645
898.049	0.0164528
898.128	0.0164692
898.206	0.0164662
898.284	0.0164760
898.362	0.0164197
898.440	0.0164398
898.518	0.0164549
898.596	0.0164652
898.674	0.0164420
898.753	0.0165580
898.831	0.0164951
898.909	0.0166153
898.987	0.0164375
899.065	0.0165031
899.143	0.0163950
899.221	0.0165211
899.299	0.0165078
899.378	0.0164404
899.456	0.0163407
899.534	0.0164745
899.612	0.0166509
899.690	0.0164382
899.768	0.0164542
899.846	0.0163766
899.924	0.0164780
900.003	0.0163950
900.081	0.0163972
900.159	0.0163957
900.237	0.0163956
900.315	0.0164445
900.393	0.0163853
900.471	0.0164054
900.549	0.0163640
900.628	0.0164252
900.706	0.0163755
900.784	0.0164853
900.862	0.0163685
900.940	0.0163754
901.018	0.0164928
901.096	0.0163889
901.174	0.0162903
901.253	0.0162614
901.331	0.0163792
901.409	0.0164307
901.487	0.0164406
901.565	0.0163730
901.643	0.0162716
901.721	0.0164242
901.799	0.0163667
901.878	0.0162937
901.956	0.0164513
902.034	0.0164794
902.112	0.0164511
902.190	0.0164811
902.268	0.0163677
902.346	0.0163783
902.424	0.0164270
902.503	0.0164996
902.581	0.0164015
902.659	0.0164627
902.737	0.0165551
902.815	0.0164273
902.893	0.0164377
902.971	0.0165552
903.049	0.0164558
903.128	0.0164565
903.206	0.0164360
903.284	0.0164017
903.362	0.0164518
903.440	0.0164021
903.518	0.0164995
903.596	0.0164441
903.674	0.0164295
903.753	0.0163702
903.831	0.0164202
903.909	0.0163323
903.987	0.0164473
904.065	0.0163254
904.143	0.0163213
904.221	0.0165436
904.299	0.0163827
904.378	0.0163020
904.456	0.0163178
904.534	0.0162818
904.612	0.0163680
904.690	0.0163313
904.768	0.0163925
904.846	0.0164726
904.924	0.0163977
905.003	0.0166425
905.081	0.0163733
905.159	0.0164649
905.237	0.0162385
905.315	0.0163825
905.393	0.0165262
905.471	0.0164108
905.549	0.0164140
905.628	0.0165563
905.706	0.0162927
905.784	0.0162466
905.862	0.0164750
905.940	0.0165244
906.018	0.0163691
906.096	0.0163355
906.174	0.0165294
906.253	0.0162834
906.331	0.0163510
906.409	0.0163481
906.487	0.0164128
906.565	0.0162823
906.643	0.0165113
906.721	0.0165389
906.799	0.0162205
906.878	0.0165095
906.956	0.0164295
907.034	0.0164184
907.112	0.0164711
907.190	0.0163405
907.268	0.0164520
907.346	0.0164760
907.424	0.0164682
907.503	0.0164855
907.581	0.0165175
907.659	0.0163881
907.737	0.0163467
907.815	0.0165834
907.893	0.0165649
907.971	0.0164059
908.049	0.0165459
908.128	0.0164413
908.206	0.0163686
908.284	0.0163434
908.362	0.0164802
908.440	0.0165376
908.518	0.0164005
908.596	0.0163409
908.674	0.0164681
908.753	0.0165607
908.831	0.0164886
908.909	0.0164633
908.987	0.0165722
909.065	0.0164429
909.143	0.0165616
909.221	0.0165856
909.299	0.0164903
909.378	0.0164898
909.456	0.0165340
909.534	0.0165640
909.612	0.0165627
909.690	0.0164486
909.768	0.0163809
909.846	0.0165142
909.924	0.0164813
910.003	0.0164003
910.081	0.0162832
910.159	0.0163841
910.237	0.0163069
910.315	0.0164532
910.393	0.0164006
910.471	0.0162158
910.549	0.0163090
910.628	0.0163041
910.706	0.0163167
910.784	0.0163444
910.862	0.0162995
910.940	0.0163185
911.018	0.0163230
911.096	0.0163396
911.174	0.0163231
911.253	0.0163563
911.331	0.0164574
911.409	0.0164231
911.487	0.0164297
911.565	0.0165981
911.643	0.0163366
911.721	0.0163917
911.799	0.0164984
911.878	0.0165213
911.956	0.0165354
912.034	0.0164695
912.112	0.0164668
912.190	0.0163840
912.268	0.0164545
912.346	0.0164982
912.424	0.0165507
912.503	0.0164239
912.581	0.0165157
912.659	0.0164227
912.737	0.0162791
912.815	0.0163120
912.893	0.0164214
912.971	0.0164655
913.049	0.0163639
913.128	0.0163499
913.206	0.0164805
913.284	0.0163685
913.362	0.0163309
913.440	0.0164310
913.518	0.0164468
913.596	0.0163312
913.674	0.0163982
913.753	0.0163783
913.831	0.0164668
913.909	0.0165058
913.987	0.0164810
914.065	0.0164126
914.143	0.0163519
914.221	0.0166667
914.299	0.0166231
914.378	0.0165010
914.456	0.0165196
914.534	0.0166143
914.612	0.0165150
914.690	0.0165487
914.768	0.0165394
914.846	0.0165762
914.924	0.0165737
915.003	0.0165182
915.081	0.0164717
915.159	0.0164522
915.237	0.0165027
915.315	0.0165218
915.393	0.0165649
915.471	0.0163827
915.549	0.0165213
915.628	0.0163453
915.706	0.0164157
915.784	0.0164091
915.862	0.0163714
915.940	0.0163083
916.018	0.0162139
916.096	0.0162452
916.174	0.0162033
916.253	0.0162939
916.331	0.0164462
916.409	0.0162107
916.487	0.0161897
916.565	0.0163639
916.643	0.0163747
916.721	0.0163434
916.799	0.0163040
916.878	0.0164102
916.956	0.0162691
917.034	0.0164027
917.112	0.0164216
917.190	0.0163911
917.268	0.0164828
917.346	0.0163809
917.424	0.0163082
917.503	0.0164802
917.581	0.0163533
917.659	0.0163831
917.737	0.0163318
917.815	0.0164973
917.893	0.0164702
917.971	0.0164185
918.049	0.0162821
918.128	0.0165803
918.206	0.0165562
918.284	0.0163816
918.362	0.0165416
918.440	0.0164835
918.518	0.0164102
918.596	0.0164744
918.674	0.0165081
918.753	0.0166095
918.831	0.0164553
918.909	0.0164838
918.987	0.0163844
919.065	0.0164523
919.143	0.0164655
919.221	0.0163611
919.299	0.0163844
919.378	0.0166625
919.456	0.0163513
919.534	0.0164316
919.612	0.0162499
919.690	0.0163981
919.768	0.0164658
919.846	0.0163256
919.924	0.0163602
920.003	0.0164561
920.081	0.0164828
920.159	0.0164777
920.237	0.0163342
920.315	0.0164282
920.393	0.0164699
920.471	0.0164731
920.549	0.0164820
920.628	0.0163905
920.706	0.0163271
920.784	0.0163242
920.862	0.0165118
920.940	0.0164553
921.018	0.0164426
921.096	0.0164545
921.174	0.0164233
921.253	0.0164049
921.331	0.0165194
921.409	0.0165093
921.487	0.0166179
921.565	0.0164075
921.643	0.0164701
921.721	0.0165648
921.799	0.0162983
921.878	0.0164554
921.956	0.0163255
922.034	0.0162051
922.112	0.0164441
922.190	0.0163615
922.268	0.0164526
922.346	0.0163203
922.424	0.0163838
922.503	0.0163826
922.581	0.0164916
922.659	0.0164391
922.737	0.0163341
922.815	0.0162538
922.893	0.0164519
922.971	0.0165357
923.049	0.0166082
923.128	0.0163486
923.206	0.0164178
923.284	0.0165295
923.362	0.0165981
923.440	0.0165723
923.518	0.0164605
923.596	0.0165038
923.674	0.0165612
923.753	0.0165208
923.831	0.0163499
923.909	0.0165406
923.987	0.0165629
924.065	0.0165533
924.143	0.0166174
924.221	0.0164676
924.299	0.0163091
924.378	0.0163620
924.456	0.0163863
924.534	0.0162589
924.612	0.0163143
924.690	0.0162694
924.768	0.0162634
924.846	0.0163300
924.924	0.0162312
925.003	0.0163219
925.081	0.0161726
925.159	0.0163534
925.237	0.0164513
925.315	0.0163686
925.393	0.0163524
925.471	0.0164887
925.549	0.0163906
925.628	0.0162541
925.706	0.0165176
925.784	0.0165043
925.862	0.0165596
925.940	0.0164212
926.018	0.0163393
926.096	0.0164268
926.174	0.0163577
926.253	0.0164567
926.331	0.0165110
926.409	0.0166649
926.487	0.0165153
926.565	0.0164307
926.643	0.0164902
926.721	0.0164520
926.799	0.0164017
926.878	0.0165678
926.956	0.0164297
927.034	0.0167433
927.112	0.0165366
927.190	0.0164230
927.268	0.0164377
927.346	0.0164867
927.424	0.0164272
927.503	0.0163892
927.581	0.0164174
927.659	0.0164367
927.737	0.0163812
927.815	0.0163346
927.893	0.0163545
927.971	0.0163553
928.049	0.0163455
928.128	0.0164500
928.206	0.0164916
928.284	0.0165971
928.362	0.0164302
928.440	0.0163255
928.518	0.0163069
928.596	0.0164030
928.674	0.0164347
928.753	0.0162964
928.831	0.0163389
928.909	0.0162772
928.987	0.0164404
929.065	0.0163482
929.143	0.0162630
929.221	0.0162788
929.299	0.0163833
929.378	0.0163075
929.456	0.0162829
929.534	0.0164365
929.612	0.0163859
929.690	0.0164554
929.768	0.0164307
929.846	0.0164458
929.924	0.0163506
930.003	0.0163560
930.081	0.0165728
930.159	0.0166592
930.237	0.0165629
930.315	0.0165415
930.393	0.0164992
930.471	0.0164072
930.549	0.0164410
930.628	0.0165909
930.706	0.0165460
930.784	0.0163618
930.862	0.0164554
930.940	0.0164850
931.018	0.0163828
931.096	0.0164910
931.174	0.0163643
931.253	0.0163496
931.331	0.0164525
931.409	0.0163021
931.487	0.0164236
931.565	0.0163656
931.643	0.0164712
931.721	0.0163705
931.799	0.0163209
931.878	0.0162918
931.956	0.0164330
932.034	0.0164048
932.112	0.0163730
932.190	0.0163876
932.268	0.0164647
932.346	0.0163903
932.424	0.0164825
932.503	0.0163060
932.581	0.0165360
932.659	0.0163519
932.737	0.0163170
932.815	0.0164475
932.893	0.0164702
932.971	0.0163447
933.049	0.0165240
933.128	0.0164645
933.206	0.0163560
933.284	0.0165040
933.362	0.0163625
933.440	0.0163979
933.518	0.0164243
933.596	0.0163450
933.674	0.0162419
933.753	0.0163942
933.831	0.0161935
933.909	0.0162730
933.987	0.0163008
934.065	0.0162065
934.143	0.0162618
934.221	0.0163757
934.299	0.0164743
934.378	0.0163136
934.456	0.0163840
934.534	0.0163344
934.612	0.0164168
934.690	0.0164446
934.768	0.0162019
934.846	0.0164132
934.924	0.0164248
935.003	0.0165186
935.081	0.0163754
935.159	0.0163624
935.237	0.0165410
935.315	0.0163346
935.393	0.0164194
935.471	0.0163971
935.549	0.0162187
935.628	0.0163302
935.706	0.0163219
935.784	0.0162045
935.862	0.0162785
935.940	0.0164009
936.018	0.0162824
936.096	0.0162875
936.174	0.0164477
936.253	0.0163914
936.331	0.0164022
936.409	0.0163608
936.487	0.0165356
936.565	0.0164909
936.643	0.0164315
936.721	0.0164251
936.799	0.0166325
936.878	0.0164357
936.956	0.0164413
937.034	0.0165201
937.112	0.0166306
937.190	0.0165523
937.268	0.0165782
937.346	0.0166483
937.424	0.0164803
937.503	0.0164474
937.581	0.0164896
937.659	0.0165487
937.737	0.0164825
937.815	0.0164256
937.893	0.0164392
937.971	0.0162695
938.049	0.0163914
938.128	0.0163457
938.206	0.0164072
938.284	0.0163713
938.362	0.0163638
938.440	0.0163412
938.518	0.0163083
938.596	0.0163773
938.674	0.0163365
938.753	0.0163944
938.831	0.0163583
938.909	0.0163539
938.987	0.0162919
939.065	0.0161980
939.143	0.0162489
939.221	0.0164226
939.299	0.0163132
939.378	0.0163550
939.456	0.0163168
939.534	0.0163712
939.612	0.0164303
939.690	0.0163897
939.768	0.0164577
939.846	0.0162853
939.924	0.0164034
940.003	0.0164788
940.081	0.0164294
940.159	0.0162588
940.237	0.0162662
940.315	0.0164228
940.393	0.0161999
940.471	0.0164591
940.549	0.0163136
940.628	0.0162846
940.706	0.0163684
940.784	0.0164495
940.862	0.0164857
940.940	0.0163564
941.018	0.0163344
941.096	0.0163737
941.174	0.0162954
941.253	0.0163346
941.331	0.0163230
941.409	0.0164281
941.487	0.0164520
941.565	0.0163041
941.643	0.0163684
941.721	0.0163835
941.799	0.0164596
941.878	0.0163342
941.956	0.0163467
942.034	0.0163889
942.112	0.0163820
942.190	0.0164016
942.268	0.0165179
942.346	0.0163338
942.424	0.0164447
942.503	0.0163441
942.581	0.0163808
942.659	0.0164125
942.737	0.0163525
942.815	0.0163397
942.893	0.0164225
942.971	0.0162183
943.049	0.0163945
943.128	0.0162642
943.206	0.0163313
943.284	0.0163083
943.362	0.0163934
943.440	0.0164768
943.518	0.0165927
943.596	0.0163930
943.674	0.0163931
943.753	0.0164270
943.831	0.0166981
943.909	0.0165298
943.987	0.0165579
944.065	0.0165764
944.143	0.0164284
944.221	0.0164832
944.299	0.0166896
944.378	0.0164913
944.456	0.0164430
944.534	0.0164928
944.612	0.0164436
944.690	0.0165900
944.768	0.0165105
944.846	0.0163749
944.924	0.0165539
945.003	0.0164738
945.081	0.0162175
945.159	0.0163689
945.237	0.0163486
945.315	0.0164605
945.393	0.0164109
945.471	0.0163873
945.549	0.0164893
945.628	0.0164326
945.706	0.0164384
945.784	0.0164095
945.862	0.0163203
945.940	0.0163322
946.018	0.0165532
946.096	0.0164545
946.174	0.0163190
946.253	0.0164977
946.331	0.0165529
946.409	0.0164319
946.487	0.0163164
946.565	0.0164367
946.643	0.0164703
946.721	0.0165143
946.799	0.0163493
946.878	0.0165583
946.956	0.0165504
947.034	0.0163604
947.112	0.0164880
947.190	0.0165250
947.268	0.0164542
947.346	0.0164178
947.424	0.0165372
947.503	0.0165257
947.581	0.0165271
947.659	0.0164093
947.737	0.0164322
947.815	0.0165616
947.893	0.0163955
947.971	0.0165520
948.049	0.0162914
948.128	0.0163786
948.206	0.0165059
948.284	0.0163859
948.362	0.0164510
948.440	0.0164444
948.518	0.0164154
948.596	0.0163882
948.674	0.0165059
948.753	0.0163921
948.831	0.0163572
948.909	0.0164388
948.987	0.0164046
949.065	0.0164065
949.143	0.0163971
949.221	0.0164524
949.299	0.0165096
949.378	0.0164594
949.456	0.0165356
949.534	0.0164559
949.612	0.0164326
949.690	0.0164986
949.768	0.0164925
949.846	0.0165791
949.924	0.0165833
