06/29/2022	23:06:41	Ver.	4.1	UNKNOWN
Optical Delay	630.002507	Delta X		0.078125	Sweeps	1	Scan Rate	0/0
Coordinates	Axis 1	NaN	Axis 2	NaN	Axis 3	NaN	Axis 4	NaN	Axis 5	NaN	Axis 6	0.000000
TX Power	0.000000	RX Power	0.000000

630.003	0.0151707
630.081	0.0152480
630.159	0.0151389
630.237	0.0152077
630.315	0.0151865
630.393	0.0150352
630.471	0.0151542
630.549	0.0151958
630.628	0.0151218
630.706	0.0150273
630.784	0.0151484
630.862	0.0151535
630.940	0.0151909
631.018	0.0152666
631.096	0.0152227
631.174	0.0151963
631.253	0.0151022
631.331	0.0151939
631.409	0.0151598
631.487	0.0151595
631.565	0.0152730
631.643	0.0152753
631.721	0.0151955
631.799	0.0151816
631.878	0.0151534
631.956	0.0151694
632.034	0.0151073
632.112	0.0152425
632.190	0.0152298
632.268	0.0151416
632.346	0.0153309
632.424	0.0151263
632.503	0.0151240
632.581	0.0152238
632.659	0.0152746
632.737	0.0152887
632.815	0.0153010
632.893	0.0151828
632.971	0.0151304
633.049	0.0151042
633.128	0.0153098
633.206	0.0152012
633.284	0.0151227
633.362	0.0151717
633.440	0.0151218
633.518	0.0152148
633.596	0.0152338
633.674	0.0152068
633.753	0.0152401
633.831	0.0151910
633.909	0.0153237
633.987	0.0150777
634.065	0.0150653
634.143	0.0151258
634.221	0.0152966
634.299	0.0152427
634.378	0.0150925
634.456	0.0151417
634.534	0.0152560
634.612	0.0151474
634.690	0.0152205
634.768	0.0151022
634.846	0.0152377
634.924	0.0151648
635.003	0.0151672
635.081	0.0151149
635.159	0.0150932
635.237	0.0152541
635.315	0.0153093
635.393	0.0151540
635.471	0.0150780
635.549	0.0151942
635.628	0.0153101
635.706	0.0152098
635.784	0.0152419
635.862	0.0150965
635.940	0.0152641
636.018	0.0152775
636.096	0.0152109
636.174	0.0152389
636.253	0.0153721
636.331	0.0152151
636.409	0.0152172
636.487	0.0151859
636.565	0.0151856
636.643	0.0152599
636.721	0.0152462
636.799	0.0151640
636.878	0.0151064
636.956	0.0152140
637.034	0.0151942
637.112	0.0152298
637.190	0.0152701
637.268	0.0152819
637.346	0.0150232
637.424	0.0152114
637.503	0.0152003
637.581	0.0152032
637.659	0.0151122
637.737	0.0150710
637.815	0.0152203
637.893	0.0153598
637.971	0.0152754
638.049	0.0153280
638.128	0.0152573
638.206	0.0150079
638.284	0.0151632
638.362	0.0151694
638.440	0.0151535
638.518	0.0152650
638.596	0.0153449
638.674	0.0151273
638.753	0.0150903
638.831	0.0151806
638.909	0.0152135
638.987	0.0152702
639.065	0.0152834
639.143	0.0152336
639.221	0.0151343
639.299	0.0151712
639.378	0.0153886
639.456	0.0153398
639.534	0.0152023
639.612	0.0151469
639.690	0.0152762
639.768	0.0151414
639.846	0.0151711
639.924	0.0152702
640.003	0.0152525
640.081	0.0152124
640.159	0.0151421
640.237	0.0151580
640.315	0.0152465
640.393	0.0151874
640.471	0.0152174
640.549	0.0151344
640.628	0.0151199
640.706	0.0151758
640.784	0.0151477
640.862	0.0151098
640.940	0.0153054
641.018	0.0152892
641.096	0.0152217
641.174	0.0152102
641.253	0.0150986
641.331	0.0151908
641.409	0.0152044
641.487	0.0151936
641.565	0.0151597
641.643	0.0152050
641.721	0.0152689
641.799	0.0152431
641.878	0.0151963
641.956	0.0150314
642.034	0.0152154
642.112	0.0152113
642.190	0.0152117
642.268	0.0151260
642.346	0.0150655
642.424	0.0151786
642.503	0.0151479
642.581	0.0151564
642.659	0.0150170
642.737	0.0153271
642.815	0.0153041
642.893	0.0152596
642.971	0.0151492
643.049	0.0150504
643.128	0.0150011
643.206	0.0150934
643.284	0.0152505
643.362	0.0152861
643.440	0.0152730
643.518	0.0151869
643.596	0.0151833
643.674	0.0151684
643.753	0.0152127
643.831	0.0152851
643.909	0.0151772
643.987	0.0152182
644.065	0.0151578
644.143	0.0152182
644.221	0.0151221
644.299	0.0151557
644.378	0.0152800
644.456	0.0151398
644.534	0.0152499
644.612	0.0150981
644.690	0.0152503
644.768	0.0152319
644.846	0.0150888
644.924	0.0153191
645.003	0.0152094
645.081	0.0152329
645.159	0.0152513
645.237	0.0151055
645.315	0.0152337
645.393	0.0153672
645.471	0.0150645
645.549	0.0152312
645.628	0.0151480
645.706	0.0151199
645.784	0.0151547
645.862	0.0151619
645.940	0.0152645
646.018	0.0152281
646.096	0.0151517
646.174	0.0152754
646.253	0.0152831
646.331	0.0151443
646.409	0.0152313
646.487	0.0152484
646.565	0.0151779
646.643	0.0150830
646.721	0.0153009
646.799	0.0153052
646.878	0.0153011
646.956	0.0152062
647.034	0.0152412
647.112	0.0152614
647.190	0.0152659
647.268	0.0152762
647.346	0.0151900
647.424	0.0150515
647.503	0.0152137
647.581	0.0154354
647.659	0.0152772
647.737	0.0152680
647.815	0.0153274
647.893	0.0152466
647.971	0.0153138
648.049	0.0153295
648.128	0.0152605
648.206	0.0152190
648.284	0.0151363
648.362	0.0151252
648.440	0.0151833
648.518	0.0152401
648.596	0.0152076
648.674	0.0151642
648.753	0.0151026
648.831	0.0152302
648.909	0.0152805
648.987	0.0151877
649.065	0.0151595
649.143	0.0151842
649.221	0.0151916
649.299	0.0151712
649.378	0.0153716
649.456	0.0153189
649.534	0.0151788
649.612	0.0152930
649.690	0.0152275
649.768	0.0151997
649.846	0.0153181
649.924	0.0153166
650.003	0.0153330
650.081	0.0152074
650.159	0.0151557
650.237	0.0151665
650.315	0.0152229
650.393	0.0151278
650.471	0.0151536
650.549	0.0152187
650.628	0.0151972
650.706	0.0151430
650.784	0.0153314
650.862	0.0152006
650.940	0.0151552
651.018	0.0152413
651.096	0.0151194
651.174	0.0151740
651.253	0.0152431
651.331	0.0151152
651.409	0.0152891
651.487	0.0149876
651.565	0.0151335
651.643	0.0151899
651.721	0.0152020
651.799	0.0152094
651.878	0.0151151
651.956	0.0151475
652.034	0.0152219
652.112	0.0151071
652.190	0.0150977
652.268	0.0152522
652.346	0.0151005
652.424	0.0150821
652.503	0.0150983
652.581	0.0152546
652.659	0.0151460
652.737	0.0152351
652.815	0.0150948
652.893	0.0152728
652.971	0.0151599
653.049	0.0151530
653.128	0.0152858
653.206	0.0150726
653.284	0.0152074
653.362	0.0150849
653.440	0.0150874
653.518	0.0150604
653.596	0.0152679
653.674	0.0152602
653.753	0.0152352
653.831	0.0151708
653.909	0.0153772
653.987	0.0152563
654.065	0.0151811
654.143	0.0152824
654.221	0.0151714
654.299	0.0151929
654.378	0.0151877
654.456	0.0151962
654.534	0.0152128
654.612	0.0151768
654.690	0.0151913
654.768	0.0152496
654.846	0.0150775
654.924	0.0152242
655.003	0.0152980
655.081	0.0151362
655.159	0.0152713
655.237	0.0151041
655.315	0.0151591
655.393	0.0153026
655.471	0.0152567
655.549	0.0151352
655.628	0.0152707
655.706	0.0151205
655.784	0.0151379
655.862	0.0152393
655.940	0.0151933
656.018	0.0151701
656.096	0.0152387
656.174	0.0152177
656.253	0.0152252
656.331	0.0152526
656.409	0.0150982
656.487	0.0152712
656.565	0.0151863
656.643	0.0152242
656.721	0.0152680
656.799	0.0151817
656.878	0.0152064
656.956	0.0152644
657.034	0.0152779
657.112	0.0152758
657.190	0.0151944
657.268	0.0152747
657.346	0.0153299
657.424	0.0152021
657.503	0.0153484
657.581	0.0152596
657.659	0.0150612
657.737	0.0151704
657.815	0.0153274
657.893	0.0152263
657.971	0.0151522
658.049	0.0150921
658.128	0.0153350
658.206	0.0151698
658.284	0.0151633
658.362	0.0152686
658.440	0.0151421
658.518	0.0152673
658.596	0.0151908
658.674	0.0151268
658.753	0.0151901
658.831	0.0152688
658.909	0.0151794
658.987	0.0151361
659.065	0.0151611
659.143	0.0152677
659.221	0.0152345
659.299	0.0151277
659.378	0.0150449
659.456	0.0152559
659.534	0.0152501
659.612	0.0152447
659.690	0.0152521
659.768	0.0150440
659.846	0.0152867
659.924	0.0151491
660.003	0.0152094
660.081	0.0152888
660.159	0.0152810
660.237	0.0152672
660.315	0.0152918
660.393	0.0153075
660.471	0.0151999
660.549	0.0151730
660.628	0.0152388
660.706	0.0151793
660.784	0.0151772
660.862	0.0152203
660.940	0.0152050
661.018	0.0152802
661.096	0.0152975
661.174	0.0152224
661.253	0.0153371
661.331	0.0153771
661.409	0.0152499
661.487	0.0152320
661.565	0.0151934
661.643	0.0152612
661.721	0.0152272
661.799	0.0151109
661.878	0.0151451
661.956	0.0151151
662.034	0.0153489
662.112	0.0153307
662.190	0.0152555
662.268	0.0151509
662.346	0.0152046
662.424	0.0152251
662.503	0.0151273
662.581	0.0151984
662.659	0.0150874
662.737	0.0150414
662.815	0.0151591
662.893	0.0152061
662.971	0.0150897
663.049	0.0151608
663.128	0.0151608
663.206	0.0150711
663.284	0.0150859
663.362	0.0151451
663.440	0.0151050
663.518	0.0150677
663.596	0.0151930
663.674	0.0151017
663.753	0.0150772
663.831	0.0149820
663.909	0.0150161
663.987	0.0152007
664.065	0.0151516
664.143	0.0151440
664.221	0.0152698
664.299	0.0150582
664.378	0.0152348
664.456	0.0151830
664.534	0.0151585
664.612	0.0150922
664.690	0.0152490
664.768	0.0153163
664.846	0.0150976
664.924	0.0152451
665.003	0.0152946
665.081	0.0152855
665.159	0.0151076
665.237	0.0152404
665.315	0.0153603
665.393	0.0153205
665.471	0.0152445
665.549	0.0151567
665.628	0.0153551
665.706	0.0153516
665.784	0.0151322
665.862	0.0151716
665.940	0.0152449
666.018	0.0151102
666.096	0.0152800
666.174	0.0152950
666.253	0.0152717
666.331	0.0152458
666.409	0.0152310
666.487	0.0152895
666.565	0.0152575
666.643	0.0153209
666.721	0.0151699
666.799	0.0152493
666.878	0.0153581
666.956	0.0151255
667.034	0.0151362
667.112	0.0151042
667.190	0.0151755
667.268	0.0151984
667.346	0.0152475
667.424	0.0151883
667.503	0.0150989
667.581	0.0151888
667.659	0.0152063
667.737	0.0152543
667.815	0.0151010
667.893	0.0149953
667.971	0.0152011
668.049	0.0151765
668.128	0.0151655
668.206	0.0151298
668.284	0.0151065
668.362	0.0151836
668.440	0.0151071
668.518	0.0151969
668.596	0.0151212
668.674	0.0151162
668.753	0.0151523
668.831	0.0150878
668.909	0.0151763
668.987	0.0151489
669.065	0.0151353
669.143	0.0151911
669.221	0.0152630
669.299	0.0150739
669.378	0.0150877
669.456	0.0151324
669.534	0.0152419
669.612	0.0153370
669.690	0.0150957
669.768	0.0153064
669.846	0.0152305
669.924	0.0152163
670.003	0.0151497
670.081	0.0152135
670.159	0.0152086
670.237	0.0151731
670.315	0.0151087
670.393	0.0150633
670.471	0.0150704
670.549	0.0151319
670.628	0.0151089
670.706	0.0150594
670.784	0.0151379
670.862	0.0151451
670.940	0.0150885
671.018	0.0151190
671.096	0.0153313
671.174	0.0152746
671.253	0.0152344
671.331	0.0152263
671.409	0.0151681
671.487	0.0152122
671.565	0.0152379
671.643	0.0152228
671.721	0.0151377
671.799	0.0152258
671.878	0.0154319
671.956	0.0152737
672.034	0.0151528
672.112	0.0153293
672.190	0.0152706
672.268	0.0151725
672.346	0.0153069
672.424	0.0151346
672.503	0.0151440
672.581	0.0152833
672.659	0.0152117
672.737	0.0152451
672.815	0.0152316
672.893	0.0152775
672.971	0.0152179
673.049	0.0151725
673.128	0.0152334
673.206	0.0153280
673.284	0.0153407
673.362	0.0153703
673.440	0.0152944
673.518	0.0153071
673.596	0.0152042
673.674	0.0152451
673.753	0.0152275
673.831	0.0151560
673.909	0.0152226
673.987	0.0151897
674.065	0.0152346
674.143	0.0151228
674.221	0.0150589
674.299	0.0152777
674.378	0.0153424
674.456	0.0151948
674.534	0.0152428
674.612	0.0153098
674.690	0.0153571
674.768	0.0151662
674.846	0.0152422
674.924	0.0152676
675.003	0.0153502
675.081	0.0153221
675.159	0.0151786
675.237	0.0151978
675.315	0.0152253
675.393	0.0152368
675.471	0.0152386
675.549	0.0151689
675.628	0.0152553
675.706	0.0152570
675.784	0.0150919
675.862	0.0151794
675.940	0.0151506
676.018	0.0151572
676.096	0.0150125
676.174	0.0151869
676.253	0.0152402
676.331	0.0154148
676.409	0.0151044
676.487	0.0153380
676.565	0.0152430
676.643	0.0153322
676.721	0.0151983
676.799	0.0153536
676.878	0.0152533
676.956	0.0152123
677.034	0.0152924
677.112	0.0152050
677.190	0.0151633
677.268	0.0150550
677.346	0.0150320
677.424	0.0151430
677.503	0.0151773
677.581	0.0151381
677.659	0.0150970
677.737	0.0150732
677.815	0.0151791
677.893	0.0151602
677.971	0.0152901
678.049	0.0152673
678.128	0.0152808
678.206	0.0153167
678.284	0.0152866
678.362	0.0151745
678.440	0.0153007
678.518	0.0153282
678.596	0.0153033
678.674	0.0151945
678.753	0.0152775
678.831	0.0153197
678.909	0.0151646
678.987	0.0150597
679.065	0.0150660
679.143	0.0153036
679.221	0.0152251
679.299	0.0151140
679.378	0.0151319
679.456	0.0151578
679.534	0.0152016
679.612	0.0151701
679.690	0.0152470
679.768	0.0151467
679.846	0.0152097
679.924	0.0151668
680.003	0.0151657
680.081	0.0153560
680.159	0.0152859
680.237	0.0151552
680.315	0.0152399
680.393	0.0152560
680.471	0.0153085
680.549	0.0153955
680.628	0.0152769
680.706	0.0152495
680.784	0.0152591
680.862	0.0153432
680.940	0.0153202
681.018	0.0152673
681.096	0.0150552
681.174	0.0151553
681.253	0.0153809
681.331	0.0151443
681.409	0.0152226
681.487	0.0151522
681.565	0.0150875
681.643	0.0151506
681.721	0.0151717
681.799	0.0151679
681.878	0.0150891
681.956	0.0152309
682.034	0.0152054
682.112	0.0152159
682.190	0.0153252
682.268	0.0152766
682.346	0.0152711
682.424	0.0152610
682.503	0.0152016
682.581	0.0151700
682.659	0.0152045
682.737	0.0152153
682.815	0.0151921
682.893	0.0151685
682.971	0.0151063
683.049	0.0150713
683.128	0.0151060
683.206	0.0152094
683.284	0.0151743
683.362	0.0151795
683.440	0.0151546
683.518	0.0150908
683.596	0.0151190
683.674	0.0152087
683.753	0.0151440
683.831	0.0151178
683.909	0.0151785
683.987	0.0152550
684.065	0.0152387
684.143	0.0150379
684.221	0.0152225
684.299	0.0151494
684.378	0.0151267
684.456	0.0152058
684.534	0.0152188
684.612	0.0151012
684.690	0.0151564
684.768	0.0151801
684.846	0.0152121
684.924	0.0150902
685.003	0.0151208
685.081	0.0150689
685.159	0.0154670
685.237	0.0152446
685.315	0.0151131
685.393	0.0152299
685.471	0.0152023
685.549	0.0152412
685.628	0.0153278
685.706	0.0153228
685.784	0.0151519
685.862	0.0151107
685.940	0.0151527
686.018	0.0151939
686.096	0.0151942
686.174	0.0151662
686.253	0.0150353
686.331	0.0149851
686.409	0.0151248
686.487	0.0152197
686.565	0.0151328
686.643	0.0151921
686.721	0.0150607
686.799	0.0152458
686.878	0.0152110
686.956	0.0151524
687.034	0.0151367
687.112	0.0151753
687.190	0.0151440
687.268	0.0153262
687.346	0.0152335
687.424	0.0153226
687.503	0.0153165
687.581	0.0153008
687.659	0.0151996
687.737	0.0153269
687.815	0.0152113
687.893	0.0150485
687.971	0.0151782
688.049	0.0151704
688.128	0.0152047
688.206	0.0151608
688.284	0.0151069
688.362	0.0151912
688.440	0.0152834
688.518	0.0152189
688.596	0.0151514
688.674	0.0150841
688.753	0.0152109
688.831	0.0153452
688.909	0.0153661
688.987	0.0152827
689.065	0.0152341
689.143	0.0153320
689.221	0.0152731
689.299	0.0153119
689.378	0.0152630
689.456	0.0151631
689.534	0.0152399
689.612	0.0153540
689.690	0.0151781
689.768	0.0150977
689.846	0.0151635
689.924	0.0150832
690.003	0.0152029
690.081	0.0150052
690.159	0.0150676
690.237	0.0151482
690.315	0.0150468
690.393	0.0151228
690.471	0.0151279
690.549	0.0152299
690.628	0.0152098
690.706	0.0151256
690.784	0.0154358
690.862	0.0153154
690.940	0.0151920
691.018	0.0152439
691.096	0.0151961
691.174	0.0152463
691.253	0.0151932
691.331	0.0150705
691.409	0.0151194
691.487	0.0152513
691.565	0.0150887
691.643	0.0150887
691.721	0.0150719
691.799	0.0150166
691.878	0.0151878
691.956	0.0150763
692.034	0.0151049
692.112	0.0150496
692.190	0.0150793
692.268	0.0152271
692.346	0.0150898
692.424	0.0152018
692.503	0.0152910
692.581	0.0152080
692.659	0.0152735
692.737	0.0152899
692.815	0.0152074
692.893	0.0152009
692.971	0.0153175
693.049	0.0153010
693.128	0.0152583
693.206	0.0152217
693.284	0.0150915
693.362	0.0150983
693.440	0.0151900
693.518	0.0151376
693.596	0.0150825
693.674	0.0150953
693.753	0.0152188
693.831	0.0151428
693.909	0.0151410
693.987	0.0150849
694.065	0.0150730
694.143	0.0151292
694.221	0.0151955
694.299	0.0151199
694.378	0.0152233
694.456	0.0151688
694.534	0.0152882
694.612	0.0151791
694.690	0.0152517
694.768	0.0151816
694.846	0.0151257
694.924	0.0151448
695.003	0.0152631
695.081	0.0150847
695.159	0.0151493
695.237	0.0151680
695.315	0.0151553
695.393	0.0151751
695.471	0.0151962
695.549	0.0151396
695.628	0.0151301
695.706	0.0150783
695.784	0.0150828
695.862	0.0151592
695.940	0.0151088
696.018	0.0151813
696.096	0.0153340
696.174	0.0152404
696.253	0.0151384
696.331	0.0151367
696.409	0.0152730
696.487	0.0151006
696.565	0.0150691
696.643	0.0153577
696.721	0.0152509
696.799	0.0151814
696.878	0.0150411
696.956	0.0151646
697.034	0.0152108
697.112	0.0151118
697.190	0.0152586
697.268	0.0151498
697.346	0.0151205
697.424	0.0151694
697.503	0.0152611
697.581	0.0152695
697.659	0.0151073
697.737	0.0151144
697.815	0.0153001
697.893	0.0151930
697.971	0.0151994
698.049	0.0152536
698.128	0.0150988
698.206	0.0151497
698.284	0.0151034
698.362	0.0151276
698.440	0.0150871
698.518	0.0151720
698.596	0.0151906
698.674	0.0150931
698.753	0.0151580
698.831	0.0151153
698.909	0.0151910
698.987	0.0152576
699.065	0.0151078
699.143	0.0150288
699.221	0.0151222
699.299	0.0152040
699.378	0.0151564
699.456	0.0152991
699.534	0.0152901
699.612	0.0152832
699.690	0.0153743
699.768	0.0153650
699.846	0.0152670
699.924	0.0152837
700.003	0.0152779
700.081	0.0153139
700.159	0.0152197
700.237	0.0152587
700.315	0.0152279
700.393	0.0151849
700.471	0.0151961
700.549	0.0150035
700.628	0.0150481
700.706	0.0150134
700.784	0.0150299
700.862	0.0151070
700.940	0.0149594
701.018	0.0150504
701.096	0.0149850
701.174	0.0150803
701.253	0.0152100
701.331	0.0150822
701.409	0.0151147
701.487	0.0152822
701.565	0.0152827
701.643	0.0153621
701.721	0.0152245
701.799	0.0152417
701.878	0.0152554
701.956	0.0152440
702.034	0.0152210
702.112	0.0152279
702.190	0.0154752
702.268	0.0153626
702.346	0.0152528
702.424	0.0152332
702.503	0.0151415
702.581	0.0153463
702.659	0.0153603
702.737	0.0151854
702.815	0.0152562
702.893	0.0153829
702.971	0.0153528
703.049	0.0152780
703.128	0.0153271
703.206	0.0152091
703.284	0.0151304
703.362	0.0151165
703.440	0.0150233
703.518	0.0150502
703.596	0.0152169
703.674	0.0150327
703.753	0.0150937
703.831	0.0151727
703.909	0.0150417
703.987	0.0149329
704.065	0.0149722
704.143	0.0151064
704.221	0.0151505
704.299	0.0150414
704.378	0.0151662
704.456	0.0152007
704.534	0.0150476
704.612	0.0152206
704.690	0.0151498
704.768	0.0153334
704.846	0.0152775
704.924	0.0152457
705.003	0.0152137
705.081	0.0154141
705.159	0.0155077
705.237	0.0153497
705.315	0.0153737
705.393	0.0153652
705.471	0.0153934
705.549	0.0153076
705.628	0.0152764
705.706	0.0153472
705.784	0.0153499
705.862	0.0152178
705.940	0.0152303
706.018	0.0151717
706.096	0.0152269
706.174	0.0151490
706.253	0.0151050
706.331	0.0150446
706.409	0.0149616
706.487	0.0149794
706.565	0.0150455
706.643	0.0151694
706.721	0.0150216
706.799	0.0150990
706.878	0.0150777
706.956	0.0151147
707.034	0.0152445
707.112	0.0151512
707.190	0.0151630
707.268	0.0151526
707.346	0.0152101
707.424	0.0152402
707.503	0.0153848
707.581	0.0152962
707.659	0.0152490
707.737	0.0153740
707.815	0.0153995
707.893	0.0153163
707.971	0.0153247
708.049	0.0152425
708.128	0.0152299
708.206	0.0153236
708.284	0.0152276
708.362	0.0152139
708.440	0.0151950
708.518	0.0151243
708.596	0.0152404
708.674	0.0151456
708.753	0.0152252
708.831	0.0151981
708.909	0.0150906
708.987	0.0151421
709.065	0.0151071
709.143	0.0152592
709.221	0.0151284
709.299	0.0151954
709.378	0.0151951
709.456	0.0151376
709.534	0.0151924
709.612	0.0153321
709.690	0.0151882
709.768	0.0151882
709.846	0.0151299
709.924	0.0152528
710.003	0.0151067
710.081	0.0151404
710.159	0.0152878
710.237	0.0152277
710.315	0.0151729
710.393	0.0152424
710.471	0.0150745
710.549	0.0152477
710.628	0.0152009
710.706	0.0152075
710.784	0.0152287
710.862	0.0151958
710.940	0.0152349
711.018	0.0153401
711.096	0.0154426
711.174	0.0151426
711.253	0.0152879
711.331	0.0153567
711.409	0.0153277
711.487	0.0153671
711.565	0.0153067
711.643	0.0152279
711.721	0.0153333
711.799	0.0152983
711.878	0.0150463
711.956	0.0152158
712.034	0.0152428
712.112	0.0152516
712.190	0.0150310
712.268	0.0150657
712.346	0.0152835
712.424	0.0150802
712.503	0.0149915
712.581	0.0151609
712.659	0.0150907
712.737	0.0150938
712.815	0.0151886
712.893	0.0150818
712.971	0.0151788
713.049	0.0152094
713.128	0.0151441
713.206	0.0151795
713.284	0.0152763
713.362	0.0152118
713.440	0.0151880
713.518	0.0151015
713.596	0.0152585
713.674	0.0152232
713.753	0.0152303
713.831	0.0151722
713.909	0.0151759
713.987	0.0151241
714.065	0.0151721
714.143	0.0151594
714.221	0.0153239
714.299	0.0151398
714.378	0.0152110
714.456	0.0151858
714.534	0.0151926
714.612	0.0152708
714.690	0.0153503
714.768	0.0152573
714.846	0.0153510
714.924	0.0154803
715.003	0.0155775
715.081	0.0152946
715.159	0.0153717
715.237	0.0153867
715.315	0.0153841
715.393	0.0154269
715.471	0.0153098
715.549	0.0152738
715.628	0.0151427
715.706	0.0151155
715.784	0.0150011
715.862	0.0149203
715.940	0.0148631
716.018	0.0148177
716.096	0.0147315
716.174	0.0147037
716.253	0.0147502
716.331	0.0147041
716.409	0.0147283
716.487	0.0149198
716.565	0.0150480
716.643	0.0151266
716.721	0.0150178
716.799	0.0151678
716.878	0.0152394
716.956	0.0153476
717.034	0.0154058
717.112	0.0156329
717.190	0.0155624
717.268	0.0155190
717.346	0.0156277
717.424	0.0156245
717.503	0.0156655
717.581	0.0155109
717.659	0.0154899
717.737	0.0154865
717.815	0.0153275
717.893	0.0152826
717.971	0.0151075
718.049	0.0150412
718.128	0.0150304
718.206	0.0149589
718.284	0.0149031
718.362	0.0148811
718.440	0.0147156
718.518	0.0147752
718.596	0.0145739
718.674	0.0147976
718.753	0.0147021
718.831	0.0148053
718.909	0.0148723
718.987	0.0147816
719.065	0.0148399
719.143	0.0148633
719.221	0.0150299
719.299	0.0151391
719.378	0.0152455
719.456	0.0152243
719.534	0.0152757
719.612	0.0153969
719.690	0.0154185
719.768	0.0154745
719.846	0.0157463
719.924	0.0156799
720.003	0.0159011
720.081	0.0158840
720.159	0.0158436
720.237	0.0158298
720.315	0.0158050
720.393	0.0158205
720.471	0.0158921
720.549	0.0156496
720.628	0.0157294
720.706	0.0155379
720.784	0.0156100
720.862	0.0154452
720.940	0.0151215
721.018	0.0152995
721.096	0.0150923
721.174	0.0150237
721.253	0.0149916
721.331	0.0149449
721.409	0.0148374
721.487	0.0146154
721.565	0.0148243
721.643	0.0146725
721.721	0.0146677
721.799	0.0146411
721.878	0.0146919
721.956	0.0144386
722.034	0.0146413
722.112	0.0145831
722.190	0.0145351
722.268	0.0144746
722.346	0.0143468
722.424	0.0144842
722.503	0.0146809
722.581	0.0146043
722.659	0.0147018
722.737	0.0146772
722.815	0.0147851
722.893	0.0149517
722.971	0.0150110
723.049	0.0151648
723.128	0.0153180
723.206	0.0154442
723.284	0.0156647
723.362	0.0157042
723.440	0.0157305
723.518	0.0159658
723.596	0.0160658
723.674	0.0163018
723.753	0.0161092
723.831	0.0162881
723.909	0.0163243
723.987	0.0162858
724.065	0.0162379
724.143	0.0162388
724.221	0.0160809
724.299	0.0160220
724.378	0.0159239
724.456	0.0159412
724.534	0.0156232
724.612	0.0154072
724.690	0.0154107
724.768	0.0152008
724.846	0.0150003
724.924	0.0148494
725.003	0.0149644
725.081	0.0147163
725.159	0.0145898
725.237	0.0145501
725.315	0.0144347
725.393	0.0144408
725.471	0.0143423
725.549	0.0143042
725.628	0.0142341
725.706	0.0142001
725.784	0.0143715
725.862	0.0143800
725.940	0.0143816
726.018	0.0143663
726.096	0.0144242
726.174	0.0145077
726.253	0.0147071
726.331	0.0147102
726.409	0.0148441
726.487	0.0149046
726.565	0.0149931
726.643	0.0151378
726.721	0.0151846
726.799	0.0151939
726.878	0.0155399
726.956	0.0155376
727.034	0.0156854
727.112	0.0157932
727.190	0.0157173
727.268	0.0158402
727.346	0.0159732
727.424	0.0159163
727.503	0.0159805
727.581	0.0160242
727.659	0.0158792
727.737	0.0159332
727.815	0.0158987
727.893	0.0157050
727.971	0.0155891
728.049	0.0156109
728.128	0.0154114
728.206	0.0151404
728.284	0.0150731
728.362	0.0151782
728.440	0.0149585
728.518	0.0148779
728.596	0.0148769
728.674	0.0147411
728.753	0.0146167
728.831	0.0146059
728.909	0.0147557
728.987	0.0147956
729.065	0.0148531
729.143	0.0147437
729.221	0.0148596
729.299	0.0150040
729.378	0.0150462
729.456	0.0152093
729.534	0.0151089
729.612	0.0152646
729.690	0.0152711
729.768	0.0152716
729.846	0.0151971
729.924	0.0152186
730.003	0.0151608
730.081	0.0149872
730.159	0.0148639
730.237	0.0149957
730.315	0.0149837
730.393	0.0149109
730.471	0.0147959
730.549	0.0148589
730.628	0.0147810
730.706	0.0147698
730.784	0.0148719
730.862	0.0149354
730.940	0.0149319
731.018	0.0150446
731.096	0.0151151
731.174	0.0152483
731.253	0.0154462
731.331	0.0153685
731.409	0.0154727
731.487	0.0156848
731.565	0.0154738
731.643	0.0156453
731.721	0.0156353
731.799	0.0158064
731.878	0.0156272
731.956	0.0157559
732.034	0.0155754
732.112	0.0155968
732.190	0.0154087
732.268	0.0154017
732.346	0.0154794
732.424	0.0154562
732.503	0.0152657
732.581	0.0150834
732.659	0.0151665
732.737	0.0149614
732.815	0.0150169
732.893	0.0150568
732.971	0.0148546
733.049	0.0148788
733.128	0.0149163
733.206	0.0148888
733.284	0.0147057
733.362	0.0147637
733.440	0.0147818
733.518	0.0148466
733.596	0.0147877
733.674	0.0147110
733.753	0.0147845
733.831	0.0148544
733.909	0.0147536
733.987	0.0147144
734.065	0.0147888
734.143	0.0148089
734.221	0.0146037
734.299	0.0148204
734.378	0.0147370
734.456	0.0148097
734.534	0.0148929
734.612	0.0149518
734.690	0.0149373
734.768	0.0150855
734.846	0.0150874
734.924	0.0150109
735.003	0.0150269
735.081	0.0152614
735.159	0.0153384
735.237	0.0153678
735.315	0.0153540
735.393	0.0153847
735.471	0.0154607
735.549	0.0156586
735.628	0.0157463
735.706	0.0157634
735.784	0.0158949
735.862	0.0159084
735.940	0.0158996
736.018	0.0159171
736.096	0.0157730
736.174	0.0159196
736.253	0.0160459
736.331	0.0158942
736.409	0.0159074
736.487	0.0159399
736.565	0.0156487
736.643	0.0156473
736.721	0.0154893
736.799	0.0155341
736.878	0.0153827
736.956	0.0151814
737.034	0.0150143
737.112	0.0148311
737.190	0.0147699
737.268	0.0146465
737.346	0.0145284
737.424	0.0145490
737.503	0.0144396
737.581	0.0143548
737.659	0.0143362
737.737	0.0144001
737.815	0.0143786
737.893	0.0143608
737.971	0.0144198
738.049	0.0144205
738.128	0.0144928
738.206	0.0146006
738.284	0.0146160
738.362	0.0147636
738.440	0.0147932
738.518	0.0148502
738.596	0.0150219
738.674	0.0150470
738.753	0.0150330
738.831	0.0150999
738.909	0.0154336
738.987	0.0153652
739.065	0.0153780
739.143	0.0155410
739.221	0.0154037
739.299	0.0154708
739.378	0.0155797
739.456	0.0154696
739.534	0.0153335
739.612	0.0153688
739.690	0.0152850
739.768	0.0152248
739.846	0.0151936
739.924	0.0151566
740.003	0.0150975
740.081	0.0150227
740.159	0.0150557
740.237	0.0150505
740.315	0.0151410
740.393	0.0151067
740.471	0.0150934
740.549	0.0152941
740.628	0.0153810
740.706	0.0155503
740.784	0.0156982
740.862	0.0158179
740.940	0.0158895
741.018	0.0159004
741.096	0.0160011
741.174	0.0160322
741.253	0.0159791
741.331	0.0159545
741.409	0.0157599
741.487	0.0158264
741.565	0.0157345
741.643	0.0156866
741.721	0.0154375
741.799	0.0153955
741.878	0.0153853
741.956	0.0151822
742.034	0.0150137
742.112	0.0150018
742.190	0.0149945
742.268	0.0149205
742.346	0.0147059
742.424	0.0146357
742.503	0.0146033
742.581	0.0145438
742.659	0.0144857
742.737	0.0145306
742.815	0.0145337
742.893	0.0145210
742.971	0.0144376
743.049	0.0145610
743.128	0.0145895
743.206	0.0145726
743.284	0.0146449
743.362	0.0145648
743.440	0.0148214
743.518	0.0148389
743.596	0.0148477
743.674	0.0150847
743.753	0.0151849
743.831	0.0150809
743.909	0.0151807
743.987	0.0150681
744.065	0.0151923
744.143	0.0152783
744.221	0.0153471
744.299	0.0152893
744.378	0.0151723
744.456	0.0151686
744.534	0.0150356
744.612	0.0151317
744.690	0.0150121
744.768	0.0150201
744.846	0.0150282
744.924	0.0149675
745.003	0.0149915
745.081	0.0150566
745.159	0.0149497
745.237	0.0151903
745.315	0.0152609
745.393	0.0153782
745.471	0.0154494
745.549	0.0155691
745.628	0.0155611
745.706	0.0157324
745.784	0.0158817
745.862	0.0159851
745.940	0.0158813
746.018	0.0160190
746.096	0.0161636
746.174	0.0160609
746.253	0.0161819
746.331	0.0161230
746.409	0.0159794
746.487	0.0160704
746.565	0.0157973
746.643	0.0157271
746.721	0.0156976
746.799	0.0155357
746.878	0.0153278
746.956	0.0150798
747.034	0.0149704
747.112	0.0150020
747.190	0.0149142
747.268	0.0147190
747.346	0.0146140
747.424	0.0144518
747.503	0.0143366
747.581	0.0144424
747.659	0.0142452
747.737	0.0142616
747.815	0.0141875
747.893	0.0141213
747.971	0.0143709
748.049	0.0144941
748.128	0.0143199
748.206	0.0144111
748.284	0.0146556
748.362	0.0146876
748.440	0.0147273
748.518	0.0148115
748.596	0.0149204
748.674	0.0151392
748.753	0.0151422
748.831	0.0149940
748.909	0.0151537
748.987	0.0152964
749.065	0.0153516
749.143	0.0153725
749.221	0.0152600
749.299	0.0154246
749.378	0.0154905
749.456	0.0154355
749.534	0.0154453
749.612	0.0156075
749.690	0.0156532
749.768	0.0154222
749.846	0.0154852
749.924	0.0155658
750.003	0.0154983
750.081	0.0156865
750.159	0.0156562
750.237	0.0155606
750.315	0.0156680
750.393	0.0156391
750.471	0.0157068
750.549	0.0156625
750.628	0.0154806
750.706	0.0154056
750.784	0.0153385
750.862	0.0153362
750.940	0.0152392
751.018	0.0151885
751.096	0.0151750
751.174	0.0151446
751.253	0.0151779
751.331	0.0151888
751.409	0.0153117
751.487	0.0153383
751.565	0.0152699
751.643	0.0154364
751.721	0.0153636
751.799	0.0155236
751.878	0.0154401
751.956	0.0153392
752.034	0.0153350
752.112	0.0153288
752.190	0.0151792
752.268	0.0151134
752.346	0.0151268
752.424	0.0149210
752.503	0.0148739
752.581	0.0148731
752.659	0.0148049
752.737	0.0146832
752.815	0.0147434
752.893	0.0146545
752.971	0.0146336
753.049	0.0146667
753.128	0.0145697
753.206	0.0145489
753.284	0.0147021
753.362	0.0147770
753.440	0.0148844
753.518	0.0148869
753.596	0.0148578
753.674	0.0150507
753.753	0.0152135
753.831	0.0151672
753.909	0.0151770
753.987	0.0151498
754.065	0.0152785
754.143	0.0152330
754.221	0.0150153
754.299	0.0151303
754.378	0.0151093
754.456	0.0151967
754.534	0.0152124
754.612	0.0151627
754.690	0.0151444
754.768	0.0152615
754.846	0.0152554
754.924	0.0153231
755.003	0.0153046
755.081	0.0152215
755.159	0.0154028
755.237	0.0156533
755.315	0.0156010
755.393	0.0155569
755.471	0.0156517
755.549	0.0155790
755.628	0.0157317
755.706	0.0158239
755.784	0.0158174
755.862	0.0157138
755.940	0.0157472
756.018	0.0157246
756.096	0.0155950
756.174	0.0155244
756.253	0.0155312
756.331	0.0155463
756.409	0.0153080
756.487	0.0152714
756.565	0.0151589
756.643	0.0149894
756.721	0.0150307
756.799	0.0150957
756.878	0.0148942
756.956	0.0148686
757.034	0.0149866
757.112	0.0149489
757.190	0.0149139
757.268	0.0149716
757.346	0.0150517
757.424	0.0151749
757.503	0.0150821
757.581	0.0151199
757.659	0.0150450
757.737	0.0150959
757.815	0.0151537
757.893	0.0149939
757.971	0.0149351
758.049	0.0147550
758.128	0.0148106
758.206	0.0147715
758.284	0.0147375
758.362	0.0146422
758.440	0.0146444
758.518	0.0146307
758.596	0.0145902
758.674	0.0144048
758.753	0.0144685
758.831	0.0146920
758.909	0.0145912
758.987	0.0145446
759.065	0.0147228
759.143	0.0148501
759.221	0.0150350
759.299	0.0151973
759.378	0.0151591
759.456	0.0153190
759.534	0.0154710
759.612	0.0156541
759.690	0.0157712
759.768	0.0155755
759.846	0.0156962
759.924	0.0156197
760.003	0.0156613
760.081	0.0157048
760.159	0.0155740
760.237	0.0155488
760.315	0.0155480
760.393	0.0154371
760.471	0.0155971
760.549	0.0154318
760.628	0.0154098
760.706	0.0154598
760.784	0.0154021
760.862	0.0154786
760.940	0.0153563
761.018	0.0153916
761.096	0.0154842
761.174	0.0154430
761.253	0.0153693
761.331	0.0154316
761.409	0.0153541
761.487	0.0155328
761.565	0.0155485
761.643	0.0152652
761.721	0.0152225
761.799	0.0152697
761.878	0.0152435
761.956	0.0152184
762.034	0.0149844
762.112	0.0150942
762.190	0.0150959
762.268	0.0149656
762.346	0.0149843
762.424	0.0148715
762.503	0.0147895
762.581	0.0147207
762.659	0.0148871
762.737	0.0148801
762.815	0.0147475
762.893	0.0149425
762.971	0.0149791
763.049	0.0151150
763.128	0.0151937
763.206	0.0151505
763.284	0.0152148
763.362	0.0153090
763.440	0.0153188
763.518	0.0153068
763.596	0.0153992
763.674	0.0151501
763.753	0.0152388
763.831	0.0152578
763.909	0.0149992
763.987	0.0149091
764.065	0.0148428
764.143	0.0146496
764.221	0.0145016
764.299	0.0145071
764.378	0.0145834
764.456	0.0146151
764.534	0.0145940
764.612	0.0147485
764.690	0.0147413
764.768	0.0148756
764.846	0.0149681
764.924	0.0151476
765.003	0.0152920
765.081	0.0152922
765.159	0.0155312
765.237	0.0155764
765.315	0.0157362
765.393	0.0156098
765.471	0.0155878
765.549	0.0157047
765.628	0.0155721
765.706	0.0154444
765.784	0.0154553
765.862	0.0153454
765.940	0.0153118
766.018	0.0151746
766.096	0.0151529
766.174	0.0150961
766.253	0.0152089
766.331	0.0151483
766.409	0.0151233
766.487	0.0152183
766.565	0.0153356
766.643	0.0153365
766.721	0.0154657
766.799	0.0155933
766.878	0.0153899
766.956	0.0154936
767.034	0.0156100
767.112	0.0154891
767.190	0.0157050
767.268	0.0155466
767.346	0.0155925
767.424	0.0153574
767.503	0.0153352
767.581	0.0152133
767.659	0.0149841
767.737	0.0149357
767.815	0.0149201
767.893	0.0148451
767.971	0.0147054
768.049	0.0146798
768.128	0.0144920
768.206	0.0143159
768.284	0.0144085
768.362	0.0145043
768.440	0.0145892
768.518	0.0144579
768.596	0.0145951
768.674	0.0147147
768.753	0.0148855
768.831	0.0149769
768.909	0.0149446
768.987	0.0152711
769.065	0.0154451
769.143	0.0155774
769.221	0.0155447
769.299	0.0156643
769.378	0.0157030
769.456	0.0156133
769.534	0.0155914
769.612	0.0154787
769.690	0.0153130
769.768	0.0154607
769.846	0.0151682
769.924	0.0152469
770.003	0.0150075
770.081	0.0148335
770.159	0.0147227
770.237	0.0148093
770.315	0.0147427
770.393	0.0146574
770.471	0.0147010
770.549	0.0147865
770.628	0.0147436
770.706	0.0148943
770.784	0.0150345
770.862	0.0149628
770.940	0.0150322
771.018	0.0151026
771.096	0.0150038
771.174	0.0152424
771.253	0.0152586
771.331	0.0152558
771.409	0.0152133
771.487	0.0152069
771.565	0.0150490
771.643	0.0152489
771.721	0.0151555
771.799	0.0151253
771.878	0.0152632
771.956	0.0152421
772.034	0.0153809
772.112	0.0153865
772.190	0.0154572
772.268	0.0156373
772.346	0.0156848
772.424	0.0157882
772.503	0.0156316
772.581	0.0159269
772.659	0.0159508
772.737	0.0158371
772.815	0.0157983
772.893	0.0156676
772.971	0.0156955
773.049	0.0154697
773.128	0.0153838
773.206	0.0152168
773.284	0.0151324
773.362	0.0151578
773.440	0.0150277
773.518	0.0148759
773.596	0.0148831
773.674	0.0147588
773.753	0.0147324
773.831	0.0148067
773.909	0.0147507
773.987	0.0147897
774.065	0.0148408
774.143	0.0148386
774.221	0.0148242
774.299	0.0146604
774.378	0.0147888
774.456	0.0148206
774.534	0.0149993
774.612	0.0149668
774.690	0.0150378
774.768	0.0148987
774.846	0.0153097
774.924	0.0152471
775.003	0.0151826
775.081	0.0152567
775.159	0.0153947
775.237	0.0153291
775.315	0.0153513
775.393	0.0152000
775.471	0.0153716
775.549	0.0153406
775.628	0.0152697
775.706	0.0151761
775.784	0.0150809
775.862	0.0150765
775.940	0.0150771
776.018	0.0150005
776.096	0.0151643
776.174	0.0151250
776.253	0.0150471
776.331	0.0151299
776.409	0.0151263
776.487	0.0151157
776.565	0.0151296
776.643	0.0151376
776.721	0.0153222
776.799	0.0153936
776.878	0.0153506
776.956	0.0154404
777.034	0.0154687
777.112	0.0154470
777.190	0.0154696
777.268	0.0153371
777.346	0.0153639
777.424	0.0151705
777.503	0.0153689
777.581	0.0152400
777.659	0.0151791
777.737	0.0152468
777.815	0.0152477
777.893	0.0153139
777.971	0.0151962
778.049	0.0151793
778.128	0.0152327
778.206	0.0152660
778.284	0.0152700
778.362	0.0152094
778.440	0.0154222
778.518	0.0153011
778.596	0.0153748
778.674	0.0152848
778.753	0.0151527
778.831	0.0152211
778.909	0.0151637
778.987	0.0151750
779.065	0.0148995
779.143	0.0149802
779.221	0.0149274
779.299	0.0149088
779.378	0.0147712
779.456	0.0148769
779.534	0.0149120
779.612	0.0149249
779.690	0.0149419
779.768	0.0151070
779.846	0.0150106
779.924	0.0150797
780.003	0.0150347
780.081	0.0150756
780.159	0.0151192
780.237	0.0150003
780.315	0.0151122
780.393	0.0151550
780.471	0.0151724
780.549	0.0152111
780.628	0.0152197
780.706	0.0153357
780.784	0.0150300
780.862	0.0151215
780.940	0.0153147
781.018	0.0153888
781.096	0.0152537
781.174	0.0152464
781.253	0.0154326
781.331	0.0153675
781.409	0.0154559
781.487	0.0153027
781.565	0.0153997
781.643	0.0154259
781.721	0.0153771
781.799	0.0152396
781.878	0.0153762
781.956	0.0154094
782.034	0.0151840
782.112	0.0153158
782.190	0.0151759
782.268	0.0152493
782.346	0.0153745
782.424	0.0150927
782.503	0.0150667
782.581	0.0152375
782.659	0.0150526
782.737	0.0151473
782.815	0.0150925
782.893	0.0150919
782.971	0.0150143
783.049	0.0150099
783.128	0.0150450
783.206	0.0150919
783.284	0.0150829
783.362	0.0150659
783.440	0.0149766
783.518	0.0150311
783.596	0.0150842
783.674	0.0150075
783.753	0.0150100
783.831	0.0149419
783.909	0.0151070
783.987	0.0152190
784.065	0.0151405
784.143	0.0152601
784.221	0.0151942
784.299	0.0153815
784.378	0.0151245
784.456	0.0151799
784.534	0.0153836
784.612	0.0152340
784.690	0.0154104
784.768	0.0153014
784.846	0.0151250
784.924	0.0151254
785.003	0.0151819
785.081	0.0151210
785.159	0.0151105
785.237	0.0153046
785.315	0.0153121
785.393	0.0152608
785.471	0.0151055
785.549	0.0152508
785.628	0.0152209
785.706	0.0152538
785.784	0.0151082
785.862	0.0150481
785.940	0.0151634
786.018	0.0150958
786.096	0.0151458
786.174	0.0150758
786.253	0.0150842
786.331	0.0150087
786.409	0.0148226
786.487	0.0147024
786.565	0.0149355
786.643	0.0147416
786.721	0.0147973
786.799	0.0148248
786.878	0.0148048
786.956	0.0149612
787.034	0.0149210
787.112	0.0150932
787.190	0.0151186
787.268	0.0151669
787.346	0.0152502
787.424	0.0153295
787.503	0.0153424
787.581	0.0154964
787.659	0.0154581
787.737	0.0154300
787.815	0.0155919
787.893	0.0156635
787.971	0.0156273
788.049	0.0155714
788.128	0.0155141
788.206	0.0156498
788.284	0.0155798
788.362	0.0155098
788.440	0.0153184
788.518	0.0154585
788.596	0.0153307
788.674	0.0151668
788.753	0.0152639
788.831	0.0152927
788.909	0.0152575
788.987	0.0151283
789.065	0.0152431
789.143	0.0151678
789.221	0.0151919
789.299	0.0151111
789.378	0.0151321
789.456	0.0150842
789.534	0.0150734
789.612	0.0151414
789.690	0.0149785
789.768	0.0150800
789.846	0.0149289
789.924	0.0150715
790.003	0.0149643
790.081	0.0150204
790.159	0.0149948
790.237	0.0149220
790.315	0.0148822
790.393	0.0149146
790.471	0.0148951
790.549	0.0147858
790.628	0.0148823
790.706	0.0149104
790.784	0.0147984
790.862	0.0146992
790.940	0.0148201
791.018	0.0148807
791.096	0.0149426
791.174	0.0149647
791.253	0.0149061
791.331	0.0150661
791.409	0.0151391
791.487	0.0151969
791.565	0.0152442
791.643	0.0154277
791.721	0.0153500
791.799	0.0154221
791.878	0.0153468
791.956	0.0154250
792.034	0.0156686
792.112	0.0154987
792.190	0.0155013
792.268	0.0153497
792.346	0.0152438
792.424	0.0153538
792.503	0.0154302
792.581	0.0153346
792.659	0.0151903
792.737	0.0152222
792.815	0.0151391
792.893	0.0151246
792.971	0.0151340
793.049	0.0149977
793.128	0.0150134
793.206	0.0150072
793.284	0.0150273
793.362	0.0150595
793.440	0.0149737
793.518	0.0150479
793.596	0.0149837
793.674	0.0152544
793.753	0.0151254
793.831	0.0152567
793.909	0.0151241
793.987	0.0152123
794.065	0.0151571
794.143	0.0152670
794.221	0.0151924
794.299	0.0151630
794.378	0.0152480
794.456	0.0152795
794.534	0.0151991
794.612	0.0152941
794.690	0.0152339
794.768	0.0152292
794.846	0.0150943
794.924	0.0150695
795.003	0.0150932
795.081	0.0149668
795.159	0.0150827
795.237	0.0151554
795.315	0.0149611
795.393	0.0149769
795.471	0.0151722
795.549	0.0150711
795.628	0.0151332
795.706	0.0151369
795.784	0.0150915
795.862	0.0151107
795.940	0.0150844
796.018	0.0151896
796.096	0.0151068
796.174	0.0151855
796.253	0.0151233
796.331	0.0151248
796.409	0.0151171
796.487	0.0150298
796.565	0.0148887
796.643	0.0149078
796.721	0.0148850
796.799	0.0148551
796.878	0.0149399
796.956	0.0149015
797.034	0.0149282
797.112	0.0148727
797.190	0.0149047
797.268	0.0149584
797.346	0.0147748
797.424	0.0149762
797.503	0.0150197
797.581	0.0150439
797.659	0.0149664
797.737	0.0150833
797.815	0.0151725
797.893	0.0151005
797.971	0.0151744
798.049	0.0152446
798.128	0.0153733
798.206	0.0152263
798.284	0.0152228
798.362	0.0154279
798.440	0.0154085
798.518	0.0153158
798.596	0.0153777
798.674	0.0155627
798.753	0.0155509
798.831	0.0154166
798.909	0.0155049
798.987	0.0154376
799.065	0.0153072
799.143	0.0152473
799.221	0.0151720
799.299	0.0151945
799.378	0.0151713
799.456	0.0151244
799.534	0.0151097
799.612	0.0151882
799.690	0.0152102
799.768	0.0151300
799.846	0.0151652
799.924	0.0151553
800.003	0.0150478
800.081	0.0151242
800.159	0.0151596
800.237	0.0151712
800.315	0.0151477
800.393	0.0150681
800.471	0.0151282
800.549	0.0151775
800.628	0.0151831
800.706	0.0153519
800.784	0.0151054
800.862	0.0151308
800.940	0.0151034
801.018	0.0152478
801.096	0.0150925
801.174	0.0152106
801.253	0.0151181
801.331	0.0151960
801.409	0.0152738
801.487	0.0150978
801.565	0.0150996
801.643	0.0151888
801.721	0.0152367
801.799	0.0152043
801.878	0.0151820
801.956	0.0151066
802.034	0.0152582
802.112	0.0152105
802.190	0.0152338
802.268	0.0151019
802.346	0.0150143
802.424	0.0151440
802.503	0.0150667
802.581	0.0152159
802.659	0.0150620
802.737	0.0150783
802.815	0.0150773
802.893	0.0148931
802.971	0.0149239
803.049	0.0149791
803.128	0.0148803
803.206	0.0148640
803.284	0.0150085
803.362	0.0151078
803.440	0.0149489
803.518	0.0148808
803.596	0.0149582
803.674	0.0149809
803.753	0.0149935
803.831	0.0150661
803.909	0.0149353
803.987	0.0151453
804.065	0.0151035
804.143	0.0150368
804.221	0.0151517
804.299	0.0151256
804.378	0.0152570
804.456	0.0153392
804.534	0.0152039
804.612	0.0152922
804.690	0.0152308
804.768	0.0154329
804.846	0.0153030
804.924	0.0154296
805.003	0.0156473
805.081	0.0156554
805.159	0.0155173
805.237	0.0155070
805.315	0.0152964
805.393	0.0155704
805.471	0.0154325
805.549	0.0153616
805.628	0.0153441
805.706	0.0152728
805.784	0.0153938
805.862	0.0150578
805.940	0.0152172
806.018	0.0151803
806.096	0.0150591
806.174	0.0151788
806.253	0.0150323
806.331	0.0150032
806.409	0.0151026
806.487	0.0149636
806.565	0.0150570
806.643	0.0150500
806.721	0.0150154
806.799	0.0149467
806.878	0.0149397
806.956	0.0150391
807.034	0.0148910
807.112	0.0149953
807.190	0.0150884
807.268	0.0150456
807.346	0.0150497
807.424	0.0150889
807.503	0.0151297
807.581	0.0150429
807.659	0.0152285
807.737	0.0151979
807.815	0.0151488
807.893	0.0152314
807.971	0.0153255
808.049	0.0151866
808.128	0.0153889
808.206	0.0153705
808.284	0.0152584
808.362	0.0152682
808.440	0.0152548
808.518	0.0152802
808.596	0.0153506
808.674	0.0152222
808.753	0.0151935
808.831	0.0152886
808.909	0.0152730
808.987	0.0150802
809.065	0.0150014
809.143	0.0151695
809.221	0.0149886
809.299	0.0150168
809.378	0.0150706
809.456	0.0152287
809.534	0.0150201
809.612	0.0149514
809.690	0.0150957
809.768	0.0149936
809.846	0.0149445
809.924	0.0150469
810.003	0.0149294
810.081	0.0149562
810.159	0.0150988
810.237	0.0151379
810.315	0.0149284
810.393	0.0150273
810.471	0.0150352
810.549	0.0149940
810.628	0.0150964
810.706	0.0150659
810.784	0.0151577
810.862	0.0151807
810.940	0.0150665
811.018	0.0151272
811.096	0.0152162
811.174	0.0153968
811.253	0.0153133
811.331	0.0153064
811.409	0.0154388
811.487	0.0154493
811.565	0.0154078
811.643	0.0154858
811.721	0.0155206
811.799	0.0155214
811.878	0.0155731
811.956	0.0155633
812.034	0.0155125
812.112	0.0156285
812.190	0.0155036
812.268	0.0154476
812.346	0.0154066
812.424	0.0152065
812.503	0.0153093
812.581	0.0153006
812.659	0.0154575
812.737	0.0152253
812.815	0.0152446
812.893	0.0150627
812.971	0.0150575
813.049	0.0151264
813.128	0.0151583
813.206	0.0150082
813.284	0.0149905
813.362	0.0150479
813.440	0.0150459
813.518	0.0149728
813.596	0.0150587
813.674	0.0149036
813.753	0.0150166
813.831	0.0150732
813.909	0.0151117
813.987	0.0150957
814.065	0.0153042
814.143	0.0152439
814.221	0.0151808
814.299	0.0151839
814.378	0.0152066
814.456	0.0152405
814.534	0.0152761
814.612	0.0151366
814.690	0.0153284
814.768	0.0152349
814.846	0.0150276
814.924	0.0152249
815.003	0.0151715
815.081	0.0152229
815.159	0.0151067
815.237	0.0150285
815.315	0.0151091
815.393	0.0150290
815.471	0.0150050
815.549	0.0151991
815.628	0.0151868
815.706	0.0151625
815.784	0.0150622
815.862	0.0151501
815.940	0.0153506
816.018	0.0152444
816.096	0.0151621
816.174	0.0151989
816.253	0.0151057
816.331	0.0151708
816.409	0.0151361
816.487	0.0150057
816.565	0.0150623
816.643	0.0151022
816.721	0.0149412
816.799	0.0151016
816.878	0.0150452
816.956	0.0151616
817.034	0.0152712
817.112	0.0151682
817.190	0.0150668
817.268	0.0151717
817.346	0.0151625
817.424	0.0152857
817.503	0.0152985
817.581	0.0152711
817.659	0.0151922
817.737	0.0152834
817.815	0.0150436
817.893	0.0152222
817.971	0.0152824
818.049	0.0151825
818.128	0.0152839
818.206	0.0153130
818.284	0.0152590
818.362	0.0153065
818.440	0.0151926
818.518	0.0151781
818.596	0.0152357
818.674	0.0151817
818.753	0.0151559
818.831	0.0151112
818.909	0.0151546
818.987	0.0151351
819.065	0.0152281
819.143	0.0150741
819.221	0.0151206
819.299	0.0152062
819.378	0.0151096
819.456	0.0151595
819.534	0.0151259
819.612	0.0151536
819.690	0.0151178
819.768	0.0152407
819.846	0.0152197
819.924	0.0152328
820.003	0.0152617
820.081	0.0154012
820.159	0.0152972
820.237	0.0153203
820.315	0.0152818
820.393	0.0151665
820.471	0.0153003
820.549	0.0153050
820.628	0.0152694
820.706	0.0154634
820.784	0.0153230
820.862	0.0151683
820.940	0.0153453
821.018	0.0151368
821.096	0.0150475
821.174	0.0152065
821.253	0.0153493
821.331	0.0152031
821.409	0.0150420
821.487	0.0150716
821.565	0.0151501
821.643	0.0149327
821.721	0.0151288
821.799	0.0150262
821.878	0.0148827
821.956	0.0149918
822.034	0.0148811
822.112	0.0149136
822.190	0.0148502
822.268	0.0148996
822.346	0.0148219
822.424	0.0149035
822.503	0.0147314
822.581	0.0149163
822.659	0.0149231
822.737	0.0148732
822.815	0.0149552
822.893	0.0148973
822.971	0.0150345
823.049	0.0150845
823.128	0.0149948
823.206	0.0150906
823.284	0.0152781
823.362	0.0152353
823.440	0.0152575
823.518	0.0152290
823.596	0.0153271
823.674	0.0152925
823.753	0.0153367
823.831	0.0152290
823.909	0.0151997
823.987	0.0153072
824.065	0.0153344
824.143	0.0152446
824.221	0.0153176
824.299	0.0153171
824.378	0.0154038
824.456	0.0153411
824.534	0.0153349
824.612	0.0153354
824.690	0.0154121
824.768	0.0153560
824.846	0.0153582
824.924	0.0153009
825.003	0.0154687
825.081	0.0154971
825.159	0.0153790
825.237	0.0154719
825.315	0.0154140
825.393	0.0152464
825.471	0.0153196
825.549	0.0152908
825.628	0.0153245
825.706	0.0153508
825.784	0.0153326
825.862	0.0154333
825.940	0.0152816
826.018	0.0152525
826.096	0.0151599
826.174	0.0151324
826.253	0.0151382
826.331	0.0149895
826.409	0.0150034
826.487	0.0149509
826.565	0.0147978
826.643	0.0149664
826.721	0.0149419
826.799	0.0149310
826.878	0.0147771
826.956	0.0148523
827.034	0.0149144
827.112	0.0149738
827.190	0.0149921
827.268	0.0152206
827.346	0.0150968
827.424	0.0150493
827.503	0.0150351
827.581	0.0152631
827.659	0.0151451
827.737	0.0150871
827.815	0.0152776
827.893	0.0152720
827.971	0.0152986
828.049	0.0152448
828.128	0.0152666
828.206	0.0153504
828.284	0.0152318
828.362	0.0152734
828.440	0.0151274
828.518	0.0152373
828.596	0.0153918
828.674	0.0152030
828.753	0.0152763
828.831	0.0152214
828.909	0.0152179
828.987	0.0153051
829.065	0.0152337
829.143	0.0151210
829.221	0.0153324
829.299	0.0150778
829.378	0.0151899
829.456	0.0151784
829.534	0.0152717
829.612	0.0151208
829.690	0.0152216
829.768	0.0151540
829.846	0.0150503
829.924	0.0150395
830.003	0.0151201
830.081	0.0150820
830.159	0.0151394
830.237	0.0149689
830.315	0.0151279
830.393	0.0150719
830.471	0.0150127
830.549	0.0150581
830.628	0.0149979
830.706	0.0150031
830.784	0.0149464
830.862	0.0149390
830.940	0.0150857
831.018	0.0151590
831.096	0.0151784
831.174	0.0151771
831.253	0.0151949
831.331	0.0151725
831.409	0.0150871
831.487	0.0151952
831.565	0.0150972
831.643	0.0151470
831.721	0.0153067
831.799	0.0153498
831.878	0.0153490
831.956	0.0153624
832.034	0.0151709
832.112	0.0153887
832.190	0.0152578
832.268	0.0152594
832.346	0.0153874
832.424	0.0153861
832.503	0.0153500
832.581	0.0154512
832.659	0.0153805
832.737	0.0154398
832.815	0.0154147
832.893	0.0154078
832.971	0.0152840
833.049	0.0152727
833.128	0.0153323
833.206	0.0152693
833.284	0.0151240
833.362	0.0153378
833.440	0.0151972
833.518	0.0150375
833.596	0.0151216
833.674	0.0149595
833.753	0.0149818
833.831	0.0151122
833.909	0.0149371
833.987	0.0149487
834.065	0.0150054
834.143	0.0148805
834.221	0.0150018
834.299	0.0150639
834.378	0.0149860
834.456	0.0150198
834.534	0.0150900
834.612	0.0149851
834.690	0.0150395
834.768	0.0152161
834.846	0.0151086
834.924	0.0151552
835.003	0.0151405
835.081	0.0151734
835.159	0.0152470
835.237	0.0151605
835.315	0.0150945
835.393	0.0152184
835.471	0.0153405
835.549	0.0151352
835.628	0.0152573
835.706	0.0153130
835.784	0.0153094
835.862	0.0154223
835.940	0.0151073
836.018	0.0152026
836.096	0.0153754
836.174	0.0151655
836.253	0.0152287
836.331	0.0151999
836.409	0.0152224
836.487	0.0152848
836.565	0.0153158
836.643	0.0153123
836.721	0.0154264
836.799	0.0152950
836.878	0.0152349
836.956	0.0151891
837.034	0.0152687
837.112	0.0153348
837.190	0.0153032
837.268	0.0152738
837.346	0.0152702
837.424	0.0151648
837.503	0.0152468
837.581	0.0151849
837.659	0.0152765
837.737	0.0152967
837.815	0.0152060
837.893	0.0151978
837.971	0.0151074
838.049	0.0152924
838.128	0.0152704
838.206	0.0151577
838.284	0.0150879
838.362	0.0152113
838.440	0.0152332
838.518	0.0153185
838.596	0.0153629
838.674	0.0153294
838.753	0.0152723
838.831	0.0152305
838.909	0.0153204
838.987	0.0153316
839.065	0.0154744
839.143	0.0152044
839.221	0.0151404
839.299	0.0152887
839.378	0.0152475
839.456	0.0153487
839.534	0.0151349
839.612	0.0152991
839.690	0.0152417
839.768	0.0149903
839.846	0.0151711
839.924	0.0151123
840.003	0.0150385
840.081	0.0151051
840.159	0.0150859
840.237	0.0151585
840.315	0.0151062
840.393	0.0150069
840.471	0.0148901
840.549	0.0149992
840.628	0.0150809
840.706	0.0150808
840.784	0.0152317
840.862	0.0150774
840.940	0.0151915
841.018	0.0152299
841.096	0.0151053
841.174	0.0151215
841.253	0.0150511
841.331	0.0151057
841.409	0.0152587
841.487	0.0152046
841.565	0.0151859
841.643	0.0151373
841.721	0.0153301
841.799	0.0151807
841.878	0.0153562
841.956	0.0153616
842.034	0.0153405
842.112	0.0153375
842.190	0.0153222
842.268	0.0153553
842.346	0.0152494
842.424	0.0154137
842.503	0.0152702
842.581	0.0152804
842.659	0.0154193
842.737	0.0153195
842.815	0.0153097
842.893	0.0154003
842.971	0.0152470
843.049	0.0152716
843.128	0.0151385
843.206	0.0152625
843.284	0.0152924
843.362	0.0153246
843.440	0.0152441
843.518	0.0151765
843.596	0.0151739
843.674	0.0152074
843.753	0.0150916
843.831	0.0152262
843.909	0.0151271
843.987	0.0151768
844.065	0.0151943
844.143	0.0150600
844.221	0.0150368
844.299	0.0150813
844.378	0.0151670
844.456	0.0149120
844.534	0.0150543
844.612	0.0150363
844.690	0.0150554
844.768	0.0150367
844.846	0.0151289
844.924	0.0150459
845.003	0.0149718
845.081	0.0149344
845.159	0.0150940
845.237	0.0151131
845.315	0.0153262
845.393	0.0151374
845.471	0.0151947
845.549	0.0151708
845.628	0.0152495
845.706	0.0152374
845.784	0.0151431
845.862	0.0152296
845.940	0.0151953
846.018	0.0152144
846.096	0.0152419
846.174	0.0153865
846.253	0.0153175
846.331	0.0152216
846.409	0.0153468
846.487	0.0151875
846.565	0.0153579
846.643	0.0152388
846.721	0.0152909
846.799	0.0152824
846.878	0.0153461
846.956	0.0151369
847.034	0.0151299
847.112	0.0151619
847.190	0.0152816
847.268	0.0152546
847.346	0.0151488
847.424	0.0153221
847.503	0.0150931
847.581	0.0151640
847.659	0.0153231
847.737	0.0152302
847.815	0.0152650
847.893	0.0152634
847.971	0.0152386
848.049	0.0153259
848.128	0.0153790
848.206	0.0152182
848.284	0.0149956
848.362	0.0153230
848.440	0.0152976
848.518	0.0152412
848.596	0.0152583
848.674	0.0152044
848.753	0.0152461
848.831	0.0151510
848.909	0.0152872
848.987	0.0150660
849.065	0.0152302
849.143	0.0150985
849.221	0.0150636
849.299	0.0151607
849.378	0.0150195
849.456	0.0150632
849.534	0.0152664
849.612	0.0151027
849.690	0.0152464
849.768	0.0150535
849.846	0.0151210
849.924	0.0150874
850.003	0.0151927
850.081	0.0151774
850.159	0.0150996
850.237	0.0151448
850.315	0.0150642
850.393	0.0152657
850.471	0.0151968
850.549	0.0152615
850.628	0.0151503
850.706	0.0149877
850.784	0.0152800
850.862	0.0152010
850.940	0.0150886
851.018	0.0150563
851.096	0.0151385
851.174	0.0152399
851.253	0.0151154
851.331	0.0151467
851.409	0.0152457
851.487	0.0152081
851.565	0.0151299
851.643	0.0152468
851.721	0.0151637
851.799	0.0151659
851.878	0.0151540
851.956	0.0152495
852.034	0.0153968
852.112	0.0152717
852.190	0.0152239
852.268	0.0151317
852.346	0.0153558
852.424	0.0154438
852.503	0.0154720
852.581	0.0154153
852.659	0.0154042
852.737	0.0155527
852.815	0.0153759
852.893	0.0153028
852.971	0.0152596
853.049	0.0153829
853.128	0.0153941
853.206	0.0152705
853.284	0.0152566
853.362	0.0151718
853.440	0.0152204
853.518	0.0150031
853.596	0.0150803
853.674	0.0150945
853.753	0.0150932
853.831	0.0149928
853.909	0.0149687
853.987	0.0149603
854.065	0.0150250
854.143	0.0149514
854.221	0.0151165
854.299	0.0149251
854.378	0.0151271
854.456	0.0150956
854.534	0.0151388
854.612	0.0151553
854.690	0.0150927
854.768	0.0152098
854.846	0.0151864
854.924	0.0153391
855.003	0.0151762
855.081	0.0151858
855.159	0.0153021
855.237	0.0152661
855.315	0.0151110
855.393	0.0151634
855.471	0.0152905
855.549	0.0151659
855.628	0.0151713
855.706	0.0152686
855.784	0.0152023
855.862	0.0152481
855.940	0.0152316
856.018	0.0151081
856.096	0.0152489
856.174	0.0151302
856.253	0.0152303
856.331	0.0153871
856.409	0.0152659
856.487	0.0151616
856.565	0.0153505
856.643	0.0154411
856.721	0.0151759
856.799	0.0151446
856.878	0.0152288
856.956	0.0153291
857.034	0.0152134
857.112	0.0152843
857.190	0.0152324
857.268	0.0152135
857.346	0.0152254
857.424	0.0152809
857.503	0.0151681
857.581	0.0152006
857.659	0.0152778
857.737	0.0152458
857.815	0.0152048
857.893	0.0152079
857.971	0.0150972
858.049	0.0150772
858.128	0.0150182
858.206	0.0151376
858.284	0.0151706
858.362	0.0151685
858.440	0.0151054
858.518	0.0150078
858.596	0.0151249
858.674	0.0151553
858.753	0.0150328
858.831	0.0150028
858.909	0.0151825
858.987	0.0152988
859.065	0.0150761
859.143	0.0153353
859.221	0.0152463
859.299	0.0153594
859.378	0.0152950
859.456	0.0153298
859.534	0.0152872
859.612	0.0152628
859.690	0.0152309
859.768	0.0151759
859.846	0.0151746
859.924	0.0151534
860.003	0.0153265
860.081	0.0150471
860.159	0.0151395
860.237	0.0151089
860.315	0.0150547
860.393	0.0151356
860.471	0.0150165
860.549	0.0150381
860.628	0.0151499
860.706	0.0149837
860.784	0.0150729
860.862	0.0150915
860.940	0.0149582
861.018	0.0150206
861.096	0.0151069
861.174	0.0150574
861.253	0.0151586
861.331	0.0151125
861.409	0.0151437
861.487	0.0153381
861.565	0.0151508
861.643	0.0151398
861.721	0.0153106
861.799	0.0151739
861.878	0.0152909
861.956	0.0153198
862.034	0.0152721
862.112	0.0152701
862.190	0.0154373
862.268	0.0152570
862.346	0.0153181
862.424	0.0154343
862.503	0.0152802
862.581	0.0151713
862.659	0.0152454
862.737	0.0152293
862.815	0.0152800
862.893	0.0151772
862.971	0.0152003
863.049	0.0153762
863.128	0.0153094
863.206	0.0151208
863.284	0.0151147
863.362	0.0152578
863.440	0.0151805
863.518	0.0150336
863.596	0.0151488
863.674	0.0151202
863.753	0.0151526
863.831	0.0151653
863.909	0.0151486
863.987	0.0150558
864.065	0.0152845
864.143	0.0150582
864.221	0.0151197
864.299	0.0150782
864.378	0.0149148
864.456	0.0150882
864.534	0.0151048
864.612	0.0150134
864.690	0.0150484
864.768	0.0149929
864.846	0.0151573
864.924	0.0150406
865.003	0.0149825
865.081	0.0149837
865.159	0.0148961
865.237	0.0149539
865.315	0.0150819
865.393	0.0151140
865.471	0.0151785
865.549	0.0151683
865.628	0.0151514
865.706	0.0154203
865.784	0.0152295
865.862	0.0153103
865.940	0.0153007
866.018	0.0154468
866.096	0.0154552
866.174	0.0155407
866.253	0.0153600
866.331	0.0153690
866.409	0.0153978
866.487	0.0153760
866.565	0.0153684
866.643	0.0154198
866.721	0.0152668
866.799	0.0151904
866.878	0.0153147
866.956	0.0152150
867.034	0.0151591
867.112	0.0152628
867.190	0.0151443
867.268	0.0151732
867.346	0.0151106
867.424	0.0151666
867.503	0.0151529
867.581	0.0151685
867.659	0.0151859
867.737	0.0151675
867.815	0.0151348
867.893	0.0153075
867.971	0.0152353
868.049	0.0151897
868.128	0.0153293
868.206	0.0154077
868.284	0.0152388
868.362	0.0152769
868.440	0.0152271
868.518	0.0152918
868.596	0.0152334
868.674	0.0153045
868.753	0.0152852
868.831	0.0153516
868.909	0.0151898
868.987	0.0152708
869.065	0.0152163
869.143	0.0150932
869.221	0.0152056
869.299	0.0150539
869.378	0.0151579
869.456	0.0152036
869.534	0.0151417
869.612	0.0151524
869.690	0.0151347
869.768	0.0151770
869.846	0.0151276
869.924	0.0152293
870.003	0.0150033
870.081	0.0150140
870.159	0.0150694
870.237	0.0149769
870.315	0.0149467
870.393	0.0151672
870.471	0.0151338
870.549	0.0150325
870.628	0.0150858
870.706	0.0150826
870.784	0.0149654
870.862	0.0150202
870.940	0.0151160
871.018	0.0153139
871.096	0.0151138
871.174	0.0151137
871.253	0.0150016
871.331	0.0149857
871.409	0.0150093
871.487	0.0150362
871.565	0.0151336
871.643	0.0151675
871.721	0.0151473
871.799	0.0150998
871.878	0.0152242
871.956	0.0151917
872.034	0.0151996
872.112	0.0152634
872.190	0.0153850
872.268	0.0153313
872.346	0.0153649
872.424	0.0152139
872.503	0.0153094
872.581	0.0153837
872.659	0.0152481
872.737	0.0152055
872.815	0.0152177
872.893	0.0153030
872.971	0.0152770
873.049	0.0153181
873.128	0.0154604
873.206	0.0153994
873.284	0.0152667
873.362	0.0152869
873.440	0.0152745
873.518	0.0153378
873.596	0.0152841
873.674	0.0153278
873.753	0.0152292
873.831	0.0152583
873.909	0.0152018
873.987	0.0152218
874.065	0.0151883
874.143	0.0152436
874.221	0.0152576
874.299	0.0152167
874.378	0.0151450
874.456	0.0151131
874.534	0.0152466
874.612	0.0152426
874.690	0.0151758
874.768	0.0151551
874.846	0.0151674
874.924	0.0152376
875.003	0.0150833
875.081	0.0151883
875.159	0.0151880
875.237	0.0150709
875.315	0.0151092
875.393	0.0152243
875.471	0.0151517
875.549	0.0152328
875.628	0.0150972
875.706	0.0150642
875.784	0.0150952
875.862	0.0151378
875.940	0.0150295
876.018	0.0150655
876.096	0.0151172
876.174	0.0151578
876.253	0.0150085
876.331	0.0151781
876.409	0.0150159
876.487	0.0151959
876.565	0.0152553
876.643	0.0150897
876.721	0.0150974
876.799	0.0151488
876.878	0.0150698
876.956	0.0151322
877.034	0.0152642
877.112	0.0152220
877.190	0.0152321
877.268	0.0152713
877.346	0.0152512
877.424	0.0151296
877.503	0.0151061
877.581	0.0152956
877.659	0.0152957
877.737	0.0152502
877.815	0.0154182
877.893	0.0152943
877.971	0.0152721
878.049	0.0152816
878.128	0.0152274
878.206	0.0151813
878.284	0.0152700
878.362	0.0154433
878.440	0.0153648
878.518	0.0152798
878.596	0.0152528
878.674	0.0153760
878.753	0.0152670
878.831	0.0153510
878.909	0.0153500
878.987	0.0152682
879.065	0.0152853
879.143	0.0154567
879.221	0.0152422
879.299	0.0154409
879.378	0.0153815
879.456	0.0152261
879.534	0.0152251
879.612	0.0152787
879.690	0.0152785
879.768	0.0152572
879.846	0.0152117
879.924	0.0152007
880.003	0.0151357
880.081	0.0151752
880.159	0.0151151
880.237	0.0150410
880.315	0.0150496
880.393	0.0150673
880.471	0.0150562
880.549	0.0152628
880.628	0.0150346
880.706	0.0150926
880.784	0.0150943
880.862	0.0149538
880.940	0.0150744
881.018	0.0149894
881.096	0.0149921
881.174	0.0151051
881.253	0.0151321
881.331	0.0151499
881.409	0.0150093
881.487	0.0151151
881.565	0.0150790
881.643	0.0152350
881.721	0.0151765
881.799	0.0150040
881.878	0.0152378
881.956	0.0153374
882.034	0.0153895
882.112	0.0153441
882.190	0.0152328
882.268	0.0152700
882.346	0.0152814
882.424	0.0151780
882.503	0.0152940
882.581	0.0153215
882.659	0.0152774
882.737	0.0151642
882.815	0.0151463
882.893	0.0151881
882.971	0.0152444
883.049	0.0152691
883.128	0.0152324
883.206	0.0152637
883.284	0.0152499
883.362	0.0152267
883.440	0.0151712
883.518	0.0153073
883.596	0.0152329
883.674	0.0152619
883.753	0.0152718
883.831	0.0152631
883.909	0.0151600
883.987	0.0152334
884.065	0.0152753
884.143	0.0152547
884.221	0.0153043
884.299	0.0153526
884.378	0.0152880
884.456	0.0152129
884.534	0.0151302
884.612	0.0151022
884.690	0.0151876
884.768	0.0153117
884.846	0.0152252
884.924	0.0150577
885.003	0.0150800
885.081	0.0152177
885.159	0.0151219
885.237	0.0151015
885.315	0.0150476
885.393	0.0150282
885.471	0.0151097
885.549	0.0151332
885.628	0.0152225
885.706	0.0151326
885.784	0.0150920
885.862	0.0150861
885.940	0.0149861
886.018	0.0150381
886.096	0.0150734
886.174	0.0151579
886.253	0.0150319
886.331	0.0150793
886.409	0.0149812
886.487	0.0150566
886.565	0.0150546
886.643	0.0152063
886.721	0.0150175
886.799	0.0150304
886.878	0.0150718
886.956	0.0150483
887.034	0.0153201
887.112	0.0151003
887.190	0.0151254
887.268	0.0151059
887.346	0.0151556
887.424	0.0151405
887.503	0.0150189
887.581	0.0150652
887.659	0.0152472
887.737	0.0151637
887.815	0.0151461
887.893	0.0151917
887.971	0.0152142
888.049	0.0151254
888.128	0.0153104
888.206	0.0152328
888.284	0.0152093
888.362	0.0153258
888.440	0.0153306
888.518	0.0152622
888.596	0.0151203
888.674	0.0152396
888.753	0.0152976
888.831	0.0152665
888.909	0.0151795
888.987	0.0152930
889.065	0.0152753
889.143	0.0152547
889.221	0.0152584
889.299	0.0151797
889.378	0.0151191
889.456	0.0151396
889.534	0.0153090
889.612	0.0151359
889.690	0.0152068
889.768	0.0151990
889.846	0.0150281
889.924	0.0150575
890.003	0.0152534
890.081	0.0150709
890.159	0.0150388
890.237	0.0151553
890.315	0.0152611
890.393	0.0152381
890.471	0.0151986
890.549	0.0152085
890.628	0.0151138
890.706	0.0152054
890.784	0.0153391
890.862	0.0151779
890.940	0.0151620
891.018	0.0152246
891.096	0.0149917
891.174	0.0153238
891.253	0.0152761
891.331	0.0152126
891.409	0.0151797
891.487	0.0151823
891.565	0.0152061
891.643	0.0150662
891.721	0.0151789
891.799	0.0151064
891.878	0.0151429
891.956	0.0151701
892.034	0.0151231
892.112	0.0151628
892.190	0.0152750
892.268	0.0153185
892.346	0.0151698
892.424	0.0151141
892.503	0.0152840
892.581	0.0151829
892.659	0.0151984
892.737	0.0152152
892.815	0.0151730
892.893	0.0150742
892.971	0.0151508
893.049	0.0152210
893.128	0.0151269
893.206	0.0152162
893.284	0.0151810
893.362	0.0152019
893.440	0.0151731
893.518	0.0152256
893.596	0.0152335
893.674	0.0151293
893.753	0.0151655
893.831	0.0152804
893.909	0.0152409
893.987	0.0152484
894.065	0.0151589
894.143	0.0153005
894.221	0.0152707
894.299	0.0153072
894.378	0.0152708
894.456	0.0152407
894.534	0.0153149
894.612	0.0151054
894.690	0.0151261
894.768	0.0151637
894.846	0.0152297
894.924	0.0151519
895.003	0.0151962
895.081	0.0151884
895.159	0.0151881
895.237	0.0152458
895.315	0.0152270
895.393	0.0151900
895.471	0.0152074
895.549	0.0150662
895.628	0.0153018
895.706	0.0152303
895.784	0.0152937
895.862	0.0152895
895.940	0.0150856
896.018	0.0151423
896.096	0.0152213
896.174	0.0151905
896.253	0.0150606
896.331	0.0150592
896.409	0.0151060
896.487	0.0149341
896.565	0.0150970
896.643	0.0151219
896.721	0.0151331
896.799	0.0151164
896.878	0.0151202
896.956	0.0151313
897.034	0.0150391
897.112	0.0151434
897.190	0.0150993
897.268	0.0152020
897.346	0.0150892
897.424	0.0150352
897.503	0.0150862
897.581	0.0153065
897.659	0.0152110
897.737	0.0151848
897.815	0.0151061
897.893	0.0151313
897.971	0.0151721
898.049	0.0152008
898.128	0.0152051
898.206	0.0152280
898.284	0.0151180
898.362	0.0152370
898.440	0.0153456
898.518	0.0154211
898.596	0.0153003
898.674	0.0152856
898.753	0.0153800
898.831	0.0153040
898.909	0.0152929
898.987	0.0154042
899.065	0.0153584
899.143	0.0150398
899.221	0.0152423
899.299	0.0152944
899.378	0.0152376
899.456	0.0152494
899.534	0.0151301
899.612	0.0152819
899.690	0.0151362
899.768	0.0150320
899.846	0.0151269
899.924	0.0151411
900.003	0.0152894
900.081	0.0150983
900.159	0.0151083
900.237	0.0150671
900.315	0.0151577
900.393	0.0151257
900.471	0.0151604
900.549	0.0152130
900.628	0.0149606
900.706	0.0149783
900.784	0.0151823
900.862	0.0152142
900.940	0.0151777
901.018	0.0151331
901.096	0.0150301
901.174	0.0150304
901.253	0.0151434
901.331	0.0151687
901.409	0.0150948
901.487	0.0152528
901.565	0.0153482
901.643	0.0150905
901.721	0.0151849
901.799	0.0152567
901.878	0.0152202
901.956	0.0152731
902.034	0.0152965
902.112	0.0152220
902.190	0.0152576
902.268	0.0151447
902.346	0.0152066
902.424	0.0152467
902.503	0.0152917
902.581	0.0152350
902.659	0.0153004
902.737	0.0151773
902.815	0.0152129
902.893	0.0151688
902.971	0.0150693
903.049	0.0150393
903.128	0.0153572
903.206	0.0152187
903.284	0.0151103
903.362	0.0151217
903.440	0.0152173
903.518	0.0152692
903.596	0.0151308
903.674	0.0151275
903.753	0.0152158
903.831	0.0152034
903.909	0.0151257
903.987	0.0151709
904.065	0.0151385
904.143	0.0153887
904.221	0.0151961
904.299	0.0151923
904.378	0.0151662
904.456	0.0151376
904.534	0.0154214
904.612	0.0152402
904.690	0.0151455
904.768	0.0151687
904.846	0.0151591
904.924	0.0152682
905.003	0.0153115
905.081	0.0152187
905.159	0.0153632
905.237	0.0153219
905.315	0.0151026
905.393	0.0152650
905.471	0.0153484
905.549	0.0151699
905.628	0.0151664
905.706	0.0151278
905.784	0.0152592
905.862	0.0150514
905.940	0.0149641
906.018	0.0151093
906.096	0.0150970
906.174	0.0150246
906.253	0.0150124
906.331	0.0151347
906.409	0.0151630
906.487	0.0151149
906.565	0.0150878
906.643	0.0150818
906.721	0.0151573
906.799	0.0151822
906.878	0.0152337
906.956	0.0151781
907.034	0.0151207
907.112	0.0153201
907.190	0.0152114
907.268	0.0152304
907.346	0.0152181
907.424	0.0151024
907.503	0.0150969
907.581	0.0150970
907.659	0.0151356
907.737	0.0152744
907.815	0.0151493
907.893	0.0151205
907.971	0.0151756
908.049	0.0150694
908.128	0.0150877
908.206	0.0151869
908.284	0.0151201
908.362	0.0152786
908.440	0.0152087
908.518	0.0149951
908.596	0.0151846
908.674	0.0153186
908.753	0.0153767
908.831	0.0152576
908.909	0.0152216
908.987	0.0152560
909.065	0.0151333
909.143	0.0153431
909.221	0.0151855
909.299	0.0151453
909.378	0.0151481
909.456	0.0151561
909.534	0.0151033
909.612	0.0150568
909.690	0.0152722
909.768	0.0151097
909.846	0.0151422
909.924	0.0151278
910.003	0.0151434
910.081	0.0152503
910.159	0.0152087
910.237	0.0150980
910.315	0.0151174
910.393	0.0152610
910.471	0.0151495
910.549	0.0151360
910.628	0.0152212
910.706	0.0152661
910.784	0.0152077
910.862	0.0151315
910.940	0.0151225
911.018	0.0151611
911.096	0.0150910
911.174	0.0152472
911.253	0.0152503
911.331	0.0152153
911.409	0.0151782
911.487	0.0152775
911.565	0.0153403
911.643	0.0152931
911.721	0.0152016
911.799	0.0151564
911.878	0.0151625
911.956	0.0151569
912.034	0.0152156
912.112	0.0152400
912.190	0.0152594
912.268	0.0150539
912.346	0.0152940
912.424	0.0152918
912.503	0.0151155
912.581	0.0150854
912.659	0.0150556
912.737	0.0150458
912.815	0.0151719
912.893	0.0150583
912.971	0.0151012
913.049	0.0152346
913.128	0.0150794
913.206	0.0150002
913.284	0.0151048
913.362	0.0150645
913.440	0.0151800
913.518	0.0151743
913.596	0.0152288
913.674	0.0152295
913.753	0.0151170
913.831	0.0152454
913.909	0.0151501
913.987	0.0151355
914.065	0.0152695
914.143	0.0151436
914.221	0.0152725
914.299	0.0152925
914.378	0.0152655
914.456	0.0152559
914.534	0.0153064
914.612	0.0152208
914.690	0.0150901
914.768	0.0150867
914.846	0.0152441
914.924	0.0151882
915.003	0.0153480
915.081	0.0153072
915.159	0.0153551
915.237	0.0153667
915.315	0.0150699
915.393	0.0152487
915.471	0.0154516
915.549	0.0151478
915.628	0.0152349
915.706	0.0153323
915.784	0.0152693
915.862	0.0151244
915.940	0.0150739
916.018	0.0152803
916.096	0.0150707
916.174	0.0149811
916.253	0.0151065
916.331	0.0151357
916.409	0.0151076
916.487	0.0151244
916.565	0.0148959
916.643	0.0151006
916.721	0.0150387
916.799	0.0150822
916.878	0.0149559
916.956	0.0150951
917.034	0.0150140
917.112	0.0150965
917.190	0.0150557
917.268	0.0151114
917.346	0.0151800
917.424	0.0151871
917.503	0.0152497
917.581	0.0153093
917.659	0.0151041
917.737	0.0152191
917.815	0.0152802
917.893	0.0152827
917.971	0.0152077
918.049	0.0152924
918.128	0.0152278
918.206	0.0153782
918.284	0.0152725
918.362	0.0153061
918.440	0.0152628
918.518	0.0151981
918.596	0.0151818
918.674	0.0153204
918.753	0.0151922
918.831	0.0152583
918.909	0.0151534
918.987	0.0151609
919.065	0.0150820
919.143	0.0152294
919.221	0.0152476
919.299	0.0151665
919.378	0.0153242
919.456	0.0151328
919.534	0.0152509
919.612	0.0152456
919.690	0.0152247
919.768	0.0151418
919.846	0.0151258
919.924	0.0152426
920.003	0.0151620
920.081	0.0152284
920.159	0.0150385
920.237	0.0151458
920.315	0.0151579
920.393	0.0150935
920.471	0.0151159
920.549	0.0152367
920.628	0.0150893
920.706	0.0151538
920.784	0.0151030
920.862	0.0151334
920.940	0.0152693
921.018	0.0151795
921.096	0.0151218
921.174	0.0151987
921.253	0.0152209
921.331	0.0151608
921.409	0.0151266
921.487	0.0151344
921.565	0.0152785
921.643	0.0152404
921.721	0.0152250
921.799	0.0150876
921.878	0.0152132
921.956	0.0152518
922.034	0.0151160
922.112	0.0151513
922.190	0.0151973
922.268	0.0151203
922.346	0.0151820
922.424	0.0151405
922.503	0.0152039
922.581	0.0152520
922.659	0.0152197
922.737	0.0152110
922.815	0.0152796
922.893	0.0152921
922.971	0.0151969
923.049	0.0153269
923.128	0.0152715
923.206	0.0152561
923.284	0.0150605
923.362	0.0152777
923.440	0.0152978
923.518	0.0153125
923.596	0.0152126
923.674	0.0152193
923.753	0.0151656
923.831	0.0150553
923.909	0.0152018
923.987	0.0150898
924.065	0.0151862
924.143	0.0151868
924.221	0.0148849
924.299	0.0150783
924.378	0.0149630
924.456	0.0150485
924.534	0.0151966
924.612	0.0151838
924.690	0.0149355
924.768	0.0151988
924.846	0.0151383
924.924	0.0151472
925.003	0.0151653
925.081	0.0150974
925.159	0.0151495
925.237	0.0151074
925.315	0.0151241
925.393	0.0151530
925.471	0.0151583
925.549	0.0151974
925.628	0.0152266
925.706	0.0152795
925.784	0.0151849
925.862	0.0152802
925.940	0.0153736
926.018	0.0151880
926.096	0.0152052
926.174	0.0153431
926.253	0.0151080
926.331	0.0151681
926.409	0.0152364
926.487	0.0151968
926.565	0.0153551
926.643	0.0152534
926.721	0.0151235
926.799	0.0151415
926.878	0.0151714
926.956	0.0151300
927.034	0.0152392
927.112	0.0151579
927.190	0.0152243
927.268	0.0151497
927.346	0.0152544
927.424	0.0151889
927.503	0.0152119
927.581	0.0153690
927.659	0.0151874
927.737	0.0152905
927.815	0.0151813
927.893	0.0151907
927.971	0.0151625
928.049	0.0151513
928.128	0.0152172
928.206	0.0150976
928.284	0.0150666
928.362	0.0151276
928.440	0.0152342
928.518	0.0149812
928.596	0.0151458
928.674	0.0150594
928.753	0.0150909
928.831	0.0151208
928.909	0.0151183
928.987	0.0152884
929.065	0.0152110
929.143	0.0151262
929.221	0.0153254
929.299	0.0152663
929.378	0.0151254
929.456	0.0151875
929.534	0.0151974
929.612	0.0152280
929.690	0.0151993
929.768	0.0152103
929.846	0.0152680
929.924	0.0152295
930.003	0.0153480
930.081	0.0152357
930.159	0.0152575
930.237	0.0150826
930.315	0.0152950
930.393	0.0151905
930.471	0.0151186
930.549	0.0152815
930.628	0.0152832
930.706	0.0152193
930.784	0.0152283
930.862	0.0152784
930.940	0.0152105
931.018	0.0152544
931.096	0.0152655
931.174	0.0152477
931.253	0.0151823
931.331	0.0153146
931.409	0.0151058
931.487	0.0151313
931.565	0.0152199
931.643	0.0151011
931.721	0.0152171
931.799	0.0152417
931.878	0.0151292
931.956	0.0152256
932.034	0.0152303
932.112	0.0152429
932.190	0.0152302
932.268	0.0152728
932.346	0.0152110
932.424	0.0151654
932.503	0.0152312
932.581	0.0153358
932.659	0.0152889
932.737	0.0152994
932.815	0.0153203
932.893	0.0152099
932.971	0.0151456
933.049	0.0151952
933.128	0.0151961
933.206	0.0153489
933.284	0.0152823
933.362	0.0151633
933.440	0.0151630
933.518	0.0151951
933.596	0.0152677
933.674	0.0151752
933.753	0.0151736
933.831	0.0152427
933.909	0.0152392
933.987	0.0151473
934.065	0.0152685
934.143	0.0152554
934.221	0.0150492
934.299	0.0151190
934.378	0.0151369
934.456	0.0152178
934.534	0.0151878
934.612	0.0152439
934.690	0.0152882
934.768	0.0152068
934.846	0.0151392
934.924	0.0152380
935.003	0.0152165
935.081	0.0151517
935.159	0.0151852
935.237	0.0152100
935.315	0.0151703
935.393	0.0150715
935.471	0.0151798
935.549	0.0151502
935.628	0.0151765
935.706	0.0151348
935.784	0.0151834
935.862	0.0151894
935.940	0.0151783
936.018	0.0152979
936.096	0.0152143
936.174	0.0153342
936.253	0.0152850
936.331	0.0153130
936.409	0.0151547
936.487	0.0152830
936.565	0.0153795
936.643	0.0152345
936.721	0.0152750
936.799	0.0152177
936.878	0.0151820
936.956	0.0151704
937.034	0.0152632
937.112	0.0152989
937.190	0.0152424
937.268	0.0151116
937.346	0.0151006
937.424	0.0151379
937.503	0.0151653
937.581	0.0152346
937.659	0.0150741
937.737	0.0152756
937.815	0.0150713
937.893	0.0151607
937.971	0.0152048
938.049	0.0152162
938.128	0.0152373
938.206	0.0151998
938.284	0.0151418
938.362	0.0151068
938.440	0.0151699
938.518	0.0151776
938.596	0.0150509
938.674	0.0151516
938.753	0.0151412
938.831	0.0151817
938.909	0.0151140
938.987	0.0151788
939.065	0.0150885
939.143	0.0150708
939.221	0.0151228
939.299	0.0151253
939.378	0.0151548
939.456	0.0151034
939.534	0.0151241
939.612	0.0150507
939.690	0.0151048
939.768	0.0152381
939.846	0.0151720
939.924	0.0151128
940.003	0.0151140
940.081	0.0152206
940.159	0.0152113
940.237	0.0151872
940.315	0.0151957
940.393	0.0152020
940.471	0.0153549
940.549	0.0152325
940.628	0.0152525
940.706	0.0151276
940.784	0.0151560
940.862	0.0152251
940.940	0.0149780
941.018	0.0151820
941.096	0.0151936
941.174	0.0149782
941.253	0.0151595
941.331	0.0151227
941.409	0.0150542
941.487	0.0151402
941.565	0.0151852
941.643	0.0150716
941.721	0.0151387
941.799	0.0151511
941.878	0.0150684
941.956	0.0150609
942.034	0.0150050
942.112	0.0151369
942.190	0.0151549
942.268	0.0151752
942.346	0.0150863
942.424	0.0150259
942.503	0.0152174
942.581	0.0151794
942.659	0.0150145
942.737	0.0151707
942.815	0.0150938
942.893	0.0151485
942.971	0.0151982
943.049	0.0151334
943.128	0.0151324
943.206	0.0151629
943.284	0.0151732
943.362	0.0152639
943.440	0.0153204
943.518	0.0152559
943.596	0.0151727
943.674	0.0152443
943.753	0.0151385
943.831	0.0152753
943.909	0.0151752
943.987	0.0153602
944.065	0.0152570
944.143	0.0152151
944.221	0.0152821
944.299	0.0151888
944.378	0.0151805
944.456	0.0152044
944.534	0.0150806
944.612	0.0151463
944.690	0.0149139
944.768	0.0150809
944.846	0.0151506
944.924	0.0151543
945.003	0.0151827
945.081	0.0150213
945.159	0.0151985
945.237	0.0151557
945.315	0.0151469
945.393	0.0151371
945.471	0.0151579
945.549	0.0151136
945.628	0.0152103
945.706	0.0151701
945.784	0.0151084
945.862	0.0151767
945.940	0.0152312
946.018	0.0151191
946.096	0.0152158
946.174	0.0151610
946.253	0.0151487
946.331	0.0153027
946.409	0.0152524
946.487	0.0151070
946.565	0.0151323
946.643	0.0152013
946.721	0.0151198
946.799	0.0151501
946.878	0.0152336
946.956	0.0151837
947.034	0.0153047
947.112	0.0152971
947.190	0.0151704
947.268	0.0151062
947.346	0.0152688
947.424	0.0151794
947.503	0.0152069
947.581	0.0153450
947.659	0.0153399
947.737	0.0152381
947.815	0.0152397
947.893	0.0152294
947.971	0.0152173
948.049	0.0152295
948.128	0.0153261
948.206	0.0152708
948.284	0.0151518
948.362	0.0151225
948.440	0.0150611
948.518	0.0152197
948.596	0.0151979
948.674	0.0151159
948.753	0.0151923
948.831	0.0150751
948.909	0.0151746
948.987	0.0151614
949.065	0.0152696
949.143	0.0150913
949.221	0.0153127
949.299	0.0153069
949.378	0.0151434
949.456	0.0150552
949.534	0.0152713
949.612	0.0152235
949.690	0.0152243
949.768	0.0153246
949.846	0.0152431
949.924	0.0151923
