06/29/2022	23:06:56	Ver.	4.1	UNKNOWN
Optical Delay	630.002507	Delta X		0.078125	Sweeps	1	Scan Rate	0/0
Coordinates	Axis 1	NaN	Axis 2	NaN	Axis 3	NaN	Axis 4	NaN	Axis 5	NaN	Axis 6	0.000000
TX Power	0.000000	RX Power	0.000000

630.003	0.0160281
630.081	0.0158668
630.159	0.0160625
630.237	0.0161021
630.315	0.0159891
630.393	0.0160526
630.471	0.0160065
630.549	0.0160483
630.628	0.0161227
630.706	0.0160682
630.784	0.0160717
630.862	0.0161590
630.940	0.0161655
631.018	0.0159326
631.096	0.0159380
631.174	0.0161334
631.253	0.0160314
631.331	0.0160824
631.409	0.0161495
631.487	0.0160027
631.565	0.0160339
631.643	0.0162339
631.721	0.0161443
631.799	0.0160764
631.878	0.0160562
631.956	0.0160538
632.034	0.0160574
632.112	0.0161460
632.190	0.0161702
632.268	0.0159694
632.346	0.0160869
632.424	0.0160199
632.503	0.0160096
632.581	0.0160197
632.659	0.0159812
632.737	0.0160922
632.815	0.0160947
632.893	0.0161674
632.971	0.0159743
633.049	0.0160283
633.128	0.0161256
633.206	0.0160278
633.284	0.0160007
633.362	0.0160815
633.440	0.0160072
633.518	0.0159959
633.596	0.0159422
633.674	0.0159902
633.753	0.0161817
633.831	0.0160464
633.909	0.0158990
633.987	0.0160143
634.065	0.0161047
634.143	0.0159673
634.221	0.0159679
634.299	0.0161153
634.378	0.0160406
634.456	0.0160126
634.534	0.0161010
634.612	0.0160593
634.690	0.0161069
634.768	0.0160021
634.846	0.0160658
634.924	0.0160994
635.003	0.0159253
635.081	0.0159769
635.159	0.0160930
635.237	0.0159574
635.315	0.0159337
635.393	0.0160479
635.471	0.0159752
635.549	0.0160475
635.628	0.0160873
635.706	0.0160879
635.784	0.0159720
635.862	0.0159278
635.940	0.0161237
636.018	0.0160352
636.096	0.0159969
636.174	0.0159383
636.253	0.0159256
636.331	0.0161118
636.409	0.0159401
636.487	0.0159885
636.565	0.0161070
636.643	0.0160991
636.721	0.0160085
636.799	0.0159954
636.878	0.0160590
636.956	0.0162025
637.034	0.0159673
637.112	0.0159888
637.190	0.0159332
637.268	0.0159655
637.346	0.0160822
637.424	0.0160950
637.503	0.0159764
637.581	0.0160352
637.659	0.0160365
637.737	0.0161208
637.815	0.0160808
637.893	0.0158990
637.971	0.0160683
638.049	0.0160928
638.128	0.0159191
638.206	0.0160724
638.284	0.0159829
638.362	0.0159493
638.440	0.0159752
638.518	0.0160154
638.596	0.0160880
638.674	0.0161182
638.753	0.0160893
638.831	0.0160877
638.909	0.0160921
638.987	0.0158492
639.065	0.0160087
639.143	0.0160635
639.221	0.0160781
639.299	0.0159120
639.378	0.0159930
639.456	0.0161085
639.534	0.0160629
639.612	0.0159315
639.690	0.0160022
639.768	0.0160810
639.846	0.0159381
639.924	0.0158621
640.003	0.0160410
640.081	0.0160571
640.159	0.0160439
640.237	0.0159900
640.315	0.0159995
640.393	0.0160732
640.471	0.0159538
640.549	0.0160228
640.628	0.0160236
640.706	0.0160618
640.784	0.0160650
640.862	0.0160058
640.940	0.0160883
641.018	0.0159832
641.096	0.0160252
641.174	0.0161084
641.253	0.0160339
641.331	0.0159406
641.409	0.0159650
641.487	0.0160799
641.565	0.0160688
641.643	0.0160721
641.721	0.0161526
641.799	0.0160393
641.878	0.0161359
641.956	0.0159661
642.034	0.0159797
642.112	0.0160435
642.190	0.0160172
642.268	0.0160004
642.346	0.0161179
642.424	0.0158613
642.503	0.0159440
642.581	0.0158891
642.659	0.0160025
642.737	0.0160711
642.815	0.0160845
642.893	0.0159097
642.971	0.0158372
643.049	0.0161036
643.128	0.0160252
643.206	0.0161647
643.284	0.0160323
643.362	0.0159981
643.440	0.0160805
643.518	0.0160244
643.596	0.0160017
643.674	0.0159227
643.753	0.0160445
643.831	0.0161335
643.909	0.0159700
643.987	0.0159099
644.065	0.0161372
644.143	0.0160609
644.221	0.0159431
644.299	0.0160249
644.378	0.0161528
644.456	0.0160262
644.534	0.0160288
644.612	0.0160311
644.690	0.0159147
644.768	0.0160835
644.846	0.0160661
644.924	0.0159799
645.003	0.0159889
645.081	0.0160451
645.159	0.0160643
645.237	0.0160493
645.315	0.0160192
645.393	0.0159676
645.471	0.0160869
645.549	0.0159982
645.628	0.0160773
645.706	0.0160477
645.784	0.0158762
645.862	0.0160384
645.940	0.0160088
646.018	0.0158984
646.096	0.0161131
646.174	0.0161068
646.253	0.0159914
646.331	0.0160642
646.409	0.0159784
646.487	0.0159557
646.565	0.0159088
646.643	0.0159720
646.721	0.0160670
646.799	0.0160629
646.878	0.0159831
646.956	0.0159595
647.034	0.0160529
647.112	0.0159823
647.190	0.0158488
647.268	0.0159187
647.346	0.0160819
647.424	0.0161001
647.503	0.0160281
647.581	0.0161126
647.659	0.0160705
647.737	0.0160022
647.815	0.0160366
647.893	0.0160899
647.971	0.0159517
648.049	0.0160368
648.128	0.0161404
648.206	0.0160276
648.284	0.0159438
648.362	0.0160223
648.440	0.0160786
648.518	0.0159509
648.596	0.0160334
648.674	0.0159310
648.753	0.0159859
648.831	0.0160504
648.909	0.0160754
648.987	0.0160022
649.065	0.0160815
649.143	0.0159600
649.221	0.0160185
649.299	0.0160092
649.378	0.0161425
649.456	0.0159668
649.534	0.0158858
649.612	0.0160951
649.690	0.0160236
649.768	0.0159685
649.846	0.0159309
649.924	0.0159947
650.003	0.0160352
650.081	0.0160377
650.159	0.0160098
650.237	0.0159970
650.315	0.0160602
650.393	0.0160313
650.471	0.0159372
650.549	0.0159398
650.628	0.0160488
650.706	0.0159765
650.784	0.0158834
650.862	0.0161219
650.940	0.0161542
651.018	0.0160607
651.096	0.0161676
651.174	0.0160842
651.253	0.0161131
651.331	0.0159691
651.409	0.0159421
651.487	0.0159304
651.565	0.0159354
651.643	0.0160442
651.721	0.0161945
651.799	0.0160915
651.878	0.0160419
651.956	0.0159322
652.034	0.0160609
652.112	0.0161211
652.190	0.0159715
652.268	0.0159676
652.346	0.0160034
652.424	0.0159846
652.503	0.0160865
652.581	0.0161893
652.659	0.0161098
652.737	0.0161205
652.815	0.0161114
652.893	0.0161006
652.971	0.0161123
653.049	0.0160156
653.128	0.0161961
653.206	0.0159179
653.284	0.0158869
653.362	0.0160541
653.440	0.0161193
653.518	0.0161130
653.596	0.0159940
653.674	0.0159784
653.753	0.0160001
653.831	0.0160871
653.909	0.0160265
653.987	0.0161335
654.065	0.0160921
654.143	0.0159654
654.221	0.0160406
654.299	0.0160985
654.378	0.0160297
654.456	0.0160638
654.534	0.0159876
654.612	0.0159473
654.690	0.0162227
654.768	0.0159467
654.846	0.0159631
654.924	0.0160813
655.003	0.0160817
655.081	0.0159718
655.159	0.0160205
655.237	0.0160612
655.315	0.0159084
655.393	0.0160905
655.471	0.0159641
655.549	0.0159992
655.628	0.0160819
655.706	0.0161780
655.784	0.0159451
655.862	0.0159113
655.940	0.0159215
656.018	0.0161539
656.096	0.0160692
656.174	0.0160861
656.253	0.0160597
656.331	0.0159958
656.409	0.0159090
656.487	0.0160049
656.565	0.0160583
656.643	0.0159691
656.721	0.0160011
656.799	0.0160471
656.878	0.0160452
656.956	0.0161196
657.034	0.0160794
657.112	0.0159892
657.190	0.0161631
657.268	0.0161639
657.346	0.0160848
657.424	0.0160722
657.503	0.0160603
657.581	0.0161619
657.659	0.0160042
657.737	0.0159746
657.815	0.0159947
657.893	0.0160329
657.971	0.0159958
658.049	0.0159549
658.128	0.0160892
658.206	0.0160828
658.284	0.0159951
658.362	0.0160114
658.440	0.0160462
658.518	0.0159239
658.596	0.0159032
658.674	0.0160902
658.753	0.0160654
658.831	0.0159114
658.909	0.0159884
658.987	0.0160989
659.065	0.0159912
659.143	0.0160854
659.221	0.0161121
659.299	0.0161511
659.378	0.0160534
659.456	0.0160928
659.534	0.0159999
659.612	0.0159397
659.690	0.0162305
659.768	0.0158932
659.846	0.0160080
659.924	0.0161885
660.003	0.0159164
660.081	0.0160342
660.159	0.0160178
660.237	0.0160002
660.315	0.0162228
660.393	0.0160296
660.471	0.0160930
660.549	0.0161416
660.628	0.0161128
660.706	0.0161099
660.784	0.0160911
660.862	0.0160813
660.940	0.0161147
661.018	0.0161710
661.096	0.0160815
661.174	0.0159915
661.253	0.0160721
661.331	0.0159977
661.409	0.0160405
661.487	0.0160110
661.565	0.0160419
661.643	0.0160850
661.721	0.0160766
661.799	0.0160952
661.878	0.0160827
661.956	0.0160496
662.034	0.0160326
662.112	0.0159646
662.190	0.0159336
662.268	0.0160868
662.346	0.0159627
662.424	0.0159867
662.503	0.0160960
662.581	0.0160495
662.659	0.0159585
662.737	0.0159958
662.815	0.0161209
662.893	0.0159950
662.971	0.0160514
663.049	0.0160430
663.128	0.0160413
663.206	0.0159659
663.284	0.0159479
663.362	0.0162254
663.440	0.0160934
663.518	0.0159890
663.596	0.0161554
663.674	0.0159859
663.753	0.0161628
663.831	0.0161822
663.909	0.0160347
663.987	0.0161242
664.065	0.0161131
664.143	0.0161883
664.221	0.0160744
664.299	0.0161736
664.378	0.0161197
664.456	0.0161687
664.534	0.0160341
664.612	0.0161481
664.690	0.0161259
664.768	0.0161745
664.846	0.0161192
664.924	0.0161655
665.003	0.0161861
665.081	0.0160126
665.159	0.0160210
665.237	0.0161205
665.315	0.0161272
665.393	0.0160783
665.471	0.0159213
665.549	0.0160801
665.628	0.0160638
665.706	0.0160385
665.784	0.0160561
665.862	0.0161022
665.940	0.0160877
666.018	0.0159917
666.096	0.0160941
666.174	0.0160682
666.253	0.0160564
666.331	0.0160322
666.409	0.0159961
666.487	0.0159698
666.565	0.0160081
666.643	0.0160133
666.721	0.0159818
666.799	0.0160647
666.878	0.0161166
666.956	0.0160265
667.034	0.0160035
667.112	0.0160360
667.190	0.0160126
667.268	0.0160420
667.346	0.0160802
667.424	0.0160847
667.503	0.0160226
667.581	0.0158382
667.659	0.0159871
667.737	0.0160310
667.815	0.0159849
667.893	0.0159894
667.971	0.0158754
668.049	0.0160809
668.128	0.0160690
668.206	0.0158336
668.284	0.0159199
668.362	0.0159054
668.440	0.0160251
668.518	0.0160381
668.596	0.0158189
668.674	0.0157995
668.753	0.0160109
668.831	0.0160658
668.909	0.0158940
668.987	0.0160712
669.065	0.0161618
669.143	0.0159429
669.221	0.0160395
669.299	0.0159483
669.378	0.0160169
669.456	0.0158858
669.534	0.0159489
669.612	0.0160191
669.690	0.0159453
669.768	0.0159377
669.846	0.0159485
669.924	0.0159996
670.003	0.0160275
670.081	0.0159003
670.159	0.0159898
670.237	0.0159203
670.315	0.0161326
670.393	0.0161806
670.471	0.0159789
670.549	0.0160741
670.628	0.0162460
670.706	0.0161584
670.784	0.0161034
670.862	0.0160984
670.940	0.0159480
671.018	0.0160545
671.096	0.0161705
671.174	0.0160098
671.253	0.0161843
671.331	0.0160471
671.409	0.0159471
671.487	0.0160255
671.565	0.0159930
671.643	0.0158808
671.721	0.0158747
671.799	0.0159531
671.878	0.0161480
671.956	0.0160823
672.034	0.0160593
672.112	0.0159340
672.190	0.0158880
672.268	0.0160394
672.346	0.0160639
672.424	0.0160706
672.503	0.0161372
672.581	0.0159759
672.659	0.0160087
672.737	0.0160954
672.815	0.0160890
672.893	0.0159211
672.971	0.0158427
673.049	0.0159873
673.128	0.0158878
673.206	0.0159216
673.284	0.0158932
673.362	0.0160609
673.440	0.0160283
673.518	0.0159587
673.596	0.0160509
673.674	0.0161722
673.753	0.0161018
673.831	0.0160130
673.909	0.0160369
673.987	0.0159744
674.065	0.0161396
674.143	0.0160981
674.221	0.0161252
674.299	0.0159554
674.378	0.0159897
674.456	0.0160523
674.534	0.0161107
674.612	0.0160400
674.690	0.0160920
674.768	0.0161475
674.846	0.0159983
674.924	0.0160268
675.003	0.0159832
675.081	0.0160407
675.159	0.0159372
675.237	0.0159525
675.315	0.0159296
675.393	0.0160092
675.471	0.0158491
675.549	0.0159360
675.628	0.0162164
675.706	0.0161501
675.784	0.0161890
675.862	0.0160400
675.940	0.0160529
676.018	0.0160407
676.096	0.0161362
676.174	0.0160349
676.253	0.0160015
676.331	0.0160053
676.409	0.0160762
676.487	0.0158971
676.565	0.0157951
676.643	0.0158642
676.721	0.0160827
676.799	0.0160315
676.878	0.0159286
676.956	0.0159420
677.034	0.0159949
677.112	0.0160966
677.190	0.0159850
677.268	0.0159287
677.346	0.0160389
677.424	0.0158771
677.503	0.0160754
677.581	0.0161444
677.659	0.0161496
677.737	0.0160404
677.815	0.0160487
677.893	0.0160355
677.971	0.0160735
678.049	0.0160713
678.128	0.0159334
678.206	0.0160101
678.284	0.0160311
678.362	0.0159658
678.440	0.0159966
678.518	0.0159691
678.596	0.0159862
678.674	0.0159267
678.753	0.0159469
678.831	0.0159874
678.909	0.0159316
678.987	0.0159460
679.065	0.0159393
679.143	0.0160262
679.221	0.0160425
679.299	0.0160597
679.378	0.0160390
679.456	0.0159584
679.534	0.0159547
679.612	0.0160356
679.690	0.0162916
679.768	0.0160561
679.846	0.0160918
679.924	0.0161280
680.003	0.0160929
680.081	0.0161011
680.159	0.0161105
680.237	0.0159431
680.315	0.0160306
680.393	0.0160469
680.471	0.0160043
680.549	0.0159327
680.628	0.0159570
680.706	0.0159837
680.784	0.0159207
680.862	0.0160323
680.940	0.0160052
681.018	0.0158419
681.096	0.0160051
681.174	0.0162324
681.253	0.0160818
681.331	0.0161855
681.409	0.0163363
681.487	0.0161626
681.565	0.0161634
681.643	0.0161041
681.721	0.0160905
681.799	0.0161222
681.878	0.0159761
681.956	0.0159534
682.034	0.0161472
682.112	0.0159927
682.190	0.0160165
682.268	0.0159222
682.346	0.0159489
682.424	0.0160158
682.503	0.0160827
682.581	0.0159278
682.659	0.0160810
682.737	0.0159960
682.815	0.0159631
682.893	0.0161250
682.971	0.0162294
683.049	0.0159540
683.128	0.0160678
683.206	0.0163429
683.284	0.0161458
683.362	0.0161069
683.440	0.0160103
683.518	0.0160860
683.596	0.0160850
683.674	0.0160867
683.753	0.0159583
683.831	0.0158975
683.909	0.0159740
683.987	0.0159498
684.065	0.0159383
684.143	0.0160542
684.221	0.0161069
684.299	0.0160140
684.378	0.0159566
684.456	0.0160841
684.534	0.0161413
684.612	0.0161502
684.690	0.0160853
684.768	0.0160708
684.846	0.0161467
684.924	0.0159743
685.003	0.0160249
685.081	0.0160979
685.159	0.0160134
685.237	0.0159547
685.315	0.0160561
685.393	0.0161044
685.471	0.0159724
685.549	0.0158846
685.628	0.0159986
685.706	0.0159725
685.784	0.0160559
685.862	0.0159795
685.940	0.0159501
686.018	0.0160986
686.096	0.0160950
686.174	0.0161245
686.253	0.0159741
686.331	0.0161433
686.409	0.0162106
686.487	0.0160633
686.565	0.0161247
686.643	0.0161060
686.721	0.0161525
686.799	0.0160982
686.878	0.0161267
686.956	0.0159338
687.034	0.0158852
687.112	0.0160340
687.190	0.0159439
687.268	0.0159689
687.346	0.0160080
687.424	0.0160006
687.503	0.0160580
687.581	0.0160166
687.659	0.0159783
687.737	0.0159376
687.815	0.0160418
687.893	0.0161555
687.971	0.0160168
688.049	0.0158746
688.128	0.0162776
688.206	0.0161548
688.284	0.0160942
688.362	0.0160380
688.440	0.0161769
688.518	0.0159823
688.596	0.0159973
688.674	0.0160067
688.753	0.0161552
688.831	0.0160583
688.909	0.0160255
688.987	0.0162154
689.065	0.0159409
689.143	0.0159380
689.221	0.0162016
689.299	0.0158984
689.378	0.0158192
689.456	0.0159416
689.534	0.0160596
689.612	0.0160169
689.690	0.0160881
689.768	0.0161384
689.846	0.0162118
689.924	0.0160083
690.003	0.0159781
690.081	0.0160761
690.159	0.0161089
690.237	0.0161433
690.315	0.0159766
690.393	0.0161214
690.471	0.0162274
690.549	0.0160143
690.628	0.0158131
690.706	0.0160039
690.784	0.0159438
690.862	0.0159171
690.940	0.0159428
691.018	0.0160136
691.096	0.0158112
691.174	0.0159811
691.253	0.0160361
691.331	0.0158927
691.409	0.0157910
691.487	0.0160604
691.565	0.0160412
691.643	0.0160527
691.721	0.0161848
691.799	0.0159901
691.878	0.0159698
691.956	0.0159882
692.034	0.0161294
692.112	0.0161246
692.190	0.0161657
692.268	0.0161845
692.346	0.0161979
692.424	0.0160568
692.503	0.0159119
692.581	0.0160553
692.659	0.0160110
692.737	0.0158805
692.815	0.0159971
692.893	0.0160589
692.971	0.0158676
693.049	0.0160313
693.128	0.0159846
693.206	0.0159382
693.284	0.0158955
693.362	0.0160513
693.440	0.0159476
693.518	0.0159182
693.596	0.0160757
693.674	0.0161750
693.753	0.0161334
693.831	0.0159161
693.909	0.0159904
693.987	0.0161083
694.065	0.0160568
694.143	0.0160157
694.221	0.0160316
694.299	0.0160297
694.378	0.0159183
694.456	0.0159605
694.534	0.0161378
694.612	0.0159008
694.690	0.0159653
694.768	0.0160638
694.846	0.0161073
694.924	0.0161248
695.003	0.0160865
695.081	0.0159740
695.159	0.0159860
695.237	0.0160190
695.315	0.0159637
695.393	0.0160285
695.471	0.0160397
695.549	0.0161200
695.628	0.0160041
695.706	0.0160358
695.784	0.0160445
695.862	0.0160488
695.940	0.0161507
696.018	0.0161124
696.096	0.0160843
696.174	0.0160583
696.253	0.0161069
696.331	0.0160295
696.409	0.0159677
696.487	0.0160663
696.565	0.0161716
696.643	0.0160275
696.721	0.0160983
696.799	0.0159853
696.878	0.0159424
696.956	0.0161861
697.034	0.0161317
697.112	0.0160430
697.190	0.0160001
697.268	0.0159559
697.346	0.0161047
697.424	0.0160520
697.503	0.0159634
697.581	0.0159481
697.659	0.0160193
697.737	0.0161223
697.815	0.0159172
697.893	0.0159164
697.971	0.0158829
698.049	0.0159280
698.128	0.0159677
698.206	0.0159946
698.284	0.0159820
698.362	0.0158936
698.440	0.0159892
698.518	0.0161209
698.596	0.0160719
698.674	0.0159353
698.753	0.0160269
698.831	0.0160967
698.909	0.0160518
698.987	0.0161069
699.065	0.0161183
699.143	0.0161044
699.221	0.0160468
699.299	0.0160975
699.378	0.0161035
699.456	0.0162080
699.534	0.0159186
699.612	0.0159652
699.690	0.0160448
699.768	0.0159650
699.846	0.0160114
699.924	0.0160692
700.003	0.0160619
700.081	0.0161848
700.159	0.0159132
700.237	0.0159057
700.315	0.0160019
700.393	0.0159848
700.471	0.0158904
700.549	0.0160050
700.628	0.0159898
700.706	0.0159573
700.784	0.0160723
700.862	0.0160123
700.940	0.0159513
701.018	0.0160194
701.096	0.0159221
701.174	0.0161222
701.253	0.0158935
701.331	0.0160001
701.409	0.0159679
701.487	0.0159466
701.565	0.0159707
701.643	0.0160841
701.721	0.0160629
701.799	0.0160777
701.878	0.0162005
701.956	0.0162408
702.034	0.0162502
702.112	0.0162032
702.190	0.0161919
702.268	0.0161939
702.346	0.0161360
702.424	0.0161890
702.503	0.0162915
702.581	0.0162482
702.659	0.0161612
702.737	0.0162756
702.815	0.0161817
702.893	0.0161245
702.971	0.0160251
703.049	0.0160079
703.128	0.0159531
703.206	0.0159890
703.284	0.0158993
703.362	0.0159404
703.440	0.0160030
703.518	0.0158876
703.596	0.0157142
703.674	0.0157085
703.753	0.0158955
703.831	0.0159216
703.909	0.0158344
703.987	0.0158224
704.065	0.0159840
704.143	0.0159520
704.221	0.0158499
704.299	0.0159077
704.378	0.0160779
704.456	0.0160176
704.534	0.0160529
704.612	0.0161890
704.690	0.0161893
704.768	0.0161389
704.846	0.0162011
704.924	0.0162024
705.003	0.0161271
705.081	0.0161557
705.159	0.0162525
705.237	0.0162188
705.315	0.0162139
705.393	0.0163194
705.471	0.0160002
705.549	0.0158828
705.628	0.0160710
705.706	0.0159235
705.784	0.0158236
705.862	0.0159552
705.940	0.0159483
706.018	0.0158662
706.096	0.0157639
706.174	0.0158583
706.253	0.0158157
706.331	0.0158745
706.409	0.0158592
706.487	0.0157369
706.565	0.0158079
706.643	0.0159740
706.721	0.0160107
706.799	0.0160651
706.878	0.0161043
706.956	0.0159806
707.034	0.0160741
707.112	0.0160653
707.190	0.0161456
707.268	0.0161914
707.346	0.0161637
707.424	0.0162595
707.503	0.0160948
707.581	0.0160776
707.659	0.0160752
707.737	0.0161705
707.815	0.0162046
707.893	0.0159535
707.971	0.0159956
708.049	0.0160827
708.128	0.0160365
708.206	0.0158905
708.284	0.0158899
708.362	0.0159204
708.440	0.0159210
708.518	0.0159254
708.596	0.0158059
708.674	0.0160043
708.753	0.0160700
708.831	0.0160431
708.909	0.0160190
708.987	0.0159004
709.065	0.0160502
709.143	0.0159831
709.221	0.0161537
709.299	0.0161215
709.378	0.0160500
709.456	0.0159399
709.534	0.0160094
709.612	0.0160020
709.690	0.0159486
709.768	0.0159629
709.846	0.0160802
709.924	0.0159357
710.003	0.0159943
710.081	0.0160229
710.159	0.0161491
710.237	0.0159829
710.315	0.0159984
710.393	0.0159566
710.471	0.0159766
710.549	0.0160757
710.628	0.0161384
710.706	0.0161062
710.784	0.0160814
710.862	0.0160735
710.940	0.0161121
711.018	0.0160087
711.096	0.0160291
711.174	0.0160852
711.253	0.0161464
711.331	0.0161423
711.409	0.0161915
711.487	0.0160362
711.565	0.0160065
711.643	0.0160950
711.721	0.0159834
711.799	0.0161065
711.878	0.0160563
711.956	0.0160407
712.034	0.0159272
712.112	0.0161116
712.190	0.0159329
712.268	0.0159254
712.346	0.0159935
712.424	0.0159457
712.503	0.0158390
712.581	0.0159476
712.659	0.0158021
712.737	0.0158690
712.815	0.0159286
712.893	0.0161965
712.971	0.0161729
713.049	0.0159991
713.128	0.0159745
713.206	0.0160861
713.284	0.0160271
713.362	0.0160238
713.440	0.0160300
713.518	0.0162071
713.596	0.0161172
713.674	0.0160185
713.753	0.0160554
713.831	0.0162505
713.909	0.0160675
713.987	0.0160482
714.065	0.0160725
714.143	0.0160017
714.221	0.0160448
714.299	0.0161061
714.378	0.0161131
714.456	0.0160573
714.534	0.0162531
714.612	0.0161142
714.690	0.0162073
714.768	0.0162245
714.846	0.0161892
714.924	0.0161858
715.003	0.0161802
715.081	0.0163259
715.159	0.0163655
715.237	0.0161186
715.315	0.0161591
715.393	0.0161371
715.471	0.0162357
715.549	0.0160455
715.628	0.0159341
715.706	0.0157751
715.784	0.0157636
715.862	0.0157134
715.940	0.0156628
716.018	0.0157205
716.096	0.0156699
716.174	0.0157722
716.253	0.0157566
716.331	0.0156730
716.409	0.0156940
716.487	0.0156677
716.565	0.0157863
716.643	0.0159782
716.721	0.0160204
716.799	0.0158888
716.878	0.0160737
716.956	0.0162847
717.034	0.0163070
717.112	0.0162650
717.190	0.0163148
717.268	0.0163263
717.346	0.0164516
717.424	0.0166283
717.503	0.0163554
717.581	0.0164816
717.659	0.0164401
717.737	0.0162386
717.815	0.0162199
717.893	0.0162001
717.971	0.0161653
718.049	0.0161659
718.128	0.0159612
718.206	0.0158560
718.284	0.0157590
718.362	0.0157670
718.440	0.0155755
718.518	0.0156174
718.596	0.0155389
718.674	0.0156344
718.753	0.0155537
718.831	0.0155911
718.909	0.0155662
718.987	0.0156416
719.065	0.0156941
719.143	0.0160160
719.221	0.0157801
719.299	0.0158735
719.378	0.0160915
719.456	0.0160906
719.534	0.0162603
719.612	0.0163224
719.690	0.0164532
719.768	0.0165025
719.846	0.0165198
719.924	0.0166615
720.003	0.0167233
720.081	0.0167319
720.159	0.0166376
720.237	0.0166414
720.315	0.0166415
720.393	0.0165102
720.471	0.0165254
720.549	0.0165743
720.628	0.0163871
720.706	0.0160679
720.784	0.0161530
720.862	0.0161817
720.940	0.0159644
721.018	0.0159897
721.096	0.0158769
721.174	0.0157517
721.253	0.0156844
721.331	0.0157104
721.409	0.0156893
721.487	0.0156812
721.565	0.0155946
721.643	0.0155860
721.721	0.0156332
721.799	0.0155944
721.878	0.0155677
721.956	0.0155278
722.034	0.0154694
722.112	0.0155775
722.190	0.0155944
722.268	0.0155434
722.346	0.0153754
722.424	0.0154395
722.503	0.0155552
722.581	0.0154717
722.659	0.0155106
722.737	0.0156284
722.815	0.0157189
722.893	0.0157547
722.971	0.0157330
723.049	0.0160327
723.128	0.0162466
723.206	0.0161966
723.284	0.0162056
723.362	0.0163909
723.440	0.0166371
723.518	0.0166561
723.596	0.0167151
723.674	0.0170393
723.753	0.0171360
723.831	0.0170897
723.909	0.0171446
723.987	0.0172414
724.065	0.0171752
724.143	0.0169878
724.221	0.0169792
724.299	0.0169322
724.378	0.0168216
724.456	0.0166673
724.534	0.0165343
724.612	0.0164017
724.690	0.0162811
724.768	0.0162854
724.846	0.0160672
724.924	0.0159578
725.003	0.0158305
725.081	0.0157084
725.159	0.0156219
725.237	0.0154365
725.315	0.0153202
725.393	0.0152303
725.471	0.0152308
725.549	0.0150709
725.628	0.0150551
725.706	0.0148887
725.784	0.0149721
725.862	0.0150262
725.940	0.0150819
726.018	0.0150472
726.096	0.0151575
726.174	0.0151490
726.253	0.0151843
726.331	0.0154834
726.409	0.0154359
726.487	0.0154959
726.565	0.0156158
726.643	0.0158826
726.721	0.0160068
726.799	0.0161888
726.878	0.0162908
726.956	0.0164445
727.034	0.0165476
727.112	0.0165893
727.190	0.0167069
727.268	0.0168289
727.346	0.0168584
727.424	0.0169075
727.503	0.0169903
727.581	0.0170614
727.659	0.0169371
727.737	0.0168569
727.815	0.0168819
727.893	0.0168179
727.971	0.0166041
728.049	0.0164824
728.128	0.0165456
728.206	0.0163794
728.284	0.0161087
728.362	0.0160298
728.440	0.0158524
728.518	0.0157477
728.596	0.0155612
728.674	0.0155563
728.753	0.0155579
728.831	0.0155606
728.909	0.0154359
728.987	0.0156088
729.065	0.0154791
729.143	0.0155241
729.221	0.0155848
729.299	0.0157599
729.378	0.0158623
729.456	0.0157439
729.534	0.0160049
729.612	0.0159870
729.690	0.0159484
729.768	0.0160050
729.846	0.0161736
729.924	0.0161245
730.003	0.0161180
730.081	0.0160062
730.159	0.0158440
730.237	0.0157415
730.315	0.0159113
730.393	0.0158068
730.471	0.0157823
730.549	0.0156525
730.628	0.0156576
730.706	0.0156654
730.784	0.0157633
730.862	0.0156832
730.940	0.0156791
731.018	0.0159392
731.096	0.0159812
731.174	0.0160896
731.253	0.0161809
731.331	0.0162399
731.409	0.0163544
731.487	0.0164971
731.565	0.0165450
731.643	0.0165838
731.721	0.0164879
731.799	0.0165913
731.878	0.0165831
731.956	0.0166784
732.034	0.0165047
732.112	0.0164085
732.190	0.0164582
732.268	0.0163649
732.346	0.0163314
732.424	0.0161758
732.503	0.0161147
732.581	0.0161606
732.659	0.0159859
732.737	0.0161436
732.815	0.0158110
732.893	0.0157990
732.971	0.0159054
733.049	0.0157226
733.128	0.0156776
733.206	0.0157263
733.284	0.0156859
733.362	0.0156553
733.440	0.0157407
733.518	0.0158037
733.596	0.0157852
733.674	0.0157316
733.753	0.0157764
733.831	0.0157403
733.909	0.0158463
733.987	0.0157961
734.065	0.0156101
734.143	0.0156717
734.221	0.0157748
734.299	0.0157428
734.378	0.0156668
734.456	0.0157154
734.534	0.0157516
734.612	0.0159682
734.690	0.0159840
734.768	0.0160543
734.846	0.0159892
734.924	0.0160822
735.003	0.0160989
735.081	0.0161608
735.159	0.0162041
735.237	0.0163069
735.315	0.0163618
735.393	0.0164818
735.471	0.0164955
735.549	0.0164796
735.628	0.0164293
735.706	0.0165705
735.784	0.0166850
735.862	0.0166530
735.940	0.0168614
736.018	0.0168484
736.096	0.0168397
736.174	0.0166962
736.253	0.0167474
736.331	0.0167713
736.409	0.0165969
736.487	0.0167223
736.565	0.0165195
736.643	0.0164734
736.721	0.0164362
736.799	0.0163314
736.878	0.0161765
736.956	0.0160751
737.034	0.0156870
737.112	0.0156637
737.190	0.0157455
737.268	0.0156084
737.346	0.0155040
737.424	0.0154801
737.503	0.0153790
737.581	0.0153409
737.659	0.0152914
737.737	0.0151964
737.815	0.0154000
737.893	0.0153352
737.971	0.0154134
738.049	0.0152407
738.128	0.0155601
738.206	0.0155634
738.284	0.0155389
738.362	0.0155852
738.440	0.0157369
738.518	0.0156509
738.596	0.0157315
738.674	0.0159152
738.753	0.0158923
738.831	0.0160408
738.909	0.0159263
738.987	0.0160535
739.065	0.0161267
739.143	0.0162310
739.221	0.0160654
739.299	0.0162875
739.378	0.0164747
739.456	0.0163268
739.534	0.0163025
739.612	0.0162287
739.690	0.0161848
739.768	0.0162161
739.846	0.0161008
739.924	0.0160353
740.003	0.0160094
740.081	0.0159917
740.159	0.0158614
740.237	0.0159183
740.315	0.0158328
740.393	0.0158690
740.471	0.0160171
740.549	0.0161665
740.628	0.0162665
740.706	0.0163278
740.784	0.0163589
740.862	0.0165272
740.940	0.0164326
741.018	0.0166503
741.096	0.0167826
741.174	0.0168612
741.253	0.0168631
741.331	0.0168799
741.409	0.0167947
741.487	0.0167840
741.565	0.0165672
741.643	0.0165128
741.721	0.0164851
741.799	0.0164478
741.878	0.0162781
741.956	0.0162661
742.034	0.0160166
742.112	0.0158313
742.190	0.0159216
742.268	0.0156680
742.346	0.0156377
742.424	0.0155685
742.503	0.0154430
742.581	0.0153644
742.659	0.0154697
742.737	0.0154080
742.815	0.0153135
742.893	0.0151546
742.971	0.0151057
743.049	0.0152540
743.128	0.0152809
743.206	0.0151630
743.284	0.0152969
743.362	0.0154092
743.440	0.0154684
743.518	0.0155407
743.596	0.0157435
743.674	0.0158588
743.753	0.0158875
743.831	0.0160001
743.909	0.0160352
743.987	0.0160724
744.065	0.0160877
744.143	0.0162177
744.221	0.0161942
744.299	0.0161006
744.378	0.0160680
744.456	0.0161933
744.534	0.0161169
744.612	0.0159953
744.690	0.0160800
744.768	0.0160690
744.846	0.0160069
744.924	0.0159151
745.003	0.0159702
745.081	0.0160412
745.159	0.0159682
745.237	0.0159100
745.315	0.0160789
745.393	0.0161137
745.471	0.0161972
745.549	0.0164433
745.628	0.0163993
745.706	0.0165833
745.784	0.0166953
745.862	0.0167316
745.940	0.0169980
746.018	0.0170311
746.096	0.0170708
746.174	0.0169976
746.253	0.0169625
746.331	0.0169981
746.409	0.0168867
746.487	0.0168937
746.565	0.0168300
746.643	0.0165826
746.721	0.0163202
746.799	0.0162913
746.878	0.0161684
746.956	0.0158728
747.034	0.0157789
747.112	0.0155838
747.190	0.0155253
747.268	0.0153805
747.346	0.0153139
747.424	0.0150730
747.503	0.0150163
747.581	0.0150889
747.659	0.0151019
747.737	0.0150636
747.815	0.0150835
747.893	0.0149974
747.971	0.0149323
748.049	0.0153669
748.128	0.0152697
748.206	0.0154163
748.284	0.0154562
748.362	0.0154964
748.440	0.0157522
748.518	0.0158653
748.596	0.0158644
748.674	0.0159512
748.753	0.0159789
748.831	0.0163888
748.909	0.0162856
748.987	0.0164117
749.065	0.0161926
749.143	0.0162213
749.221	0.0163916
749.299	0.0162786
749.378	0.0162831
749.456	0.0163157
749.534	0.0162574
749.612	0.0165485
749.690	0.0163976
749.768	0.0163451
749.846	0.0163840
749.924	0.0164342
750.003	0.0163823
750.081	0.0165282
750.159	0.0164183
750.237	0.0164953
750.315	0.0164484
750.393	0.0163497
750.471	0.0165269
750.549	0.0163634
750.628	0.0162547
750.706	0.0163415
750.784	0.0161520
750.862	0.0161530
750.940	0.0160392
751.018	0.0159222
751.096	0.0159429
751.174	0.0159999
751.253	0.0159594
751.331	0.0160358
751.409	0.0160555
751.487	0.0161418
751.565	0.0161334
751.643	0.0161742
751.721	0.0162919
751.799	0.0163369
751.878	0.0163532
751.956	0.0163348
752.034	0.0164531
752.112	0.0162797
752.190	0.0161781
752.268	0.0162355
752.346	0.0161171
752.424	0.0160422
752.503	0.0159605
752.581	0.0158239
752.659	0.0157298
752.737	0.0155286
752.815	0.0154958
752.893	0.0154649
752.971	0.0154317
753.049	0.0152762
753.128	0.0154070
753.206	0.0154636
753.284	0.0154494
753.362	0.0154512
753.440	0.0154527
753.518	0.0156165
753.596	0.0157966
753.674	0.0157979
753.753	0.0160760
753.831	0.0160118
753.909	0.0161729
753.987	0.0161189
754.065	0.0161079
754.143	0.0161478
754.221	0.0160723
754.299	0.0160220
754.378	0.0161311
754.456	0.0160589
754.534	0.0159963
754.612	0.0160072
754.690	0.0159712
754.768	0.0159822
754.846	0.0158060
754.924	0.0159999
755.003	0.0161018
755.081	0.0160275
755.159	0.0161584
755.237	0.0160691
755.315	0.0162589
755.393	0.0162877
755.471	0.0163477
755.549	0.0164787
755.628	0.0164056
755.706	0.0163329
755.784	0.0165777
755.862	0.0165240
755.940	0.0164481
756.018	0.0166352
756.096	0.0167100
756.174	0.0164485
756.253	0.0162694
756.331	0.0163617
756.409	0.0164633
756.487	0.0162120
756.565	0.0161251
756.643	0.0161095
756.721	0.0160367
756.799	0.0159688
756.878	0.0160709
756.956	0.0159470
757.034	0.0158608
757.112	0.0159409
757.190	0.0157506
757.268	0.0157835
757.346	0.0159098
757.424	0.0159278
757.503	0.0160697
757.581	0.0160042
757.659	0.0160195
757.737	0.0160308
757.815	0.0159486
757.893	0.0159838
757.971	0.0159180
758.049	0.0158012
758.128	0.0157657
758.206	0.0156405
758.284	0.0156329
758.362	0.0155418
758.440	0.0156331
758.518	0.0154032
758.596	0.0153266
758.674	0.0153304
758.753	0.0153539
758.831	0.0155076
758.909	0.0155809
758.987	0.0155517
759.065	0.0155664
759.143	0.0156156
759.221	0.0156023
759.299	0.0159270
759.378	0.0160722
759.456	0.0160048
759.534	0.0161752
759.612	0.0163375
759.690	0.0164095
759.768	0.0163819
759.846	0.0164433
759.924	0.0164538
760.003	0.0164320
760.081	0.0163895
760.159	0.0163966
760.237	0.0163261
760.315	0.0163955
760.393	0.0163387
760.471	0.0162449
760.549	0.0162537
760.628	0.0163754
760.706	0.0163134
760.784	0.0161196
760.862	0.0162691
760.940	0.0164175
761.018	0.0163477
761.096	0.0162176
761.174	0.0163768
761.253	0.0164698
761.331	0.0164801
761.409	0.0162810
761.487	0.0164322
761.565	0.0163122
761.643	0.0161600
761.721	0.0162757
761.799	0.0161869
761.878	0.0162210
761.956	0.0160918
762.034	0.0160439
762.112	0.0159187
762.190	0.0157847
762.268	0.0158385
762.346	0.0155043
762.424	0.0154580
762.503	0.0155826
762.581	0.0154706
762.659	0.0153590
762.737	0.0155021
762.815	0.0156155
762.893	0.0157251
762.971	0.0156715
763.049	0.0158203
763.128	0.0160155
763.206	0.0160394
763.284	0.0160818
763.362	0.0162103
763.440	0.0161713
763.518	0.0163027
763.596	0.0162479
763.674	0.0161903
763.753	0.0161979
763.831	0.0161021
763.909	0.0161932
763.987	0.0159882
764.065	0.0158322
764.143	0.0157618
764.221	0.0155880
764.299	0.0155302
764.378	0.0154815
764.456	0.0155125
764.534	0.0154198
764.612	0.0153948
764.690	0.0155053
764.768	0.0155437
764.846	0.0156343
764.924	0.0157643
765.003	0.0158044
765.081	0.0160689
765.159	0.0162802
765.237	0.0162340
765.315	0.0163573
765.393	0.0163929
765.471	0.0163933
765.549	0.0165157
765.628	0.0163187
765.706	0.0164647
765.784	0.0162962
765.862	0.0164544
765.940	0.0163985
766.018	0.0162117
766.096	0.0162066
766.174	0.0161945
766.253	0.0161626
766.331	0.0162989
766.409	0.0161868
766.487	0.0162711
766.565	0.0163789
766.643	0.0161974
766.721	0.0163390
766.799	0.0163015
766.878	0.0163634
766.956	0.0164059
767.034	0.0164168
767.112	0.0163937
767.190	0.0163062
767.268	0.0162469
767.346	0.0163600
767.424	0.0162045
767.503	0.0161842
767.581	0.0162900
767.659	0.0160220
767.737	0.0160814
767.815	0.0159795
767.893	0.0157498
767.971	0.0157139
768.049	0.0156783
768.128	0.0155724
768.206	0.0156573
768.284	0.0153893
768.362	0.0155092
768.440	0.0154801
768.518	0.0153904
768.596	0.0155384
768.674	0.0154961
768.753	0.0156809
768.831	0.0158292
768.909	0.0159805
768.987	0.0161783
769.065	0.0161600
769.143	0.0161229
769.221	0.0164017
769.299	0.0163360
769.378	0.0164656
769.456	0.0165199
769.534	0.0164844
769.612	0.0163963
769.690	0.0161959
769.768	0.0161155
769.846	0.0161804
769.924	0.0159879
770.003	0.0159235
770.081	0.0158424
770.159	0.0156879
770.237	0.0154760
770.315	0.0155757
770.393	0.0155746
770.471	0.0155213
770.549	0.0157391
770.628	0.0155612
770.706	0.0157915
770.784	0.0158479
770.862	0.0159564
770.940	0.0160584
771.018	0.0160829
771.096	0.0161340
771.174	0.0162917
771.253	0.0161945
771.331	0.0161900
771.409	0.0161017
771.487	0.0161784
771.565	0.0162093
771.643	0.0162150
771.721	0.0161046
771.799	0.0161700
771.878	0.0160477
771.956	0.0160531
772.034	0.0162033
772.112	0.0163213
772.190	0.0162631
772.268	0.0164042
772.346	0.0165004
772.424	0.0164459
772.503	0.0165101
772.581	0.0166546
772.659	0.0165235
772.737	0.0166715
772.815	0.0165567
772.893	0.0165019
772.971	0.0164867
773.049	0.0164720
773.128	0.0163345
773.206	0.0161269
773.284	0.0161237
773.362	0.0159033
773.440	0.0159720
773.518	0.0158641
773.596	0.0155910
773.674	0.0157661
773.753	0.0156847
773.831	0.0155882
773.909	0.0155830
773.987	0.0157075
774.065	0.0156320
774.143	0.0155801
774.221	0.0157068
774.299	0.0156278
774.378	0.0155903
774.456	0.0156503
774.534	0.0157588
774.612	0.0159605
774.690	0.0160194
774.768	0.0160654
774.846	0.0161450
774.924	0.0161922
775.003	0.0163766
775.081	0.0161207
775.159	0.0163040
775.237	0.0164591
775.315	0.0163024
775.393	0.0163301
775.471	0.0163065
775.549	0.0161765
775.628	0.0159292
775.706	0.0159513
775.784	0.0159952
775.862	0.0159776
775.940	0.0158411
776.018	0.0157391
776.096	0.0157607
776.174	0.0157027
776.253	0.0155783
776.331	0.0157046
776.409	0.0157706
776.487	0.0159342
776.565	0.0158315
776.643	0.0159105
776.721	0.0159837
776.799	0.0160765
776.878	0.0161130
776.956	0.0163204
777.034	0.0162748
777.112	0.0162145
777.190	0.0163172
777.268	0.0163292
777.346	0.0161785
777.424	0.0163059
777.503	0.0163254
777.581	0.0161808
777.659	0.0162168
777.737	0.0159660
777.815	0.0159365
777.893	0.0160020
777.971	0.0161478
778.049	0.0162018
778.128	0.0161420
778.206	0.0159225
778.284	0.0161189
778.362	0.0162309
778.440	0.0161684
778.518	0.0161887
778.596	0.0161742
778.674	0.0161002
778.753	0.0160040
778.831	0.0161771
778.909	0.0160812
778.987	0.0159911
779.065	0.0158771
779.143	0.0160092
779.221	0.0157281
779.299	0.0157192
779.378	0.0157978
779.456	0.0156662
779.534	0.0156948
779.612	0.0158140
779.690	0.0156905
779.768	0.0156599
779.846	0.0156976
779.924	0.0158655
780.003	0.0157961
780.081	0.0159196
780.159	0.0159413
780.237	0.0158885
780.315	0.0159445
780.393	0.0159356
780.471	0.0159603
780.549	0.0159566
780.628	0.0159851
780.706	0.0161253
780.784	0.0160145
780.862	0.0160772
780.940	0.0161618
781.018	0.0162132
781.096	0.0163439
781.174	0.0162288
781.253	0.0162188
781.331	0.0161729
781.409	0.0161832
781.487	0.0161854
781.565	0.0161544
781.643	0.0162485
781.721	0.0162135
781.799	0.0160634
781.878	0.0160781
781.956	0.0159903
782.034	0.0159254
782.112	0.0159480
782.190	0.0158771
782.268	0.0157429
782.346	0.0159116
782.424	0.0158834
782.503	0.0158010
782.581	0.0157571
782.659	0.0158662
782.737	0.0157919
782.815	0.0157345
782.893	0.0157015
782.971	0.0158528
783.049	0.0156702
783.128	0.0159692
783.206	0.0159010
783.284	0.0158602
783.362	0.0158649
783.440	0.0158908
783.518	0.0159280
783.596	0.0157914
783.674	0.0160253
783.753	0.0159966
783.831	0.0159771
783.909	0.0160331
783.987	0.0160137
784.065	0.0159907
784.143	0.0160807
784.221	0.0161485
784.299	0.0161989
784.378	0.0161234
784.456	0.0161359
784.534	0.0161514
784.612	0.0162399
784.690	0.0162711
784.768	0.0161421
784.846	0.0161037
784.924	0.0160931
785.003	0.0159818
785.081	0.0161327
785.159	0.0161095
785.237	0.0160570
785.315	0.0161324
785.393	0.0160078
785.471	0.0160782
785.549	0.0159636
785.628	0.0158923
785.706	0.0159550
785.784	0.0159715
785.862	0.0158705
785.940	0.0159009
786.018	0.0159016
786.096	0.0159148
786.174	0.0157481
786.253	0.0159479
786.331	0.0158553
786.409	0.0156738
786.487	0.0157060
786.565	0.0156938
786.643	0.0155568
786.721	0.0155892
786.799	0.0157334
786.878	0.0155825
786.956	0.0156181
787.034	0.0158098
787.112	0.0159578
787.190	0.0159215
787.268	0.0158872
787.346	0.0160473
787.424	0.0161417
787.503	0.0161445
787.581	0.0162182
787.659	0.0162450
787.737	0.0164258
787.815	0.0165402
787.893	0.0164071
787.971	0.0164702
788.049	0.0165630
788.128	0.0164879
788.206	0.0163680
788.284	0.0164413
788.362	0.0164140
788.440	0.0162292
788.518	0.0160293
788.596	0.0162209
788.674	0.0160178
788.753	0.0159630
788.831	0.0158481
788.909	0.0160729
788.987	0.0159276
789.065	0.0158662
789.143	0.0158376
789.221	0.0158174
789.299	0.0159972
789.378	0.0158643
789.456	0.0158458
789.534	0.0158020
789.612	0.0159431
789.690	0.0158163
789.768	0.0158740
789.846	0.0159050
789.924	0.0159171
790.003	0.0159637
790.081	0.0159491
790.159	0.0158553
790.237	0.0158664
790.315	0.0158080
790.393	0.0157465
790.471	0.0157758
790.549	0.0157327
790.628	0.0157368
790.706	0.0156915
790.784	0.0157478
790.862	0.0157082
790.940	0.0158138
791.018	0.0158530
791.096	0.0158008
791.174	0.0159866
791.253	0.0159926
791.331	0.0160117
791.409	0.0160509
791.487	0.0162322
791.565	0.0162159
791.643	0.0162153
791.721	0.0163677
791.799	0.0163660
791.878	0.0162696
791.956	0.0162592
792.034	0.0162878
792.112	0.0161588
792.190	0.0161787
792.268	0.0161382
792.346	0.0161554
792.424	0.0160368
792.503	0.0158498
792.581	0.0160443
792.659	0.0160746
792.737	0.0159005
792.815	0.0159141
792.893	0.0160155
792.971	0.0160168
793.049	0.0159367
793.128	0.0159128
793.206	0.0158606
793.284	0.0159084
793.362	0.0159531
793.440	0.0159848
793.518	0.0159351
793.596	0.0160361
793.674	0.0160739
793.753	0.0159736
793.831	0.0161416
793.909	0.0161773
793.987	0.0162689
794.065	0.0161619
794.143	0.0160362
794.221	0.0161308
794.299	0.0161478
794.378	0.0162246
794.456	0.0162032
794.534	0.0161749
794.612	0.0160754
794.690	0.0159435
794.768	0.0160331
794.846	0.0160297
794.924	0.0159792
795.003	0.0159930
795.081	0.0159045
795.159	0.0159422
795.237	0.0158620
795.315	0.0159334
795.393	0.0160921
795.471	0.0159356
795.549	0.0160097
795.628	0.0159227
795.706	0.0160565
795.784	0.0159936
795.862	0.0158630
795.940	0.0157928
796.018	0.0160918
796.096	0.0158528
796.174	0.0158893
796.253	0.0158543
796.331	0.0159839
796.409	0.0157541
796.487	0.0159097
796.565	0.0160083
796.643	0.0158363
796.721	0.0159272
796.799	0.0157709
796.878	0.0156912
796.956	0.0157062
797.034	0.0159527
797.112	0.0158540
797.190	0.0158215
797.268	0.0159005
797.346	0.0159380
797.424	0.0159574
797.503	0.0159305
797.581	0.0158818
797.659	0.0158672
797.737	0.0158804
797.815	0.0159492
797.893	0.0160523
797.971	0.0161938
798.049	0.0160445
798.128	0.0161153
798.206	0.0161529
798.284	0.0160336
798.362	0.0160020
798.440	0.0162094
798.518	0.0161275
798.596	0.0160007
798.674	0.0161733
798.753	0.0161531
798.831	0.0160999
798.909	0.0160873
798.987	0.0161450
799.065	0.0161879
799.143	0.0160683
799.221	0.0159284
799.299	0.0161427
799.378	0.0160213
799.456	0.0159043
799.534	0.0160179
799.612	0.0160873
799.690	0.0159446
799.768	0.0159736
799.846	0.0159126
799.924	0.0158791
800.003	0.0160040
800.081	0.0159477
800.159	0.0160179
800.237	0.0161481
800.315	0.0159934
800.393	0.0161720
800.471	0.0162388
800.549	0.0162109
800.628	0.0161934
800.706	0.0162068
800.784	0.0161601
800.862	0.0161626
800.940	0.0161169
801.018	0.0161018
801.096	0.0160555
801.174	0.0161093
801.253	0.0161017
801.331	0.0160616
801.409	0.0159946
801.487	0.0161629
801.565	0.0161004
801.643	0.0158793
801.721	0.0159568
801.799	0.0160680
801.878	0.0160363
801.956	0.0159834
802.034	0.0160763
802.112	0.0159234
802.190	0.0160516
802.268	0.0160838
802.346	0.0160793
802.424	0.0161383
802.503	0.0159737
802.581	0.0159080
802.659	0.0159853
802.737	0.0159034
802.815	0.0157423
802.893	0.0158099
802.971	0.0157915
803.049	0.0157924
803.128	0.0157513
803.206	0.0158898
803.284	0.0158722
803.362	0.0158179
803.440	0.0156853
803.518	0.0158993
803.596	0.0159580
803.674	0.0158655
803.753	0.0159224
803.831	0.0160013
803.909	0.0159200
803.987	0.0160621
804.065	0.0161269
804.143	0.0160586
804.221	0.0160807
804.299	0.0162172
804.378	0.0161337
804.456	0.0162501
804.534	0.0161600
804.612	0.0161641
804.690	0.0163052
804.768	0.0163294
804.846	0.0162744
804.924	0.0163074
805.003	0.0162255
805.081	0.0162557
805.159	0.0164386
805.237	0.0163130
805.315	0.0162105
805.393	0.0162315
805.471	0.0162238
805.549	0.0160756
805.628	0.0161080
805.706	0.0160013
805.784	0.0159840
805.862	0.0159733
805.940	0.0160050
806.018	0.0160332
806.096	0.0159246
806.174	0.0159268
806.253	0.0158746
806.331	0.0159914
806.409	0.0158952
806.487	0.0159019
806.565	0.0160402
806.643	0.0159583
806.721	0.0158009
806.799	0.0159394
806.878	0.0160600
806.956	0.0159861
807.034	0.0160239
807.112	0.0159319
807.190	0.0159293
807.268	0.0158231
807.346	0.0159111
807.424	0.0159859
807.503	0.0159665
807.581	0.0160078
807.659	0.0160907
807.737	0.0159454
807.815	0.0159547
807.893	0.0161706
807.971	0.0161540
808.049	0.0161422
808.128	0.0161108
808.206	0.0161508
808.284	0.0160368
808.362	0.0160588
808.440	0.0161650
808.518	0.0161208
808.596	0.0160802
808.674	0.0161891
808.753	0.0159930
808.831	0.0160075
808.909	0.0159752
808.987	0.0161699
809.065	0.0159581
809.143	0.0160171
809.221	0.0158742
809.299	0.0158832
809.378	0.0158595
809.456	0.0159555
809.534	0.0160031
809.612	0.0158221
809.690	0.0158429
809.768	0.0156905
809.846	0.0158449
809.924	0.0158205
810.003	0.0157063
810.081	0.0156581
810.159	0.0157973
810.237	0.0156934
810.315	0.0157333
810.393	0.0159317
810.471	0.0157028
810.549	0.0157903
810.628	0.0157768
810.706	0.0158910
810.784	0.0159559
810.862	0.0159750
810.940	0.0159989
811.018	0.0160222
811.096	0.0162125
811.174	0.0161987
811.253	0.0163004
811.331	0.0163512
811.409	0.0161529
811.487	0.0162418
811.565	0.0163038
811.643	0.0164054
811.721	0.0163217
811.799	0.0163650
811.878	0.0162830
811.956	0.0163275
812.034	0.0163728
812.112	0.0163000
812.190	0.0162017
812.268	0.0161069
812.346	0.0161691
812.424	0.0161425
812.503	0.0161644
812.581	0.0160449
812.659	0.0160079
812.737	0.0160048
812.815	0.0160398
812.893	0.0158722
812.971	0.0159092
813.049	0.0159078
813.128	0.0158160
813.206	0.0157852
813.284	0.0159191
813.362	0.0159083
813.440	0.0158084
813.518	0.0159201
813.596	0.0158945
813.674	0.0160757
813.753	0.0160173
813.831	0.0160622
813.909	0.0161653
813.987	0.0160746
814.065	0.0161278
814.143	0.0160023
814.221	0.0159043
814.299	0.0161279
814.378	0.0161607
814.456	0.0160089
814.534	0.0160481
814.612	0.0158867
814.690	0.0160995
814.768	0.0160959
814.846	0.0159601
814.924	0.0160427
815.003	0.0160643
815.081	0.0159422
815.159	0.0160250
815.237	0.0160712
815.315	0.0160320
815.393	0.0159472
815.471	0.0159566
815.549	0.0159385
815.628	0.0159677
815.706	0.0161066
815.784	0.0161232
815.862	0.0159612
815.940	0.0158633
816.018	0.0160643
816.096	0.0160136
816.174	0.0160312
816.253	0.0159185
816.331	0.0159238
816.409	0.0161042
816.487	0.0159955
816.565	0.0158255
816.643	0.0158796
816.721	0.0158514
816.799	0.0159142
816.878	0.0158833
816.956	0.0159363
817.034	0.0159811
817.112	0.0160422
817.190	0.0159273
817.268	0.0159348
817.346	0.0160882
817.424	0.0161874
817.503	0.0160704
817.581	0.0160638
817.659	0.0161388
817.737	0.0161561
817.815	0.0162128
817.893	0.0160960
817.971	0.0162732
818.049	0.0162052
818.128	0.0161089
818.206	0.0161472
818.284	0.0162271
818.362	0.0163123
818.440	0.0162195
818.518	0.0161024
818.596	0.0160648
818.674	0.0160813
818.753	0.0159854
818.831	0.0159342
818.909	0.0160780
818.987	0.0159605
819.065	0.0159521
819.143	0.0159064
819.221	0.0158813
819.299	0.0159454
819.378	0.0160419
819.456	0.0159622
819.534	0.0159844
819.612	0.0159095
819.690	0.0159492
819.768	0.0159174
819.846	0.0159264
819.924	0.0160313
820.003	0.0159936
820.081	0.0160574
820.159	0.0160804
820.237	0.0161483
820.315	0.0161995
820.393	0.0160734
820.471	0.0162262
820.549	0.0162420
820.628	0.0161398
820.706	0.0161557
820.784	0.0162598
820.862	0.0162074
820.940	0.0160638
821.018	0.0161144
821.096	0.0160860
821.174	0.0160482
821.253	0.0160223
821.331	0.0158984
821.409	0.0159487
821.487	0.0159283
821.565	0.0158895
821.643	0.0158590
821.721	0.0159047
821.799	0.0158862
821.878	0.0158517
821.956	0.0157993
822.034	0.0157771
822.112	0.0157761
822.190	0.0158809
822.268	0.0157430
822.346	0.0157996
822.424	0.0156748
822.503	0.0156873
822.581	0.0158154
822.659	0.0156451
822.737	0.0156947
822.815	0.0157542
822.893	0.0158182
822.971	0.0157487
823.049	0.0158354
823.128	0.0157236
823.206	0.0158915
823.284	0.0160099
823.362	0.0159695
823.440	0.0160196
823.518	0.0160030
823.596	0.0160685
823.674	0.0162373
823.753	0.0160845
823.831	0.0161569
823.909	0.0162284
823.987	0.0162675
824.065	0.0163203
824.143	0.0162676
824.221	0.0163327
824.299	0.0161278
824.378	0.0162054
824.456	0.0161459
824.534	0.0162332
824.612	0.0162894
824.690	0.0161958
824.768	0.0162225
824.846	0.0162647
824.924	0.0162522
825.003	0.0162093
825.081	0.0161618
825.159	0.0162101
825.237	0.0163641
825.315	0.0162096
825.393	0.0161597
825.471	0.0160386
825.549	0.0161149
825.628	0.0161587
825.706	0.0159398
825.784	0.0159563
825.862	0.0159497
825.940	0.0157743
826.018	0.0157861
826.096	0.0158789
826.174	0.0158685
826.253	0.0158226
826.331	0.0157653
826.409	0.0157323
826.487	0.0157131
826.565	0.0157425
826.643	0.0157349
826.721	0.0157226
826.799	0.0157401
826.878	0.0157955
826.956	0.0158518
827.034	0.0157761
827.112	0.0158413
827.190	0.0159055
827.268	0.0157966
827.346	0.0157952
827.424	0.0159762
827.503	0.0160624
827.581	0.0160764
827.659	0.0159698
827.737	0.0160720
827.815	0.0161793
827.893	0.0161466
827.971	0.0161554
828.049	0.0161250
828.128	0.0161191
828.206	0.0161272
828.284	0.0161126
828.362	0.0160717
828.440	0.0162133
828.518	0.0161400
828.596	0.0161210
828.674	0.0160459
828.753	0.0160940
828.831	0.0161430
828.909	0.0161120
828.987	0.0161053
829.065	0.0160287
829.143	0.0161523
829.221	0.0160999
829.299	0.0159541
829.378	0.0159673
829.456	0.0160650
829.534	0.0160273
829.612	0.0160610
829.690	0.0160890
829.768	0.0159375
829.846	0.0159386
829.924	0.0159515
830.003	0.0159386
830.081	0.0159013
830.159	0.0159607
830.237	0.0157836
830.315	0.0157619
830.393	0.0159214
830.471	0.0159418
830.549	0.0158094
830.628	0.0160386
830.706	0.0159945
830.784	0.0157862
830.862	0.0159078
830.940	0.0158917
831.018	0.0159545
831.096	0.0160844
831.174	0.0159999
831.253	0.0161416
831.331	0.0161787
831.409	0.0161385
831.487	0.0161720
831.565	0.0161019
831.643	0.0161163
831.721	0.0161945
831.799	0.0161690
831.878	0.0161591
831.956	0.0160944
832.034	0.0162225
832.112	0.0163247
832.190	0.0161855
832.268	0.0161418
832.346	0.0161905
832.424	0.0163164
832.503	0.0161164
832.581	0.0161121
832.659	0.0162044
832.737	0.0162287
832.815	0.0160400
832.893	0.0160320
832.971	0.0161272
833.049	0.0162154
833.128	0.0160077
833.206	0.0159000
833.284	0.0160564
833.362	0.0160104
833.440	0.0159184
833.518	0.0159389
833.596	0.0159131
833.674	0.0158292
833.753	0.0159972
833.831	0.0159007
833.909	0.0158795
833.987	0.0158400
834.065	0.0158717
834.143	0.0159925
834.221	0.0160022
834.299	0.0158438
834.378	0.0159978
834.456	0.0159556
834.534	0.0158510
834.612	0.0160230
834.690	0.0160516
834.768	0.0160471
834.846	0.0159478
834.924	0.0159856
835.003	0.0158878
835.081	0.0159837
835.159	0.0158452
835.237	0.0158307
835.315	0.0160844
835.393	0.0160490
835.471	0.0159920
835.549	0.0161088
835.628	0.0160480
835.706	0.0160583
835.784	0.0160670
835.862	0.0160220
835.940	0.0161716
836.018	0.0160365
836.096	0.0160238
836.174	0.0160197
836.253	0.0160808
836.331	0.0161143
836.409	0.0160363
836.487	0.0161387
836.565	0.0162180
836.643	0.0159515
836.721	0.0160912
836.799	0.0160622
836.878	0.0161047
836.956	0.0160181
837.034	0.0161733
837.112	0.0160620
837.190	0.0161193
837.268	0.0161024
837.346	0.0160806
837.424	0.0161140
837.503	0.0160530
837.581	0.0160741
837.659	0.0161224
837.737	0.0160908
837.815	0.0161665
837.893	0.0161388
837.971	0.0160506
838.049	0.0160842
838.128	0.0160277
838.206	0.0161192
838.284	0.0161294
838.362	0.0161880
838.440	0.0161453
838.518	0.0159951
838.596	0.0160777
838.674	0.0161144
838.753	0.0160744
838.831	0.0160593
838.909	0.0161573
838.987	0.0160084
839.065	0.0160765
839.143	0.0160127
839.221	0.0160970
839.299	0.0160535
839.378	0.0160413
839.456	0.0158510
839.534	0.0159801
839.612	0.0159551
839.690	0.0159968
839.768	0.0158926
839.846	0.0158228
839.924	0.0158842
840.003	0.0158804
840.081	0.0158698
840.159	0.0158205
840.237	0.0157842
840.315	0.0158754
840.393	0.0157966
840.471	0.0158772
840.549	0.0158930
840.628	0.0158960
840.706	0.0158202
840.784	0.0159006
840.862	0.0158800
840.940	0.0159528
841.018	0.0158985
841.096	0.0160503
841.174	0.0161710
841.253	0.0160992
841.331	0.0161821
841.409	0.0160171
841.487	0.0159631
841.565	0.0161401
841.643	0.0162048
841.721	0.0159711
841.799	0.0160462
841.878	0.0160456
841.956	0.0162919
842.034	0.0162160
842.112	0.0161134
842.190	0.0160619
842.268	0.0160873
842.346	0.0160536
842.424	0.0161277
842.503	0.0162294
842.581	0.0161077
842.659	0.0160284
842.737	0.0162223
842.815	0.0162720
842.893	0.0161879
842.971	0.0160844
843.049	0.0161826
843.128	0.0161519
843.206	0.0160782
843.284	0.0161338
843.362	0.0160828
843.440	0.0161523
843.518	0.0160450
843.596	0.0159393
843.674	0.0159352
843.753	0.0159805
843.831	0.0158382
843.909	0.0158636
843.987	0.0159967
844.065	0.0158452
844.143	0.0158282
844.221	0.0158923
844.299	0.0157498
844.378	0.0159271
844.456	0.0158704
844.534	0.0157903
844.612	0.0158868
844.690	0.0158264
844.768	0.0158441
844.846	0.0158978
844.924	0.0159642
845.003	0.0159950
845.081	0.0160306
845.159	0.0159838
845.237	0.0161259
845.315	0.0160373
845.393	0.0160884
845.471	0.0161131
845.549	0.0160371
845.628	0.0161862
845.706	0.0163018
845.784	0.0161752
845.862	0.0160531
845.940	0.0160900
846.018	0.0161212
846.096	0.0160522
846.174	0.0159963
846.253	0.0161850
846.331	0.0160950
846.409	0.0161859
846.487	0.0160420
846.565	0.0161557
846.643	0.0160074
846.721	0.0159956
846.799	0.0161168
846.878	0.0160613
846.956	0.0160580
847.034	0.0160769
847.112	0.0161578
847.190	0.0161200
847.268	0.0160231
847.346	0.0160512
847.424	0.0160054
847.503	0.0160468
847.581	0.0161264
847.659	0.0159877
847.737	0.0160876
847.815	0.0160746
847.893	0.0161790
847.971	0.0161196
848.049	0.0161466
848.128	0.0159840
848.206	0.0160509
848.284	0.0161508
848.362	0.0162528
848.440	0.0158799
848.518	0.0160089
848.596	0.0159644
848.674	0.0159474
848.753	0.0159563
848.831	0.0161388
848.909	0.0159525
848.987	0.0159492
849.065	0.0159689
849.143	0.0159808
849.221	0.0159953
849.299	0.0159340
849.378	0.0160229
849.456	0.0158263
849.534	0.0160535
849.612	0.0160945
849.690	0.0160834
849.768	0.0159140
849.846	0.0159634
849.924	0.0160201
850.003	0.0159913
850.081	0.0160769
850.159	0.0160204
850.237	0.0159038
850.315	0.0159049
850.393	0.0160225
850.471	0.0160361
850.549	0.0161362
850.628	0.0160213
850.706	0.0159085
850.784	0.0159452
850.862	0.0160213
850.940	0.0160325
851.018	0.0159473
851.096	0.0159894
851.174	0.0159151
851.253	0.0159770
851.331	0.0160992
851.409	0.0160942
851.487	0.0161003
851.565	0.0161951
851.643	0.0161266
851.721	0.0162486
851.799	0.0161633
851.878	0.0160629
851.956	0.0161227
852.034	0.0161844
852.112	0.0162117
852.190	0.0161803
852.268	0.0162307
852.346	0.0163273
852.424	0.0161803
852.503	0.0161623
852.581	0.0161678
852.659	0.0162383
852.737	0.0162387
852.815	0.0163363
852.893	0.0161966
852.971	0.0160542
853.049	0.0161318
853.128	0.0161258
853.206	0.0160864
853.284	0.0160417
853.362	0.0160062
853.440	0.0159767
853.518	0.0159999
853.596	0.0158584
853.674	0.0159494
853.753	0.0158421
853.831	0.0158831
853.909	0.0160301
853.987	0.0157596
854.065	0.0158167
854.143	0.0158897
854.221	0.0158741
854.299	0.0160037
854.378	0.0159035
854.456	0.0158737
854.534	0.0157711
854.612	0.0159448
854.690	0.0159938
854.768	0.0159068
854.846	0.0160252
854.924	0.0159161
855.003	0.0160354
855.081	0.0160474
855.159	0.0161172
855.237	0.0158014
855.315	0.0159260
855.393	0.0161446
855.471	0.0159367
855.549	0.0161108
855.628	0.0159998
855.706	0.0160657
855.784	0.0161004
855.862	0.0160352
855.940	0.0159232
856.018	0.0160452
856.096	0.0160780
856.174	0.0160706
856.253	0.0160090
856.331	0.0161121
856.409	0.0160085
856.487	0.0160618
856.565	0.0160934
856.643	0.0160239
856.721	0.0161348
856.799	0.0161872
856.878	0.0159631
856.956	0.0161905
857.034	0.0162772
857.112	0.0160762
857.190	0.0160796
857.268	0.0160163
857.346	0.0160300
857.424	0.0160458
857.503	0.0160103
857.581	0.0161992
857.659	0.0161623
857.737	0.0159822
857.815	0.0159200
857.893	0.0160200
857.971	0.0159669
858.049	0.0160257
858.128	0.0160947
858.206	0.0159539
858.284	0.0159470
858.362	0.0159660
858.440	0.0160569
858.518	0.0159789
858.596	0.0160442
858.674	0.0159901
858.753	0.0159659
858.831	0.0159943
858.909	0.0160223
858.987	0.0159578
859.065	0.0159328
859.143	0.0160913
859.221	0.0161047
859.299	0.0160480
859.378	0.0161520
859.456	0.0161057
859.534	0.0160237
859.612	0.0161657
859.690	0.0159661
859.768	0.0161134
859.846	0.0161292
859.924	0.0159735
860.003	0.0160047
860.081	0.0160254
860.159	0.0160460
860.237	0.0160545
860.315	0.0159880
860.393	0.0158260
860.471	0.0158363
860.549	0.0159692
860.628	0.0159013
860.706	0.0157645
860.784	0.0158956
860.862	0.0159740
860.940	0.0158895
861.018	0.0158047
861.096	0.0159538
861.174	0.0159502
861.253	0.0160483
861.331	0.0160322
861.409	0.0160158
861.487	0.0159858
861.565	0.0159695
861.643	0.0160516
861.721	0.0161781
861.799	0.0161253
861.878	0.0161780
861.956	0.0160657
862.034	0.0160641
862.112	0.0161819
862.190	0.0161359
862.268	0.0161623
862.346	0.0162009
862.424	0.0161471
862.503	0.0161928
862.581	0.0161364
862.659	0.0161837
862.737	0.0159824
862.815	0.0161353
862.893	0.0161097
862.971	0.0160141
863.049	0.0161626
863.128	0.0159892
863.206	0.0160014
863.284	0.0161964
863.362	0.0160213
863.440	0.0159021
863.518	0.0159571
863.596	0.0159821
863.674	0.0159937
863.753	0.0160914
863.831	0.0161089
863.909	0.0159482
863.987	0.0159410
864.065	0.0160368
864.143	0.0158610
864.221	0.0159300
864.299	0.0157351
864.378	0.0158643
864.456	0.0157169
864.534	0.0157513
864.612	0.0157510
864.690	0.0159205
864.768	0.0159358
864.846	0.0158712
864.924	0.0158762
865.003	0.0158069
865.081	0.0159347
865.159	0.0159779
865.237	0.0158307
865.315	0.0158036
865.393	0.0159931
865.471	0.0160390
865.549	0.0159445
865.628	0.0160519
865.706	0.0162064
865.784	0.0160956
865.862	0.0161339
865.940	0.0161552
866.018	0.0161566
866.096	0.0161480
866.174	0.0161668
866.253	0.0162865
866.331	0.0160627
866.409	0.0162047
866.487	0.0161453
866.565	0.0161461
866.643	0.0160826
866.721	0.0160033
866.799	0.0159496
866.878	0.0160528
866.956	0.0161372
867.034	0.0159328
867.112	0.0159775
867.190	0.0161472
867.268	0.0159566
867.346	0.0158772
867.424	0.0159545
867.503	0.0158542
867.581	0.0159205
867.659	0.0159631
867.737	0.0160778
867.815	0.0158977
867.893	0.0160811
867.971	0.0161599
868.049	0.0159971
868.128	0.0159604
868.206	0.0160166
868.284	0.0159172
868.362	0.0161427
868.440	0.0159028
868.518	0.0161983
868.596	0.0161333
868.674	0.0160507
868.753	0.0160492
868.831	0.0160734
868.909	0.0162417
868.987	0.0160841
869.065	0.0158554
869.143	0.0160805
869.221	0.0158722
869.299	0.0159644
869.378	0.0160974
869.456	0.0158941
869.534	0.0159281
869.612	0.0158640
869.690	0.0158123
869.768	0.0157533
869.846	0.0159375
869.924	0.0158865
870.003	0.0159244
870.081	0.0158582
870.159	0.0158915
870.237	0.0158251
870.315	0.0158183
870.393	0.0158272
870.471	0.0158527
870.549	0.0157427
870.628	0.0158482
870.706	0.0158649
870.784	0.0157429
870.862	0.0157743
870.940	0.0158085
871.018	0.0158558
871.096	0.0159493
871.174	0.0158461
871.253	0.0157676
871.331	0.0157224
871.409	0.0159052
871.487	0.0159589
871.565	0.0159030
871.643	0.0159372
871.721	0.0159678
871.799	0.0160007
871.878	0.0159741
871.956	0.0161002
872.034	0.0159399
872.112	0.0160691
872.190	0.0161401
872.268	0.0161372
872.346	0.0161317
872.424	0.0161097
872.503	0.0160740
872.581	0.0161149
872.659	0.0161700
872.737	0.0161101
872.815	0.0161529
872.893	0.0161328
872.971	0.0161047
873.049	0.0161095
873.128	0.0162099
873.206	0.0161864
873.284	0.0161861
873.362	0.0160866
873.440	0.0161409
873.518	0.0161465
873.596	0.0161858
873.674	0.0160717
873.753	0.0159779
873.831	0.0159628
873.909	0.0161173
873.987	0.0159502
874.065	0.0159688
874.143	0.0161094
874.221	0.0160061
874.299	0.0160099
874.378	0.0160047
874.456	0.0159578
874.534	0.0159650
874.612	0.0159793
874.690	0.0160423
874.768	0.0160217
874.846	0.0161131
874.924	0.0161228
875.003	0.0160116
875.081	0.0159940
875.159	0.0160491
875.237	0.0160642
875.315	0.0161725
875.393	0.0159212
875.471	0.0160101
875.549	0.0160195
875.628	0.0158425
875.706	0.0159400
875.784	0.0160153
875.862	0.0159061
875.940	0.0160307
876.018	0.0159396
876.096	0.0158356
876.174	0.0158804
876.253	0.0159473
876.331	0.0159100
876.409	0.0159717
876.487	0.0158892
876.565	0.0158356
876.643	0.0158207
876.721	0.0159628
876.799	0.0158667
876.878	0.0159885
876.956	0.0160191
877.034	0.0159763
877.112	0.0160769
877.190	0.0159845
877.268	0.0160030
877.346	0.0161465
877.424	0.0160501
877.503	0.0159991
877.581	0.0160603
877.659	0.0160918
877.737	0.0160190
877.815	0.0162094
877.893	0.0161178
877.971	0.0160430
878.049	0.0159784
878.128	0.0159814
878.206	0.0161359
878.284	0.0161549
878.362	0.0161401
878.440	0.0161836
878.518	0.0163636
878.596	0.0161772
878.674	0.0161598
878.753	0.0161910
878.831	0.0160839
878.909	0.0161862
878.987	0.0162062
879.065	0.0161520
879.143	0.0162307
879.221	0.0162093
879.299	0.0160953
879.378	0.0161590
879.456	0.0161515
879.534	0.0161314
879.612	0.0160239
879.690	0.0161678
879.768	0.0159265
879.846	0.0160154
879.924	0.0160256
880.003	0.0159489
880.081	0.0159655
880.159	0.0159802
880.237	0.0160210
880.315	0.0159016
880.393	0.0159756
880.471	0.0158512
880.549	0.0158209
880.628	0.0157925
880.706	0.0159743
880.784	0.0159039
880.862	0.0157509
880.940	0.0157763
881.018	0.0158604
881.096	0.0160139
881.174	0.0160151
881.253	0.0158066
881.331	0.0158659
881.409	0.0159595
881.487	0.0159418
881.565	0.0159968
881.643	0.0160386
881.721	0.0161478
881.799	0.0159119
881.878	0.0161148
881.956	0.0161230
882.034	0.0161231
882.112	0.0160838
882.190	0.0161855
882.268	0.0161187
882.346	0.0160545
882.424	0.0160809
882.503	0.0161250
882.581	0.0160622
882.659	0.0161568
882.737	0.0161127
882.815	0.0160538
882.893	0.0160804
882.971	0.0163094
883.049	0.0161065
883.128	0.0159643
883.206	0.0159551
883.284	0.0161108
883.362	0.0161094
883.440	0.0160981
883.518	0.0161197
883.596	0.0162328
883.674	0.0159744
883.753	0.0160464
883.831	0.0160902
883.909	0.0160821
883.987	0.0159985
884.065	0.0162598
884.143	0.0162335
884.221	0.0160485
884.299	0.0160001
884.378	0.0162153
884.456	0.0160983
884.534	0.0160560
884.612	0.0159946
884.690	0.0160426
884.768	0.0162251
884.846	0.0161586
884.924	0.0160285
885.003	0.0159455
885.081	0.0160429
885.159	0.0159613
885.237	0.0159071
885.315	0.0160484
885.393	0.0160626
885.471	0.0159275
885.549	0.0160165
885.628	0.0159937
885.706	0.0159972
885.784	0.0160248
885.862	0.0159184
885.940	0.0159957
886.018	0.0158041
886.096	0.0159796
886.174	0.0159325
886.253	0.0159742
886.331	0.0158380
886.409	0.0159956
886.487	0.0159878
886.565	0.0159951
886.643	0.0159819
886.721	0.0160866
886.799	0.0158865
886.878	0.0158608
886.956	0.0157624
887.034	0.0160075
887.112	0.0159845
887.190	0.0159066
887.268	0.0160588
887.346	0.0160174
887.424	0.0159316
887.503	0.0160423
887.581	0.0158974
887.659	0.0158495
887.737	0.0160031
887.815	0.0162200
887.893	0.0160383
887.971	0.0159141
888.049	0.0160788
888.128	0.0161710
888.206	0.0160480
888.284	0.0160225
888.362	0.0160870
888.440	0.0161909
888.518	0.0161599
888.596	0.0159742
888.674	0.0161349
888.753	0.0160546
888.831	0.0161331
888.909	0.0162126
888.987	0.0160531
889.065	0.0160434
889.143	0.0159339
889.221	0.0161638
889.299	0.0160944
889.378	0.0159791
889.456	0.0159889
889.534	0.0160690
889.612	0.0160521
889.690	0.0161244
889.768	0.0158932
889.846	0.0160513
889.924	0.0158734
890.003	0.0160265
890.081	0.0161640
890.159	0.0161381
890.237	0.0160765
890.315	0.0159672
890.393	0.0160499
890.471	0.0160831
890.549	0.0160321
890.628	0.0159476
890.706	0.0161533
890.784	0.0161311
890.862	0.0160030
890.940	0.0160474
891.018	0.0159225
891.096	0.0158852
891.174	0.0159106
891.253	0.0161293
891.331	0.0160509
891.409	0.0159383
891.487	0.0159443
891.565	0.0159617
891.643	0.0159659
891.721	0.0158153
891.799	0.0159032
891.878	0.0160118
891.956	0.0158434
892.034	0.0159237
892.112	0.0160248
892.190	0.0159846
892.268	0.0158749
892.346	0.0158590
892.424	0.0160111
892.503	0.0159915
892.581	0.0161634
892.659	0.0159359
892.737	0.0160358
892.815	0.0159851
892.893	0.0159818
892.971	0.0159534
893.049	0.0159673
893.128	0.0161327
893.206	0.0160992
893.284	0.0159809
893.362	0.0159990
893.440	0.0160731
893.518	0.0160383
893.596	0.0159365
893.674	0.0159619
893.753	0.0160783
893.831	0.0161813
893.909	0.0160593
893.987	0.0159942
894.065	0.0160171
894.143	0.0160580
894.221	0.0161380
894.299	0.0159477
894.378	0.0160580
894.456	0.0162362
894.534	0.0159868
894.612	0.0160305
894.690	0.0159891
894.768	0.0160276
894.846	0.0161433
894.924	0.0161396
895.003	0.0160176
895.081	0.0160065
895.159	0.0160169
895.237	0.0161338
895.315	0.0161214
895.393	0.0160644
895.471	0.0160809
895.549	0.0161987
895.628	0.0160990
895.706	0.0160718
895.784	0.0161141
895.862	0.0160271
895.940	0.0160933
896.018	0.0159572
896.096	0.0159583
896.174	0.0161034
896.253	0.0159693
896.331	0.0160200
896.409	0.0159557
896.487	0.0158569
896.565	0.0159682
896.643	0.0160097
896.721	0.0158956
896.799	0.0159733
896.878	0.0160513
896.956	0.0158031
897.034	0.0158331
897.112	0.0160887
897.190	0.0159862
897.268	0.0159354
897.346	0.0160143
897.424	0.0161275
897.503	0.0160703
897.581	0.0159819
897.659	0.0160216
897.737	0.0159022
897.815	0.0160609
897.893	0.0161178
897.971	0.0161763
898.049	0.0160883
898.128	0.0161301
898.206	0.0161765
898.284	0.0160859
898.362	0.0160920
898.440	0.0162835
898.518	0.0161892
898.596	0.0161756
898.674	0.0160895
898.753	0.0161550
898.831	0.0160715
898.909	0.0162708
898.987	0.0161517
899.065	0.0161648
899.143	0.0161205
899.221	0.0162286
899.299	0.0162817
899.378	0.0161195
899.456	0.0161788
899.534	0.0162415
899.612	0.0161987
899.690	0.0161452
899.768	0.0159946
899.846	0.0160191
899.924	0.0162106
900.003	0.0159247
900.081	0.0159718
900.159	0.0159910
900.237	0.0158645
900.315	0.0158849
900.393	0.0159785
900.471	0.0159001
900.549	0.0160577
900.628	0.0158850
900.706	0.0158080
900.784	0.0160226
900.862	0.0159817
900.940	0.0158553
901.018	0.0159544
901.096	0.0159932
901.174	0.0158944
901.253	0.0160349
901.331	0.0159102
901.409	0.0160289
901.487	0.0159786
901.565	0.0160096
901.643	0.0160488
901.721	0.0161457
901.799	0.0161227
901.878	0.0160148
901.956	0.0161128
902.034	0.0160909
902.112	0.0161303
902.190	0.0161546
902.268	0.0160741
902.346	0.0161417
902.424	0.0161107
902.503	0.0160906
902.581	0.0160825
902.659	0.0160396
902.737	0.0160894
902.815	0.0160153
902.893	0.0160519
902.971	0.0159716
903.049	0.0160179
903.128	0.0158883
903.206	0.0160779
903.284	0.0160169
903.362	0.0159131
903.440	0.0159021
903.518	0.0159969
903.596	0.0161352
903.674	0.0158136
903.753	0.0159981
903.831	0.0160905
903.909	0.0159747
903.987	0.0161409
904.065	0.0160884
904.143	0.0159860
904.221	0.0160282
904.299	0.0160897
904.378	0.0162341
904.456	0.0159171
904.534	0.0159729
904.612	0.0161714
904.690	0.0161272
904.768	0.0161088
904.846	0.0160909
904.924	0.0160912
905.003	0.0160581
905.081	0.0160662
905.159	0.0160400
905.237	0.0161986
905.315	0.0160924
905.393	0.0160825
905.471	0.0161475
905.549	0.0160915
905.628	0.0161346
905.706	0.0159975
905.784	0.0159126
905.862	0.0159856
905.940	0.0160333
906.018	0.0159171
906.096	0.0160072
906.174	0.0161352
906.253	0.0160950
906.331	0.0161755
906.409	0.0159965
906.487	0.0159063
906.565	0.0160310
906.643	0.0160929
906.721	0.0160577
906.799	0.0160064
906.878	0.0159639
906.956	0.0160716
907.034	0.0160555
907.112	0.0160056
907.190	0.0161002
907.268	0.0159148
907.346	0.0159777
907.424	0.0160181
907.503	0.0159470
907.581	0.0158328
907.659	0.0160007
907.737	0.0159078
907.815	0.0160035
907.893	0.0159066
907.971	0.0159613
908.049	0.0159747
908.128	0.0161188
908.206	0.0160573
908.284	0.0161192
908.362	0.0160662
908.440	0.0161861
908.518	0.0161942
908.596	0.0160034
908.674	0.0161683
908.753	0.0162032
908.831	0.0162366
908.909	0.0160257
908.987	0.0160236
909.065	0.0160949
909.143	0.0160102
909.221	0.0160867
909.299	0.0161660
909.378	0.0158949
909.456	0.0159978
909.534	0.0159799
909.612	0.0160102
909.690	0.0161237
909.768	0.0160401
909.846	0.0159917
909.924	0.0159322
910.003	0.0159775
910.081	0.0159634
910.159	0.0159907
910.237	0.0160846
910.315	0.0160239
910.393	0.0159727
910.471	0.0160480
910.549	0.0160587
910.628	0.0159732
910.706	0.0160903
910.784	0.0161443
910.862	0.0160326
910.940	0.0159933
911.018	0.0160176
911.096	0.0161673
911.174	0.0162022
911.253	0.0162130
911.331	0.0160364
911.409	0.0162334
911.487	0.0161324
911.565	0.0161662
911.643	0.0161258
911.721	0.0161950
911.799	0.0161604
911.878	0.0161810
911.956	0.0161382
912.034	0.0161038
912.112	0.0160567
912.190	0.0159859
912.268	0.0161438
912.346	0.0161296
912.424	0.0159117
912.503	0.0160122
912.581	0.0160579
912.659	0.0160263
912.737	0.0158318
912.815	0.0161063
912.893	0.0158405
912.971	0.0158447
913.049	0.0159194
913.128	0.0160072
913.206	0.0158957
913.284	0.0159969
913.362	0.0160796
913.440	0.0159718
913.518	0.0160252
913.596	0.0160287
913.674	0.0159612
913.753	0.0159614
913.831	0.0160725
913.909	0.0160129
913.987	0.0159638
914.065	0.0158827
914.143	0.0160867
914.221	0.0161677
914.299	0.0161462
914.378	0.0160760
914.456	0.0162211
914.534	0.0161112
914.612	0.0161527
914.690	0.0161150
914.768	0.0161215
914.846	0.0161082
914.924	0.0161997
915.003	0.0161989
915.081	0.0162555
915.159	0.0160876
915.237	0.0160626
915.315	0.0160128
915.393	0.0162968
915.471	0.0162464
915.549	0.0161227
915.628	0.0160887
915.706	0.0160732
915.784	0.0159696
915.862	0.0159988
915.940	0.0160013
916.018	0.0159364
916.096	0.0160231
916.174	0.0160102
916.253	0.0160259
916.331	0.0159315
916.409	0.0158654
916.487	0.0158991
916.565	0.0159259
916.643	0.0159025
916.721	0.0159241
916.799	0.0158862
916.878	0.0159089
916.956	0.0159135
917.034	0.0160317
917.112	0.0159776
917.190	0.0159789
917.268	0.0159039
917.346	0.0161097
917.424	0.0159964
917.503	0.0160319
917.581	0.0160643
917.659	0.0160669
917.737	0.0159881
917.815	0.0161684
917.893	0.0161721
917.971	0.0162112
918.049	0.0161329
918.128	0.0160725
918.206	0.0160740
918.284	0.0161176
918.362	0.0162144
918.440	0.0162099
918.518	0.0161134
918.596	0.0161504
918.674	0.0161211
918.753	0.0162374
918.831	0.0160285
918.909	0.0160576
918.987	0.0162240
919.065	0.0160561
919.143	0.0161502
919.221	0.0159579
919.299	0.0160002
919.378	0.0161019
919.456	0.0160664
919.534	0.0161086
919.612	0.0158943
919.690	0.0159590
919.768	0.0159943
919.846	0.0158943
919.924	0.0159836
920.003	0.0160047
920.081	0.0159971
920.159	0.0159073
920.237	0.0160172
920.315	0.0159103
920.393	0.0159591
920.471	0.0161497
920.549	0.0161540
920.628	0.0159467
920.706	0.0159006
920.784	0.0160487
920.862	0.0160602
920.940	0.0159835
921.018	0.0160117
921.096	0.0160765
921.174	0.0162206
921.253	0.0160600
921.331	0.0160371
921.409	0.0161594
921.487	0.0161546
921.565	0.0160150
921.643	0.0159838
921.721	0.0161041
921.799	0.0163623
921.878	0.0160361
921.956	0.0160715
922.034	0.0162069
922.112	0.0160837
922.190	0.0159945
922.268	0.0160352
922.346	0.0160501
922.424	0.0160583
922.503	0.0159253
922.581	0.0161373
922.659	0.0159743
922.737	0.0161652
922.815	0.0162350
922.893	0.0161262
922.971	0.0161172
923.049	0.0160630
923.128	0.0160972
923.206	0.0160489
923.284	0.0162100
923.362	0.0159539
923.440	0.0160594
923.518	0.0160738
923.596	0.0160517
923.674	0.0161934
923.753	0.0160362
923.831	0.0160937
923.909	0.0160047
923.987	0.0159663
924.065	0.0160944
924.143	0.0161340
924.221	0.0159512
924.299	0.0159256
924.378	0.0159324
924.456	0.0159923
924.534	0.0159732
924.612	0.0159129
924.690	0.0159277
924.768	0.0160797
924.846	0.0160710
924.924	0.0159495
925.003	0.0160465
925.081	0.0161626
925.159	0.0159759
925.237	0.0160265
925.315	0.0160962
925.393	0.0161401
925.471	0.0160432
925.549	0.0161220
925.628	0.0161383
925.706	0.0162476
925.784	0.0161651
925.862	0.0160381
925.940	0.0161636
926.018	0.0161609
926.096	0.0161398
926.174	0.0159590
926.253	0.0160814
926.331	0.0162074
926.409	0.0161217
926.487	0.0161050
926.565	0.0160538
926.643	0.0161135
926.721	0.0160239
926.799	0.0160677
926.878	0.0161145
926.956	0.0161217
927.034	0.0161649
927.112	0.0159843
927.190	0.0161204
927.268	0.0162118
927.346	0.0159454
927.424	0.0160814
927.503	0.0159663
927.581	0.0158258
927.659	0.0160764
927.737	0.0161152
927.815	0.0161127
927.893	0.0160542
927.971	0.0160020
928.049	0.0159975
928.128	0.0160764
928.206	0.0159005
928.284	0.0158684
928.362	0.0159904
928.440	0.0159354
928.518	0.0159165
928.596	0.0159416
928.674	0.0157801
928.753	0.0159247
928.831	0.0160573
928.909	0.0161347
928.987	0.0160370
929.065	0.0160489
929.143	0.0160075
929.221	0.0160641
929.299	0.0159742
929.378	0.0160894
929.456	0.0161366
929.534	0.0160435
929.612	0.0160544
929.690	0.0161381
929.768	0.0160674
929.846	0.0161499
929.924	0.0161102
930.003	0.0161034
930.081	0.0161353
930.159	0.0160457
930.237	0.0160796
930.315	0.0161255
930.393	0.0160271
930.471	0.0161414
930.549	0.0160792
930.628	0.0161251
930.706	0.0160918
930.784	0.0160957
930.862	0.0160786
930.940	0.0160353
931.018	0.0160484
931.096	0.0159936
931.174	0.0160432
931.253	0.0160638
931.331	0.0161288
931.409	0.0160736
931.487	0.0160532
931.565	0.0160336
931.643	0.0160923
931.721	0.0160123
931.799	0.0160490
931.878	0.0161813
931.956	0.0160596
932.034	0.0160706
932.112	0.0160900
932.190	0.0159148
932.268	0.0159556
932.346	0.0159846
932.424	0.0160117
932.503	0.0161002
932.581	0.0161032
932.659	0.0162500
932.737	0.0161033
932.815	0.0159097
932.893	0.0159837
932.971	0.0161275
933.049	0.0161907
933.128	0.0159798
933.206	0.0159333
933.284	0.0162016
933.362	0.0162416
933.440	0.0161801
933.518	0.0160768
933.596	0.0160393
933.674	0.0159030
933.753	0.0160708
933.831	0.0160844
933.909	0.0159051
933.987	0.0160312
934.065	0.0159660
934.143	0.0161081
934.221	0.0159205
934.299	0.0161025
934.378	0.0159562
934.456	0.0160792
934.534	0.0159919
934.612	0.0159011
934.690	0.0158313
934.768	0.0159110
934.846	0.0159740
934.924	0.0160036
935.003	0.0157961
935.081	0.0159975
935.159	0.0159839
935.237	0.0159666
935.315	0.0158740
935.393	0.0160075
935.471	0.0160414
935.549	0.0160512
935.628	0.0159090
935.706	0.0159174
935.784	0.0160112
935.862	0.0160439
935.940	0.0161360
936.018	0.0160326
936.096	0.0160185
936.174	0.0160506
936.253	0.0160066
936.331	0.0159222
936.409	0.0160972
936.487	0.0160488
936.565	0.0159536
936.643	0.0159023
936.721	0.0159872
936.799	0.0159427
936.878	0.0158742
936.956	0.0158509
937.034	0.0158523
937.112	0.0159203
937.190	0.0161290
937.268	0.0159219
937.346	0.0159115
937.424	0.0158024
937.503	0.0160590
937.581	0.0159715
937.659	0.0160632
937.737	0.0158910
937.815	0.0159457
937.893	0.0160262
937.971	0.0158366
938.049	0.0160290
938.128	0.0159337
938.206	0.0159633
938.284	0.0158779
938.362	0.0158287
938.440	0.0160850
938.518	0.0161627
938.596	0.0160283
938.674	0.0160297
938.753	0.0160624
938.831	0.0158954
938.909	0.0159830
938.987	0.0159077
939.065	0.0159853
939.143	0.0160320
939.221	0.0159500
939.299	0.0159882
939.378	0.0160303
939.456	0.0159970
939.534	0.0159116
939.612	0.0160592
939.690	0.0160361
939.768	0.0161140
939.846	0.0159254
939.924	0.0160398
940.003	0.0160453
940.081	0.0160267
940.159	0.0159502
940.237	0.0159964
940.315	0.0159520
940.393	0.0159859
940.471	0.0158431
940.549	0.0161282
940.628	0.0160478
940.706	0.0161073
940.784	0.0159433
940.862	0.0160544
940.940	0.0160369
941.018	0.0159866
941.096	0.0160841
941.174	0.0160514
941.253	0.0159943
941.331	0.0159774
941.409	0.0159697
941.487	0.0159686
941.565	0.0158906
941.643	0.0160947
941.721	0.0159643
941.799	0.0160860
941.878	0.0160658
941.956	0.0159803
942.034	0.0159624
942.112	0.0160552
942.190	0.0160669
942.268	0.0160464
942.346	0.0159747
942.424	0.0160503
942.503	0.0160377
942.581	0.0160197
942.659	0.0159876
942.737	0.0160517
942.815	0.0161561
942.893	0.0159866
942.971	0.0159444
943.049	0.0160037
943.128	0.0161481
943.206	0.0160783
943.284	0.0161324
943.362	0.0161461
943.440	0.0161549
943.518	0.0161101
943.596	0.0161302
943.674	0.0161801
943.753	0.0161169
943.831	0.0160141
943.909	0.0161263
943.987	0.0160996
944.065	0.0162633
944.143	0.0160057
944.221	0.0160846
944.299	0.0160246
944.378	0.0161017
944.456	0.0159280
944.534	0.0159411
944.612	0.0161355
944.690	0.0160386
944.768	0.0160432
944.846	0.0160241
944.924	0.0159802
945.003	0.0160117
945.081	0.0160150
945.159	0.0160062
945.237	0.0159212
945.315	0.0161429
945.393	0.0159462
945.471	0.0159805
945.549	0.0160453
945.628	0.0160463
945.706	0.0161430
945.784	0.0160857
945.862	0.0159199
945.940	0.0160593
946.018	0.0161032
946.096	0.0160397
946.174	0.0161467
946.253	0.0161366
946.331	0.0159681
946.409	0.0159764
946.487	0.0159593
946.565	0.0162988
946.643	0.0160043
946.721	0.0160106
946.799	0.0160856
946.878	0.0160972
946.956	0.0161736
947.034	0.0160808
947.112	0.0160670
947.190	0.0162168
947.268	0.0160477
947.346	0.0159629
947.424	0.0161451
947.503	0.0161670
947.581	0.0160564
947.659	0.0161444
947.737	0.0161687
947.815	0.0162003
947.893	0.0162648
947.971	0.0160643
948.049	0.0161492
948.128	0.0160630
948.206	0.0159944
948.284	0.0160981
948.362	0.0160633
948.440	0.0159550
948.518	0.0160770
948.596	0.0160880
948.674	0.0159692
948.753	0.0159919
948.831	0.0161020
948.909	0.0159904
948.987	0.0159050
949.065	0.0160416
949.143	0.0160104
949.221	0.0160241
949.299	0.0160700
949.378	0.0160430
949.456	0.0160957
949.534	0.0162379
949.612	0.0161722
949.690	0.0161166
949.768	0.0159812
949.846	0.0160503
949.924	0.0160381
