06/29/2022	23:07:46	Ver.	4.1	UNKNOWN
Optical Delay	630.002507	Delta X		0.078125	Sweeps	1	Scan Rate	0/0
Coordinates	Axis 1	NaN	Axis 2	NaN	Axis 3	NaN	Axis 4	NaN	Axis 5	NaN	Axis 6	0.000000
TX Power	0.000000	RX Power	0.000000

630.003	0.0158985
630.081	0.0159082
630.159	0.0158240
630.237	0.0159301
630.315	0.0158977
630.393	0.0159056
630.471	0.0160093
630.549	0.0159218
630.628	0.0158101
630.706	0.0160452
630.784	0.0159554
630.862	0.0158947
630.940	0.0160484
631.018	0.0159502
631.096	0.0158669
631.174	0.0160301
631.253	0.0158802
631.331	0.0158814
631.409	0.0159654
631.487	0.0159193
631.565	0.0160531
631.643	0.0157677
631.721	0.0159277
631.799	0.0159343
631.878	0.0159370
631.956	0.0158467
632.034	0.0159818
632.112	0.0159489
632.190	0.0159326
632.268	0.0157906
632.346	0.0159719
632.424	0.0159035
632.503	0.0159304
632.581	0.0159193
632.659	0.0159317
632.737	0.0159944
632.815	0.0159546
632.893	0.0159723
632.971	0.0159869
633.049	0.0158891
633.128	0.0160392
633.206	0.0159469
633.284	0.0159521
633.362	0.0159037
633.440	0.0158556
633.518	0.0159900
633.596	0.0159129
633.674	0.0159389
633.753	0.0160011
633.831	0.0159563
633.909	0.0159688
633.987	0.0159165
634.065	0.0158860
634.143	0.0157979
634.221	0.0159457
634.299	0.0159220
634.378	0.0158432
634.456	0.0160685
634.534	0.0159106
634.612	0.0158192
634.690	0.0160383
634.768	0.0160418
634.846	0.0159963
634.924	0.0160407
635.003	0.0159260
635.081	0.0157948
635.159	0.0159275
635.237	0.0158808
635.315	0.0159388
635.393	0.0157758
635.471	0.0158515
635.549	0.0159204
635.628	0.0157947
635.706	0.0158762
635.784	0.0157829
635.862	0.0159184
635.940	0.0159140
636.018	0.0159008
636.096	0.0158859
636.174	0.0159611
636.253	0.0158607
636.331	0.0158361
636.409	0.0158354
636.487	0.0158995
636.565	0.0158541
636.643	0.0157832
636.721	0.0158561
636.799	0.0158012
636.878	0.0158403
636.956	0.0158420
637.034	0.0158843
637.112	0.0160396
637.190	0.0158435
637.268	0.0158955
637.346	0.0159433
637.424	0.0160247
637.503	0.0159792
637.581	0.0158604
637.659	0.0160339
637.737	0.0159072
637.815	0.0158440
637.893	0.0158938
637.971	0.0159736
638.049	0.0160329
638.128	0.0159606
638.206	0.0159943
638.284	0.0159651
638.362	0.0158925
638.440	0.0157912
638.518	0.0157299
638.596	0.0159311
638.674	0.0160779
638.753	0.0159740
638.831	0.0159948
638.909	0.0159697
638.987	0.0160567
639.065	0.0158771
639.143	0.0160315
639.221	0.0161331
639.299	0.0161205
639.378	0.0159411
639.456	0.0159737
639.534	0.0159232
639.612	0.0159074
639.690	0.0159573
639.768	0.0159612
639.846	0.0159376
639.924	0.0160392
640.003	0.0158694
640.081	0.0159066
640.159	0.0159221
640.237	0.0159106
640.315	0.0159406
640.393	0.0159350
640.471	0.0158486
640.549	0.0158572
640.628	0.0158630
640.706	0.0159047
640.784	0.0159235
640.862	0.0160277
640.940	0.0159514
641.018	0.0158783
641.096	0.0157571
641.174	0.0160172
641.253	0.0157526
641.331	0.0158887
641.409	0.0158218
641.487	0.0157579
641.565	0.0159628
641.643	0.0159589
641.721	0.0158380
641.799	0.0160057
641.878	0.0159364
641.956	0.0159112
642.034	0.0160006
642.112	0.0160540
642.190	0.0160716
642.268	0.0160410
642.346	0.0159428
642.424	0.0160709
642.503	0.0161390
642.581	0.0159857
642.659	0.0161066
642.737	0.0160741
642.815	0.0159464
642.893	0.0159759
642.971	0.0160279
643.049	0.0160801
643.128	0.0159970
643.206	0.0160734
643.284	0.0160641
643.362	0.0159319
643.440	0.0158979
643.518	0.0161528
643.596	0.0160570
643.674	0.0159624
643.753	0.0161311
643.831	0.0160120
643.909	0.0159418
643.987	0.0160406
644.065	0.0159869
644.143	0.0160033
644.221	0.0160496
644.299	0.0159888
644.378	0.0159463
644.456	0.0160598
644.534	0.0159401
644.612	0.0159331
644.690	0.0159077
644.768	0.0159879
644.846	0.0159525
644.924	0.0159121
645.003	0.0160275
645.081	0.0159616
645.159	0.0158478
645.237	0.0158984
645.315	0.0159071
645.393	0.0158212
645.471	0.0157498
645.549	0.0158720
645.628	0.0159763
645.706	0.0159926
645.784	0.0158707
645.862	0.0159695
645.940	0.0158443
646.018	0.0158749
646.096	0.0158968
646.174	0.0158561
646.253	0.0158792
646.331	0.0159206
646.409	0.0158855
646.487	0.0157948
646.565	0.0159016
646.643	0.0159228
646.721	0.0158378
646.799	0.0159292
646.878	0.0159633
646.956	0.0158354
647.034	0.0158418
647.112	0.0158920
647.190	0.0159042
647.268	0.0157787
647.346	0.0159651
647.424	0.0158981
647.503	0.0158082
647.581	0.0159380
647.659	0.0159619
647.737	0.0159373
647.815	0.0158228
647.893	0.0159617
647.971	0.0158832
648.049	0.0158401
648.128	0.0160011
648.206	0.0158850
648.284	0.0158613
648.362	0.0159436
648.440	0.0159478
648.518	0.0158595
648.596	0.0157375
648.674	0.0159209
648.753	0.0157840
648.831	0.0159037
648.909	0.0158929
648.987	0.0158421
649.065	0.0159081
649.143	0.0157637
649.221	0.0159621
649.299	0.0159546
649.378	0.0158659
649.456	0.0159320
649.534	0.0159096
649.612	0.0159048
649.690	0.0157888
649.768	0.0159213
649.846	0.0160424
649.924	0.0157830
650.003	0.0158067
650.081	0.0158232
650.159	0.0160201
650.237	0.0159448
650.315	0.0158482
650.393	0.0159566
650.471	0.0159008
650.549	0.0158830
650.628	0.0157133
650.706	0.0158288
650.784	0.0159245
650.862	0.0158976
650.940	0.0157458
651.018	0.0158164
651.096	0.0159041
651.174	0.0158601
651.253	0.0159500
651.331	0.0159109
651.409	0.0158844
651.487	0.0158519
651.565	0.0159697
651.643	0.0160793
651.721	0.0159644
651.799	0.0159306
651.878	0.0158938
651.956	0.0157990
652.034	0.0158308
652.112	0.0159280
652.190	0.0159658
652.268	0.0160229
652.346	0.0160332
652.424	0.0159702
652.503	0.0159768
652.581	0.0158875
652.659	0.0160090
652.737	0.0160513
652.815	0.0159538
652.893	0.0159128
652.971	0.0160863
653.049	0.0158631
653.128	0.0160152
653.206	0.0159670
653.284	0.0159354
653.362	0.0158868
653.440	0.0158606
653.518	0.0159896
653.596	0.0158515
653.674	0.0159603
653.753	0.0160618
653.831	0.0159194
653.909	0.0159969
653.987	0.0159229
654.065	0.0159808
654.143	0.0159724
654.221	0.0159789
654.299	0.0158984
654.378	0.0158981
654.456	0.0159989
654.534	0.0159642
654.612	0.0159708
654.690	0.0159120
654.768	0.0158535
654.846	0.0159136
654.924	0.0159003
655.003	0.0159341
655.081	0.0158464
655.159	0.0159032
655.237	0.0159933
655.315	0.0159985
655.393	0.0159309
655.471	0.0160101
655.549	0.0159483
655.628	0.0158791
655.706	0.0159280
655.784	0.0159848
655.862	0.0159079
655.940	0.0160370
656.018	0.0159974
656.096	0.0158364
656.174	0.0159279
656.253	0.0158675
656.331	0.0158754
656.409	0.0159360
656.487	0.0159984
656.565	0.0159814
656.643	0.0158251
656.721	0.0159689
656.799	0.0158331
656.878	0.0159982
656.956	0.0159759
657.034	0.0158015
657.112	0.0157654
657.190	0.0158347
657.268	0.0159896
657.346	0.0160040
657.424	0.0158891
657.503	0.0159200
657.581	0.0160876
657.659	0.0157769
657.737	0.0157510
657.815	0.0159504
657.893	0.0159117
657.971	0.0158746
658.049	0.0157261
658.128	0.0158134
658.206	0.0159250
658.284	0.0159282
658.362	0.0158452
658.440	0.0159654
658.518	0.0159274
658.596	0.0159404
658.674	0.0158044
658.753	0.0158921
658.831	0.0159169
658.909	0.0158841
658.987	0.0159211
659.065	0.0159686
659.143	0.0158691
659.221	0.0156977
659.299	0.0158490
659.378	0.0158056
659.456	0.0158675
659.534	0.0158862
659.612	0.0157962
659.690	0.0157381
659.768	0.0159370
659.846	0.0158294
659.924	0.0159521
660.003	0.0157964
660.081	0.0159294
660.159	0.0158237
660.237	0.0159407
660.315	0.0158928
660.393	0.0157660
660.471	0.0158585
660.549	0.0158610
660.628	0.0160899
660.706	0.0159775
660.784	0.0159055
660.862	0.0158981
660.940	0.0159760
661.018	0.0158488
661.096	0.0158352
661.174	0.0160069
661.253	0.0159475
661.331	0.0158958
661.409	0.0157768
661.487	0.0158204
661.565	0.0158566
661.643	0.0158636
661.721	0.0158934
661.799	0.0157807
661.878	0.0158921
661.956	0.0158617
662.034	0.0158665
662.112	0.0159286
662.190	0.0158622
662.268	0.0160104
662.346	0.0159901
662.424	0.0158955
662.503	0.0159494
662.581	0.0159879
662.659	0.0160511
662.737	0.0158841
662.815	0.0159222
662.893	0.0159492
662.971	0.0160184
663.049	0.0159287
663.128	0.0160040
663.206	0.0160789
663.284	0.0160986
663.362	0.0159074
663.440	0.0159418
663.518	0.0159846
663.596	0.0159237
663.674	0.0159186
663.753	0.0158553
663.831	0.0158797
663.909	0.0158057
663.987	0.0158656
664.065	0.0159486
664.143	0.0157915
664.221	0.0157938
664.299	0.0158535
664.378	0.0158538
664.456	0.0157851
664.534	0.0158817
664.612	0.0158919
664.690	0.0158138
664.768	0.0158749
664.846	0.0158734
664.924	0.0158522
665.003	0.0157977
665.081	0.0158727
665.159	0.0158313
665.237	0.0159382
665.315	0.0158968
665.393	0.0160203
665.471	0.0158632
665.549	0.0159023
665.628	0.0158817
665.706	0.0158909
665.784	0.0159460
665.862	0.0158557
665.940	0.0159042
666.018	0.0159743
666.096	0.0158675
666.174	0.0158786
666.253	0.0159526
666.331	0.0159764
666.409	0.0160416
666.487	0.0158324
666.565	0.0158368
666.643	0.0158023
666.721	0.0159296
666.799	0.0158713
666.878	0.0159019
666.956	0.0158920
667.034	0.0158801
667.112	0.0158405
667.190	0.0159431
667.268	0.0159873
667.346	0.0157984
667.424	0.0157072
667.503	0.0158055
667.581	0.0158298
667.659	0.0158158
667.737	0.0157735
667.815	0.0159520
667.893	0.0158434
667.971	0.0158225
668.049	0.0158650
668.128	0.0158150
668.206	0.0159336
668.284	0.0160028
668.362	0.0159341
668.440	0.0160230
668.518	0.0158454
668.596	0.0159912
668.674	0.0159277
668.753	0.0157841
668.831	0.0159245
668.909	0.0160281
668.987	0.0157710
669.065	0.0157292
669.143	0.0158183
669.221	0.0158168
669.299	0.0157788
669.378	0.0159066
669.456	0.0158648
669.534	0.0159233
669.612	0.0158007
669.690	0.0159341
669.768	0.0159219
669.846	0.0158134
669.924	0.0158499
670.003	0.0160095
670.081	0.0159893
670.159	0.0159717
670.237	0.0160364
670.315	0.0158539
670.393	0.0160864
670.471	0.0159370
670.549	0.0159174
670.628	0.0160540
670.706	0.0159223
670.784	0.0158602
670.862	0.0159962
670.940	0.0158348
671.018	0.0159748
671.096	0.0158550
671.174	0.0159378
671.253	0.0157841
671.331	0.0158552
671.409	0.0160435
671.487	0.0158675
671.565	0.0159384
671.643	0.0158937
671.721	0.0160194
671.799	0.0159441
671.878	0.0159695
671.956	0.0159824
672.034	0.0160587
672.112	0.0160220
672.190	0.0159981
672.268	0.0160548
672.346	0.0161404
672.424	0.0160548
672.503	0.0159892
672.581	0.0160663
672.659	0.0159585
672.737	0.0158801
672.815	0.0159248
672.893	0.0160118
672.971	0.0160089
673.049	0.0160201
673.128	0.0158146
673.206	0.0158495
673.284	0.0157986
673.362	0.0159670
673.440	0.0160190
673.518	0.0160033
673.596	0.0160034
673.674	0.0160172
673.753	0.0159863
673.831	0.0159776
673.909	0.0158518
673.987	0.0159921
674.065	0.0161374
674.143	0.0160583
674.221	0.0160507
674.299	0.0159774
674.378	0.0158486
674.456	0.0160014
674.534	0.0158836
674.612	0.0158780
674.690	0.0159196
674.768	0.0158794
674.846	0.0159431
674.924	0.0158316
675.003	0.0159982
675.081	0.0158890
675.159	0.0159169
675.237	0.0159435
675.315	0.0160456
675.393	0.0160051
675.471	0.0159516
675.549	0.0160352
675.628	0.0160442
675.706	0.0160725
675.784	0.0160746
675.862	0.0159879
675.940	0.0159792
676.018	0.0159498
676.096	0.0160329
676.174	0.0160676
676.253	0.0160652
676.331	0.0160326
676.409	0.0159499
676.487	0.0158176
676.565	0.0158233
676.643	0.0160640
676.721	0.0159911
676.799	0.0159048
676.878	0.0159006
676.956	0.0159127
677.034	0.0158842
677.112	0.0159101
677.190	0.0159813
677.268	0.0160834
677.346	0.0161028
677.424	0.0160822
677.503	0.0160244
677.581	0.0162131
677.659	0.0160394
677.737	0.0161105
677.815	0.0160098
677.893	0.0160338
677.971	0.0161111
678.049	0.0160273
678.128	0.0159663
678.206	0.0159927
678.284	0.0161734
678.362	0.0159471
678.440	0.0160917
678.518	0.0159900
678.596	0.0159274
678.674	0.0159894
678.753	0.0158790
678.831	0.0160997
678.909	0.0160551
678.987	0.0160178
679.065	0.0160268
679.143	0.0161090
679.221	0.0160819
679.299	0.0159669
679.378	0.0161919
679.456	0.0161354
679.534	0.0161637
679.612	0.0160454
679.690	0.0160755
679.768	0.0161047
679.846	0.0159017
679.924	0.0161007
680.003	0.0158894
680.081	0.0159335
680.159	0.0159811
680.237	0.0159946
680.315	0.0157842
680.393	0.0158246
680.471	0.0160923
680.549	0.0159061
680.628	0.0159221
680.706	0.0160084
680.784	0.0160767
680.862	0.0158852
680.940	0.0160933
681.018	0.0160140
681.096	0.0159722
681.174	0.0160274
681.253	0.0160800
681.331	0.0159689
681.409	0.0159881
681.487	0.0160178
681.565	0.0159383
681.643	0.0159317
681.721	0.0160623
681.799	0.0159573
681.878	0.0158323
681.956	0.0159726
682.034	0.0159140
682.112	0.0160350
682.190	0.0159291
682.268	0.0158825
682.346	0.0158781
682.424	0.0159624
682.503	0.0160416
682.581	0.0161031
682.659	0.0159989
682.737	0.0160226
682.815	0.0159641
682.893	0.0160764
682.971	0.0160619
683.049	0.0159470
683.128	0.0158771
683.206	0.0158224
683.284	0.0159415
683.362	0.0160152
683.440	0.0157543
683.518	0.0158464
683.596	0.0158620
683.674	0.0158232
683.753	0.0157693
683.831	0.0158556
683.909	0.0157813
683.987	0.0159017
684.065	0.0159116
684.143	0.0159756
684.221	0.0159379
684.299	0.0160989
684.378	0.0159383
684.456	0.0159164
684.534	0.0160321
684.612	0.0159917
684.690	0.0158002
684.768	0.0160712
684.846	0.0158571
684.924	0.0158773
685.003	0.0159010
685.081	0.0158836
685.159	0.0159444
685.237	0.0158791
685.315	0.0157225
685.393	0.0158495
685.471	0.0159124
685.549	0.0159470
685.628	0.0158393
685.706	0.0158980
685.784	0.0158358
685.862	0.0159209
685.940	0.0160691
686.018	0.0158781
686.096	0.0159789
686.174	0.0159874
686.253	0.0159123
686.331	0.0159084
686.409	0.0160398
686.487	0.0159079
686.565	0.0158453
686.643	0.0160255
686.721	0.0159486
686.799	0.0159203
686.878	0.0158857
686.956	0.0158001
687.034	0.0158384
687.112	0.0159982
687.190	0.0159478
687.268	0.0158380
687.346	0.0159019
687.424	0.0158701
687.503	0.0157354
687.581	0.0157658
687.659	0.0159087
687.737	0.0158712
687.815	0.0159534
687.893	0.0159425
687.971	0.0159695
688.049	0.0158961
688.128	0.0160220
688.206	0.0160309
688.284	0.0158866
688.362	0.0158753
688.440	0.0158993
688.518	0.0158479
688.596	0.0159511
688.674	0.0158462
688.753	0.0157248
688.831	0.0157594
688.909	0.0159303
688.987	0.0157737
689.065	0.0157272
689.143	0.0156342
689.221	0.0158221
689.299	0.0159325
689.378	0.0157907
689.456	0.0158689
689.534	0.0158465
689.612	0.0157884
689.690	0.0159389
689.768	0.0159297
689.846	0.0159929
689.924	0.0158736
690.003	0.0159785
690.081	0.0158978
690.159	0.0158642
690.237	0.0158673
690.315	0.0159698
690.393	0.0158707
690.471	0.0158514
690.549	0.0158919
690.628	0.0158761
690.706	0.0159080
690.784	0.0158528
690.862	0.0158319
690.940	0.0158115
691.018	0.0158124
691.096	0.0157776
691.174	0.0157172
691.253	0.0159013
691.331	0.0158614
691.409	0.0159151
691.487	0.0160124
691.565	0.0159197
691.643	0.0159151
691.721	0.0160335
691.799	0.0159244
691.878	0.0158786
691.956	0.0159168
692.034	0.0159765
692.112	0.0159589
692.190	0.0158998
692.268	0.0158624
692.346	0.0158353
692.424	0.0160026
692.503	0.0159049
692.581	0.0158456
692.659	0.0158762
692.737	0.0158528
692.815	0.0159532
692.893	0.0159648
692.971	0.0159141
693.049	0.0158955
693.128	0.0159240
693.206	0.0159927
693.284	0.0160605
693.362	0.0160188
693.440	0.0159123
693.518	0.0159360
693.596	0.0160367
693.674	0.0161621
693.753	0.0159087
693.831	0.0160281
693.909	0.0158856
693.987	0.0158786
694.065	0.0159711
694.143	0.0158866
694.221	0.0159956
694.299	0.0159798
694.378	0.0159744
694.456	0.0158725
694.534	0.0159125
694.612	0.0158573
694.690	0.0158562
694.768	0.0158097
694.846	0.0158672
694.924	0.0158781
695.003	0.0159014
695.081	0.0161217
695.159	0.0161420
695.237	0.0159082
695.315	0.0160103
695.393	0.0160262
695.471	0.0159807
695.549	0.0160616
695.628	0.0158952
695.706	0.0159570
695.784	0.0159599
695.862	0.0158750
695.940	0.0159065
696.018	0.0158680
696.096	0.0158989
696.174	0.0160168
696.253	0.0158254
696.331	0.0158392
696.409	0.0159377
696.487	0.0160818
696.565	0.0159669
696.643	0.0159686
696.721	0.0159184
696.799	0.0159702
696.878	0.0161624
696.956	0.0159045
697.034	0.0161059
697.112	0.0160199
697.190	0.0160192
697.268	0.0160274
697.346	0.0161322
697.424	0.0159167
697.503	0.0161005
697.581	0.0160542
697.659	0.0158915
697.737	0.0158602
697.815	0.0160746
697.893	0.0160353
697.971	0.0159219
698.049	0.0159878
698.128	0.0160032
698.206	0.0159757
698.284	0.0160387
698.362	0.0161476
698.440	0.0160227
698.518	0.0160404
698.596	0.0160374
698.674	0.0161286
698.753	0.0162115
698.831	0.0161802
698.909	0.0159860
698.987	0.0161565
699.065	0.0161169
699.143	0.0160323
699.221	0.0161417
699.299	0.0160480
699.378	0.0158973
699.456	0.0159096
699.534	0.0159585
699.612	0.0158747
699.690	0.0158432
699.768	0.0158169
699.846	0.0158111
699.924	0.0159339
700.003	0.0159006
700.081	0.0157992
700.159	0.0157361
700.237	0.0156937
700.315	0.0158709
700.393	0.0158327
700.471	0.0159309
700.549	0.0159502
700.628	0.0159626
700.706	0.0160049
700.784	0.0159479
700.862	0.0159922
700.940	0.0159397
701.018	0.0159871
701.096	0.0161657
701.174	0.0159383
701.253	0.0160809
701.331	0.0160632
701.409	0.0160914
701.487	0.0160318
701.565	0.0159300
701.643	0.0160034
701.721	0.0159630
701.799	0.0160176
701.878	0.0161480
701.956	0.0159315
702.034	0.0159977
702.112	0.0158965
702.190	0.0158927
702.268	0.0159164
702.346	0.0160349
702.424	0.0158540
702.503	0.0157238
702.581	0.0157734
702.659	0.0157864
702.737	0.0157596
702.815	0.0157584
702.893	0.0156490
702.971	0.0156487
703.049	0.0157175
703.128	0.0156733
703.206	0.0157295
703.284	0.0157465
703.362	0.0156333
703.440	0.0157925
703.518	0.0159329
703.596	0.0158248
703.674	0.0158234
703.753	0.0158873
703.831	0.0160340
703.909	0.0159114
703.987	0.0158316
704.065	0.0159467
704.143	0.0160622
704.221	0.0160442
704.299	0.0160256
704.378	0.0161090
704.456	0.0160793
704.534	0.0159976
704.612	0.0160242
704.690	0.0159927
704.768	0.0159431
704.846	0.0158960
704.924	0.0159911
705.003	0.0158987
705.081	0.0157977
705.159	0.0157687
705.237	0.0158265
705.315	0.0158438
705.393	0.0157471
705.471	0.0156827
705.549	0.0157011
705.628	0.0157492
705.706	0.0156750
705.784	0.0157703
705.862	0.0156752
705.940	0.0157188
706.018	0.0156972
706.096	0.0156850
706.174	0.0158963
706.253	0.0157755
706.331	0.0159316
706.409	0.0159454
706.487	0.0159020
706.565	0.0157620
706.643	0.0160702
706.721	0.0160485
706.799	0.0160777
706.878	0.0160023
706.956	0.0160226
707.034	0.0159858
707.112	0.0160307
707.190	0.0160034
707.268	0.0158474
707.346	0.0158336
707.424	0.0160178
707.503	0.0159214
707.581	0.0158598
707.659	0.0158252
707.737	0.0156821
707.815	0.0157658
707.893	0.0157665
707.971	0.0158252
708.049	0.0157341
708.128	0.0157940
708.206	0.0157452
708.284	0.0160577
708.362	0.0158310
708.440	0.0158610
708.518	0.0157858
708.596	0.0158156
708.674	0.0159688
708.753	0.0158331
708.831	0.0159422
708.909	0.0159525
708.987	0.0159007
709.065	0.0158311
709.143	0.0159319
709.221	0.0158222
709.299	0.0158539
709.378	0.0158241
709.456	0.0158581
709.534	0.0157814
709.612	0.0158162
709.690	0.0159373
709.768	0.0158965
709.846	0.0159805
709.924	0.0159986
710.003	0.0159033
710.081	0.0159112
710.159	0.0159377
710.237	0.0159672
710.315	0.0157555
710.393	0.0157983
710.471	0.0157753
710.549	0.0158881
710.628	0.0159512
710.706	0.0158813
710.784	0.0158665
710.862	0.0160397
710.940	0.0159076
711.018	0.0157910
711.096	0.0159524
711.174	0.0159600
711.253	0.0157711
711.331	0.0160371
711.409	0.0159538
711.487	0.0159072
711.565	0.0159613
711.643	0.0159103
711.721	0.0157975
711.799	0.0159354
711.878	0.0158327
711.956	0.0157539
712.034	0.0158838
712.112	0.0157498
712.190	0.0158392
712.268	0.0158419
712.346	0.0158077
712.424	0.0156710
712.503	0.0157918
712.581	0.0157671
712.659	0.0158231
712.737	0.0157416
712.815	0.0159805
712.893	0.0158403
712.971	0.0158290
713.049	0.0159160
713.128	0.0159797
713.206	0.0158594
713.284	0.0158958
713.362	0.0158070
713.440	0.0159885
713.518	0.0160252
713.596	0.0159005
713.674	0.0160065
713.753	0.0160103
713.831	0.0159891
713.909	0.0159325
713.987	0.0159480
714.065	0.0158519
714.143	0.0160255
714.221	0.0159524
714.299	0.0159280
714.378	0.0159179
714.456	0.0160696
714.534	0.0160987
714.612	0.0159777
714.690	0.0160120
714.768	0.0160175
714.846	0.0158962
714.924	0.0158479
715.003	0.0159408
715.081	0.0158844
715.159	0.0158424
715.237	0.0157195
715.315	0.0157386
715.393	0.0156142
715.471	0.0155515
715.549	0.0155401
715.628	0.0156947
715.706	0.0156295
715.784	0.0155492
715.862	0.0154682
715.940	0.0153703
716.018	0.0153971
716.096	0.0154375
716.174	0.0155879
716.253	0.0156171
716.331	0.0154918
716.409	0.0155635
716.487	0.0157407
716.565	0.0159015
716.643	0.0158074
716.721	0.0159106
716.799	0.0160490
716.878	0.0161061
716.956	0.0161400
717.034	0.0161320
717.112	0.0162955
717.190	0.0162522
717.268	0.0163521
717.346	0.0163121
717.424	0.0162810
717.503	0.0162906
717.581	0.0160667
717.659	0.0160299
717.737	0.0159464
717.815	0.0159261
717.893	0.0159188
717.971	0.0158878
718.049	0.0159099
718.128	0.0155798
718.206	0.0155284
718.284	0.0156891
718.362	0.0157131
718.440	0.0156335
718.518	0.0155064
718.596	0.0155091
718.674	0.0153996
718.753	0.0156539
718.831	0.0156977
718.909	0.0156564
718.987	0.0156828
719.065	0.0157224
719.143	0.0156991
719.221	0.0158634
719.299	0.0159885
719.378	0.0160114
719.456	0.0161684
719.534	0.0162880
719.612	0.0164276
719.690	0.0164059
719.768	0.0163853
719.846	0.0165496
719.924	0.0164586
720.003	0.0164711
720.081	0.0164112
720.159	0.0163550
720.237	0.0162871
720.315	0.0161438
720.393	0.0159906
720.471	0.0161007
720.549	0.0159898
720.628	0.0159465
720.706	0.0157928
720.784	0.0155836
720.862	0.0155676
720.940	0.0156855
721.018	0.0155415
721.096	0.0155374
721.174	0.0154912
721.253	0.0154424
721.331	0.0154453
721.409	0.0155663
721.487	0.0156202
721.565	0.0154824
721.643	0.0155175
721.721	0.0156345
721.799	0.0156694
721.878	0.0156441
721.956	0.0156111
722.034	0.0156376
722.112	0.0155547
722.190	0.0156076
722.268	0.0155491
722.346	0.0155284
722.424	0.0155685
722.503	0.0155988
722.581	0.0156241
722.659	0.0156866
722.737	0.0157174
722.815	0.0157449
722.893	0.0159376
722.971	0.0159880
723.049	0.0159715
723.128	0.0160448
723.206	0.0161924
723.284	0.0163920
723.362	0.0166358
723.440	0.0165867
723.518	0.0165805
723.596	0.0168482
723.674	0.0167165
723.753	0.0167048
723.831	0.0168327
723.909	0.0169799
723.987	0.0166709
724.065	0.0168102
724.143	0.0167388
724.221	0.0166472
724.299	0.0166603
724.378	0.0164402
724.456	0.0163565
724.534	0.0163126
724.612	0.0161649
724.690	0.0159024
724.768	0.0159165
724.846	0.0157512
724.924	0.0155299
725.003	0.0153883
725.081	0.0154296
725.159	0.0152575
725.237	0.0150329
725.315	0.0149987
725.393	0.0149020
725.471	0.0146976
725.549	0.0147514
725.628	0.0147913
725.706	0.0145823
725.784	0.0146622
725.862	0.0146504
725.940	0.0147729
726.018	0.0147243
726.096	0.0148206
726.174	0.0149663
726.253	0.0150613
726.331	0.0150058
726.409	0.0155029
726.487	0.0155166
726.565	0.0155779
726.643	0.0158202
726.721	0.0160258
726.799	0.0161796
726.878	0.0162618
726.956	0.0164273
727.034	0.0166341
727.112	0.0168297
727.190	0.0168262
727.268	0.0169176
727.346	0.0170010
727.424	0.0173014
727.503	0.0172655
727.581	0.0171891
727.659	0.0170984
727.737	0.0170182
727.815	0.0168298
727.893	0.0167522
727.971	0.0165929
728.049	0.0164500
728.128	0.0162498
728.206	0.0159747
728.284	0.0157883
728.362	0.0156083
728.440	0.0155085
728.518	0.0152961
728.596	0.0150542
728.674	0.0149521
728.753	0.0150777
728.831	0.0148698
728.909	0.0149182
728.987	0.0149737
729.065	0.0150050
729.143	0.0150830
729.221	0.0152392
729.299	0.0154156
729.378	0.0154900
729.456	0.0155004
729.534	0.0155246
729.612	0.0156864
729.690	0.0157750
729.768	0.0157763
729.846	0.0157925
729.924	0.0157305
730.003	0.0157557
730.081	0.0157001
730.159	0.0157063
730.237	0.0156215
730.315	0.0155323
730.393	0.0154115
730.471	0.0154602
730.549	0.0155428
730.628	0.0154540
730.706	0.0153409
730.784	0.0156548
730.862	0.0156039
730.940	0.0156200
731.018	0.0158615
731.096	0.0158649
731.174	0.0160500
731.253	0.0160897
731.331	0.0163101
731.409	0.0164251
731.487	0.0163686
731.565	0.0164527
731.643	0.0164989
731.721	0.0163508
731.799	0.0164061
731.878	0.0165066
731.956	0.0163933
732.034	0.0163555
732.112	0.0162715
732.190	0.0162144
732.268	0.0159615
732.346	0.0160594
732.424	0.0159121
732.503	0.0157938
732.581	0.0158450
732.659	0.0158389
732.737	0.0156805
732.815	0.0156493
732.893	0.0156566
732.971	0.0156287
733.049	0.0154773
733.128	0.0155107
733.206	0.0154999
733.284	0.0155469
733.362	0.0155698
733.440	0.0156327
733.518	0.0155592
733.596	0.0154977
733.674	0.0155820
733.753	0.0156559
733.831	0.0158744
733.909	0.0157411
733.987	0.0156951
734.065	0.0157148
734.143	0.0156116
734.221	0.0158020
734.299	0.0157796
734.378	0.0158437
734.456	0.0158035
734.534	0.0157597
734.612	0.0158452
734.690	0.0159055
734.768	0.0157885
734.846	0.0158737
734.924	0.0159298
735.003	0.0160744
735.081	0.0160447
735.159	0.0161489
735.237	0.0162276
735.315	0.0163204
735.393	0.0162346
735.471	0.0163286
735.549	0.0162867
735.628	0.0164017
735.706	0.0165594
735.784	0.0163868
735.862	0.0164772
735.940	0.0163950
736.018	0.0163904
736.096	0.0162061
736.174	0.0162132
736.253	0.0162505
736.331	0.0162180
736.409	0.0162038
736.487	0.0160541
736.565	0.0160609
736.643	0.0160880
736.721	0.0159868
736.799	0.0157847
736.878	0.0155835
736.956	0.0156380
737.034	0.0156440
737.112	0.0158148
737.190	0.0155609
737.268	0.0154348
737.346	0.0155613
737.424	0.0156431
737.503	0.0157036
737.581	0.0154937
737.659	0.0158666
737.737	0.0158151
737.815	0.0156306
737.893	0.0156532
737.971	0.0156981
738.049	0.0157012
738.128	0.0157294
738.206	0.0155970
738.284	0.0157669
738.362	0.0156245
738.440	0.0156759
738.518	0.0156359
738.596	0.0156422
738.674	0.0156336
738.753	0.0157335
738.831	0.0158443
738.909	0.0158378
738.987	0.0158308
739.065	0.0158119
739.143	0.0157973
739.221	0.0159429
739.299	0.0160094
739.378	0.0160184
739.456	0.0159513
739.534	0.0159895
739.612	0.0160134
739.690	0.0160396
739.768	0.0159147
739.846	0.0159135
739.924	0.0159863
740.003	0.0160428
740.081	0.0158957
740.159	0.0160246
740.237	0.0160545
740.315	0.0160275
740.393	0.0161837
740.471	0.0160613
740.549	0.0161514
740.628	0.0162004
740.706	0.0162496
740.784	0.0162457
740.862	0.0162967
740.940	0.0163775
741.018	0.0165573
741.096	0.0164906
741.174	0.0165475
741.253	0.0166454
741.331	0.0166206
741.409	0.0165139
741.487	0.0163010
741.565	0.0164217
741.643	0.0162791
741.721	0.0163708
741.799	0.0162001
741.878	0.0160705
741.956	0.0159586
742.034	0.0158378
742.112	0.0158636
742.190	0.0155103
742.268	0.0156541
742.346	0.0154834
742.424	0.0154825
742.503	0.0155173
742.581	0.0154367
742.659	0.0153713
742.737	0.0151605
742.815	0.0151643
742.893	0.0150971
742.971	0.0151562
743.049	0.0151406
743.128	0.0150927
743.206	0.0152250
743.284	0.0150760
743.362	0.0152673
743.440	0.0153593
743.518	0.0155270
743.596	0.0155527
743.674	0.0156836
743.753	0.0159904
743.831	0.0160697
743.909	0.0160721
743.987	0.0162206
744.065	0.0162386
744.143	0.0162634
744.221	0.0162674
744.299	0.0162753
744.378	0.0162535
744.456	0.0162747
744.534	0.0162038
744.612	0.0161026
744.690	0.0162216
744.768	0.0160648
744.846	0.0159711
744.924	0.0160470
745.003	0.0159787
745.081	0.0160668
745.159	0.0159427
745.237	0.0159553
745.315	0.0161284
745.393	0.0162357
745.471	0.0163610
745.549	0.0165042
745.628	0.0167426
745.706	0.0168924
745.784	0.0168599
745.862	0.0169881
745.940	0.0171259
746.018	0.0171021
746.096	0.0170291
746.174	0.0171236
746.253	0.0169955
746.331	0.0169041
746.409	0.0167178
746.487	0.0167104
746.565	0.0164917
746.643	0.0162257
746.721	0.0160394
746.799	0.0158211
746.878	0.0157200
746.956	0.0154440
747.034	0.0152958
747.112	0.0151214
747.190	0.0150157
747.268	0.0147600
747.346	0.0146526
747.424	0.0147554
747.503	0.0147305
747.581	0.0146725
747.659	0.0147413
747.737	0.0149237
747.815	0.0148992
747.893	0.0149805
747.971	0.0153246
748.049	0.0155340
748.128	0.0154720
748.206	0.0156512
748.284	0.0158460
748.362	0.0157925
748.440	0.0159100
748.518	0.0161933
748.596	0.0161755
748.674	0.0161427
748.753	0.0162482
748.831	0.0163423
748.909	0.0164064
748.987	0.0162724
749.065	0.0164532
749.143	0.0163580
749.221	0.0163380
749.299	0.0163699
749.378	0.0163457
749.456	0.0163522
749.534	0.0163308
749.612	0.0164207
749.690	0.0161659
749.768	0.0162593
749.846	0.0161906
749.924	0.0162074
750.003	0.0163880
750.081	0.0163388
750.159	0.0161002
750.237	0.0161238
750.315	0.0163264
750.393	0.0162598
750.471	0.0162463
750.549	0.0161161
750.628	0.0162001
750.706	0.0161456
750.784	0.0161033
750.862	0.0159380
750.940	0.0160251
751.018	0.0158884
751.096	0.0158445
751.174	0.0159748
751.253	0.0159967
751.331	0.0158635
751.409	0.0159031
751.487	0.0159252
751.565	0.0159672
751.643	0.0160711
751.721	0.0158592
751.799	0.0158990
751.878	0.0159479
751.956	0.0158960
752.034	0.0158187
752.112	0.0159505
752.190	0.0158659
752.268	0.0158047
752.346	0.0157503
752.424	0.0155907
752.503	0.0156100
752.581	0.0156931
752.659	0.0155683
752.737	0.0154637
752.815	0.0154414
752.893	0.0154208
752.971	0.0153537
753.049	0.0153459
753.128	0.0152557
753.206	0.0152875
753.284	0.0154106
753.362	0.0155798
753.440	0.0156048
753.518	0.0156800
753.596	0.0155968
753.674	0.0157718
753.753	0.0157613
753.831	0.0158761
753.909	0.0159715
753.987	0.0159583
754.065	0.0157991
754.143	0.0158849
754.221	0.0159148
754.299	0.0158965
754.378	0.0158815
754.456	0.0159351
754.534	0.0157822
754.612	0.0159123
754.690	0.0159258
754.768	0.0158331
754.846	0.0160004
754.924	0.0158472
755.003	0.0159219
755.081	0.0160645
755.159	0.0159258
755.237	0.0159071
755.315	0.0159861
755.393	0.0160822
755.471	0.0159991
755.549	0.0159967
755.628	0.0159633
755.706	0.0161662
755.784	0.0160451
755.862	0.0160127
755.940	0.0160250
756.018	0.0160141
756.096	0.0159778
756.174	0.0160188
756.253	0.0160214
756.331	0.0160548
756.409	0.0159182
756.487	0.0160687
756.565	0.0160318
756.643	0.0159893
756.721	0.0161073
756.799	0.0162318
756.878	0.0160889
756.956	0.0162063
757.034	0.0162675
757.112	0.0162112
757.190	0.0161700
757.268	0.0161839
757.346	0.0161465
757.424	0.0163146
757.503	0.0160735
757.581	0.0160437
757.659	0.0158109
757.737	0.0157807
757.815	0.0157427
757.893	0.0155592
757.971	0.0155604
758.049	0.0153458
758.128	0.0152797
758.206	0.0153533
758.284	0.0151819
758.362	0.0152404
758.440	0.0152625
758.518	0.0153007
758.596	0.0154476
758.674	0.0154028
758.753	0.0154744
758.831	0.0155587
758.909	0.0156727
758.987	0.0157966
759.065	0.0159341
759.143	0.0159668
759.221	0.0160528
759.299	0.0160811
759.378	0.0161084
759.456	0.0162330
759.534	0.0163601
759.612	0.0163180
759.690	0.0165025
759.768	0.0164352
759.846	0.0161837
759.924	0.0162660
760.003	0.0163473
760.081	0.0161765
760.159	0.0161637
760.237	0.0160510
760.315	0.0161749
760.393	0.0162247
760.471	0.0161767
760.549	0.0160931
760.628	0.0161026
760.706	0.0162715
760.784	0.0162775
760.862	0.0161794
760.940	0.0162859
761.018	0.0164758
761.096	0.0165852
761.174	0.0164468
761.253	0.0164522
761.331	0.0164824
761.409	0.0164201
761.487	0.0164150
761.565	0.0163404
761.643	0.0164034
761.721	0.0163208
761.799	0.0162231
761.878	0.0161739
761.956	0.0161031
762.034	0.0160629
762.112	0.0158247
762.190	0.0157893
762.268	0.0157716
762.346	0.0157937
762.424	0.0157514
762.503	0.0156714
762.581	0.0156817
762.659	0.0156687
762.737	0.0155228
762.815	0.0158101
762.893	0.0158335
762.971	0.0159028
763.049	0.0161771
763.128	0.0161315
763.206	0.0159328
763.284	0.0160241
763.362	0.0161016
763.440	0.0162118
763.518	0.0161741
763.596	0.0162093
763.674	0.0159401
763.753	0.0157607
763.831	0.0157989
763.909	0.0158365
763.987	0.0156927
764.065	0.0157434
764.143	0.0155730
764.221	0.0155645
764.299	0.0156056
764.378	0.0155877
764.456	0.0155296
764.534	0.0157875
764.612	0.0156722
764.690	0.0156435
764.768	0.0157754
764.846	0.0158296
764.924	0.0159285
765.003	0.0160563
765.081	0.0159304
765.159	0.0161259
765.237	0.0161665
765.315	0.0161071
765.393	0.0160616
765.471	0.0160518
765.549	0.0160816
765.628	0.0159723
765.706	0.0160785
765.784	0.0159180
765.862	0.0160143
765.940	0.0158326
766.018	0.0159668
766.096	0.0160184
766.174	0.0159190
766.253	0.0160342
766.331	0.0160961
766.409	0.0163079
766.487	0.0162565
766.565	0.0164196
766.643	0.0164922
766.721	0.0165623
766.799	0.0166009
766.878	0.0166434
766.956	0.0166578
767.034	0.0166848
767.112	0.0165934
767.190	0.0167281
767.268	0.0165752
767.346	0.0164922
767.424	0.0164382
767.503	0.0163394
767.581	0.0161856
767.659	0.0160517
767.737	0.0159985
767.815	0.0159021
767.893	0.0156583
767.971	0.0154779
768.049	0.0155520
768.128	0.0153864
768.206	0.0152950
768.284	0.0152359
768.362	0.0151249
768.440	0.0152471
768.518	0.0152870
768.596	0.0154109
768.674	0.0154544
768.753	0.0155512
768.831	0.0158051
768.909	0.0157601
768.987	0.0159067
769.065	0.0161088
769.143	0.0162720
769.221	0.0162340
769.299	0.0162597
769.378	0.0161307
769.456	0.0162646
769.534	0.0162433
769.612	0.0161099
769.690	0.0160208
769.768	0.0159258
769.846	0.0159814
769.924	0.0158420
770.003	0.0158384
770.081	0.0158009
770.159	0.0156345
770.237	0.0156750
770.315	0.0157584
770.393	0.0156876
770.471	0.0157150
770.549	0.0158250
770.628	0.0157785
770.706	0.0158347
770.784	0.0159757
770.862	0.0159567
770.940	0.0161280
771.018	0.0160365
771.096	0.0161401
771.174	0.0161115
771.253	0.0160789
771.331	0.0160551
771.409	0.0161066
771.487	0.0160899
771.565	0.0160793
771.643	0.0159417
771.721	0.0159122
771.799	0.0160073
771.878	0.0160110
771.956	0.0160703
772.034	0.0161549
772.112	0.0162386
772.190	0.0162945
772.268	0.0160649
772.346	0.0163026
772.424	0.0163078
772.503	0.0163721
772.581	0.0164480
772.659	0.0163747
772.737	0.0163580
772.815	0.0163854
772.893	0.0162724
772.971	0.0163435
773.049	0.0161956
773.128	0.0163379
773.206	0.0160999
773.284	0.0160261
773.362	0.0159274
773.440	0.0158410
773.518	0.0157848
773.596	0.0157326
773.674	0.0157127
773.753	0.0156542
773.831	0.0155812
773.909	0.0155510
773.987	0.0155134
774.065	0.0155968
774.143	0.0154910
774.221	0.0152875
774.299	0.0154130
774.378	0.0154828
774.456	0.0155598
774.534	0.0155775
774.612	0.0158457
774.690	0.0156654
774.768	0.0158365
774.846	0.0158827
774.924	0.0161282
775.003	0.0161259
775.081	0.0159988
775.159	0.0161907
775.237	0.0162099
775.315	0.0161236
775.393	0.0161526
775.471	0.0161361
775.549	0.0161021
775.628	0.0160391
775.706	0.0158364
775.784	0.0158099
775.862	0.0156181
775.940	0.0156367
776.018	0.0155820
776.096	0.0154826
776.174	0.0155719
776.253	0.0155035
776.331	0.0156765
776.409	0.0156455
776.487	0.0156165
776.565	0.0156705
776.643	0.0157185
776.721	0.0158111
776.799	0.0159320
776.878	0.0160528
776.956	0.0161039
777.034	0.0160755
777.112	0.0162485
777.190	0.0162398
777.268	0.0161614
777.346	0.0163142
777.424	0.0161758
777.503	0.0161118
777.581	0.0161311
777.659	0.0161126
777.737	0.0159794
777.815	0.0159098
777.893	0.0158833
777.971	0.0160181
778.049	0.0159283
778.128	0.0159544
778.206	0.0160206
778.284	0.0159007
778.362	0.0158949
778.440	0.0160295
778.518	0.0159756
778.596	0.0157178
778.674	0.0158261
778.753	0.0157884
778.831	0.0159470
778.909	0.0158521
778.987	0.0158169
779.065	0.0156979
779.143	0.0156396
779.221	0.0155661
779.299	0.0156747
779.378	0.0156911
779.456	0.0156798
779.534	0.0157506
779.612	0.0156601
779.690	0.0157444
779.768	0.0157332
779.846	0.0155349
779.924	0.0157973
780.003	0.0157806
780.081	0.0157477
780.159	0.0159027
780.237	0.0157504
780.315	0.0158047
780.393	0.0157835
780.471	0.0157882
780.549	0.0158907
780.628	0.0158112
780.706	0.0158797
780.784	0.0158836
780.862	0.0159774
780.940	0.0160289
781.018	0.0160201
781.096	0.0160860
781.174	0.0161798
781.253	0.0159939
781.331	0.0160356
781.409	0.0159126
781.487	0.0159538
781.565	0.0159767
781.643	0.0160397
781.721	0.0159242
781.799	0.0159946
781.878	0.0159538
781.956	0.0158072
782.034	0.0158232
782.112	0.0158067
782.190	0.0156223
782.268	0.0156870
782.346	0.0156707
782.424	0.0156340
782.503	0.0155202
782.581	0.0156058
782.659	0.0155030
782.737	0.0155823
782.815	0.0155595
782.893	0.0156095
782.971	0.0156242
783.049	0.0155952
783.128	0.0156725
783.206	0.0158475
783.284	0.0158600
783.362	0.0156608
783.440	0.0160422
783.518	0.0160323
783.596	0.0157308
783.674	0.0158946
783.753	0.0159547
783.831	0.0159407
783.909	0.0160675
783.987	0.0159562
784.065	0.0160583
784.143	0.0163234
784.221	0.0162408
784.299	0.0162454
784.378	0.0162245
784.456	0.0160997
784.534	0.0160747
784.612	0.0160398
784.690	0.0160943
784.768	0.0161051
784.846	0.0161107
784.924	0.0161057
785.003	0.0160262
785.081	0.0158505
785.159	0.0159898
785.237	0.0161382
785.315	0.0159183
785.393	0.0158606
785.471	0.0158426
785.549	0.0158323
785.628	0.0159081
785.706	0.0159104
785.784	0.0159258
785.862	0.0157587
785.940	0.0156881
786.018	0.0157415
786.096	0.0156734
786.174	0.0156833
786.253	0.0156474
786.331	0.0156627
786.409	0.0155750
786.487	0.0155564
786.565	0.0154739
786.643	0.0154948
786.721	0.0155005
786.799	0.0156177
786.878	0.0156967
786.956	0.0157733
787.034	0.0155980
787.112	0.0158640
787.190	0.0158786
787.268	0.0160378
787.346	0.0160327
787.424	0.0160841
787.503	0.0162685
787.581	0.0164117
787.659	0.0163866
787.737	0.0163770
787.815	0.0163622
787.893	0.0163892
787.971	0.0164037
788.049	0.0162511
788.128	0.0163161
788.206	0.0164326
788.284	0.0161852
788.362	0.0160651
788.440	0.0159074
788.518	0.0158990
788.596	0.0158813
788.674	0.0158662
788.753	0.0158705
788.831	0.0157383
788.909	0.0158067
788.987	0.0158101
789.065	0.0157623
789.143	0.0157910
789.221	0.0159317
789.299	0.0158814
789.378	0.0157706
789.456	0.0159039
789.534	0.0157725
789.612	0.0159294
789.690	0.0160334
789.768	0.0159930
789.846	0.0159378
789.924	0.0158905
790.003	0.0159200
790.081	0.0158829
790.159	0.0159837
790.237	0.0158300
790.315	0.0159324
790.393	0.0157359
790.471	0.0158995
790.549	0.0159122
790.628	0.0158833
790.706	0.0160328
790.784	0.0158954
790.862	0.0159501
790.940	0.0159897
791.018	0.0160942
791.096	0.0159807
791.174	0.0161652
791.253	0.0161784
791.331	0.0161669
791.409	0.0160774
791.487	0.0160165
791.565	0.0160236
791.643	0.0160473
791.721	0.0159586
791.799	0.0160430
791.878	0.0159277
791.956	0.0159588
792.034	0.0159271
792.112	0.0158042
792.190	0.0157655
792.268	0.0157072
792.346	0.0155799
792.424	0.0155592
792.503	0.0155980
792.581	0.0156837
792.659	0.0156049
792.737	0.0159002
792.815	0.0157597
792.893	0.0156268
792.971	0.0156692
793.049	0.0157602
793.128	0.0158551
793.206	0.0159099
793.284	0.0157937
793.362	0.0161338
793.440	0.0160323
793.518	0.0158736
793.596	0.0159776
793.674	0.0161272
793.753	0.0161421
793.831	0.0160746
793.909	0.0161765
793.987	0.0160506
794.065	0.0159243
794.143	0.0159855
794.221	0.0160104
794.299	0.0158459
794.378	0.0159301
794.456	0.0159100
794.534	0.0157349
794.612	0.0158276
794.690	0.0158666
794.768	0.0158147
794.846	0.0157209
794.924	0.0157262
795.003	0.0157913
795.081	0.0158318
795.159	0.0159205
795.237	0.0158699
795.315	0.0159294
795.393	0.0158570
795.471	0.0159891
795.549	0.0157925
795.628	0.0160126
795.706	0.0159124
795.784	0.0158494
795.862	0.0156650
795.940	0.0158784
796.018	0.0157552
796.096	0.0157653
796.174	0.0156998
796.253	0.0158234
796.331	0.0157201
796.409	0.0155083
796.487	0.0156770
796.565	0.0156312
796.643	0.0157158
796.721	0.0157623
796.799	0.0157196
796.878	0.0157714
796.956	0.0159091
797.034	0.0157195
797.112	0.0157790
797.190	0.0159853
797.268	0.0159711
797.346	0.0159852
797.424	0.0159614
797.503	0.0160263
797.581	0.0159326
797.659	0.0160127
797.737	0.0160508
797.815	0.0158385
797.893	0.0159116
797.971	0.0159205
798.049	0.0159631
798.128	0.0159464
798.206	0.0158997
798.284	0.0158917
798.362	0.0157961
798.440	0.0156974
798.518	0.0157827
798.596	0.0159601
798.674	0.0159338
798.753	0.0159244
798.831	0.0158112
798.909	0.0158703
798.987	0.0159016
799.065	0.0157491
799.143	0.0159185
799.221	0.0157701
799.299	0.0159558
799.378	0.0158517
799.456	0.0160380
799.534	0.0158565
799.612	0.0158326
799.690	0.0157873
799.768	0.0159115
799.846	0.0157899
799.924	0.0159209
800.003	0.0158967
800.081	0.0157409
800.159	0.0158987
800.237	0.0158834
800.315	0.0158835
800.393	0.0160847
800.471	0.0159276
800.549	0.0159681
800.628	0.0159798
800.706	0.0160014
800.784	0.0159732
800.862	0.0158293
800.940	0.0158772
801.018	0.0159222
801.096	0.0158334
801.174	0.0159821
801.253	0.0158895
801.331	0.0159003
801.409	0.0159753
801.487	0.0159217
801.565	0.0157876
801.643	0.0159427
801.721	0.0158954
801.799	0.0158099
801.878	0.0158174
801.956	0.0158467
802.034	0.0158051
802.112	0.0157854
802.190	0.0157938
802.268	0.0157356
802.346	0.0158268
802.424	0.0156962
802.503	0.0156071
802.581	0.0156608
802.659	0.0155754
802.737	0.0155049
802.815	0.0155710
802.893	0.0154284
802.971	0.0156103
803.049	0.0156313
803.128	0.0157609
803.206	0.0156506
803.284	0.0156708
803.362	0.0156545
803.440	0.0158022
803.518	0.0159114
803.596	0.0158759
803.674	0.0158801
803.753	0.0157912
803.831	0.0159291
803.909	0.0159762
803.987	0.0159904
804.065	0.0159914
804.143	0.0159480
804.221	0.0158646
804.299	0.0158997
804.378	0.0158270
804.456	0.0160249
804.534	0.0159713
804.612	0.0159776
804.690	0.0159949
804.768	0.0159363
804.846	0.0159882
804.924	0.0160270
805.003	0.0159257
805.081	0.0160288
805.159	0.0159450
805.237	0.0159156
805.315	0.0159879
805.393	0.0158669
805.471	0.0158260
805.549	0.0157531
805.628	0.0158747
805.706	0.0157771
805.784	0.0156989
805.862	0.0157202
805.940	0.0156902
806.018	0.0157863
806.096	0.0158721
806.174	0.0158729
806.253	0.0157317
806.331	0.0158331
806.409	0.0158694
806.487	0.0158228
806.565	0.0159136
806.643	0.0158040
806.721	0.0158998
806.799	0.0159604
806.878	0.0160723
806.956	0.0160425
807.034	0.0158442
807.112	0.0158674
807.190	0.0158218
807.268	0.0157664
807.346	0.0158389
807.424	0.0157388
807.503	0.0157929
807.581	0.0159299
807.659	0.0159130
807.737	0.0157956
807.815	0.0157928
807.893	0.0157949
807.971	0.0157449
808.049	0.0157017
808.128	0.0157635
808.206	0.0157563
808.284	0.0158185
808.362	0.0156477
808.440	0.0156944
808.518	0.0158009
808.596	0.0156767
808.674	0.0157906
808.753	0.0156005
808.831	0.0157659
808.909	0.0156625
808.987	0.0155506
809.065	0.0157307
809.143	0.0156183
809.221	0.0156184
809.299	0.0156836
809.378	0.0158009
809.456	0.0157347
809.534	0.0156991
809.612	0.0156036
809.690	0.0156030
809.768	0.0156939
809.846	0.0156093
809.924	0.0156687
810.003	0.0157384
810.081	0.0157873
810.159	0.0156972
810.237	0.0157416
810.315	0.0157805
810.393	0.0159099
810.471	0.0158060
810.549	0.0159473
810.628	0.0158644
810.706	0.0158787
810.784	0.0159155
810.862	0.0159536
810.940	0.0159875
811.018	0.0160939
811.096	0.0160118
811.174	0.0162370
811.253	0.0160999
811.331	0.0161119
811.409	0.0161372
811.487	0.0161410
811.565	0.0162316
811.643	0.0160450
811.721	0.0162083
811.799	0.0161075
811.878	0.0160747
811.956	0.0159422
812.034	0.0160313
812.112	0.0158673
812.190	0.0157891
812.268	0.0159200
812.346	0.0157627
812.424	0.0157984
812.503	0.0158633
812.581	0.0159267
812.659	0.0157960
812.737	0.0157059
812.815	0.0157671
812.893	0.0158432
812.971	0.0158636
813.049	0.0158533
813.128	0.0157563
813.206	0.0158342
813.284	0.0160461
813.362	0.0157957
813.440	0.0158752
813.518	0.0159280
813.596	0.0160114
813.674	0.0158924
813.753	0.0159348
813.831	0.0159351
813.909	0.0158102
813.987	0.0159221
814.065	0.0159016
814.143	0.0159379
814.221	0.0158516
814.299	0.0159682
814.378	0.0159132
814.456	0.0158053
814.534	0.0157269
814.612	0.0157766
814.690	0.0160918
814.768	0.0159279
814.846	0.0159366
814.924	0.0159347
815.003	0.0157539
815.081	0.0159889
815.159	0.0160897
815.237	0.0159688
815.315	0.0158936
815.393	0.0160071
815.471	0.0160085
815.549	0.0159826
815.628	0.0158741
815.706	0.0160639
815.784	0.0159688
815.862	0.0159383
815.940	0.0158566
816.018	0.0160023
816.096	0.0159205
816.174	0.0158199
816.253	0.0158900
816.331	0.0157697
816.409	0.0158472
816.487	0.0158245
816.565	0.0159779
816.643	0.0157507
816.721	0.0160165
816.799	0.0160479
816.878	0.0159683
816.956	0.0159859
817.034	0.0159387
817.112	0.0160973
817.190	0.0160197
817.268	0.0160263
817.346	0.0162413
817.424	0.0161467
817.503	0.0161549
817.581	0.0162788
817.659	0.0163214
817.737	0.0161915
817.815	0.0161788
817.893	0.0160320
817.971	0.0160693
818.049	0.0161698
818.128	0.0159469
818.206	0.0159580
818.284	0.0160439
818.362	0.0160112
818.440	0.0159031
818.518	0.0158857
818.596	0.0158559
818.674	0.0157863
818.753	0.0157186
818.831	0.0158237
818.909	0.0158615
818.987	0.0157093
819.065	0.0158260
819.143	0.0157801
819.221	0.0159155
819.299	0.0157671
819.378	0.0158079
819.456	0.0158804
819.534	0.0159195
819.612	0.0159576
819.690	0.0160352
819.768	0.0160720
819.846	0.0159524
819.924	0.0160239
820.003	0.0160666
820.081	0.0159872
820.159	0.0160878
820.237	0.0161194
820.315	0.0161496
820.393	0.0161707
820.471	0.0161762
820.549	0.0161166
820.628	0.0161929
820.706	0.0161054
820.784	0.0160625
820.862	0.0160486
820.940	0.0160410
821.018	0.0161942
821.096	0.0161372
821.174	0.0159115
821.253	0.0159805
821.331	0.0160570
821.409	0.0159805
821.487	0.0158443
821.565	0.0159582
821.643	0.0159598
821.721	0.0158830
821.799	0.0157981
821.878	0.0158290
821.956	0.0155077
822.034	0.0156565
822.112	0.0156989
822.190	0.0156397
822.268	0.0156321
822.346	0.0155901
822.424	0.0155875
822.503	0.0155569
822.581	0.0155997
822.659	0.0155918
822.737	0.0157230
822.815	0.0158308
822.893	0.0157542
822.971	0.0156332
823.049	0.0159331
823.128	0.0159666
823.206	0.0159595
823.284	0.0159181
823.362	0.0161683
823.440	0.0160750
823.518	0.0162170
823.596	0.0163034
823.674	0.0162755
823.753	0.0162428
823.831	0.0162881
823.909	0.0164470
823.987	0.0163817
824.065	0.0164714
824.143	0.0164016
824.221	0.0165022
824.299	0.0163305
824.378	0.0163968
824.456	0.0163477
824.534	0.0163822
824.612	0.0163615
824.690	0.0161926
824.768	0.0162061
824.846	0.0163152
824.924	0.0161739
825.003	0.0162543
825.081	0.0162700
825.159	0.0161076
825.237	0.0159185
825.315	0.0159219
825.393	0.0158910
825.471	0.0158291
825.549	0.0157652
825.628	0.0155785
825.706	0.0156950
825.784	0.0157790
825.862	0.0156864
825.940	0.0156883
826.018	0.0155918
826.096	0.0157122
826.174	0.0156898
826.253	0.0157430
826.331	0.0157185
826.409	0.0157063
826.487	0.0157967
826.565	0.0156902
826.643	0.0158305
826.721	0.0159932
826.799	0.0157004
826.878	0.0158715
826.956	0.0160004
827.034	0.0159185
827.112	0.0159535
827.190	0.0160616
827.268	0.0158498
827.346	0.0161278
827.424	0.0161633
827.503	0.0158521
827.581	0.0159937
827.659	0.0160313
827.737	0.0159180
827.815	0.0160043
827.893	0.0159541
827.971	0.0160314
828.049	0.0162162
828.128	0.0161296
828.206	0.0160493
828.284	0.0160087
828.362	0.0161021
828.440	0.0161231
828.518	0.0160928
828.596	0.0160630
828.674	0.0160229
828.753	0.0162001
828.831	0.0160873
828.909	0.0161256
828.987	0.0159730
829.065	0.0161443
829.143	0.0160048
829.221	0.0158483
829.299	0.0158659
829.378	0.0158472
829.456	0.0158894
829.534	0.0157470
829.612	0.0158315
829.690	0.0156902
829.768	0.0157388
829.846	0.0158032
829.924	0.0156447
830.003	0.0156853
830.081	0.0159261
830.159	0.0157799
830.237	0.0158285
830.315	0.0157778
830.393	0.0158390
830.471	0.0160253
830.549	0.0158734
830.628	0.0159198
830.706	0.0159602
830.784	0.0160569
830.862	0.0159225
830.940	0.0161793
831.018	0.0159679
831.096	0.0160529
831.174	0.0160348
831.253	0.0158893
831.331	0.0160250
831.409	0.0160499
831.487	0.0160014
831.565	0.0159230
831.643	0.0157452
831.721	0.0158022
831.799	0.0158170
831.878	0.0158495
831.956	0.0157990
832.034	0.0159091
832.112	0.0158141
832.190	0.0159134
832.268	0.0158679
832.346	0.0157802
832.424	0.0157696
832.503	0.0156998
832.581	0.0159182
832.659	0.0159795
832.737	0.0157289
832.815	0.0156393
832.893	0.0156952
832.971	0.0157973
833.049	0.0158220
833.128	0.0158533
833.206	0.0157632
833.284	0.0157749
833.362	0.0158240
833.440	0.0158254
833.518	0.0157004
833.596	0.0157112
833.674	0.0158253
833.753	0.0157607
833.831	0.0156866
833.909	0.0156566
833.987	0.0156972
834.065	0.0158342
834.143	0.0157050
834.221	0.0156297
834.299	0.0156918
834.378	0.0156968
834.456	0.0156979
834.534	0.0156454
834.612	0.0157253
834.690	0.0158986
834.768	0.0157256
834.846	0.0157064
834.924	0.0156422
835.003	0.0157239
835.081	0.0157770
835.159	0.0156874
835.237	0.0157363
835.315	0.0158226
835.393	0.0157802
835.471	0.0158171
835.549	0.0158067
835.628	0.0158711
835.706	0.0159057
835.784	0.0157637
835.862	0.0157678
835.940	0.0156776
836.018	0.0157895
836.096	0.0158032
836.174	0.0158561
836.253	0.0156927
836.331	0.0158074
836.409	0.0158675
836.487	0.0157996
836.565	0.0156675
836.643	0.0157607
836.721	0.0156818
836.799	0.0158017
836.878	0.0158704
836.956	0.0158035
837.034	0.0158954
837.112	0.0159201
837.190	0.0160572
837.268	0.0160932
837.346	0.0158919
837.424	0.0158773
837.503	0.0159037
837.581	0.0160308
837.659	0.0159477
837.737	0.0159187
837.815	0.0158937
837.893	0.0160521
837.971	0.0161782
838.049	0.0159492
838.128	0.0159867
838.206	0.0158656
838.284	0.0159202
838.362	0.0158739
838.440	0.0159190
838.518	0.0161618
838.596	0.0159401
838.674	0.0159744
838.753	0.0159373
838.831	0.0157967
838.909	0.0159148
838.987	0.0158396
839.065	0.0158440
839.143	0.0158650
839.221	0.0157095
839.299	0.0157619
839.378	0.0157465
839.456	0.0157021
839.534	0.0156987
839.612	0.0158638
839.690	0.0157708
839.768	0.0157499
839.846	0.0157830
839.924	0.0158841
840.003	0.0158091
840.081	0.0159880
840.159	0.0159008
840.237	0.0159571
840.315	0.0159827
840.393	0.0159534
840.471	0.0160354
840.549	0.0161134
840.628	0.0159489
840.706	0.0160366
840.784	0.0160873
840.862	0.0160852
840.940	0.0160237
841.018	0.0158857
841.096	0.0160026
841.174	0.0159438
841.253	0.0160090
841.331	0.0160059
841.409	0.0159274
841.487	0.0160516
841.565	0.0159792
841.643	0.0159485
841.721	0.0159599
841.799	0.0160115
841.878	0.0160866
841.956	0.0161806
842.034	0.0160885
842.112	0.0162334
842.190	0.0161188
842.268	0.0160928
842.346	0.0162405
842.424	0.0162545
842.503	0.0161448
842.581	0.0161407
842.659	0.0161941
842.737	0.0161391
842.815	0.0159914
842.893	0.0160535
842.971	0.0161656
843.049	0.0161372
843.128	0.0160165
843.206	0.0159333
843.284	0.0160464
843.362	0.0160455
843.440	0.0159906
843.518	0.0159151
843.596	0.0159290
843.674	0.0158491
843.753	0.0159893
843.831	0.0159603
843.909	0.0159317
843.987	0.0159765
844.065	0.0159304
844.143	0.0159749
844.221	0.0159048
844.299	0.0159023
844.378	0.0160181
844.456	0.0160020
844.534	0.0159845
844.612	0.0160066
844.690	0.0159754
844.768	0.0161389
844.846	0.0160874
844.924	0.0160449
845.003	0.0161658
845.081	0.0161156
845.159	0.0160260
845.237	0.0160275
845.315	0.0161881
845.393	0.0160004
845.471	0.0159738
845.549	0.0159659
845.628	0.0161348
845.706	0.0160647
845.784	0.0162057
845.862	0.0160674
845.940	0.0161713
846.018	0.0161301
846.096	0.0160818
846.174	0.0160741
846.253	0.0160757
846.331	0.0162518
846.409	0.0160274
846.487	0.0161356
846.565	0.0160949
846.643	0.0161664
846.721	0.0160818
846.799	0.0161125
846.878	0.0160356
846.956	0.0160713
847.034	0.0161834
847.112	0.0162388
847.190	0.0161801
847.268	0.0160691
847.346	0.0161176
847.424	0.0160422
847.503	0.0160235
847.581	0.0160883
847.659	0.0159589
847.737	0.0159441
847.815	0.0159689
847.893	0.0158998
847.971	0.0158625
848.049	0.0159147
848.128	0.0159830
848.206	0.0159853
848.284	0.0157678
848.362	0.0157975
848.440	0.0158360
848.518	0.0157821
848.596	0.0158749
848.674	0.0157594
848.753	0.0157902
848.831	0.0158655
848.909	0.0158451
848.987	0.0157925
849.065	0.0158051
849.143	0.0158020
849.221	0.0157368
849.299	0.0159067
849.378	0.0159091
849.456	0.0157907
849.534	0.0158417
849.612	0.0159458
849.690	0.0158083
849.768	0.0158961
849.846	0.0159258
849.924	0.0158321
850.003	0.0157196
850.081	0.0157054
850.159	0.0159475
850.237	0.0158305
850.315	0.0158455
850.393	0.0157736
850.471	0.0159747
850.549	0.0159984
850.628	0.0159120
850.706	0.0158714
850.784	0.0160059
850.862	0.0159133
850.940	0.0159761
851.018	0.0160084
851.096	0.0159795
851.174	0.0160909
851.253	0.0159887
851.331	0.0158222
851.409	0.0159855
851.487	0.0161337
851.565	0.0159682
851.643	0.0161053
851.721	0.0161376
851.799	0.0160273
851.878	0.0159956
851.956	0.0160574
852.034	0.0159923
852.112	0.0159763
852.190	0.0161031
852.268	0.0160565
852.346	0.0159812
852.424	0.0158336
852.503	0.0158666
852.581	0.0157773
852.659	0.0159197
852.737	0.0159367
852.815	0.0157291
852.893	0.0158612
852.971	0.0158667
853.049	0.0158824
853.128	0.0158412
853.206	0.0158231
853.284	0.0157259
853.362	0.0157415
853.440	0.0157014
853.518	0.0157086
853.596	0.0155885
853.674	0.0157640
853.753	0.0156979
853.831	0.0157575
853.909	0.0157333
853.987	0.0156612
854.065	0.0157594
854.143	0.0158376
854.221	0.0157047
854.299	0.0157150
854.378	0.0156807
854.456	0.0157773
854.534	0.0157457
854.612	0.0157275
854.690	0.0157772
854.768	0.0156522
854.846	0.0157596
854.924	0.0157300
855.003	0.0157532
855.081	0.0156938
855.159	0.0157769
855.237	0.0156077
855.315	0.0156953
855.393	0.0156783
855.471	0.0157253
855.549	0.0157274
855.628	0.0158916
855.706	0.0157513
855.784	0.0157756
855.862	0.0157703
855.940	0.0157971
856.018	0.0158226
856.096	0.0158182
856.174	0.0159223
856.253	0.0158728
856.331	0.0158068
856.409	0.0158343
856.487	0.0159249
856.565	0.0158173
856.643	0.0158518
856.721	0.0159860
856.799	0.0158338
856.878	0.0159499
856.956	0.0158833
857.034	0.0160880
857.112	0.0160060
857.190	0.0158587
857.268	0.0158344
857.346	0.0158628
857.424	0.0160374
857.503	0.0158980
857.581	0.0159534
857.659	0.0159649
857.737	0.0159556
857.815	0.0160301
857.893	0.0158205
857.971	0.0159106
858.049	0.0159560
858.128	0.0158738
858.206	0.0159017
858.284	0.0158878
858.362	0.0158904
858.440	0.0157634
858.518	0.0159049
858.596	0.0159129
858.674	0.0158337
858.753	0.0159512
858.831	0.0159184
858.909	0.0158351
858.987	0.0157827
859.065	0.0159062
859.143	0.0158202
859.221	0.0157800
859.299	0.0157680
859.378	0.0157621
859.456	0.0157904
859.534	0.0157871
859.612	0.0158188
859.690	0.0157482
859.768	0.0158906
859.846	0.0157285
859.924	0.0157113
860.003	0.0157410
860.081	0.0157762
860.159	0.0158397
860.237	0.0157363
860.315	0.0157652
860.393	0.0158368
860.471	0.0158188
860.549	0.0158995
860.628	0.0157409
860.706	0.0157252
860.784	0.0158524
860.862	0.0160230
860.940	0.0159378
861.018	0.0158727
861.096	0.0157970
861.174	0.0158404
861.253	0.0157874
861.331	0.0159062
861.409	0.0160188
861.487	0.0159001
861.565	0.0160161
861.643	0.0159151
861.721	0.0158062
861.799	0.0159565
861.878	0.0160303
861.956	0.0159732
862.034	0.0159232
862.112	0.0161854
862.190	0.0159486
862.268	0.0160438
862.346	0.0159753
862.424	0.0159117
862.503	0.0160992
862.581	0.0160790
862.659	0.0159790
862.737	0.0160979
862.815	0.0160765
862.893	0.0160114
862.971	0.0160240
863.049	0.0159271
863.128	0.0160744
863.206	0.0159795
863.284	0.0160126
863.362	0.0160119
863.440	0.0159011
863.518	0.0159896
863.596	0.0159808
863.674	0.0160490
863.753	0.0159190
863.831	0.0158430
863.909	0.0158952
863.987	0.0158900
864.065	0.0157072
864.143	0.0157478
864.221	0.0159919
864.299	0.0158752
864.378	0.0158425
864.456	0.0159119
864.534	0.0158006
864.612	0.0157999
864.690	0.0159611
864.768	0.0158291
864.846	0.0159248
864.924	0.0158508
865.003	0.0156854
865.081	0.0157831
865.159	0.0158426
865.237	0.0158775
865.315	0.0159811
865.393	0.0160172
865.471	0.0159585
865.549	0.0160264
865.628	0.0161505
865.706	0.0160637
865.784	0.0159921
865.862	0.0159835
865.940	0.0159664
866.018	0.0159952
866.096	0.0161349
866.174	0.0161484
866.253	0.0160709
866.331	0.0159808
866.409	0.0160359
866.487	0.0160284
866.565	0.0161015
866.643	0.0158962
866.721	0.0159216
866.799	0.0159309
866.878	0.0159858
866.956	0.0160807
867.034	0.0160150
867.112	0.0158767
867.190	0.0158820
867.268	0.0160693
867.346	0.0158684
867.424	0.0159789
867.503	0.0159904
867.581	0.0159507
867.659	0.0160394
867.737	0.0161562
867.815	0.0160814
867.893	0.0160329
867.971	0.0159972
868.049	0.0162029
868.128	0.0159675
868.206	0.0160745
868.284	0.0160450
868.362	0.0160775
868.440	0.0161385
868.518	0.0159624
868.596	0.0160191
868.674	0.0161406
868.753	0.0160558
868.831	0.0159445
868.909	0.0160783
868.987	0.0161053
869.065	0.0160944
869.143	0.0159657
869.221	0.0161759
869.299	0.0160299
869.378	0.0160816
869.456	0.0160236
869.534	0.0159655
869.612	0.0159935
869.690	0.0160905
869.768	0.0161063
869.846	0.0160684
869.924	0.0158430
870.003	0.0160355
870.081	0.0159351
870.159	0.0158416
870.237	0.0159010
870.315	0.0158173
870.393	0.0158501
870.471	0.0158666
870.549	0.0156586
870.628	0.0159393
870.706	0.0158862
870.784	0.0158411
870.862	0.0157532
870.940	0.0158553
871.018	0.0158838
871.096	0.0158935
871.174	0.0158122
871.253	0.0159361
871.331	0.0158776
871.409	0.0159572
871.487	0.0160533
871.565	0.0160033
871.643	0.0160416
871.721	0.0159790
871.799	0.0160818
871.878	0.0160481
871.956	0.0160563
872.034	0.0161517
872.112	0.0160816
872.190	0.0160184
872.268	0.0159409
872.346	0.0160114
872.424	0.0159268
872.503	0.0160258
872.581	0.0160216
872.659	0.0161348
872.737	0.0159476
872.815	0.0159489
872.893	0.0160712
872.971	0.0160556
873.049	0.0158601
873.128	0.0159431
873.206	0.0161009
873.284	0.0161317
873.362	0.0160311
873.440	0.0160762
873.518	0.0159584
873.596	0.0159247
873.674	0.0160118
873.753	0.0159567
873.831	0.0159573
873.909	0.0160938
873.987	0.0160958
874.065	0.0160016
874.143	0.0160274
874.221	0.0159821
874.299	0.0160217
874.378	0.0159278
874.456	0.0159168
874.534	0.0159690
874.612	0.0158803
874.690	0.0159850
874.768	0.0158517
874.846	0.0157504
874.924	0.0157391
875.003	0.0157925
875.081	0.0159236
875.159	0.0158377
875.237	0.0157637
875.315	0.0157039
875.393	0.0157410
875.471	0.0157313
875.549	0.0158537
875.628	0.0158125
875.706	0.0157685
875.784	0.0157512
875.862	0.0158404
875.940	0.0157518
876.018	0.0157522
876.096	0.0157479
876.174	0.0158236
876.253	0.0158567
876.331	0.0158528
876.409	0.0158630
876.487	0.0158573
876.565	0.0156185
876.643	0.0157455
876.721	0.0157808
876.799	0.0158305
876.878	0.0158333
876.956	0.0158338
877.034	0.0158115
877.112	0.0158528
877.190	0.0157932
877.268	0.0159190
877.346	0.0157345
877.424	0.0157505
877.503	0.0159065
877.581	0.0157384
877.659	0.0159924
877.737	0.0159625
877.815	0.0158840
877.893	0.0158714
877.971	0.0158748
878.049	0.0159189
878.128	0.0159682
878.206	0.0160094
878.284	0.0160899
878.362	0.0160091
878.440	0.0160058
878.518	0.0158488
878.596	0.0159621
878.674	0.0160065
878.753	0.0160520
878.831	0.0160389
878.909	0.0159370
878.987	0.0159437
879.065	0.0158894
879.143	0.0159002
879.221	0.0159102
879.299	0.0159955
879.378	0.0160421
879.456	0.0158591
879.534	0.0158783
879.612	0.0159419
879.690	0.0159153
879.768	0.0158247
879.846	0.0158514
879.924	0.0157898
880.003	0.0158632
880.081	0.0157973
880.159	0.0157602
880.237	0.0157806
880.315	0.0159364
880.393	0.0157587
880.471	0.0157968
880.549	0.0158153
880.628	0.0158447
880.706	0.0157732
880.784	0.0158009
880.862	0.0158853
880.940	0.0158996
881.018	0.0159159
881.096	0.0160555
881.174	0.0159005
881.253	0.0158499
881.331	0.0158557
881.409	0.0157755
881.487	0.0160094
881.565	0.0159581
881.643	0.0159196
881.721	0.0158881
881.799	0.0158661
881.878	0.0157218
881.956	0.0157908
882.034	0.0158630
882.112	0.0159602
882.190	0.0158162
882.268	0.0159525
882.346	0.0158570
882.424	0.0157633
882.503	0.0159270
882.581	0.0160356
882.659	0.0159470
882.737	0.0159927
882.815	0.0159629
882.893	0.0158445
882.971	0.0160184
883.049	0.0159591
883.128	0.0159248
883.206	0.0159644
883.284	0.0159368
883.362	0.0160049
883.440	0.0160143
883.518	0.0158273
883.596	0.0159444
883.674	0.0160268
883.753	0.0160295
883.831	0.0160397
883.909	0.0159921
883.987	0.0160030
884.065	0.0159998
884.143	0.0160865
884.221	0.0159512
884.299	0.0159605
884.378	0.0160703
884.456	0.0159051
884.534	0.0160128
884.612	0.0160204
884.690	0.0160689
884.768	0.0159567
884.846	0.0159247
884.924	0.0160143
885.003	0.0160882
885.081	0.0160095
885.159	0.0160014
885.237	0.0159574
885.315	0.0158881
885.393	0.0160919
885.471	0.0158737
885.549	0.0158954
885.628	0.0159303
885.706	0.0158496
885.784	0.0159878
885.862	0.0159037
885.940	0.0157800
886.018	0.0158250
886.096	0.0158094
886.174	0.0157236
886.253	0.0158798
886.331	0.0158249
886.409	0.0158871
886.487	0.0159055
886.565	0.0158550
886.643	0.0160223
886.721	0.0158180
886.799	0.0158504
886.878	0.0158315
886.956	0.0157983
887.034	0.0158331
887.112	0.0158966
887.190	0.0158265
887.268	0.0158615
887.346	0.0159455
887.424	0.0159480
887.503	0.0159710
887.581	0.0159308
887.659	0.0158528
887.737	0.0159670
887.815	0.0160358
887.893	0.0158467
887.971	0.0159872
888.049	0.0159672
888.128	0.0160112
888.206	0.0159622
888.284	0.0160730
888.362	0.0160895
888.440	0.0158939
888.518	0.0159895
888.596	0.0159456
888.674	0.0160053
888.753	0.0158690
888.831	0.0158013
888.909	0.0158923
888.987	0.0159491
889.065	0.0157932
889.143	0.0159102
889.221	0.0160373
889.299	0.0158434
889.378	0.0160213
889.456	0.0158839
889.534	0.0158931
889.612	0.0159191
889.690	0.0157706
889.768	0.0159544
889.846	0.0158327
889.924	0.0159083
890.003	0.0159421
890.081	0.0157857
890.159	0.0158649
890.237	0.0158981
890.315	0.0160170
890.393	0.0158766
890.471	0.0159084
890.549	0.0158908
890.628	0.0158292
890.706	0.0159885
890.784	0.0158856
890.862	0.0157987
890.940	0.0158389
891.018	0.0159466
891.096	0.0158060
891.174	0.0158865
891.253	0.0159592
891.331	0.0158170
891.409	0.0157170
891.487	0.0158021
891.565	0.0157735
891.643	0.0158013
891.721	0.0158053
891.799	0.0159393
891.878	0.0159357
891.956	0.0160493
892.034	0.0160872
892.112	0.0158205
892.190	0.0159282
892.268	0.0159568
892.346	0.0160691
892.424	0.0158489
892.503	0.0159035
892.581	0.0159756
892.659	0.0158895
892.737	0.0158701
892.815	0.0159795
892.893	0.0159713
892.971	0.0159449
893.049	0.0159423
893.128	0.0159834
893.206	0.0159166
893.284	0.0159083
893.362	0.0158068
893.440	0.0158530
893.518	0.0157533
893.596	0.0159290
893.674	0.0159011
893.753	0.0158889
893.831	0.0157649
893.909	0.0160088
893.987	0.0160135
894.065	0.0158572
894.143	0.0158979
894.221	0.0158303
894.299	0.0159214
894.378	0.0159707
894.456	0.0159680
894.534	0.0159370
894.612	0.0160578
894.690	0.0159904
894.768	0.0158128
894.846	0.0158038
894.924	0.0159259
895.003	0.0158470
895.081	0.0158070
895.159	0.0159296
895.237	0.0158747
895.315	0.0158564
895.393	0.0158917
895.471	0.0158125
895.549	0.0157288
895.628	0.0157291
895.706	0.0158082
895.784	0.0158524
895.862	0.0157030
895.940	0.0157254
896.018	0.0158080
896.096	0.0157934
896.174	0.0157733
896.253	0.0156402
896.331	0.0156911
896.409	0.0156524
896.487	0.0157525
896.565	0.0156680
896.643	0.0156563
896.721	0.0156414
896.799	0.0157418
896.878	0.0155869
896.956	0.0156099
897.034	0.0156982
897.112	0.0156831
897.190	0.0156935
897.268	0.0156837
897.346	0.0156665
897.424	0.0156213
897.503	0.0157674
897.581	0.0157281
897.659	0.0157109
897.737	0.0158772
897.815	0.0159016
897.893	0.0158036
897.971	0.0158246
898.049	0.0157237
898.128	0.0159364
898.206	0.0159603
898.284	0.0157497
898.362	0.0156855
898.440	0.0159153
898.518	0.0159443
898.596	0.0160205
898.674	0.0160130
898.753	0.0159958
898.831	0.0159264
898.909	0.0158978
898.987	0.0159692
899.065	0.0159518
899.143	0.0158042
899.221	0.0159611
899.299	0.0159699
899.378	0.0158796
899.456	0.0159327
899.534	0.0160393
899.612	0.0160065
899.690	0.0158753
899.768	0.0158083
899.846	0.0160049
899.924	0.0159792
900.003	0.0159293
900.081	0.0158006
900.159	0.0158672
900.237	0.0159689
900.315	0.0158659
900.393	0.0159595
900.471	0.0159752
900.549	0.0158387
900.628	0.0158585
900.706	0.0158579
900.784	0.0157626
900.862	0.0160649
900.940	0.0159017
901.018	0.0159042
901.096	0.0159023
901.174	0.0158522
901.253	0.0158727
901.331	0.0158869
901.409	0.0158447
901.487	0.0159242
901.565	0.0160336
901.643	0.0158859
901.721	0.0158460
901.799	0.0159767
901.878	0.0160130
901.956	0.0160423
902.034	0.0160225
902.112	0.0159467
902.190	0.0159977
902.268	0.0159888
902.346	0.0159306
902.424	0.0158684
902.503	0.0159177
902.581	0.0157730
902.659	0.0158984
902.737	0.0158115
902.815	0.0158105
902.893	0.0159098
902.971	0.0158081
903.049	0.0157210
903.128	0.0158925
903.206	0.0158006
903.284	0.0158762
903.362	0.0157290
903.440	0.0158282
903.518	0.0158978
903.596	0.0158456
903.674	0.0158893
903.753	0.0157641
903.831	0.0157972
903.909	0.0158883
903.987	0.0158179
904.065	0.0158806
904.143	0.0158267
904.221	0.0159365
904.299	0.0158817
904.378	0.0158538
904.456	0.0158965
904.534	0.0159357
904.612	0.0158919
904.690	0.0158630
904.768	0.0158368
904.846	0.0159326
904.924	0.0159165
905.003	0.0158231
905.081	0.0159844
905.159	0.0159377
905.237	0.0159580
905.315	0.0158609
905.393	0.0159372
905.471	0.0160225
905.549	0.0159798
905.628	0.0159019
905.706	0.0159053
905.784	0.0159498
905.862	0.0159765
905.940	0.0159070
906.018	0.0158932
906.096	0.0160313
906.174	0.0161037
906.253	0.0158027
906.331	0.0159766
906.409	0.0158461
906.487	0.0158092
906.565	0.0159507
906.643	0.0158344
906.721	0.0157919
906.799	0.0157949
906.878	0.0159118
906.956	0.0157429
907.034	0.0158170
907.112	0.0158202
907.190	0.0159175
907.268	0.0158455
907.346	0.0155908
907.424	0.0157999
907.503	0.0158518
907.581	0.0158833
907.659	0.0159280
907.737	0.0158271
907.815	0.0157584
907.893	0.0159558
907.971	0.0158190
908.049	0.0159901
908.128	0.0158937
908.206	0.0160022
908.284	0.0160776
908.362	0.0161165
908.440	0.0159577
908.518	0.0159184
908.596	0.0159314
908.674	0.0160158
908.753	0.0161343
908.831	0.0160410
908.909	0.0160195
908.987	0.0160365
909.065	0.0160986
909.143	0.0159979
909.221	0.0159775
909.299	0.0159998
909.378	0.0159837
909.456	0.0159613
909.534	0.0158279
909.612	0.0159234
909.690	0.0159476
909.768	0.0160124
909.846	0.0159231
909.924	0.0159956
910.003	0.0159483
910.081	0.0158811
910.159	0.0159122
910.237	0.0159909
910.315	0.0160719
910.393	0.0157733
910.471	0.0158772
910.549	0.0158785
910.628	0.0159096
910.706	0.0159234
910.784	0.0158775
910.862	0.0159640
910.940	0.0160726
911.018	0.0160976
911.096	0.0158427
911.174	0.0160510
911.253	0.0160431
911.331	0.0158216
911.409	0.0161640
911.487	0.0161684
911.565	0.0161428
911.643	0.0159485
911.721	0.0159370
911.799	0.0160391
911.878	0.0160027
911.956	0.0161066
912.034	0.0158985
912.112	0.0160690
912.190	0.0159804
912.268	0.0160224
912.346	0.0159024
912.424	0.0158713
912.503	0.0159634
912.581	0.0160091
912.659	0.0161227
912.737	0.0159807
912.815	0.0159171
912.893	0.0158507
912.971	0.0159464
913.049	0.0158820
913.128	0.0159257
913.206	0.0158205
913.284	0.0160163
913.362	0.0159212
913.440	0.0158720
913.518	0.0158801
913.596	0.0159949
913.674	0.0160406
913.753	0.0160293
913.831	0.0159040
913.909	0.0158237
913.987	0.0158910
914.065	0.0160149
914.143	0.0158589
914.221	0.0158842
914.299	0.0160010
914.378	0.0159927
914.456	0.0158743
914.534	0.0159032
914.612	0.0159938
914.690	0.0160529
914.768	0.0160647
914.846	0.0160605
914.924	0.0160255
915.003	0.0159280
915.081	0.0160419
915.159	0.0158515
915.237	0.0159527
915.315	0.0160111
915.393	0.0160082
915.471	0.0158337
915.549	0.0159044
915.628	0.0158496
915.706	0.0158833
915.784	0.0158409
915.862	0.0158266
915.940	0.0158736
916.018	0.0158952
916.096	0.0157929
916.174	0.0158043
916.253	0.0157108
916.331	0.0158401
916.409	0.0157529
916.487	0.0156799
916.565	0.0158376
916.643	0.0157724
916.721	0.0156909
916.799	0.0158092
916.878	0.0158758
916.956	0.0157173
917.034	0.0158249
917.112	0.0158469
917.190	0.0159142
917.268	0.0159260
917.346	0.0159725
917.424	0.0159190
917.503	0.0159496
917.581	0.0158664
917.659	0.0159652
917.737	0.0160406
917.815	0.0160080
917.893	0.0160477
917.971	0.0161260
918.049	0.0158858
918.128	0.0157914
918.206	0.0159824
918.284	0.0159659
918.362	0.0159158
918.440	0.0159174
918.518	0.0158591
918.596	0.0158955
918.674	0.0159344
918.753	0.0160906
918.831	0.0159478
918.909	0.0159003
918.987	0.0159673
919.065	0.0159235
919.143	0.0159226
919.221	0.0157991
919.299	0.0158974
919.378	0.0158504
919.456	0.0158214
919.534	0.0157771
919.612	0.0158100
919.690	0.0158943
919.768	0.0159373
919.846	0.0156548
919.924	0.0157802
920.003	0.0156719
920.081	0.0158662
920.159	0.0158556
920.237	0.0157879
920.315	0.0157491
920.393	0.0158019
920.471	0.0157867
920.549	0.0158641
920.628	0.0158543
920.706	0.0158514
920.784	0.0159040
920.862	0.0159699
920.940	0.0159358
921.018	0.0158966
921.096	0.0159394
921.174	0.0160082
921.253	0.0160499
921.331	0.0161362
921.409	0.0161549
921.487	0.0160296
921.565	0.0159927
921.643	0.0160561
921.721	0.0160480
921.799	0.0160385
921.878	0.0161050
921.956	0.0161859
922.034	0.0161105
922.112	0.0160528
922.190	0.0158839
922.268	0.0158639
922.346	0.0159628
922.424	0.0161195
922.503	0.0161868
922.581	0.0159416
922.659	0.0159874
922.737	0.0160161
922.815	0.0160918
922.893	0.0159928
922.971	0.0159460
923.049	0.0161813
923.128	0.0160566
923.206	0.0160418
923.284	0.0160346
923.362	0.0161371
923.440	0.0160603
923.518	0.0161224
923.596	0.0158900
923.674	0.0159466
923.753	0.0161065
923.831	0.0161031
923.909	0.0158887
923.987	0.0158604
924.065	0.0159615
924.143	0.0160399
924.221	0.0159245
924.299	0.0159411
924.378	0.0159715
924.456	0.0160262
924.534	0.0160012
924.612	0.0159448
924.690	0.0159406
924.768	0.0160438
924.846	0.0160014
924.924	0.0159536
925.003	0.0160342
925.081	0.0160627
925.159	0.0159341
925.237	0.0160652
925.315	0.0160979
925.393	0.0160141
925.471	0.0158871
925.549	0.0159309
925.628	0.0160799
925.706	0.0161071
925.784	0.0159766
925.862	0.0158953
925.940	0.0159383
926.018	0.0158898
926.096	0.0158493
926.174	0.0159300
926.253	0.0159099
926.331	0.0159079
926.409	0.0158790
926.487	0.0159974
926.565	0.0159433
926.643	0.0159946
926.721	0.0158064
926.799	0.0158736
926.878	0.0157940
926.956	0.0157777
927.034	0.0158685
927.112	0.0158939
927.190	0.0158052
927.268	0.0158764
927.346	0.0157542
927.424	0.0157643
927.503	0.0157420
927.581	0.0158051
927.659	0.0159239
927.737	0.0157845
927.815	0.0157180
927.893	0.0156538
927.971	0.0157523
928.049	0.0158350
928.128	0.0157576
928.206	0.0157474
928.284	0.0156703
928.362	0.0157620
928.440	0.0157977
928.518	0.0157340
928.596	0.0158081
928.674	0.0157693
928.753	0.0158053
928.831	0.0156856
928.909	0.0156902
928.987	0.0157485
929.065	0.0158327
929.143	0.0156156
929.221	0.0157365
929.299	0.0157761
929.378	0.0158727
929.456	0.0157917
929.534	0.0157941
929.612	0.0158097
929.690	0.0158586
929.768	0.0159197
929.846	0.0159457
929.924	0.0160117
930.003	0.0158930
930.081	0.0160126
930.159	0.0158019
930.237	0.0157607
930.315	0.0158874
930.393	0.0158534
930.471	0.0158743
930.549	0.0157634
930.628	0.0159744
930.706	0.0159060
930.784	0.0157766
930.862	0.0158475
930.940	0.0157919
931.018	0.0157712
931.096	0.0157523
931.174	0.0159423
931.253	0.0159422
931.331	0.0158597
931.409	0.0158125
931.487	0.0158435
931.565	0.0158714
931.643	0.0158985
931.721	0.0158129
931.799	0.0157712
931.878	0.0159763
931.956	0.0157438
932.034	0.0157281
932.112	0.0157253
932.190	0.0158092
932.268	0.0158265
932.346	0.0158452
932.424	0.0158539
932.503	0.0159069
932.581	0.0158117
932.659	0.0159241
932.737	0.0157588
932.815	0.0158981
932.893	0.0160268
932.971	0.0159213
933.049	0.0158231
933.128	0.0159956
933.206	0.0158714
933.284	0.0158501
933.362	0.0159605
933.440	0.0159852
933.518	0.0158794
933.596	0.0158518
933.674	0.0158385
933.753	0.0158852
933.831	0.0159708
933.909	0.0157961
933.987	0.0159873
934.065	0.0159499
934.143	0.0160506
934.221	0.0158659
934.299	0.0158597
934.378	0.0159810
934.456	0.0159356
934.534	0.0159772
934.612	0.0158018
934.690	0.0159472
934.768	0.0159249
934.846	0.0158197
934.924	0.0160220
935.003	0.0159895
935.081	0.0160226
935.159	0.0159755
935.237	0.0160357
935.315	0.0161374
935.393	0.0160838
935.471	0.0158767
935.549	0.0161559
935.628	0.0162280
935.706	0.0160224
935.784	0.0160342
935.862	0.0160882
935.940	0.0161600
936.018	0.0160577
936.096	0.0160442
936.174	0.0161693
936.253	0.0162720
936.331	0.0159600
936.409	0.0159682
936.487	0.0159954
936.565	0.0160424
936.643	0.0160500
936.721	0.0159430
936.799	0.0159872
936.878	0.0158943
936.956	0.0159523
937.034	0.0159259
937.112	0.0159631
937.190	0.0160793
937.268	0.0159003
937.346	0.0159631
937.424	0.0161059
937.503	0.0158357
937.581	0.0159577
937.659	0.0159572
937.737	0.0158150
937.815	0.0160662
937.893	0.0159743
937.971	0.0159652
938.049	0.0160376
938.128	0.0159341
938.206	0.0159050
938.284	0.0159801
938.362	0.0159413
938.440	0.0158994
938.518	0.0158752
938.596	0.0159936
938.674	0.0159518
938.753	0.0159102
938.831	0.0159058
938.909	0.0160129
938.987	0.0158579
939.065	0.0159366
939.143	0.0159946
939.221	0.0158273
939.299	0.0159542
939.378	0.0160321
939.456	0.0159855
939.534	0.0160524
939.612	0.0160184
939.690	0.0158828
939.768	0.0159075
939.846	0.0159136
939.924	0.0158623
940.003	0.0160455
940.081	0.0161971
940.159	0.0158972
940.237	0.0159241
940.315	0.0160234
940.393	0.0160294
940.471	0.0160999
940.549	0.0161017
940.628	0.0158820
940.706	0.0159733
940.784	0.0160102
940.862	0.0159264
940.940	0.0161295
941.018	0.0158823
941.096	0.0159228
941.174	0.0158646
941.253	0.0159534
941.331	0.0159197
941.409	0.0159136
941.487	0.0158395
941.565	0.0159038
941.643	0.0159920
941.721	0.0158507
941.799	0.0158578
941.878	0.0159547
941.956	0.0160188
942.034	0.0159801
942.112	0.0158112
942.190	0.0159492
942.268	0.0159645
942.346	0.0159505
942.424	0.0159678
942.503	0.0159695
942.581	0.0159557
942.659	0.0159298
942.737	0.0158987
942.815	0.0158656
942.893	0.0158787
942.971	0.0159617
943.049	0.0159730
943.128	0.0159642
943.206	0.0159828
943.284	0.0158924
943.362	0.0160025
943.440	0.0159658
943.518	0.0160827
943.596	0.0159192
943.674	0.0160386
943.753	0.0161420
943.831	0.0159688
943.909	0.0159361
943.987	0.0159299
944.065	0.0159100
944.143	0.0159023
944.221	0.0159641
944.299	0.0160073
944.378	0.0158526
944.456	0.0158121
944.534	0.0158626
944.612	0.0158794
944.690	0.0158239
944.768	0.0159222
944.846	0.0158765
944.924	0.0158659
945.003	0.0158922
945.081	0.0159050
945.159	0.0158678
945.237	0.0159486
945.315	0.0159308
945.393	0.0158261
945.471	0.0158385
945.549	0.0160132
945.628	0.0160414
945.706	0.0158466
945.784	0.0158807
945.862	0.0158961
945.940	0.0159898
946.018	0.0159846
946.096	0.0158553
946.174	0.0160175
946.253	0.0160735
946.331	0.0159944
946.409	0.0160848
946.487	0.0161002
946.565	0.0160701
946.643	0.0160609
946.721	0.0161989
946.799	0.0161385
946.878	0.0160896
946.956	0.0160602
947.034	0.0161223
947.112	0.0161240
947.190	0.0161501
947.268	0.0160726
947.346	0.0161399
947.424	0.0161959
947.503	0.0160943
947.581	0.0161355
947.659	0.0161816
947.737	0.0161342
947.815	0.0160658
947.893	0.0159596
947.971	0.0160463
948.049	0.0161187
948.128	0.0160103
948.206	0.0161422
948.284	0.0160432
948.362	0.0159915
948.440	0.0160594
948.518	0.0160132
948.596	0.0160083
948.674	0.0160220
948.753	0.0158875
948.831	0.0159547
948.909	0.0160400
948.987	0.0158905
949.065	0.0159017
949.143	0.0161652
949.221	0.0159551
949.299	0.0159088
949.378	0.0158789
949.456	0.0159357
949.534	0.0158642
949.612	0.0158309
949.690	0.0159875
949.768	0.0159365
949.846	0.0158588
949.924	0.0158724
