06/29/2022	23:08:26	Ver.	4.1	UNKNOWN
Optical Delay	630.002507	Delta X		0.078125	Sweeps	1	Scan Rate	0/0
Coordinates	Axis 1	NaN	Axis 2	NaN	Axis 3	NaN	Axis 4	NaN	Axis 5	NaN	Axis 6	0.000000
TX Power	0.000000	RX Power	0.000000

630.003	0.0154575
630.081	0.0155946
630.159	0.0154514
630.237	0.0153577
630.315	0.0153816
630.393	0.0154368
630.471	0.0155250
630.549	0.0155832
630.628	0.0154645
630.706	0.0154667
630.784	0.0155395
630.862	0.0156628
630.940	0.0154865
631.018	0.0154801
631.096	0.0153846
631.174	0.0154749
631.253	0.0154521
631.331	0.0154135
631.409	0.0155297
631.487	0.0155119
631.565	0.0155430
631.643	0.0153725
631.721	0.0154404
631.799	0.0155527
631.878	0.0155079
631.956	0.0153363
632.034	0.0154839
632.112	0.0153228
632.190	0.0153680
632.268	0.0154997
632.346	0.0154012
632.424	0.0154024
632.503	0.0154428
632.581	0.0153778
632.659	0.0153736
632.737	0.0153271
632.815	0.0154111
632.893	0.0154533
632.971	0.0154196
633.049	0.0155533
633.128	0.0153301
633.206	0.0153716
633.284	0.0155197
633.362	0.0154426
633.440	0.0155246
633.518	0.0154896
633.596	0.0154124
633.674	0.0153989
633.753	0.0154032
633.831	0.0155888
633.909	0.0155177
633.987	0.0155614
634.065	0.0153767
634.143	0.0155067
634.221	0.0155691
634.299	0.0156290
634.378	0.0154845
634.456	0.0155102
634.534	0.0156201
634.612	0.0154626
634.690	0.0156071
634.768	0.0155069
634.846	0.0153773
634.924	0.0156286
635.003	0.0156583
635.081	0.0155661
635.159	0.0156108
635.237	0.0155653
635.315	0.0156236
635.393	0.0154858
635.471	0.0155294
635.549	0.0155002
635.628	0.0156627
635.706	0.0154818
635.784	0.0156262
635.862	0.0156641
635.940	0.0155397
636.018	0.0155551
636.096	0.0155358
636.174	0.0154794
636.253	0.0155218
636.331	0.0154935
636.409	0.0154900
636.487	0.0155891
636.565	0.0153787
636.643	0.0153928
636.721	0.0154889
636.799	0.0154829
636.878	0.0153770
636.956	0.0154671
637.034	0.0154682
637.112	0.0153576
637.190	0.0154307
637.268	0.0154456
637.346	0.0153479
637.424	0.0155383
637.503	0.0154430
637.581	0.0153865
637.659	0.0153500
637.737	0.0153431
637.815	0.0155367
637.893	0.0155854
637.971	0.0152872
638.049	0.0152779
638.128	0.0156054
638.206	0.0154309
638.284	0.0153548
638.362	0.0152553
638.440	0.0154344
638.518	0.0152817
638.596	0.0153577
638.674	0.0154513
638.753	0.0154505
638.831	0.0153933
638.909	0.0153049
638.987	0.0153786
639.065	0.0154910
639.143	0.0154052
639.221	0.0154622
639.299	0.0154486
639.378	0.0154561
639.456	0.0152695
639.534	0.0153780
639.612	0.0154291
639.690	0.0154568
639.768	0.0153667
639.846	0.0153405
639.924	0.0152860
640.003	0.0154969
640.081	0.0154575
640.159	0.0153830
640.237	0.0153384
640.315	0.0153543
640.393	0.0155605
640.471	0.0154872
640.549	0.0154752
640.628	0.0154131
640.706	0.0151272
640.784	0.0152648
640.862	0.0154242
640.940	0.0153202
641.018	0.0153251
641.096	0.0153986
641.174	0.0155951
641.253	0.0153242
641.331	0.0153423
641.409	0.0152865
641.487	0.0154672
641.565	0.0153684
641.643	0.0154699
641.721	0.0154655
641.799	0.0153257
641.878	0.0153134
641.956	0.0152416
642.034	0.0152763
642.112	0.0154974
642.190	0.0154060
642.268	0.0154002
642.346	0.0153065
642.424	0.0154407
642.503	0.0154036
642.581	0.0153262
642.659	0.0153887
642.737	0.0152599
642.815	0.0153754
642.893	0.0153696
642.971	0.0152986
643.049	0.0153999
643.128	0.0153951
643.206	0.0153793
643.284	0.0153342
643.362	0.0154461
643.440	0.0153664
643.518	0.0154653
643.596	0.0154256
643.674	0.0152863
643.753	0.0153978
643.831	0.0153064
643.909	0.0153497
643.987	0.0152943
644.065	0.0154121
644.143	0.0155600
644.221	0.0153899
644.299	0.0153735
644.378	0.0151765
644.456	0.0153924
644.534	0.0154747
644.612	0.0153965
644.690	0.0153156
644.768	0.0153276
644.846	0.0155411
644.924	0.0154272
645.003	0.0153986
645.081	0.0153912
645.159	0.0154657
645.237	0.0155136
645.315	0.0154344
645.393	0.0155569
645.471	0.0155078
645.549	0.0154774
645.628	0.0154870
645.706	0.0154014
645.784	0.0155786
645.862	0.0154368
645.940	0.0156275
646.018	0.0154453
646.096	0.0155223
646.174	0.0155140
646.253	0.0154305
646.331	0.0154117
646.409	0.0155411
646.487	0.0155921
646.565	0.0154278
646.643	0.0155824
646.721	0.0155133
646.799	0.0155423
646.878	0.0155550
646.956	0.0154945
647.034	0.0154607
647.112	0.0154995
647.190	0.0154810
647.268	0.0155859
647.346	0.0155436
647.424	0.0156046
647.503	0.0155885
647.581	0.0154933
647.659	0.0154299
647.737	0.0155647
647.815	0.0154970
647.893	0.0155010
647.971	0.0154754
648.049	0.0154514
648.128	0.0154342
648.206	0.0154274
648.284	0.0154060
648.362	0.0154896
648.440	0.0154753
648.518	0.0155232
648.596	0.0156034
648.674	0.0155019
648.753	0.0154764
648.831	0.0154859
648.909	0.0155231
648.987	0.0155562
649.065	0.0154483
649.143	0.0155189
649.221	0.0154325
649.299	0.0155197
649.378	0.0154504
649.456	0.0156090
649.534	0.0155364
649.612	0.0154790
649.690	0.0155100
649.768	0.0154875
649.846	0.0154694
649.924	0.0154822
650.003	0.0153491
650.081	0.0154254
650.159	0.0155143
650.237	0.0154942
650.315	0.0154045
650.393	0.0154030
650.471	0.0152570
650.549	0.0154330
650.628	0.0154389
650.706	0.0154858
650.784	0.0153197
650.862	0.0153279
650.940	0.0154243
651.018	0.0153788
651.096	0.0153886
651.174	0.0153988
651.253	0.0154027
651.331	0.0154046
651.409	0.0154044
651.487	0.0155007
651.565	0.0153892
651.643	0.0153730
651.721	0.0153963
651.799	0.0153252
651.878	0.0153481
651.956	0.0154037
652.034	0.0155172
652.112	0.0154609
652.190	0.0154166
652.268	0.0154099
652.346	0.0153445
652.424	0.0153902
652.503	0.0154530
652.581	0.0153691
652.659	0.0154533
652.737	0.0153657
652.815	0.0155569
652.893	0.0153855
652.971	0.0154400
653.049	0.0153626
653.128	0.0154465
653.206	0.0153624
653.284	0.0154054
653.362	0.0154964
653.440	0.0154873
653.518	0.0154404
653.596	0.0154124
653.674	0.0154483
653.753	0.0153956
653.831	0.0155034
653.909	0.0154237
653.987	0.0153631
654.065	0.0153517
654.143	0.0153237
654.221	0.0153200
654.299	0.0154021
654.378	0.0153576
654.456	0.0153405
654.534	0.0153845
654.612	0.0153778
654.690	0.0154037
654.768	0.0152671
654.846	0.0154726
654.924	0.0153767
655.003	0.0153864
655.081	0.0154748
655.159	0.0153196
655.237	0.0154996
655.315	0.0153744
655.393	0.0153631
655.471	0.0154172
655.549	0.0153976
655.628	0.0153864
655.706	0.0154749
655.784	0.0154153
655.862	0.0154851
655.940	0.0154317
656.018	0.0153443
656.096	0.0154018
656.174	0.0154017
656.253	0.0155424
656.331	0.0154494
656.409	0.0153340
656.487	0.0153773
656.565	0.0154015
656.643	0.0153890
656.721	0.0153619
656.799	0.0155543
656.878	0.0154205
656.956	0.0154951
657.034	0.0153709
657.112	0.0153948
657.190	0.0154103
657.268	0.0154762
657.346	0.0155196
657.424	0.0154963
657.503	0.0154919
657.581	0.0153645
657.659	0.0154798
657.737	0.0154036
657.815	0.0153913
657.893	0.0153075
657.971	0.0154154
658.049	0.0155190
658.128	0.0154849
658.206	0.0154484
658.284	0.0154177
658.362	0.0153434
658.440	0.0156203
658.518	0.0154865
658.596	0.0154277
658.674	0.0155090
658.753	0.0155067
658.831	0.0156104
658.909	0.0156465
658.987	0.0157032
659.065	0.0155524
659.143	0.0155229
659.221	0.0155571
659.299	0.0155797
659.378	0.0155715
659.456	0.0155581
659.534	0.0155162
659.612	0.0154071
659.690	0.0155280
659.768	0.0156081
659.846	0.0155077
659.924	0.0154770
660.003	0.0155383
660.081	0.0153435
660.159	0.0154626
660.237	0.0154587
660.315	0.0155874
660.393	0.0155363
660.471	0.0155289
660.549	0.0156178
660.628	0.0155064
660.706	0.0154430
660.784	0.0155789
660.862	0.0154993
660.940	0.0154174
661.018	0.0154386
661.096	0.0154797
661.174	0.0155709
661.253	0.0156005
661.331	0.0155605
661.409	0.0155264
661.487	0.0154726
661.565	0.0153175
661.643	0.0154234
661.721	0.0155273
661.799	0.0154856
661.878	0.0153375
661.956	0.0155398
662.034	0.0154785
662.112	0.0154079
662.190	0.0153532
662.268	0.0152905
662.346	0.0152704
662.424	0.0153321
662.503	0.0152528
662.581	0.0152441
662.659	0.0152351
662.737	0.0154237
662.815	0.0154398
662.893	0.0153432
662.971	0.0151608
663.049	0.0154607
663.128	0.0154094
663.206	0.0152280
663.284	0.0153034
663.362	0.0153967
663.440	0.0153222
663.518	0.0153420
663.596	0.0154208
663.674	0.0153920
663.753	0.0153760
663.831	0.0153364
663.909	0.0154323
663.987	0.0153743
664.065	0.0155387
664.143	0.0153214
664.221	0.0152361
664.299	0.0154494
664.378	0.0152673
664.456	0.0153697
664.534	0.0153872
664.612	0.0153010
664.690	0.0155287
664.768	0.0154016
664.846	0.0153757
664.924	0.0154623
665.003	0.0154346
665.081	0.0152952
665.159	0.0154559
665.237	0.0154773
665.315	0.0154687
665.393	0.0154446
665.471	0.0155459
665.549	0.0153304
665.628	0.0154047
665.706	0.0153571
665.784	0.0153341
665.862	0.0153034
665.940	0.0154121
666.018	0.0154203
666.096	0.0155090
666.174	0.0155128
666.253	0.0154940
666.331	0.0153464
666.409	0.0154530
666.487	0.0154617
666.565	0.0154448
666.643	0.0155269
666.721	0.0155029
666.799	0.0155896
666.878	0.0155817
666.956	0.0156448
667.034	0.0155291
667.112	0.0155164
667.190	0.0155347
667.268	0.0154853
667.346	0.0154541
667.424	0.0153999
667.503	0.0153079
667.581	0.0154687
667.659	0.0153362
667.737	0.0154471
667.815	0.0153667
667.893	0.0154060
667.971	0.0153375
668.049	0.0154810
668.128	0.0154787
668.206	0.0154671
668.284	0.0154914
668.362	0.0154999
668.440	0.0155012
668.518	0.0155635
668.596	0.0154340
668.674	0.0154789
668.753	0.0154674
668.831	0.0154963
668.909	0.0155908
668.987	0.0154453
669.065	0.0155000
669.143	0.0155011
669.221	0.0153701
669.299	0.0154676
669.378	0.0154701
669.456	0.0155248
669.534	0.0154768
669.612	0.0155609
669.690	0.0154549
669.768	0.0154383
669.846	0.0154373
669.924	0.0155750
670.003	0.0153359
670.081	0.0154888
670.159	0.0155264
670.237	0.0155019
670.315	0.0155775
670.393	0.0155273
670.471	0.0154684
670.549	0.0155534
670.628	0.0155844
670.706	0.0154808
670.784	0.0155584
670.862	0.0156467
670.940	0.0154719
671.018	0.0153823
671.096	0.0153879
671.174	0.0154290
671.253	0.0154848
671.331	0.0154581
671.409	0.0152779
671.487	0.0154635
671.565	0.0154292
671.643	0.0155248
671.721	0.0154157
671.799	0.0156579
671.878	0.0155260
671.956	0.0154539
672.034	0.0154028
672.112	0.0155137
672.190	0.0153955
672.268	0.0155244
672.346	0.0154963
672.424	0.0155352
672.503	0.0153579
672.581	0.0154649
672.659	0.0154689
672.737	0.0154114
672.815	0.0154224
672.893	0.0153745
672.971	0.0153764
673.049	0.0153711
673.128	0.0153444
673.206	0.0153544
673.284	0.0152953
673.362	0.0153484
673.440	0.0153638
673.518	0.0155797
673.596	0.0154546
673.674	0.0152613
673.753	0.0154519
673.831	0.0153086
673.909	0.0153759
673.987	0.0156245
674.065	0.0155843
674.143	0.0154701
674.221	0.0153991
674.299	0.0153907
674.378	0.0155194
674.456	0.0155028
674.534	0.0154961
674.612	0.0155126
674.690	0.0154647
674.768	0.0153196
674.846	0.0154721
674.924	0.0154603
675.003	0.0152822
675.081	0.0154509
675.159	0.0154864
675.237	0.0154737
675.315	0.0153903
675.393	0.0154906
675.471	0.0154021
675.549	0.0155024
675.628	0.0155827
675.706	0.0155981
675.784	0.0154424
675.862	0.0155061
675.940	0.0156636
676.018	0.0155460
676.096	0.0155104
676.174	0.0155430
676.253	0.0155171
676.331	0.0154787
676.409	0.0155451
676.487	0.0155668
676.565	0.0153617
676.643	0.0154406
676.721	0.0154067
676.799	0.0153714
676.878	0.0153897
676.956	0.0154198
677.034	0.0154233
677.112	0.0154967
677.190	0.0154023
677.268	0.0153893
677.346	0.0155801
677.424	0.0154194
677.503	0.0155814
677.581	0.0155531
677.659	0.0155264
677.737	0.0154092
677.815	0.0155576
677.893	0.0154644
677.971	0.0153299
678.049	0.0155202
678.128	0.0155443
678.206	0.0154671
678.284	0.0153848
678.362	0.0153798
678.440	0.0154581
678.518	0.0154156
678.596	0.0154141
678.674	0.0155125
678.753	0.0152905
678.831	0.0154221
678.909	0.0154604
678.987	0.0154440
679.065	0.0153471
679.143	0.0156052
679.221	0.0156377
679.299	0.0155111
679.378	0.0153469
679.456	0.0155753
679.534	0.0154955
679.612	0.0154572
679.690	0.0154860
679.768	0.0153560
679.846	0.0154009
679.924	0.0155021
680.003	0.0153916
680.081	0.0153133
680.159	0.0152379
680.237	0.0153454
680.315	0.0154424
680.393	0.0154364
680.471	0.0154448
680.549	0.0156652
680.628	0.0155023
680.706	0.0154969
680.784	0.0154308
680.862	0.0154549
680.940	0.0154790
681.018	0.0153288
681.096	0.0154702
681.174	0.0155072
681.253	0.0154656
681.331	0.0154412
681.409	0.0154414
681.487	0.0154256
681.565	0.0154322
681.643	0.0154070
681.721	0.0154542
681.799	0.0156157
681.878	0.0154070
681.956	0.0153371
682.034	0.0154161
682.112	0.0155746
682.190	0.0153381
682.268	0.0154762
682.346	0.0155920
682.424	0.0154644
682.503	0.0156616
682.581	0.0155460
682.659	0.0156316
682.737	0.0155212
682.815	0.0155074
682.893	0.0154426
682.971	0.0154382
683.049	0.0154866
683.128	0.0153207
683.206	0.0154146
683.284	0.0153857
683.362	0.0154026
683.440	0.0154504
683.518	0.0154506
683.596	0.0153963
683.674	0.0153638
683.753	0.0154457
683.831	0.0155582
683.909	0.0155022
683.987	0.0155652
684.065	0.0154956
684.143	0.0154858
684.221	0.0154095
684.299	0.0156489
684.378	0.0154496
684.456	0.0156293
684.534	0.0156186
684.612	0.0155850
684.690	0.0155650
684.768	0.0155263
684.846	0.0156786
684.924	0.0155035
685.003	0.0155163
685.081	0.0155910
685.159	0.0154816
685.237	0.0154193
685.315	0.0154583
685.393	0.0155244
685.471	0.0154024
685.549	0.0153757
685.628	0.0154409
685.706	0.0155145
685.784	0.0155165
685.862	0.0155746
685.940	0.0156680
686.018	0.0154283
686.096	0.0154613
686.174	0.0156392
686.253	0.0154826
686.331	0.0155357
686.409	0.0155946
686.487	0.0155634
686.565	0.0155872
686.643	0.0155413
686.721	0.0156519
686.799	0.0155557
686.878	0.0155942
686.956	0.0153939
687.034	0.0155184
687.112	0.0153970
687.190	0.0153812
687.268	0.0154582
687.346	0.0155827
687.424	0.0154277
687.503	0.0154004
687.581	0.0154637
687.659	0.0153094
687.737	0.0155235
687.815	0.0154530
687.893	0.0154845
687.971	0.0154490
688.049	0.0153843
688.128	0.0154733
688.206	0.0155728
688.284	0.0154780
688.362	0.0153788
688.440	0.0153257
688.518	0.0154813
688.596	0.0155138
688.674	0.0153765
688.753	0.0154381
688.831	0.0153262
688.909	0.0155257
688.987	0.0151674
689.065	0.0154629
689.143	0.0154091
689.221	0.0153745
689.299	0.0153718
689.378	0.0153454
689.456	0.0154472
689.534	0.0153370
689.612	0.0154229
689.690	0.0154872
689.768	0.0155268
689.846	0.0154784
689.924	0.0154469
690.003	0.0154943
690.081	0.0154877
690.159	0.0154678
690.237	0.0154884
690.315	0.0154359
690.393	0.0154677
690.471	0.0155765
690.549	0.0154029
690.628	0.0153105
690.706	0.0154744
690.784	0.0153703
690.862	0.0152812
690.940	0.0154251
691.018	0.0154398
691.096	0.0154399
691.174	0.0154710
691.253	0.0154084
691.331	0.0153085
691.409	0.0154429
691.487	0.0155790
691.565	0.0156123
691.643	0.0155435
691.721	0.0154623
691.799	0.0154056
691.878	0.0153162
691.956	0.0154420
692.034	0.0154317
692.112	0.0154272
692.190	0.0153777
692.268	0.0152991
692.346	0.0154150
692.424	0.0154615
692.503	0.0154833
692.581	0.0153288
692.659	0.0153420
692.737	0.0154031
692.815	0.0153500
692.893	0.0155591
692.971	0.0153866
693.049	0.0153117
693.128	0.0153562
693.206	0.0153047
693.284	0.0153908
693.362	0.0154205
693.440	0.0153590
693.518	0.0154027
693.596	0.0153064
693.674	0.0153143
693.753	0.0153482
693.831	0.0154020
693.909	0.0153040
693.987	0.0153150
694.065	0.0152226
694.143	0.0153886
694.221	0.0154277
694.299	0.0152346
694.378	0.0152573
694.456	0.0151822
694.534	0.0153291
694.612	0.0153684
694.690	0.0154391
694.768	0.0154077
694.846	0.0153179
694.924	0.0153127
695.003	0.0154326
695.081	0.0154557
695.159	0.0153806
695.237	0.0153110
695.315	0.0153704
695.393	0.0154271
695.471	0.0153082
695.549	0.0153087
695.628	0.0154164
695.706	0.0153084
695.784	0.0152952
695.862	0.0152777
695.940	0.0152106
696.018	0.0153658
696.096	0.0152904
696.174	0.0152132
696.253	0.0152315
696.331	0.0154385
696.409	0.0153513
696.487	0.0152586
696.565	0.0152757
696.643	0.0154035
696.721	0.0154199
696.799	0.0151965
696.878	0.0152670
696.956	0.0154375
697.034	0.0154449
697.112	0.0154031
697.190	0.0153187
697.268	0.0153896
697.346	0.0153397
697.424	0.0154594
697.503	0.0153371
697.581	0.0152938
697.659	0.0154446
697.737	0.0153321
697.815	0.0153379
697.893	0.0153951
697.971	0.0152998
698.049	0.0153960
698.128	0.0154880
698.206	0.0154281
698.284	0.0154385
698.362	0.0153432
698.440	0.0155061
698.518	0.0154714
698.596	0.0155112
698.674	0.0153936
698.753	0.0154362
698.831	0.0154031
698.909	0.0154047
698.987	0.0153922
699.065	0.0154794
699.143	0.0153117
699.221	0.0154276
699.299	0.0153603
699.378	0.0153146
699.456	0.0151669
699.534	0.0152309
699.612	0.0153746
699.690	0.0152871
699.768	0.0151967
699.846	0.0153878
699.924	0.0153928
700.003	0.0153764
700.081	0.0154099
700.159	0.0153451
700.237	0.0153020
700.315	0.0154753
700.393	0.0155571
700.471	0.0155643
700.549	0.0154758
700.628	0.0155052
700.706	0.0155758
700.784	0.0157108
700.862	0.0156074
700.940	0.0154794
701.018	0.0155154
701.096	0.0156793
701.174	0.0156190
701.253	0.0153754
701.331	0.0154552
701.409	0.0156339
701.487	0.0155210
701.565	0.0154589
701.643	0.0155219
701.721	0.0156177
701.799	0.0154889
701.878	0.0153105
701.956	0.0154476
702.034	0.0154713
702.112	0.0153145
702.190	0.0153181
702.268	0.0154364
702.346	0.0152688
702.424	0.0153948
702.503	0.0152715
702.581	0.0152041
702.659	0.0151734
702.737	0.0153371
702.815	0.0153500
702.893	0.0153733
702.971	0.0153990
703.049	0.0153482
703.128	0.0154173
703.206	0.0152280
703.284	0.0153618
703.362	0.0154265
703.440	0.0155349
703.518	0.0156076
703.596	0.0154869
703.674	0.0156474
703.753	0.0155972
703.831	0.0154662
703.909	0.0156809
703.987	0.0156300
704.065	0.0156887
704.143	0.0155856
704.221	0.0156525
704.299	0.0156386
704.378	0.0155809
704.456	0.0154288
704.534	0.0155235
704.612	0.0155011
704.690	0.0154771
704.768	0.0154504
704.846	0.0156146
704.924	0.0156523
705.003	0.0154697
705.081	0.0154410
705.159	0.0154690
705.237	0.0156859
705.315	0.0154699
705.393	0.0154465
705.471	0.0154165
705.549	0.0154966
705.628	0.0154973
705.706	0.0154703
705.784	0.0154667
705.862	0.0155199
705.940	0.0154706
706.018	0.0155389
706.096	0.0155872
706.174	0.0155893
706.253	0.0156754
706.331	0.0156628
706.409	0.0155803
706.487	0.0156135
706.565	0.0156735
706.643	0.0155266
706.721	0.0156104
706.799	0.0156341
706.878	0.0156763
706.956	0.0155884
707.034	0.0155047
707.112	0.0154587
707.190	0.0153789
707.268	0.0154231
707.346	0.0154744
707.424	0.0152832
707.503	0.0155106
707.581	0.0154047
707.659	0.0153856
707.737	0.0152567
707.815	0.0153788
707.893	0.0153504
707.971	0.0153720
708.049	0.0154285
708.128	0.0155172
708.206	0.0153986
708.284	0.0153993
708.362	0.0154179
708.440	0.0155538
708.518	0.0154860
708.596	0.0153360
708.674	0.0155415
708.753	0.0153957
708.831	0.0153758
708.909	0.0155063
708.987	0.0155099
709.065	0.0154871
709.143	0.0155370
709.221	0.0155321
709.299	0.0155267
709.378	0.0155579
709.456	0.0156068
709.534	0.0153860
709.612	0.0153098
709.690	0.0153818
709.768	0.0153777
709.846	0.0153050
709.924	0.0152632
710.003	0.0153411
710.081	0.0153217
710.159	0.0152004
710.237	0.0152688
710.315	0.0153263
710.393	0.0153132
710.471	0.0153238
710.549	0.0151952
710.628	0.0153284
710.706	0.0153669
710.784	0.0154068
710.862	0.0153635
710.940	0.0153802
711.018	0.0154144
711.096	0.0154587
711.174	0.0154977
711.253	0.0155859
711.331	0.0154248
711.409	0.0153609
711.487	0.0155112
711.565	0.0153532
711.643	0.0154720
711.721	0.0153884
711.799	0.0153932
711.878	0.0153593
711.956	0.0152627
712.034	0.0153002
712.112	0.0153433
712.190	0.0152160
712.268	0.0151175
712.346	0.0151582
712.424	0.0154369
712.503	0.0154165
712.581	0.0153706
712.659	0.0153067
712.737	0.0153116
712.815	0.0153918
712.893	0.0153809
712.971	0.0153718
713.049	0.0154013
713.128	0.0155077
713.206	0.0155660
713.284	0.0155507
713.362	0.0155805
713.440	0.0155917
713.518	0.0154943
713.596	0.0155843
713.674	0.0155933
713.753	0.0156402
713.831	0.0157190
713.909	0.0156233
713.987	0.0155481
714.065	0.0155222
714.143	0.0156337
714.221	0.0153550
714.299	0.0154870
714.378	0.0155498
714.456	0.0155830
714.534	0.0154853
714.612	0.0154943
714.690	0.0154739
714.768	0.0154293
714.846	0.0154913
714.924	0.0153584
715.003	0.0154296
715.081	0.0154083
715.159	0.0153603
715.237	0.0154086
715.315	0.0153843
715.393	0.0153243
715.471	0.0152951
715.549	0.0153125
715.628	0.0152189
715.706	0.0151830
715.784	0.0152246
715.862	0.0151411
715.940	0.0151620
716.018	0.0151910
716.096	0.0150222
716.174	0.0151446
716.253	0.0149806
716.331	0.0150961
716.409	0.0152628
716.487	0.0150826
716.565	0.0151032
716.643	0.0152763
716.721	0.0152946
716.799	0.0154443
716.878	0.0153803
716.956	0.0154565
717.034	0.0155066
717.112	0.0156067
717.190	0.0155704
717.268	0.0154661
717.346	0.0157180
717.424	0.0157455
717.503	0.0156169
717.581	0.0155935
717.659	0.0154551
717.737	0.0156854
717.815	0.0155190
717.893	0.0156477
717.971	0.0156270
718.049	0.0154994
718.128	0.0156278
718.206	0.0154002
718.284	0.0153755
718.362	0.0153748
718.440	0.0152654
718.518	0.0150407
718.596	0.0152123
718.674	0.0150514
718.753	0.0149564
718.831	0.0150385
718.909	0.0149770
718.987	0.0150546
719.065	0.0150445
719.143	0.0150881
719.221	0.0151874
719.299	0.0152600
719.378	0.0151189
719.456	0.0153483
719.534	0.0154192
719.612	0.0155345
719.690	0.0156417
719.768	0.0155910
719.846	0.0156423
719.924	0.0158830
720.003	0.0155860
720.081	0.0156779
720.159	0.0156992
720.237	0.0157456
720.315	0.0158661
720.393	0.0155268
720.471	0.0155634
720.549	0.0155608
720.628	0.0154992
720.706	0.0153966
720.784	0.0154002
720.862	0.0153180
720.940	0.0150785
721.018	0.0151690
721.096	0.0150725
721.174	0.0150532
721.253	0.0150361
721.331	0.0150726
721.409	0.0151913
721.487	0.0150459
721.565	0.0150651
721.643	0.0150792
721.721	0.0150703
721.799	0.0150980
721.878	0.0150286
721.956	0.0152203
722.034	0.0151190
722.112	0.0150741
722.190	0.0151411
722.268	0.0151346
722.346	0.0152012
722.424	0.0151651
722.503	0.0151456
722.581	0.0152770
722.659	0.0153174
722.737	0.0150920
722.815	0.0152103
722.893	0.0152801
722.971	0.0152109
723.049	0.0153580
723.128	0.0153839
723.206	0.0155090
723.284	0.0154840
723.362	0.0154086
723.440	0.0155646
723.518	0.0157576
723.596	0.0157796
723.674	0.0159099
723.753	0.0159305
723.831	0.0159792
723.909	0.0160240
723.987	0.0160073
724.065	0.0160910
724.143	0.0162166
724.221	0.0161692
724.299	0.0160933
724.378	0.0160269
724.456	0.0160076
724.534	0.0159753
724.612	0.0159155
724.690	0.0158530
724.768	0.0158566
724.846	0.0155726
724.924	0.0156254
725.003	0.0154571
725.081	0.0153734
725.159	0.0150797
725.237	0.0151552
725.315	0.0151102
725.393	0.0148889
725.471	0.0148129
725.549	0.0147155
725.628	0.0144271
725.706	0.0145702
725.784	0.0144038
725.862	0.0141621
725.940	0.0143325
726.018	0.0142757
726.096	0.0143153
726.174	0.0143060
726.253	0.0144326
726.331	0.0144985
726.409	0.0144068
726.487	0.0144859
726.565	0.0148148
726.643	0.0148266
726.721	0.0150441
726.799	0.0150340
726.878	0.0154055
726.956	0.0156271
727.034	0.0156970
727.112	0.0160218
727.190	0.0162708
727.268	0.0165096
727.346	0.0165160
727.424	0.0168620
727.503	0.0168565
727.581	0.0170074
727.659	0.0169857
727.737	0.0170160
727.815	0.0171790
727.893	0.0169897
727.971	0.0169965
728.049	0.0169157
728.128	0.0166115
728.206	0.0164364
728.284	0.0161987
728.362	0.0160830
728.440	0.0158981
728.518	0.0156447
728.596	0.0153574
728.674	0.0150826
728.753	0.0149632
728.831	0.0147964
728.909	0.0146161
728.987	0.0145605
729.065	0.0144482
729.143	0.0143560
729.221	0.0143853
729.299	0.0144106
729.378	0.0145286
729.456	0.0145197
729.534	0.0146185
729.612	0.0145886
729.690	0.0148880
729.768	0.0148009
729.846	0.0149621
729.924	0.0149200
730.003	0.0150563
730.081	0.0151362
730.159	0.0152672
730.237	0.0151951
730.315	0.0151057
730.393	0.0152077
730.471	0.0151440
730.549	0.0152065
730.628	0.0151787
730.706	0.0151743
730.784	0.0152097
730.862	0.0153944
730.940	0.0154747
731.018	0.0152467
731.096	0.0155769
731.174	0.0156472
731.253	0.0157502
731.331	0.0157578
731.409	0.0159309
731.487	0.0160770
731.565	0.0161673
731.643	0.0160677
731.721	0.0162283
731.799	0.0163215
731.878	0.0163508
731.956	0.0162981
732.034	0.0161691
732.112	0.0162820
732.190	0.0161399
732.268	0.0160332
732.346	0.0158849
732.424	0.0158382
732.503	0.0157690
732.581	0.0157150
732.659	0.0157073
732.737	0.0154804
732.815	0.0153764
732.893	0.0153370
732.971	0.0153372
733.049	0.0153031
733.128	0.0151862
733.206	0.0151958
733.284	0.0152146
733.362	0.0152003
733.440	0.0151082
733.518	0.0151299
733.596	0.0151307
733.674	0.0153301
733.753	0.0152084
733.831	0.0151965
733.909	0.0154105
733.987	0.0154340
734.065	0.0153090
734.143	0.0153844
734.221	0.0154752
734.299	0.0153055
734.378	0.0154056
734.456	0.0153401
734.534	0.0154250
734.612	0.0155075
734.690	0.0153384
734.768	0.0152973
734.846	0.0154535
734.924	0.0154484
735.003	0.0153131
735.081	0.0155322
735.159	0.0155927
735.237	0.0156348
735.315	0.0155977
735.393	0.0155117
735.471	0.0157422
735.549	0.0158917
735.628	0.0159423
735.706	0.0159209
735.784	0.0159966
735.862	0.0159832
735.940	0.0161255
736.018	0.0161646
736.096	0.0160990
736.174	0.0160501
736.253	0.0160155
736.331	0.0160963
736.409	0.0160538
736.487	0.0158504
736.565	0.0156488
736.643	0.0157576
736.721	0.0154703
736.799	0.0154389
736.878	0.0151558
736.956	0.0153213
737.034	0.0151528
737.112	0.0149685
737.190	0.0149317
737.268	0.0150650
737.346	0.0150127
737.424	0.0150814
737.503	0.0149335
737.581	0.0150872
737.659	0.0152266
737.737	0.0152312
737.815	0.0152166
737.893	0.0153042
737.971	0.0153536
738.049	0.0153698
738.128	0.0155350
738.206	0.0154633
738.284	0.0155286
738.362	0.0156422
738.440	0.0154876
738.518	0.0155127
738.596	0.0155673
738.674	0.0154752
738.753	0.0154868
738.831	0.0154178
738.909	0.0153568
738.987	0.0154028
739.065	0.0153548
739.143	0.0152733
739.221	0.0153488
739.299	0.0154039
739.378	0.0152924
739.456	0.0154210
739.534	0.0154400
739.612	0.0154008
739.690	0.0155234
739.768	0.0154569
739.846	0.0154119
739.924	0.0154016
740.003	0.0154562
740.081	0.0155224
740.159	0.0153858
740.237	0.0152294
740.315	0.0154247
740.393	0.0153035
740.471	0.0154111
740.549	0.0155160
740.628	0.0155928
740.706	0.0155631
740.784	0.0156116
740.862	0.0155779
740.940	0.0156493
741.018	0.0155036
741.096	0.0156794
741.174	0.0155933
741.253	0.0156357
741.331	0.0156160
741.409	0.0156318
741.487	0.0155953
741.565	0.0156531
741.643	0.0155914
741.721	0.0157310
741.799	0.0156137
741.878	0.0155787
741.956	0.0155120
742.034	0.0154723
742.112	0.0154058
742.190	0.0153754
742.268	0.0154140
742.346	0.0153937
742.424	0.0153610
742.503	0.0152695
742.581	0.0151500
742.659	0.0151089
742.737	0.0151550
742.815	0.0151101
742.893	0.0150170
742.971	0.0150219
743.049	0.0147664
743.128	0.0147777
743.206	0.0148801
743.284	0.0147197
743.362	0.0146407
743.440	0.0146558
743.518	0.0145599
743.596	0.0147361
743.674	0.0147736
743.753	0.0145311
743.831	0.0148531
743.909	0.0148234
743.987	0.0150002
744.065	0.0149397
744.143	0.0151781
744.221	0.0153497
744.299	0.0152712
744.378	0.0153926
744.456	0.0153579
744.534	0.0154985
744.612	0.0156548
744.690	0.0154906
744.768	0.0155452
744.846	0.0153594
744.924	0.0155194
745.003	0.0155519
745.081	0.0154278
745.159	0.0153683
745.237	0.0154628
745.315	0.0154177
745.393	0.0155888
745.471	0.0156783
745.549	0.0157637
745.628	0.0157751
745.706	0.0159074
745.784	0.0161041
745.862	0.0163171
745.940	0.0162463
746.018	0.0162939
746.096	0.0165646
746.174	0.0166384
746.253	0.0164845
746.331	0.0164011
746.409	0.0165577
746.487	0.0163627
746.565	0.0162539
746.643	0.0161755
746.721	0.0160061
746.799	0.0158464
746.878	0.0154391
746.956	0.0153668
747.034	0.0152640
747.112	0.0149290
747.190	0.0148473
747.268	0.0146911
747.346	0.0144286
747.424	0.0143447
747.503	0.0143371
747.581	0.0140407
747.659	0.0140454
747.737	0.0140351
747.815	0.0139258
747.893	0.0140607
747.971	0.0143140
748.049	0.0142482
748.128	0.0143118
748.206	0.0145062
748.284	0.0146576
748.362	0.0147984
748.440	0.0150065
748.518	0.0151560
748.596	0.0153001
748.674	0.0154924
748.753	0.0157764
748.831	0.0158069
748.909	0.0157908
748.987	0.0159639
749.065	0.0160615
749.143	0.0161666
749.221	0.0162066
749.299	0.0161820
749.378	0.0161005
749.456	0.0162618
749.534	0.0162727
749.612	0.0161597
749.690	0.0160193
749.768	0.0160903
749.846	0.0160515
749.924	0.0159861
750.003	0.0159092
750.081	0.0157491
750.159	0.0158900
750.237	0.0158201
750.315	0.0158852
750.393	0.0158537
750.471	0.0158810
750.549	0.0158458
750.628	0.0159373
750.706	0.0159320
750.784	0.0159201
750.862	0.0157400
750.940	0.0157570
751.018	0.0158212
751.096	0.0157420
751.174	0.0157513
751.253	0.0157822
751.331	0.0156665
751.409	0.0156422
751.487	0.0156783
751.565	0.0156206
751.643	0.0157006
751.721	0.0157362
751.799	0.0157899
751.878	0.0156320
751.956	0.0156010
752.034	0.0157564
752.112	0.0155440
752.190	0.0155282
752.268	0.0154867
752.346	0.0155032
752.424	0.0154678
752.503	0.0153160
752.581	0.0152730
752.659	0.0152650
752.737	0.0153131
752.815	0.0151822
752.893	0.0151695
752.971	0.0151543
753.049	0.0149835
753.128	0.0151172
753.206	0.0152340
753.284	0.0152046
753.362	0.0151259
753.440	0.0151761
753.518	0.0152637
753.596	0.0154684
753.674	0.0155323
753.753	0.0154400
753.831	0.0155456
753.909	0.0155246
753.987	0.0155643
754.065	0.0155860
754.143	0.0155022
754.221	0.0156577
754.299	0.0156114
754.378	0.0155611
754.456	0.0155064
754.534	0.0154727
754.612	0.0156856
754.690	0.0157272
754.768	0.0155218
754.846	0.0154064
754.924	0.0155682
755.003	0.0156466
755.081	0.0156614
755.159	0.0156079
755.237	0.0156567
755.315	0.0156664
755.393	0.0157005
755.471	0.0157864
755.549	0.0155978
755.628	0.0156837
755.706	0.0156980
755.784	0.0156149
755.862	0.0157436
755.940	0.0155106
756.018	0.0155852
756.096	0.0157147
756.174	0.0156785
756.253	0.0157240
756.331	0.0156612
756.409	0.0155465
756.487	0.0156671
756.565	0.0156597
756.643	0.0156705
756.721	0.0157375
756.799	0.0158092
756.878	0.0158757
756.956	0.0158485
757.034	0.0159689
757.112	0.0159338
757.190	0.0159880
757.268	0.0161600
757.346	0.0159489
757.424	0.0160809
757.503	0.0160535
757.581	0.0159291
757.659	0.0158749
757.737	0.0156708
757.815	0.0156045
757.893	0.0156023
757.971	0.0153005
758.049	0.0151374
758.128	0.0150889
758.206	0.0149664
758.284	0.0149809
758.362	0.0148874
758.440	0.0146898
758.518	0.0148362
758.596	0.0147289
758.674	0.0146140
758.753	0.0147771
758.831	0.0148351
758.909	0.0146832
758.987	0.0148631
759.065	0.0149049
759.143	0.0150876
759.221	0.0153132
759.299	0.0152796
759.378	0.0153540
759.456	0.0154907
759.534	0.0155595
759.612	0.0157230
759.690	0.0158835
759.768	0.0157810
759.846	0.0159169
759.924	0.0161231
760.003	0.0159782
760.081	0.0159118
760.159	0.0158701
760.237	0.0159330
760.315	0.0158229
760.393	0.0158490
760.471	0.0158804
760.549	0.0157598
760.628	0.0156644
760.706	0.0157242
760.784	0.0156116
760.862	0.0156211
760.940	0.0156660
761.018	0.0155331
761.096	0.0156751
761.174	0.0155762
761.253	0.0154797
761.331	0.0155350
761.409	0.0156763
761.487	0.0154733
761.565	0.0153923
761.643	0.0155275
761.721	0.0154897
761.799	0.0154130
761.878	0.0154837
761.956	0.0155698
762.034	0.0153812
762.112	0.0154687
762.190	0.0154369
762.268	0.0152000
762.346	0.0152357
762.424	0.0152618
762.503	0.0151131
762.581	0.0151766
762.659	0.0150430
762.737	0.0151737
762.815	0.0152504
762.893	0.0152509
762.971	0.0153458
763.049	0.0154046
763.128	0.0154742
763.206	0.0156391
763.284	0.0156924
763.362	0.0155882
763.440	0.0157330
763.518	0.0156756
763.596	0.0156153
763.674	0.0157105
763.753	0.0155422
763.831	0.0155759
763.909	0.0154028
763.987	0.0154401
764.065	0.0153230
764.143	0.0151859
764.221	0.0150783
764.299	0.0151765
764.378	0.0152163
764.456	0.0149847
764.534	0.0148387
764.612	0.0149551
764.690	0.0147916
764.768	0.0149351
764.846	0.0151363
764.924	0.0151945
765.003	0.0150238
765.081	0.0153382
765.159	0.0152502
765.237	0.0152169
765.315	0.0151620
765.393	0.0153275
765.471	0.0153606
765.549	0.0154623
765.628	0.0153362
765.706	0.0152769
765.784	0.0153248
765.862	0.0154383
765.940	0.0153700
766.018	0.0154214
766.096	0.0154733
766.174	0.0153329
766.253	0.0155797
766.331	0.0154758
766.409	0.0154009
766.487	0.0155232
766.565	0.0156468
766.643	0.0156857
766.721	0.0157163
766.799	0.0157739
766.878	0.0159903
766.956	0.0157465
767.034	0.0157993
767.112	0.0158905
767.190	0.0158436
767.268	0.0160458
767.346	0.0160352
767.424	0.0158068
767.503	0.0160287
767.581	0.0160544
767.659	0.0156011
767.737	0.0156464
767.815	0.0156615
767.893	0.0155309
767.971	0.0154227
768.049	0.0153590
768.128	0.0152831
768.206	0.0150664
768.284	0.0149821
768.362	0.0150094
768.440	0.0147877
768.518	0.0147985
768.596	0.0149568
768.674	0.0148833
768.753	0.0147693
768.831	0.0149325
768.909	0.0149292
768.987	0.0150231
769.065	0.0151698
769.143	0.0153683
769.221	0.0151968
769.299	0.0154092
769.378	0.0154945
769.456	0.0154362
769.534	0.0154877
769.612	0.0154471
769.690	0.0155242
769.768	0.0154410
769.846	0.0154162
769.924	0.0154845
770.003	0.0153419
770.081	0.0152830
770.159	0.0151376
770.237	0.0150857
770.315	0.0150771
770.393	0.0151464
770.471	0.0151033
770.549	0.0150321
770.628	0.0152276
770.706	0.0151801
770.784	0.0152958
770.862	0.0152147
770.940	0.0154061
771.018	0.0153667
771.096	0.0155248
771.174	0.0155048
771.253	0.0156141
771.331	0.0157325
771.409	0.0157030
771.487	0.0156091
771.565	0.0155861
771.643	0.0157352
771.721	0.0156316
771.799	0.0156894
771.878	0.0157153
771.956	0.0156479
772.034	0.0157724
772.112	0.0157266
772.190	0.0156333
772.268	0.0157273
772.346	0.0158941
772.424	0.0158511
772.503	0.0157477
772.581	0.0158797
772.659	0.0156774
772.737	0.0157146
772.815	0.0157155
772.893	0.0157178
772.971	0.0155997
773.049	0.0157182
773.128	0.0156344
773.206	0.0155665
773.284	0.0156462
773.362	0.0155819
773.440	0.0155067
773.518	0.0155045
773.596	0.0155177
773.674	0.0156796
773.753	0.0154581
773.831	0.0155143
773.909	0.0154176
773.987	0.0154156
774.065	0.0153747
774.143	0.0152081
774.221	0.0152782
774.299	0.0152478
774.378	0.0150981
774.456	0.0150452
774.534	0.0150178
774.612	0.0151186
774.690	0.0150031
774.768	0.0151290
774.846	0.0151249
774.924	0.0152005
775.003	0.0154731
775.081	0.0153381
775.159	0.0155096
775.237	0.0156851
775.315	0.0155228
775.393	0.0155971
775.471	0.0157176
775.549	0.0156595
775.628	0.0156574
775.706	0.0155640
775.784	0.0156067
775.862	0.0155515
775.940	0.0154985
776.018	0.0154408
776.096	0.0154427
776.174	0.0151859
776.253	0.0153581
776.331	0.0153339
776.409	0.0152589
776.487	0.0151929
776.565	0.0151790
776.643	0.0151710
776.721	0.0153172
776.799	0.0152099
776.878	0.0152811
776.956	0.0154640
777.034	0.0155826
777.112	0.0157138
777.190	0.0155811
777.268	0.0156322
777.346	0.0156607
777.424	0.0157484
777.503	0.0159203
777.581	0.0157510
777.659	0.0157382
777.737	0.0156953
777.815	0.0157185
777.893	0.0158303
777.971	0.0157211
778.049	0.0156710
778.128	0.0156415
778.206	0.0155276
778.284	0.0154594
778.362	0.0155472
778.440	0.0155099
778.518	0.0156014
778.596	0.0155767
778.674	0.0154723
778.753	0.0154546
778.831	0.0153463
778.909	0.0152892
778.987	0.0152993
779.065	0.0152918
779.143	0.0153176
779.221	0.0153862
779.299	0.0154408
779.378	0.0153738
779.456	0.0152720
779.534	0.0153913
779.612	0.0155120
779.690	0.0156484
779.768	0.0154716
779.846	0.0153561
779.924	0.0155019
780.003	0.0155624
780.081	0.0154520
780.159	0.0154504
780.237	0.0154469
780.315	0.0155038
780.393	0.0155122
780.471	0.0154642
780.549	0.0154002
780.628	0.0153511
780.706	0.0153189
780.784	0.0152968
780.862	0.0154349
780.940	0.0154387
781.018	0.0154739
781.096	0.0154602
781.174	0.0154623
781.253	0.0155247
781.331	0.0154072
781.409	0.0155929
781.487	0.0154966
781.565	0.0155437
781.643	0.0155367
781.721	0.0155420
781.799	0.0154867
781.878	0.0153741
781.956	0.0153121
782.034	0.0152707
782.112	0.0152439
782.190	0.0152634
782.268	0.0152239
782.346	0.0151822
782.424	0.0152350
782.503	0.0150584
782.581	0.0150265
782.659	0.0152004
782.737	0.0151111
782.815	0.0150455
782.893	0.0151083
782.971	0.0151439
783.049	0.0152895
783.128	0.0151599
783.206	0.0153118
783.284	0.0152826
783.362	0.0153464
783.440	0.0153811
783.518	0.0153646
783.596	0.0154474
783.674	0.0155728
783.753	0.0154805
783.831	0.0155774
783.909	0.0155537
783.987	0.0156767
784.065	0.0156783
784.143	0.0155207
784.221	0.0156168
784.299	0.0157488
784.378	0.0157504
784.456	0.0157401
784.534	0.0157401
784.612	0.0157977
784.690	0.0158044
784.768	0.0156720
784.846	0.0156093
784.924	0.0156727
785.003	0.0156714
785.081	0.0156818
785.159	0.0156584
785.237	0.0157331
785.315	0.0156508
785.393	0.0155750
785.471	0.0154988
785.549	0.0156043
785.628	0.0155018
785.706	0.0154860
785.784	0.0155952
785.862	0.0154258
785.940	0.0152802
786.018	0.0152745
786.096	0.0153109
786.174	0.0153434
786.253	0.0152795
786.331	0.0152146
786.409	0.0152157
786.487	0.0149586
786.565	0.0149538
786.643	0.0150255
786.721	0.0150703
786.799	0.0150248
786.878	0.0150373
786.956	0.0150998
787.034	0.0151980
787.112	0.0151190
787.190	0.0150911
787.268	0.0152528
787.346	0.0153940
787.424	0.0154379
787.503	0.0153411
787.581	0.0155049
787.659	0.0154259
787.737	0.0155261
787.815	0.0156543
787.893	0.0157107
787.971	0.0156552
788.049	0.0158378
788.128	0.0157318
788.206	0.0156995
788.284	0.0157418
788.362	0.0156073
788.440	0.0155174
788.518	0.0154909
788.596	0.0154264
788.674	0.0153899
788.753	0.0151408
788.831	0.0152088
788.909	0.0152715
788.987	0.0150626
789.065	0.0149789
789.143	0.0150787
789.221	0.0149671
789.299	0.0151031
789.378	0.0151645
789.456	0.0151910
789.534	0.0151993
789.612	0.0152940
789.690	0.0151612
789.768	0.0151992
789.846	0.0153872
789.924	0.0153280
790.003	0.0153326
790.081	0.0154295
790.159	0.0153351
790.237	0.0153706
790.315	0.0153465
790.393	0.0154001
790.471	0.0154451
790.549	0.0154755
790.628	0.0154630
790.706	0.0155436
790.784	0.0154050
790.862	0.0154307
790.940	0.0154458
791.018	0.0156002
791.096	0.0154819
791.174	0.0154161
791.253	0.0155801
791.331	0.0155626
791.409	0.0156627
791.487	0.0156655
791.565	0.0155786
791.643	0.0155199
791.721	0.0154359
791.799	0.0155384
791.878	0.0155788
791.956	0.0154089
792.034	0.0152930
792.112	0.0153719
792.190	0.0152831
792.268	0.0152328
792.346	0.0150451
792.424	0.0151711
792.503	0.0150805
792.581	0.0149714
792.659	0.0149740
792.737	0.0149372
792.815	0.0149841
792.893	0.0151391
792.971	0.0149770
793.049	0.0151216
793.128	0.0150595
793.206	0.0150648
793.284	0.0152508
793.362	0.0153386
793.440	0.0153657
793.518	0.0153425
793.596	0.0154539
793.674	0.0153786
793.753	0.0154469
793.831	0.0154930
793.909	0.0154395
793.987	0.0155408
794.065	0.0156018
794.143	0.0155433
794.221	0.0155754
794.299	0.0155656
794.378	0.0153585
794.456	0.0153399
794.534	0.0153380
794.612	0.0153860
794.690	0.0153863
794.768	0.0151605
794.846	0.0151344
794.924	0.0150761
795.003	0.0150333
795.081	0.0150874
795.159	0.0151244
795.237	0.0151301
795.315	0.0149254
795.393	0.0151778
795.471	0.0151105
795.549	0.0152319
795.628	0.0152134
795.706	0.0152171
795.784	0.0153807
795.862	0.0154080
795.940	0.0155484
796.018	0.0153179
796.096	0.0153854
796.174	0.0154263
796.253	0.0154349
796.331	0.0155519
796.409	0.0153339
796.487	0.0153372
796.565	0.0154256
796.643	0.0154137
796.721	0.0154387
796.799	0.0154001
796.878	0.0155151
796.956	0.0154465
797.034	0.0154431
797.112	0.0154483
797.190	0.0154821
797.268	0.0155370
797.346	0.0154595
797.424	0.0153866
797.503	0.0154387
797.581	0.0153628
797.659	0.0154305
797.737	0.0155924
797.815	0.0155379
797.893	0.0154462
797.971	0.0153625
798.049	0.0151855
798.128	0.0153686
798.206	0.0152248
798.284	0.0152512
798.362	0.0153234
798.440	0.0151694
798.518	0.0153224
798.596	0.0151305
798.674	0.0152421
798.753	0.0150433
798.831	0.0151985
798.909	0.0152390
798.987	0.0150845
799.065	0.0152200
799.143	0.0152049
799.221	0.0152791
799.299	0.0152003
799.378	0.0151920
799.456	0.0153181
799.534	0.0154168
799.612	0.0153502
799.690	0.0154041
799.768	0.0154184
799.846	0.0154214
799.924	0.0155187
800.003	0.0154819
800.081	0.0155266
800.159	0.0155138
800.237	0.0156821
800.315	0.0156920
800.393	0.0155322
800.471	0.0156425
800.549	0.0154389
800.628	0.0154536
800.706	0.0155650
800.784	0.0154590
800.862	0.0154066
800.940	0.0153000
801.018	0.0153227
801.096	0.0153049
801.174	0.0153413
801.253	0.0153679
801.331	0.0152826
801.409	0.0153724
801.487	0.0153685
801.565	0.0153523
801.643	0.0152703
801.721	0.0154466
801.799	0.0154105
801.878	0.0153981
801.956	0.0153648
802.034	0.0154607
802.112	0.0153960
802.190	0.0155318
802.268	0.0154191
802.346	0.0154345
802.424	0.0153874
802.503	0.0152597
802.581	0.0153680
802.659	0.0152714
802.737	0.0153065
802.815	0.0154362
802.893	0.0152731
802.971	0.0153849
803.049	0.0154220
803.128	0.0152288
803.206	0.0154611
803.284	0.0153319
803.362	0.0153840
803.440	0.0155992
803.518	0.0155975
803.596	0.0156490
803.674	0.0156662
803.753	0.0155825
803.831	0.0156412
803.909	0.0157079
803.987	0.0158620
804.065	0.0157450
804.143	0.0155770
804.221	0.0155885
804.299	0.0155806
804.378	0.0156349
804.456	0.0156992
804.534	0.0156111
804.612	0.0153988
804.690	0.0154491
804.768	0.0155406
804.846	0.0154666
804.924	0.0154750
805.003	0.0153808
805.081	0.0155861
805.159	0.0154562
805.237	0.0153435
805.315	0.0153260
805.393	0.0153277
805.471	0.0154112
805.549	0.0153703
805.628	0.0153950
805.706	0.0153540
805.784	0.0153302
805.862	0.0152885
805.940	0.0154302
806.018	0.0154665
806.096	0.0152293
806.174	0.0153233
806.253	0.0154681
806.331	0.0153620
806.409	0.0154563
806.487	0.0156075
806.565	0.0155588
806.643	0.0154527
806.721	0.0155479
806.799	0.0155163
806.878	0.0154723
806.956	0.0154979
807.034	0.0155497
807.112	0.0156577
807.190	0.0154810
807.268	0.0154893
807.346	0.0155603
807.424	0.0155096
807.503	0.0155764
807.581	0.0156467
807.659	0.0156339
807.737	0.0154638
807.815	0.0155952
807.893	0.0155654
807.971	0.0154990
808.049	0.0153541
808.128	0.0155047
808.206	0.0155250
808.284	0.0155640
808.362	0.0153883
808.440	0.0154255
808.518	0.0153492
808.596	0.0152104
808.674	0.0152124
808.753	0.0152336
808.831	0.0153168
808.909	0.0152650
808.987	0.0151678
809.065	0.0153838
809.143	0.0153860
809.221	0.0152530
809.299	0.0153269
809.378	0.0152763
809.456	0.0152306
809.534	0.0153214
809.612	0.0152692
809.690	0.0153191
809.768	0.0154035
809.846	0.0155298
809.924	0.0155215
810.003	0.0154770
810.081	0.0155851
810.159	0.0156233
810.237	0.0154659
810.315	0.0156252
810.393	0.0156467
810.471	0.0155330
810.549	0.0156014
810.628	0.0156637
810.706	0.0156615
810.784	0.0155032
810.862	0.0155715
810.940	0.0155452
811.018	0.0155763
811.096	0.0156007
811.174	0.0156776
811.253	0.0156541
811.331	0.0155846
811.409	0.0155150
811.487	0.0155372
811.565	0.0154362
811.643	0.0155205
811.721	0.0155849
811.799	0.0153931
811.878	0.0154395
811.956	0.0152882
812.034	0.0154334
812.112	0.0153725
812.190	0.0154738
812.268	0.0154208
812.346	0.0155104
812.424	0.0153947
812.503	0.0153216
812.581	0.0153922
812.659	0.0154672
812.737	0.0155018
812.815	0.0154969
812.893	0.0155411
812.971	0.0156056
813.049	0.0155416
813.128	0.0155882
813.206	0.0157346
813.284	0.0154813
813.362	0.0155074
813.440	0.0155981
813.518	0.0156134
813.596	0.0156631
813.674	0.0156955
813.753	0.0155769
813.831	0.0156830
813.909	0.0155642
813.987	0.0156276
814.065	0.0155884
814.143	0.0154767
814.221	0.0155398
814.299	0.0156812
814.378	0.0155625
814.456	0.0154483
814.534	0.0155958
814.612	0.0155726
814.690	0.0155108
814.768	0.0154755
814.846	0.0155415
814.924	0.0154926
815.003	0.0155442
815.081	0.0154691
815.159	0.0153812
815.237	0.0155685
815.315	0.0154986
815.393	0.0154279
815.471	0.0154868
815.549	0.0155682
815.628	0.0154015
815.706	0.0155269
815.784	0.0153764
815.862	0.0154209
815.940	0.0154021
816.018	0.0152535
816.096	0.0155084
816.174	0.0154953
816.253	0.0154311
816.331	0.0155954
816.409	0.0156871
816.487	0.0156097
816.565	0.0154439
816.643	0.0154324
816.721	0.0155341
816.799	0.0155351
816.878	0.0156351
816.956	0.0156092
817.034	0.0155137
817.112	0.0154813
817.190	0.0154707
817.268	0.0155566
817.346	0.0155901
817.424	0.0155740
817.503	0.0156133
817.581	0.0155689
817.659	0.0156322
817.737	0.0155048
817.815	0.0156170
817.893	0.0154871
817.971	0.0155301
818.049	0.0155092
818.128	0.0155739
818.206	0.0155270
818.284	0.0153009
818.362	0.0155466
818.440	0.0155009
818.518	0.0153648
818.596	0.0153192
818.674	0.0152309
818.753	0.0152497
818.831	0.0153154
818.909	0.0152818
818.987	0.0153764
819.065	0.0152010
819.143	0.0154048
819.221	0.0153394
819.299	0.0152753
819.378	0.0153824
819.456	0.0154459
819.534	0.0155370
819.612	0.0155436
819.690	0.0154353
819.768	0.0155393
819.846	0.0155478
819.924	0.0156264
820.003	0.0156475
820.081	0.0156035
820.159	0.0155518
820.237	0.0157010
820.315	0.0155016
820.393	0.0157240
820.471	0.0156513
820.549	0.0155350
820.628	0.0156426
820.706	0.0156641
820.784	0.0156261
820.862	0.0155035
820.940	0.0156190
821.018	0.0155807
821.096	0.0154375
821.174	0.0155343
821.253	0.0153917
821.331	0.0154072
821.409	0.0154190
821.487	0.0152219
821.565	0.0153899
821.643	0.0151878
821.721	0.0151762
821.799	0.0151745
821.878	0.0151431
821.956	0.0153057
822.034	0.0150713
822.112	0.0149653
822.190	0.0149474
822.268	0.0148930
822.346	0.0149425
822.424	0.0149557
822.503	0.0148187
822.581	0.0149378
822.659	0.0150363
822.737	0.0150971
822.815	0.0150514
822.893	0.0150317
822.971	0.0149817
823.049	0.0151606
823.128	0.0151491
823.206	0.0153068
823.284	0.0153159
823.362	0.0153693
823.440	0.0154774
823.518	0.0155122
823.596	0.0155556
823.674	0.0155264
823.753	0.0155933
823.831	0.0157738
823.909	0.0158284
823.987	0.0157647
824.065	0.0157743
824.143	0.0159997
824.221	0.0158046
824.299	0.0158688
824.378	0.0160000
824.456	0.0159487
824.534	0.0158461
824.612	0.0158904
824.690	0.0158287
824.768	0.0157449
824.846	0.0157889
824.924	0.0157167
825.003	0.0156223
825.081	0.0155292
825.159	0.0154213
825.237	0.0154776
825.315	0.0151405
825.393	0.0153609
825.471	0.0153095
825.549	0.0153022
825.628	0.0151971
825.706	0.0150478
825.784	0.0150332
825.862	0.0152685
825.940	0.0150847
826.018	0.0150521
826.096	0.0151249
826.174	0.0151907
826.253	0.0151754
826.331	0.0152609
826.409	0.0152560
826.487	0.0150720
826.565	0.0151862
826.643	0.0152841
826.721	0.0152979
826.799	0.0154468
826.878	0.0152029
826.956	0.0153616
827.034	0.0153364
827.112	0.0153147
827.190	0.0153320
827.268	0.0153147
827.346	0.0153275
827.424	0.0152602
827.503	0.0154048
827.581	0.0154227
827.659	0.0153525
827.737	0.0153955
827.815	0.0153568
827.893	0.0154625
827.971	0.0153956
828.049	0.0153897
828.128	0.0153292
828.206	0.0154524
828.284	0.0154200
828.362	0.0157104
828.440	0.0156693
828.518	0.0154936
828.596	0.0155210
828.674	0.0156051
828.753	0.0156010
828.831	0.0154927
828.909	0.0154172
828.987	0.0155038
829.065	0.0156232
829.143	0.0154852
829.221	0.0155575
829.299	0.0154132
829.378	0.0153976
829.456	0.0153457
829.534	0.0153427
829.612	0.0154588
829.690	0.0152940
829.768	0.0152541
829.846	0.0154336
829.924	0.0154922
830.003	0.0154253
830.081	0.0153653
830.159	0.0154408
830.237	0.0153896
830.315	0.0154487
830.393	0.0154835
830.471	0.0154789
830.549	0.0155846
830.628	0.0155708
830.706	0.0154643
830.784	0.0156136
830.862	0.0157314
830.940	0.0157084
831.018	0.0158070
831.096	0.0156618
831.174	0.0156791
831.253	0.0155811
831.331	0.0158721
831.409	0.0156925
831.487	0.0156918
831.565	0.0155893
831.643	0.0154823
831.721	0.0156734
831.799	0.0155283
831.878	0.0153857
831.956	0.0155723
832.034	0.0155976
832.112	0.0154521
832.190	0.0152698
832.268	0.0155231
832.346	0.0154503
832.424	0.0154177
832.503	0.0154495
832.581	0.0154049
832.659	0.0154696
832.737	0.0154933
832.815	0.0156038
832.893	0.0154251
832.971	0.0154698
833.049	0.0155340
833.128	0.0155764
833.206	0.0156061
833.284	0.0155644
833.362	0.0156631
833.440	0.0155785
833.518	0.0155827
833.596	0.0156966
833.674	0.0156031
833.753	0.0155531
833.831	0.0156080
833.909	0.0155022
833.987	0.0154527
834.065	0.0155569
834.143	0.0155742
834.221	0.0155696
834.299	0.0155157
834.378	0.0153785
834.456	0.0154959
834.534	0.0155016
834.612	0.0154861
834.690	0.0155383
834.768	0.0155847
834.846	0.0156651
834.924	0.0156361
835.003	0.0155795
835.081	0.0157378
835.159	0.0156493
835.237	0.0156095
835.315	0.0157457
835.393	0.0156525
835.471	0.0157889
835.549	0.0157727
835.628	0.0156561
835.706	0.0157085
835.784	0.0155861
835.862	0.0158055
835.940	0.0157580
836.018	0.0156393
836.096	0.0155931
836.174	0.0157314
836.253	0.0154726
836.331	0.0155480
836.409	0.0157237
836.487	0.0157866
836.565	0.0156683
836.643	0.0157465
836.721	0.0156074
836.799	0.0157196
836.878	0.0156091
836.956	0.0158125
837.034	0.0157738
837.112	0.0156455
837.190	0.0155695
837.268	0.0157841
837.346	0.0156889
837.424	0.0157969
837.503	0.0157323
837.581	0.0156845
837.659	0.0156010
837.737	0.0157795
837.815	0.0157330
837.893	0.0156956
837.971	0.0156908
838.049	0.0155141
838.128	0.0155522
838.206	0.0156599
838.284	0.0155074
838.362	0.0154811
838.440	0.0155978
838.518	0.0155099
838.596	0.0156931
838.674	0.0155190
838.753	0.0155772
838.831	0.0154758
838.909	0.0154762
838.987	0.0154870
839.065	0.0155085
839.143	0.0153336
839.221	0.0153884
839.299	0.0153742
839.378	0.0153411
839.456	0.0155148
839.534	0.0154936
839.612	0.0154385
839.690	0.0153226
839.768	0.0154120
839.846	0.0154517
839.924	0.0155041
840.003	0.0153209
840.081	0.0154274
840.159	0.0154228
840.237	0.0154282
840.315	0.0152250
840.393	0.0154354
840.471	0.0154787
840.549	0.0154984
840.628	0.0153382
840.706	0.0154252
840.784	0.0154254
840.862	0.0153881
840.940	0.0154988
841.018	0.0154839
841.096	0.0154588
841.174	0.0153323
841.253	0.0154713
841.331	0.0155833
841.409	0.0155621
841.487	0.0154866
841.565	0.0153784
841.643	0.0154623
841.721	0.0155219
841.799	0.0154837
841.878	0.0156614
841.956	0.0154774
842.034	0.0154079
842.112	0.0156395
842.190	0.0156510
842.268	0.0156616
842.346	0.0155309
842.424	0.0156467
842.503	0.0155838
842.581	0.0155465
842.659	0.0156621
842.737	0.0157059
842.815	0.0155759
842.893	0.0154070
842.971	0.0154097
843.049	0.0155135
843.128	0.0153623
843.206	0.0154469
843.284	0.0154591
843.362	0.0154256
843.440	0.0153798
843.518	0.0153520
843.596	0.0154153
843.674	0.0153336
843.753	0.0152787
843.831	0.0154004
843.909	0.0153965
843.987	0.0153012
844.065	0.0152428
844.143	0.0152261
844.221	0.0152910
844.299	0.0151768
844.378	0.0153149
844.456	0.0153856
844.534	0.0153255
844.612	0.0153442
844.690	0.0152760
844.768	0.0151756
844.846	0.0152977
844.924	0.0152712
845.003	0.0152771
845.081	0.0151437
845.159	0.0152552
845.237	0.0152068
845.315	0.0152435
845.393	0.0152374
845.471	0.0152161
845.549	0.0153429
845.628	0.0151923
845.706	0.0152625
845.784	0.0151897
845.862	0.0151392
845.940	0.0153912
846.018	0.0153767
846.096	0.0153703
846.174	0.0152991
846.253	0.0154469
846.331	0.0154498
846.409	0.0154638
846.487	0.0156033
846.565	0.0155952
846.643	0.0156344
846.721	0.0156387
846.799	0.0155019
846.878	0.0155469
846.956	0.0155587
847.034	0.0155988
847.112	0.0156448
847.190	0.0154914
847.268	0.0155711
847.346	0.0155420
847.424	0.0155579
847.503	0.0154534
847.581	0.0154550
847.659	0.0154042
847.737	0.0155042
847.815	0.0154543
847.893	0.0154160
847.971	0.0153711
848.049	0.0154826
848.128	0.0153307
848.206	0.0153337
848.284	0.0154639
848.362	0.0153526
848.440	0.0155084
848.518	0.0155061
848.596	0.0153081
848.674	0.0153423
848.753	0.0153423
848.831	0.0153452
848.909	0.0153368
848.987	0.0152421
849.065	0.0153207
849.143	0.0153412
849.221	0.0153705
849.299	0.0152360
849.378	0.0152754
849.456	0.0151895
849.534	0.0151703
849.612	0.0151898
849.690	0.0151210
849.768	0.0153184
849.846	0.0150813
849.924	0.0151823
850.003	0.0152445
850.081	0.0151785
850.159	0.0152733
850.237	0.0152858
850.315	0.0151736
850.393	0.0153545
850.471	0.0153460
850.549	0.0152925
850.628	0.0153286
850.706	0.0152278
850.784	0.0154294
850.862	0.0154374
850.940	0.0153181
851.018	0.0154905
851.096	0.0154504
851.174	0.0155036
851.253	0.0155936
851.331	0.0155556
851.409	0.0153913
851.487	0.0152789
851.565	0.0154540
851.643	0.0154056
851.721	0.0154929
851.799	0.0154070
851.878	0.0153905
851.956	0.0154646
852.034	0.0153546
852.112	0.0154717
852.190	0.0154594
852.268	0.0156483
852.346	0.0155382
852.424	0.0154206
852.503	0.0155909
852.581	0.0154165
852.659	0.0154160
852.737	0.0154823
852.815	0.0155788
852.893	0.0154952
852.971	0.0154401
853.049	0.0155775
853.128	0.0155704
853.206	0.0155817
853.284	0.0155029
853.362	0.0154748
853.440	0.0155006
853.518	0.0155675
853.596	0.0153969
853.674	0.0154125
853.753	0.0154832
853.831	0.0155934
853.909	0.0154891
853.987	0.0154726
854.065	0.0154372
854.143	0.0154115
854.221	0.0154681
854.299	0.0154419
854.378	0.0154604
854.456	0.0153978
854.534	0.0154218
854.612	0.0153799
854.690	0.0154301
854.768	0.0154225
854.846	0.0154355
854.924	0.0153661
855.003	0.0153322
855.081	0.0153428
855.159	0.0154731
855.237	0.0153107
855.315	0.0155011
855.393	0.0155274
855.471	0.0155888
855.549	0.0153865
855.628	0.0154193
855.706	0.0154205
855.784	0.0155215
855.862	0.0155967
855.940	0.0154929
856.018	0.0154813
856.096	0.0155684
856.174	0.0155299
856.253	0.0155067
856.331	0.0154699
856.409	0.0154422
856.487	0.0154697
856.565	0.0155409
856.643	0.0155020
856.721	0.0155292
856.799	0.0155140
856.878	0.0156256
856.956	0.0155601
857.034	0.0156145
857.112	0.0155765
857.190	0.0154384
857.268	0.0155414
857.346	0.0155366
857.424	0.0156432
857.503	0.0155246
857.581	0.0154834
857.659	0.0156558
857.737	0.0156095
857.815	0.0154065
857.893	0.0155669
857.971	0.0156902
858.049	0.0155768
858.128	0.0156364
858.206	0.0157049
858.284	0.0154633
858.362	0.0155766
858.440	0.0155891
858.518	0.0157360
858.596	0.0155281
858.674	0.0155664
858.753	0.0154927
858.831	0.0155382
858.909	0.0155289
858.987	0.0155137
859.065	0.0155554
859.143	0.0153554
859.221	0.0154926
859.299	0.0154664
859.378	0.0155087
859.456	0.0153793
859.534	0.0153522
859.612	0.0155453
859.690	0.0154464
859.768	0.0154647
859.846	0.0153273
859.924	0.0154993
860.003	0.0155489
860.081	0.0154028
860.159	0.0156039
860.237	0.0155524
860.315	0.0155801
860.393	0.0155660
860.471	0.0155447
860.549	0.0155004
860.628	0.0154729
860.706	0.0155434
860.784	0.0155122
860.862	0.0153890
860.940	0.0154995
861.018	0.0153880
861.096	0.0153670
861.174	0.0154960
861.253	0.0155098
861.331	0.0155080
861.409	0.0154087
861.487	0.0155089
861.565	0.0154821
861.643	0.0155447
861.721	0.0154692
861.799	0.0155086
861.878	0.0153523
861.956	0.0156319
862.034	0.0156156
862.112	0.0155424
862.190	0.0155240
862.268	0.0156351
862.346	0.0157265
862.424	0.0156664
862.503	0.0156545
862.581	0.0156794
862.659	0.0157151
862.737	0.0157608
862.815	0.0155674
862.893	0.0155585
862.971	0.0157304
863.049	0.0157610
863.128	0.0156475
863.206	0.0156024
863.284	0.0155037
863.362	0.0155817
863.440	0.0156835
863.518	0.0156697
863.596	0.0155556
863.674	0.0155419
863.753	0.0154636
863.831	0.0155556
863.909	0.0155663
863.987	0.0154816
864.065	0.0156277
864.143	0.0155437
864.221	0.0154429
864.299	0.0154543
864.378	0.0154018
864.456	0.0154390
864.534	0.0154108
864.612	0.0153480
864.690	0.0153897
864.768	0.0155010
864.846	0.0153871
864.924	0.0152750
865.003	0.0153796
865.081	0.0153330
865.159	0.0153918
865.237	0.0153739
865.315	0.0151926
865.393	0.0153455
865.471	0.0151945
865.549	0.0152946
865.628	0.0153072
865.706	0.0151012
865.784	0.0153383
865.862	0.0151818
865.940	0.0151595
866.018	0.0153396
866.096	0.0153324
866.174	0.0153193
866.253	0.0153658
866.331	0.0153372
866.409	0.0152787
866.487	0.0152026
866.565	0.0152787
866.643	0.0153065
866.721	0.0154245
866.799	0.0152953
866.878	0.0152531
866.956	0.0154056
867.034	0.0153461
867.112	0.0152044
867.190	0.0152775
867.268	0.0152287
867.346	0.0154061
867.424	0.0153909
867.503	0.0154151
867.581	0.0152737
867.659	0.0153116
867.737	0.0152736
867.815	0.0153516
867.893	0.0153243
867.971	0.0152925
868.049	0.0154238
868.128	0.0154466
868.206	0.0153184
868.284	0.0153530
868.362	0.0153346
868.440	0.0154118
868.518	0.0153978
868.596	0.0154881
868.674	0.0154926
868.753	0.0155023
868.831	0.0154415
868.909	0.0154003
868.987	0.0154489
869.065	0.0155049
869.143	0.0154707
869.221	0.0155083
869.299	0.0155945
869.378	0.0154157
869.456	0.0154082
869.534	0.0154509
869.612	0.0154451
869.690	0.0154584
869.768	0.0155205
869.846	0.0154978
869.924	0.0153780
870.003	0.0153831
870.081	0.0153517
870.159	0.0152380
870.237	0.0152261
870.315	0.0152750
870.393	0.0154671
870.471	0.0153984
870.549	0.0152540
870.628	0.0152850
870.706	0.0153635
870.784	0.0152184
870.862	0.0152476
870.940	0.0152091
871.018	0.0152018
871.096	0.0154888
871.174	0.0152174
871.253	0.0152927
871.331	0.0153291
871.409	0.0152432
871.487	0.0153030
871.565	0.0152779
871.643	0.0154182
871.721	0.0154720
871.799	0.0153548
871.878	0.0152946
871.956	0.0155767
872.034	0.0153658
872.112	0.0154530
872.190	0.0154930
872.268	0.0155320
872.346	0.0154658
872.424	0.0155716
872.503	0.0154295
872.581	0.0154293
872.659	0.0154420
872.737	0.0154982
872.815	0.0154170
872.893	0.0154685
872.971	0.0154283
873.049	0.0156335
873.128	0.0154845
873.206	0.0156416
873.284	0.0154703
873.362	0.0154715
873.440	0.0155612
873.518	0.0156373
873.596	0.0155842
873.674	0.0155244
873.753	0.0155475
873.831	0.0156405
873.909	0.0155988
873.987	0.0156161
874.065	0.0155212
874.143	0.0155911
874.221	0.0155212
874.299	0.0156281
874.378	0.0155602
874.456	0.0155161
874.534	0.0155807
874.612	0.0154781
874.690	0.0154494
874.768	0.0155482
874.846	0.0157233
874.924	0.0155722
875.003	0.0154141
875.081	0.0153073
875.159	0.0154556
875.237	0.0153217
875.315	0.0154457
875.393	0.0154347
875.471	0.0153155
875.549	0.0154340
875.628	0.0153944
875.706	0.0152874
875.784	0.0153204
875.862	0.0152645
875.940	0.0154491
876.018	0.0153815
876.096	0.0154631
876.174	0.0153337
876.253	0.0151769
876.331	0.0152911
876.409	0.0153893
876.487	0.0153749
876.565	0.0153510
876.643	0.0152174
876.721	0.0152553
876.799	0.0153262
876.878	0.0153799
876.956	0.0152818
877.034	0.0152318
877.112	0.0152432
877.190	0.0151997
877.268	0.0152129
877.346	0.0153532
877.424	0.0153802
877.503	0.0153075
877.581	0.0153179
877.659	0.0153796
877.737	0.0154671
877.815	0.0155059
877.893	0.0152971
877.971	0.0153990
878.049	0.0154702
878.128	0.0154938
878.206	0.0155576
878.284	0.0155418
878.362	0.0155483
878.440	0.0155856
878.518	0.0154662
878.596	0.0154473
878.674	0.0155058
878.753	0.0154093
878.831	0.0154559
878.909	0.0155791
878.987	0.0154167
879.065	0.0155908
879.143	0.0155111
879.221	0.0154871
879.299	0.0153944
879.378	0.0153696
879.456	0.0155439
879.534	0.0155623
879.612	0.0155264
879.690	0.0154826
879.768	0.0155029
879.846	0.0153973
879.924	0.0155730
880.003	0.0155418
880.081	0.0154034
880.159	0.0153436
880.237	0.0155368
880.315	0.0155231
880.393	0.0154813
880.471	0.0154120
880.549	0.0153886
880.628	0.0154182
880.706	0.0155612
880.784	0.0155241
880.862	0.0155531
880.940	0.0154713
881.018	0.0155823
881.096	0.0154917
881.174	0.0154906
881.253	0.0154410
881.331	0.0153704
881.409	0.0155187
881.487	0.0155129
881.565	0.0153690
881.643	0.0153778
881.721	0.0155406
881.799	0.0154591
881.878	0.0155337
881.956	0.0154267
882.034	0.0154518
882.112	0.0154457
882.190	0.0155604
882.268	0.0155201
882.346	0.0152862
882.424	0.0154619
882.503	0.0153362
882.581	0.0153768
882.659	0.0153654
882.737	0.0155138
882.815	0.0154501
882.893	0.0154433
882.971	0.0152882
883.049	0.0153754
883.128	0.0154532
883.206	0.0153445
883.284	0.0155869
883.362	0.0154430
883.440	0.0152840
883.518	0.0154649
883.596	0.0154775
883.674	0.0154206
883.753	0.0153591
883.831	0.0152794
883.909	0.0154103
883.987	0.0154265
884.065	0.0153020
884.143	0.0155446
884.221	0.0154758
884.299	0.0153951
884.378	0.0153918
884.456	0.0154804
884.534	0.0155040
884.612	0.0154070
884.690	0.0154552
884.768	0.0154383
884.846	0.0154470
884.924	0.0154395
885.003	0.0154972
885.081	0.0154295
885.159	0.0154699
885.237	0.0154717
885.315	0.0154769
885.393	0.0153968
885.471	0.0153875
885.549	0.0154455
885.628	0.0154380
885.706	0.0154315
885.784	0.0154265
885.862	0.0154939
885.940	0.0153891
886.018	0.0152461
886.096	0.0153439
886.174	0.0152798
886.253	0.0153410
886.331	0.0155687
886.409	0.0153855
886.487	0.0151843
886.565	0.0154387
886.643	0.0154687
886.721	0.0153175
886.799	0.0153061
886.878	0.0153323
886.956	0.0154473
887.034	0.0153653
887.112	0.0154739
887.190	0.0153545
887.268	0.0155112
887.346	0.0155760
887.424	0.0156011
887.503	0.0155403
887.581	0.0155984
887.659	0.0155618
887.737	0.0155287
887.815	0.0156810
887.893	0.0156608
887.971	0.0156380
888.049	0.0156381
888.128	0.0155715
888.206	0.0155141
888.284	0.0156731
888.362	0.0156570
888.440	0.0156397
888.518	0.0156599
888.596	0.0156479
888.674	0.0154969
888.753	0.0156456
888.831	0.0155262
888.909	0.0154591
888.987	0.0154018
889.065	0.0154092
889.143	0.0154328
889.221	0.0156212
889.299	0.0154446
889.378	0.0155022
889.456	0.0154737
889.534	0.0153412
889.612	0.0154807
889.690	0.0152875
889.768	0.0153378
889.846	0.0154382
889.924	0.0154599
890.003	0.0153556
890.081	0.0152564
890.159	0.0153638
890.237	0.0153671
890.315	0.0153825
890.393	0.0153812
890.471	0.0154609
890.549	0.0154580
890.628	0.0153864
890.706	0.0153805
890.784	0.0154549
890.862	0.0154317
890.940	0.0154330
891.018	0.0155302
891.096	0.0154005
891.174	0.0153211
891.253	0.0154615
891.331	0.0154204
891.409	0.0154836
891.487	0.0153788
891.565	0.0152779
891.643	0.0154016
891.721	0.0154763
891.799	0.0154345
891.878	0.0154793
891.956	0.0155091
892.034	0.0154045
892.112	0.0154650
892.190	0.0156240
892.268	0.0154829
892.346	0.0154900
892.424	0.0153982
892.503	0.0154948
892.581	0.0155123
892.659	0.0155109
892.737	0.0155293
892.815	0.0155976
892.893	0.0154337
892.971	0.0155424
893.049	0.0154839
893.128	0.0154016
893.206	0.0154738
893.284	0.0155968
893.362	0.0155986
893.440	0.0155948
893.518	0.0154421
893.596	0.0156527
893.674	0.0155348
893.753	0.0155891
893.831	0.0155325
893.909	0.0155545
893.987	0.0156240
894.065	0.0156078
894.143	0.0155674
894.221	0.0156352
894.299	0.0155420
894.378	0.0154611
894.456	0.0156536
894.534	0.0156274
894.612	0.0156490
894.690	0.0155115
894.768	0.0155470
894.846	0.0155568
894.924	0.0155238
895.003	0.0154848
895.081	0.0156796
895.159	0.0155924
895.237	0.0154497
895.315	0.0153712
895.393	0.0153867
895.471	0.0155132
895.549	0.0155099
895.628	0.0154674
895.706	0.0154861
895.784	0.0154124
895.862	0.0155070
895.940	0.0154477
896.018	0.0155372
896.096	0.0154185
896.174	0.0154230
896.253	0.0154191
896.331	0.0154882
896.409	0.0154218
896.487	0.0154831
896.565	0.0153941
896.643	0.0154301
896.721	0.0152805
896.799	0.0153455
896.878	0.0154156
896.956	0.0154291
897.034	0.0152879
897.112	0.0153374
897.190	0.0153656
897.268	0.0152339
897.346	0.0152775
897.424	0.0153698
897.503	0.0152735
897.581	0.0154152
897.659	0.0152573
897.737	0.0152325
897.815	0.0153294
897.893	0.0153819
897.971	0.0152364
898.049	0.0154321
898.128	0.0154183
898.206	0.0155842
898.284	0.0154592
898.362	0.0155308
898.440	0.0155965
898.518	0.0155386
898.596	0.0155088
898.674	0.0155391
898.753	0.0155237
898.831	0.0155227
898.909	0.0155774
898.987	0.0155616
899.065	0.0154610
899.143	0.0155593
899.221	0.0156106
899.299	0.0156705
899.378	0.0155251
899.456	0.0155470
899.534	0.0154650
899.612	0.0155727
899.690	0.0155511
899.768	0.0156653
899.846	0.0156966
899.924	0.0156448
900.003	0.0155862
900.081	0.0156171
900.159	0.0155634
900.237	0.0156789
900.315	0.0155815
900.393	0.0156112
900.471	0.0155519
900.549	0.0155759
900.628	0.0155602
900.706	0.0156568
900.784	0.0155917
900.862	0.0155891
900.940	0.0156651
901.018	0.0156496
901.096	0.0155567
901.174	0.0153848
901.253	0.0156243
901.331	0.0156278
901.409	0.0154440
901.487	0.0155045
901.565	0.0154871
901.643	0.0154966
901.721	0.0155528
901.799	0.0154375
901.878	0.0154376
901.956	0.0155524
902.034	0.0154948
902.112	0.0154098
902.190	0.0153897
902.268	0.0154320
902.346	0.0154646
902.424	0.0154308
902.503	0.0155354
902.581	0.0153827
902.659	0.0153391
902.737	0.0153515
902.815	0.0153365
902.893	0.0153288
902.971	0.0153773
903.049	0.0153793
903.128	0.0154813
903.206	0.0152906
903.284	0.0153548
903.362	0.0154453
903.440	0.0153136
903.518	0.0153300
903.596	0.0152071
903.674	0.0154176
903.753	0.0154137
903.831	0.0151356
903.909	0.0153037
903.987	0.0153054
904.065	0.0153629
904.143	0.0153035
904.221	0.0153645
904.299	0.0153497
904.378	0.0153090
904.456	0.0153706
904.534	0.0154826
904.612	0.0153757
904.690	0.0154403
904.768	0.0153805
904.846	0.0155991
904.924	0.0155094
905.003	0.0154127
905.081	0.0154194
905.159	0.0153955
905.237	0.0153767
905.315	0.0154221
905.393	0.0155721
905.471	0.0154549
905.549	0.0154172
905.628	0.0155398
905.706	0.0154060
905.784	0.0153617
905.862	0.0154178
905.940	0.0155505
906.018	0.0155321
906.096	0.0154067
906.174	0.0153894
906.253	0.0154536
906.331	0.0154890
906.409	0.0154750
906.487	0.0156023
906.565	0.0156032
906.643	0.0154422
906.721	0.0153368
906.799	0.0155072
906.878	0.0154780
906.956	0.0154613
907.034	0.0154096
907.112	0.0155325
907.190	0.0155363
907.268	0.0154441
907.346	0.0154381
907.424	0.0155338
907.503	0.0154500
907.581	0.0154317
907.659	0.0155484
907.737	0.0153360
907.815	0.0153493
907.893	0.0155958
907.971	0.0153840
908.049	0.0153608
908.128	0.0155685
908.206	0.0153968
908.284	0.0154455
908.362	0.0155038
908.440	0.0153268
908.518	0.0154008
908.596	0.0154507
908.674	0.0154841
908.753	0.0154418
908.831	0.0154181
908.909	0.0153303
908.987	0.0154680
909.065	0.0155365
909.143	0.0154990
909.221	0.0155820
909.299	0.0155507
909.378	0.0153889
909.456	0.0155347
909.534	0.0154592
909.612	0.0155124
909.690	0.0154260
909.768	0.0156248
909.846	0.0155301
909.924	0.0153317
910.003	0.0153337
910.081	0.0152808
910.159	0.0152520
910.237	0.0152577
910.315	0.0153637
910.393	0.0153619
910.471	0.0153289
910.549	0.0153839
910.628	0.0154124
910.706	0.0153265
910.784	0.0153102
910.862	0.0153683
910.940	0.0153270
911.018	0.0154279
911.096	0.0153690
911.174	0.0153835
911.253	0.0153880
911.331	0.0154555
911.409	0.0152657
911.487	0.0154410
911.565	0.0153741
911.643	0.0154584
911.721	0.0155798
911.799	0.0154615
911.878	0.0155427
911.956	0.0154987
912.034	0.0154235
912.112	0.0155402
912.190	0.0154557
912.268	0.0154531
912.346	0.0155247
912.424	0.0155221
912.503	0.0154286
912.581	0.0153527
912.659	0.0153769
912.737	0.0154189
912.815	0.0154088
912.893	0.0155405
912.971	0.0155191
913.049	0.0153966
913.128	0.0154707
913.206	0.0154751
913.284	0.0154127
913.362	0.0154794
913.440	0.0154259
913.518	0.0155865
913.596	0.0156644
913.674	0.0155798
913.753	0.0154420
913.831	0.0155231
913.909	0.0155972
913.987	0.0156221
914.065	0.0156092
914.143	0.0155257
914.221	0.0157329
914.299	0.0156027
914.378	0.0154863
914.456	0.0157057
914.534	0.0156370
914.612	0.0157487
914.690	0.0155802
914.768	0.0157149
914.846	0.0156226
914.924	0.0155418
915.003	0.0156434
915.081	0.0155520
915.159	0.0156056
915.237	0.0155540
915.315	0.0156421
915.393	0.0156974
915.471	0.0155491
915.549	0.0155806
915.628	0.0154799
915.706	0.0155236
915.784	0.0155968
915.862	0.0154759
915.940	0.0152972
916.018	0.0154614
916.096	0.0155648
916.174	0.0153843
916.253	0.0153606
916.331	0.0154127
916.409	0.0154503
916.487	0.0153809
916.565	0.0153289
916.643	0.0154391
916.721	0.0154312
916.799	0.0153433
916.878	0.0152580
916.956	0.0153529
917.034	0.0152905
917.112	0.0153947
917.190	0.0153622
917.268	0.0153263
917.346	0.0152987
917.424	0.0154683
917.503	0.0155006
917.581	0.0154323
917.659	0.0155649
917.737	0.0153667
917.815	0.0154720
917.893	0.0155693
917.971	0.0154994
918.049	0.0154479
918.128	0.0154880
918.206	0.0154198
918.284	0.0155713
918.362	0.0155690
918.440	0.0155915
918.518	0.0155800
918.596	0.0155786
918.674	0.0156907
918.753	0.0156113
918.831	0.0155489
918.909	0.0155565
918.987	0.0156628
919.065	0.0156246
919.143	0.0154932
919.221	0.0156040
919.299	0.0155965
919.378	0.0154674
919.456	0.0154134
919.534	0.0155604
919.612	0.0154485
919.690	0.0154518
919.768	0.0154006
919.846	0.0154084
919.924	0.0154705
920.003	0.0153309
920.081	0.0153201
920.159	0.0153499
920.237	0.0153320
920.315	0.0153179
920.393	0.0152992
920.471	0.0153514
920.549	0.0152420
920.628	0.0153644
920.706	0.0154198
920.784	0.0153405
920.862	0.0155161
920.940	0.0154514
921.018	0.0154606
921.096	0.0154998
921.174	0.0155296
921.253	0.0154565
921.331	0.0156573
921.409	0.0154696
921.487	0.0155743
921.565	0.0156544
921.643	0.0156914
921.721	0.0155160
921.799	0.0154804
921.878	0.0155348
921.956	0.0155584
922.034	0.0156171
922.112	0.0155225
922.190	0.0154923
922.268	0.0153996
922.346	0.0153461
922.424	0.0154241
922.503	0.0155311
922.581	0.0156226
922.659	0.0154179
922.737	0.0153594
922.815	0.0155814
922.893	0.0154463
922.971	0.0154638
923.049	0.0153535
923.128	0.0154129
923.206	0.0154197
923.284	0.0153734
923.362	0.0154778
923.440	0.0154367
923.518	0.0154211
923.596	0.0153246
923.674	0.0153479
923.753	0.0153523
923.831	0.0153500
923.909	0.0152896
923.987	0.0152583
924.065	0.0153575
924.143	0.0153935
924.221	0.0152225
924.299	0.0152827
924.378	0.0153788
924.456	0.0153960
924.534	0.0153112
924.612	0.0152218
924.690	0.0153976
924.768	0.0154100
924.846	0.0154191
924.924	0.0154307
925.003	0.0154426
925.081	0.0154128
925.159	0.0156610
925.237	0.0155412
925.315	0.0153423
925.393	0.0155590
925.471	0.0156363
925.549	0.0157722
925.628	0.0155927
925.706	0.0156662
925.784	0.0155896
925.862	0.0157134
925.940	0.0155997
926.018	0.0156260
926.096	0.0155904
926.174	0.0154742
926.253	0.0155191
926.331	0.0154918
926.409	0.0154879
926.487	0.0155064
926.565	0.0156517
926.643	0.0154572
926.721	0.0155728
926.799	0.0154471
926.878	0.0153360
926.956	0.0155413
927.034	0.0153278
927.112	0.0154497
927.190	0.0155330
927.268	0.0153355
927.346	0.0153056
927.424	0.0154143
927.503	0.0153793
927.581	0.0154373
927.659	0.0153644
927.737	0.0154447
927.815	0.0153732
927.893	0.0153329
927.971	0.0152850
928.049	0.0154568
928.128	0.0153240
928.206	0.0154727
928.284	0.0155846
928.362	0.0153170
928.440	0.0153397
928.518	0.0155334
928.596	0.0155128
928.674	0.0153507
928.753	0.0152547
928.831	0.0152761
928.909	0.0153728
928.987	0.0152458
929.065	0.0151991
929.143	0.0153780
929.221	0.0154739
929.299	0.0154550
929.378	0.0152984
929.456	0.0154024
929.534	0.0154342
929.612	0.0154211
929.690	0.0155514
929.768	0.0153940
929.846	0.0154479
929.924	0.0153648
930.003	0.0156078
930.081	0.0154169
930.159	0.0155251
930.237	0.0155552
930.315	0.0155717
930.393	0.0155264
930.471	0.0153828
930.549	0.0154599
930.628	0.0155432
930.706	0.0155505
930.784	0.0153461
930.862	0.0154278
930.940	0.0154844
931.018	0.0154589
931.096	0.0153824
931.174	0.0154546
931.253	0.0155861
931.331	0.0154857
931.409	0.0155575
931.487	0.0156374
931.565	0.0154946
931.643	0.0155639
931.721	0.0154922
931.799	0.0152660
931.878	0.0153194
931.956	0.0154308
932.034	0.0154774
932.112	0.0153738
932.190	0.0152597
932.268	0.0153738
932.346	0.0154736
932.424	0.0153947
932.503	0.0152689
932.581	0.0153986
932.659	0.0153876
932.737	0.0153684
932.815	0.0155184
932.893	0.0154821
932.971	0.0154808
933.049	0.0154706
933.128	0.0153509
933.206	0.0154385
933.284	0.0154253
933.362	0.0155073
933.440	0.0154712
933.518	0.0154181
933.596	0.0154782
933.674	0.0154919
933.753	0.0154028
933.831	0.0153976
933.909	0.0155198
933.987	0.0154487
934.065	0.0154993
934.143	0.0154045
934.221	0.0152467
934.299	0.0154365
934.378	0.0154653
934.456	0.0153101
934.534	0.0153882
934.612	0.0155006
934.690	0.0153938
934.768	0.0154358
934.846	0.0154881
934.924	0.0153968
935.003	0.0153864
935.081	0.0155292
935.159	0.0154401
935.237	0.0155947
935.315	0.0154828
935.393	0.0155000
935.471	0.0155416
935.549	0.0155630
935.628	0.0154029
935.706	0.0155660
935.784	0.0156531
935.862	0.0154875
935.940	0.0155257
936.018	0.0156525
936.096	0.0157314
936.174	0.0156622
936.253	0.0156121
936.331	0.0156523
936.409	0.0156696
936.487	0.0155991
936.565	0.0155220
936.643	0.0155519
936.721	0.0154908
936.799	0.0155846
936.878	0.0155261
936.956	0.0153957
937.034	0.0154462
937.112	0.0155598
937.190	0.0155843
937.268	0.0155665
937.346	0.0155451
937.424	0.0154661
937.503	0.0154121
937.581	0.0155284
937.659	0.0156011
937.737	0.0156561
937.815	0.0154974
937.893	0.0153697
937.971	0.0155626
938.049	0.0155936
938.128	0.0154456
938.206	0.0155648
938.284	0.0155045
938.362	0.0155862
938.440	0.0154945
938.518	0.0155392
938.596	0.0154634
938.674	0.0154719
938.753	0.0153473
938.831	0.0154433
938.909	0.0155031
938.987	0.0154572
939.065	0.0154574
939.143	0.0153568
939.221	0.0154242
939.299	0.0154767
939.378	0.0154231
939.456	0.0153271
939.534	0.0152988
939.612	0.0154697
939.690	0.0154990
939.768	0.0155286
939.846	0.0154836
939.924	0.0154031
940.003	0.0154064
940.081	0.0155181
940.159	0.0154172
940.237	0.0154296
940.315	0.0155496
940.393	0.0155377
940.471	0.0155113
940.549	0.0154308
940.628	0.0154373
940.706	0.0154996
940.784	0.0156471
940.862	0.0155621
940.940	0.0154636
941.018	0.0155956
941.096	0.0156131
941.174	0.0154994
941.253	0.0154250
941.331	0.0155482
941.409	0.0154440
941.487	0.0155839
941.565	0.0155325
941.643	0.0154965
941.721	0.0154678
941.799	0.0156167
941.878	0.0154803
941.956	0.0157585
942.034	0.0156174
942.112	0.0154935
942.190	0.0155769
942.268	0.0155255
942.346	0.0153060
942.424	0.0155219
942.503	0.0155048
942.581	0.0157526
942.659	0.0155083
942.737	0.0155692
942.815	0.0154963
942.893	0.0154226
942.971	0.0156213
943.049	0.0156333
943.128	0.0157010
943.206	0.0157674
943.284	0.0157149
943.362	0.0156261
943.440	0.0155856
943.518	0.0155494
943.596	0.0156281
943.674	0.0155914
943.753	0.0155846
943.831	0.0154929
943.909	0.0154773
943.987	0.0156784
944.065	0.0155504
944.143	0.0155279
944.221	0.0155467
944.299	0.0155477
944.378	0.0154953
944.456	0.0154304
944.534	0.0155677
944.612	0.0155107
944.690	0.0154372
944.768	0.0154969
944.846	0.0153745
944.924	0.0154037
945.003	0.0154369
945.081	0.0153381
945.159	0.0152555
945.237	0.0153315
945.315	0.0153800
945.393	0.0153835
945.471	0.0153637
945.549	0.0154047
945.628	0.0153389
945.706	0.0152214
945.784	0.0153101
945.862	0.0152174
945.940	0.0151383
946.018	0.0154468
946.096	0.0153792
946.174	0.0154362
946.253	0.0154530
946.331	0.0152646
946.409	0.0154139
946.487	0.0154183
946.565	0.0153176
946.643	0.0153057
946.721	0.0154299
946.799	0.0153110
946.878	0.0153697
946.956	0.0154266
947.034	0.0154253
947.112	0.0154474
947.190	0.0153445
947.268	0.0152393
947.346	0.0153348
947.424	0.0153317
947.503	0.0155096
947.581	0.0154470
947.659	0.0153642
947.737	0.0153122
947.815	0.0153539
947.893	0.0154220
947.971	0.0153209
948.049	0.0153500
948.128	0.0154012
948.206	0.0153307
948.284	0.0154272
948.362	0.0154733
948.440	0.0153194
948.518	0.0152225
948.596	0.0152813
948.674	0.0153552
948.753	0.0154405
948.831	0.0155021
948.909	0.0152903
948.987	0.0153845
949.065	0.0154269
949.143	0.0155264
949.221	0.0153501
949.299	0.0153565
949.378	0.0152901
949.456	0.0154283
949.534	0.0154298
949.612	0.0154693
949.690	0.0155000
949.768	0.0152386
949.846	0.0155451
949.924	0.0154882
