06/29/2022	23:08:46	Ver.	4.1	UNKNOWN
Optical Delay	630.002507	Delta X		0.078125	Sweeps	1	Scan Rate	0/0
Coordinates	Axis 1	NaN	Axis 2	NaN	Axis 3	NaN	Axis 4	NaN	Axis 5	NaN	Axis 6	0.000000
TX Power	0.000000	RX Power	0.000000

630.003	0.0156631
630.081	0.0155851
630.159	0.0156940
630.237	0.0156914
630.315	0.0156615
630.393	0.0156913
630.471	0.0156320
630.549	0.0156295
630.628	0.0156104
630.706	0.0156655
630.784	0.0157399
630.862	0.0156539
630.940	0.0158412
631.018	0.0157153
631.096	0.0157300
631.174	0.0155965
631.253	0.0157340
631.331	0.0158009
631.409	0.0158905
631.487	0.0158382
631.565	0.0157655
631.643	0.0156594
631.721	0.0156998
631.799	0.0158887
631.878	0.0158486
631.956	0.0158544
632.034	0.0157021
632.112	0.0157505
632.190	0.0158576
632.268	0.0159278
632.346	0.0158086
632.424	0.0158178
632.503	0.0158166
632.581	0.0157582
632.659	0.0158844
632.737	0.0157915
632.815	0.0158063
632.893	0.0158662
632.971	0.0157610
633.049	0.0158852
633.128	0.0158920
633.206	0.0157348
633.284	0.0157085
633.362	0.0157870
633.440	0.0157281
633.518	0.0158254
633.596	0.0157681
633.674	0.0157339
633.753	0.0156953
633.831	0.0157016
633.909	0.0155544
633.987	0.0156866
634.065	0.0157253
634.143	0.0155343
634.221	0.0157214
634.299	0.0157904
634.378	0.0156782
634.456	0.0157796
634.534	0.0155984
634.612	0.0155392
634.690	0.0156371
634.768	0.0155978
634.846	0.0157207
634.924	0.0156303
635.003	0.0155682
635.081	0.0156042
635.159	0.0157565
635.237	0.0157228
635.315	0.0156330
635.393	0.0156229
635.471	0.0156380
635.549	0.0156846
635.628	0.0156683
635.706	0.0154871
635.784	0.0154803
635.862	0.0156161
635.940	0.0156515
636.018	0.0156517
636.096	0.0156227
636.174	0.0156699
636.253	0.0156591
636.331	0.0157574
636.409	0.0156322
636.487	0.0156013
636.565	0.0155229
636.643	0.0156757
636.721	0.0157875
636.799	0.0157044
636.878	0.0156040
636.956	0.0156895
637.034	0.0156516
637.112	0.0157429
637.190	0.0156147
637.268	0.0155955
637.346	0.0156800
637.424	0.0155663
637.503	0.0156734
637.581	0.0156409
637.659	0.0158672
637.737	0.0156694
637.815	0.0157348
637.893	0.0156476
637.971	0.0156384
638.049	0.0156905
638.128	0.0156981
638.206	0.0156368
638.284	0.0156283
638.362	0.0157355
638.440	0.0155973
638.518	0.0155816
638.596	0.0156261
638.674	0.0156235
638.753	0.0155697
638.831	0.0157466
638.909	0.0156128
638.987	0.0155907
639.065	0.0156920
639.143	0.0156093
639.221	0.0155007
639.299	0.0156407
639.378	0.0155613
639.456	0.0155859
639.534	0.0156609
639.612	0.0157115
639.690	0.0155901
639.768	0.0155281
639.846	0.0155920
639.924	0.0156896
640.003	0.0155292
640.081	0.0157224
640.159	0.0156953
640.237	0.0156719
640.315	0.0156432
640.393	0.0155970
640.471	0.0156870
640.549	0.0157808
640.628	0.0156235
640.706	0.0155132
640.784	0.0156763
640.862	0.0157046
640.940	0.0156446
641.018	0.0156779
641.096	0.0157085
641.174	0.0155387
641.253	0.0156680
641.331	0.0156772
641.409	0.0156503
641.487	0.0155658
641.565	0.0156696
641.643	0.0155409
641.721	0.0156086
641.799	0.0156131
641.878	0.0156965
641.956	0.0157899
642.034	0.0155573
642.112	0.0157445
642.190	0.0154843
642.268	0.0155154
642.346	0.0154693
642.424	0.0156348
642.503	0.0156153
642.581	0.0155552
642.659	0.0155578
642.737	0.0156279
642.815	0.0156731
642.893	0.0156894
642.971	0.0155048
643.049	0.0155489
643.128	0.0157095
643.206	0.0156079
643.284	0.0156998
643.362	0.0156216
643.440	0.0156316
643.518	0.0155780
643.596	0.0156725
643.674	0.0157964
643.753	0.0155156
643.831	0.0157004
643.909	0.0157842
643.987	0.0157281
644.065	0.0157013
644.143	0.0156515
644.221	0.0157366
644.299	0.0157880
644.378	0.0157254
644.456	0.0158186
644.534	0.0157314
644.612	0.0157940
644.690	0.0157358
644.768	0.0157041
644.846	0.0156044
644.924	0.0158510
645.003	0.0156885
645.081	0.0156475
645.159	0.0157833
645.237	0.0158510
645.315	0.0157368
645.393	0.0156939
645.471	0.0156591
645.549	0.0156619
645.628	0.0157532
645.706	0.0157899
645.784	0.0158057
645.862	0.0158060
645.940	0.0158124
646.018	0.0157556
646.096	0.0154934
646.174	0.0158516
646.253	0.0158192
646.331	0.0157552
646.409	0.0156704
646.487	0.0158225
646.565	0.0156967
646.643	0.0157637
646.721	0.0156789
646.799	0.0157363
646.878	0.0156797
646.956	0.0156592
647.034	0.0156721
647.112	0.0157802
647.190	0.0156317
647.268	0.0156663
647.346	0.0157485
647.424	0.0158001
647.503	0.0156835
647.581	0.0156293
647.659	0.0157188
647.737	0.0156013
647.815	0.0156334
647.893	0.0157255
647.971	0.0157264
648.049	0.0158184
648.128	0.0156934
648.206	0.0156728
648.284	0.0157650
648.362	0.0157545
648.440	0.0159083
648.518	0.0157184
648.596	0.0156896
648.674	0.0157653
648.753	0.0157818
648.831	0.0158010
648.909	0.0157435
648.987	0.0157906
649.065	0.0157023
649.143	0.0158543
649.221	0.0156700
649.299	0.0157262
649.378	0.0157162
649.456	0.0156599
649.534	0.0157191
649.612	0.0157417
649.690	0.0156255
649.768	0.0158066
649.846	0.0157619
649.924	0.0156512
650.003	0.0156020
650.081	0.0155470
650.159	0.0157629
650.237	0.0156748
650.315	0.0157178
650.393	0.0157531
650.471	0.0156774
650.549	0.0158206
650.628	0.0157255
650.706	0.0156010
650.784	0.0157024
650.862	0.0156960
650.940	0.0156615
651.018	0.0157228
651.096	0.0156800
651.174	0.0155771
651.253	0.0156715
651.331	0.0157353
651.409	0.0158038
651.487	0.0157273
651.565	0.0156916
651.643	0.0157131
651.721	0.0156499
651.799	0.0155629
651.878	0.0156917
651.956	0.0157487
652.034	0.0157322
652.112	0.0156902
652.190	0.0156888
652.268	0.0156176
652.346	0.0157431
652.424	0.0156071
652.503	0.0155394
652.581	0.0157729
652.659	0.0158276
652.737	0.0157245
652.815	0.0156340
652.893	0.0157977
652.971	0.0157177
653.049	0.0155840
653.128	0.0156094
653.206	0.0156308
653.284	0.0157172
653.362	0.0157005
653.440	0.0158247
653.518	0.0156767
653.596	0.0155897
653.674	0.0157323
653.753	0.0157562
653.831	0.0155424
653.909	0.0156474
653.987	0.0158683
654.065	0.0156961
654.143	0.0157596
654.221	0.0157909
654.299	0.0156734
654.378	0.0156843
654.456	0.0157030
654.534	0.0156460
654.612	0.0157413
654.690	0.0158098
654.768	0.0157176
654.846	0.0157325
654.924	0.0156390
655.003	0.0156085
655.081	0.0157381
655.159	0.0157644
655.237	0.0157497
655.315	0.0157829
655.393	0.0159529
655.471	0.0158804
655.549	0.0157224
655.628	0.0158141
655.706	0.0157418
655.784	0.0158126
655.862	0.0158463
655.940	0.0158548
656.018	0.0158723
656.096	0.0157930
656.174	0.0157882
656.253	0.0158008
656.331	0.0157475
656.409	0.0159789
656.487	0.0158051
656.565	0.0157539
656.643	0.0157839
656.721	0.0156914
656.799	0.0156326
656.878	0.0158753
656.956	0.0157478
657.034	0.0158627
657.112	0.0156788
657.190	0.0158408
657.268	0.0158566
657.346	0.0156470
657.424	0.0156425
657.503	0.0156622
657.581	0.0157070
657.659	0.0156862
657.737	0.0158092
657.815	0.0157608
657.893	0.0157526
657.971	0.0157179
658.049	0.0158375
658.128	0.0157175
658.206	0.0157502
658.284	0.0157883
658.362	0.0158475
658.440	0.0158704
658.518	0.0158925
658.596	0.0157416
658.674	0.0156811
658.753	0.0157350
658.831	0.0156908
658.909	0.0156033
658.987	0.0156584
659.065	0.0158017
659.143	0.0157365
659.221	0.0156118
659.299	0.0157213
659.378	0.0157342
659.456	0.0156439
659.534	0.0156589
659.612	0.0157558
659.690	0.0157497
659.768	0.0156479
659.846	0.0155756
659.924	0.0157883
660.003	0.0156380
660.081	0.0157458
660.159	0.0156322
660.237	0.0156763
660.315	0.0157209
660.393	0.0157281
660.471	0.0157681
660.549	0.0158745
660.628	0.0157558
660.706	0.0156788
660.784	0.0158521
660.862	0.0157146
660.940	0.0157121
661.018	0.0156320
661.096	0.0157111
661.174	0.0156142
661.253	0.0155322
661.331	0.0154764
661.409	0.0156660
661.487	0.0157455
661.565	0.0155655
661.643	0.0155148
661.721	0.0155886
661.799	0.0157027
661.878	0.0156238
661.956	0.0155154
662.034	0.0155875
662.112	0.0156515
662.190	0.0155950
662.268	0.0156238
662.346	0.0155727
662.424	0.0156171
662.503	0.0155650
662.581	0.0156730
662.659	0.0155820
662.737	0.0154836
662.815	0.0157159
662.893	0.0156757
662.971	0.0155524
663.049	0.0156355
663.128	0.0157038
663.206	0.0156174
663.284	0.0155867
663.362	0.0157870
663.440	0.0155782
663.518	0.0156270
663.596	0.0156377
663.674	0.0156450
663.753	0.0157182
663.831	0.0156033
663.909	0.0156144
663.987	0.0156649
664.065	0.0156732
664.143	0.0156855
664.221	0.0156379
664.299	0.0156865
664.378	0.0155975
664.456	0.0156359
664.534	0.0157141
664.612	0.0157706
664.690	0.0155682
664.768	0.0157163
664.846	0.0156850
664.924	0.0157118
665.003	0.0157152
665.081	0.0156195
665.159	0.0156645
665.237	0.0156416
665.315	0.0155836
665.393	0.0156431
665.471	0.0156223
665.549	0.0158544
665.628	0.0156184
665.706	0.0157476
665.784	0.0157320
665.862	0.0157725
665.940	0.0158174
666.018	0.0157905
666.096	0.0158041
666.174	0.0156330
666.253	0.0155845
666.331	0.0156493
666.409	0.0158512
666.487	0.0157973
666.565	0.0159193
666.643	0.0157287
666.721	0.0156066
666.799	0.0157298
666.878	0.0156224
666.956	0.0155807
667.034	0.0158073
667.112	0.0156744
667.190	0.0157539
667.268	0.0158250
667.346	0.0157551
667.424	0.0157431
667.503	0.0157281
667.581	0.0157611
667.659	0.0158389
667.737	0.0157344
667.815	0.0158155
667.893	0.0156767
667.971	0.0156999
668.049	0.0158203
668.128	0.0158436
668.206	0.0157845
668.284	0.0157034
668.362	0.0157849
668.440	0.0157515
668.518	0.0157097
668.596	0.0157346
668.674	0.0157035
668.753	0.0157520
668.831	0.0157704
668.909	0.0156927
668.987	0.0157005
669.065	0.0158669
669.143	0.0157838
669.221	0.0157396
669.299	0.0157044
669.378	0.0156683
669.456	0.0157652
669.534	0.0158355
669.612	0.0159142
669.690	0.0157722
669.768	0.0157213
669.846	0.0156754
669.924	0.0157899
670.003	0.0157124
670.081	0.0156908
670.159	0.0157836
670.237	0.0156748
670.315	0.0156993
670.393	0.0157761
670.471	0.0156628
670.549	0.0158058
670.628	0.0156691
670.706	0.0156899
670.784	0.0156954
670.862	0.0158104
670.940	0.0158118
671.018	0.0158223
671.096	0.0158244
671.174	0.0157876
671.253	0.0158116
671.331	0.0157760
671.409	0.0157095
671.487	0.0158064
671.565	0.0157001
671.643	0.0158301
671.721	0.0157556
671.799	0.0157027
671.878	0.0157553
671.956	0.0156562
672.034	0.0156353
672.112	0.0156398
672.190	0.0155769
672.268	0.0157782
672.346	0.0157230
672.424	0.0155751
672.503	0.0157010
672.581	0.0157793
672.659	0.0157178
672.737	0.0158064
672.815	0.0156608
672.893	0.0157475
672.971	0.0157246
673.049	0.0157874
673.128	0.0157214
673.206	0.0156766
673.284	0.0158352
673.362	0.0157986
673.440	0.0157889
673.518	0.0157679
673.596	0.0157538
673.674	0.0157495
673.753	0.0157574
673.831	0.0157336
673.909	0.0157082
673.987	0.0156062
674.065	0.0158669
674.143	0.0157625
674.221	0.0157774
674.299	0.0156470
674.378	0.0155769
674.456	0.0156741
674.534	0.0157519
674.612	0.0155767
674.690	0.0157243
674.768	0.0157784
674.846	0.0157398
674.924	0.0157343
675.003	0.0156690
675.081	0.0156564
675.159	0.0158091
675.237	0.0157938
675.315	0.0157165
675.393	0.0157522
675.471	0.0158610
675.549	0.0155728
675.628	0.0157919
675.706	0.0157031
675.784	0.0156203
675.862	0.0157073
675.940	0.0156824
676.018	0.0155767
676.096	0.0155465
676.174	0.0154213
676.253	0.0157589
676.331	0.0157050
676.409	0.0155921
676.487	0.0157836
676.565	0.0157598
676.643	0.0158177
676.721	0.0157729
676.799	0.0156745
676.878	0.0158471
676.956	0.0158126
677.034	0.0158001
677.112	0.0158445
677.190	0.0157387
677.268	0.0156754
677.346	0.0158181
677.424	0.0158405
677.503	0.0156506
677.581	0.0156905
677.659	0.0156585
677.737	0.0156661
677.815	0.0156831
677.893	0.0157365
677.971	0.0158266
678.049	0.0158081
678.128	0.0158392
678.206	0.0157365
678.284	0.0157407
678.362	0.0157935
678.440	0.0158897
678.518	0.0158641
678.596	0.0158105
678.674	0.0157613
678.753	0.0157452
678.831	0.0158014
678.909	0.0157429
678.987	0.0157128
679.065	0.0157877
679.143	0.0157065
679.221	0.0158205
679.299	0.0157288
679.378	0.0158205
679.456	0.0158947
679.534	0.0158122
679.612	0.0158005
679.690	0.0158913
679.768	0.0159715
679.846	0.0158309
679.924	0.0158296
680.003	0.0157717
680.081	0.0158945
680.159	0.0159652
680.237	0.0160475
680.315	0.0158427
680.393	0.0158788
680.471	0.0158336
680.549	0.0159180
680.628	0.0157639
680.706	0.0156483
680.784	0.0159003
680.862	0.0158804
680.940	0.0158099
681.018	0.0159693
681.096	0.0157947
681.174	0.0157304
681.253	0.0157680
681.331	0.0158654
681.409	0.0158299
681.487	0.0159071
681.565	0.0158979
681.643	0.0159081
681.721	0.0159467
681.799	0.0159048
681.878	0.0157513
681.956	0.0158086
682.034	0.0156680
682.112	0.0159000
682.190	0.0159478
682.268	0.0158586
682.346	0.0157801
682.424	0.0156567
682.503	0.0155781
682.581	0.0157897
682.659	0.0156850
682.737	0.0157259
682.815	0.0156329
682.893	0.0157022
682.971	0.0157681
683.049	0.0159032
683.128	0.0158050
683.206	0.0157052
683.284	0.0156804
683.362	0.0157571
683.440	0.0158241
683.518	0.0156656
683.596	0.0158156
683.674	0.0158608
683.753	0.0156644
683.831	0.0158969
683.909	0.0158530
683.987	0.0158031
684.065	0.0158033
684.143	0.0158144
684.221	0.0157949
684.299	0.0156529
684.378	0.0158379
684.456	0.0158659
684.534	0.0156818
684.612	0.0156052
684.690	0.0156848
684.768	0.0156723
684.846	0.0155741
684.924	0.0156097
685.003	0.0157802
685.081	0.0156704
685.159	0.0158230
685.237	0.0157470
685.315	0.0157847
685.393	0.0157646
685.471	0.0158804
685.549	0.0156733
685.628	0.0157500
685.706	0.0156597
685.784	0.0159119
685.862	0.0157658
685.940	0.0157091
686.018	0.0158886
686.096	0.0157128
686.174	0.0155810
686.253	0.0156464
686.331	0.0157879
686.409	0.0157468
686.487	0.0155919
686.565	0.0155452
686.643	0.0155877
686.721	0.0155478
686.799	0.0155984
686.878	0.0156174
686.956	0.0157018
687.034	0.0156845
687.112	0.0156591
687.190	0.0156845
687.268	0.0157727
687.346	0.0156845
687.424	0.0158398
687.503	0.0156522
687.581	0.0156796
687.659	0.0155961
687.737	0.0155850
687.815	0.0154716
687.893	0.0157098
687.971	0.0156634
688.049	0.0156313
688.128	0.0155759
688.206	0.0155666
688.284	0.0156479
688.362	0.0156926
688.440	0.0154568
688.518	0.0155264
688.596	0.0155711
688.674	0.0155909
688.753	0.0155731
688.831	0.0156104
688.909	0.0156085
688.987	0.0156169
689.065	0.0154906
689.143	0.0155481
689.221	0.0156357
689.299	0.0154829
689.378	0.0154941
689.456	0.0156145
689.534	0.0156907
689.612	0.0155510
689.690	0.0155355
689.768	0.0154763
689.846	0.0154808
689.924	0.0155154
690.003	0.0154657
690.081	0.0155029
690.159	0.0155332
690.237	0.0156927
690.315	0.0154925
690.393	0.0156698
690.471	0.0156972
690.549	0.0156929
690.628	0.0156688
690.706	0.0155757
690.784	0.0155806
690.862	0.0155934
690.940	0.0156663
691.018	0.0156456
691.096	0.0155727
691.174	0.0155597
691.253	0.0157257
691.331	0.0155630
691.409	0.0156139
691.487	0.0154675
691.565	0.0155428
691.643	0.0155337
691.721	0.0156244
691.799	0.0155879
691.878	0.0156062
691.956	0.0155006
692.034	0.0156721
692.112	0.0156525
692.190	0.0155730
692.268	0.0156185
692.346	0.0155630
692.424	0.0156668
692.503	0.0155312
692.581	0.0156052
692.659	0.0156618
692.737	0.0156072
692.815	0.0156157
692.893	0.0155620
692.971	0.0156425
693.049	0.0156790
693.128	0.0155064
693.206	0.0154485
693.284	0.0155061
693.362	0.0156354
693.440	0.0156326
693.518	0.0156638
693.596	0.0155607
693.674	0.0155521
693.753	0.0157688
693.831	0.0156068
693.909	0.0155397
693.987	0.0157173
694.065	0.0158170
694.143	0.0157518
694.221	0.0156332
694.299	0.0156818
694.378	0.0156635
694.456	0.0157436
694.534	0.0157272
694.612	0.0157453
694.690	0.0157716
694.768	0.0156712
694.846	0.0156126
694.924	0.0155497
695.003	0.0155346
695.081	0.0156973
695.159	0.0157505
695.237	0.0154966
695.315	0.0156548
695.393	0.0158449
695.471	0.0156709
695.549	0.0156818
695.628	0.0157513
695.706	0.0157143
695.784	0.0155295
695.862	0.0157037
695.940	0.0158158
696.018	0.0156014
696.096	0.0156188
696.174	0.0156833
696.253	0.0157869
696.331	0.0156721
696.409	0.0155991
696.487	0.0158145
696.565	0.0156485
696.643	0.0156713
696.721	0.0156520
696.799	0.0155859
696.878	0.0156009
696.956	0.0155997
697.034	0.0156641
697.112	0.0156444
697.190	0.0155239
697.268	0.0154819
697.346	0.0157496
697.424	0.0155625
697.503	0.0155610
697.581	0.0156504
697.659	0.0155988
697.737	0.0158315
697.815	0.0157145
697.893	0.0155960
697.971	0.0158778
698.049	0.0157198
698.128	0.0157050
698.206	0.0158078
698.284	0.0157660
698.362	0.0157191
698.440	0.0157430
698.518	0.0155972
698.596	0.0156377
698.674	0.0157175
698.753	0.0156506
698.831	0.0154902
698.909	0.0156283
698.987	0.0158157
699.065	0.0156833
699.143	0.0155315
699.221	0.0156475
699.299	0.0156358
699.378	0.0156124
699.456	0.0156316
699.534	0.0157110
699.612	0.0156395
699.690	0.0156519
699.768	0.0157211
699.846	0.0155466
699.924	0.0158208
700.003	0.0157714
700.081	0.0158654
700.159	0.0157737
700.237	0.0157896
700.315	0.0158281
700.393	0.0157995
700.471	0.0158492
700.549	0.0159345
700.628	0.0159626
700.706	0.0158667
700.784	0.0158658
700.862	0.0159856
700.940	0.0159837
701.018	0.0158125
701.096	0.0158025
701.174	0.0158578
701.253	0.0159087
701.331	0.0157747
701.409	0.0157676
701.487	0.0158291
701.565	0.0156448
701.643	0.0158424
701.721	0.0157867
701.799	0.0156029
701.878	0.0156612
701.956	0.0156393
702.034	0.0156583
702.112	0.0156667
702.190	0.0155865
702.268	0.0156039
702.346	0.0155811
702.424	0.0154588
702.503	0.0156213
702.581	0.0156797
702.659	0.0157220
702.737	0.0156770
702.815	0.0157092
702.893	0.0157159
702.971	0.0156984
703.049	0.0156814
703.128	0.0158529
703.206	0.0158028
703.284	0.0157877
703.362	0.0159023
703.440	0.0158904
703.518	0.0159087
703.596	0.0159214
703.674	0.0156899
703.753	0.0159110
703.831	0.0157957
703.909	0.0157270
703.987	0.0158444
704.065	0.0158397
704.143	0.0158160
704.221	0.0156676
704.299	0.0157500
704.378	0.0157638
704.456	0.0156873
704.534	0.0156847
704.612	0.0154773
704.690	0.0156751
704.768	0.0155769
704.846	0.0155762
704.924	0.0155770
705.003	0.0156342
705.081	0.0154913
705.159	0.0155873
705.237	0.0154524
705.315	0.0155511
705.393	0.0157024
705.471	0.0156212
705.549	0.0157545
705.628	0.0158836
705.706	0.0157009
705.784	0.0156544
705.862	0.0156957
705.940	0.0156950
706.018	0.0157288
706.096	0.0156993
706.174	0.0157272
706.253	0.0158690
706.331	0.0158114
706.409	0.0157996
706.487	0.0156178
706.565	0.0157332
706.643	0.0157949
706.721	0.0158008
706.799	0.0157881
706.878	0.0156757
706.956	0.0155567
707.034	0.0157744
707.112	0.0157425
707.190	0.0155294
707.268	0.0156232
707.346	0.0155596
707.424	0.0156164
707.503	0.0153708
707.581	0.0155574
707.659	0.0156553
707.737	0.0156258
707.815	0.0155507
707.893	0.0155979
707.971	0.0155384
708.049	0.0156966
708.128	0.0156016
708.206	0.0156762
708.284	0.0156464
708.362	0.0156458
708.440	0.0156953
708.518	0.0157480
708.596	0.0158605
708.674	0.0157249
708.753	0.0157798
708.831	0.0156721
708.909	0.0157069
708.987	0.0156779
709.065	0.0157407
709.143	0.0156001
709.221	0.0155613
709.299	0.0155198
709.378	0.0156612
709.456	0.0157289
709.534	0.0156999
709.612	0.0156993
709.690	0.0155301
709.768	0.0155769
709.846	0.0155811
709.924	0.0157177
710.003	0.0156058
710.081	0.0155962
710.159	0.0155570
710.237	0.0157719
710.315	0.0155403
710.393	0.0156460
710.471	0.0156624
710.549	0.0157475
710.628	0.0156311
710.706	0.0158109
710.784	0.0156438
710.862	0.0158469
710.940	0.0157410
711.018	0.0158250
711.096	0.0158402
711.174	0.0158630
711.253	0.0158430
711.331	0.0157336
711.409	0.0156872
711.487	0.0157160
711.565	0.0155946
711.643	0.0156839
711.721	0.0156834
711.799	0.0156531
711.878	0.0155926
711.956	0.0154031
712.034	0.0154865
712.112	0.0154013
712.190	0.0154166
712.268	0.0154750
712.346	0.0153627
712.424	0.0154482
712.503	0.0155077
712.581	0.0155265
712.659	0.0155486
712.737	0.0155177
712.815	0.0156269
712.893	0.0156952
712.971	0.0156792
713.049	0.0157674
713.128	0.0158179
713.206	0.0157661
713.284	0.0158908
713.362	0.0159621
713.440	0.0158126
713.518	0.0158510
713.596	0.0157867
713.674	0.0158338
713.753	0.0158773
713.831	0.0158183
713.909	0.0157077
713.987	0.0157118
714.065	0.0157796
714.143	0.0156579
714.221	0.0157394
714.299	0.0156564
714.378	0.0156386
714.456	0.0155518
714.534	0.0155972
714.612	0.0156686
714.690	0.0155600
714.768	0.0155908
714.846	0.0157038
714.924	0.0157298
715.003	0.0155173
715.081	0.0157571
715.159	0.0156577
715.237	0.0156520
715.315	0.0156269
715.393	0.0155836
715.471	0.0155353
715.549	0.0155238
715.628	0.0153661
715.706	0.0153561
715.784	0.0153082
715.862	0.0153416
715.940	0.0153370
716.018	0.0152612
716.096	0.0152576
716.174	0.0152672
716.253	0.0153431
716.331	0.0154068
716.409	0.0154269
716.487	0.0154036
716.565	0.0154942
716.643	0.0154960
716.721	0.0155225
716.799	0.0155187
716.878	0.0157041
716.956	0.0158711
717.034	0.0158049
717.112	0.0156856
717.190	0.0157357
717.268	0.0159114
717.346	0.0159837
717.424	0.0159731
717.503	0.0159304
717.581	0.0157700
717.659	0.0159608
717.737	0.0158469
717.815	0.0158526
717.893	0.0158822
717.971	0.0156629
718.049	0.0157961
718.128	0.0156208
718.206	0.0156280
718.284	0.0155031
718.362	0.0155614
718.440	0.0154788
718.518	0.0153399
718.596	0.0152576
718.674	0.0152628
718.753	0.0153647
718.831	0.0153691
718.909	0.0154076
718.987	0.0153149
719.065	0.0153854
719.143	0.0154257
719.221	0.0153354
719.299	0.0152000
719.378	0.0154823
719.456	0.0156495
719.534	0.0156486
719.612	0.0156990
719.690	0.0157278
719.768	0.0158115
719.846	0.0158878
719.924	0.0159406
720.003	0.0159864
720.081	0.0159621
720.159	0.0159749
720.237	0.0160268
720.315	0.0159876
720.393	0.0160188
720.471	0.0158398
720.549	0.0157570
720.628	0.0157738
720.706	0.0158121
720.784	0.0156657
720.862	0.0156463
720.940	0.0156570
721.018	0.0155578
721.096	0.0153978
721.174	0.0155340
721.253	0.0154679
721.331	0.0156612
721.409	0.0153669
721.487	0.0154132
721.565	0.0154842
721.643	0.0153141
721.721	0.0155386
721.799	0.0154489
721.878	0.0155145
721.956	0.0154852
722.034	0.0154383
722.112	0.0155838
722.190	0.0155137
722.268	0.0156550
722.346	0.0156708
722.424	0.0156853
722.503	0.0156750
722.581	0.0156171
722.659	0.0156261
722.737	0.0157301
722.815	0.0155906
722.893	0.0156984
722.971	0.0157062
723.049	0.0156243
723.128	0.0157608
723.206	0.0158952
723.284	0.0158479
723.362	0.0158839
723.440	0.0158028
723.518	0.0158045
723.596	0.0160300
723.674	0.0161066
723.753	0.0162175
723.831	0.0162044
723.909	0.0161114
723.987	0.0162926
724.065	0.0163531
724.143	0.0163207
724.221	0.0163628
724.299	0.0161952
724.378	0.0163108
724.456	0.0161821
724.534	0.0162108
724.612	0.0159097
724.690	0.0158949
724.768	0.0159515
724.846	0.0157418
724.924	0.0156444
725.003	0.0155666
725.081	0.0155702
725.159	0.0154869
725.237	0.0153624
725.315	0.0151439
725.393	0.0150434
725.471	0.0149357
725.549	0.0148588
725.628	0.0148847
725.706	0.0147014
725.784	0.0145931
725.862	0.0146387
725.940	0.0146188
726.018	0.0144920
726.096	0.0145176
726.174	0.0145815
726.253	0.0145152
726.331	0.0145956
726.409	0.0147096
726.487	0.0148724
726.565	0.0149835
726.643	0.0149405
726.721	0.0152410
726.799	0.0153366
726.878	0.0155510
726.956	0.0157570
727.034	0.0159314
727.112	0.0162668
727.190	0.0164406
727.268	0.0168034
727.346	0.0168020
727.424	0.0170287
727.503	0.0172123
727.581	0.0171750
727.659	0.0173126
727.737	0.0173141
727.815	0.0174126
727.893	0.0173231
727.971	0.0174275
728.049	0.0172909
728.128	0.0170975
728.206	0.0168964
728.284	0.0167200
728.362	0.0162213
728.440	0.0161532
728.518	0.0160007
728.596	0.0156996
728.674	0.0154202
728.753	0.0151752
728.831	0.0149976
728.909	0.0148578
728.987	0.0147098
729.065	0.0146892
729.143	0.0146407
729.221	0.0146597
729.299	0.0147102
729.378	0.0146313
729.456	0.0147231
729.534	0.0148204
729.612	0.0148715
729.690	0.0150374
729.768	0.0150896
729.846	0.0151671
729.924	0.0151915
730.003	0.0153664
730.081	0.0154276
730.159	0.0153780
730.237	0.0153864
730.315	0.0154884
730.393	0.0155946
730.471	0.0155771
730.549	0.0155921
730.628	0.0154053
730.706	0.0156016
730.784	0.0156932
730.862	0.0156905
730.940	0.0158512
731.018	0.0158813
731.096	0.0159055
731.174	0.0160519
731.253	0.0161359
731.331	0.0163152
731.409	0.0163347
731.487	0.0164953
731.565	0.0165367
731.643	0.0166393
731.721	0.0165644
731.799	0.0165544
731.878	0.0166268
731.956	0.0166753
732.034	0.0166145
732.112	0.0164279
732.190	0.0163406
732.268	0.0163346
732.346	0.0162997
732.424	0.0159915
732.503	0.0161509
732.581	0.0159779
732.659	0.0158171
732.737	0.0157287
732.815	0.0154791
732.893	0.0153888
732.971	0.0154426
733.049	0.0154514
733.128	0.0154119
733.206	0.0153222
733.284	0.0153754
733.362	0.0153977
733.440	0.0154111
733.518	0.0155001
733.596	0.0153719
733.674	0.0153670
733.753	0.0153443
733.831	0.0154837
733.909	0.0154327
733.987	0.0154477
734.065	0.0155119
734.143	0.0156019
734.221	0.0154847
734.299	0.0155359
734.378	0.0155460
734.456	0.0155630
734.534	0.0156401
734.612	0.0157037
734.690	0.0156416
734.768	0.0154430
734.846	0.0156092
734.924	0.0156263
735.003	0.0154832
735.081	0.0158332
735.159	0.0157229
735.237	0.0155624
735.315	0.0157654
735.393	0.0159154
735.471	0.0157936
735.549	0.0160168
735.628	0.0159913
735.706	0.0160404
735.784	0.0161700
735.862	0.0161504
735.940	0.0162646
736.018	0.0163084
736.096	0.0163467
736.174	0.0162244
736.253	0.0163248
736.331	0.0162765
736.409	0.0161658
736.487	0.0161377
736.565	0.0159335
736.643	0.0158694
736.721	0.0157230
736.799	0.0154808
736.878	0.0155032
736.956	0.0153453
737.034	0.0152443
737.112	0.0150909
737.190	0.0151139
737.268	0.0150999
737.346	0.0150937
737.424	0.0150412
737.503	0.0151571
737.581	0.0151817
737.659	0.0152023
737.737	0.0151967
737.815	0.0153571
737.893	0.0156890
737.971	0.0157478
738.049	0.0155947
738.128	0.0156995
738.206	0.0156749
738.284	0.0156902
738.362	0.0157681
738.440	0.0158673
738.518	0.0158484
738.596	0.0157966
738.674	0.0158197
738.753	0.0158041
738.831	0.0157282
738.909	0.0157405
738.987	0.0156639
739.065	0.0156935
739.143	0.0156855
739.221	0.0156144
739.299	0.0154957
739.378	0.0156660
739.456	0.0156628
739.534	0.0156150
739.612	0.0155565
739.690	0.0155228
739.768	0.0155913
739.846	0.0156174
739.924	0.0157010
740.003	0.0155454
740.081	0.0156512
740.159	0.0156590
740.237	0.0156388
740.315	0.0155551
740.393	0.0156292
740.471	0.0157540
740.549	0.0156392
740.628	0.0156303
740.706	0.0155125
740.784	0.0156879
740.862	0.0158010
740.940	0.0156997
741.018	0.0158333
741.096	0.0158545
741.174	0.0158372
741.253	0.0158822
741.331	0.0159695
741.409	0.0158012
741.487	0.0158767
741.565	0.0159644
741.643	0.0157734
741.721	0.0159178
741.799	0.0159695
741.878	0.0158231
741.956	0.0158004
742.034	0.0158202
742.112	0.0157148
742.190	0.0157591
742.268	0.0157648
742.346	0.0158194
742.424	0.0158685
742.503	0.0159096
742.581	0.0157156
742.659	0.0156940
742.737	0.0155989
742.815	0.0155489
742.893	0.0155413
742.971	0.0153505
743.049	0.0154003
743.128	0.0152485
743.206	0.0151398
743.284	0.0150748
743.362	0.0151855
743.440	0.0150710
743.518	0.0148868
743.596	0.0149986
743.674	0.0149492
743.753	0.0150922
743.831	0.0151115
743.909	0.0152900
743.987	0.0152927
744.065	0.0152803
744.143	0.0153555
744.221	0.0155729
744.299	0.0156231
744.378	0.0156972
744.456	0.0158425
744.534	0.0158532
744.612	0.0159813
744.690	0.0157207
744.768	0.0159227
744.846	0.0158826
744.924	0.0158870
745.003	0.0158734
745.081	0.0158221
745.159	0.0157056
745.237	0.0158409
745.315	0.0158056
745.393	0.0159665
745.471	0.0160104
745.549	0.0160829
745.628	0.0162709
745.706	0.0164993
745.784	0.0164237
745.862	0.0165923
745.940	0.0167526
746.018	0.0166927
746.096	0.0168761
746.174	0.0169533
746.253	0.0169447
746.331	0.0169642
746.409	0.0169386
746.487	0.0168571
746.565	0.0167838
746.643	0.0166143
746.721	0.0164115
746.799	0.0163516
746.878	0.0162026
746.956	0.0158305
747.034	0.0156720
747.112	0.0154937
747.190	0.0150878
747.268	0.0149861
747.346	0.0148792
747.424	0.0148769
747.503	0.0147323
747.581	0.0145243
747.659	0.0145634
747.737	0.0143945
747.815	0.0144448
747.893	0.0145686
747.971	0.0144944
748.049	0.0145975
748.128	0.0146795
748.206	0.0149100
748.284	0.0150994
748.362	0.0151034
748.440	0.0152151
748.518	0.0154163
748.596	0.0156452
748.674	0.0157542
748.753	0.0159767
748.831	0.0160123
748.909	0.0162026
748.987	0.0164518
749.065	0.0165599
749.143	0.0165367
749.221	0.0164221
749.299	0.0165732
749.378	0.0165730
749.456	0.0164546
749.534	0.0164818
749.612	0.0165029
749.690	0.0163729
749.768	0.0163321
749.846	0.0162341
749.924	0.0162050
750.003	0.0162843
750.081	0.0162310
750.159	0.0160357
750.237	0.0161131
750.315	0.0161304
750.393	0.0160829
750.471	0.0161148
750.549	0.0160607
750.628	0.0160609
750.706	0.0160049
750.784	0.0161791
750.862	0.0159776
750.940	0.0159039
751.018	0.0159531
751.096	0.0161367
751.174	0.0163074
751.253	0.0161016
751.331	0.0160563
751.409	0.0160535
751.487	0.0158570
751.565	0.0159969
751.643	0.0160710
751.721	0.0159805
751.799	0.0159122
751.878	0.0159588
751.956	0.0158469
752.034	0.0158805
752.112	0.0158529
752.190	0.0156908
752.268	0.0156645
752.346	0.0156975
752.424	0.0156882
752.503	0.0155625
752.581	0.0154339
752.659	0.0154258
752.737	0.0152793
752.815	0.0154180
752.893	0.0153355
752.971	0.0154484
753.049	0.0154105
753.128	0.0154906
753.206	0.0154864
753.284	0.0153258
753.362	0.0154863
753.440	0.0155425
753.518	0.0155138
753.596	0.0155099
753.674	0.0155348
753.753	0.0157273
753.831	0.0157501
753.909	0.0159644
753.987	0.0157380
754.065	0.0157403
754.143	0.0157903
754.221	0.0157989
754.299	0.0158067
754.378	0.0158502
754.456	0.0157561
754.534	0.0158459
754.612	0.0157204
754.690	0.0158035
754.768	0.0159396
754.846	0.0158016
754.924	0.0157764
755.003	0.0158199
755.081	0.0158823
755.159	0.0158005
755.237	0.0160241
755.315	0.0159846
755.393	0.0159451
755.471	0.0158384
755.549	0.0159554
755.628	0.0161172
755.706	0.0158430
755.784	0.0157820
755.862	0.0159620
755.940	0.0159509
756.018	0.0159231
756.096	0.0159282
756.174	0.0159567
756.253	0.0158664
756.331	0.0159155
756.409	0.0158456
756.487	0.0159572
756.565	0.0159463
756.643	0.0158689
756.721	0.0159862
756.799	0.0159788
756.878	0.0160577
756.956	0.0161862
757.034	0.0161456
757.112	0.0162157
757.190	0.0162147
757.268	0.0162222
757.346	0.0162565
757.424	0.0162757
757.503	0.0161436
757.581	0.0159693
757.659	0.0159717
757.737	0.0159450
757.815	0.0158076
757.893	0.0157033
757.971	0.0155434
758.049	0.0154583
758.128	0.0152305
758.206	0.0151327
758.284	0.0149637
758.362	0.0148067
758.440	0.0146480
758.518	0.0147951
758.596	0.0147208
758.674	0.0147494
758.753	0.0148418
758.831	0.0147596
758.909	0.0149188
758.987	0.0149895
759.065	0.0150769
759.143	0.0151564
759.221	0.0153397
759.299	0.0156123
759.378	0.0155266
759.456	0.0157190
759.534	0.0158343
759.612	0.0159476
759.690	0.0160761
759.768	0.0161319
759.846	0.0161588
759.924	0.0161975
760.003	0.0161513
760.081	0.0162167
760.159	0.0162082
760.237	0.0161234
760.315	0.0161195
760.393	0.0159525
760.471	0.0160270
760.549	0.0158897
760.628	0.0160386
760.706	0.0160857
760.784	0.0159335
760.862	0.0158688
760.940	0.0159455
761.018	0.0159695
761.096	0.0158879
761.174	0.0157133
761.253	0.0157099
761.331	0.0156820
761.409	0.0158179
761.487	0.0156734
761.565	0.0157716
761.643	0.0158665
761.721	0.0157294
761.799	0.0157645
761.878	0.0158493
761.956	0.0156890
762.034	0.0156647
762.112	0.0157420
762.190	0.0156326
762.268	0.0156546
762.346	0.0154838
762.424	0.0154991
762.503	0.0154585
762.581	0.0153504
762.659	0.0156403
762.737	0.0155623
762.815	0.0156098
762.893	0.0155556
762.971	0.0154710
763.049	0.0157482
763.128	0.0157455
763.206	0.0157779
763.284	0.0159352
763.362	0.0158614
763.440	0.0157625
763.518	0.0158662
763.596	0.0158484
763.674	0.0158954
763.753	0.0157117
763.831	0.0156441
763.909	0.0157693
763.987	0.0155284
764.065	0.0154986
764.143	0.0154232
764.221	0.0154523
764.299	0.0153654
764.378	0.0153268
764.456	0.0152638
764.534	0.0151943
764.612	0.0153134
764.690	0.0152984
764.768	0.0153053
764.846	0.0152143
764.924	0.0153741
765.003	0.0152454
765.081	0.0155099
765.159	0.0153963
765.237	0.0153880
765.315	0.0154796
765.393	0.0157114
765.471	0.0157149
765.549	0.0155408
765.628	0.0155716
765.706	0.0155252
765.784	0.0158109
765.862	0.0156778
765.940	0.0157676
766.018	0.0156509
766.096	0.0156763
766.174	0.0157252
766.253	0.0157211
766.331	0.0157890
766.409	0.0158817
766.487	0.0158902
766.565	0.0160794
766.643	0.0160371
766.721	0.0160528
766.799	0.0161395
766.878	0.0162834
766.956	0.0161948
767.034	0.0163373
767.112	0.0164234
767.190	0.0163177
767.268	0.0162798
767.346	0.0161946
767.424	0.0162188
767.503	0.0161993
767.581	0.0162453
767.659	0.0161073
767.737	0.0161132
767.815	0.0159434
767.893	0.0159711
767.971	0.0158437
768.049	0.0156470
768.128	0.0154800
768.206	0.0154350
768.284	0.0153172
768.362	0.0153928
768.440	0.0151886
768.518	0.0153651
768.596	0.0152271
768.674	0.0151351
768.753	0.0152547
768.831	0.0154025
768.909	0.0153962
768.987	0.0154195
769.065	0.0154444
769.143	0.0156438
769.221	0.0156960
769.299	0.0157127
769.378	0.0157967
769.456	0.0158348
769.534	0.0159180
769.612	0.0157252
769.690	0.0157345
769.768	0.0158285
769.846	0.0156812
769.924	0.0156469
770.003	0.0155785
770.081	0.0156493
770.159	0.0155940
770.237	0.0155566
770.315	0.0155952
770.393	0.0153367
770.471	0.0154428
770.549	0.0156590
770.628	0.0155249
770.706	0.0156186
770.784	0.0156148
770.862	0.0156107
770.940	0.0155923
771.018	0.0156714
771.096	0.0157143
771.174	0.0157861
771.253	0.0159250
771.331	0.0158645
771.409	0.0159491
771.487	0.0159298
771.565	0.0159338
771.643	0.0160339
771.721	0.0160880
771.799	0.0160633
771.878	0.0159976
771.956	0.0160084
772.034	0.0159543
772.112	0.0161416
772.190	0.0160081
772.268	0.0160363
772.346	0.0161202
772.424	0.0160416
772.503	0.0161309
772.581	0.0162852
772.659	0.0162481
772.737	0.0162453
772.815	0.0161662
772.893	0.0162168
772.971	0.0162182
773.049	0.0162241
773.128	0.0160130
773.206	0.0159341
773.284	0.0161000
773.362	0.0159053
773.440	0.0157198
773.518	0.0158250
773.596	0.0157733
773.674	0.0158022
773.753	0.0157777
773.831	0.0156426
773.909	0.0155859
773.987	0.0154955
774.065	0.0152293
774.143	0.0154509
774.221	0.0154162
774.299	0.0153107
774.378	0.0152650
774.456	0.0153046
774.534	0.0152875
774.612	0.0153124
774.690	0.0153106
774.768	0.0154075
774.846	0.0154221
774.924	0.0156193
775.003	0.0157366
775.081	0.0155542
775.159	0.0158337
775.237	0.0159750
775.315	0.0159352
775.393	0.0158532
775.471	0.0159991
775.549	0.0160021
775.628	0.0159629
775.706	0.0159155
775.784	0.0158560
775.862	0.0159177
775.940	0.0157108
776.018	0.0157302
776.096	0.0156769
776.174	0.0156079
776.253	0.0155776
776.331	0.0156624
776.409	0.0155823
776.487	0.0154272
776.565	0.0156624
776.643	0.0155483
776.721	0.0155109
776.799	0.0156729
776.878	0.0156574
776.956	0.0156195
777.034	0.0158173
777.112	0.0158638
777.190	0.0158328
777.268	0.0158812
777.346	0.0159634
777.424	0.0161279
777.503	0.0161016
777.581	0.0161330
777.659	0.0160794
777.737	0.0159321
777.815	0.0160322
777.893	0.0159339
777.971	0.0158173
778.049	0.0158920
778.128	0.0158932
778.206	0.0158054
778.284	0.0157545
778.362	0.0157857
778.440	0.0157027
778.518	0.0156378
778.596	0.0157956
778.674	0.0157055
778.753	0.0156226
778.831	0.0156650
778.909	0.0154590
778.987	0.0154775
779.065	0.0155772
779.143	0.0156033
779.221	0.0156810
779.299	0.0157780
779.378	0.0155052
779.456	0.0157012
779.534	0.0156286
779.612	0.0157464
779.690	0.0158100
779.768	0.0158208
779.846	0.0156524
779.924	0.0156328
780.003	0.0157479
780.081	0.0157133
780.159	0.0157311
780.237	0.0157172
780.315	0.0155650
780.393	0.0157738
780.471	0.0157066
780.549	0.0156801
780.628	0.0157488
780.706	0.0156258
780.784	0.0156844
780.862	0.0157690
780.940	0.0156896
781.018	0.0158014
781.096	0.0158430
781.174	0.0159161
781.253	0.0157903
781.331	0.0158904
781.409	0.0159373
781.487	0.0158841
781.565	0.0157730
781.643	0.0157566
781.721	0.0157616
781.799	0.0157166
781.878	0.0156332
781.956	0.0156097
782.034	0.0156847
782.112	0.0156010
782.190	0.0154410
782.268	0.0154891
782.346	0.0153870
782.424	0.0154088
782.503	0.0154475
782.581	0.0155153
782.659	0.0154219
782.737	0.0153967
782.815	0.0154466
782.893	0.0154705
782.971	0.0154739
783.049	0.0154607
783.128	0.0155410
783.206	0.0156625
783.284	0.0156058
783.362	0.0156805
783.440	0.0156893
783.518	0.0158002
783.596	0.0157018
783.674	0.0158308
783.753	0.0157940
783.831	0.0158546
783.909	0.0157512
783.987	0.0156734
784.065	0.0157333
784.143	0.0157835
784.221	0.0157777
784.299	0.0158007
784.378	0.0158833
784.456	0.0157025
784.534	0.0159133
784.612	0.0159637
784.690	0.0159511
784.768	0.0159957
784.846	0.0159881
784.924	0.0159984
785.003	0.0158931
785.081	0.0157815
785.159	0.0157854
785.237	0.0159552
785.315	0.0159601
785.393	0.0158079
785.471	0.0158556
785.549	0.0157663
785.628	0.0158350
785.706	0.0158049
785.784	0.0156031
785.862	0.0156409
785.940	0.0155164
786.018	0.0155605
786.096	0.0154964
786.174	0.0152610
786.253	0.0155060
786.331	0.0153587
786.409	0.0153761
786.487	0.0152481
786.565	0.0152467
786.643	0.0151987
786.721	0.0151337
786.799	0.0152040
786.878	0.0152673
786.956	0.0151704
787.034	0.0154266
787.112	0.0154726
787.190	0.0154256
787.268	0.0155637
787.346	0.0155259
787.424	0.0157077
787.503	0.0156727
787.581	0.0160124
787.659	0.0158836
787.737	0.0159003
787.815	0.0159615
787.893	0.0159089
787.971	0.0159000
788.049	0.0158907
788.128	0.0158392
788.206	0.0158104
788.284	0.0158288
788.362	0.0158460
788.440	0.0157692
788.518	0.0156174
788.596	0.0156078
788.674	0.0155199
788.753	0.0154768
788.831	0.0154104
788.909	0.0154237
788.987	0.0153487
789.065	0.0154306
789.143	0.0154876
789.221	0.0154127
789.299	0.0153625
789.378	0.0154469
789.456	0.0153757
789.534	0.0154607
789.612	0.0155676
789.690	0.0155440
789.768	0.0157113
789.846	0.0156451
789.924	0.0155293
790.003	0.0155733
790.081	0.0156108
790.159	0.0156819
790.237	0.0157350
790.315	0.0156834
790.393	0.0156398
790.471	0.0155751
790.549	0.0156428
790.628	0.0156181
790.706	0.0156209
790.784	0.0157232
790.862	0.0157793
790.940	0.0157384
791.018	0.0157059
791.096	0.0159090
791.174	0.0160229
791.253	0.0158921
791.331	0.0159020
791.409	0.0159322
791.487	0.0160036
791.565	0.0157326
791.643	0.0157330
791.721	0.0159209
791.799	0.0157891
791.878	0.0158501
791.956	0.0157898
792.034	0.0156563
792.112	0.0155312
792.190	0.0153702
792.268	0.0154137
792.346	0.0153783
792.424	0.0153688
792.503	0.0153686
792.581	0.0154176
792.659	0.0153457
792.737	0.0150738
792.815	0.0153006
792.893	0.0153541
792.971	0.0152943
793.049	0.0153664
793.128	0.0154336
793.206	0.0155025
793.284	0.0155692
793.362	0.0156422
793.440	0.0155910
793.518	0.0157076
793.596	0.0157393
793.674	0.0157856
793.753	0.0158945
793.831	0.0158630
793.909	0.0158923
793.987	0.0157674
794.065	0.0157616
794.143	0.0158563
794.221	0.0158105
794.299	0.0158685
794.378	0.0157291
794.456	0.0157051
794.534	0.0154656
794.612	0.0156522
794.690	0.0155788
794.768	0.0155299
794.846	0.0155693
794.924	0.0154401
795.003	0.0152841
795.081	0.0152633
795.159	0.0154384
795.237	0.0153446
795.315	0.0154954
795.393	0.0153928
795.471	0.0154513
795.549	0.0155460
795.628	0.0154919
795.706	0.0156847
795.784	0.0156609
795.862	0.0157545
795.940	0.0157453
796.018	0.0158254
796.096	0.0157473
796.174	0.0158738
796.253	0.0158340
796.331	0.0158440
796.409	0.0159825
796.487	0.0158980
796.565	0.0157562
796.643	0.0157605
796.721	0.0158353
796.799	0.0158670
796.878	0.0158412
796.956	0.0158971
797.034	0.0157833
797.112	0.0156875
797.190	0.0157894
797.268	0.0158615
797.346	0.0158271
797.424	0.0158688
797.503	0.0157712
797.581	0.0157671
797.659	0.0158348
797.737	0.0157846
797.815	0.0157576
797.893	0.0157929
797.971	0.0157349
798.049	0.0155521
798.128	0.0155833
798.206	0.0155544
798.284	0.0156246
798.362	0.0157066
798.440	0.0156040
798.518	0.0156405
798.596	0.0155148
798.674	0.0154175
798.753	0.0155689
798.831	0.0155762
798.909	0.0156445
798.987	0.0156853
799.065	0.0154381
799.143	0.0155288
799.221	0.0155827
799.299	0.0157185
799.378	0.0157060
799.456	0.0155971
799.534	0.0156779
799.612	0.0158677
799.690	0.0157355
799.768	0.0156825
799.846	0.0157804
799.924	0.0159872
800.003	0.0157897
800.081	0.0159016
800.159	0.0158997
800.237	0.0161337
800.315	0.0159323
800.393	0.0159549
800.471	0.0158011
800.549	0.0158070
800.628	0.0159191
800.706	0.0157968
800.784	0.0156743
800.862	0.0156994
800.940	0.0155551
801.018	0.0155783
801.096	0.0155325
801.174	0.0155437
801.253	0.0154930
801.331	0.0155401
801.409	0.0155463
801.487	0.0155927
801.565	0.0154370
801.643	0.0155906
801.721	0.0155753
801.799	0.0156454
801.878	0.0156645
801.956	0.0156015
802.034	0.0156364
802.112	0.0155922
802.190	0.0157774
802.268	0.0157130
802.346	0.0158120
802.424	0.0156671
802.503	0.0156213
802.581	0.0156612
802.659	0.0156688
802.737	0.0155408
802.815	0.0155532
802.893	0.0156566
802.971	0.0157008
803.049	0.0155939
803.128	0.0156078
803.206	0.0158244
803.284	0.0157715
803.362	0.0156620
803.440	0.0157420
803.518	0.0159288
803.596	0.0157890
803.674	0.0158801
803.753	0.0159209
803.831	0.0159872
803.909	0.0160979
803.987	0.0160249
804.065	0.0158385
804.143	0.0157801
804.221	0.0158464
804.299	0.0159468
804.378	0.0159367
804.456	0.0158543
804.534	0.0157914
804.612	0.0158538
804.690	0.0156998
804.768	0.0155464
804.846	0.0156467
804.924	0.0156281
805.003	0.0155939
805.081	0.0156213
805.159	0.0155523
805.237	0.0155868
805.315	0.0156570
805.393	0.0154945
805.471	0.0155377
805.549	0.0155100
805.628	0.0156739
805.706	0.0157232
805.784	0.0156499
805.862	0.0156187
805.940	0.0156558
806.018	0.0156361
806.096	0.0156989
806.174	0.0156674
806.253	0.0156625
806.331	0.0157071
806.409	0.0156654
806.487	0.0157767
806.565	0.0157272
806.643	0.0158003
806.721	0.0157530
806.799	0.0158342
806.878	0.0156245
806.956	0.0157354
807.034	0.0158286
807.112	0.0157984
807.190	0.0157681
807.268	0.0158411
807.346	0.0158016
807.424	0.0157088
807.503	0.0158100
807.581	0.0156699
807.659	0.0158099
807.737	0.0157027
807.815	0.0157606
807.893	0.0158218
807.971	0.0157476
808.049	0.0156545
808.128	0.0157535
808.206	0.0158004
808.284	0.0155478
808.362	0.0157157
808.440	0.0157374
808.518	0.0158231
808.596	0.0156390
808.674	0.0156339
808.753	0.0157720
808.831	0.0156138
808.909	0.0156544
808.987	0.0155724
809.065	0.0156232
809.143	0.0156383
809.221	0.0155654
809.299	0.0156206
809.378	0.0155132
809.456	0.0154403
809.534	0.0155495
809.612	0.0156641
809.690	0.0157492
809.768	0.0157063
809.846	0.0157756
809.924	0.0157774
810.003	0.0159549
810.081	0.0158196
810.159	0.0158289
810.237	0.0159155
810.315	0.0159865
810.393	0.0158539
810.471	0.0159522
810.549	0.0159114
810.628	0.0158189
810.706	0.0158550
810.784	0.0159167
810.862	0.0159441
810.940	0.0158399
811.018	0.0158049
811.096	0.0158303
811.174	0.0159684
811.253	0.0159150
811.331	0.0158744
811.409	0.0157774
811.487	0.0158031
811.565	0.0156394
811.643	0.0156910
811.721	0.0158140
811.799	0.0157409
811.878	0.0156935
811.956	0.0156964
812.034	0.0156640
812.112	0.0158463
812.190	0.0155887
812.268	0.0156559
812.346	0.0157624
812.424	0.0156533
812.503	0.0157269
812.581	0.0157265
812.659	0.0157472
812.737	0.0158339
812.815	0.0157155
812.893	0.0156873
812.971	0.0157928
813.049	0.0156349
813.128	0.0157508
813.206	0.0157045
813.284	0.0157433
813.362	0.0157229
813.440	0.0158426
813.518	0.0157297
813.596	0.0156005
813.674	0.0157419
813.753	0.0156762
813.831	0.0156887
813.909	0.0157238
813.987	0.0158424
814.065	0.0156226
814.143	0.0155994
814.221	0.0155950
814.299	0.0155495
814.378	0.0156708
814.456	0.0156952
814.534	0.0156100
814.612	0.0156958
814.690	0.0155514
814.768	0.0155714
814.846	0.0156025
814.924	0.0155839
815.003	0.0154733
815.081	0.0154403
815.159	0.0156007
815.237	0.0156725
815.315	0.0154836
815.393	0.0154533
815.471	0.0155067
815.549	0.0156217
815.628	0.0155925
815.706	0.0155138
815.784	0.0155093
815.862	0.0156867
815.940	0.0156422
816.018	0.0155608
816.096	0.0155926
816.174	0.0156364
816.253	0.0155207
816.331	0.0157677
816.409	0.0156709
816.487	0.0155855
816.565	0.0155621
816.643	0.0156475
816.721	0.0156711
816.799	0.0156131
816.878	0.0157640
816.956	0.0157174
817.034	0.0157602
817.112	0.0157676
817.190	0.0158083
817.268	0.0157586
817.346	0.0156659
817.424	0.0157233
817.503	0.0156945
817.581	0.0158162
817.659	0.0156614
817.737	0.0157548
817.815	0.0157481
817.893	0.0157819
817.971	0.0156472
818.049	0.0155319
818.128	0.0155057
818.206	0.0154934
818.284	0.0154128
818.362	0.0153639
818.440	0.0153503
818.518	0.0154773
818.596	0.0155193
818.674	0.0154452
818.753	0.0154564
818.831	0.0155756
818.909	0.0154012
818.987	0.0156138
819.065	0.0155627
819.143	0.0154070
819.221	0.0155073
819.299	0.0155933
819.378	0.0156237
819.456	0.0157772
819.534	0.0156886
819.612	0.0156882
819.690	0.0157825
819.768	0.0158154
819.846	0.0158148
819.924	0.0157529
820.003	0.0158032
820.081	0.0158333
820.159	0.0158654
820.237	0.0158058
820.315	0.0157968
820.393	0.0158888
820.471	0.0157903
820.549	0.0158207
820.628	0.0158642
820.706	0.0158457
820.784	0.0158018
820.862	0.0157914
820.940	0.0158047
821.018	0.0158410
821.096	0.0156367
821.174	0.0158408
821.253	0.0157731
821.331	0.0156486
821.409	0.0156245
821.487	0.0156294
821.565	0.0156138
821.643	0.0156693
821.721	0.0155099
821.799	0.0155829
821.878	0.0155275
821.956	0.0154041
822.034	0.0153369
822.112	0.0155059
822.190	0.0153746
822.268	0.0154436
822.346	0.0153204
822.424	0.0153672
822.503	0.0151915
822.581	0.0153136
822.659	0.0153281
822.737	0.0153166
822.815	0.0153200
822.893	0.0154253
822.971	0.0152836
823.049	0.0154758
823.128	0.0156074
823.206	0.0153039
823.284	0.0156487
823.362	0.0157673
823.440	0.0157712
823.518	0.0158543
823.596	0.0158927
823.674	0.0158742
823.753	0.0159621
823.831	0.0160963
823.909	0.0160548
823.987	0.0160644
824.065	0.0162434
824.143	0.0160637
824.221	0.0160873
824.299	0.0161211
824.378	0.0160398
824.456	0.0161603
824.534	0.0159943
824.612	0.0159301
824.690	0.0159092
824.768	0.0158959
824.846	0.0157588
824.924	0.0158137
825.003	0.0156689
825.081	0.0156844
825.159	0.0157978
825.237	0.0156874
825.315	0.0156618
825.393	0.0156420
825.471	0.0154298
825.549	0.0155609
825.628	0.0155165
825.706	0.0155177
825.784	0.0154853
825.862	0.0155440
825.940	0.0154034
826.018	0.0155006
826.096	0.0153997
826.174	0.0155677
826.253	0.0154472
826.331	0.0154986
826.409	0.0156071
826.487	0.0154467
826.565	0.0156001
826.643	0.0156754
826.721	0.0156136
826.799	0.0156644
826.878	0.0156295
826.956	0.0155845
827.034	0.0155502
827.112	0.0155609
827.190	0.0156419
827.268	0.0156372
827.346	0.0157729
827.424	0.0156628
827.503	0.0156928
827.581	0.0157549
827.659	0.0157903
827.737	0.0157855
827.815	0.0158713
827.893	0.0158778
827.971	0.0158868
828.049	0.0158604
828.128	0.0158665
828.206	0.0159356
828.284	0.0158985
828.362	0.0159612
828.440	0.0157966
828.518	0.0159026
828.596	0.0159652
828.674	0.0159428
828.753	0.0158936
828.831	0.0157740
828.909	0.0157760
828.987	0.0158231
829.065	0.0158140
829.143	0.0159229
829.221	0.0157457
829.299	0.0157623
829.378	0.0157677
829.456	0.0158177
829.534	0.0158639
829.612	0.0158140
829.690	0.0158178
829.768	0.0156333
829.846	0.0157061
829.924	0.0157107
830.003	0.0156409
830.081	0.0157587
830.159	0.0157133
830.237	0.0156683
830.315	0.0158208
830.393	0.0157248
830.471	0.0157684
830.549	0.0157511
830.628	0.0159098
830.706	0.0159041
830.784	0.0158628
830.862	0.0158538
830.940	0.0159595
831.018	0.0160316
831.096	0.0159501
831.174	0.0159756
831.253	0.0161078
831.331	0.0158891
831.409	0.0159914
831.487	0.0159815
831.565	0.0158711
831.643	0.0157926
831.721	0.0158083
831.799	0.0157740
831.878	0.0157204
831.956	0.0156707
832.034	0.0157258
832.112	0.0157072
832.190	0.0156197
832.268	0.0157975
832.346	0.0156485
832.424	0.0157433
832.503	0.0158546
832.581	0.0156877
832.659	0.0158090
832.737	0.0157249
832.815	0.0157375
832.893	0.0157869
832.971	0.0158754
833.049	0.0158667
833.128	0.0157568
833.206	0.0159095
833.284	0.0158804
833.362	0.0157726
833.440	0.0158780
833.518	0.0158333
833.596	0.0158796
833.674	0.0158698
833.753	0.0159698
833.831	0.0158666
833.909	0.0157765
833.987	0.0158278
834.065	0.0157742
834.143	0.0157145
834.221	0.0157793
834.299	0.0158231
834.378	0.0157578
834.456	0.0157436
834.534	0.0157566
834.612	0.0157462
834.690	0.0158250
834.768	0.0158907
834.846	0.0159056
834.924	0.0158789
835.003	0.0158441
835.081	0.0156986
835.159	0.0157932
835.237	0.0158611
835.315	0.0158662
835.393	0.0156393
835.471	0.0159146
835.549	0.0158951
835.628	0.0157848
835.706	0.0157925
835.784	0.0158434
835.862	0.0157194
835.940	0.0156512
836.018	0.0156637
836.096	0.0158031
836.174	0.0157121
836.253	0.0157990
836.331	0.0157846
836.409	0.0159112
836.487	0.0156213
836.565	0.0156820
836.643	0.0156662
836.721	0.0157108
836.799	0.0158673
836.878	0.0157383
836.956	0.0157629
837.034	0.0158813
837.112	0.0158659
837.190	0.0158730
837.268	0.0157881
837.346	0.0157919
837.424	0.0158668
837.503	0.0158442
837.581	0.0157971
837.659	0.0158666
837.737	0.0158021
837.815	0.0157476
837.893	0.0156517
837.971	0.0157756
838.049	0.0156331
838.128	0.0154866
838.206	0.0156460
838.284	0.0155951
838.362	0.0156840
838.440	0.0156009
838.518	0.0155028
838.596	0.0155672
838.674	0.0156174
838.753	0.0156194
838.831	0.0155874
838.909	0.0157027
838.987	0.0156367
839.065	0.0155286
839.143	0.0154935
839.221	0.0158057
839.299	0.0156392
839.378	0.0156226
839.456	0.0155521
839.534	0.0157296
839.612	0.0156387
839.690	0.0156258
839.768	0.0156017
839.846	0.0155630
839.924	0.0155473
840.003	0.0155910
840.081	0.0156475
840.159	0.0156747
840.237	0.0157265
840.315	0.0155539
840.393	0.0156437
840.471	0.0155778
840.549	0.0156391
840.628	0.0155661
840.706	0.0155414
840.784	0.0154479
840.862	0.0155943
840.940	0.0156696
841.018	0.0155148
841.096	0.0155554
841.174	0.0157506
841.253	0.0155401
841.331	0.0155696
841.409	0.0155431
841.487	0.0156001
841.565	0.0156855
841.643	0.0156894
841.721	0.0156095
841.799	0.0155847
841.878	0.0155514
841.956	0.0155783
842.034	0.0156060
842.112	0.0156715
842.190	0.0157413
842.268	0.0157549
842.346	0.0157671
842.424	0.0157022
842.503	0.0157329
842.581	0.0156544
842.659	0.0157867
842.737	0.0156670
842.815	0.0158293
842.893	0.0157475
842.971	0.0156703
843.049	0.0157811
843.128	0.0157079
843.206	0.0155678
843.284	0.0157049
843.362	0.0155935
843.440	0.0156338
843.518	0.0155662
843.596	0.0156245
843.674	0.0155817
843.753	0.0156207
843.831	0.0154884
843.909	0.0156009
843.987	0.0156842
844.065	0.0154121
844.143	0.0156314
844.221	0.0155266
844.299	0.0154060
844.378	0.0155286
844.456	0.0156024
844.534	0.0156300
844.612	0.0154908
844.690	0.0155097
844.768	0.0154604
844.846	0.0153739
844.924	0.0154293
845.003	0.0155994
845.081	0.0155170
845.159	0.0155523
845.237	0.0156454
845.315	0.0155823
845.393	0.0156487
845.471	0.0156093
845.549	0.0155428
845.628	0.0157157
845.706	0.0156958
845.784	0.0157401
845.862	0.0155581
845.940	0.0155708
846.018	0.0155213
846.096	0.0155690
846.174	0.0157037
846.253	0.0157263
846.331	0.0157558
846.409	0.0156778
846.487	0.0158023
846.565	0.0158446
846.643	0.0158257
846.721	0.0159473
846.799	0.0157928
846.878	0.0158441
846.956	0.0156860
847.034	0.0158591
847.112	0.0158514
847.190	0.0158295
847.268	0.0157277
847.346	0.0157617
847.424	0.0158295
847.503	0.0157626
847.581	0.0158094
847.659	0.0157709
847.737	0.0157890
847.815	0.0157040
847.893	0.0156888
847.971	0.0156113
848.049	0.0156870
848.128	0.0156559
848.206	0.0157136
848.284	0.0157073
848.362	0.0157513
848.440	0.0155759
848.518	0.0156592
848.596	0.0157711
848.674	0.0156887
848.753	0.0155242
848.831	0.0156017
848.909	0.0156667
848.987	0.0156303
849.065	0.0155444
849.143	0.0155579
849.221	0.0155930
849.299	0.0155453
849.378	0.0154269
849.456	0.0156065
849.534	0.0155775
849.612	0.0156142
849.690	0.0156716
849.768	0.0155972
849.846	0.0155561
849.924	0.0155473
850.003	0.0156222
850.081	0.0155708
850.159	0.0157079
850.237	0.0157599
850.315	0.0157069
850.393	0.0155785
850.471	0.0156275
850.549	0.0157574
850.628	0.0156258
850.706	0.0157686
850.784	0.0158259
850.862	0.0157602
850.940	0.0157811
851.018	0.0157999
851.096	0.0157101
851.174	0.0158251
851.253	0.0158533
851.331	0.0157848
851.409	0.0158427
851.487	0.0158845
851.565	0.0159203
851.643	0.0157847
851.721	0.0156934
851.799	0.0157057
851.878	0.0157829
851.956	0.0158159
852.034	0.0158155
852.112	0.0156645
852.190	0.0157556
852.268	0.0154884
852.346	0.0156705
852.424	0.0156113
852.503	0.0157475
852.581	0.0157290
852.659	0.0157417
852.737	0.0155378
852.815	0.0157552
852.893	0.0157127
852.971	0.0156894
853.049	0.0157745
853.128	0.0156776
853.206	0.0157089
853.284	0.0158643
853.362	0.0157854
853.440	0.0158297
853.518	0.0156912
853.596	0.0157683
853.674	0.0157614
853.753	0.0157397
853.831	0.0158205
853.909	0.0156644
853.987	0.0157125
854.065	0.0156650
854.143	0.0158258
854.221	0.0157213
854.299	0.0156085
854.378	0.0156826
854.456	0.0157243
854.534	0.0155531
854.612	0.0156475
854.690	0.0156632
854.768	0.0156658
854.846	0.0156767
854.924	0.0157483
855.003	0.0156158
855.081	0.0156983
855.159	0.0158017
855.237	0.0156743
855.315	0.0156449
855.393	0.0156877
855.471	0.0157100
855.549	0.0156752
855.628	0.0156522
855.706	0.0158800
855.784	0.0157526
855.862	0.0157076
855.940	0.0156883
856.018	0.0157130
856.096	0.0157723
856.174	0.0156850
856.253	0.0156423
856.331	0.0157368
856.409	0.0157555
856.487	0.0156282
856.565	0.0156936
856.643	0.0158302
856.721	0.0157809
856.799	0.0158477
856.878	0.0158711
856.956	0.0158170
857.034	0.0158372
857.112	0.0157762
857.190	0.0158337
857.268	0.0158454
857.346	0.0158029
857.424	0.0158929
857.503	0.0158131
857.581	0.0158359
857.659	0.0158342
857.737	0.0160047
857.815	0.0160656
857.893	0.0158450
857.971	0.0160181
858.049	0.0158789
858.128	0.0159813
858.206	0.0158216
858.284	0.0158885
858.362	0.0158266
858.440	0.0158769
858.518	0.0158827
858.596	0.0158938
858.674	0.0157100
858.753	0.0157526
858.831	0.0158007
858.909	0.0157463
858.987	0.0157015
859.065	0.0157462
859.143	0.0156927
859.221	0.0155796
859.299	0.0156371
859.378	0.0156747
859.456	0.0156275
859.534	0.0158097
859.612	0.0157890
859.690	0.0156671
859.768	0.0157218
859.846	0.0157530
859.924	0.0158114
860.003	0.0157626
860.081	0.0158141
860.159	0.0158412
860.237	0.0157268
860.315	0.0158267
860.393	0.0159238
860.471	0.0158371
860.549	0.0156148
860.628	0.0156432
860.706	0.0156116
860.784	0.0158097
860.862	0.0156696
860.940	0.0156879
861.018	0.0156866
861.096	0.0155570
861.174	0.0156301
861.253	0.0157001
861.331	0.0156495
861.409	0.0156696
861.487	0.0156352
861.565	0.0157050
861.643	0.0156342
861.721	0.0155724
861.799	0.0157235
861.878	0.0156232
861.956	0.0157079
862.034	0.0156551
862.112	0.0156535
862.190	0.0157516
862.268	0.0155158
862.346	0.0156247
862.424	0.0155743
862.503	0.0156316
862.581	0.0158334
862.659	0.0157534
862.737	0.0156725
862.815	0.0157967
862.893	0.0157838
862.971	0.0156702
863.049	0.0156528
863.128	0.0156930
863.206	0.0157046
863.284	0.0156903
863.362	0.0157888
863.440	0.0157833
863.518	0.0156878
863.596	0.0157328
863.674	0.0157833
863.753	0.0157840
863.831	0.0156972
863.909	0.0157379
863.987	0.0156621
864.065	0.0158597
864.143	0.0157893
864.221	0.0156985
864.299	0.0156173
864.378	0.0156221
864.456	0.0157024
864.534	0.0156225
864.612	0.0156732
864.690	0.0156618
864.768	0.0155872
864.846	0.0156213
864.924	0.0156168
865.003	0.0156248
865.081	0.0155775
865.159	0.0154454
865.237	0.0156490
865.315	0.0156403
865.393	0.0155508
865.471	0.0155799
865.549	0.0154868
865.628	0.0156483
865.706	0.0154714
865.784	0.0155954
865.862	0.0154441
865.940	0.0155877
866.018	0.0154459
866.096	0.0154981
866.174	0.0155185
866.253	0.0155206
866.331	0.0155735
866.409	0.0156092
866.487	0.0156526
866.565	0.0156845
866.643	0.0156844
866.721	0.0156410
866.799	0.0156358
866.878	0.0156668
866.956	0.0156995
867.034	0.0156939
867.112	0.0156995
867.190	0.0156709
867.268	0.0156463
867.346	0.0156449
867.424	0.0156866
867.503	0.0157088
867.581	0.0156656
867.659	0.0156972
867.737	0.0156756
867.815	0.0158207
867.893	0.0156924
867.971	0.0156022
868.049	0.0157359
868.128	0.0157162
868.206	0.0156304
868.284	0.0157156
868.362	0.0157645
868.440	0.0156815
868.518	0.0157133
868.596	0.0156756
868.674	0.0158581
868.753	0.0157543
868.831	0.0157246
868.909	0.0159215
868.987	0.0159590
869.065	0.0157415
869.143	0.0158462
869.221	0.0159195
869.299	0.0158387
869.378	0.0159274
869.456	0.0158200
869.534	0.0157619
869.612	0.0159075
869.690	0.0158528
869.768	0.0157980
869.846	0.0157446
869.924	0.0156824
870.003	0.0157948
870.081	0.0157387
870.159	0.0158355
870.237	0.0156116
870.315	0.0156294
870.393	0.0156259
870.471	0.0155618
870.549	0.0156959
870.628	0.0157104
870.706	0.0157088
870.784	0.0156571
870.862	0.0156188
870.940	0.0157727
871.018	0.0156510
871.096	0.0156291
871.174	0.0155413
871.253	0.0155709
871.331	0.0156070
871.409	0.0156755
871.487	0.0156665
871.565	0.0155248
871.643	0.0156867
871.721	0.0156478
871.799	0.0156133
871.878	0.0155623
871.956	0.0155330
872.034	0.0156067
872.112	0.0157211
872.190	0.0156700
872.268	0.0156197
872.346	0.0155590
872.424	0.0156159
872.503	0.0156474
872.581	0.0155506
872.659	0.0155746
872.737	0.0156275
872.815	0.0155439
872.893	0.0155756
872.971	0.0156947
873.049	0.0157367
873.128	0.0156278
873.206	0.0155634
873.284	0.0156985
873.362	0.0157339
873.440	0.0157026
873.518	0.0156376
873.596	0.0157806
873.674	0.0157530
873.753	0.0158633
873.831	0.0157804
873.909	0.0158472
873.987	0.0158708
874.065	0.0157409
874.143	0.0157347
874.221	0.0157491
874.299	0.0158007
874.378	0.0158272
874.456	0.0158456
874.534	0.0157921
874.612	0.0156329
874.690	0.0158504
874.768	0.0156473
874.846	0.0156020
874.924	0.0157922
875.003	0.0157537
875.081	0.0156833
875.159	0.0156936
875.237	0.0156217
875.315	0.0155424
875.393	0.0157552
875.471	0.0156103
875.549	0.0155826
875.628	0.0154599
875.706	0.0156292
875.784	0.0156422
875.862	0.0155716
875.940	0.0156744
876.018	0.0156415
876.096	0.0156348
876.174	0.0156619
876.253	0.0155440
876.331	0.0156086
876.409	0.0154861
876.487	0.0156391
876.565	0.0156785
876.643	0.0155482
876.721	0.0156027
876.799	0.0156268
876.878	0.0156733
876.956	0.0156767
877.034	0.0157228
877.112	0.0156954
877.190	0.0157028
877.268	0.0158244
877.346	0.0156454
877.424	0.0157095
877.503	0.0156874
877.581	0.0156735
877.659	0.0157269
877.737	0.0157333
877.815	0.0157195
877.893	0.0157246
877.971	0.0156962
878.049	0.0159225
878.128	0.0157814
878.206	0.0157470
878.284	0.0157732
878.362	0.0159376
878.440	0.0156706
878.518	0.0157903
878.596	0.0157673
878.674	0.0156760
878.753	0.0157007
878.831	0.0158044
878.909	0.0158052
878.987	0.0157407
879.065	0.0155466
879.143	0.0156880
879.221	0.0157828
879.299	0.0158470
879.378	0.0157446
879.456	0.0156506
879.534	0.0158391
879.612	0.0158065
879.690	0.0157432
879.768	0.0155171
879.846	0.0156654
879.924	0.0158013
880.003	0.0158691
880.081	0.0156752
880.159	0.0156868
880.237	0.0156119
880.315	0.0156850
880.393	0.0157150
880.471	0.0156998
880.549	0.0156419
880.628	0.0157017
880.706	0.0157903
880.784	0.0157477
880.862	0.0156759
880.940	0.0157335
881.018	0.0156517
881.096	0.0156548
881.174	0.0156317
881.253	0.0156152
881.331	0.0156312
881.409	0.0157101
881.487	0.0156563
881.565	0.0157147
881.643	0.0155486
881.721	0.0156920
881.799	0.0157699
881.878	0.0156564
881.956	0.0157500
882.034	0.0155808
882.112	0.0155928
882.190	0.0157793
882.268	0.0158308
882.346	0.0156881
882.424	0.0156934
882.503	0.0156402
882.581	0.0158124
882.659	0.0157112
882.737	0.0157301
882.815	0.0158902
882.893	0.0157200
882.971	0.0155283
883.049	0.0157310
883.128	0.0157372
883.206	0.0157620
883.284	0.0156883
883.362	0.0156931
883.440	0.0156691
883.518	0.0156097
883.596	0.0158229
883.674	0.0158514
883.753	0.0157473
883.831	0.0157392
883.909	0.0157120
883.987	0.0157300
884.065	0.0156320
884.143	0.0157609
884.221	0.0157269
884.299	0.0158112
884.378	0.0157681
884.456	0.0157587
884.534	0.0156969
884.612	0.0158204
884.690	0.0156946
884.768	0.0157424
884.846	0.0156297
884.924	0.0157607
885.003	0.0156933
885.081	0.0156479
885.159	0.0156712
885.237	0.0156612
885.315	0.0157491
885.393	0.0155466
885.471	0.0156223
885.549	0.0155907
885.628	0.0156283
885.706	0.0157125
885.784	0.0155283
885.862	0.0154013
885.940	0.0155190
886.018	0.0156606
886.096	0.0155398
886.174	0.0155888
886.253	0.0155956
886.331	0.0154785
886.409	0.0155074
886.487	0.0156170
886.565	0.0156747
886.643	0.0154543
886.721	0.0156159
886.799	0.0156136
886.878	0.0156086
886.956	0.0155903
887.034	0.0155931
887.112	0.0156689
887.190	0.0156975
887.268	0.0158022
887.346	0.0156514
887.424	0.0157346
887.503	0.0155940
887.581	0.0155326
887.659	0.0155141
887.737	0.0156548
887.815	0.0159587
887.893	0.0158603
887.971	0.0156120
888.049	0.0158571
888.128	0.0157905
888.206	0.0158321
888.284	0.0157423
888.362	0.0158118
888.440	0.0158030
888.518	0.0156126
888.596	0.0156801
888.674	0.0155929
888.753	0.0157433
888.831	0.0158382
888.909	0.0156966
888.987	0.0158482
889.065	0.0157159
889.143	0.0157669
889.221	0.0157796
889.299	0.0157864
889.378	0.0157134
889.456	0.0155809
889.534	0.0156589
889.612	0.0156674
889.690	0.0156583
889.768	0.0157084
889.846	0.0156577
889.924	0.0157484
890.003	0.0158177
890.081	0.0158073
890.159	0.0157823
890.237	0.0156715
890.315	0.0156951
890.393	0.0157322
890.471	0.0157636
890.549	0.0157786
890.628	0.0156765
890.706	0.0158450
890.784	0.0157146
890.862	0.0158633
890.940	0.0157780
891.018	0.0157990
891.096	0.0157392
891.174	0.0156660
891.253	0.0158714
891.331	0.0158368
891.409	0.0157548
891.487	0.0156457
891.565	0.0157564
891.643	0.0157780
891.721	0.0158143
891.799	0.0155944
891.878	0.0155932
891.956	0.0158417
892.034	0.0157578
892.112	0.0157635
892.190	0.0156133
892.268	0.0158699
892.346	0.0158184
892.424	0.0156120
892.503	0.0156129
892.581	0.0157034
892.659	0.0156559
892.737	0.0156364
892.815	0.0158489
892.893	0.0158263
892.971	0.0155799
893.049	0.0157590
893.128	0.0155703
893.206	0.0156581
893.284	0.0157608
893.362	0.0155746
893.440	0.0158333
893.518	0.0157342
893.596	0.0157269
893.674	0.0157253
893.753	0.0157503
893.831	0.0158601
893.909	0.0160055
893.987	0.0156847
894.065	0.0157724
894.143	0.0158237
894.221	0.0159371
894.299	0.0159983
894.378	0.0158569
894.456	0.0157236
894.534	0.0159377
894.612	0.0158870
894.690	0.0158142
894.768	0.0158456
894.846	0.0157767
894.924	0.0157742
895.003	0.0158675
895.081	0.0158929
895.159	0.0158197
895.237	0.0157719
895.315	0.0157674
895.393	0.0157736
895.471	0.0156992
895.549	0.0156549
895.628	0.0157879
895.706	0.0158116
895.784	0.0158700
895.862	0.0157899
895.940	0.0158502
896.018	0.0157585
896.096	0.0158957
896.174	0.0157265
896.253	0.0157820
896.331	0.0156808
896.409	0.0156802
896.487	0.0156687
896.565	0.0157317
896.643	0.0157693
896.721	0.0156677
896.799	0.0157024
896.878	0.0156894
896.956	0.0156668
897.034	0.0158090
897.112	0.0156014
897.190	0.0157301
897.268	0.0155701
897.346	0.0156407
897.424	0.0156401
897.503	0.0154755
897.581	0.0155521
897.659	0.0156647
897.737	0.0156811
897.815	0.0156024
897.893	0.0156126
897.971	0.0158129
898.049	0.0157140
898.128	0.0155983
898.206	0.0156384
898.284	0.0157018
898.362	0.0157597
898.440	0.0156988
898.518	0.0157355
898.596	0.0156809
898.674	0.0157986
898.753	0.0157815
898.831	0.0156622
898.909	0.0156625
898.987	0.0157617
899.065	0.0157767
899.143	0.0158160
899.221	0.0158195
899.299	0.0156659
899.378	0.0157462
899.456	0.0157458
899.534	0.0156721
899.612	0.0157048
899.690	0.0156643
899.768	0.0157619
899.846	0.0158384
899.924	0.0156455
900.003	0.0156704
900.081	0.0157814
900.159	0.0156876
900.237	0.0157022
900.315	0.0157565
900.393	0.0155946
900.471	0.0156673
900.549	0.0157550
900.628	0.0158408
900.706	0.0157651
900.784	0.0157472
900.862	0.0156403
900.940	0.0157867
901.018	0.0157239
901.096	0.0155615
901.174	0.0157276
901.253	0.0156911
901.331	0.0157703
901.409	0.0157731
901.487	0.0157992
901.565	0.0156343
901.643	0.0157156
901.721	0.0157443
901.799	0.0157832
901.878	0.0156969
901.956	0.0156332
902.034	0.0156577
902.112	0.0155548
902.190	0.0156531
902.268	0.0157285
902.346	0.0157095
902.424	0.0156084
902.503	0.0158064
902.581	0.0155216
902.659	0.0155473
902.737	0.0157343
902.815	0.0157236
902.893	0.0156068
902.971	0.0156355
903.049	0.0155650
903.128	0.0155878
903.206	0.0156145
903.284	0.0155890
903.362	0.0155592
903.440	0.0155490
903.518	0.0155393
903.596	0.0156846
903.674	0.0155815
903.753	0.0155499
903.831	0.0154906
903.909	0.0156523
903.987	0.0156754
904.065	0.0155635
904.143	0.0155532
904.221	0.0156069
904.299	0.0157117
904.378	0.0156725
904.456	0.0156306
904.534	0.0156248
904.612	0.0157626
904.690	0.0156251
904.768	0.0157497
904.846	0.0157095
904.924	0.0157140
905.003	0.0157025
905.081	0.0157137
905.159	0.0157269
905.237	0.0156087
905.315	0.0158381
905.393	0.0157008
905.471	0.0155958
905.549	0.0157597
905.628	0.0158620
905.706	0.0157779
905.784	0.0156236
905.862	0.0158131
905.940	0.0156846
906.018	0.0158991
906.096	0.0157710
906.174	0.0158025
906.253	0.0156982
906.331	0.0157747
906.409	0.0157441
906.487	0.0157226
906.565	0.0156014
906.643	0.0157805
906.721	0.0155848
906.799	0.0157764
906.878	0.0158788
906.956	0.0157256
907.034	0.0158070
907.112	0.0156166
907.190	0.0157314
907.268	0.0156728
907.346	0.0155810
907.424	0.0157710
907.503	0.0157388
907.581	0.0156045
907.659	0.0156529
907.737	0.0156160
907.815	0.0155717
907.893	0.0156496
907.971	0.0157716
908.049	0.0156597
908.128	0.0158450
908.206	0.0157176
908.284	0.0156622
908.362	0.0157934
908.440	0.0157179
908.518	0.0157426
908.596	0.0157363
908.674	0.0158701
908.753	0.0159264
908.831	0.0158875
908.909	0.0157475
908.987	0.0159141
909.065	0.0158359
909.143	0.0157084
909.221	0.0158528
909.299	0.0158428
909.378	0.0160074
909.456	0.0159187
909.534	0.0157142
909.612	0.0157110
909.690	0.0159106
909.768	0.0159740
909.846	0.0158679
909.924	0.0157503
910.003	0.0158000
910.081	0.0160327
910.159	0.0157911
910.237	0.0158036
910.315	0.0157551
910.393	0.0158128
910.471	0.0159055
910.549	0.0158398
910.628	0.0157825
910.706	0.0158203
910.784	0.0157423
910.862	0.0156853
910.940	0.0159101
911.018	0.0157474
911.096	0.0159116
911.174	0.0158114
911.253	0.0158424
911.331	0.0158390
911.409	0.0157708
911.487	0.0157832
911.565	0.0158615
911.643	0.0157510
911.721	0.0157805
911.799	0.0158632
911.878	0.0159222
911.956	0.0157498
912.034	0.0157029
912.112	0.0157546
912.190	0.0157867
912.268	0.0157001
912.346	0.0157159
912.424	0.0157870
912.503	0.0156706
912.581	0.0157411
912.659	0.0157748
912.737	0.0156850
912.815	0.0156571
912.893	0.0158071
912.971	0.0156995
913.049	0.0157316
913.128	0.0157809
913.206	0.0156872
913.284	0.0157497
913.362	0.0158603
913.440	0.0157339
913.518	0.0156840
913.596	0.0156588
913.674	0.0157049
913.753	0.0157838
913.831	0.0157639
913.909	0.0157291
913.987	0.0156844
914.065	0.0156402
914.143	0.0156350
914.221	0.0158512
914.299	0.0157178
914.378	0.0156914
914.456	0.0156902
914.534	0.0158472
914.612	0.0158280
914.690	0.0156540
914.768	0.0156961
914.846	0.0157799
914.924	0.0158277
915.003	0.0158598
915.081	0.0156834
915.159	0.0155685
915.237	0.0156767
915.315	0.0156904
915.393	0.0157216
915.471	0.0157481
915.549	0.0157253
915.628	0.0157684
915.706	0.0158365
915.784	0.0156737
915.862	0.0156443
915.940	0.0156044
916.018	0.0157896
916.096	0.0157470
916.174	0.0155735
916.253	0.0157821
916.331	0.0157420
916.409	0.0157095
916.487	0.0157446
916.565	0.0157155
916.643	0.0157422
916.721	0.0156641
916.799	0.0157983
916.878	0.0156824
916.956	0.0156330
917.034	0.0157885
917.112	0.0157998
917.190	0.0157326
917.268	0.0156007
917.346	0.0156701
917.424	0.0157302
917.503	0.0155532
917.581	0.0156387
917.659	0.0158424
917.737	0.0157245
917.815	0.0157793
917.893	0.0157554
917.971	0.0156593
918.049	0.0157970
918.128	0.0157844
918.206	0.0157151
918.284	0.0157863
918.362	0.0158261
918.440	0.0156615
918.518	0.0156767
918.596	0.0157825
918.674	0.0158260
918.753	0.0156990
918.831	0.0157327
918.909	0.0158908
918.987	0.0158520
919.065	0.0156641
919.143	0.0158116
919.221	0.0157562
919.299	0.0158430
919.378	0.0157932
919.456	0.0156964
919.534	0.0156329
919.612	0.0156265
919.690	0.0156544
919.768	0.0156635
919.846	0.0155629
919.924	0.0155911
920.003	0.0156647
920.081	0.0154841
920.159	0.0155408
920.237	0.0156264
920.315	0.0155109
920.393	0.0155251
920.471	0.0154742
920.549	0.0154947
920.628	0.0155383
920.706	0.0156561
920.784	0.0156480
920.862	0.0157457
920.940	0.0156284
921.018	0.0157091
921.096	0.0157828
921.174	0.0156683
921.253	0.0157366
921.331	0.0158842
921.409	0.0158443
921.487	0.0157224
921.565	0.0157574
921.643	0.0159308
921.721	0.0158579
921.799	0.0158381
921.878	0.0159672
921.956	0.0157486
922.034	0.0159416
922.112	0.0157595
922.190	0.0157140
922.268	0.0158063
922.346	0.0157196
922.424	0.0157420
922.503	0.0157286
922.581	0.0157153
922.659	0.0157976
922.737	0.0157034
922.815	0.0156016
922.893	0.0156191
922.971	0.0156081
923.049	0.0156804
923.128	0.0157043
923.206	0.0156473
923.284	0.0155495
923.362	0.0156085
923.440	0.0157406
923.518	0.0156387
923.596	0.0156857
923.674	0.0156287
923.753	0.0156796
923.831	0.0155666
923.909	0.0155185
923.987	0.0156162
924.065	0.0156229
924.143	0.0155054
924.221	0.0154617
924.299	0.0156658
924.378	0.0155637
924.456	0.0153998
924.534	0.0156253
924.612	0.0156052
924.690	0.0155904
924.768	0.0155437
924.846	0.0155669
924.924	0.0156268
925.003	0.0156207
925.081	0.0156066
925.159	0.0155737
925.237	0.0156093
925.315	0.0157143
925.393	0.0157281
925.471	0.0156861
925.549	0.0157747
925.628	0.0157247
925.706	0.0157710
925.784	0.0157831
925.862	0.0158042
925.940	0.0158295
926.018	0.0157751
926.096	0.0158675
926.174	0.0159682
926.253	0.0158432
926.331	0.0158376
926.409	0.0157882
926.487	0.0156024
926.565	0.0156313
926.643	0.0157012
926.721	0.0155318
926.799	0.0156280
926.878	0.0155831
926.956	0.0155952
927.034	0.0156685
927.112	0.0156247
927.190	0.0155463
927.268	0.0155388
927.346	0.0157497
927.424	0.0155555
927.503	0.0157529
927.581	0.0158162
927.659	0.0156268
927.737	0.0156493
927.815	0.0158519
927.893	0.0156303
927.971	0.0156264
928.049	0.0157153
928.128	0.0156181
928.206	0.0157585
928.284	0.0156844
928.362	0.0156364
928.440	0.0156718
928.518	0.0155968
928.596	0.0155787
928.674	0.0155479
928.753	0.0156028
928.831	0.0155302
928.909	0.0155698
928.987	0.0155914
929.065	0.0156204
929.143	0.0155020
929.221	0.0156036
929.299	0.0156530
929.378	0.0156752
929.456	0.0155496
929.534	0.0156066
929.612	0.0157179
929.690	0.0158285
929.768	0.0157211
929.846	0.0157001
929.924	0.0157597
930.003	0.0157878
930.081	0.0157173
930.159	0.0158868
930.237	0.0156306
930.315	0.0157081
930.393	0.0156098
930.471	0.0158176
930.549	0.0157269
930.628	0.0156227
930.706	0.0155428
930.784	0.0158488
930.862	0.0156866
930.940	0.0157081
931.018	0.0157721
931.096	0.0157346
931.174	0.0157958
931.253	0.0157545
931.331	0.0156540
931.409	0.0157338
931.487	0.0157507
931.565	0.0157491
931.643	0.0156048
931.721	0.0157880
931.799	0.0158221
931.878	0.0156588
931.956	0.0156976
932.034	0.0156042
932.112	0.0157112
932.190	0.0157202
932.268	0.0158685
932.346	0.0156613
932.424	0.0157118
932.503	0.0156884
932.581	0.0158108
932.659	0.0158106
932.737	0.0158563
932.815	0.0158920
932.893	0.0157043
932.971	0.0155973
933.049	0.0158353
933.128	0.0158317
933.206	0.0158185
933.284	0.0156924
933.362	0.0156916
933.440	0.0157571
933.518	0.0159028
933.596	0.0157562
933.674	0.0157964
933.753	0.0156035
933.831	0.0157002
933.909	0.0158088
933.987	0.0156730
934.065	0.0157445
934.143	0.0157155
934.221	0.0156243
934.299	0.0158370
934.378	0.0158208
934.456	0.0157577
934.534	0.0156106
934.612	0.0155365
934.690	0.0157685
934.768	0.0158274
934.846	0.0156699
934.924	0.0156073
935.003	0.0156049
935.081	0.0156238
935.159	0.0155611
935.237	0.0156219
935.315	0.0153989
935.393	0.0157555
935.471	0.0157929
935.549	0.0157279
935.628	0.0156435
935.706	0.0156766
935.784	0.0157018
935.862	0.0157478
935.940	0.0157387
936.018	0.0157524
936.096	0.0157633
936.174	0.0158905
936.253	0.0159873
936.331	0.0158243
936.409	0.0158315
936.487	0.0157890
936.565	0.0158223
936.643	0.0156702
936.721	0.0157956
936.799	0.0158467
936.878	0.0158845
936.956	0.0157825
937.034	0.0157582
937.112	0.0157223
937.190	0.0157310
937.268	0.0158977
937.346	0.0158705
937.424	0.0158360
937.503	0.0157343
937.581	0.0158599
937.659	0.0158784
937.737	0.0157799
937.815	0.0158035
937.893	0.0156881
937.971	0.0158744
938.049	0.0157310
938.128	0.0157523
938.206	0.0157761
938.284	0.0158305
938.362	0.0158404
938.440	0.0157567
938.518	0.0158354
938.596	0.0157825
938.674	0.0157208
938.753	0.0157644
938.831	0.0158469
938.909	0.0157168
938.987	0.0157909
939.065	0.0156957
939.143	0.0156074
939.221	0.0157439
939.299	0.0158745
939.378	0.0157339
939.456	0.0157475
939.534	0.0157097
939.612	0.0157752
939.690	0.0158482
939.768	0.0157084
939.846	0.0158486
939.924	0.0159153
940.003	0.0157943
940.081	0.0157464
940.159	0.0158818
940.237	0.0158044
940.315	0.0156836
940.393	0.0157323
940.471	0.0158346
940.549	0.0158311
940.628	0.0157006
940.706	0.0158187
940.784	0.0156314
940.862	0.0156667
940.940	0.0157780
941.018	0.0157211
941.096	0.0156667
941.174	0.0155988
941.253	0.0156297
941.331	0.0157192
941.409	0.0157397
941.487	0.0156814
941.565	0.0156499
941.643	0.0156256
941.721	0.0156191
941.799	0.0155072
941.878	0.0155740
941.956	0.0156700
942.034	0.0158383
942.112	0.0157233
942.190	0.0156142
942.268	0.0155228
942.346	0.0155611
942.424	0.0156511
942.503	0.0156554
942.581	0.0155318
942.659	0.0157128
942.737	0.0155110
942.815	0.0154831
942.893	0.0155107
942.971	0.0156449
943.049	0.0156145
943.128	0.0155910
943.206	0.0154916
943.284	0.0154826
943.362	0.0156386
943.440	0.0157096
943.518	0.0156754
943.596	0.0157011
943.674	0.0156590
943.753	0.0156571
943.831	0.0155891
943.909	0.0155869
943.987	0.0156104
944.065	0.0156322
944.143	0.0157523
944.221	0.0156842
944.299	0.0157227
944.378	0.0157816
944.456	0.0155862
944.534	0.0156435
944.612	0.0156707
944.690	0.0156389
944.768	0.0156973
944.846	0.0155684
944.924	0.0154974
945.003	0.0156758
945.081	0.0157056
945.159	0.0156089
945.237	0.0154906
945.315	0.0155862
945.393	0.0155490
945.471	0.0156995
945.549	0.0156815
945.628	0.0156167
945.706	0.0156303
945.784	0.0157138
945.862	0.0157818
945.940	0.0156887
946.018	0.0157350
946.096	0.0157951
946.174	0.0158094
946.253	0.0157619
946.331	0.0158343
946.409	0.0159197
946.487	0.0158288
946.565	0.0158099
946.643	0.0157997
946.721	0.0156884
946.799	0.0158268
946.878	0.0157623
946.956	0.0157650
947.034	0.0158726
947.112	0.0157477
947.190	0.0157885
947.268	0.0158044
947.346	0.0157942
947.424	0.0156979
947.503	0.0158475
947.581	0.0157463
947.659	0.0157391
947.737	0.0155740
947.815	0.0157875
947.893	0.0157925
947.971	0.0158436
948.049	0.0158285
948.128	0.0156625
948.206	0.0156444
948.284	0.0157578
948.362	0.0157703
948.440	0.0156879
948.518	0.0156432
948.596	0.0157343
948.674	0.0157607
948.753	0.0155652
948.831	0.0156557
948.909	0.0157277
948.987	0.0156053
949.065	0.0156160
949.143	0.0155708
949.221	0.0157042
949.299	0.0157304
949.378	0.0158138
949.456	0.0157337
949.534	0.0156548
949.612	0.0157023
949.690	0.0157122
949.768	0.0156010
949.846	0.0156673
949.924	0.0156875
