06/29/2022	23:10:21	Ver.	4.1	UNKNOWN
Optical Delay	629.995835	Delta X		0.078125	Sweeps	1	Scan Rate	0/0
Coordinates	Axis 1	NaN	Axis 2	NaN	Axis 3	NaN	Axis 4	NaN	Axis 5	NaN	Axis 6	0.000000
TX Power	0.000000	RX Power	0.000000

629.996	0.0153091
630.074	0.0152456
630.152	0.0153911
630.230	0.0151948
630.308	0.0153920
630.386	0.0153159
630.465	0.0152109
630.543	0.0152885
630.621	0.0154202
630.699	0.0153577
630.777	0.0153394
630.855	0.0152830
630.933	0.0154808
631.011	0.0154604
631.090	0.0154894
631.168	0.0154169
631.246	0.0153292
631.324	0.0154225
631.402	0.0154136
631.480	0.0154517
631.558	0.0154829
631.636	0.0154782
631.715	0.0153890
631.793	0.0153423
631.871	0.0153932
631.949	0.0153217
632.027	0.0154956
632.105	0.0155618
632.183	0.0154540
632.261	0.0153814
632.340	0.0153840
632.418	0.0154631
632.496	0.0154045
632.574	0.0154538
632.652	0.0153882
632.730	0.0154486
632.808	0.0155220
632.886	0.0153782
632.965	0.0155067
633.043	0.0154212
633.121	0.0154184
633.199	0.0153600
633.277	0.0154804
633.355	0.0153522
633.433	0.0153144
633.511	0.0153567
633.590	0.0155441
633.668	0.0154797
633.746	0.0154700
633.824	0.0153861
633.902	0.0153143
633.980	0.0154217
634.058	0.0154064
634.136	0.0154572
634.215	0.0154504
634.293	0.0153755
634.371	0.0153062
634.449	0.0153444
634.527	0.0153168
634.605	0.0153495
634.683	0.0153878
634.761	0.0152518
634.840	0.0152866
634.918	0.0155131
634.996	0.0155591
635.074	0.0152956
635.152	0.0153646
635.230	0.0154337
635.308	0.0154327
635.386	0.0153818
635.465	0.0153965
635.543	0.0154137
635.621	0.0152930
635.699	0.0152239
635.777	0.0153640
635.855	0.0155677
635.933	0.0152766
636.011	0.0154626
636.090	0.0153742
636.168	0.0153755
636.246	0.0154820
636.324	0.0153227
636.402	0.0153801
636.480	0.0152569
636.558	0.0153120
636.636	0.0154623
636.715	0.0153230
636.793	0.0153427
636.871	0.0154300
636.949	0.0154072
637.027	0.0153379
637.105	0.0153402
637.183	0.0155484
637.261	0.0153683
637.340	0.0153490
637.418	0.0154473
637.496	0.0154540
637.574	0.0153539
637.652	0.0153028
637.730	0.0152506
637.808	0.0152676
637.886	0.0153701
637.965	0.0153524
638.043	0.0154003
638.121	0.0152553
638.199	0.0153229
638.277	0.0154228
638.355	0.0154590
638.433	0.0153259
638.511	0.0152681
638.590	0.0154128
638.668	0.0153106
638.746	0.0154485
638.824	0.0154118
638.902	0.0153461
638.980	0.0154292
639.058	0.0154033
639.136	0.0154459
639.215	0.0155330
639.293	0.0154626
639.371	0.0153876
639.449	0.0152580
639.527	0.0154404
639.605	0.0152810
639.683	0.0153796
639.761	0.0153694
639.840	0.0153561
639.918	0.0153333
639.996	0.0153833
640.074	0.0153595
640.152	0.0153687
640.230	0.0156203
640.308	0.0153404
640.386	0.0154855
640.465	0.0151882
640.543	0.0153027
640.621	0.0154004
640.699	0.0153907
640.777	0.0153428
640.855	0.0154503
640.933	0.0152372
641.011	0.0154138
641.090	0.0154038
641.168	0.0153653
641.246	0.0153628
641.324	0.0153777
641.402	0.0153017
641.480	0.0154348
641.558	0.0153353
641.636	0.0154272
641.715	0.0153896
641.793	0.0154565
641.871	0.0153577
641.949	0.0155421
642.027	0.0153397
642.105	0.0153299
642.183	0.0154329
642.261	0.0154504
642.340	0.0153963
642.418	0.0153456
642.496	0.0154880
642.574	0.0155061
642.652	0.0153722
642.730	0.0152650
642.808	0.0154277
642.886	0.0153861
642.965	0.0155254
643.043	0.0155007
643.121	0.0154858
643.199	0.0154088
643.277	0.0153390
643.355	0.0154607
643.433	0.0154444
643.511	0.0155022
643.590	0.0153734
643.668	0.0153359
643.746	0.0154156
643.824	0.0153643
643.902	0.0153149
643.980	0.0154367
644.058	0.0154086
644.136	0.0153796
644.215	0.0152879
644.293	0.0154259
644.371	0.0154962
644.449	0.0153654
644.527	0.0153471
644.605	0.0153767
644.683	0.0153005
644.761	0.0153758
644.840	0.0153548
644.918	0.0154276
644.996	0.0153896
645.074	0.0154502
645.152	0.0153645
645.230	0.0152933
645.308	0.0154121
645.386	0.0152884
645.465	0.0153966
645.543	0.0153424
645.621	0.0153714
645.699	0.0153867
645.777	0.0153745
645.855	0.0154243
645.933	0.0153815
646.011	0.0153107
646.090	0.0153638
646.168	0.0154072
646.246	0.0154152
646.324	0.0154154
646.402	0.0152770
646.480	0.0154315
646.558	0.0153685
646.636	0.0153945
646.715	0.0154090
646.793	0.0153735
646.871	0.0153199
646.949	0.0152627
647.027	0.0152989
647.105	0.0154436
647.183	0.0152684
647.261	0.0151772
647.340	0.0153166
647.418	0.0153738
647.496	0.0153047
647.574	0.0153658
647.652	0.0153137
647.730	0.0152640
647.808	0.0152062
647.886	0.0153564
647.965	0.0153214
648.043	0.0153036
648.121	0.0152419
648.199	0.0154041
648.277	0.0154221
648.355	0.0152521
648.433	0.0153643
648.511	0.0151926
648.590	0.0154442
648.668	0.0153523
648.746	0.0153828
648.824	0.0153336
648.902	0.0152625
648.980	0.0152898
649.058	0.0153017
649.136	0.0153043
649.215	0.0152269
649.293	0.0152594
649.371	0.0151847
649.449	0.0152568
649.527	0.0153308
649.605	0.0152625
649.683	0.0154103
649.761	0.0152399
649.840	0.0154163
649.918	0.0152767
649.996	0.0153521
650.074	0.0153506
650.152	0.0152993
650.230	0.0152420
650.308	0.0153738
650.386	0.0153476
650.465	0.0153497
650.543	0.0153630
650.621	0.0153571
650.699	0.0155085
650.777	0.0153295
650.855	0.0153066
650.933	0.0153481
651.011	0.0153046
651.090	0.0153992
651.168	0.0154972
651.246	0.0153225
651.324	0.0153713
651.402	0.0154737
651.480	0.0155005
651.558	0.0154284
651.636	0.0153780
651.715	0.0154703
651.793	0.0154478
651.871	0.0152921
651.949	0.0154039
652.027	0.0154659
652.105	0.0154478
652.183	0.0154339
652.261	0.0155024
652.340	0.0153861
652.418	0.0153738
652.496	0.0154333
652.574	0.0152328
652.652	0.0154008
652.730	0.0154428
652.808	0.0154164
652.886	0.0153365
652.965	0.0153947
653.043	0.0154392
653.121	0.0152868
653.199	0.0153377
653.277	0.0154334
653.355	0.0154463
653.433	0.0155784
653.511	0.0154108
653.590	0.0153725
653.668	0.0153466
653.746	0.0152444
653.824	0.0153571
653.902	0.0153706
653.980	0.0152332
654.058	0.0153030
654.136	0.0152930
654.215	0.0154794
654.293	0.0156603
654.371	0.0153850
654.449	0.0153535
654.527	0.0153123
654.605	0.0155138
654.683	0.0154919
654.761	0.0154085
654.840	0.0154694
654.918	0.0152994
654.996	0.0153715
655.074	0.0155221
655.152	0.0153983
655.230	0.0154477
655.308	0.0154411
655.386	0.0152916
655.465	0.0153764
655.543	0.0153741
655.621	0.0153823
655.699	0.0154283
655.777	0.0154606
655.855	0.0154627
655.933	0.0154430
656.011	0.0152891
656.090	0.0153368
656.168	0.0153809
656.246	0.0153178
656.324	0.0153645
656.402	0.0152504
656.480	0.0152429
656.558	0.0152255
656.636	0.0153563
656.715	0.0153126
656.793	0.0154034
656.871	0.0152897
656.949	0.0153215
657.027	0.0153050
657.105	0.0152040
657.183	0.0152972
657.261	0.0153041
657.340	0.0152116
657.418	0.0152519
657.496	0.0153954
657.574	0.0151793
657.652	0.0153844
657.730	0.0154293
657.808	0.0153564
657.886	0.0152804
657.965	0.0153797
658.043	0.0153394
658.121	0.0154411
658.199	0.0153568
658.277	0.0152590
658.355	0.0152319
658.433	0.0153723
658.511	0.0153500
658.590	0.0153272
658.668	0.0153446
658.746	0.0152515
658.824	0.0153484
658.902	0.0153771
658.980	0.0151658
659.058	0.0152053
659.136	0.0154089
659.215	0.0153719
659.293	0.0153689
659.371	0.0153410
659.449	0.0153193
659.527	0.0153728
659.605	0.0153754
659.683	0.0153669
659.761	0.0153570
659.840	0.0154278
659.918	0.0153918
659.996	0.0153505
660.074	0.0152892
660.152	0.0153639
660.230	0.0153400
660.308	0.0153883
660.386	0.0154259
660.465	0.0153342
660.543	0.0153617
660.621	0.0154655
660.699	0.0154125
660.777	0.0152910
660.855	0.0154121
660.933	0.0153693
661.011	0.0153861
661.090	0.0153643
661.168	0.0154349
661.246	0.0153465
661.324	0.0153347
661.402	0.0153656
661.480	0.0153487
661.558	0.0154846
661.636	0.0154533
661.715	0.0152876
661.793	0.0153974
661.871	0.0155396
661.949	0.0155241
662.027	0.0153866
662.105	0.0154870
662.183	0.0154651
662.261	0.0154617
662.340	0.0153728
662.418	0.0154296
662.496	0.0154659
662.574	0.0155873
662.652	0.0154494
662.730	0.0155302
662.808	0.0154099
662.886	0.0154852
662.965	0.0156441
663.043	0.0154509
663.121	0.0154198
663.199	0.0155385
663.277	0.0154476
663.355	0.0157010
663.433	0.0154861
663.511	0.0153176
663.590	0.0154855
663.668	0.0154867
663.746	0.0155234
663.824	0.0155119
663.902	0.0154119
663.980	0.0154820
664.058	0.0155059
664.136	0.0155634
664.215	0.0155156
664.293	0.0153679
664.371	0.0154525
664.449	0.0154066
664.527	0.0155340
664.605	0.0154686
664.683	0.0156004
664.761	0.0155173
664.840	0.0154898
664.918	0.0156019
664.996	0.0156242
665.074	0.0154828
665.152	0.0153988
665.230	0.0154501
665.308	0.0154660
665.386	0.0154708
665.465	0.0155155
665.543	0.0154961
665.621	0.0154549
665.699	0.0154496
665.777	0.0154855
665.855	0.0155804
665.933	0.0155037
666.011	0.0155280
666.090	0.0153336
666.168	0.0154330
666.246	0.0154839
666.324	0.0154000
666.402	0.0154192
666.480	0.0153992
666.558	0.0154819
666.636	0.0153683
666.715	0.0152777
666.793	0.0154773
666.871	0.0154275
666.949	0.0155395
667.027	0.0154257
667.105	0.0154322
667.183	0.0154001
667.261	0.0153081
667.340	0.0154303
667.418	0.0154157
667.496	0.0153930
667.574	0.0154421
667.652	0.0153003
667.730	0.0153716
667.808	0.0154853
667.886	0.0154164
667.965	0.0152378
668.043	0.0153605
668.121	0.0153793
668.199	0.0153683
668.277	0.0152341
668.355	0.0153955
668.433	0.0153902
668.511	0.0153937
668.590	0.0153893
668.668	0.0153918
668.746	0.0152861
668.824	0.0154387
668.902	0.0154544
668.980	0.0154379
669.058	0.0152864
669.136	0.0154559
669.215	0.0152435
669.293	0.0152268
669.371	0.0154111
669.449	0.0153085
669.527	0.0152477
669.605	0.0154210
669.683	0.0153238
669.761	0.0152448
669.840	0.0153557
669.918	0.0154525
669.996	0.0152905
670.074	0.0152913
670.152	0.0154487
670.230	0.0153288
670.308	0.0153243
670.386	0.0152855
670.465	0.0152203
670.543	0.0153656
670.621	0.0153316
670.699	0.0153107
670.777	0.0153680
670.855	0.0151844
670.933	0.0152834
671.011	0.0154197
671.090	0.0152737
671.168	0.0152782
671.246	0.0151229
671.324	0.0151611
671.402	0.0153234
671.480	0.0154150
671.558	0.0153424
671.636	0.0151682
671.715	0.0154235
671.793	0.0153039
671.871	0.0152583
671.949	0.0153098
672.027	0.0153765
672.105	0.0153288
672.183	0.0153310
672.261	0.0153653
672.340	0.0153203
672.418	0.0154340
672.496	0.0153364
672.574	0.0153991
672.652	0.0155053
672.730	0.0153840
672.808	0.0153981
672.886	0.0153969
672.965	0.0153998
673.043	0.0154308
673.121	0.0154442
673.199	0.0153972
673.277	0.0152650
673.355	0.0155217
673.433	0.0154060
673.511	0.0153920
673.590	0.0153091
673.668	0.0152718
673.746	0.0153747
673.824	0.0152574
673.902	0.0154112
673.980	0.0153962
674.058	0.0153931
674.136	0.0155663
674.215	0.0154624
674.293	0.0153575
674.371	0.0154606
674.449	0.0155025
674.527	0.0153823
674.605	0.0153363
674.683	0.0155275
674.761	0.0154066
674.840	0.0154494
674.918	0.0153344
674.996	0.0154948
675.074	0.0155157
675.152	0.0153940
675.230	0.0153362
675.308	0.0154102
675.386	0.0155417
675.465	0.0153870
675.543	0.0153252
675.621	0.0154014
675.699	0.0153639
675.777	0.0151326
675.855	0.0152636
675.933	0.0153320
676.011	0.0153813
676.090	0.0153568
676.168	0.0151997
676.246	0.0153442
676.324	0.0153661
676.402	0.0153806
676.480	0.0152984
676.558	0.0154292
676.636	0.0152821
676.715	0.0152901
676.793	0.0153377
676.871	0.0153902
676.949	0.0154803
677.027	0.0153566
677.105	0.0152670
677.183	0.0151598
677.261	0.0152248
677.340	0.0151402
677.418	0.0151561
677.496	0.0151991
677.574	0.0151598
677.652	0.0152119
677.730	0.0152084
677.808	0.0152392
677.886	0.0153020
677.965	0.0152415
678.043	0.0152586
678.121	0.0152655
678.199	0.0152689
678.277	0.0152326
678.355	0.0152710
678.433	0.0153598
678.511	0.0153040
678.590	0.0152285
678.668	0.0152415
678.746	0.0153497
678.824	0.0152357
678.902	0.0153034
678.980	0.0153015
679.058	0.0153410
679.136	0.0152207
679.215	0.0152653
679.293	0.0152807
679.371	0.0151514
679.449	0.0151667
679.527	0.0152727
679.605	0.0154467
679.683	0.0153381
679.761	0.0153062
679.840	0.0152649
679.918	0.0152680
679.996	0.0152338
680.074	0.0152768
680.152	0.0152759
680.230	0.0152608
680.308	0.0151003
680.386	0.0152927
680.465	0.0152885
680.543	0.0152864
680.621	0.0152904
680.699	0.0151147
680.777	0.0152703
680.855	0.0154702
680.933	0.0153379
681.011	0.0151486
681.090	0.0150443
681.168	0.0151377
681.246	0.0152957
681.324	0.0152606
681.402	0.0151353
681.480	0.0152576
681.558	0.0152007
681.636	0.0152406
681.715	0.0151273
681.793	0.0153340
681.871	0.0152300
681.949	0.0153149
682.027	0.0151331
682.105	0.0152151
682.183	0.0153741
682.261	0.0152860
682.340	0.0152654
682.418	0.0151936
682.496	0.0151912
682.574	0.0152086
682.652	0.0153133
682.730	0.0153191
682.808	0.0152672
682.886	0.0153358
682.965	0.0152230
683.043	0.0152597
683.121	0.0153496
683.199	0.0152275
683.277	0.0151651
683.355	0.0151839
683.433	0.0152615
683.511	0.0152772
683.590	0.0153928
683.668	0.0151496
683.746	0.0152889
683.824	0.0153087
683.902	0.0154881
683.980	0.0152554
684.058	0.0152771
684.136	0.0152890
684.215	0.0153080
684.293	0.0153681
684.371	0.0152927
684.449	0.0153725
684.527	0.0152892
684.605	0.0151601
684.683	0.0152998
684.761	0.0152979
684.840	0.0153031
684.918	0.0152475
684.996	0.0153925
685.074	0.0153331
685.152	0.0154139
685.230	0.0153389
685.308	0.0153008
685.386	0.0153960
685.465	0.0155634
685.543	0.0154649
685.621	0.0153355
685.699	0.0153836
685.777	0.0153640
685.855	0.0153288
685.933	0.0154063
686.011	0.0152541
686.090	0.0152914
686.168	0.0154038
686.246	0.0153472
686.324	0.0152694
686.402	0.0152811
686.480	0.0154393
686.558	0.0153635
686.636	0.0153770
686.715	0.0154498
686.793	0.0153365
686.871	0.0153755
686.949	0.0154179
687.027	0.0153806
687.105	0.0153914
687.183	0.0152811
687.261	0.0153999
687.340	0.0153960
687.418	0.0153828
687.496	0.0153352
687.574	0.0152098
687.652	0.0153924
687.730	0.0152177
687.808	0.0152516
687.886	0.0153575
687.965	0.0153185
688.043	0.0153191
688.121	0.0154345
688.199	0.0153525
688.277	0.0151791
688.355	0.0152203
688.433	0.0152320
688.511	0.0153246
688.590	0.0153653
688.668	0.0153754
688.746	0.0154597
688.824	0.0152125
688.902	0.0152650
688.980	0.0154189
689.058	0.0152985
689.136	0.0153008
689.215	0.0152972
689.293	0.0153534
689.371	0.0154180
689.449	0.0152736
689.527	0.0155041
689.605	0.0152786
689.683	0.0152530
689.761	0.0152977
689.840	0.0153860
689.918	0.0152470
689.996	0.0151997
690.074	0.0153961
690.152	0.0154680
690.230	0.0152309
690.308	0.0151283
690.386	0.0153180
690.465	0.0153619
690.543	0.0152901
690.621	0.0152896
690.699	0.0152993
690.777	0.0152414
690.855	0.0152679
690.933	0.0154459
691.011	0.0153276
691.090	0.0153189
691.168	0.0153024
691.246	0.0151360
691.324	0.0152608
691.402	0.0153058
691.480	0.0152067
691.558	0.0152647
691.636	0.0151775
691.715	0.0152153
691.793	0.0151717
691.871	0.0152745
691.949	0.0153063
692.027	0.0151490
692.105	0.0151892
692.183	0.0153442
692.261	0.0152606
692.340	0.0151518
692.418	0.0152013
692.496	0.0152673
692.574	0.0151299
692.652	0.0152142
692.730	0.0152200
692.808	0.0152925
692.886	0.0152415
692.965	0.0153822
693.043	0.0152277
693.121	0.0152824
693.199	0.0153235
693.277	0.0152873
693.355	0.0152066
693.433	0.0152046
693.511	0.0152203
693.590	0.0153335
693.668	0.0153728
693.746	0.0152350
693.824	0.0151757
693.902	0.0152665
693.980	0.0152612
694.058	0.0152428
694.136	0.0153169
694.215	0.0152200
694.293	0.0152669
694.371	0.0152750
694.449	0.0152219
694.527	0.0151970
694.605	0.0152120
694.683	0.0151409
694.761	0.0152676
694.840	0.0151102
694.918	0.0150655
694.996	0.0152950
695.074	0.0152737
695.152	0.0152292
695.230	0.0152768
695.308	0.0151599
695.386	0.0152846
695.465	0.0152045
695.543	0.0151978
695.621	0.0153104
695.699	0.0154053
695.777	0.0152454
695.855	0.0153010
695.933	0.0151823
696.011	0.0154793
696.090	0.0153299
696.168	0.0152279
696.246	0.0152209
696.324	0.0151861
696.402	0.0152718
696.480	0.0152845
696.558	0.0153032
696.636	0.0152704
696.715	0.0152264
696.793	0.0151646
696.871	0.0152222
696.949	0.0152652
697.027	0.0152130
697.105	0.0150871
697.183	0.0150749
697.261	0.0151752
697.340	0.0150636
697.418	0.0152660
697.496	0.0151485
697.574	0.0151877
697.652	0.0151492
697.730	0.0153072
697.808	0.0152518
697.886	0.0152306
697.965	0.0153255
698.043	0.0152744
698.121	0.0154188
698.199	0.0153143
698.277	0.0152488
698.355	0.0153381
698.433	0.0153165
698.511	0.0153223
698.590	0.0152898
698.668	0.0153114
698.746	0.0153893
698.824	0.0153218
698.902	0.0153741
698.980	0.0153104
699.058	0.0153503
699.136	0.0153340
699.215	0.0153325
699.293	0.0153004
699.371	0.0151633
699.449	0.0152824
699.527	0.0153699
699.605	0.0151875
699.683	0.0151841
699.761	0.0152869
699.840	0.0152421
699.918	0.0151681
699.996	0.0151793
700.074	0.0151489
700.152	0.0151886
700.230	0.0151249
700.308	0.0151355
700.386	0.0152296
700.465	0.0152227
700.543	0.0152660
700.621	0.0151664
700.699	0.0152221
700.777	0.0151945
700.855	0.0152458
700.933	0.0152022
701.011	0.0152511
701.090	0.0153224
701.168	0.0152588
701.246	0.0152193
701.324	0.0153434
701.402	0.0152115
701.480	0.0151807
701.558	0.0152357
701.636	0.0153316
701.715	0.0153796
701.793	0.0153256
701.871	0.0153150
701.949	0.0151884
702.027	0.0152262
702.105	0.0152579
702.183	0.0152710
702.261	0.0152156
702.340	0.0151554
702.418	0.0152973
702.496	0.0154269
702.574	0.0153763
702.652	0.0152147
702.730	0.0154075
702.808	0.0152822
702.886	0.0153518
702.965	0.0152766
703.043	0.0152058
703.121	0.0151457
703.199	0.0152804
703.277	0.0153574
703.355	0.0152410
703.433	0.0151888
703.511	0.0152708
703.590	0.0152386
703.668	0.0152487
703.746	0.0152448
703.824	0.0152949
703.902	0.0152014
703.980	0.0150137
704.058	0.0151625
704.136	0.0151129
704.215	0.0151592
704.293	0.0151996
704.371	0.0151549
704.449	0.0151152
704.527	0.0152116
704.605	0.0152132
704.683	0.0153507
704.761	0.0152412
704.840	0.0151488
704.918	0.0152039
704.996	0.0153189
705.074	0.0152235
705.152	0.0153470
705.230	0.0153548
705.308	0.0152911
705.386	0.0152454
705.465	0.0153535
705.543	0.0152248
705.621	0.0152321
705.699	0.0151611
705.777	0.0151491
705.855	0.0152099
705.933	0.0153783
706.011	0.0153606
706.090	0.0152086
706.168	0.0153699
706.246	0.0151196
706.324	0.0151374
706.402	0.0152140
706.480	0.0152687
706.558	0.0152357
706.636	0.0152186
706.715	0.0152102
706.793	0.0153344
706.871	0.0152324
706.949	0.0152163
707.027	0.0152089
707.105	0.0153001
707.183	0.0153137
707.261	0.0152920
707.340	0.0152718
707.418	0.0153035
707.496	0.0153897
707.574	0.0153056
707.652	0.0151921
707.730	0.0153330
707.808	0.0151467
707.886	0.0152236
707.965	0.0153468
708.043	0.0153828
708.121	0.0151826
708.199	0.0153455
708.277	0.0152092
708.355	0.0152095
708.433	0.0152145
708.511	0.0150262
708.590	0.0152382
708.668	0.0152741
708.746	0.0150835
708.824	0.0152918
708.902	0.0153166
708.980	0.0152887
709.058	0.0153533
709.136	0.0151363
709.215	0.0153430
709.293	0.0151898
709.371	0.0153679
709.449	0.0152894
709.527	0.0151138
709.605	0.0153311
709.683	0.0153092
709.761	0.0152499
709.840	0.0153135
709.918	0.0153025
709.996	0.0153551
710.074	0.0152132
710.152	0.0153726
710.230	0.0154118
710.308	0.0152923
710.386	0.0152000
710.465	0.0151325
710.543	0.0151901
710.621	0.0152043
710.699	0.0153377
710.777	0.0151756
710.855	0.0151142
710.933	0.0150444
711.011	0.0150562
711.090	0.0149862
711.168	0.0149971
711.246	0.0150740
711.324	0.0151285
711.402	0.0151826
711.480	0.0151776
711.558	0.0151701
711.636	0.0151552
711.715	0.0153183
711.793	0.0154603
711.871	0.0152580
711.949	0.0153276
712.027	0.0154710
712.105	0.0154109
712.183	0.0154043
712.261	0.0154621
712.340	0.0156283
712.418	0.0154768
712.496	0.0154937
712.574	0.0155318
712.652	0.0154507
712.730	0.0153674
712.808	0.0155627
712.886	0.0153754
712.965	0.0154089
713.043	0.0153522
713.121	0.0154678
713.199	0.0152350
713.277	0.0153880
713.355	0.0152364
713.433	0.0152097
713.511	0.0152140
713.590	0.0152940
713.668	0.0151939
713.746	0.0151548
713.824	0.0152683
713.902	0.0152281
713.980	0.0152795
714.058	0.0150884
714.136	0.0153596
714.215	0.0152693
714.293	0.0152756
714.371	0.0153979
714.449	0.0153379
714.527	0.0152518
714.605	0.0154916
714.683	0.0154024
714.761	0.0154826
714.840	0.0154541
714.918	0.0153737
714.996	0.0154520
715.074	0.0154264
715.152	0.0153314
715.230	0.0153745
715.308	0.0152604
715.386	0.0152235
715.465	0.0152279
715.543	0.0152148
715.621	0.0152301
715.699	0.0153014
715.777	0.0151509
715.855	0.0152630
715.933	0.0152861
716.011	0.0152242
716.090	0.0152781
716.168	0.0154403
716.246	0.0154127
716.324	0.0154629
716.402	0.0155533
716.480	0.0155425
716.558	0.0156880
716.636	0.0156298
716.715	0.0156273
716.793	0.0156325
716.871	0.0156599
716.949	0.0157853
717.027	0.0157894
717.105	0.0157523
717.183	0.0156644
717.261	0.0157964
717.340	0.0156870
717.418	0.0156001
717.496	0.0155633
717.574	0.0156621
717.652	0.0153919
717.730	0.0152885
717.808	0.0154073
717.886	0.0151969
717.965	0.0152006
718.043	0.0151116
718.121	0.0150647
718.199	0.0148930
718.277	0.0149874
718.355	0.0150378
718.433	0.0147828
718.511	0.0149779
718.590	0.0150306
718.668	0.0148523
718.746	0.0148910
718.824	0.0149426
718.902	0.0150623
718.980	0.0150971
719.058	0.0151363
719.136	0.0152168
719.215	0.0152644
719.293	0.0154295
719.371	0.0155648
719.449	0.0154568
719.527	0.0157175
719.605	0.0157205
719.683	0.0158383
719.761	0.0157783
719.840	0.0159608
719.918	0.0159418
719.996	0.0158696
720.074	0.0157262
720.152	0.0157015
720.230	0.0158775
720.308	0.0157536
720.386	0.0156750
720.465	0.0156052
720.543	0.0154779
720.621	0.0154270
720.699	0.0153581
720.777	0.0153680
720.855	0.0152528
720.933	0.0153193
721.011	0.0152578
721.090	0.0152505
721.168	0.0153966
721.246	0.0153130
721.324	0.0149935
721.402	0.0151138
721.480	0.0150893
721.558	0.0151163
721.636	0.0150609
721.715	0.0151823
721.793	0.0151699
721.871	0.0151666
721.949	0.0151508
722.027	0.0152739
722.105	0.0152798
722.183	0.0152971
722.261	0.0154572
722.340	0.0153741
722.418	0.0155679
722.496	0.0155264
722.574	0.0155468
722.652	0.0155605
722.730	0.0156822
722.808	0.0156048
722.886	0.0155336
722.965	0.0158868
723.043	0.0157888
723.121	0.0155317
723.199	0.0156358
723.277	0.0157700
723.355	0.0156317
723.433	0.0154531
723.511	0.0153381
723.590	0.0153615
723.668	0.0153011
723.746	0.0153192
723.824	0.0153947
723.902	0.0153156
723.980	0.0153758
724.058	0.0152630
724.136	0.0151811
724.215	0.0152001
724.293	0.0152598
724.371	0.0152143
724.449	0.0151258
724.527	0.0151199
724.605	0.0152142
724.683	0.0153989
724.761	0.0153017
724.840	0.0152688
724.918	0.0154637
724.996	0.0153062
725.074	0.0153938
725.152	0.0154623
725.230	0.0152789
725.308	0.0154050
725.386	0.0152940
725.465	0.0152142
725.543	0.0151399
725.621	0.0150114
725.699	0.0148922
725.777	0.0150671
725.855	0.0147246
725.933	0.0147329
726.011	0.0146680
726.090	0.0145394
726.168	0.0145049
726.246	0.0146558
726.324	0.0146772
726.402	0.0145124
726.480	0.0146294
726.558	0.0147227
726.636	0.0149248
726.715	0.0150101
726.793	0.0151604
726.871	0.0154355
726.949	0.0155804
727.027	0.0158050
727.105	0.0159588
727.183	0.0161459
727.261	0.0163475
727.340	0.0164350
727.418	0.0164796
727.496	0.0168553
727.574	0.0167035
727.652	0.0167735
727.730	0.0168543
727.808	0.0168161
727.886	0.0165141
727.965	0.0166205
728.043	0.0164829
728.121	0.0163026
728.199	0.0162099
728.277	0.0159794
728.355	0.0157021
728.433	0.0154902
728.511	0.0152047
728.590	0.0151853
728.668	0.0148780
728.746	0.0146534
728.824	0.0145046
728.902	0.0142989
728.980	0.0140628
729.058	0.0140466
729.136	0.0140359
729.215	0.0138322
729.293	0.0137301
729.371	0.0136696
729.449	0.0138021
729.527	0.0138538
729.605	0.0138046
729.683	0.0139629
729.761	0.0141309
729.840	0.0141833
729.918	0.0142363
729.996	0.0144811
730.074	0.0147096
730.152	0.0145748
730.230	0.0149224
730.308	0.0151324
730.386	0.0151593
730.465	0.0153262
730.543	0.0155297
730.621	0.0156657
730.699	0.0158031
730.777	0.0161106
730.855	0.0162858
730.933	0.0163641
731.011	0.0165324
731.090	0.0166341
731.168	0.0166283
731.246	0.0168582
731.324	0.0169892
731.402	0.0168404
731.480	0.0168989
731.558	0.0168635
731.636	0.0169540
731.715	0.0170011
731.793	0.0167158
731.871	0.0167051
731.949	0.0166652
732.027	0.0164328
732.105	0.0162460
732.183	0.0159828
732.261	0.0159454
732.340	0.0156763
732.418	0.0155950
732.496	0.0154267
732.574	0.0153579
732.652	0.0150237
732.730	0.0148289
732.808	0.0147311
732.886	0.0147383
732.965	0.0144798
733.043	0.0145140
733.121	0.0143300
733.199	0.0143449
733.277	0.0145411
733.355	0.0144638
733.433	0.0144304
733.511	0.0144438
733.590	0.0145425
733.668	0.0145729
733.746	0.0146031
733.824	0.0145901
733.902	0.0147463
733.980	0.0148786
734.058	0.0149306
734.136	0.0150285
734.215	0.0150582
734.293	0.0151204
734.371	0.0151887
734.449	0.0151752
734.527	0.0151256
734.605	0.0153165
734.683	0.0152098
734.761	0.0154241
734.840	0.0153357
734.918	0.0153326
734.996	0.0153363
735.074	0.0155421
735.152	0.0154641
735.230	0.0156789
735.308	0.0157170
735.386	0.0157242
735.465	0.0158572
735.543	0.0159502
735.621	0.0160323
735.699	0.0161668
735.777	0.0162957
735.855	0.0163740
735.933	0.0163065
736.011	0.0165244
736.090	0.0166389
736.168	0.0164619
736.246	0.0162978
736.324	0.0163170
736.402	0.0161776
736.480	0.0161526
736.558	0.0160971
736.636	0.0159137
736.715	0.0157265
736.793	0.0155002
736.871	0.0153600
736.949	0.0154179
737.027	0.0153654
737.105	0.0153283
737.183	0.0150594
737.261	0.0151737
737.340	0.0149974
737.418	0.0150837
737.496	0.0150903
737.574	0.0150446
737.652	0.0150480
737.730	0.0150838
737.808	0.0151885
737.886	0.0152480
737.965	0.0152386
738.043	0.0153304
738.121	0.0153625
738.199	0.0154165
738.277	0.0152940
738.355	0.0153293
738.433	0.0153409
738.511	0.0152738
738.590	0.0150860
738.668	0.0152223
738.746	0.0153387
738.824	0.0152431
738.902	0.0151370
738.980	0.0150527
739.058	0.0150025
739.136	0.0150092
739.215	0.0150927
739.293	0.0150285
739.371	0.0150381
739.449	0.0150852
739.527	0.0150396
739.605	0.0152378
739.683	0.0153716
739.761	0.0153456
739.840	0.0154166
739.918	0.0155009
739.996	0.0154971
740.074	0.0155742
740.152	0.0157269
740.230	0.0158580
740.308	0.0158994
740.386	0.0158481
740.465	0.0159353
740.543	0.0159039
740.621	0.0158649
740.699	0.0159319
740.777	0.0158199
740.855	0.0158224
740.933	0.0157893
741.011	0.0156565
741.090	0.0155905
741.168	0.0155982
741.246	0.0155011
741.324	0.0153703
741.402	0.0154373
741.480	0.0153511
741.558	0.0152683
741.636	0.0153341
741.715	0.0152779
741.793	0.0152045
741.871	0.0153194
741.949	0.0154130
742.027	0.0153942
742.105	0.0154199
742.183	0.0155846
742.261	0.0156142
742.340	0.0156152
742.418	0.0157340
742.496	0.0157935
742.574	0.0159003
742.652	0.0160207
742.730	0.0158412
742.808	0.0158562
742.886	0.0160313
742.965	0.0158108
743.043	0.0156638
743.121	0.0156237
743.199	0.0155207
743.277	0.0154106
743.355	0.0154033
743.433	0.0152460
743.511	0.0152023
743.590	0.0151229
743.668	0.0150688
743.746	0.0150635
743.824	0.0147730
743.902	0.0148441
743.980	0.0148163
744.058	0.0150529
744.136	0.0148817
744.215	0.0147397
744.293	0.0148609
744.371	0.0149310
744.449	0.0148197
744.527	0.0147311
744.605	0.0148700
744.683	0.0148711
744.761	0.0150488
744.840	0.0150204
744.918	0.0148655
744.996	0.0151254
745.074	0.0151848
745.152	0.0152152
745.230	0.0154169
745.308	0.0154133
745.386	0.0155223
745.465	0.0155894
745.543	0.0156489
745.621	0.0158649
745.699	0.0159277
745.777	0.0160494
745.855	0.0160522
745.933	0.0162477
746.011	0.0163640
746.090	0.0161948
746.168	0.0162869
746.246	0.0162501
746.324	0.0162857
746.402	0.0162433
746.480	0.0162220
746.558	0.0161897
746.636	0.0159724
746.715	0.0158773
746.793	0.0157643
746.871	0.0155882
746.949	0.0153982
747.027	0.0153469
747.105	0.0151857
747.183	0.0150689
747.261	0.0151309
747.340	0.0150461
747.418	0.0147768
747.496	0.0147630
747.574	0.0145387
747.652	0.0147140
747.730	0.0146922
747.808	0.0145071
747.886	0.0146199
747.965	0.0146147
748.043	0.0145856
748.121	0.0146322
748.199	0.0147311
748.277	0.0147449
748.355	0.0148322
748.433	0.0147694
748.511	0.0151392
748.590	0.0150974
748.668	0.0151849
748.746	0.0152367
748.824	0.0153871
748.902	0.0153125
748.980	0.0154065
749.058	0.0156528
749.136	0.0155239
749.215	0.0155484
749.293	0.0157600
749.371	0.0155798
749.449	0.0155104
749.527	0.0155466
749.605	0.0155444
749.683	0.0154387
749.761	0.0154813
749.840	0.0153350
749.918	0.0153969
749.996	0.0153054
750.074	0.0153725
750.152	0.0154152
750.230	0.0155127
750.308	0.0155320
750.386	0.0153395
750.465	0.0154689
750.543	0.0155278
750.621	0.0154938
750.699	0.0155378
750.777	0.0156165
750.855	0.0155406
750.933	0.0156086
751.011	0.0155076
751.090	0.0155927
751.168	0.0156123
751.246	0.0155273
751.324	0.0156819
751.402	0.0158298
751.480	0.0156441
751.558	0.0155956
751.636	0.0155550
751.715	0.0156043
751.793	0.0156050
751.871	0.0154885
751.949	0.0152766
752.027	0.0153009
752.105	0.0152194
752.183	0.0152446
752.261	0.0151727
752.340	0.0150773
752.418	0.0149860
752.496	0.0150037
752.574	0.0149750
752.652	0.0149376
752.730	0.0149277
752.808	0.0148967
752.886	0.0148976
752.965	0.0148592
753.043	0.0148215
753.121	0.0149583
753.199	0.0148771
753.277	0.0148422
753.355	0.0149187
753.433	0.0149989
753.511	0.0150333
753.590	0.0151968
753.668	0.0149792
753.746	0.0153066
753.824	0.0152180
753.902	0.0152966
753.980	0.0152797
754.058	0.0155117
754.136	0.0155931
754.215	0.0154851
754.293	0.0155552
754.371	0.0157460
754.449	0.0156673
754.527	0.0157207
754.605	0.0156001
754.683	0.0156868
754.761	0.0157740
754.840	0.0156883
754.918	0.0156567
754.996	0.0156215
755.074	0.0157211
755.152	0.0156846
755.230	0.0155434
755.308	0.0155865
755.386	0.0154525
755.465	0.0154330
755.543	0.0155331
755.621	0.0154710
755.699	0.0153881
755.777	0.0154384
755.855	0.0152144
755.933	0.0152040
756.011	0.0152843
756.090	0.0152867
756.168	0.0151347
756.246	0.0153625
756.324	0.0152871
756.402	0.0153982
756.480	0.0153638
756.558	0.0155573
756.636	0.0156378
756.715	0.0155904
756.793	0.0157467
756.871	0.0158582
756.949	0.0157694
757.027	0.0159083
757.105	0.0159023
757.183	0.0160376
757.261	0.0160393
757.340	0.0159638
757.418	0.0159764
757.496	0.0157986
757.574	0.0158305
757.652	0.0156672
757.730	0.0153320
757.808	0.0153834
757.886	0.0152135
757.965	0.0150658
758.043	0.0148094
758.121	0.0147002
758.199	0.0146312
758.277	0.0144956
758.355	0.0144371
758.433	0.0144099
758.511	0.0143395
758.590	0.0143914
758.668	0.0144386
758.746	0.0144527
758.824	0.0145871
758.902	0.0146848
758.980	0.0147356
759.058	0.0148604
759.136	0.0149089
759.215	0.0151712
759.293	0.0151634
759.371	0.0153670
759.449	0.0154230
759.527	0.0154878
759.605	0.0157014
759.683	0.0155247
759.761	0.0157856
759.840	0.0157134
759.918	0.0157652
759.996	0.0159180
760.074	0.0158299
760.152	0.0159687
760.230	0.0159943
760.308	0.0158158
760.386	0.0157827
760.465	0.0157136
760.543	0.0157803
760.621	0.0158829
760.699	0.0157497
760.777	0.0157313
760.855	0.0155881
760.933	0.0156147
761.011	0.0154285
761.090	0.0155196
761.168	0.0156031
761.246	0.0153085
761.324	0.0152794
761.402	0.0153684
761.480	0.0152621
761.558	0.0151596
761.636	0.0152850
761.715	0.0152209
761.793	0.0153030
761.871	0.0151952
761.949	0.0151688
762.027	0.0151531
762.105	0.0151745
762.183	0.0151845
762.261	0.0151508
762.340	0.0152113
762.418	0.0152352
762.496	0.0152652
762.574	0.0153207
762.652	0.0153642
762.730	0.0154057
762.808	0.0155353
762.886	0.0157124
762.965	0.0155989
763.043	0.0155670
763.121	0.0154195
763.199	0.0154170
763.277	0.0155129
763.355	0.0155132
763.433	0.0154356
763.511	0.0153477
763.590	0.0152950
763.668	0.0152360
763.746	0.0152007
763.824	0.0152017
763.902	0.0150136
763.980	0.0148946
764.058	0.0149486
764.136	0.0148416
764.215	0.0148274
764.293	0.0149598
764.371	0.0148497
764.449	0.0149106
764.527	0.0148871
764.605	0.0149197
764.683	0.0151513
764.761	0.0150880
764.840	0.0151393
764.918	0.0153838
764.996	0.0153123
765.074	0.0154277
765.152	0.0155213
765.230	0.0154709
765.308	0.0155303
765.386	0.0154869
765.465	0.0156207
765.543	0.0155691
765.621	0.0155434
765.699	0.0155845
765.777	0.0156394
765.855	0.0155260
765.933	0.0155886
766.011	0.0155674
766.090	0.0156815
766.168	0.0157665
766.246	0.0155591
766.324	0.0155818
766.402	0.0156358
766.480	0.0155895
766.558	0.0154395
766.636	0.0155255
766.715	0.0154855
766.793	0.0153569
766.871	0.0152320
766.949	0.0153325
767.027	0.0152829
767.105	0.0152155
767.183	0.0151417
767.261	0.0152424
767.340	0.0150976
767.418	0.0152576
767.496	0.0151984
767.574	0.0152161
767.652	0.0151907
767.730	0.0150285
767.808	0.0152151
767.886	0.0153191
767.965	0.0151883
768.043	0.0153324
768.121	0.0152829
768.199	0.0153594
768.277	0.0155439
768.355	0.0157349
768.433	0.0156142
768.511	0.0156747
768.590	0.0159204
768.668	0.0158064
768.746	0.0157955
768.824	0.0160271
768.902	0.0158855
768.980	0.0157465
769.058	0.0157601
769.136	0.0158883
769.215	0.0157837
769.293	0.0154934
769.371	0.0154506
769.449	0.0154061
769.527	0.0152287
769.605	0.0152003
769.683	0.0150668
769.761	0.0150106
769.840	0.0148638
769.918	0.0146005
769.996	0.0147007
770.074	0.0148475
770.152	0.0148187
770.230	0.0147116
770.308	0.0148552
770.386	0.0150188
770.465	0.0149308
770.543	0.0149954
770.621	0.0151414
770.699	0.0150649
770.777	0.0152390
770.855	0.0152402
770.933	0.0152192
771.011	0.0153210
771.090	0.0153922
771.168	0.0154010
771.246	0.0152910
771.324	0.0153513
771.402	0.0154271
771.480	0.0155410
771.558	0.0153648
771.636	0.0154990
771.715	0.0154410
771.793	0.0154783
771.871	0.0155172
771.949	0.0156250
772.027	0.0155683
772.105	0.0155619
772.183	0.0155157
772.261	0.0156314
772.340	0.0155168
772.418	0.0155799
772.496	0.0153400
772.574	0.0153565
772.652	0.0153452
772.730	0.0151378
772.808	0.0153056
772.886	0.0153657
772.965	0.0152887
773.043	0.0151057
773.121	0.0151289
773.199	0.0151192
773.277	0.0151553
773.355	0.0152350
773.433	0.0153553
773.511	0.0153229
773.590	0.0153719
773.668	0.0153633
773.746	0.0153998
773.824	0.0153307
773.902	0.0154468
773.980	0.0154187
774.058	0.0153844
774.136	0.0153857
774.215	0.0154655
774.293	0.0154613
774.371	0.0153993
774.449	0.0154077
774.527	0.0153255
774.605	0.0154601
774.683	0.0154011
774.761	0.0153905
774.840	0.0154285
774.918	0.0154765
774.996	0.0154736
775.074	0.0154536
775.152	0.0155029
775.230	0.0152297
775.308	0.0153305
775.386	0.0153327
775.465	0.0151044
775.543	0.0151900
775.621	0.0152204
775.699	0.0151048
775.777	0.0150488
775.855	0.0149740
775.933	0.0150370
776.011	0.0150182
776.090	0.0149329
776.168	0.0148727
776.246	0.0150828
776.324	0.0151847
776.402	0.0151077
776.480	0.0151357
776.558	0.0150589
776.636	0.0151337
776.715	0.0150980
776.793	0.0152959
776.871	0.0152617
776.949	0.0154516
777.027	0.0155586
777.105	0.0154879
777.183	0.0156513
777.261	0.0157487
777.340	0.0156718
777.418	0.0156950
777.496	0.0158120
777.574	0.0156981
777.652	0.0157372
777.730	0.0156834
777.808	0.0156455
777.886	0.0157199
777.965	0.0157114
778.043	0.0155437
778.121	0.0155610
778.199	0.0155550
778.277	0.0154443
778.355	0.0154575
778.433	0.0153743
778.511	0.0151970
778.590	0.0151530
778.668	0.0151673
778.746	0.0150037
778.824	0.0150203
778.902	0.0149863
778.980	0.0150069
779.058	0.0151637
779.136	0.0151761
779.215	0.0150300
779.293	0.0150453
779.371	0.0152898
779.449	0.0153157
779.527	0.0152896
779.605	0.0153323
779.683	0.0154607
779.761	0.0155348
779.840	0.0156269
779.918	0.0155829
779.996	0.0154604
780.074	0.0153730
780.152	0.0153416
780.230	0.0154322
780.308	0.0153856
780.386	0.0153909
780.465	0.0153519
780.543	0.0153428
780.621	0.0153831
780.699	0.0153600
780.777	0.0153765
780.855	0.0151515
780.933	0.0152693
781.011	0.0152936
781.090	0.0152959
781.168	0.0151647
781.246	0.0152427
781.324	0.0151658
781.402	0.0151534
781.480	0.0150349
781.558	0.0150587
781.636	0.0150211
781.715	0.0149425
781.793	0.0150012
781.871	0.0150806
781.949	0.0149303
782.027	0.0149282
782.105	0.0149162
782.183	0.0148631
782.261	0.0150375
782.340	0.0150393
782.418	0.0149266
782.496	0.0149706
782.574	0.0150394
782.652	0.0151021
782.730	0.0152104
782.808	0.0152615
782.886	0.0151913
782.965	0.0151931
783.043	0.0152831
783.121	0.0153457
783.199	0.0154514
783.277	0.0154601
783.355	0.0155099
783.433	0.0156071
783.511	0.0155350
783.590	0.0155757
783.668	0.0156425
783.746	0.0156380
783.824	0.0155582
783.902	0.0156576
783.980	0.0155990
784.058	0.0154640
784.136	0.0155174
784.215	0.0156010
784.293	0.0155670
784.371	0.0154505
784.449	0.0153478
784.527	0.0153062
784.605	0.0153515
784.683	0.0153887
784.761	0.0153014
784.840	0.0152023
784.918	0.0152542
784.996	0.0152996
785.074	0.0152280
785.152	0.0152911
785.230	0.0152630
785.308	0.0152561
785.386	0.0152425
785.465	0.0154046
785.543	0.0153169
785.621	0.0152950
785.699	0.0153326
785.777	0.0151688
785.855	0.0151785
785.933	0.0152322
786.011	0.0151874
786.090	0.0151474
786.168	0.0150320
786.246	0.0149894
786.324	0.0149664
786.402	0.0151283
786.480	0.0149204
786.558	0.0149409
786.636	0.0150237
786.715	0.0149044
786.793	0.0148673
786.871	0.0149364
786.949	0.0150136
787.027	0.0150298
787.105	0.0151424
787.183	0.0151591
787.261	0.0152539
787.340	0.0152248
787.418	0.0152371
787.496	0.0153152
787.574	0.0153289
787.652	0.0153623
787.730	0.0154662
787.808	0.0153611
787.886	0.0154311
787.965	0.0155180
788.043	0.0153523
788.121	0.0153045
788.199	0.0153663
788.277	0.0154925
788.355	0.0154710
788.433	0.0153702
788.511	0.0153982
788.590	0.0154021
788.668	0.0152224
788.746	0.0153246
788.824	0.0154091
788.902	0.0152446
788.980	0.0154017
789.058	0.0153173
789.136	0.0154144
789.215	0.0154112
789.293	0.0153793
789.371	0.0154494
789.449	0.0153082
789.527	0.0154694
789.605	0.0151906
789.683	0.0153349
789.761	0.0153745
789.840	0.0150998
789.918	0.0152267
789.996	0.0152444
790.074	0.0151389
790.152	0.0151142
790.230	0.0151398
790.308	0.0151624
790.386	0.0150492
790.465	0.0152386
790.543	0.0151717
790.621	0.0153343
790.699	0.0154193
790.777	0.0152526
790.855	0.0154214
790.933	0.0154240
791.011	0.0155067
791.090	0.0155284
791.168	0.0156021
791.246	0.0157047
791.324	0.0157743
791.402	0.0157043
791.480	0.0156265
791.558	0.0157760
791.636	0.0157007
791.715	0.0156037
791.793	0.0155628
791.871	0.0156356
791.949	0.0156818
792.027	0.0155668
792.105	0.0155472
792.183	0.0155016
792.261	0.0154221
792.340	0.0153864
792.418	0.0154411
792.496	0.0152663
792.574	0.0152711
792.652	0.0152773
792.730	0.0151453
792.808	0.0151820
792.886	0.0151714
792.965	0.0152492
793.043	0.0151757
793.121	0.0152280
793.199	0.0151653
793.277	0.0151779
793.355	0.0153695
793.433	0.0153484
793.511	0.0153632
793.590	0.0153617
793.668	0.0153922
793.746	0.0154956
793.824	0.0155521
793.902	0.0155051
793.980	0.0154836
794.058	0.0154765
794.136	0.0154241
794.215	0.0153910
794.293	0.0156094
794.371	0.0154081
794.449	0.0154711
794.527	0.0153039
794.605	0.0153481
794.683	0.0153960
794.761	0.0153779
794.840	0.0153856
794.918	0.0153204
794.996	0.0153815
795.074	0.0154042
795.152	0.0154193
795.230	0.0153197
795.308	0.0154068
795.386	0.0154683
795.465	0.0154782
795.543	0.0153987
795.621	0.0154689
795.699	0.0154578
795.777	0.0155566
795.855	0.0154395
795.933	0.0155847
796.011	0.0155968
796.090	0.0156253
796.168	0.0156593
796.246	0.0155713
796.324	0.0155932
796.402	0.0156135
796.480	0.0155388
796.558	0.0155332
796.636	0.0156287
796.715	0.0154211
796.793	0.0155995
796.871	0.0156293
796.949	0.0154744
797.027	0.0155002
797.105	0.0154554
797.183	0.0155251
797.261	0.0156845
797.340	0.0155336
797.418	0.0156134
797.496	0.0155410
797.574	0.0154659
797.652	0.0154321
797.730	0.0155177
797.808	0.0155006
797.886	0.0155803
797.965	0.0153947
798.043	0.0155306
798.121	0.0155493
798.199	0.0156026
798.277	0.0154565
798.355	0.0153956
798.433	0.0154385
798.511	0.0153077
798.590	0.0153522
798.668	0.0153325
798.746	0.0152664
798.824	0.0153760
798.902	0.0152573
798.980	0.0151974
799.058	0.0150813
799.136	0.0151572
799.215	0.0152155
799.293	0.0152694
799.371	0.0153913
799.449	0.0153999
799.527	0.0154800
799.605	0.0154643
799.683	0.0154626
799.761	0.0155740
799.840	0.0157381
799.918	0.0157608
799.996	0.0154749
800.074	0.0157124
800.152	0.0156044
800.230	0.0157182
800.308	0.0156622
800.386	0.0156979
800.465	0.0156461
800.543	0.0156601
800.621	0.0155459
800.699	0.0153180
800.777	0.0155383
800.855	0.0154220
800.933	0.0152133
801.011	0.0153571
801.090	0.0150330
801.168	0.0152522
801.246	0.0151180
801.324	0.0152094
801.402	0.0152795
801.480	0.0151405
801.558	0.0153791
801.636	0.0153583
801.715	0.0152195
801.793	0.0152905
801.871	0.0152398
801.949	0.0153115
802.027	0.0153749
802.105	0.0153355
802.183	0.0153981
802.261	0.0156357
802.340	0.0154536
802.418	0.0153261
802.496	0.0155241
802.574	0.0154243
802.652	0.0152913
802.730	0.0154082
802.808	0.0154324
802.886	0.0155399
802.965	0.0153615
803.043	0.0154417
803.121	0.0153442
803.199	0.0153371
803.277	0.0155888
803.355	0.0155064
803.433	0.0154046
803.511	0.0154719
803.590	0.0155673
803.668	0.0155166
803.746	0.0154997
803.824	0.0155196
803.902	0.0155526
803.980	0.0156650
804.058	0.0153929
804.136	0.0156579
804.215	0.0155887
804.293	0.0154961
804.371	0.0155801
804.449	0.0155428
804.527	0.0155216
804.605	0.0155401
804.683	0.0154486
804.761	0.0153924
804.840	0.0153682
804.918	0.0152206
804.996	0.0152395
805.074	0.0152629
805.152	0.0151575
805.230	0.0150992
805.308	0.0151086
805.386	0.0151456
805.465	0.0151032
805.543	0.0151453
805.621	0.0151840
805.699	0.0152515
805.777	0.0150968
805.855	0.0150082
805.933	0.0150870
806.011	0.0150425
806.090	0.0151678
806.168	0.0153232
806.246	0.0153226
806.324	0.0153471
806.402	0.0153766
806.480	0.0153423
806.558	0.0153158
806.636	0.0153896
806.715	0.0154075
806.793	0.0154208
806.871	0.0153628
806.949	0.0154761
807.027	0.0154025
807.105	0.0155463
807.183	0.0155733
807.261	0.0152499
807.340	0.0152985
807.418	0.0152425
807.496	0.0152512
807.574	0.0153645
807.652	0.0153217
807.730	0.0153049
807.808	0.0152918
807.886	0.0153143
807.965	0.0153281
808.043	0.0152937
808.121	0.0151441
808.199	0.0153427
808.277	0.0154079
808.355	0.0153381
808.433	0.0153188
808.511	0.0153236
808.590	0.0155249
808.668	0.0152036
808.746	0.0153008
808.824	0.0155103
808.902	0.0153423
808.980	0.0153722
809.058	0.0152681
809.136	0.0153642
809.215	0.0152876
809.293	0.0154032
809.371	0.0152729
809.449	0.0152467
809.527	0.0153707
809.605	0.0153204
809.683	0.0152854
809.761	0.0151959
809.840	0.0151502
809.918	0.0151825
809.996	0.0153928
810.074	0.0153556
810.152	0.0153491
810.230	0.0153301
810.308	0.0154636
810.386	0.0152998
810.465	0.0154864
810.543	0.0152653
810.621	0.0152756
810.699	0.0152657
810.777	0.0152973
810.855	0.0154018
810.933	0.0152934
811.011	0.0152624
811.090	0.0152227
811.168	0.0152960
811.246	0.0152383
811.324	0.0152119
811.402	0.0153423
811.480	0.0152093
811.558	0.0150486
811.636	0.0151064
811.715	0.0151332
811.793	0.0152274
811.871	0.0151140
811.949	0.0152987
812.027	0.0151067
812.105	0.0150238
812.183	0.0150527
812.261	0.0151213
812.340	0.0152827
812.418	0.0151768
812.496	0.0152474
812.574	0.0153214
812.652	0.0153576
812.730	0.0153901
812.808	0.0153946
812.886	0.0154444
812.965	0.0153056
813.043	0.0153683
813.121	0.0154927
813.199	0.0153879
813.277	0.0154954
813.355	0.0153753
813.433	0.0153040
813.511	0.0153202
813.590	0.0152862
813.668	0.0153442
813.746	0.0152420
813.824	0.0153008
813.902	0.0152436
813.980	0.0153186
814.058	0.0152917
814.136	0.0153484
814.215	0.0154661
814.293	0.0153928
814.371	0.0152348
814.449	0.0154017
814.527	0.0154041
814.605	0.0154197
814.683	0.0154434
814.761	0.0154157
814.840	0.0155150
814.918	0.0154493
814.996	0.0153719
815.074	0.0154657
815.152	0.0154360
815.230	0.0154156
815.308	0.0154846
815.386	0.0155745
815.465	0.0155432
815.543	0.0155227
815.621	0.0154906
815.699	0.0154110
815.777	0.0155554
815.855	0.0156931
815.933	0.0155650
816.011	0.0156699
816.090	0.0155743
816.168	0.0155647
816.246	0.0156618
816.324	0.0157075
816.402	0.0156959
816.480	0.0156995
816.558	0.0156473
816.636	0.0155055
816.715	0.0156220
816.793	0.0156133
816.871	0.0155166
816.949	0.0155113
817.027	0.0154588
817.105	0.0154619
817.183	0.0153949
817.261	0.0153526
817.340	0.0153851
817.418	0.0153310
817.496	0.0153481
817.574	0.0154167
817.652	0.0154267
817.730	0.0152250
817.808	0.0152091
817.886	0.0152564
817.965	0.0154247
818.043	0.0152250
818.121	0.0151801
818.199	0.0152588
818.277	0.0153188
818.355	0.0152498
818.433	0.0154166
818.511	0.0152993
818.590	0.0153163
818.668	0.0154610
818.746	0.0155038
818.824	0.0154575
818.902	0.0155291
818.980	0.0154821
819.058	0.0156248
819.136	0.0155790
819.215	0.0156942
819.293	0.0157904
819.371	0.0158904
819.449	0.0156918
819.527	0.0156997
819.605	0.0156615
819.683	0.0156908
819.761	0.0157586
819.840	0.0156361
819.918	0.0155843
819.996	0.0157217
820.074	0.0156952
820.152	0.0156424
820.230	0.0157009
820.308	0.0155933
820.386	0.0154577
820.465	0.0154079
820.543	0.0155128
820.621	0.0154493
820.699	0.0154099
820.777	0.0153690
820.855	0.0154000
820.933	0.0153974
821.011	0.0153883
821.090	0.0153872
821.168	0.0153046
821.246	0.0152840
821.324	0.0155413
821.402	0.0155651
821.480	0.0154129
821.558	0.0153551
821.636	0.0153416
821.715	0.0153609
821.793	0.0155111
821.871	0.0154325
821.949	0.0153691
822.027	0.0154061
822.105	0.0154410
822.183	0.0154395
822.261	0.0153986
822.340	0.0153233
822.418	0.0154203
822.496	0.0155006
822.574	0.0155186
822.652	0.0154712
822.730	0.0154848
822.808	0.0157237
822.886	0.0154509
822.965	0.0155300
823.043	0.0155514
823.121	0.0155058
823.199	0.0156395
823.277	0.0155685
823.355	0.0157554
823.433	0.0157646
823.511	0.0156870
823.590	0.0157919
823.668	0.0157903
823.746	0.0155851
823.824	0.0157402
823.902	0.0156777
823.980	0.0155845
824.058	0.0155564
824.136	0.0156155
824.215	0.0155106
824.293	0.0156902
824.371	0.0155818
824.449	0.0153954
824.527	0.0155000
824.605	0.0154616
824.683	0.0153882
824.761	0.0155038
824.840	0.0154310
824.918	0.0152604
824.996	0.0153687
825.074	0.0153442
825.152	0.0153783
825.230	0.0152278
825.308	0.0152577
825.386	0.0152135
825.465	0.0152722
825.543	0.0151263
825.621	0.0152202
825.699	0.0152705
825.777	0.0151643
825.855	0.0150907
825.933	0.0151400
826.011	0.0151976
826.090	0.0153167
826.168	0.0151037
826.246	0.0151807
826.324	0.0152254
826.402	0.0150668
826.480	0.0152571
826.558	0.0153387
826.636	0.0152898
826.715	0.0153761
826.793	0.0152005
826.871	0.0152374
826.949	0.0153118
827.027	0.0152791
827.105	0.0153498
827.183	0.0153890
827.261	0.0152895
827.340	0.0153546
827.418	0.0155268
827.496	0.0154545
827.574	0.0155621
827.652	0.0156614
827.730	0.0157333
827.808	0.0156707
827.886	0.0157272
827.965	0.0156345
828.043	0.0157307
828.121	0.0156710
828.199	0.0157361
828.277	0.0157045
828.355	0.0157587
828.433	0.0156701
828.511	0.0156152
828.590	0.0156474
828.668	0.0155917
828.746	0.0156349
828.824	0.0154409
828.902	0.0154425
828.980	0.0155071
829.058	0.0153284
829.136	0.0153763
829.215	0.0153395
829.293	0.0152287
829.371	0.0152917
829.449	0.0152627
829.527	0.0152051
829.605	0.0152310
829.683	0.0152679
829.761	0.0151447
829.840	0.0152651
829.918	0.0151304
829.996	0.0150572
830.074	0.0152347
830.152	0.0151045
830.230	0.0150035
830.308	0.0151623
830.386	0.0151062
830.465	0.0151008
830.543	0.0151008
830.621	0.0150546
830.699	0.0152299
830.777	0.0151859
830.855	0.0150262
830.933	0.0151468
831.011	0.0152219
831.090	0.0151239
831.168	0.0151964
831.246	0.0151354
831.324	0.0152684
831.402	0.0152103
831.480	0.0152212
831.558	0.0152543
831.636	0.0152830
831.715	0.0154197
831.793	0.0153595
831.871	0.0154208
831.949	0.0153077
832.027	0.0154360
832.105	0.0154491
832.183	0.0153957
832.261	0.0153461
832.340	0.0154447
832.418	0.0154111
832.496	0.0155398
832.574	0.0155579
832.652	0.0155350
832.730	0.0154830
832.808	0.0155627
832.886	0.0155827
832.965	0.0155480
833.043	0.0155898
833.121	0.0155657
833.199	0.0154097
833.277	0.0155001
833.355	0.0153061
833.433	0.0151773
833.511	0.0154879
833.590	0.0154338
833.668	0.0152660
833.746	0.0152738
833.824	0.0154520
833.902	0.0153790
833.980	0.0151552
834.058	0.0151734
834.136	0.0152299
834.215	0.0152055
834.293	0.0152200
834.371	0.0153474
834.449	0.0151506
834.527	0.0151662
834.605	0.0152391
834.683	0.0152409
834.761	0.0152791
834.840	0.0154495
834.918	0.0153077
834.996	0.0152754
835.074	0.0152431
835.152	0.0152554
835.230	0.0154151
835.308	0.0153590
835.386	0.0153168
835.465	0.0152961
835.543	0.0154156
835.621	0.0153532
835.699	0.0153448
835.777	0.0153852
835.855	0.0154788
835.933	0.0154598
836.011	0.0153286
836.090	0.0154783
836.168	0.0153509
836.246	0.0154623
836.324	0.0154015
836.402	0.0154534
836.480	0.0154686
836.558	0.0154691
836.636	0.0154044
836.715	0.0154907
836.793	0.0154846
836.871	0.0153973
836.949	0.0153421
837.027	0.0154680
837.105	0.0154569
837.183	0.0153236
837.261	0.0153816
837.340	0.0153117
837.418	0.0152934
837.496	0.0153699
837.574	0.0151821
837.652	0.0152240
837.730	0.0152142
837.808	0.0153889
837.886	0.0151840
837.965	0.0153877
838.043	0.0152336
838.121	0.0154181
838.199	0.0153250
838.277	0.0155373
838.355	0.0154466
838.433	0.0155149
838.511	0.0155294
838.590	0.0155249
838.668	0.0154488
838.746	0.0154396
838.824	0.0155615
838.902	0.0154389
838.980	0.0154514
839.058	0.0154376
839.136	0.0154585
839.215	0.0155944
839.293	0.0155416
839.371	0.0154547
839.449	0.0154985
839.527	0.0155591
839.605	0.0155448
839.683	0.0154859
839.761	0.0155209
839.840	0.0154298
839.918	0.0152668
839.996	0.0152518
840.074	0.0154362
840.152	0.0153760
840.230	0.0153317
840.308	0.0153360
840.386	0.0151782
840.465	0.0152298
840.543	0.0152222
840.621	0.0151662
840.699	0.0150199
840.777	0.0150885
840.855	0.0150751
840.933	0.0152372
841.011	0.0152170
841.090	0.0150875
841.168	0.0152029
841.246	0.0151827
841.324	0.0150848
841.402	0.0151625
841.480	0.0153088
841.558	0.0152540
841.636	0.0150801
841.715	0.0152629
841.793	0.0152876
841.871	0.0153493
841.949	0.0153604
842.027	0.0154282
842.105	0.0154585
842.183	0.0155294
842.261	0.0156171
842.340	0.0153784
842.418	0.0154470
842.496	0.0155413
842.574	0.0155719
842.652	0.0154970
842.730	0.0156624
842.808	0.0155251
842.886	0.0155156
842.965	0.0156233
843.043	0.0154117
843.121	0.0157031
843.199	0.0156157
843.277	0.0155455
843.355	0.0156132
843.433	0.0154284
843.511	0.0155538
843.590	0.0154048
843.668	0.0153442
843.746	0.0154664
843.824	0.0153880
843.902	0.0154929
843.980	0.0153122
844.058	0.0152605
844.136	0.0153621
844.215	0.0152092
844.293	0.0151564
844.371	0.0152686
844.449	0.0151495
844.527	0.0153347
844.605	0.0151194
844.683	0.0152006
844.761	0.0151174
844.840	0.0151815
844.918	0.0151056
844.996	0.0153744
845.074	0.0151537
845.152	0.0151117
845.230	0.0152148
845.308	0.0153551
845.386	0.0151896
845.465	0.0152637
845.543	0.0153664
845.621	0.0152750
845.699	0.0153651
845.777	0.0151894
845.855	0.0153170
845.933	0.0154746
846.011	0.0154065
846.090	0.0153314
846.168	0.0154162
846.246	0.0154313
846.324	0.0154098
846.402	0.0153966
846.480	0.0153767
846.558	0.0153265
846.636	0.0154969
846.715	0.0153703
846.793	0.0154790
846.871	0.0154692
846.949	0.0153619
847.027	0.0154453
847.105	0.0154019
847.183	0.0153289
847.261	0.0154235
847.340	0.0155060
847.418	0.0154687
847.496	0.0152978
847.574	0.0153426
847.652	0.0155669
847.730	0.0155096
847.808	0.0154613
847.886	0.0154232
847.965	0.0152650
848.043	0.0153542
848.121	0.0155208
848.199	0.0154099
848.277	0.0153645
848.355	0.0154157
848.433	0.0152814
848.511	0.0154032
848.590	0.0153783
848.668	0.0153657
848.746	0.0154923
848.824	0.0154111
848.902	0.0153690
848.980	0.0153561
849.058	0.0153813
849.136	0.0153633
849.215	0.0154263
849.293	0.0154395
849.371	0.0154377
849.449	0.0153634
849.527	0.0154971
849.605	0.0155861
849.683	0.0154378
849.761	0.0153326
849.840	0.0154874
849.918	0.0154706
849.996	0.0154360
850.074	0.0155708
850.152	0.0153695
850.230	0.0154810
850.308	0.0155272
850.386	0.0155267
850.465	0.0154002
850.543	0.0154531
850.621	0.0154922
850.699	0.0152413
850.777	0.0152651
850.855	0.0154819
850.933	0.0154062
851.011	0.0152801
851.090	0.0153406
851.168	0.0154996
851.246	0.0153684
851.324	0.0152747
851.402	0.0154646
851.480	0.0153085
851.558	0.0152319
851.636	0.0152444
851.715	0.0152866
851.793	0.0153230
851.871	0.0153374
851.949	0.0152645
852.027	0.0154109
852.105	0.0153176
852.183	0.0153466
852.261	0.0153173
852.340	0.0152990
852.418	0.0154409
852.496	0.0153354
852.574	0.0153931
852.652	0.0153824
852.730	0.0153793
852.808	0.0153391
852.886	0.0154295
852.965	0.0151894
853.043	0.0155743
853.121	0.0155106
853.199	0.0154678
853.277	0.0155157
853.355	0.0154204
853.433	0.0153697
853.511	0.0153811
853.590	0.0153059
853.668	0.0154676
853.746	0.0154105
853.824	0.0153724
853.902	0.0152898
853.980	0.0153140
854.058	0.0153683
854.136	0.0152969
854.215	0.0152472
854.293	0.0151926
854.371	0.0152546
854.449	0.0151630
854.527	0.0152452
854.605	0.0153463
854.683	0.0151041
854.761	0.0151933
854.840	0.0152412
854.918	0.0151431
854.996	0.0152107
855.074	0.0153049
855.152	0.0152171
855.230	0.0153103
855.308	0.0151996
855.386	0.0153539
855.465	0.0152930
855.543	0.0154082
855.621	0.0153278
855.699	0.0152378
855.777	0.0153127
855.855	0.0153230
855.933	0.0154309
856.011	0.0153078
856.090	0.0153687
856.168	0.0154051
856.246	0.0153727
856.324	0.0153810
856.402	0.0154186
856.480	0.0151903
856.558	0.0154047
856.636	0.0153479
856.715	0.0154546
856.793	0.0152624
856.871	0.0152876
856.949	0.0154291
857.027	0.0151394
857.105	0.0152090
857.183	0.0152351
857.261	0.0153143
857.340	0.0151941
857.418	0.0153161
857.496	0.0153905
857.574	0.0153156
857.652	0.0152209
857.730	0.0153294
857.808	0.0152958
857.886	0.0153589
857.965	0.0153345
858.043	0.0153423
858.121	0.0154628
858.199	0.0154935
858.277	0.0154465
858.355	0.0154455
858.433	0.0153740
858.511	0.0154375
858.590	0.0153815
858.668	0.0155459
858.746	0.0156314
858.824	0.0154369
858.902	0.0154472
858.980	0.0153956
859.058	0.0154452
859.136	0.0154681
859.215	0.0153593
859.293	0.0153072
859.371	0.0154830
859.449	0.0152843
859.527	0.0153715
859.605	0.0153279
859.683	0.0153322
859.761	0.0153580
859.840	0.0156168
859.918	0.0153927
859.996	0.0154453
860.074	0.0154363
860.152	0.0153791
860.230	0.0153669
860.308	0.0151687
860.386	0.0151954
860.465	0.0152688
860.543	0.0152477
860.621	0.0151039
860.699	0.0151714
860.777	0.0152705
860.855	0.0150195
860.933	0.0151561
861.011	0.0151228
861.090	0.0152785
861.168	0.0151839
861.246	0.0151983
861.324	0.0152895
861.402	0.0151781
861.480	0.0151212
861.558	0.0150652
861.636	0.0153100
861.715	0.0152676
861.793	0.0152486
861.871	0.0152042
861.949	0.0151494
862.027	0.0152502
862.105	0.0153037
862.183	0.0153706
862.261	0.0153053
862.340	0.0153203
862.418	0.0153181
862.496	0.0154482
862.574	0.0154444
862.652	0.0155038
862.730	0.0154161
862.808	0.0153533
862.886	0.0154974
862.965	0.0155969
863.043	0.0155221
863.121	0.0155524
863.199	0.0155399
863.277	0.0155257
863.355	0.0155834
863.433	0.0154739
863.511	0.0154436
863.590	0.0155633
863.668	0.0156573
863.746	0.0154872
863.824	0.0154303
863.902	0.0156190
863.980	0.0155610
864.058	0.0156895
864.136	0.0155202
864.215	0.0154724
864.293	0.0154009
864.371	0.0153933
864.449	0.0154253
864.527	0.0154784
864.605	0.0154662
864.683	0.0154124
864.761	0.0154139
864.840	0.0154648
864.918	0.0155395
864.996	0.0152240
865.074	0.0153957
865.152	0.0153174
865.230	0.0153918
865.308	0.0154113
865.386	0.0153418
865.465	0.0152858
865.543	0.0154874
865.621	0.0154735
865.699	0.0153371
865.777	0.0153603
865.855	0.0153240
865.933	0.0154341
866.011	0.0154787
866.090	0.0153390
866.168	0.0154031
866.246	0.0153915
866.324	0.0154479
866.402	0.0154322
866.480	0.0152618
866.558	0.0151688
866.636	0.0151765
866.715	0.0153625
866.793	0.0152718
866.871	0.0152282
866.949	0.0152737
867.027	0.0152377
867.105	0.0153709
867.183	0.0151501
867.261	0.0152415
867.340	0.0152660
867.418	0.0152979
867.496	0.0151907
867.574	0.0152939
867.652	0.0152653
867.730	0.0152927
867.808	0.0151913
867.886	0.0152430
867.965	0.0152134
868.043	0.0153124
868.121	0.0153436
868.199	0.0152556
868.277	0.0152372
868.355	0.0151113
868.433	0.0152931
868.511	0.0152406
868.590	0.0153089
868.668	0.0152666
868.746	0.0154931
868.824	0.0152927
868.902	0.0152814
868.980	0.0152069
869.058	0.0153729
869.136	0.0153919
869.215	0.0153835
869.293	0.0154461
869.371	0.0154408
869.449	0.0154260
869.527	0.0153513
869.605	0.0153730
869.683	0.0155788
869.761	0.0154793
869.840	0.0153374
869.918	0.0153136
869.996	0.0153143
870.074	0.0153714
870.152	0.0154110
870.230	0.0152721
870.308	0.0153059
870.386	0.0153623
870.465	0.0152141
870.543	0.0151773
870.621	0.0151277
870.699	0.0152785
870.777	0.0151917
870.855	0.0151064
870.933	0.0152647
871.011	0.0152537
871.090	0.0151218
871.168	0.0152096
871.246	0.0151207
871.324	0.0151907
871.402	0.0152145
871.480	0.0153081
871.558	0.0152319
871.636	0.0152981
871.715	0.0151672
871.793	0.0152431
871.871	0.0153174
871.949	0.0152074
872.027	0.0151656
872.105	0.0150788
872.183	0.0152663
872.261	0.0152262
872.340	0.0152023
872.418	0.0153519
872.496	0.0152369
872.574	0.0152079
872.652	0.0153127
872.730	0.0152753
872.808	0.0153319
872.886	0.0153090
872.965	0.0152874
873.043	0.0153909
873.121	0.0153838
873.199	0.0153609
873.277	0.0153745
873.355	0.0153172
873.433	0.0153711
873.511	0.0154089
873.590	0.0153990
873.668	0.0155179
873.746	0.0154500
873.824	0.0153923
873.902	0.0153931
873.980	0.0154306
874.058	0.0153549
874.136	0.0154615
874.215	0.0154076
874.293	0.0155733
874.371	0.0155129
874.449	0.0154221
874.527	0.0154401
874.605	0.0154153
874.683	0.0154227
874.761	0.0152748
874.840	0.0153703
874.918	0.0154326
874.996	0.0153410
875.074	0.0153209
875.152	0.0152724
875.230	0.0153489
875.308	0.0153233
875.386	0.0152888
875.465	0.0153719
875.543	0.0153168
875.621	0.0151981
875.699	0.0151837
875.777	0.0152545
875.855	0.0151337
875.933	0.0154010
876.011	0.0153934
876.090	0.0152248
876.168	0.0152665
876.246	0.0153436
876.324	0.0152836
876.402	0.0154069
876.480	0.0152876
876.558	0.0153646
876.636	0.0153962
876.715	0.0152608
876.793	0.0150918
876.871	0.0153172
876.949	0.0153273
877.027	0.0152335
877.105	0.0153133
877.183	0.0152818
877.261	0.0152308
877.340	0.0154306
877.418	0.0154610
877.496	0.0153381
877.574	0.0153448
877.652	0.0152688
877.730	0.0154734
877.808	0.0153098
877.886	0.0152867
877.965	0.0153665
878.043	0.0154083
878.121	0.0153207
878.199	0.0152451
878.277	0.0153787
878.355	0.0155018
878.433	0.0152289
878.511	0.0153960
878.590	0.0153342
878.668	0.0154024
878.746	0.0152441
878.824	0.0153107
878.902	0.0154067
878.980	0.0154387
879.058	0.0153721
879.136	0.0153939
879.215	0.0153062
879.293	0.0153699
879.371	0.0152422
879.449	0.0152217
879.527	0.0154117
879.605	0.0153611
879.683	0.0152216
879.761	0.0154436
879.840	0.0151219
879.918	0.0152944
879.996	0.0154388
880.074	0.0153102
880.152	0.0153194
880.230	0.0153857
880.308	0.0153277
880.386	0.0152852
880.465	0.0153143
880.543	0.0154478
880.621	0.0153232
880.699	0.0152486
880.777	0.0153181
880.855	0.0153422
880.933	0.0152518
881.011	0.0152189
881.090	0.0152132
881.168	0.0152370
881.246	0.0152890
881.324	0.0151916
881.402	0.0152385
881.480	0.0152659
881.558	0.0152192
881.636	0.0153815
881.715	0.0152286
881.793	0.0152672
881.871	0.0153522
881.949	0.0154239
882.027	0.0154349
882.105	0.0153677
882.183	0.0152529
882.261	0.0154967
882.340	0.0154121
882.418	0.0153749
882.496	0.0154118
882.574	0.0154620
882.652	0.0155821
882.730	0.0154625
882.808	0.0152569
882.886	0.0154310
882.965	0.0153838
883.043	0.0154520
883.121	0.0153889
883.199	0.0154594
883.277	0.0154600
883.355	0.0153526
883.433	0.0153768
883.511	0.0152807
883.590	0.0154465
883.668	0.0154115
883.746	0.0154015
883.824	0.0153383
883.902	0.0153827
883.980	0.0154195
884.058	0.0153001
884.136	0.0154553
884.215	0.0153506
884.293	0.0153612
884.371	0.0153483
884.449	0.0153909
884.527	0.0153652
884.605	0.0154144
884.683	0.0154043
884.761	0.0153159
884.840	0.0153797
884.918	0.0154036
884.996	0.0154045
885.074	0.0151683
885.152	0.0153709
885.230	0.0153117
885.308	0.0152305
885.386	0.0153321
885.465	0.0154453
885.543	0.0152658
885.621	0.0152078
885.699	0.0152718
885.777	0.0151583
885.855	0.0151400
885.933	0.0153230
886.011	0.0153257
886.090	0.0151725
886.168	0.0152996
886.246	0.0151517
886.324	0.0152739
886.402	0.0152809
886.480	0.0151854
886.558	0.0151949
886.636	0.0151794
886.715	0.0153064
886.793	0.0152879
886.871	0.0151963
886.949	0.0152730
887.027	0.0152791
887.105	0.0152168
887.183	0.0153111
887.261	0.0152245
887.340	0.0151391
887.418	0.0151038
887.496	0.0152055
887.574	0.0151968
887.652	0.0151528
887.730	0.0153757
887.808	0.0152340
887.886	0.0152006
887.965	0.0152641
888.043	0.0150399
888.121	0.0152251
888.199	0.0152786
888.277	0.0153114
888.355	0.0153188
888.433	0.0153944
888.511	0.0152057
888.590	0.0152822
888.668	0.0152393
888.746	0.0153097
888.824	0.0153427
888.902	0.0152963
888.980	0.0152919
889.058	0.0152802
889.136	0.0154033
889.215	0.0153463
889.293	0.0152464
889.371	0.0154459
889.449	0.0153465
889.527	0.0152505
889.605	0.0153114
889.683	0.0152963
889.761	0.0152466
889.840	0.0154200
889.918	0.0154263
889.996	0.0154700
890.074	0.0153901
890.152	0.0153686
890.230	0.0153448
890.308	0.0154679
890.386	0.0153185
890.465	0.0153304
890.543	0.0154108
890.621	0.0155431
890.699	0.0154996
890.777	0.0153801
890.855	0.0155551
890.933	0.0153409
891.011	0.0153517
891.090	0.0153590
891.168	0.0153921
891.246	0.0153166
891.324	0.0153830
891.402	0.0154226
891.480	0.0153356
891.558	0.0152856
891.636	0.0152847
891.715	0.0153513
891.793	0.0154190
891.871	0.0153513
891.949	0.0153756
892.027	0.0152972
892.105	0.0152966
892.183	0.0154044
892.261	0.0154408
892.340	0.0153345
892.418	0.0153816
892.496	0.0154629
892.574	0.0153630
892.652	0.0154601
892.730	0.0154774
892.808	0.0155021
892.886	0.0154731
892.965	0.0153767
893.043	0.0155422
893.121	0.0153870
893.199	0.0155323
893.277	0.0153720
893.355	0.0155025
893.433	0.0154281
893.511	0.0154525
893.590	0.0155232
893.668	0.0153643
893.746	0.0153260
893.824	0.0153773
893.902	0.0153114
893.980	0.0153403
894.058	0.0153985
894.136	0.0156278
894.215	0.0154313
894.293	0.0154041
894.371	0.0154745
894.449	0.0153515
894.527	0.0152203
894.605	0.0153719
894.683	0.0155325
894.761	0.0152806
894.840	0.0153252
894.918	0.0154459
894.996	0.0154303
895.074	0.0153787
895.152	0.0155267
895.230	0.0153926
895.308	0.0153613
895.386	0.0154431
895.465	0.0153571
895.543	0.0152323
895.621	0.0152811
895.699	0.0154393
895.777	0.0153278
895.855	0.0153912
895.933	0.0151685
896.011	0.0153664
896.090	0.0153577
896.168	0.0152045
896.246	0.0152119
896.324	0.0153234
896.402	0.0153668
896.480	0.0152557
896.558	0.0152925
896.636	0.0152387
896.715	0.0152178
896.793	0.0152759
896.871	0.0152819
896.949	0.0153113
897.027	0.0152240
897.105	0.0152809
897.183	0.0152848
897.261	0.0151540
897.340	0.0151975
897.418	0.0152560
897.496	0.0150954
897.574	0.0152087
897.652	0.0152269
897.730	0.0151231
897.808	0.0153059
897.886	0.0153099
897.965	0.0151080
898.043	0.0152325
898.121	0.0153412
898.199	0.0152670
898.277	0.0152775
898.355	0.0152814
898.433	0.0153400
898.511	0.0154052
898.590	0.0154196
898.668	0.0154861
898.746	0.0154780
898.824	0.0153804
898.902	0.0154337
898.980	0.0152821
899.058	0.0152458
899.136	0.0153574
899.215	0.0153592
899.293	0.0155627
899.371	0.0154501
899.449	0.0153571
899.527	0.0153557
899.605	0.0154670
899.683	0.0153793
899.761	0.0152045
899.840	0.0152055
899.918	0.0153040
899.996	0.0151636
900.074	0.0151054
900.152	0.0152434
900.230	0.0152119
900.308	0.0151803
900.386	0.0152503
900.465	0.0152863
900.543	0.0153002
900.621	0.0152145
900.699	0.0152678
900.777	0.0152327
900.855	0.0153285
900.933	0.0154962
901.011	0.0153529
901.090	0.0151956
901.168	0.0153468
901.246	0.0153732
901.324	0.0153968
901.402	0.0154194
901.480	0.0153307
901.558	0.0154289
901.636	0.0154608
901.715	0.0152724
901.793	0.0153968
901.871	0.0154442
901.949	0.0154535
902.027	0.0153482
902.105	0.0153815
902.183	0.0153530
902.261	0.0153654
902.340	0.0153374
902.418	0.0152836
902.496	0.0153498
902.574	0.0152334
902.652	0.0155148
902.730	0.0153531
902.808	0.0154369
902.886	0.0153974
902.965	0.0152885
903.043	0.0153293
903.121	0.0153568
903.199	0.0153522
903.277	0.0153339
903.355	0.0153100
903.433	0.0153673
903.511	0.0154119
903.590	0.0154337
903.668	0.0153782
903.746	0.0153912
903.824	0.0154168
903.902	0.0154012
903.980	0.0154272
904.058	0.0153603
904.136	0.0153840
904.215	0.0153595
904.293	0.0154073
904.371	0.0153738
904.449	0.0153799
904.527	0.0153459
904.605	0.0153562
904.683	0.0154611
904.761	0.0154652
904.840	0.0153225
904.918	0.0153430
904.996	0.0153230
905.074	0.0153797
905.152	0.0154704
905.230	0.0155093
905.308	0.0153894
905.386	0.0153594
905.465	0.0154224
905.543	0.0153111
905.621	0.0153652
905.699	0.0154013
905.777	0.0153423
905.855	0.0153638
905.933	0.0152993
906.011	0.0152620
906.090	0.0154102
906.168	0.0154587
906.246	0.0152151
906.324	0.0152507
906.402	0.0153975
906.480	0.0154036
906.558	0.0153308
906.636	0.0153244
906.715	0.0153400
906.793	0.0152701
906.871	0.0152265
906.949	0.0153415
907.027	0.0152543
907.105	0.0152893
907.183	0.0151892
907.261	0.0153249
907.340	0.0152191
907.418	0.0153178
907.496	0.0153069
907.574	0.0152698
907.652	0.0150093
907.730	0.0150891
907.808	0.0152000
907.886	0.0152943
907.965	0.0151125
908.043	0.0152752
908.121	0.0152721
908.199	0.0152254
908.277	0.0153394
908.355	0.0151681
908.433	0.0152671
908.511	0.0152903
908.590	0.0153497
908.668	0.0154095
908.746	0.0153560
908.824	0.0151545
908.902	0.0151920
908.980	0.0153204
909.058	0.0152924
909.136	0.0153741
909.215	0.0154925
909.293	0.0153187
909.371	0.0152908
909.449	0.0153522
909.527	0.0154082
909.605	0.0152290
909.683	0.0154249
909.761	0.0155238
909.840	0.0153934
909.918	0.0154429
909.996	0.0153529
910.074	0.0153580
910.152	0.0155180
910.230	0.0153696
910.308	0.0155489
910.386	0.0155684
910.465	0.0153389
910.543	0.0153944
910.621	0.0154669
910.699	0.0153015
910.777	0.0155503
910.855	0.0155188
910.933	0.0153413
911.011	0.0154073
911.090	0.0155334
911.168	0.0154564
911.246	0.0154162
911.324	0.0153291
911.402	0.0154949
911.480	0.0154144
911.558	0.0155080
911.636	0.0154876
911.715	0.0154269
911.793	0.0155109
911.871	0.0152737
911.949	0.0152917
912.027	0.0153356
912.105	0.0152659
912.183	0.0152891
912.261	0.0153896
912.340	0.0153938
912.418	0.0151841
912.496	0.0152830
912.574	0.0153045
912.652	0.0153146
912.730	0.0153515
912.808	0.0154205
912.886	0.0153703
912.965	0.0153516
913.043	0.0153885
913.121	0.0154582
913.199	0.0155289
913.277	0.0154391
913.355	0.0154266
913.433	0.0153492
913.511	0.0154572
913.590	0.0152810
913.668	0.0154237
913.746	0.0154945
913.824	0.0153844
913.902	0.0153377
913.980	0.0153236
914.058	0.0153892
914.136	0.0152235
914.215	0.0151853
914.293	0.0154620
914.371	0.0154521
914.449	0.0152928
914.527	0.0153109
914.605	0.0153941
914.683	0.0153794
914.761	0.0154859
914.840	0.0154510
914.918	0.0154173
914.996	0.0154197
915.074	0.0155113
915.152	0.0154467
915.230	0.0154015
915.308	0.0152870
915.386	0.0153486
915.465	0.0154523
915.543	0.0154436
915.621	0.0153397
915.699	0.0153300
915.777	0.0152605
915.855	0.0154258
915.933	0.0153551
916.011	0.0153529
916.090	0.0153145
916.168	0.0153295
916.246	0.0152986
916.324	0.0153445
916.402	0.0152274
916.480	0.0154376
916.558	0.0153018
916.636	0.0153150
916.715	0.0152444
916.793	0.0153123
916.871	0.0152943
916.949	0.0153582
917.027	0.0154893
917.105	0.0154848
917.183	0.0153421
917.261	0.0152390
917.340	0.0153875
917.418	0.0153748
917.496	0.0154562
917.574	0.0153237
917.652	0.0154132
917.730	0.0153294
917.808	0.0153574
917.886	0.0153837
917.965	0.0155139
918.043	0.0152518
918.121	0.0153094
918.199	0.0154390
918.277	0.0153333
918.355	0.0153201
918.433	0.0153419
918.511	0.0153218
918.590	0.0154384
918.668	0.0152876
918.746	0.0154301
918.824	0.0155922
918.902	0.0154310
918.980	0.0153855
919.058	0.0154787
919.136	0.0155226
919.215	0.0154305
919.293	0.0154092
919.371	0.0154017
919.449	0.0154837
919.527	0.0154661
919.605	0.0154251
919.683	0.0152425
919.761	0.0152579
919.840	0.0153500
919.918	0.0152937
919.996	0.0153282
920.074	0.0152232
920.152	0.0152474
920.230	0.0151531
920.308	0.0151353
920.386	0.0150356
920.465	0.0151309
920.543	0.0152135
920.621	0.0151108
920.699	0.0150792
920.777	0.0152386
920.855	0.0151508
920.933	0.0152889
921.011	0.0153050
921.090	0.0150838
921.168	0.0152874
921.246	0.0152999
921.324	0.0152189
921.402	0.0153542
921.480	0.0153310
921.558	0.0153852
921.636	0.0153956
921.715	0.0153947
921.793	0.0155180
921.871	0.0153410
921.949	0.0153607
922.027	0.0154238
922.105	0.0154915
922.183	0.0154951
922.261	0.0155274
922.340	0.0154922
922.418	0.0155147
922.496	0.0155608
922.574	0.0154336
922.652	0.0154488
922.730	0.0155548
922.808	0.0156803
922.886	0.0155092
922.965	0.0154318
923.043	0.0153744
923.121	0.0154852
923.199	0.0154116
923.277	0.0154503
923.355	0.0153667
923.433	0.0154327
923.511	0.0154436
923.590	0.0152716
923.668	0.0151975
923.746	0.0152448
923.824	0.0153395
923.902	0.0152377
923.980	0.0152806
924.058	0.0154563
924.136	0.0152957
924.215	0.0154102
924.293	0.0153506
924.371	0.0152593
924.449	0.0152185
924.527	0.0154279
924.605	0.0154159
924.683	0.0153377
924.761	0.0152853
924.840	0.0154631
924.918	0.0153202
924.996	0.0153239
925.074	0.0153889
925.152	0.0154939
925.230	0.0154490
925.308	0.0154871
925.386	0.0154414
925.465	0.0154857
925.543	0.0155471
925.621	0.0155333
925.699	0.0154235
925.777	0.0155770
925.855	0.0156903
925.933	0.0155186
926.011	0.0154146
926.090	0.0155107
926.168	0.0154885
926.246	0.0154733
926.324	0.0154591
926.402	0.0154255
926.480	0.0154623
926.558	0.0153490
926.636	0.0153918
926.715	0.0152806
926.793	0.0154121
926.871	0.0154855
926.949	0.0153538
927.027	0.0153217
927.105	0.0154750
927.183	0.0154733
927.261	0.0152101
927.340	0.0153259
927.418	0.0154665
927.496	0.0154411
927.574	0.0154025
927.652	0.0153353
927.730	0.0153004
927.808	0.0152171
927.886	0.0153468
927.965	0.0154261
928.043	0.0152586
928.121	0.0152686
928.199	0.0154784
928.277	0.0153678
928.355	0.0152866
928.433	0.0152810
928.511	0.0152902
928.590	0.0153125
928.668	0.0153613
928.746	0.0153533
928.824	0.0152089
928.902	0.0153881
928.980	0.0154455
929.058	0.0152077
929.136	0.0152966
929.215	0.0153861
929.293	0.0154132
929.371	0.0152856
929.449	0.0153957
929.527	0.0154725
929.605	0.0153252
929.683	0.0153110
929.761	0.0155322
929.840	0.0153370
929.918	0.0153603
929.996	0.0155332
930.074	0.0153948
930.152	0.0153693
930.230	0.0154423
930.308	0.0153033
930.386	0.0153697
930.465	0.0153687
930.543	0.0154952
930.621	0.0153593
930.699	0.0153401
930.777	0.0154762
930.855	0.0152603
930.933	0.0153238
931.011	0.0152199
931.090	0.0151955
931.168	0.0152290
931.246	0.0153955
931.324	0.0153788
931.402	0.0153787
931.480	0.0152119
931.558	0.0152393
931.636	0.0152930
931.715	0.0152534
931.793	0.0153096
931.871	0.0152426
931.949	0.0152841
932.027	0.0151804
932.105	0.0153374
932.183	0.0153951
932.261	0.0152846
932.340	0.0152344
932.418	0.0153052
932.496	0.0153860
932.574	0.0153280
932.652	0.0152391
932.730	0.0153564
932.808	0.0153917
932.886	0.0153645
932.965	0.0154535
933.043	0.0152686
933.121	0.0154300
933.199	0.0153078
933.277	0.0153589
933.355	0.0154239
933.433	0.0153835
933.511	0.0154012
933.590	0.0152652
933.668	0.0154432
933.746	0.0153963
933.824	0.0153057
933.902	0.0155518
933.980	0.0152271
934.058	0.0153029
934.136	0.0152251
934.215	0.0151289
934.293	0.0153273
934.371	0.0153951
934.449	0.0151330
934.527	0.0152438
934.605	0.0152892
934.683	0.0151328
934.761	0.0152222
934.840	0.0152727
934.918	0.0151673
934.996	0.0151602
935.074	0.0153104
935.152	0.0152209
935.230	0.0151788
935.308	0.0153942
935.386	0.0151998
935.465	0.0152258
935.543	0.0151735
935.621	0.0152594
935.699	0.0153146
935.777	0.0153834
935.855	0.0152217
935.933	0.0154977
936.011	0.0155448
936.090	0.0154022
936.168	0.0155398
936.246	0.0155171
936.324	0.0155182
936.402	0.0154984
936.480	0.0154734
936.558	0.0153653
936.636	0.0155556
936.715	0.0155901
936.793	0.0153690
936.871	0.0153860
936.949	0.0154767
937.027	0.0154945
937.105	0.0153586
937.183	0.0154741
937.261	0.0154973
937.340	0.0153475
937.418	0.0155365
937.496	0.0153594
937.574	0.0154281
937.652	0.0152874
937.730	0.0153656
937.808	0.0154858
937.886	0.0153334
937.965	0.0153601
938.043	0.0154052
938.121	0.0154580
938.199	0.0153568
938.277	0.0152331
938.355	0.0152386
938.433	0.0153752
938.511	0.0153171
938.590	0.0152226
938.668	0.0153861
938.746	0.0153709
938.824	0.0153156
938.902	0.0151269
938.980	0.0152850
939.058	0.0152300
939.136	0.0152140
939.215	0.0153088
939.293	0.0151987
939.371	0.0152323
939.449	0.0153350
939.527	0.0152133
939.605	0.0152325
939.683	0.0153430
939.761	0.0153563
939.840	0.0152344
939.918	0.0153265
939.996	0.0152507
940.074	0.0153323
940.152	0.0153102
940.230	0.0152099
940.308	0.0153671
940.386	0.0152337
940.465	0.0152183
940.543	0.0152919
940.621	0.0151965
940.699	0.0152205
940.777	0.0152046
940.855	0.0152457
940.933	0.0152301
941.011	0.0152827
941.090	0.0152767
941.168	0.0152411
941.246	0.0152847
941.324	0.0150984
941.402	0.0152419
941.480	0.0151427
941.558	0.0153543
941.636	0.0152968
941.715	0.0151325
941.793	0.0151144
941.871	0.0153829
941.949	0.0153943
942.027	0.0152644
942.105	0.0154064
942.183	0.0152218
942.261	0.0151146
942.340	0.0153114
942.418	0.0152236
942.496	0.0154248
942.574	0.0154160
942.652	0.0152693
942.730	0.0155388
942.808	0.0152942
942.886	0.0153786
942.965	0.0153169
943.043	0.0153066
943.121	0.0153308
943.199	0.0153020
943.277	0.0153411
943.355	0.0153616
943.433	0.0154235
943.511	0.0154491
943.590	0.0153651
943.668	0.0153161
943.746	0.0153344
943.824	0.0153503
943.902	0.0154304
943.980	0.0152695
944.058	0.0153267
944.136	0.0153032
944.215	0.0152934
944.293	0.0153442
944.371	0.0153134
944.449	0.0152892
944.527	0.0152086
944.605	0.0153062
944.683	0.0154579
944.761	0.0153263
944.840	0.0153352
944.918	0.0153706
944.996	0.0154493
945.074	0.0154343
945.152	0.0154922
945.230	0.0153632
945.308	0.0154483
945.386	0.0154517
945.465	0.0153756
945.543	0.0153745
945.621	0.0154354
945.699	0.0154967
945.777	0.0154393
945.855	0.0154527
945.933	0.0155375
946.011	0.0154580
946.090	0.0154110
946.168	0.0153769
946.246	0.0154719
946.324	0.0156300
946.402	0.0155013
946.480	0.0155040
946.558	0.0154479
946.636	0.0154253
946.715	0.0155003
946.793	0.0153484
946.871	0.0153815
946.949	0.0153117
947.027	0.0154060
947.105	0.0153174
947.183	0.0155575
947.261	0.0152493
947.340	0.0153637
947.418	0.0153568
947.496	0.0153020
947.574	0.0152299
947.652	0.0151501
947.730	0.0153407
947.808	0.0153137
947.886	0.0152570
947.965	0.0153233
948.043	0.0152570
948.121	0.0152570
948.199	0.0152684
948.277	0.0153311
948.355	0.0153075
948.433	0.0152245
948.511	0.0152130
948.590	0.0152260
948.668	0.0152747
948.746	0.0153092
948.824	0.0153724
948.902	0.0152256
948.980	0.0153075
949.058	0.0154205
949.136	0.0153208
949.215	0.0153591
949.293	0.0153841
949.371	0.0154088
949.449	0.0154330
949.527	0.0152909
949.605	0.0153465
949.683	0.0154825
949.761	0.0153246
949.840	0.0153255
949.918	0.0153614
