05/20/2022	20:31:36	Ver.	4.1	UNKNOWN
Optical Delay	599.981738	Delta X		0.078125	Sweeps	1	Scan Rate	0/0
Coordinates	Axis 1	NaN	Axis 2	NaN	Axis 3	NaN	Axis 4	NaN	Axis 5	NaN	Axis 6	0.000000
TX Power	0.000000	RX Power	0.000000

599.982	0.0152108
600.060	0.0153306
600.138	0.0152082
600.216	0.0151508
600.294	0.0153965
600.372	0.0152670
600.450	0.0151839
600.529	0.0152424
600.607	0.0151754
600.685	0.0152410
600.763	0.0152334
600.841	0.0152158
600.919	0.0151940
600.997	0.0153161
601.075	0.0152457
601.154	0.0153274
601.232	0.0152735
601.310	0.0152873
601.388	0.0152219
601.466	0.0152127
601.544	0.0151971
601.622	0.0152027
601.700	0.0151397
601.779	0.0151698
601.857	0.0152090
601.935	0.0151993
602.013	0.0151880
602.091	0.0151544
602.169	0.0153398
602.247	0.0152370
602.325	0.0152743
602.404	0.0152198
602.482	0.0153308
602.560	0.0152714
602.638	0.0151615
602.716	0.0152064
602.794	0.0151466
602.872	0.0152162
602.950	0.0152664
603.029	0.0153111
603.107	0.0151639
603.185	0.0151317
603.263	0.0152512
603.341	0.0151611
603.419	0.0152070
603.497	0.0153091
603.575	0.0152493
603.654	0.0151318
603.732	0.0152419
603.810	0.0151748
603.888	0.0151874
603.966	0.0152902
604.044	0.0151248
604.122	0.0151387
604.200	0.0153275
604.279	0.0150868
604.357	0.0151786
604.435	0.0151392
604.513	0.0151730
604.591	0.0151579
604.669	0.0152023
604.747	0.0152737
604.825	0.0151781
604.904	0.0152412
604.982	0.0152804
605.060	0.0152370
605.138	0.0152961
605.216	0.0152490
605.294	0.0152583
605.372	0.0153609
605.450	0.0153146
605.529	0.0153350
605.607	0.0152725
605.685	0.0152023
605.763	0.0151483
605.841	0.0153476
605.919	0.0152972
605.997	0.0151745
606.075	0.0151492
606.154	0.0153209
606.232	0.0153131
606.310	0.0153056
606.388	0.0153188
606.466	0.0151537
606.544	0.0152561
606.622	0.0153006
606.700	0.0152641
606.779	0.0153530
606.857	0.0151535
606.935	0.0152000
607.013	0.0152069
607.091	0.0151981
607.169	0.0150695
607.247	0.0152231
607.325	0.0153223
607.404	0.0152103
607.482	0.0152287
607.560	0.0152120
607.638	0.0151768
607.716	0.0152352
607.794	0.0152917
607.872	0.0151981
607.950	0.0151736
608.029	0.0151675
608.107	0.0152000
608.185	0.0151488
608.263	0.0149937
608.341	0.0153002
608.419	0.0152448
608.497	0.0151919
608.575	0.0152711
608.654	0.0152080
608.732	0.0152312
608.810	0.0152249
608.888	0.0153083
608.966	0.0152534
609.044	0.0152036
609.122	0.0151234
609.200	0.0152312
609.279	0.0151974
609.357	0.0152416
609.435	0.0151231
609.513	0.0152831
609.591	0.0153460
609.669	0.0151392
609.747	0.0150293
609.825	0.0152380
609.904	0.0152027
609.982	0.0153077
610.060	0.0151650
610.138	0.0153564
610.216	0.0152152
610.294	0.0150241
610.372	0.0151315
610.450	0.0152438
610.529	0.0151488
610.607	0.0151030
610.685	0.0152253
610.763	0.0151912
610.841	0.0151441
610.919	0.0153210
610.997	0.0151398
611.075	0.0152081
611.154	0.0151605
611.232	0.0152216
611.310	0.0151250
611.388	0.0152219
611.466	0.0151655
611.544	0.0152763
611.622	0.0152080
611.700	0.0152773
611.779	0.0152883
611.857	0.0150912
611.935	0.0150849
612.013	0.0151661
612.091	0.0152867
612.169	0.0152539
612.247	0.0151323
612.325	0.0153420
612.404	0.0151884
612.482	0.0152673
612.560	0.0151579
612.638	0.0151800
612.716	0.0151759
612.794	0.0150932
612.872	0.0152428
612.950	0.0153035
613.029	0.0152048
613.107	0.0151561
613.185	0.0152092
613.263	0.0152013
613.341	0.0152539
613.419	0.0150908
613.497	0.0151353
613.575	0.0152999
613.654	0.0151391
613.732	0.0150414
613.810	0.0151903
613.888	0.0152603
613.966	0.0152757
614.044	0.0150964
614.122	0.0151547
614.200	0.0153105
614.279	0.0153320
614.357	0.0151938
614.435	0.0150529
614.513	0.0151865
614.591	0.0151421
614.669	0.0151494
614.747	0.0152100
614.825	0.0152901
614.904	0.0151918
614.982	0.0152072
615.060	0.0153056
615.138	0.0152026
615.216	0.0152088
615.294	0.0151503
615.372	0.0151026
615.450	0.0152566
615.529	0.0152216
615.607	0.0152605
615.685	0.0152820
615.763	0.0151612
615.841	0.0151646
615.919	0.0152218
615.997	0.0152612
616.075	0.0152396
616.154	0.0152406
616.232	0.0153670
616.310	0.0153616
616.388	0.0151908
616.466	0.0151869
616.544	0.0151125
616.622	0.0152002
616.700	0.0151497
616.779	0.0150706
616.857	0.0151048
616.935	0.0152045
617.013	0.0153325
617.091	0.0152115
617.169	0.0152026
617.247	0.0152271
617.325	0.0151338
617.404	0.0151759
617.482	0.0150093
617.560	0.0151039
617.638	0.0153242
617.716	0.0151657
617.794	0.0152414
617.872	0.0152506
617.950	0.0151240
618.029	0.0152689
618.107	0.0152357
618.185	0.0153133
618.263	0.0152004
618.341	0.0151390
618.419	0.0151791
618.497	0.0152843
618.575	0.0152563
618.654	0.0151562
618.732	0.0151940
618.810	0.0151884
618.888	0.0151401
618.966	0.0154826
619.044	0.0153278
619.122	0.0151783
619.200	0.0152575
619.279	0.0152871
619.357	0.0151525
619.435	0.0152870
619.513	0.0152235
619.591	0.0150737
619.669	0.0152113
619.747	0.0152963
619.825	0.0151118
619.904	0.0151549
619.982	0.0151682
620.060	0.0152216
620.138	0.0153370
620.216	0.0151800
620.294	0.0152539
620.372	0.0152947
620.450	0.0151962
620.529	0.0151894
620.607	0.0152686
620.685	0.0152431
620.763	0.0151997
620.841	0.0151788
620.919	0.0152560
620.997	0.0152660
621.075	0.0152071
621.154	0.0152401
621.232	0.0151965
621.310	0.0152858
621.388	0.0152747
621.466	0.0152330
621.544	0.0152320
621.622	0.0152323
621.700	0.0152151
621.779	0.0152689
621.857	0.0152771
621.935	0.0152487
622.013	0.0152615
622.091	0.0152488
622.169	0.0152117
622.247	0.0152068
622.325	0.0152100
622.404	0.0152528
622.482	0.0152878
622.560	0.0151606
622.638	0.0152031
622.716	0.0154160
622.794	0.0152614
622.872	0.0150605
622.950	0.0150856
623.029	0.0154208
623.107	0.0152411
623.185	0.0152048
623.263	0.0151270
623.341	0.0152573
623.419	0.0152309
623.497	0.0152300
623.575	0.0151807
623.654	0.0152401
623.732	0.0152179
623.810	0.0151182
623.888	0.0153306
623.966	0.0152586
624.044	0.0152159
624.122	0.0150610
624.200	0.0151939
624.279	0.0151669
624.357	0.0150651
624.435	0.0150768
624.513	0.0151894
624.591	0.0152749
624.669	0.0152130
624.747	0.0152906
624.825	0.0152161
624.904	0.0152326
624.982	0.0151109
625.060	0.0152695
625.138	0.0151994
625.216	0.0151041
625.294	0.0150838
625.372	0.0151824
625.450	0.0152670
625.529	0.0151157
625.607	0.0152116
625.685	0.0151499
625.763	0.0151894
625.841	0.0151209
625.919	0.0153207
625.997	0.0153175
626.075	0.0151920
626.154	0.0152141
626.232	0.0152513
626.310	0.0151746
626.388	0.0150915
626.466	0.0152715
626.544	0.0152583
626.622	0.0152207
626.700	0.0151463
626.779	0.0153524
626.857	0.0152312
626.935	0.0152345
627.013	0.0152097
627.091	0.0152563
627.169	0.0153095
627.247	0.0152489
627.325	0.0152202
627.404	0.0152496
627.482	0.0151830
627.560	0.0151851
627.638	0.0151968
627.716	0.0152821
627.794	0.0151668
627.872	0.0153818
627.950	0.0151952
628.029	0.0151042
628.107	0.0152381
628.185	0.0152948
628.263	0.0152582
628.341	0.0152027
628.419	0.0151761
628.497	0.0152106
628.575	0.0151554
628.654	0.0152194
628.732	0.0152708
628.810	0.0150585
628.888	0.0150552
628.966	0.0152710
629.044	0.0154289
629.122	0.0153414
629.200	0.0152380
629.279	0.0153226
629.357	0.0152346
629.435	0.0153086
629.513	0.0152054
629.591	0.0151987
629.669	0.0152409
629.747	0.0150144
629.825	0.0151893
629.904	0.0152130
629.982	0.0152451
630.060	0.0152110
630.138	0.0152296
630.216	0.0151086
630.294	0.0150702
630.372	0.0151738
630.450	0.0151814
630.529	0.0152675
630.607	0.0151962
630.685	0.0152024
630.763	0.0151548
630.841	0.0152091
630.919	0.0152343
630.997	0.0151759
631.075	0.0151605
631.154	0.0153343
631.232	0.0152014
631.310	0.0152446
631.388	0.0151977
631.466	0.0152333
631.544	0.0152036
631.622	0.0152341
631.700	0.0150288
631.779	0.0152103
631.857	0.0151355
631.935	0.0152473
632.013	0.0151717
632.091	0.0151918
632.169	0.0151621
632.247	0.0150279
632.325	0.0151641
632.404	0.0152335
632.482	0.0151630
632.560	0.0151967
632.638	0.0153923
632.716	0.0152888
632.794	0.0150491
632.872	0.0151633
632.950	0.0151756
633.029	0.0152934
633.107	0.0152635
633.185	0.0153423
633.263	0.0152682
633.341	0.0150608
633.419	0.0152660
633.497	0.0152853
633.575	0.0152446
633.654	0.0151994
633.732	0.0152037
633.810	0.0151820
633.888	0.0152721
633.966	0.0151630
634.044	0.0152528
634.122	0.0153493
634.200	0.0152446
634.279	0.0153445
634.357	0.0152480
634.435	0.0150844
634.513	0.0151676
634.591	0.0153581
634.669	0.0153136
634.747	0.0152747
634.825	0.0151985
634.904	0.0152204
634.982	0.0152426
635.060	0.0152802
635.138	0.0152078
635.216	0.0152856
635.294	0.0154146
635.372	0.0152834
635.450	0.0152257
635.529	0.0152965
635.607	0.0152530
635.685	0.0151903
635.763	0.0153374
635.841	0.0151995
635.919	0.0152807
635.997	0.0152604
636.075	0.0152154
636.154	0.0152593
636.232	0.0150583
636.310	0.0152819
636.388	0.0152244
636.466	0.0152575
636.544	0.0152020
636.622	0.0152855
636.700	0.0152487
636.779	0.0152155
636.857	0.0152982
636.935	0.0150771
637.013	0.0151485
637.091	0.0151760
637.169	0.0153133
637.247	0.0152394
637.325	0.0151993
637.404	0.0152205
637.482	0.0152348
637.560	0.0153202
637.638	0.0153198
637.716	0.0152102
637.794	0.0151784
637.872	0.0152324
637.950	0.0153345
638.029	0.0152578
638.107	0.0151900
638.185	0.0151963
638.263	0.0152358
638.341	0.0152106
638.419	0.0152378
638.497	0.0152294
638.575	0.0153282
638.654	0.0152511
638.732	0.0152555
638.810	0.0152673
638.888	0.0152757
638.966	0.0152309
639.044	0.0152644
639.122	0.0151944
639.200	0.0151512
639.279	0.0152283
639.357	0.0152464
639.435	0.0151956
639.513	0.0153802
639.591	0.0152122
639.669	0.0152222
639.747	0.0151237
639.825	0.0152621
639.904	0.0152956
639.982	0.0153333
640.060	0.0153601
640.138	0.0152863
640.216	0.0151972
640.294	0.0152442
640.372	0.0153226
640.450	0.0153186
640.529	0.0152368
640.607	0.0152005
640.685	0.0151733
640.763	0.0152680
640.841	0.0153466
640.919	0.0152583
640.997	0.0152158
641.075	0.0152909
641.154	0.0153370
641.232	0.0151443
641.310	0.0151221
641.388	0.0151050
641.466	0.0152489
641.544	0.0152425
641.622	0.0152191
641.700	0.0152589
641.779	0.0153446
641.857	0.0152975
641.935	0.0153368
642.013	0.0152805
642.091	0.0151990
642.169	0.0152660
642.247	0.0153381
642.325	0.0151595
642.404	0.0151778
642.482	0.0152240
642.560	0.0151569
642.638	0.0151035
642.716	0.0151831
642.794	0.0153963
642.872	0.0152538
642.950	0.0151826
643.029	0.0152735
643.107	0.0152685
643.185	0.0152217
643.263	0.0153045
643.341	0.0151696
643.419	0.0153265
643.497	0.0152401
643.575	0.0151505
643.654	0.0150584
643.732	0.0152031
643.810	0.0151975
643.888	0.0152428
643.966	0.0152020
644.044	0.0151885
644.122	0.0152116
644.200	0.0152821
644.279	0.0150690
644.357	0.0151019
644.435	0.0152283
644.513	0.0152310
644.591	0.0151120
644.669	0.0151363
644.747	0.0153258
644.825	0.0151335
644.904	0.0150586
644.982	0.0151952
645.060	0.0152766
645.138	0.0151914
645.216	0.0152467
645.294	0.0152280
645.372	0.0152319
645.450	0.0152301
645.529	0.0152676
645.607	0.0151934
645.685	0.0150891
645.763	0.0152168
645.841	0.0152204
645.919	0.0152332
645.997	0.0151991
646.075	0.0151947
646.154	0.0151813
646.232	0.0152690
646.310	0.0152795
646.388	0.0152245
646.466	0.0151842
646.544	0.0152103
646.622	0.0151539
646.700	0.0153335
646.779	0.0152699
646.857	0.0151908
646.935	0.0151808
647.013	0.0152715
647.091	0.0153680
647.169	0.0152621
647.247	0.0151995
647.325	0.0151991
647.404	0.0152368
647.482	0.0153217
647.560	0.0152175
647.638	0.0153092
647.716	0.0153169
647.794	0.0151508
647.872	0.0152254
647.950	0.0153255
648.029	0.0153225
648.107	0.0151818
648.185	0.0152685
648.263	0.0152130
648.341	0.0152765
648.419	0.0151098
648.497	0.0151152
648.575	0.0152316
648.654	0.0151770
648.732	0.0153204
648.810	0.0153587
648.888	0.0152880
648.966	0.0152560
649.044	0.0152484
649.122	0.0151674
649.200	0.0151496
649.279	0.0152709
649.357	0.0151804
649.435	0.0151483
649.513	0.0153172
649.591	0.0151531
649.669	0.0151516
649.747	0.0152107
649.825	0.0151923
649.904	0.0152889
649.982	0.0150637
650.060	0.0150676
650.138	0.0153408
650.216	0.0152236
650.294	0.0150998
650.372	0.0151336
650.450	0.0152422
650.529	0.0152230
650.607	0.0152381
650.685	0.0150520
650.763	0.0152303
650.841	0.0152534
650.919	0.0151832
650.997	0.0150478
651.075	0.0152052
651.154	0.0151372
651.232	0.0152950
651.310	0.0150932
651.388	0.0150832
651.466	0.0150334
651.544	0.0152316
651.622	0.0152053
651.700	0.0151906
651.779	0.0150281
651.857	0.0151452
651.935	0.0153817
652.013	0.0152282
652.091	0.0150862
652.169	0.0151851
652.247	0.0152223
652.325	0.0152224
652.404	0.0151968
652.482	0.0152144
652.560	0.0150607
652.638	0.0151877
652.716	0.0151986
652.794	0.0152455
652.872	0.0152834
652.950	0.0151652
653.029	0.0151612
653.107	0.0151127
653.185	0.0151894
653.263	0.0152958
653.341	0.0151531
653.419	0.0151621
653.497	0.0151125
653.575	0.0152445
653.654	0.0152750
653.732	0.0152704
653.810	0.0152778
653.888	0.0152934
653.966	0.0151762
654.044	0.0151336
654.122	0.0151838
654.200	0.0152023
654.279	0.0154350
654.357	0.0152750
654.435	0.0151894
654.513	0.0152794
654.591	0.0151401
654.669	0.0152079
654.747	0.0152456
654.825	0.0154063
654.904	0.0153518
654.982	0.0153091
655.060	0.0150951
655.138	0.0152628
655.216	0.0153996
655.294	0.0151849
655.372	0.0150645
655.450	0.0153208
655.529	0.0152155
655.607	0.0152293
655.685	0.0151958
655.763	0.0151375
655.841	0.0152396
655.919	0.0151536
655.997	0.0151944
656.075	0.0151197
656.154	0.0152412
656.232	0.0151175
656.310	0.0152191
656.388	0.0152384
656.466	0.0152180
656.544	0.0152300
656.622	0.0150946
656.700	0.0153446
656.779	0.0152883
656.857	0.0151971
656.935	0.0152071
657.013	0.0151591
657.091	0.0151750
657.169	0.0152524
657.247	0.0152096
657.325	0.0151787
657.404	0.0152126
657.482	0.0152794
657.560	0.0150613
657.638	0.0150792
657.716	0.0151985
657.794	0.0151878
657.872	0.0152209
657.950	0.0152471
658.029	0.0150391
658.107	0.0150761
658.185	0.0152398
658.263	0.0152097
658.341	0.0151434
658.419	0.0152250
658.497	0.0151733
658.575	0.0150178
658.654	0.0151152
658.732	0.0152078
658.810	0.0151346
658.888	0.0151074
658.966	0.0152240
659.044	0.0152316
659.122	0.0152083
659.200	0.0152823
659.279	0.0151957
659.357	0.0152245
659.435	0.0152242
659.513	0.0150422
659.591	0.0150937
659.669	0.0152285
659.747	0.0153291
659.825	0.0153378
659.904	0.0151788
659.982	0.0151938
660.060	0.0152286
660.138	0.0152457
660.216	0.0152190
660.294	0.0150978
660.372	0.0151619
660.450	0.0153094
660.529	0.0152115
660.607	0.0152694
660.685	0.0151822
660.763	0.0151608
660.841	0.0152034
660.919	0.0152517
660.997	0.0151861
661.075	0.0150699
661.154	0.0152147
661.232	0.0152390
661.310	0.0151993
661.388	0.0151464
661.466	0.0151427
661.544	0.0151957
661.622	0.0153261
661.700	0.0152563
661.779	0.0152794
661.857	0.0152250
661.935	0.0151894
662.013	0.0151335
662.091	0.0151123
662.169	0.0151468
662.247	0.0153275
662.325	0.0152943
662.404	0.0151685
662.482	0.0152427
662.560	0.0151605
662.638	0.0152718
662.716	0.0154080
662.794	0.0152831
662.872	0.0152903
662.950	0.0153401
663.029	0.0151697
663.107	0.0152670
663.185	0.0151362
663.263	0.0151261
663.341	0.0152730
663.419	0.0152218
663.497	0.0151645
663.575	0.0151866
663.654	0.0152061
663.732	0.0151883
663.810	0.0153894
663.888	0.0151615
663.966	0.0152187
664.044	0.0152979
664.122	0.0151560
664.200	0.0151607
664.279	0.0152998
664.357	0.0152129
664.435	0.0152183
664.513	0.0152780
664.591	0.0152869
664.669	0.0152588
664.747	0.0152608
664.825	0.0150710
664.904	0.0152661
664.982	0.0153077
665.060	0.0152806
665.138	0.0150697
665.216	0.0151948
665.294	0.0153803
665.372	0.0152040
665.450	0.0152829
665.529	0.0151434
665.607	0.0151630
665.685	0.0151682
665.763	0.0152205
665.841	0.0152171
665.919	0.0151811
665.997	0.0152415
666.075	0.0151530
666.154	0.0151172
666.232	0.0150185
666.310	0.0153616
666.388	0.0152725
666.466	0.0151550
666.544	0.0152577
666.622	0.0152705
666.700	0.0150402
666.779	0.0151206
666.857	0.0151627
666.935	0.0152337
667.013	0.0151773
667.091	0.0152680
667.169	0.0152454
667.247	0.0151141
667.325	0.0151908
667.404	0.0151665
667.482	0.0151869
667.560	0.0152385
667.638	0.0151585
667.716	0.0152808
667.794	0.0153199
667.872	0.0151616
667.950	0.0152615
668.029	0.0152727
668.107	0.0152193
668.185	0.0150961
668.263	0.0153102
668.341	0.0152860
668.419	0.0152509
668.497	0.0150489
668.575	0.0151842
668.654	0.0153531
668.732	0.0151424
668.810	0.0152042
668.888	0.0152599
668.966	0.0152573
669.044	0.0152056
669.122	0.0153233
669.200	0.0152332
669.279	0.0151788
669.357	0.0152087
669.435	0.0153341
669.513	0.0150904
669.591	0.0152548
669.669	0.0150809
669.747	0.0152130
669.825	0.0153540
669.904	0.0152666
669.982	0.0151910
670.060	0.0152421
670.138	0.0151266
670.216	0.0152167
670.294	0.0153983
670.372	0.0152724
670.450	0.0152128
670.529	0.0151712
670.607	0.0151299
670.685	0.0151800
670.763	0.0152615
670.841	0.0152976
670.919	0.0152608
670.997	0.0152340
671.075	0.0151221
671.154	0.0152528
671.232	0.0151448
671.310	0.0150177
671.388	0.0151842
671.466	0.0152697
671.544	0.0151251
671.622	0.0152568
671.700	0.0151707
671.779	0.0152550
671.857	0.0152862
671.935	0.0151708
672.013	0.0150854
672.091	0.0152120
672.169	0.0151373
672.247	0.0151765
672.325	0.0151815
672.404	0.0152986
672.482	0.0151789
672.560	0.0153033
672.638	0.0151544
672.716	0.0151109
672.794	0.0151280
672.872	0.0151747
672.950	0.0150669
673.029	0.0152029
673.107	0.0151608
673.185	0.0151852
673.263	0.0152631
673.341	0.0152105
673.419	0.0151360
673.497	0.0151037
673.575	0.0151760
673.654	0.0151463
673.732	0.0151734
673.810	0.0151704
673.888	0.0152436
673.966	0.0152830
674.044	0.0152266
674.122	0.0152570
674.200	0.0151720
674.279	0.0150697
674.357	0.0151244
674.435	0.0152632
674.513	0.0152677
674.591	0.0152815
674.669	0.0151891
674.747	0.0152693
674.825	0.0152324
674.904	0.0152797
674.982	0.0152180
675.060	0.0152829
675.138	0.0152434
675.216	0.0152269
675.294	0.0152300
675.372	0.0150591
675.450	0.0152312
675.529	0.0151307
675.607	0.0153650
675.685	0.0150934
675.763	0.0151441
675.841	0.0151575
675.919	0.0151018
675.997	0.0152103
676.075	0.0153137
676.154	0.0153347
676.232	0.0151705
676.310	0.0151304
676.388	0.0152555
676.466	0.0152457
676.544	0.0151717
676.622	0.0150862
676.700	0.0151908
676.779	0.0151559
676.857	0.0151505
676.935	0.0151317
677.013	0.0151945
677.091	0.0152529
677.169	0.0152251
677.247	0.0153347
677.325	0.0152508
677.404	0.0152525
677.482	0.0151302
677.560	0.0152923
677.638	0.0153245
677.716	0.0152502
677.794	0.0152236
677.872	0.0153465
677.950	0.0152252
678.029	0.0153073
678.107	0.0152079
678.185	0.0152658
678.263	0.0152597
678.341	0.0152338
678.419	0.0153194
678.497	0.0153429
678.575	0.0151376
678.654	0.0152740
678.732	0.0152485
678.810	0.0153487
678.888	0.0152551
678.966	0.0152289
679.044	0.0152883
679.122	0.0151987
679.200	0.0153545
679.279	0.0152770
679.357	0.0152380
679.435	0.0151976
679.513	0.0153043
679.591	0.0152600
679.669	0.0151546
679.747	0.0152149
679.825	0.0151917
679.904	0.0152618
679.982	0.0152338
680.060	0.0153075
680.138	0.0153262
680.216	0.0153267
680.294	0.0151946
680.372	0.0152312
680.450	0.0152941
680.529	0.0152544
680.607	0.0153484
680.685	0.0153271
680.763	0.0152051
680.841	0.0153494
680.919	0.0152092
680.997	0.0151950
681.075	0.0152211
681.154	0.0151606
681.232	0.0152042
681.310	0.0154206
681.388	0.0151702
681.466	0.0152735
681.544	0.0152798
681.622	0.0152974
681.700	0.0153608
681.779	0.0151813
681.857	0.0150700
681.935	0.0151398
682.013	0.0152205
682.091	0.0153101
682.169	0.0152673
682.247	0.0152183
682.325	0.0152911
682.404	0.0151939
682.482	0.0150999
682.560	0.0151013
682.638	0.0152352
682.716	0.0153335
682.794	0.0151181
682.872	0.0150457
682.950	0.0152805
683.029	0.0152077
683.107	0.0151992
683.185	0.0150906
683.263	0.0151889
683.341	0.0152833
683.419	0.0152792
683.497	0.0152262
683.575	0.0152122
683.654	0.0150550
683.732	0.0151473
683.810	0.0152632
683.888	0.0151795
683.966	0.0152313
684.044	0.0152715
684.122	0.0150931
684.200	0.0151790
684.279	0.0152795
684.357	0.0151753
684.435	0.0150739
684.513	0.0151050
684.591	0.0151336
684.669	0.0152050
684.747	0.0152092
684.825	0.0151801
684.904	0.0150986
684.982	0.0153069
685.060	0.0151125
685.138	0.0152496
685.216	0.0152431
685.294	0.0151454
685.372	0.0151738
685.450	0.0151569
685.529	0.0151021
685.607	0.0153258
685.685	0.0153124
685.763	0.0151878
685.841	0.0150829
685.919	0.0153148
685.997	0.0152402
686.075	0.0152297
686.154	0.0153632
686.232	0.0151283
686.310	0.0151350
686.388	0.0152510
686.466	0.0152633
686.544	0.0151698
686.622	0.0151761
686.700	0.0152232
686.779	0.0153226
686.857	0.0154314
686.935	0.0152421
687.013	0.0151958
687.091	0.0152451
687.169	0.0153110
687.247	0.0152402
687.325	0.0152766
687.404	0.0153349
687.482	0.0151273
687.560	0.0152561
687.638	0.0153040
687.716	0.0152482
687.794	0.0152456
687.872	0.0153976
687.950	0.0152527
688.029	0.0152225
688.107	0.0151382
688.185	0.0151099
688.263	0.0152908
688.341	0.0151286
688.419	0.0153391
688.497	0.0152925
688.575	0.0152686
688.654	0.0152084
688.732	0.0152619
688.810	0.0153415
688.888	0.0154118
688.966	0.0155131
689.044	0.0154405
689.122	0.0154951
689.200	0.0154431
689.279	0.0154786
689.357	0.0152338
689.435	0.0152437
689.513	0.0152101
689.591	0.0150744
689.669	0.0150630
689.747	0.0149945
689.825	0.0148413
689.904	0.0148530
689.982	0.0150312
690.060	0.0149269
690.138	0.0150121
690.216	0.0150969
690.294	0.0151408
690.372	0.0153763
690.450	0.0154699
690.529	0.0154174
690.607	0.0154491
690.685	0.0155019
690.763	0.0157069
690.841	0.0156674
690.919	0.0156672
690.997	0.0156597
691.075	0.0155726
691.154	0.0155127
691.232	0.0155118
691.310	0.0153782
691.388	0.0153322
691.466	0.0152722
691.544	0.0150012
691.622	0.0150282
691.700	0.0150993
691.779	0.0150152
691.857	0.0149240
691.935	0.0148515
692.013	0.0149112
692.091	0.0148701
692.169	0.0148473
692.247	0.0148547
692.325	0.0148570
692.404	0.0149525
692.482	0.0150030
692.560	0.0148761
692.638	0.0150037
692.716	0.0150876
692.794	0.0151414
692.872	0.0151225
692.950	0.0152087
693.029	0.0151989
693.107	0.0151880
693.185	0.0153917
693.263	0.0155898
693.341	0.0154743
693.419	0.0154234
693.497	0.0155428
693.575	0.0155766
693.654	0.0157154
693.732	0.0156514
693.810	0.0156293
693.888	0.0155860
693.966	0.0157442
694.044	0.0156573
694.122	0.0156145
694.200	0.0154837
694.279	0.0154065
694.357	0.0153909
694.435	0.0150979
694.513	0.0151163
694.591	0.0149878
694.669	0.0147961
694.747	0.0147263
694.825	0.0147977
694.904	0.0145939
694.982	0.0145621
695.060	0.0144675
695.138	0.0144582
695.216	0.0146263
695.294	0.0144922
695.372	0.0146825
695.450	0.0146732
695.529	0.0147811
695.607	0.0148771
695.685	0.0151233
695.763	0.0151605
695.841	0.0150846
695.919	0.0153011
695.997	0.0154095
696.075	0.0155900
696.154	0.0156120
696.232	0.0157435
696.310	0.0156805
696.388	0.0157240
696.466	0.0156990
696.544	0.0156224
696.622	0.0158396
696.700	0.0156807
696.779	0.0156442
696.857	0.0155578
696.935	0.0154430
697.013	0.0154250
697.091	0.0153854
697.169	0.0153097
697.247	0.0154113
697.325	0.0151575
697.404	0.0151556
697.482	0.0150789
697.560	0.0151378
697.638	0.0149611
697.716	0.0150986
697.794	0.0150919
697.872	0.0149369
697.950	0.0149445
698.029	0.0150585
698.107	0.0150260
698.185	0.0149488
698.263	0.0149548
698.341	0.0150636
698.419	0.0150385
698.497	0.0151672
698.575	0.0150030
698.654	0.0150882
698.732	0.0150997
698.810	0.0151850
698.888	0.0152686
698.966	0.0152056
699.044	0.0151598
699.122	0.0151444
699.200	0.0152526
699.279	0.0152049
699.357	0.0153763
699.435	0.0153074
699.513	0.0153185
699.591	0.0153146
699.669	0.0150793
699.747	0.0152568
699.825	0.0153851
699.904	0.0153862
699.982	0.0152905
700.060	0.0152254
700.138	0.0152421
700.216	0.0153175
700.294	0.0152695
700.372	0.0151555
700.450	0.0152840
700.529	0.0151483
700.607	0.0151446
700.685	0.0151118
700.763	0.0151579
700.841	0.0151488
700.919	0.0151865
700.997	0.0151487
701.075	0.0150462
701.154	0.0151627
701.232	0.0151212
701.310	0.0152465
701.388	0.0151521
701.466	0.0152258
701.544	0.0153273
701.622	0.0152439
701.700	0.0153236
701.779	0.0152834
701.857	0.0153635
701.935	0.0155045
702.013	0.0153642
702.091	0.0154041
702.169	0.0154107
702.247	0.0153891
702.325	0.0154617
702.404	0.0152514
702.482	0.0151721
702.560	0.0152666
702.638	0.0151185
702.716	0.0151523
702.794	0.0151392
702.872	0.0151540
702.950	0.0151199
703.029	0.0150872
703.107	0.0151801
703.185	0.0151925
703.263	0.0150779
703.341	0.0150208
703.419	0.0149796
703.497	0.0150858
703.575	0.0150352
703.654	0.0150775
703.732	0.0151359
703.810	0.0151942
703.888	0.0151276
703.966	0.0152045
704.044	0.0151917
704.122	0.0151835
704.200	0.0152362
704.279	0.0153293
704.357	0.0152733
704.435	0.0152714
704.513	0.0153085
704.591	0.0153491
704.669	0.0153016
704.747	0.0152470
704.825	0.0152222
704.904	0.0152496
704.982	0.0153413
705.060	0.0152323
705.138	0.0151571
705.216	0.0151357
705.294	0.0151641
705.372	0.0151086
705.450	0.0151799
705.529	0.0151401
705.607	0.0151627
705.685	0.0151701
705.763	0.0150011
705.841	0.0151217
705.919	0.0151760
705.997	0.0151325
706.075	0.0153521
706.154	0.0153618
706.232	0.0151597
706.310	0.0152366
706.388	0.0154633
706.466	0.0155068
706.544	0.0153052
706.622	0.0153094
706.700	0.0154343
706.779	0.0154902
706.857	0.0154046
706.935	0.0153649
707.013	0.0153884
707.091	0.0154073
707.169	0.0153900
707.247	0.0153423
707.325	0.0151333
707.404	0.0152112
707.482	0.0153928
707.560	0.0153001
707.638	0.0150409
707.716	0.0151456
707.794	0.0152255
707.872	0.0150458
707.950	0.0149660
708.029	0.0151285
708.107	0.0151696
708.185	0.0151820
708.263	0.0151351
708.341	0.0151868
708.419	0.0150961
708.497	0.0151326
708.575	0.0151314
708.654	0.0150459
708.732	0.0150413
708.810	0.0150589
708.888	0.0149974
708.966	0.0151598
709.044	0.0151035
709.122	0.0151403
709.200	0.0151714
709.279	0.0152428
709.357	0.0151891
709.435	0.0152643
709.513	0.0152394
709.591	0.0151535
709.669	0.0152424
709.747	0.0152086
709.825	0.0152991
709.904	0.0152052
709.982	0.0151479
710.060	0.0151701
710.138	0.0153226
710.216	0.0151761
710.294	0.0153162
710.372	0.0151910
710.450	0.0152744
710.529	0.0152840
710.607	0.0152054
710.685	0.0151475
710.763	0.0151264
710.841	0.0151637
710.919	0.0150679
710.997	0.0152692
711.075	0.0152348
711.154	0.0151141
711.232	0.0150826
711.310	0.0151292
711.388	0.0152421
711.466	0.0152483
711.544	0.0152776
711.622	0.0153072
711.700	0.0152499
711.779	0.0152297
711.857	0.0154266
711.935	0.0153585
712.013	0.0153423
712.091	0.0153172
712.169	0.0151566
712.247	0.0153969
712.325	0.0151909
712.404	0.0152621
712.482	0.0151241
712.560	0.0151611
712.638	0.0152004
712.716	0.0150933
712.794	0.0150127
712.872	0.0149763
712.950	0.0150521
713.029	0.0150707
713.107	0.0149438
713.185	0.0150542
713.263	0.0150263
713.341	0.0151743
713.419	0.0151102
713.497	0.0152288
713.575	0.0152206
713.654	0.0152722
713.732	0.0152811
713.810	0.0152380
713.888	0.0152804
713.966	0.0153368
714.044	0.0152546
714.122	0.0152207
714.200	0.0153948
714.279	0.0152476
714.357	0.0152556
714.435	0.0151861
714.513	0.0151781
714.591	0.0151687
714.669	0.0151883
714.747	0.0152146
714.825	0.0151104
714.904	0.0151867
714.982	0.0151922
715.060	0.0152161
715.138	0.0151144
715.216	0.0151390
715.294	0.0151942
715.372	0.0152514
715.450	0.0150452
715.529	0.0150301
715.607	0.0151685
715.685	0.0150063
715.763	0.0151122
715.841	0.0148763
715.919	0.0150029
715.997	0.0149567
716.075	0.0150401
716.154	0.0148911
716.232	0.0149432
716.310	0.0149753
716.388	0.0150709
716.466	0.0150902
716.544	0.0151361
716.622	0.0152222
716.700	0.0152606
716.779	0.0153066
716.857	0.0152878
716.935	0.0154462
717.013	0.0154070
717.091	0.0154401
717.169	0.0152385
717.247	0.0153841
717.325	0.0154948
717.404	0.0153841
717.482	0.0154084
717.560	0.0154351
717.638	0.0152409
717.716	0.0153552
717.794	0.0152673
717.872	0.0152890
717.950	0.0151922
718.029	0.0151511
718.107	0.0153593
718.185	0.0152708
718.263	0.0152889
718.341	0.0153667
718.419	0.0151939
718.497	0.0151789
718.575	0.0153168
718.654	0.0150345
718.732	0.0153394
718.810	0.0153043
718.888	0.0151912
718.966	0.0151130
719.044	0.0149995
719.122	0.0150277
719.200	0.0150050
719.279	0.0150066
719.357	0.0150741
719.435	0.0151600
719.513	0.0151347
719.591	0.0151816
719.669	0.0152669
719.747	0.0153951
719.825	0.0154916
719.904	0.0154858
719.982	0.0154494
720.060	0.0155357
720.138	0.0155437
720.216	0.0154976
720.294	0.0153696
720.372	0.0153742
720.450	0.0153648
720.529	0.0153230
720.607	0.0152585
720.685	0.0151255
720.763	0.0149722
720.841	0.0149503
720.919	0.0149915
720.997	0.0150747
721.075	0.0149614
721.154	0.0150418
721.232	0.0149472
721.310	0.0149004
721.388	0.0150001
721.466	0.0149511
721.544	0.0149716
721.622	0.0150921
721.700	0.0150595
721.779	0.0150823
721.857	0.0150582
721.935	0.0149639
722.013	0.0149745
722.091	0.0150256
722.169	0.0151297
722.247	0.0151391
722.325	0.0150016
722.404	0.0150594
722.482	0.0150849
722.560	0.0151295
722.638	0.0151838
722.716	0.0151316
722.794	0.0151813
722.872	0.0151805
722.950	0.0152831
723.029	0.0153582
723.107	0.0152442
723.185	0.0151894
723.263	0.0151037
723.341	0.0151587
723.419	0.0151065
723.497	0.0152727
723.575	0.0151108
723.654	0.0150655
723.732	0.0151291
723.810	0.0152129
723.888	0.0152811
723.966	0.0152361
724.044	0.0152349
724.122	0.0153408
724.200	0.0152510
724.279	0.0153691
724.357	0.0154336
724.435	0.0154198
724.513	0.0155320
724.591	0.0153571
724.669	0.0154088
724.747	0.0154835
724.825	0.0154643
724.904	0.0154066
724.982	0.0154501
725.060	0.0153208
725.138	0.0152824
725.216	0.0153381
725.294	0.0151762
725.372	0.0150851
725.450	0.0150570
725.529	0.0149884
725.607	0.0150370
725.685	0.0148917
725.763	0.0150224
725.841	0.0150236
725.919	0.0149764
725.997	0.0149242
726.075	0.0149263
726.154	0.0148974
726.232	0.0150773
726.310	0.0151620
726.388	0.0151881
726.466	0.0152306
726.544	0.0153114
726.622	0.0152261
726.700	0.0152586
726.779	0.0152889
726.857	0.0155278
726.935	0.0154366
727.013	0.0153024
727.091	0.0153230
727.169	0.0153602
727.247	0.0153307
727.325	0.0151154
727.404	0.0153108
727.482	0.0151200
727.560	0.0151669
727.638	0.0151660
727.716	0.0150921
727.794	0.0149516
727.872	0.0151735
727.950	0.0151359
728.029	0.0149691
728.107	0.0147983
728.185	0.0149358
728.263	0.0150869
728.341	0.0149030
728.419	0.0148483
728.497	0.0149232
728.575	0.0150139
728.654	0.0148013
728.732	0.0149492
728.810	0.0149525
728.888	0.0149178
728.966	0.0151135
729.044	0.0150758
729.122	0.0153210
729.200	0.0153690
729.279	0.0151887
729.357	0.0154095
729.435	0.0154747
729.513	0.0154384
729.591	0.0153974
729.669	0.0154546
729.747	0.0155025
729.825	0.0154646
729.904	0.0155274
729.982	0.0154152
730.060	0.0153963
730.138	0.0153521
730.216	0.0153686
730.294	0.0153237
730.372	0.0153705
730.450	0.0152515
730.529	0.0151990
730.607	0.0153098
730.685	0.0153053
730.763	0.0152795
730.841	0.0152554
730.919	0.0153844
730.997	0.0152561
731.075	0.0152431
731.154	0.0151956
731.232	0.0152048
731.310	0.0151529
731.388	0.0152222
731.466	0.0151710
731.544	0.0151111
731.622	0.0152205
731.700	0.0151458
731.779	0.0150926
731.857	0.0151306
731.935	0.0151159
732.013	0.0152483
732.091	0.0152070
732.169	0.0151562
732.247	0.0150932
732.325	0.0150738
732.404	0.0150565
732.482	0.0151823
732.560	0.0151190
732.638	0.0150099
732.716	0.0150296
732.794	0.0152097
732.872	0.0150662
732.950	0.0149950
733.029	0.0149794
733.107	0.0149608
733.185	0.0150184
733.263	0.0149604
733.341	0.0150091
733.419	0.0149220
733.497	0.0150002
733.575	0.0151192
733.654	0.0151334
733.732	0.0150732
733.810	0.0150846
733.888	0.0150742
733.966	0.0151904
734.044	0.0153154
734.122	0.0152049
734.200	0.0152386
734.279	0.0153432
734.357	0.0152451
734.435	0.0152140
734.513	0.0153180
734.591	0.0152983
734.669	0.0152948
734.747	0.0152772
734.825	0.0151786
734.904	0.0152798
734.982	0.0152042
735.060	0.0152211
735.138	0.0152516
735.216	0.0153234
735.294	0.0150687
735.372	0.0151608
735.450	0.0151387
735.529	0.0151334
735.607	0.0152265
735.685	0.0150856
735.763	0.0151083
735.841	0.0152032
735.919	0.0150548
735.997	0.0149844
736.075	0.0150542
736.154	0.0152824
736.232	0.0152047
736.310	0.0151682
736.388	0.0152403
736.466	0.0151870
736.544	0.0153854
736.622	0.0153136
736.700	0.0151658
736.779	0.0152811
736.857	0.0153220
736.935	0.0153027
737.013	0.0153616
737.091	0.0153561
737.169	0.0152135
737.247	0.0152826
737.325	0.0154412
737.404	0.0152486
737.482	0.0151124
737.560	0.0154311
737.638	0.0152912
737.716	0.0150777
737.794	0.0152361
737.872	0.0152859
737.950	0.0152031
738.029	0.0151976
738.107	0.0153004
738.185	0.0151619
738.263	0.0152066
738.341	0.0153489
738.419	0.0151454
738.497	0.0151599
738.575	0.0151358
738.654	0.0151715
738.732	0.0152847
738.810	0.0151007
738.888	0.0151965
738.966	0.0152175
739.044	0.0150547
739.122	0.0151627
739.200	0.0150487
739.279	0.0149914
739.357	0.0150165
739.435	0.0151000
739.513	0.0149594
739.591	0.0151425
739.669	0.0150605
739.747	0.0151209
739.825	0.0150293
739.904	0.0151336
739.982	0.0150629
740.060	0.0151741
740.138	0.0152742
740.216	0.0151145
740.294	0.0151557
740.372	0.0153475
740.450	0.0154402
740.529	0.0152717
740.607	0.0151881
740.685	0.0152292
740.763	0.0153166
740.841	0.0152436
740.919	0.0151462
740.997	0.0151669
741.075	0.0153384
741.154	0.0152227
741.232	0.0150895
741.310	0.0152998
741.388	0.0152076
741.466	0.0150688
741.544	0.0152242
741.622	0.0151604
741.700	0.0152049
741.779	0.0152115
741.857	0.0152113
741.935	0.0151936
742.013	0.0151988
742.091	0.0151793
742.169	0.0151344
742.247	0.0151750
742.325	0.0152000
742.404	0.0151148
742.482	0.0150117
742.560	0.0151864
742.638	0.0152954
742.716	0.0150755
742.794	0.0151012
742.872	0.0151767
742.950	0.0151025
743.029	0.0150971
743.107	0.0151754
743.185	0.0152080
743.263	0.0150651
743.341	0.0151227
743.419	0.0152675
743.497	0.0151286
743.575	0.0151192
743.654	0.0152203
743.732	0.0151784
743.810	0.0151319
743.888	0.0152165
743.966	0.0152518
744.044	0.0151159
744.122	0.0151846
744.200	0.0152595
744.279	0.0151756
744.357	0.0151807
744.435	0.0152213
744.513	0.0152215
744.591	0.0151928
744.669	0.0152221
744.747	0.0154008
744.825	0.0152251
744.904	0.0151374
744.982	0.0151224
745.060	0.0150964
745.138	0.0151520
745.216	0.0152267
745.294	0.0151424
745.372	0.0149842
745.450	0.0149966
745.529	0.0151305
745.607	0.0151583
745.685	0.0149372
745.763	0.0150541
745.841	0.0149235
745.919	0.0149922
745.997	0.0150848
746.075	0.0151019
746.154	0.0151791
746.232	0.0152052
746.310	0.0151320
746.388	0.0150966
746.466	0.0151260
746.544	0.0152185
746.622	0.0151708
746.700	0.0152629
746.779	0.0151904
746.857	0.0151826
746.935	0.0152883
747.013	0.0152265
747.091	0.0150934
747.169	0.0151770
747.247	0.0152488
747.325	0.0152488
747.404	0.0150936
747.482	0.0150599
747.560	0.0150297
747.638	0.0151988
747.716	0.0150894
747.794	0.0151765
747.872	0.0151596
747.950	0.0150206
748.029	0.0150825
748.107	0.0152704
748.185	0.0151505
748.263	0.0151402
748.341	0.0151533
748.419	0.0151777
748.497	0.0151855
748.575	0.0150832
748.654	0.0151263
748.732	0.0153637
748.810	0.0153451
748.888	0.0152704
748.966	0.0151392
749.044	0.0153642
749.122	0.0152148
749.200	0.0152998
749.279	0.0152768
749.357	0.0152234
749.435	0.0152234
749.513	0.0152077
749.591	0.0153378
749.669	0.0151296
749.747	0.0151094
749.825	0.0149933
749.904	0.0151633
749.982	0.0153421
750.060	0.0152651
750.138	0.0152170
750.216	0.0152628
750.294	0.0151294
750.372	0.0151447
750.450	0.0151139
750.529	0.0152158
750.607	0.0152624
750.685	0.0152746
750.763	0.0153266
750.841	0.0151794
750.919	0.0152998
750.997	0.0151820
751.075	0.0152599
751.154	0.0151599
751.232	0.0152090
751.310	0.0152171
751.388	0.0152905
751.466	0.0151727
751.544	0.0151482
751.622	0.0151984
751.700	0.0154192
751.779	0.0153068
751.857	0.0151449
751.935	0.0151759
752.013	0.0151962
752.091	0.0152820
752.169	0.0151550
752.247	0.0152454
752.325	0.0152025
752.404	0.0153014
752.482	0.0152961
752.560	0.0151553
752.638	0.0152983
752.716	0.0153278
752.794	0.0152371
752.872	0.0153565
752.950	0.0152629
753.029	0.0151217
753.107	0.0152716
753.185	0.0153075
753.263	0.0153707
753.341	0.0152954
753.419	0.0151859
753.497	0.0152870
753.575	0.0151166
753.654	0.0151976
753.732	0.0152940
753.810	0.0152241
753.888	0.0152538
753.966	0.0151964
754.044	0.0152693
754.122	0.0152441
754.200	0.0152558
754.279	0.0153146
754.357	0.0152319
754.435	0.0151874
754.513	0.0153256
754.591	0.0152335
754.669	0.0152689
754.747	0.0151427
754.825	0.0152752
754.904	0.0153370
754.982	0.0152212
755.060	0.0151575
755.138	0.0152120
755.216	0.0152599
755.294	0.0152283
755.372	0.0152116
755.450	0.0151402
755.529	0.0151054
755.607	0.0152551
755.685	0.0152341
755.763	0.0151577
755.841	0.0151492
755.919	0.0151301
755.997	0.0152534
756.075	0.0152266
756.154	0.0150763
756.232	0.0150241
756.310	0.0150961
756.388	0.0151241
756.466	0.0150728
756.544	0.0149394
756.622	0.0151734
756.700	0.0153403
756.779	0.0151542
756.857	0.0150405
756.935	0.0152764
757.013	0.0150439
757.091	0.0148409
757.169	0.0150278
757.247	0.0150537
757.325	0.0153019
757.404	0.0151024
757.482	0.0152214
757.560	0.0151397
757.638	0.0152288
757.716	0.0152119
757.794	0.0152881
757.872	0.0151807
757.950	0.0151878
758.029	0.0151424
758.107	0.0152751
758.185	0.0151833
758.263	0.0153333
758.341	0.0152632
758.419	0.0151042
758.497	0.0152233
758.575	0.0152370
758.654	0.0151115
758.732	0.0151054
758.810	0.0152080
758.888	0.0151831
758.966	0.0151230
759.044	0.0151356
759.122	0.0152544
759.200	0.0153021
759.279	0.0152124
759.357	0.0153693
759.435	0.0151183
759.513	0.0151702
759.591	0.0152286
759.669	0.0153401
759.747	0.0151890
759.825	0.0152251
759.904	0.0151942
759.982	0.0154048
760.060	0.0152875
760.138	0.0152920
760.216	0.0153686
760.294	0.0153301
760.372	0.0152279
760.450	0.0153413
760.529	0.0153872
760.607	0.0151591
760.685	0.0153127
760.763	0.0152480
760.841	0.0153427
760.919	0.0152023
760.997	0.0151651
761.075	0.0151568
761.154	0.0152696
761.232	0.0151396
761.310	0.0151491
761.388	0.0150931
761.466	0.0152197
761.544	0.0151554
761.622	0.0151110
761.700	0.0150714
761.779	0.0150854
761.857	0.0150481
761.935	0.0150903
762.013	0.0151227
762.091	0.0151492
762.169	0.0150872
762.247	0.0150170
762.325	0.0150786
762.404	0.0150925
762.482	0.0149461
762.560	0.0151671
762.638	0.0152538
762.716	0.0151635
762.794	0.0151736
762.872	0.0151384
762.950	0.0151115
763.029	0.0152457
763.107	0.0152042
763.185	0.0152767
763.263	0.0151641
763.341	0.0151922
763.419	0.0152226
763.497	0.0152844
763.575	0.0151923
763.654	0.0151721
763.732	0.0152297
763.810	0.0153077
763.888	0.0152673
763.966	0.0152225
764.044	0.0152124
764.122	0.0152824
764.200	0.0151352
764.279	0.0152808
764.357	0.0152779
764.435	0.0152216
764.513	0.0151779
764.591	0.0151761
764.669	0.0151871
764.747	0.0152120
764.825	0.0151942
764.904	0.0151773
764.982	0.0151453
765.060	0.0152178
765.138	0.0152129
765.216	0.0152393
765.294	0.0150700
765.372	0.0150513
765.450	0.0152373
765.529	0.0152200
765.607	0.0152416
765.685	0.0153024
765.763	0.0150480
765.841	0.0151463
765.919	0.0151575
765.997	0.0150610
766.075	0.0151239
766.154	0.0150085
766.232	0.0150997
766.310	0.0151474
766.388	0.0151350
766.466	0.0150523
766.544	0.0152017
766.622	0.0151830
766.700	0.0150840
766.779	0.0150993
766.857	0.0152802
766.935	0.0152280
767.013	0.0150988
767.091	0.0150966
767.169	0.0151438
767.247	0.0150494
767.325	0.0150375
767.404	0.0152984
767.482	0.0152626
767.560	0.0150806
767.638	0.0152039
767.716	0.0151884
767.794	0.0152943
767.872	0.0151617
767.950	0.0151026
768.029	0.0153611
768.107	0.0153129
768.185	0.0151870
768.263	0.0151556
768.341	0.0151902
768.419	0.0152256
768.497	0.0152287
768.575	0.0151945
768.654	0.0151361
768.732	0.0151685
768.810	0.0149863
768.888	0.0151893
768.966	0.0151472
769.044	0.0150282
769.122	0.0151215
769.200	0.0151231
769.279	0.0150473
769.357	0.0150629
769.435	0.0151022
769.513	0.0151875
769.591	0.0152068
769.669	0.0151556
769.747	0.0150593
769.825	0.0150148
769.904	0.0152304
769.982	0.0152505
770.060	0.0151930
770.138	0.0150997
770.216	0.0152110
770.294	0.0151226
770.372	0.0152179
770.450	0.0152135
770.529	0.0153218
770.607	0.0150792
770.685	0.0151718
770.763	0.0152375
770.841	0.0151804
770.919	0.0153380
770.997	0.0152264
771.075	0.0152406
771.154	0.0152598
771.232	0.0152042
771.310	0.0151297
771.388	0.0152141
771.466	0.0151466
771.544	0.0151185
771.622	0.0151011
771.700	0.0150725
771.779	0.0151057
771.857	0.0151034
771.935	0.0151802
772.013	0.0152400
772.091	0.0151630
772.169	0.0150407
772.247	0.0152013
772.325	0.0150985
772.404	0.0150771
772.482	0.0151296
772.560	0.0150346
772.638	0.0151510
772.716	0.0152290
772.794	0.0152107
772.872	0.0149194
772.950	0.0151157
773.029	0.0151563
773.107	0.0150942
773.185	0.0150944
773.263	0.0150924
773.341	0.0151821
773.419	0.0153440
773.497	0.0151839
773.575	0.0151722
773.654	0.0151637
773.732	0.0152740
773.810	0.0152233
773.888	0.0152305
773.966	0.0152180
774.044	0.0152515
774.122	0.0153726
774.200	0.0152215
774.279	0.0151715
774.357	0.0152966
774.435	0.0152637
774.513	0.0152271
774.591	0.0151373
774.669	0.0152198
774.747	0.0152502
774.825	0.0153236
774.904	0.0151691
774.982	0.0153096
775.060	0.0152264
775.138	0.0152142
775.216	0.0152315
775.294	0.0151974
775.372	0.0152252
775.450	0.0152922
775.529	0.0152397
775.607	0.0150909
775.685	0.0152859
775.763	0.0153126
775.841	0.0151907
775.919	0.0152288
775.997	0.0153753
776.075	0.0151717
776.154	0.0151414
776.232	0.0152811
776.310	0.0153170
776.388	0.0151007
776.466	0.0151794
776.544	0.0152595
776.622	0.0151483
776.700	0.0150660
776.779	0.0151852
776.857	0.0152078
776.935	0.0152012
777.013	0.0152261
777.091	0.0151228
777.169	0.0152187
777.247	0.0152847
777.325	0.0151608
777.404	0.0150938
777.482	0.0151752
777.560	0.0153143
777.638	0.0152197
777.716	0.0152518
777.794	0.0152779
777.872	0.0152283
777.950	0.0152229
778.029	0.0151871
778.107	0.0152197
778.185	0.0152226
778.263	0.0152576
778.341	0.0152816
778.419	0.0151484
778.497	0.0152695
778.575	0.0152829
778.654	0.0152843
778.732	0.0150945
778.810	0.0153111
778.888	0.0153007
778.966	0.0152415
779.044	0.0152178
779.122	0.0153362
779.200	0.0151904
779.279	0.0150621
779.357	0.0151061
779.435	0.0152444
779.513	0.0152213
779.591	0.0151958
779.669	0.0153885
779.747	0.0151618
779.825	0.0152851
779.904	0.0151536
779.982	0.0151939
780.060	0.0151771
780.138	0.0151493
780.216	0.0154269
780.294	0.0152952
780.372	0.0152244
780.450	0.0152418
780.529	0.0153087
780.607	0.0152466
780.685	0.0151815
780.763	0.0151680
780.841	0.0153114
780.919	0.0153098
780.997	0.0153188
781.075	0.0153575
781.154	0.0152120
781.232	0.0151335
781.310	0.0152222
781.388	0.0152122
781.466	0.0152068
781.544	0.0153818
781.622	0.0153629
781.700	0.0152177
781.779	0.0151443
781.857	0.0152079
781.935	0.0151936
782.013	0.0153362
782.091	0.0152525
782.169	0.0153780
782.247	0.0151918
782.325	0.0151819
782.404	0.0151180
782.482	0.0151867
782.560	0.0150948
782.638	0.0151181
782.716	0.0151678
782.794	0.0152470
782.872	0.0151215
782.950	0.0151296
783.029	0.0152149
783.107	0.0152819
783.185	0.0150668
783.263	0.0150528
783.341	0.0152470
783.419	0.0151969
783.497	0.0152518
783.575	0.0153230
783.654	0.0150480
783.732	0.0152947
783.810	0.0153517
783.888	0.0152454
783.966	0.0152983
784.044	0.0152599
784.122	0.0152066
784.200	0.0152905
784.279	0.0153250
784.357	0.0151850
784.435	0.0152879
784.513	0.0151473
784.591	0.0152742
784.669	0.0151186
784.747	0.0152249
784.825	0.0151009
784.904	0.0152065
784.982	0.0150981
785.060	0.0152061
785.138	0.0151060
785.216	0.0151926
785.294	0.0152925
785.372	0.0152666
785.450	0.0151829
785.529	0.0151494
785.607	0.0151777
785.685	0.0150618
785.763	0.0153368
785.841	0.0151963
785.919	0.0152323
785.997	0.0152637
786.075	0.0152547
786.154	0.0153406
786.232	0.0153014
786.310	0.0153487
786.388	0.0153393
786.466	0.0154591
786.544	0.0152323
786.622	0.0152383
786.700	0.0154158
786.779	0.0152374
786.857	0.0151354
786.935	0.0152704
787.013	0.0153494
787.091	0.0152527
787.169	0.0152506
787.247	0.0152733
787.325	0.0153023
787.404	0.0151907
787.482	0.0152556
787.560	0.0153455
787.638	0.0152283
787.716	0.0153720
787.794	0.0151458
787.872	0.0152214
787.950	0.0151420
788.029	0.0152879
788.107	0.0151662
788.185	0.0153019
788.263	0.0152019
788.341	0.0151987
788.419	0.0151333
788.497	0.0150527
788.575	0.0151195
788.654	0.0152747
788.732	0.0150740
788.810	0.0151633
788.888	0.0151749
788.966	0.0152924
789.044	0.0153459
789.122	0.0152460
789.200	0.0151012
789.279	0.0152180
789.357	0.0150444
789.435	0.0152972
789.513	0.0152073
789.591	0.0151425
789.669	0.0152071
789.747	0.0152966
789.825	0.0154108
789.904	0.0152351
789.982	0.0151310
790.060	0.0152051
790.138	0.0152619
790.216	0.0152274
790.294	0.0152728
790.372	0.0152981
790.450	0.0152144
790.529	0.0152599
790.607	0.0152985
790.685	0.0152721
790.763	0.0153057
790.841	0.0152223
790.919	0.0152584
790.997	0.0152650
791.075	0.0151792
791.154	0.0152450
791.232	0.0151056
791.310	0.0151525
791.388	0.0152376
791.466	0.0152401
791.544	0.0150539
791.622	0.0150673
791.700	0.0151471
791.779	0.0150622
791.857	0.0150968
791.935	0.0150428
792.013	0.0151389
792.091	0.0151849
792.169	0.0152756
792.247	0.0151186
792.325	0.0152581
792.404	0.0152062
792.482	0.0152576
792.560	0.0153064
792.638	0.0153484
792.716	0.0152822
792.794	0.0153522
792.872	0.0152058
792.950	0.0152813
793.029	0.0152323
793.107	0.0151073
793.185	0.0152007
793.263	0.0152554
793.341	0.0151060
793.419	0.0152065
793.497	0.0153551
793.575	0.0153020
793.654	0.0153278
793.732	0.0150466
793.810	0.0150491
793.888	0.0152963
793.966	0.0152514
794.044	0.0151696
794.122	0.0153209
794.200	0.0152288
794.279	0.0152074
794.357	0.0152062
794.435	0.0151816
794.513	0.0152943
794.591	0.0151464
794.669	0.0151705
794.747	0.0152847
794.825	0.0152252
794.904	0.0152133
794.982	0.0151970
795.060	0.0151286
795.138	0.0150965
795.216	0.0151474
795.294	0.0150146
795.372	0.0150946
795.450	0.0150067
795.529	0.0152542
795.607	0.0153240
795.685	0.0151643
795.763	0.0151360
795.841	0.0151839
795.919	0.0152386
795.997	0.0152523
796.075	0.0150495
796.154	0.0151379
796.232	0.0151143
796.310	0.0151025
796.388	0.0153205
796.466	0.0152431
796.544	0.0152826
796.622	0.0153359
796.700	0.0152117
796.779	0.0151347
796.857	0.0152056
796.935	0.0151231
797.013	0.0150720
797.091	0.0152116
797.169	0.0153825
797.247	0.0151707
797.325	0.0152080
797.404	0.0152444
797.482	0.0153413
797.560	0.0151824
797.638	0.0151299
797.716	0.0152276
797.794	0.0152164
797.872	0.0152093
797.950	0.0149966
798.029	0.0151698
798.107	0.0151554
798.185	0.0150581
798.263	0.0152107
798.341	0.0152003
798.419	0.0153484
798.497	0.0152100
798.575	0.0153792
798.654	0.0152967
798.732	0.0153216
798.810	0.0153636
798.888	0.0152435
798.966	0.0152265
799.044	0.0154346
799.122	0.0152561
799.200	0.0152229
799.279	0.0154039
799.357	0.0152543
799.435	0.0152610
799.513	0.0152550
799.591	0.0153049
799.669	0.0152087
799.747	0.0151144
799.825	0.0152317
799.904	0.0152695
799.982	0.0151488
800.060	0.0152036
800.138	0.0150734
800.216	0.0151040
800.294	0.0151734
800.372	0.0151322
800.450	0.0151651
800.529	0.0151003
800.607	0.0150024
800.685	0.0152016
800.763	0.0152243
800.841	0.0151514
800.919	0.0151728
800.997	0.0151735
801.075	0.0152351
801.154	0.0152721
801.232	0.0152616
801.310	0.0152608
801.388	0.0152596
801.466	0.0153938
801.544	0.0154208
801.622	0.0154557
801.700	0.0152160
801.779	0.0153271
801.857	0.0153392
801.935	0.0152769
802.013	0.0152995
802.091	0.0152869
802.169	0.0151816
802.247	0.0151877
802.325	0.0150988
802.404	0.0152644
802.482	0.0151009
802.560	0.0150990
802.638	0.0150892
802.716	0.0149631
802.794	0.0151565
802.872	0.0151241
802.950	0.0150977
803.029	0.0151971
803.107	0.0151424
803.185	0.0152206
803.263	0.0151713
803.341	0.0152724
803.419	0.0154294
803.497	0.0154888
803.575	0.0154879
803.654	0.0152641
803.732	0.0153793
803.810	0.0154942
803.888	0.0155564
803.966	0.0154514
804.044	0.0154777
804.122	0.0155626
804.200	0.0154288
804.279	0.0154453
804.357	0.0155302
804.435	0.0153732
804.513	0.0151654
804.591	0.0151396
804.669	0.0151447
804.747	0.0150938
804.825	0.0150796
804.904	0.0149310
804.982	0.0150410
805.060	0.0151409
805.138	0.0149685
805.216	0.0149603
805.294	0.0148535
805.372	0.0149232
805.450	0.0150584
805.529	0.0151117
805.607	0.0149993
805.685	0.0151895
805.763	0.0151684
805.841	0.0153543
805.919	0.0153779
805.997	0.0153613
806.075	0.0154401
806.154	0.0154115
806.232	0.0154901
806.310	0.0156086
806.388	0.0155875
806.466	0.0154678
806.544	0.0154731
806.622	0.0153596
806.700	0.0153870
806.779	0.0154720
806.857	0.0153246
806.935	0.0153500
807.013	0.0153253
807.091	0.0152309
807.169	0.0150739
807.247	0.0151975
807.325	0.0150862
807.404	0.0151444
807.482	0.0149634
807.560	0.0150645
807.638	0.0150626
807.716	0.0151245
807.794	0.0149441
807.872	0.0149874
807.950	0.0149971
808.029	0.0148317
808.107	0.0150988
808.185	0.0150489
808.263	0.0150048
808.341	0.0149903
808.419	0.0149989
808.497	0.0150908
808.575	0.0150405
808.654	0.0150105
808.732	0.0150567
808.810	0.0149845
808.888	0.0151680
808.966	0.0152125
809.044	0.0152731
809.122	0.0152457
809.200	0.0153349
809.279	0.0155882
809.357	0.0154866
809.435	0.0155269
809.513	0.0155447
809.591	0.0156525
809.669	0.0156776
809.747	0.0156251
809.825	0.0155994
809.904	0.0156019
809.982	0.0157243
810.060	0.0156355
810.138	0.0157625
810.216	0.0157423
810.294	0.0154962
810.372	0.0154204
810.450	0.0154820
810.529	0.0153046
810.607	0.0153349
810.685	0.0151049
810.763	0.0151997
810.841	0.0150192
810.919	0.0148383
810.997	0.0148481
811.075	0.0147377
811.154	0.0146905
811.232	0.0145941
811.310	0.0147188
811.388	0.0145975
811.466	0.0147209
811.544	0.0147005
811.622	0.0147707
811.700	0.0148632
811.779	0.0149724
811.857	0.0150753
811.935	0.0150647
812.013	0.0151806
812.091	0.0151394
812.169	0.0151370
812.247	0.0154238
812.325	0.0155446
812.404	0.0156562
812.482	0.0156760
812.560	0.0157858
812.638	0.0156414
812.716	0.0156992
812.794	0.0156226
812.872	0.0155882
812.950	0.0155545
813.029	0.0155361
813.107	0.0155198
813.185	0.0155014
813.263	0.0153934
813.341	0.0153362
813.419	0.0152592
813.497	0.0151672
813.575	0.0150458
813.654	0.0150134
813.732	0.0150115
813.810	0.0150195
813.888	0.0148655
813.966	0.0149422
814.044	0.0150282
814.122	0.0149173
814.200	0.0149969
814.279	0.0150773
814.357	0.0151244
814.435	0.0151022
814.513	0.0151684
814.591	0.0152629
814.669	0.0153555
814.747	0.0152956
814.825	0.0153975
814.904	0.0153435
814.982	0.0153661
815.060	0.0154899
815.138	0.0155321
815.216	0.0155206
815.294	0.0154914
815.372	0.0155388
815.450	0.0156239
815.529	0.0154876
815.607	0.0153490
815.685	0.0154549
815.763	0.0152551
815.841	0.0153613
815.919	0.0152582
815.997	0.0152888
816.075	0.0150630
816.154	0.0150556
816.232	0.0150244
816.310	0.0149060
816.388	0.0149541
816.466	0.0150143
816.544	0.0149284
816.622	0.0149957
816.700	0.0147747
816.779	0.0147944
816.857	0.0148471
816.935	0.0150150
817.013	0.0148627
817.091	0.0149237
817.169	0.0150489
817.247	0.0151942
817.325	0.0150731
817.404	0.0152092
817.482	0.0152531
817.560	0.0153799
817.638	0.0151986
817.716	0.0153475
817.794	0.0152821
817.872	0.0153557
817.950	0.0153995
818.029	0.0152722
818.107	0.0152576
818.185	0.0150986
818.263	0.0152397
818.341	0.0150671
818.419	0.0149916
818.497	0.0149437
818.575	0.0148814
818.654	0.0150689
818.732	0.0149122
818.810	0.0147186
818.888	0.0150184
818.966	0.0149368
819.044	0.0150076
819.122	0.0150763
819.200	0.0151887
819.279	0.0151756
819.357	0.0151216
819.435	0.0152077
819.513	0.0152007
819.591	0.0153132
819.669	0.0152895
819.747	0.0156455
819.825	0.0154879
819.904	0.0155498
819.982	0.0156506
820.060	0.0157278
820.138	0.0156828
820.216	0.0158165
820.294	0.0158376
820.372	0.0158531
820.450	0.0157109
820.529	0.0157086
820.607	0.0156482
820.685	0.0153912
820.763	0.0155658
820.841	0.0155870
820.919	0.0154739
820.997	0.0154482
821.075	0.0152979
821.154	0.0152370
821.232	0.0151682
821.310	0.0150860
821.388	0.0149609
821.466	0.0149683
821.544	0.0148269
821.622	0.0148251
821.700	0.0148952
821.779	0.0146388
821.857	0.0145737
821.935	0.0146386
822.013	0.0146084
822.091	0.0145987
822.169	0.0145639
822.247	0.0145827
822.325	0.0147640
822.404	0.0148378
822.482	0.0148509
822.560	0.0149884
822.638	0.0151064
822.716	0.0150565
822.794	0.0152514
822.872	0.0152282
822.950	0.0152680
823.029	0.0154305
823.107	0.0156231
823.185	0.0156591
823.263	0.0156490
823.341	0.0155926
823.419	0.0155764
823.497	0.0155037
823.575	0.0156125
823.654	0.0155431
823.732	0.0155263
823.810	0.0152580
823.888	0.0152861
823.966	0.0152634
824.044	0.0152220
824.122	0.0149745
824.200	0.0149454
824.279	0.0148048
824.357	0.0148746
824.435	0.0147437
824.513	0.0146601
824.591	0.0147625
824.669	0.0147553
824.747	0.0148084
824.825	0.0148588
824.904	0.0149070
824.982	0.0149883
825.060	0.0151398
825.138	0.0153181
825.216	0.0152401
825.294	0.0154739
825.372	0.0155826
825.450	0.0157632
825.529	0.0159406
825.607	0.0158805
825.685	0.0158506
825.763	0.0158630
825.841	0.0160132
825.919	0.0160916
825.997	0.0161514
826.075	0.0160639
826.154	0.0158501
826.232	0.0159138
826.310	0.0159472
826.388	0.0158408
826.466	0.0157055
826.544	0.0155259
826.622	0.0152772
826.700	0.0152156
826.779	0.0151492
826.857	0.0149198
826.935	0.0148951
827.013	0.0149027
827.091	0.0147171
827.169	0.0145567
827.247	0.0144914
827.325	0.0143658
827.404	0.0144109
827.482	0.0143121
827.560	0.0142492
827.638	0.0143056
827.716	0.0143242
827.794	0.0142043
827.872	0.0143571
827.950	0.0143396
828.029	0.0143326
828.107	0.0145562
828.185	0.0145873
828.263	0.0144933
828.341	0.0147605
828.419	0.0147726
828.497	0.0149006
828.575	0.0148611
828.654	0.0149249
828.732	0.0151646
828.810	0.0152012
828.888	0.0151773
828.966	0.0153455
829.044	0.0155240
829.122	0.0154575
829.200	0.0155186
829.279	0.0154739
829.357	0.0156509
829.435	0.0156675
829.513	0.0157251
829.591	0.0156429
829.669	0.0157225
829.747	0.0157507
829.825	0.0157595
829.904	0.0156765
829.982	0.0157430
830.060	0.0155715
830.138	0.0156408
830.216	0.0156970
830.294	0.0156043
830.372	0.0155704
830.450	0.0156476
830.529	0.0154601
830.607	0.0155684
830.685	0.0153732
830.763	0.0153306
830.841	0.0153220
830.919	0.0152905
830.997	0.0152261
831.075	0.0152225
831.154	0.0150846
831.232	0.0151474
831.310	0.0150373
831.388	0.0150074
831.466	0.0149660
831.544	0.0148954
831.622	0.0149352
831.700	0.0148787
831.779	0.0149170
831.857	0.0148721
831.935	0.0148643
832.013	0.0147769
832.091	0.0149573
832.169	0.0149070
832.247	0.0149089
832.325	0.0149030
832.404	0.0149683
832.482	0.0148840
832.560	0.0150860
832.638	0.0149682
832.716	0.0149349
832.794	0.0148732
832.872	0.0150543
832.950	0.0149948
833.029	0.0149516
833.107	0.0150799
833.185	0.0150169
833.263	0.0150954
833.341	0.0150144
833.419	0.0150070
833.497	0.0150640
833.575	0.0151175
833.654	0.0151693
833.732	0.0149619
833.810	0.0151343
833.888	0.0150618
833.966	0.0153707
834.044	0.0151627
834.122	0.0151271
834.200	0.0151644
834.279	0.0151969
834.357	0.0152398
834.435	0.0152148
834.513	0.0151920
834.591	0.0150915
834.669	0.0152828
834.747	0.0153699
834.825	0.0153717
834.904	0.0153811
834.982	0.0153768
835.060	0.0153720
835.138	0.0154145
835.216	0.0154532
835.294	0.0155322
835.372	0.0154080
835.450	0.0155196
835.529	0.0154100
835.607	0.0153930
835.685	0.0154639
835.763	0.0154607
835.841	0.0155882
835.919	0.0156172
835.997	0.0154594
836.075	0.0155545
836.154	0.0155514
836.232	0.0153482
836.310	0.0152856
836.388	0.0152312
836.466	0.0152963
836.544	0.0152612
836.622	0.0151205
836.700	0.0151870
836.779	0.0151130
836.857	0.0150679
836.935	0.0150526
837.013	0.0149890
837.091	0.0148834
837.169	0.0148344
837.247	0.0149102
837.325	0.0148726
837.404	0.0147715
837.482	0.0148801
837.560	0.0148525
837.638	0.0148397
837.716	0.0148569
837.794	0.0150149
837.872	0.0149245
837.950	0.0149238
838.029	0.0150523
838.107	0.0151149
838.185	0.0151479
838.263	0.0151490
838.341	0.0151941
838.419	0.0154482
838.497	0.0153770
838.575	0.0153766
838.654	0.0154469
838.732	0.0156089
838.810	0.0155192
838.888	0.0155202
838.966	0.0155665
839.044	0.0156139
839.122	0.0156018
839.200	0.0156198
839.279	0.0155419
839.357	0.0155811
839.435	0.0156818
839.513	0.0155466
839.591	0.0152992
839.669	0.0154105
839.747	0.0153785
839.825	0.0152529
839.904	0.0151945
839.982	0.0152220
840.060	0.0151527
840.138	0.0150784
840.216	0.0149765
840.294	0.0149734
840.372	0.0148579
840.450	0.0149505
840.529	0.0148401
840.607	0.0147903
840.685	0.0148843
840.763	0.0147878
840.841	0.0147159
840.919	0.0147748
840.997	0.0148492
841.075	0.0148672
841.154	0.0149739
841.232	0.0148351
841.310	0.0148709
841.388	0.0149433
841.466	0.0148643
841.544	0.0150513
841.622	0.0150018
841.700	0.0151719
841.779	0.0152381
841.857	0.0152919
841.935	0.0152884
842.013	0.0153945
842.091	0.0153673
842.169	0.0154203
842.247	0.0153141
842.325	0.0154185
842.404	0.0154132
842.482	0.0154746
842.560	0.0154214
842.638	0.0153787
842.716	0.0152876
842.794	0.0153512
842.872	0.0153413
842.950	0.0152808
843.029	0.0153821
843.107	0.0152890
843.185	0.0153230
843.263	0.0151770
843.341	0.0152311
843.419	0.0151943
843.497	0.0152563
843.575	0.0151402
843.654	0.0149149
843.732	0.0150388
843.810	0.0150683
843.888	0.0151501
843.966	0.0150237
844.044	0.0150691
844.122	0.0148397
844.200	0.0149435
844.279	0.0150689
844.357	0.0149348
844.435	0.0150130
844.513	0.0149749
844.591	0.0150181
844.669	0.0151933
844.747	0.0150061
844.825	0.0150591
844.904	0.0151484
844.982	0.0152776
845.060	0.0152065
845.138	0.0151865
845.216	0.0151864
845.294	0.0152805
845.372	0.0153159
845.450	0.0152280
845.529	0.0152444
845.607	0.0153038
845.685	0.0153858
845.763	0.0152869
845.841	0.0153886
845.919	0.0152286
845.997	0.0152253
846.075	0.0152886
846.154	0.0152120
846.232	0.0151374
846.310	0.0152144
846.388	0.0151863
846.466	0.0151039
846.544	0.0151910
846.622	0.0150708
846.700	0.0152190
846.779	0.0151641
846.857	0.0152106
846.935	0.0152172
847.013	0.0152367
847.091	0.0151899
847.169	0.0151979
847.247	0.0153226
847.325	0.0154430
847.404	0.0153317
847.482	0.0153413
847.560	0.0153085
847.638	0.0153236
847.716	0.0153936
847.794	0.0153613
847.872	0.0152326
847.950	0.0152039
848.029	0.0152327
848.107	0.0152850
848.185	0.0151041
848.263	0.0151196
848.341	0.0151764
848.419	0.0149661
848.497	0.0150940
848.575	0.0150616
848.654	0.0148537
848.732	0.0148497
848.810	0.0147959
848.888	0.0148555
848.966	0.0148410
849.044	0.0148739
849.122	0.0147952
849.200	0.0148597
849.279	0.0149712
849.357	0.0148887
849.435	0.0147723
849.513	0.0148312
849.591	0.0149326
849.669	0.0149497
849.747	0.0150231
849.825	0.0149828
849.904	0.0149320
849.982	0.0150095
850.060	0.0151308
850.138	0.0150432
850.216	0.0151205
850.294	0.0151738
850.372	0.0150684
850.450	0.0151272
850.529	0.0151241
850.607	0.0150647
850.685	0.0151840
850.763	0.0151440
850.841	0.0151003
850.919	0.0151661
850.997	0.0151550
851.075	0.0152182
851.154	0.0152425
851.232	0.0153020
851.310	0.0153441
851.388	0.0154485
851.466	0.0153252
851.544	0.0153953
851.622	0.0154980
851.700	0.0155316
851.779	0.0155997
851.857	0.0156903
851.935	0.0155917
852.013	0.0155862
852.091	0.0157903
852.169	0.0156575
852.247	0.0158607
852.325	0.0158128
852.404	0.0158341
852.482	0.0158821
852.560	0.0158579
852.638	0.0159382
852.716	0.0159306
852.794	0.0157647
852.872	0.0158707
852.950	0.0157198
853.029	0.0156254
853.107	0.0157058
853.185	0.0155242
853.263	0.0154428
853.341	0.0155031
853.419	0.0153551
853.497	0.0151758
853.575	0.0150436
853.654	0.0148616
853.732	0.0148656
853.810	0.0148647
853.888	0.0147115
853.966	0.0148205
854.044	0.0145679
854.122	0.0145355
854.200	0.0146561
854.279	0.0145151
854.357	0.0144643
854.435	0.0144002
854.513	0.0146473
854.591	0.0146069
854.669	0.0145456
854.747	0.0145277
854.825	0.0145185
854.904	0.0146286
854.982	0.0145776
855.060	0.0146414
855.138	0.0146281
855.216	0.0146210
855.294	0.0146751
855.372	0.0146906
855.450	0.0148293
855.529	0.0148859
855.607	0.0149190
855.685	0.0148859
855.763	0.0148179
855.841	0.0149956
855.919	0.0150507
855.997	0.0149997
856.075	0.0152787
856.154	0.0153099
856.232	0.0153262
856.310	0.0154160
856.388	0.0153275
856.466	0.0156393
856.544	0.0155811
856.622	0.0156229
856.700	0.0158199
856.779	0.0158707
856.857	0.0157662
856.935	0.0160001
857.013	0.0160233
857.091	0.0160029
857.169	0.0160782
857.247	0.0159894
857.325	0.0160979
857.404	0.0160672
857.482	0.0159322
857.560	0.0159122
857.638	0.0157697
857.716	0.0159451
857.794	0.0155058
857.872	0.0156756
857.950	0.0155850
858.029	0.0154363
858.107	0.0154128
858.185	0.0152863
858.263	0.0150726
858.341	0.0149828
858.419	0.0150964
858.497	0.0150711
858.575	0.0149711
858.654	0.0150234
858.732	0.0150238
858.810	0.0151177
858.888	0.0152644
858.966	0.0149922
859.044	0.0150023
859.122	0.0151067
859.200	0.0151541
859.279	0.0152365
859.357	0.0152180
859.435	0.0150913
859.513	0.0152265
859.591	0.0152884
859.669	0.0151998
859.747	0.0151398
859.825	0.0151485
859.904	0.0151116
859.982	0.0151344
860.060	0.0150144
860.138	0.0149944
860.216	0.0150308
860.294	0.0149134
860.372	0.0147218
860.450	0.0148338
860.529	0.0147985
860.607	0.0146767
860.685	0.0148557
860.763	0.0147225
860.841	0.0147489
860.919	0.0146817
860.997	0.0147348
861.075	0.0148446
861.154	0.0146577
861.232	0.0147433
861.310	0.0148834
861.388	0.0148804
861.466	0.0149732
861.544	0.0149348
861.622	0.0150206
861.700	0.0150683
861.779	0.0151103
861.857	0.0151466
861.935	0.0151664
862.013	0.0153149
862.091	0.0153594
862.169	0.0154770
862.247	0.0154149
862.325	0.0154684
862.404	0.0155206
862.482	0.0154473
862.560	0.0155791
862.638	0.0156239
862.716	0.0155900
862.794	0.0155433
862.872	0.0154681
862.950	0.0155523
863.029	0.0154884
863.107	0.0155943
863.185	0.0156205
863.263	0.0155668
863.341	0.0155234
863.419	0.0154646
863.497	0.0153560
863.575	0.0152761
863.654	0.0154163
863.732	0.0155746
863.810	0.0154887
863.888	0.0153531
863.966	0.0154216
864.044	0.0154131
864.122	0.0155666
864.200	0.0154108
864.279	0.0153693
864.357	0.0152767
864.435	0.0152560
864.513	0.0153724
864.591	0.0152564
864.669	0.0151924
864.747	0.0151509
864.825	0.0151234
864.904	0.0151073
864.982	0.0150494
865.060	0.0150342
865.138	0.0149615
865.216	0.0149820
865.294	0.0148363
865.372	0.0148501
865.450	0.0149426
865.529	0.0149290
865.607	0.0147251
865.685	0.0148833
865.763	0.0148379
865.841	0.0148690
865.919	0.0148171
865.997	0.0148339
866.075	0.0149438
866.154	0.0148975
866.232	0.0149969
866.310	0.0149453
866.388	0.0150106
866.466	0.0151555
866.544	0.0151393
866.622	0.0152992
866.700	0.0153085
866.779	0.0152146
866.857	0.0153707
866.935	0.0154140
867.013	0.0153876
867.091	0.0153495
867.169	0.0154262
867.247	0.0154652
867.325	0.0155383
867.404	0.0154445
867.482	0.0154752
867.560	0.0155080
867.638	0.0153418
867.716	0.0152877
867.794	0.0153160
867.872	0.0153798
867.950	0.0152004
868.029	0.0151955
868.107	0.0151171
868.185	0.0150932
868.263	0.0150123
868.341	0.0151569
868.419	0.0149950
868.497	0.0151009
868.575	0.0149851
868.654	0.0150188
868.732	0.0148701
868.810	0.0149505
868.888	0.0149253
868.966	0.0149991
869.044	0.0149683
869.122	0.0149418
869.200	0.0149805
869.279	0.0150251
869.357	0.0150955
869.435	0.0150738
869.513	0.0151689
869.591	0.0151333
869.669	0.0151513
869.747	0.0152606
869.825	0.0153294
869.904	0.0152142
869.982	0.0152052
870.060	0.0153256
870.138	0.0152817
870.216	0.0152891
870.294	0.0153860
870.372	0.0153736
870.450	0.0151508
870.529	0.0151737
870.607	0.0152834
870.685	0.0151224
870.763	0.0151420
870.841	0.0151878
870.919	0.0152637
870.997	0.0150024
871.075	0.0149134
871.154	0.0150692
871.232	0.0150923
871.310	0.0148431
871.388	0.0148406
871.466	0.0150366
871.544	0.0149902
871.622	0.0149931
871.700	0.0149544
871.779	0.0151491
871.857	0.0151440
871.935	0.0149853
872.013	0.0151346
872.091	0.0151474
872.169	0.0152200
872.247	0.0151382
872.325	0.0152866
872.404	0.0152911
872.482	0.0154271
872.560	0.0153078
872.638	0.0153060
872.716	0.0154220
872.794	0.0155740
872.872	0.0155903
872.950	0.0154675
873.029	0.0157355
873.107	0.0154689
873.185	0.0155820
873.263	0.0155257
873.341	0.0155315
873.419	0.0155283
873.497	0.0155151
873.575	0.0155252
873.654	0.0154895
873.732	0.0154906
873.810	0.0153928
873.888	0.0151956
873.966	0.0151958
874.044	0.0152181
874.122	0.0150751
874.200	0.0150747
874.279	0.0150426
874.357	0.0150476
874.435	0.0150202
874.513	0.0148389
874.591	0.0148507
874.669	0.0149380
874.747	0.0149554
874.825	0.0148936
874.904	0.0150033
874.982	0.0150168
875.060	0.0150104
875.138	0.0148670
875.216	0.0150201
875.294	0.0150386
875.372	0.0151366
875.450	0.0150241
875.529	0.0151122
875.607	0.0149698
875.685	0.0151347
875.763	0.0150043
875.841	0.0151469
875.919	0.0152077
875.997	0.0150075
876.075	0.0152439
876.154	0.0152073
876.232	0.0152010
876.310	0.0153427
876.388	0.0152731
876.466	0.0151790
876.544	0.0152348
876.622	0.0153188
876.700	0.0152699
876.779	0.0153038
876.857	0.0152644
876.935	0.0152839
877.013	0.0153613
877.091	0.0154562
877.169	0.0155539
877.247	0.0155392
877.325	0.0154850
877.404	0.0154432
877.482	0.0155304
877.560	0.0156319
877.638	0.0155662
877.716	0.0156691
877.794	0.0155420
877.872	0.0155659
877.950	0.0154962
878.029	0.0155495
878.107	0.0154520
878.185	0.0154295
878.263	0.0154293
878.341	0.0153798
878.419	0.0152940
878.497	0.0152612
878.575	0.0152922
878.654	0.0152392
878.732	0.0150890
878.810	0.0150735
878.888	0.0150959
878.966	0.0148953
879.044	0.0149552
879.122	0.0149594
879.200	0.0150162
879.279	0.0148708
879.357	0.0149142
879.435	0.0149310
879.513	0.0150665
879.591	0.0149149
879.669	0.0148972
879.747	0.0150131
879.825	0.0150710
879.904	0.0150816
879.982	0.0149434
880.060	0.0150891
880.138	0.0150213
880.216	0.0151661
880.294	0.0152473
880.372	0.0152068
880.450	0.0153001
880.529	0.0152711
880.607	0.0153332
880.685	0.0152829
880.763	0.0152067
880.841	0.0151454
880.919	0.0152416
880.997	0.0151682
881.075	0.0152036
881.154	0.0152528
881.232	0.0151675
881.310	0.0151630
881.388	0.0150049
881.466	0.0150420
881.544	0.0150745
881.622	0.0151043
881.700	0.0149577
881.779	0.0150727
881.857	0.0151604
881.935	0.0153065
882.013	0.0152293
882.091	0.0151646
882.169	0.0153017
882.247	0.0152010
882.325	0.0152378
882.404	0.0152051
882.482	0.0153506
882.560	0.0152925
882.638	0.0153739
882.716	0.0155058
882.794	0.0153238
882.872	0.0153337
882.950	0.0154832
883.029	0.0153426
883.107	0.0153330
883.185	0.0153996
883.263	0.0154146
883.341	0.0155662
883.419	0.0153257
883.497	0.0153747
883.575	0.0153721
883.654	0.0153120
883.732	0.0153883
883.810	0.0153546
883.888	0.0152122
883.966	0.0153410
884.044	0.0153842
884.122	0.0153369
884.200	0.0153260
884.279	0.0153272
884.357	0.0152919
884.435	0.0152423
884.513	0.0152085
884.591	0.0153116
884.669	0.0153027
884.747	0.0151748
884.825	0.0150918
884.904	0.0151604
884.982	0.0150134
885.060	0.0151029
885.138	0.0151380
885.216	0.0152029
885.294	0.0151760
885.372	0.0150949
885.450	0.0151324
885.529	0.0149703
885.607	0.0149020
885.685	0.0147913
885.763	0.0148253
885.841	0.0148910
885.919	0.0148965
885.997	0.0146073
886.075	0.0147881
886.154	0.0146530
886.232	0.0146529
886.310	0.0146823
886.388	0.0147505
886.466	0.0147349
886.544	0.0147016
886.622	0.0148095
886.700	0.0146852
886.779	0.0149921
886.857	0.0149653
886.935	0.0149828
887.013	0.0149781
887.091	0.0150655
887.169	0.0152268
887.247	0.0151466
887.325	0.0150968
887.404	0.0152824
887.482	0.0154160
887.560	0.0154578
887.638	0.0154433
887.716	0.0154351
887.794	0.0155115
887.872	0.0155450
887.950	0.0155902
888.029	0.0155520
888.107	0.0157011
888.185	0.0156947
888.263	0.0157230
888.341	0.0156562
888.419	0.0157919
888.497	0.0156630
888.575	0.0156277
888.654	0.0155576
888.732	0.0154780
888.810	0.0154813
888.888	0.0154530
888.966	0.0154554
889.044	0.0154025
889.122	0.0154150
889.200	0.0153838
889.279	0.0152938
889.357	0.0153821
889.435	0.0153075
889.513	0.0151695
889.591	0.0153524
889.669	0.0153039
889.747	0.0152763
889.825	0.0151883
889.904	0.0149783
889.982	0.0149800
890.060	0.0152666
890.138	0.0151307
890.216	0.0150079
890.294	0.0150254
890.372	0.0149778
890.450	0.0148565
890.529	0.0150159
890.607	0.0150292
890.685	0.0148898
890.763	0.0148004
890.841	0.0148308
890.919	0.0148212
890.997	0.0149407
891.075	0.0148546
891.154	0.0148732
891.232	0.0148467
891.310	0.0149838
891.388	0.0148876
891.466	0.0149315
891.544	0.0148451
891.622	0.0150136
891.700	0.0151485
891.779	0.0153684
891.857	0.0151366
891.935	0.0150977
892.013	0.0150035
892.091	0.0151721
892.169	0.0151320
892.247	0.0152769
892.325	0.0152128
892.404	0.0152804
892.482	0.0151375
892.560	0.0152452
892.638	0.0152888
892.716	0.0152555
892.794	0.0154096
892.872	0.0153706
892.950	0.0152919
893.029	0.0153104
893.107	0.0154015
893.185	0.0153680
893.263	0.0153142
893.341	0.0153223
893.419	0.0153844
893.497	0.0153239
893.575	0.0152900
893.654	0.0154259
893.732	0.0153743
893.810	0.0153048
893.888	0.0152213
893.966	0.0153604
894.044	0.0153153
894.122	0.0152745
894.200	0.0151978
894.279	0.0150636
894.357	0.0152420
894.435	0.0151954
894.513	0.0151579
894.591	0.0153329
894.669	0.0151903
894.747	0.0151707
894.825	0.0151293
894.904	0.0151295
894.982	0.0151281
895.060	0.0150837
895.138	0.0152177
895.216	0.0151472
895.294	0.0150748
895.372	0.0151939
895.450	0.0151551
895.529	0.0152235
895.607	0.0152369
895.685	0.0151455
895.763	0.0153358
895.841	0.0151257
895.919	0.0152284
895.997	0.0150896
896.075	0.0151197
896.154	0.0151243
896.232	0.0150884
896.310	0.0152444
896.388	0.0150929
896.466	0.0151778
896.544	0.0150897
896.622	0.0152309
896.700	0.0151122
896.779	0.0151093
896.857	0.0151145
896.935	0.0150900
897.013	0.0151373
897.091	0.0151670
897.169	0.0151675
897.247	0.0151125
897.325	0.0152328
897.404	0.0151871
897.482	0.0150519
897.560	0.0151801
897.638	0.0152839
897.716	0.0152219
897.794	0.0151956
897.872	0.0151216
897.950	0.0151401
898.029	0.0152878
898.107	0.0153457
898.185	0.0152345
898.263	0.0152583
898.341	0.0153550
898.419	0.0153139
898.497	0.0153271
898.575	0.0152995
898.654	0.0153429
898.732	0.0153587
898.810	0.0151839
898.888	0.0153745
898.966	0.0154285
899.044	0.0152720
899.122	0.0152987
899.200	0.0153427
899.279	0.0152733
899.357	0.0153323
899.435	0.0153382
899.513	0.0153536
899.591	0.0152303
899.669	0.0151940
899.747	0.0151237
899.825	0.0153358
899.904	0.0151937
899.982	0.0152868
900.060	0.0151763
900.138	0.0151299
900.216	0.0151835
900.294	0.0150204
900.372	0.0152251
900.450	0.0151572
900.529	0.0150647
900.607	0.0151949
900.685	0.0151158
900.763	0.0151604
900.841	0.0151688
900.919	0.0150453
900.997	0.0150027
901.075	0.0151668
901.154	0.0150690
901.232	0.0151413
901.310	0.0149664
901.388	0.0151988
901.466	0.0152119
901.544	0.0150907
901.622	0.0152036
901.700	0.0150790
901.779	0.0150084
901.857	0.0150733
901.935	0.0152065
902.013	0.0150682
902.091	0.0151938
902.169	0.0151619
902.247	0.0153089
902.325	0.0152112
902.404	0.0151818
902.482	0.0151389
902.560	0.0152674
902.638	0.0152608
902.716	0.0151704
902.794	0.0152508
902.872	0.0153342
902.950	0.0152724
903.029	0.0151782
903.107	0.0153165
903.185	0.0152850
903.263	0.0152591
903.341	0.0153179
903.419	0.0152853
903.497	0.0153497
903.575	0.0154027
903.654	0.0153668
903.732	0.0154652
903.810	0.0153486
903.888	0.0154097
903.966	0.0154660
904.044	0.0152977
904.122	0.0154008
904.200	0.0154255
904.279	0.0153983
904.357	0.0153234
904.435	0.0153699
904.513	0.0152646
904.591	0.0153091
904.669	0.0152966
904.747	0.0152611
904.825	0.0153111
904.904	0.0153239
904.982	0.0151483
905.060	0.0152900
905.138	0.0154155
905.216	0.0151327
905.294	0.0149819
905.372	0.0150430
905.450	0.0150904
905.529	0.0150004
905.607	0.0150850
905.685	0.0149110
905.763	0.0150143
905.841	0.0149654
905.919	0.0149866
905.997	0.0149630
906.075	0.0149634
906.154	0.0149705
906.232	0.0149848
906.310	0.0149352
906.388	0.0152023
906.466	0.0151413
906.544	0.0149965
906.622	0.0151431
906.700	0.0151513
906.779	0.0150919
906.857	0.0152066
906.935	0.0152192
907.013	0.0150783
907.091	0.0151932
907.169	0.0152524
907.247	0.0151527
907.325	0.0151737
907.404	0.0151847
907.482	0.0152260
907.560	0.0152065
907.638	0.0150865
907.716	0.0151937
907.794	0.0152237
907.872	0.0150404
907.950	0.0151948
908.029	0.0151674
908.107	0.0153236
908.185	0.0151900
908.263	0.0150779
908.341	0.0152387
908.419	0.0151508
908.497	0.0149909
908.575	0.0151419
908.654	0.0153656
908.732	0.0151215
908.810	0.0151046
908.888	0.0151974
908.966	0.0152924
909.044	0.0152862
909.122	0.0150800
909.200	0.0151752
909.279	0.0152048
909.357	0.0152186
909.435	0.0151537
909.513	0.0151555
909.591	0.0150769
909.669	0.0150886
909.747	0.0151399
909.825	0.0151450
909.904	0.0152103
909.982	0.0151678
910.060	0.0151195
910.138	0.0151500
910.216	0.0149932
910.294	0.0149862
910.372	0.0150268
910.450	0.0150673
910.529	0.0151756
910.607	0.0150281
910.685	0.0150716
910.763	0.0151048
910.841	0.0151601
910.919	0.0152360
910.997	0.0152055
911.075	0.0152238
911.154	0.0153273
911.232	0.0152612
911.310	0.0152688
911.388	0.0152869
911.466	0.0153069
911.544	0.0155370
911.622	0.0154085
911.700	0.0153741
911.779	0.0153860
911.857	0.0154777
911.935	0.0152623
912.013	0.0153730
912.091	0.0154535
912.169	0.0153066
912.247	0.0153271
912.325	0.0152905
912.404	0.0151408
912.482	0.0149988
912.560	0.0150247
912.638	0.0150519
912.716	0.0149574
912.794	0.0150225
912.872	0.0150767
912.950	0.0149797
913.029	0.0151256
913.107	0.0151214
913.185	0.0150555
913.263	0.0149230
913.341	0.0150189
913.419	0.0149668
913.497	0.0150885
913.575	0.0150803
913.654	0.0150782
913.732	0.0151093
913.810	0.0151278
913.888	0.0151648
913.966	0.0150475
914.044	0.0151677
914.122	0.0151835
914.200	0.0151892
914.279	0.0151392
914.357	0.0151429
914.435	0.0151063
914.513	0.0152307
914.591	0.0150761
914.669	0.0151949
914.747	0.0151281
914.825	0.0149825
914.904	0.0150116
914.982	0.0150520
915.060	0.0151225
915.138	0.0151940
915.216	0.0149804
915.294	0.0149975
915.372	0.0150498
915.450	0.0149690
915.529	0.0149821
915.607	0.0150854
915.685	0.0152106
915.763	0.0151073
915.841	0.0151092
915.919	0.0151878
915.997	0.0151525
916.075	0.0151935
916.154	0.0152692
916.232	0.0152202
916.310	0.0153343
916.388	0.0152402
916.466	0.0152015
916.544	0.0152615
916.622	0.0153185
916.700	0.0153236
916.779	0.0153189
916.857	0.0154531
916.935	0.0152827
917.013	0.0154111
917.091	0.0154048
917.169	0.0153283
917.247	0.0152969
917.325	0.0151804
917.404	0.0152566
917.482	0.0153413
917.560	0.0152739
917.638	0.0152239
917.716	0.0152601
917.794	0.0152130
917.872	0.0152687
917.950	0.0151108
918.029	0.0151258
918.107	0.0151460
918.185	0.0150098
918.263	0.0150354
918.341	0.0149780
918.419	0.0151012
918.497	0.0149761
918.575	0.0150365
918.654	0.0147690
918.732	0.0148492
918.810	0.0149590
918.888	0.0149703
918.966	0.0148853
919.044	0.0149380
919.122	0.0148936
919.200	0.0150446
919.279	0.0149452
919.357	0.0150837
919.435	0.0151656
919.513	0.0151392
919.591	0.0151238
919.669	0.0152404
919.747	0.0152920
919.825	0.0153853
919.904	0.0153704
