05/20/2022	21:14:29	Ver.	4.1	UNKNOWN
Optical Delay	599.975067	Delta X		0.078125	Sweeps	1	Scan Rate	0/0
Coordinates	Axis 1	NaN	Axis 2	NaN	Axis 3	NaN	Axis 4	NaN	Axis 5	NaN	Axis 6	0.000000
TX Power	0.000000	RX Power	0.000000

599.975	0.0154728
600.053	0.0154243
600.131	0.0154655
600.209	0.0154678
600.288	0.0155399
600.366	0.0153348
600.444	0.0154132
600.522	0.0155380
600.600	0.0154624
600.678	0.0153710
600.756	0.0153351
600.834	0.0155186
600.913	0.0153004
600.991	0.0153477
601.069	0.0154027
601.147	0.0154513
601.225	0.0152163
601.303	0.0154121
601.381	0.0154295
601.459	0.0154221
601.538	0.0153763
601.616	0.0152720
601.694	0.0153342
601.772	0.0154112
601.850	0.0154428
601.928	0.0153968
602.006	0.0153606
602.084	0.0154050
602.163	0.0155719
602.241	0.0155188
602.319	0.0153362
602.397	0.0155715
602.475	0.0154047
602.553	0.0154411
602.631	0.0153592
602.709	0.0155425
602.788	0.0155446
602.866	0.0154588
602.944	0.0155696
603.022	0.0155100
603.100	0.0154211
603.178	0.0154958
603.256	0.0153979
603.334	0.0154470
603.413	0.0155717
603.491	0.0155137
603.569	0.0155395
603.647	0.0154707
603.725	0.0155365
603.803	0.0156130
603.881	0.0155194
603.959	0.0157262
604.038	0.0155080
604.116	0.0154611
604.194	0.0155502
604.272	0.0156418
604.350	0.0154836
604.428	0.0154711
604.506	0.0156838
604.584	0.0154916
604.663	0.0154922
604.741	0.0154698
604.819	0.0155083
604.897	0.0155270
604.975	0.0155527
605.053	0.0155602
605.131	0.0154628
605.209	0.0155204
605.288	0.0155327
605.366	0.0155724
605.444	0.0154830
605.522	0.0155628
605.600	0.0155693
605.678	0.0155855
605.756	0.0155172
605.834	0.0154738
605.913	0.0155319
605.991	0.0155975
606.069	0.0155988
606.147	0.0156216
606.225	0.0155414
606.303	0.0154884
606.381	0.0155439
606.459	0.0154803
606.538	0.0153986
606.616	0.0155881
606.694	0.0155535
606.772	0.0155144
606.850	0.0154020
606.928	0.0154273
607.006	0.0152740
607.084	0.0153056
607.163	0.0153931
607.241	0.0153203
607.319	0.0152747
607.397	0.0152024
607.475	0.0153578
607.553	0.0153914
607.631	0.0151414
607.709	0.0152847
607.788	0.0151755
607.866	0.0152789
607.944	0.0152348
608.022	0.0151613
608.100	0.0152260
608.178	0.0153105
608.256	0.0151795
608.334	0.0151402
608.413	0.0152304
608.491	0.0153638
608.569	0.0154140
608.647	0.0151879
608.725	0.0151322
608.803	0.0152594
608.881	0.0152328
608.959	0.0153222
609.038	0.0152736
609.116	0.0151685
609.194	0.0151630
609.272	0.0153325
609.350	0.0152341
609.428	0.0151150
609.506	0.0152470
609.584	0.0151566
609.663	0.0151646
609.741	0.0152871
609.819	0.0152831
609.897	0.0151768
609.975	0.0151231
610.053	0.0153209
610.131	0.0152164
610.209	0.0154218
610.288	0.0151435
610.366	0.0153403
610.444	0.0152409
610.522	0.0150986
610.600	0.0151250
610.678	0.0152864
610.756	0.0152628
610.834	0.0152052
610.913	0.0152091
610.991	0.0151934
611.069	0.0151394
611.147	0.0152198
611.225	0.0151262
611.303	0.0151031
611.381	0.0153408
611.459	0.0151697
611.538	0.0152953
611.616	0.0150996
611.694	0.0150529
611.772	0.0149970
611.850	0.0152097
611.928	0.0151566
612.006	0.0151511
612.084	0.0152039
612.163	0.0150506
612.241	0.0151686
612.319	0.0151912
612.397	0.0151109
612.475	0.0153180
612.553	0.0151553
612.631	0.0152146
612.709	0.0153394
612.788	0.0153362
612.866	0.0153127
612.944	0.0152862
613.022	0.0152840
613.100	0.0153680
613.178	0.0152622
613.256	0.0153376
613.334	0.0153514
613.413	0.0154839
613.491	0.0153715
613.569	0.0153918
613.647	0.0151952
613.725	0.0152647
613.803	0.0153985
613.881	0.0152921
613.959	0.0154977
614.038	0.0154916
614.116	0.0153944
614.194	0.0154325
614.272	0.0152454
614.350	0.0153107
614.428	0.0153873
614.506	0.0154366
614.584	0.0153347
614.663	0.0153927
614.741	0.0152911
614.819	0.0153324
614.897	0.0154062
614.975	0.0155260
615.053	0.0154405
615.131	0.0152814
615.209	0.0153087
615.288	0.0153609
615.366	0.0153783
615.444	0.0153570
615.522	0.0153848
615.600	0.0152721
615.678	0.0153417
615.756	0.0153608
615.834	0.0152413
615.913	0.0151772
615.991	0.0153094
616.069	0.0153252
616.147	0.0154314
616.225	0.0154215
616.303	0.0154060
616.381	0.0152905
616.459	0.0153974
616.538	0.0153284
616.616	0.0154379
616.694	0.0153463
616.772	0.0153745
616.850	0.0153268
616.928	0.0153645
617.006	0.0155454
617.084	0.0154615
617.163	0.0152026
617.241	0.0153757
617.319	0.0153291
617.397	0.0154389
617.475	0.0153598
617.553	0.0152966
617.631	0.0152663
617.709	0.0153616
617.788	0.0153774
617.866	0.0153129
617.944	0.0153489
618.022	0.0153704
618.100	0.0152447
618.178	0.0153408
618.256	0.0154628
618.334	0.0154462
618.413	0.0153346
618.491	0.0154239
618.569	0.0154562
618.647	0.0154175
618.725	0.0154144
618.803	0.0154299
618.881	0.0153797
618.959	0.0155317
619.038	0.0154136
619.116	0.0153477
619.194	0.0155107
619.272	0.0155996
619.350	0.0154018
619.428	0.0154266
619.506	0.0154924
619.584	0.0155498
619.663	0.0156580
619.741	0.0155766
619.819	0.0156777
619.897	0.0156802
619.975	0.0156580
620.053	0.0156271
620.131	0.0156144
620.209	0.0155537
620.288	0.0156562
620.366	0.0155692
620.444	0.0156618
620.522	0.0156963
620.600	0.0156187
620.678	0.0156007
620.756	0.0157504
620.834	0.0157068
620.913	0.0157172
620.991	0.0157616
621.069	0.0157337
621.147	0.0157377
621.225	0.0156880
621.303	0.0155972
621.381	0.0155674
621.459	0.0157529
621.538	0.0156245
621.616	0.0157197
621.694	0.0157197
621.772	0.0156035
621.850	0.0154683
621.928	0.0155382
622.006	0.0156621
622.084	0.0155246
622.163	0.0155936
622.241	0.0156735
622.319	0.0155704
622.397	0.0156278
622.475	0.0156860
622.553	0.0155984
622.631	0.0155145
622.709	0.0155529
622.788	0.0154063
622.866	0.0154591
622.944	0.0156129
623.022	0.0155769
623.100	0.0155532
623.178	0.0155654
623.256	0.0154939
623.334	0.0155943
623.413	0.0156603
623.491	0.0154992
623.569	0.0155688
623.647	0.0156472
623.725	0.0156116
623.803	0.0156036
623.881	0.0155818
623.959	0.0156583
624.038	0.0154311
624.116	0.0155405
624.194	0.0155135
624.272	0.0155176
624.350	0.0154747
624.428	0.0155968
624.506	0.0155052
624.584	0.0156152
624.663	0.0156379
624.741	0.0154580
624.819	0.0156357
624.897	0.0155441
624.975	0.0153269
625.053	0.0154790
625.131	0.0154906
625.209	0.0154480
625.288	0.0153326
625.366	0.0154505
625.444	0.0155499
625.522	0.0155524
625.600	0.0154868
625.678	0.0153880
625.756	0.0153902
625.834	0.0153584
625.913	0.0153384
625.991	0.0154679
626.069	0.0154716
626.147	0.0154083
626.225	0.0155016
626.303	0.0155479
626.381	0.0154613
626.459	0.0154009
626.538	0.0153263
626.616	0.0154371
626.694	0.0153226
626.772	0.0153641
626.850	0.0152802
626.928	0.0154246
627.006	0.0154256
627.084	0.0154339
627.163	0.0153836
627.241	0.0153823
627.319	0.0154094
627.397	0.0153973
627.475	0.0153197
627.553	0.0154110
627.631	0.0152057
627.709	0.0152570
627.788	0.0154929
627.866	0.0153972
627.944	0.0152642
628.022	0.0153715
628.100	0.0154406
628.178	0.0153967
628.256	0.0153437
628.334	0.0154572
628.413	0.0155258
628.491	0.0153201
628.569	0.0155735
628.647	0.0155242
628.725	0.0153469
628.803	0.0154345
628.881	0.0153034
628.959	0.0152968
629.038	0.0154417
629.116	0.0154144
629.194	0.0153476
629.272	0.0154050
629.350	0.0152928
629.428	0.0151683
629.506	0.0152829
629.584	0.0154389
629.663	0.0152237
629.741	0.0152876
629.819	0.0152653
629.897	0.0153134
629.975	0.0153104
630.053	0.0152850
630.131	0.0153152
630.209	0.0153935
630.288	0.0154139
630.366	0.0153802
630.444	0.0153562
630.522	0.0153823
630.600	0.0151956
630.678	0.0153986
630.756	0.0154690
630.834	0.0154226
630.913	0.0152997
630.991	0.0151546
631.069	0.0153949
631.147	0.0153391
631.225	0.0153120
631.303	0.0152464
631.381	0.0151696
631.459	0.0152261
631.538	0.0153490
631.616	0.0152692
631.694	0.0153480
631.772	0.0152902
631.850	0.0152792
631.928	0.0152322
632.006	0.0153504
632.084	0.0154588
632.163	0.0152393
632.241	0.0152732
632.319	0.0152959
632.397	0.0152649
632.475	0.0154224
632.553	0.0153461
632.631	0.0152726
632.709	0.0151428
632.788	0.0151045
632.866	0.0152728
632.944	0.0151333
633.022	0.0151808
633.100	0.0153096
633.178	0.0151183
633.256	0.0153583
633.334	0.0153066
633.413	0.0152287
633.491	0.0153368
633.569	0.0151460
633.647	0.0151961
633.725	0.0152108
633.803	0.0152950
633.881	0.0152512
633.959	0.0151781
634.038	0.0152557
634.116	0.0151897
634.194	0.0151246
634.272	0.0152155
634.350	0.0151857
634.428	0.0152260
634.506	0.0153219
634.584	0.0153025
634.663	0.0153022
634.741	0.0151677
634.819	0.0150705
634.897	0.0152118
634.975	0.0152705
635.053	0.0152274
635.131	0.0152174
635.209	0.0151896
635.288	0.0151534
635.366	0.0152273
635.444	0.0152366
635.522	0.0151701
635.600	0.0152386
635.678	0.0151350
635.756	0.0151260
635.834	0.0152519
635.913	0.0151574
635.991	0.0152074
636.069	0.0151274
636.147	0.0153813
636.225	0.0152872
636.303	0.0153349
636.381	0.0153997
636.459	0.0152631
636.538	0.0152299
636.616	0.0151797
636.694	0.0153229
636.772	0.0152925
636.850	0.0151939
636.928	0.0152025
637.006	0.0152356
637.084	0.0152345
637.163	0.0152808
637.241	0.0151707
637.319	0.0152010
637.397	0.0152590
637.475	0.0150481
637.553	0.0151267
637.631	0.0152257
637.709	0.0150652
637.788	0.0152180
637.866	0.0153623
637.944	0.0152411
638.022	0.0152601
638.100	0.0151980
638.178	0.0152479
638.256	0.0154038
638.334	0.0151916
638.413	0.0152885
638.491	0.0152917
638.569	0.0152200
638.647	0.0152731
638.725	0.0152246
638.803	0.0152806
638.881	0.0152777
638.959	0.0154562
639.038	0.0154475
639.116	0.0152925
639.194	0.0153538
639.272	0.0153757
639.350	0.0152462
639.428	0.0153464
639.506	0.0152780
639.584	0.0152104
639.663	0.0152535
639.741	0.0150486
639.819	0.0153410
639.897	0.0153376
639.975	0.0150681
640.053	0.0150654
640.131	0.0151321
640.209	0.0153268
640.288	0.0153051
640.366	0.0153239
640.444	0.0153159
640.522	0.0153130
640.600	0.0153564
640.678	0.0154163
640.756	0.0153751
640.834	0.0153446
640.913	0.0152345
640.991	0.0153864
641.069	0.0153408
641.147	0.0154599
641.225	0.0154819
641.303	0.0153611
641.381	0.0155222
641.459	0.0153620
641.538	0.0154230
641.616	0.0154742
641.694	0.0152811
641.772	0.0152870
641.850	0.0152905
641.928	0.0154047
642.006	0.0152894
642.084	0.0151970
642.163	0.0154366
642.241	0.0154319
642.319	0.0155200
642.397	0.0155010
642.475	0.0155192
642.553	0.0154787
642.631	0.0154852
642.709	0.0155089
642.788	0.0156445
642.866	0.0154809
642.944	0.0154296
643.022	0.0155410
643.100	0.0154819
643.178	0.0154235
643.256	0.0154626
643.334	0.0154823
643.413	0.0154986
643.491	0.0155350
643.569	0.0154503
643.647	0.0155193
643.725	0.0155649
643.803	0.0153910
643.881	0.0155504
643.959	0.0154434
644.038	0.0154945
644.116	0.0154458
644.194	0.0155051
644.272	0.0155022
644.350	0.0154479
644.428	0.0153388
644.506	0.0154516
644.584	0.0153014
644.663	0.0153571
644.741	0.0154914
644.819	0.0153073
644.897	0.0152923
644.975	0.0153850
645.053	0.0153632
645.131	0.0153711
645.209	0.0152997
645.288	0.0153830
645.366	0.0154814
645.444	0.0153832
645.522	0.0153513
645.600	0.0154329
645.678	0.0154293
645.756	0.0154166
645.834	0.0154097
645.913	0.0154765
645.991	0.0154145
646.069	0.0152550
646.147	0.0154628
646.225	0.0153330
646.303	0.0152586
646.381	0.0153182
646.459	0.0152778
646.538	0.0153722
646.616	0.0152518
646.694	0.0153331
646.772	0.0154090
646.850	0.0153931
646.928	0.0152805
647.006	0.0154056
647.084	0.0153357
647.163	0.0152659
647.241	0.0154536
647.319	0.0153545
647.397	0.0154366
647.475	0.0153546
647.553	0.0153358
647.631	0.0154930
647.709	0.0153754
647.788	0.0153197
647.866	0.0153078
647.944	0.0153697
648.022	0.0154062
648.100	0.0153239
648.178	0.0154152
648.256	0.0154996
648.334	0.0153770
648.413	0.0155042
648.491	0.0154697
648.569	0.0152893
648.647	0.0155108
648.725	0.0155228
648.803	0.0154534
648.881	0.0153617
648.959	0.0154504
649.038	0.0156371
649.116	0.0154343
649.194	0.0153525
649.272	0.0154446
649.350	0.0154437
649.428	0.0155015
649.506	0.0155450
649.584	0.0155692
649.663	0.0155139
649.741	0.0153773
649.819	0.0153191
649.897	0.0154841
649.975	0.0155621
650.053	0.0154021
650.131	0.0153514
650.209	0.0156251
650.288	0.0155053
650.366	0.0153900
650.444	0.0153510
650.522	0.0155154
650.600	0.0155954
650.678	0.0154727
650.756	0.0154682
650.834	0.0154721
650.913	0.0154151
650.991	0.0154950
651.069	0.0153775
651.147	0.0153702
651.225	0.0155418
651.303	0.0153870
651.381	0.0153882
651.459	0.0155118
651.538	0.0153580
651.616	0.0154803
651.694	0.0155421
651.772	0.0152333
651.850	0.0156065
651.928	0.0153596
652.006	0.0152444
652.084	0.0153641
652.163	0.0153568
652.241	0.0154707
652.319	0.0153275
652.397	0.0154092
652.475	0.0152500
652.553	0.0153716
652.631	0.0154248
652.709	0.0153430
652.788	0.0154502
652.866	0.0153610
652.944	0.0152769
653.022	0.0154282
653.100	0.0154052
653.178	0.0153780
653.256	0.0154510
653.334	0.0155227
653.413	0.0153433
653.491	0.0154847
653.569	0.0156696
653.647	0.0154520
653.725	0.0154369
653.803	0.0154440
653.881	0.0152924
653.959	0.0153674
654.038	0.0153544
654.116	0.0152069
654.194	0.0152656
654.272	0.0152390
654.350	0.0153906
654.428	0.0152385
654.506	0.0152704
654.584	0.0152698
654.663	0.0153137
654.741	0.0152901
654.819	0.0152422
654.897	0.0152561
654.975	0.0153490
655.053	0.0151911
655.131	0.0152712
655.209	0.0152483
655.288	0.0153590
655.366	0.0153471
655.444	0.0152545
655.522	0.0151954
655.600	0.0151941
655.678	0.0152058
655.756	0.0152219
655.834	0.0153409
655.913	0.0151463
655.991	0.0152921
656.069	0.0153242
656.147	0.0151644
656.225	0.0150534
656.303	0.0153214
656.381	0.0152964
656.459	0.0150712
656.538	0.0152660
656.616	0.0152156
656.694	0.0151222
656.772	0.0152416
656.850	0.0151611
656.928	0.0151402
657.006	0.0150509
657.084	0.0151310
657.163	0.0152229
657.241	0.0151351
657.319	0.0150552
657.397	0.0151257
657.475	0.0150957
657.553	0.0151138
657.631	0.0150945
657.709	0.0151266
657.788	0.0150690
657.866	0.0151313
657.944	0.0149909
658.022	0.0150194
658.100	0.0149718
658.178	0.0150983
658.256	0.0151347
658.334	0.0152127
658.413	0.0151187
658.491	0.0151466
658.569	0.0151398
658.647	0.0152268
658.725	0.0152614
658.803	0.0150528
658.881	0.0151594
658.959	0.0150945
659.038	0.0152142
659.116	0.0152005
659.194	0.0150556
659.272	0.0151040
659.350	0.0151472
659.428	0.0151772
659.506	0.0152191
659.584	0.0152647
659.663	0.0151356
659.741	0.0152737
659.819	0.0152663
659.897	0.0153319
659.975	0.0151930
660.053	0.0153117
660.131	0.0154021
660.209	0.0154251
660.288	0.0153503
660.366	0.0153974
660.444	0.0152942
660.522	0.0153376
660.600	0.0154446
660.678	0.0154131
660.756	0.0155589
660.834	0.0154494
660.913	0.0153984
660.991	0.0154324
661.069	0.0153406
661.147	0.0155063
661.225	0.0154087
661.303	0.0153542
661.381	0.0154117
661.459	0.0154428
661.538	0.0153706
661.616	0.0155434
661.694	0.0153745
661.772	0.0152431
661.850	0.0154003
661.928	0.0153778
662.006	0.0152389
662.084	0.0152469
662.163	0.0153212
662.241	0.0151818
662.319	0.0152507
662.397	0.0154147
662.475	0.0152345
662.553	0.0152677
662.631	0.0152474
662.709	0.0152781
662.788	0.0152375
662.866	0.0153290
662.944	0.0153145
663.022	0.0153897
663.100	0.0153403
663.178	0.0152727
663.256	0.0153700
663.334	0.0153674
663.413	0.0153989
663.491	0.0153326
663.569	0.0152815
663.647	0.0154863
663.725	0.0153687
663.803	0.0154366
663.881	0.0155070
663.959	0.0154926
664.038	0.0154381
664.116	0.0155641
664.194	0.0154707
664.272	0.0156724
664.350	0.0155890
664.428	0.0156106
664.506	0.0156076
664.584	0.0153699
664.663	0.0155783
664.741	0.0156454
664.819	0.0156216
664.897	0.0156871
664.975	0.0156047
665.053	0.0155701
665.131	0.0158051
665.209	0.0156879
665.288	0.0155941
665.366	0.0157745
665.444	0.0157208
665.522	0.0158904
665.600	0.0157953
665.678	0.0157948
665.756	0.0157735
665.834	0.0158125
665.913	0.0159152
665.991	0.0158299
666.069	0.0156900
666.147	0.0156674
666.225	0.0156967
666.303	0.0156068
666.381	0.0155190
666.459	0.0156070
666.538	0.0155568
666.616	0.0153578
666.694	0.0153691
666.772	0.0156289
666.850	0.0153963
666.928	0.0153661
667.006	0.0154273
667.084	0.0154740
667.163	0.0154035
667.241	0.0153672
667.319	0.0155195
667.397	0.0152627
667.475	0.0153740
667.553	0.0155218
667.631	0.0153420
667.709	0.0153760
667.788	0.0152378
667.866	0.0153439
667.944	0.0154543
668.022	0.0153210
668.100	0.0152843
668.178	0.0153244
668.256	0.0152646
668.334	0.0154058
668.413	0.0155646
668.491	0.0154830
668.569	0.0154428
668.647	0.0155427
668.725	0.0155291
668.803	0.0155868
668.881	0.0157140
668.959	0.0156005
669.038	0.0155365
669.116	0.0154095
669.194	0.0154137
669.272	0.0153896
669.350	0.0152128
669.428	0.0151420
669.506	0.0151942
669.584	0.0150578
669.663	0.0152686
669.741	0.0151970
669.819	0.0148884
669.897	0.0149954
669.975	0.0151121
670.053	0.0150065
670.131	0.0149274
670.209	0.0150721
670.288	0.0150878
670.366	0.0150596
670.444	0.0151880
670.522	0.0152782
670.600	0.0153070
670.678	0.0152840
670.756	0.0153397
670.834	0.0155131
670.913	0.0155290
670.991	0.0153703
671.069	0.0153535
671.147	0.0154948
671.225	0.0156676
671.303	0.0157337
671.381	0.0155981
671.459	0.0155894
671.538	0.0155922
671.616	0.0157667
671.694	0.0156789
671.772	0.0156879
671.850	0.0157751
671.928	0.0155363
672.006	0.0156017
672.084	0.0157120
672.163	0.0156482
672.241	0.0155621
672.319	0.0154396
672.397	0.0156287
672.475	0.0154667
672.553	0.0154579
672.631	0.0151126
672.709	0.0152555
672.788	0.0151081
672.866	0.0150020
672.944	0.0148067
673.022	0.0147484
673.100	0.0145887
673.178	0.0145399
673.256	0.0145274
673.334	0.0144685
673.413	0.0144042
673.491	0.0144707
673.569	0.0143335
673.647	0.0143236
673.725	0.0145336
673.803	0.0145634
673.881	0.0145399
673.959	0.0146613
674.038	0.0147113
674.116	0.0149078
674.194	0.0150677
674.272	0.0151056
674.350	0.0152502
674.428	0.0155079
674.506	0.0156280
674.584	0.0158213
674.663	0.0161720
674.741	0.0162947
674.819	0.0164816
674.897	0.0165676
674.975	0.0166415
675.053	0.0168649
675.131	0.0167258
675.209	0.0169215
675.288	0.0170309
675.366	0.0168544
675.444	0.0169531
675.522	0.0167310
675.600	0.0166611
675.678	0.0165496
675.756	0.0162638
675.834	0.0161498
675.913	0.0161330
675.991	0.0158461
676.069	0.0156409
676.147	0.0152711
676.225	0.0150639
676.303	0.0147415
676.381	0.0147201
676.459	0.0144586
676.538	0.0141004
676.616	0.0139017
676.694	0.0138257
676.772	0.0137022
676.850	0.0135768
676.928	0.0134737
677.006	0.0134200
677.084	0.0133415
677.163	0.0134229
677.241	0.0134845
677.319	0.0135046
677.397	0.0137932
677.475	0.0137985
677.553	0.0138898
677.631	0.0142066
677.709	0.0143739
677.788	0.0146301
677.866	0.0147932
677.944	0.0152209
678.022	0.0154449
678.100	0.0157755
678.178	0.0162070
678.256	0.0162222
678.334	0.0165130
678.413	0.0167713
678.491	0.0171149
678.569	0.0171752
678.647	0.0173458
678.725	0.0173004
678.803	0.0174928
678.881	0.0176668
678.959	0.0174347
679.038	0.0174261
679.116	0.0174065
679.194	0.0172495
679.272	0.0170781
679.350	0.0168629
679.428	0.0168445
679.506	0.0167217
679.584	0.0164087
679.663	0.0162687
679.741	0.0160722
679.819	0.0155762
679.897	0.0153690
679.975	0.0151609
680.053	0.0148850
680.131	0.0146967
680.209	0.0145898
680.288	0.0143622
680.366	0.0142093
680.444	0.0140714
680.522	0.0140008
680.600	0.0139645
680.678	0.0140089
680.756	0.0139738
680.834	0.0138621
680.913	0.0140039
680.991	0.0140083
681.069	0.0142408
681.147	0.0143272
681.225	0.0143340
681.303	0.0144630
681.381	0.0146117
681.459	0.0146381
681.538	0.0148405
681.616	0.0149124
681.694	0.0150342
681.772	0.0151644
681.850	0.0152177
681.928	0.0151997
682.006	0.0152549
682.084	0.0153277
682.163	0.0154145
682.241	0.0155530
682.319	0.0156745
682.397	0.0155375
682.475	0.0156353
682.553	0.0158183
682.631	0.0157755
682.709	0.0159173
682.788	0.0158905
682.866	0.0160571
682.944	0.0161107
683.022	0.0162602
683.100	0.0163145
683.178	0.0163064
683.256	0.0162415
683.334	0.0163728
683.413	0.0163643
683.491	0.0165178
683.569	0.0164085
683.647	0.0164456
683.725	0.0164745
683.803	0.0165588
683.881	0.0165480
683.959	0.0167899
684.038	0.0166164
684.116	0.0167104
684.194	0.0166376
684.272	0.0165981
684.350	0.0163691
684.428	0.0163113
684.506	0.0163858
684.584	0.0160260
684.663	0.0159054
684.741	0.0157636
684.819	0.0155517
684.897	0.0153922
684.975	0.0151328
685.053	0.0150661
685.131	0.0147247
685.209	0.0144946
685.288	0.0145098
685.366	0.0143349
685.444	0.0144699
685.522	0.0142616
685.600	0.0141076
685.678	0.0142267
685.756	0.0142163
685.834	0.0140360
685.913	0.0141243
685.991	0.0143131
686.069	0.0141637
686.147	0.0143220
686.225	0.0143533
686.303	0.0147047
686.381	0.0148573
686.459	0.0148737
686.538	0.0150475
686.616	0.0153189
686.694	0.0154419
686.772	0.0156683
686.850	0.0158221
686.928	0.0159431
687.006	0.0160489
687.084	0.0162380
687.163	0.0163554
687.241	0.0163734
687.319	0.0164629
687.397	0.0167307
687.475	0.0165073
687.553	0.0166518
687.631	0.0167787
687.709	0.0167213
687.788	0.0168196
687.866	0.0168418
687.944	0.0167673
688.022	0.0167200
688.100	0.0166049
688.178	0.0166094
688.256	0.0164281
688.334	0.0162711
688.413	0.0160874
688.491	0.0160821
688.569	0.0159184
688.647	0.0158372
688.725	0.0155997
688.803	0.0155418
688.881	0.0154346
688.959	0.0153365
689.038	0.0150882
689.116	0.0151144
689.194	0.0150177
689.272	0.0148131
689.350	0.0147775
689.428	0.0146645
689.506	0.0145326
689.584	0.0145835
689.663	0.0144683
689.741	0.0142464
689.819	0.0141439
689.897	0.0140623
689.975	0.0140715
690.053	0.0140155
690.131	0.0139917
690.209	0.0138428
690.288	0.0138271
690.366	0.0137354
690.444	0.0137826
690.522	0.0138438
690.600	0.0138899
690.678	0.0140125
690.756	0.0141111
690.834	0.0143787
690.913	0.0144644
690.991	0.0147450
691.069	0.0150547
691.147	0.0151678
691.225	0.0153899
691.303	0.0157249
691.381	0.0159683
691.459	0.0161503
691.538	0.0165418
691.616	0.0166579
691.694	0.0168555
691.772	0.0170574
691.850	0.0172634
691.928	0.0174288
692.006	0.0174546
692.084	0.0175688
692.163	0.0176728
692.241	0.0177376
692.319	0.0176597
692.397	0.0175452
692.475	0.0174391
692.553	0.0173533
692.631	0.0172654
692.709	0.0169918
692.788	0.0166718
692.866	0.0164533
692.944	0.0161085
693.022	0.0157462
693.100	0.0153578
693.178	0.0150459
693.256	0.0147364
693.334	0.0143951
693.413	0.0141373
693.491	0.0138583
693.569	0.0134900
693.647	0.0134927
693.725	0.0133940
693.803	0.0133819
693.881	0.0133403
693.959	0.0132710
694.038	0.0132930
694.116	0.0132587
694.194	0.0135402
694.272	0.0135291
694.350	0.0137286
694.428	0.0138496
694.506	0.0140771
694.584	0.0142149
694.663	0.0145454
694.741	0.0148969
694.819	0.0150044
694.897	0.0151925
694.975	0.0154372
695.053	0.0156153
695.131	0.0160453
695.209	0.0162494
695.288	0.0165847
695.366	0.0165536
695.444	0.0167241
695.522	0.0170389
695.600	0.0170296
695.678	0.0170618
695.756	0.0171497
695.834	0.0172138
695.913	0.0172479
695.991	0.0172405
696.069	0.0170767
696.147	0.0169077
696.225	0.0167612
696.303	0.0165298
696.381	0.0163481
696.459	0.0160819
696.538	0.0160130
696.616	0.0157852
696.694	0.0154514
696.772	0.0153747
696.850	0.0153175
696.928	0.0152381
697.006	0.0150320
697.084	0.0148663
697.163	0.0148805
697.241	0.0147572
697.319	0.0146086
697.397	0.0146164
697.475	0.0145677
697.553	0.0145277
697.631	0.0145210
697.709	0.0144888
697.788	0.0145314
697.866	0.0144537
697.944	0.0144509
698.022	0.0146805
698.100	0.0147776
698.178	0.0146686
698.256	0.0147928
698.334	0.0149081
698.413	0.0150732
698.491	0.0149971
698.569	0.0150548
698.647	0.0152370
698.725	0.0152010
698.803	0.0153854
698.881	0.0154199
698.959	0.0155577
699.038	0.0156615
699.116	0.0157533
699.194	0.0159118
699.272	0.0160003
699.350	0.0162849
699.428	0.0163243
699.506	0.0163802
699.584	0.0166177
699.663	0.0166459
699.741	0.0167715
699.819	0.0169612
699.897	0.0168532
699.975	0.0169391
700.053	0.0170551
700.131	0.0167724
700.209	0.0167294
700.288	0.0166960
700.366	0.0166283
700.444	0.0164449
700.522	0.0160099
700.600	0.0159137
700.678	0.0158126
700.756	0.0154703
700.834	0.0151859
700.913	0.0148582
700.991	0.0146027
701.069	0.0141731
701.147	0.0140211
701.225	0.0138602
701.303	0.0135795
701.381	0.0133991
701.459	0.0134649
701.538	0.0130638
701.616	0.0129124
701.694	0.0129348
701.772	0.0128316
701.850	0.0127730
701.928	0.0128435
702.006	0.0128433
702.084	0.0128445
702.163	0.0129151
702.241	0.0129240
702.319	0.0129448
702.397	0.0132362
702.475	0.0134714
702.553	0.0137531
702.631	0.0142455
702.709	0.0144365
702.788	0.0150630
702.866	0.0153723
702.944	0.0160144
703.022	0.0164513
703.100	0.0169376
703.178	0.0172543
703.256	0.0177754
703.334	0.0182752
703.413	0.0184164
703.491	0.0186610
703.569	0.0187097
703.647	0.0189014
703.725	0.0189079
703.803	0.0190562
703.881	0.0190377
703.959	0.0190434
704.038	0.0188978
704.116	0.0188279
704.194	0.0186813
704.272	0.0186284
704.350	0.0182631
704.428	0.0180441
704.506	0.0178114
704.584	0.0173256
704.663	0.0169604
704.741	0.0164324
704.819	0.0159593
704.897	0.0155207
704.975	0.0151809
705.053	0.0145876
705.131	0.0141467
705.209	0.0138353
705.288	0.0136880
705.366	0.0132336
705.444	0.0128671
705.522	0.0125282
705.600	0.0124599
705.678	0.0122839
705.756	0.0119614
705.834	0.0119160
705.913	0.0119180
705.991	0.0119915
706.069	0.0122103
706.147	0.0120312
706.225	0.0122073
706.303	0.0124286
706.381	0.0126704
706.459	0.0130502
706.538	0.0132844
706.616	0.0135619
706.694	0.0138815
706.772	0.0141141
706.850	0.0146381
706.928	0.0148278
707.006	0.0149886
707.084	0.0152953
707.163	0.0155438
707.241	0.0158976
707.319	0.0159493
707.397	0.0162663
707.475	0.0162212
707.553	0.0165464
707.631	0.0166264
707.709	0.0168267
707.788	0.0170810
707.866	0.0171921
707.944	0.0171777
708.022	0.0173839
708.100	0.0173598
708.178	0.0174740
708.256	0.0173775
708.334	0.0173552
708.413	0.0174515
708.491	0.0173898
708.569	0.0172041
708.647	0.0169940
708.725	0.0169803
708.803	0.0167281
708.881	0.0166164
708.959	0.0165777
709.038	0.0164494
709.116	0.0162881
709.194	0.0161081
709.272	0.0160782
709.350	0.0158747
709.428	0.0157794
709.506	0.0155787
709.584	0.0153773
709.663	0.0151435
709.741	0.0151763
709.819	0.0149021
709.897	0.0148015
709.975	0.0147388
710.053	0.0145417
710.131	0.0145245
710.209	0.0145106
710.288	0.0144646
710.366	0.0143606
710.444	0.0142644
710.522	0.0144421
710.600	0.0143352
710.678	0.0144518
710.756	0.0145113
710.834	0.0144813
710.913	0.0148427
710.991	0.0149290
711.069	0.0150610
711.147	0.0153722
711.225	0.0153869
711.303	0.0155592
711.381	0.0158685
711.459	0.0160777
711.538	0.0162721
711.616	0.0163103
711.694	0.0163477
711.772	0.0163402
711.850	0.0165170
711.928	0.0166370
712.006	0.0165835
712.084	0.0165742
712.163	0.0165287
712.241	0.0166738
712.319	0.0165545
712.397	0.0163294
712.475	0.0164423
712.553	0.0162452
712.631	0.0161679
712.709	0.0160674
712.788	0.0159303
712.866	0.0155843
712.944	0.0151648
713.022	0.0149000
713.100	0.0146733
713.178	0.0144257
713.256	0.0141531
713.334	0.0137268
713.413	0.0137421
713.491	0.0135034
713.569	0.0132803
713.647	0.0131243
713.725	0.0129694
713.803	0.0130863
713.881	0.0130185
713.959	0.0130951
714.038	0.0131757
714.116	0.0133685
714.194	0.0133292
714.272	0.0135605
714.350	0.0136607
714.428	0.0138931
714.506	0.0141140
714.584	0.0143259
714.663	0.0147079
714.741	0.0149696
714.819	0.0153154
714.897	0.0156046
714.975	0.0157988
715.053	0.0159975
715.131	0.0164145
715.209	0.0164999
715.288	0.0165582
715.366	0.0167520
715.444	0.0168677
715.522	0.0168269
715.600	0.0166483
715.678	0.0167709
715.756	0.0167606
715.834	0.0165625
715.913	0.0164748
715.991	0.0162171
716.069	0.0162276
716.147	0.0159797
716.225	0.0158662
716.303	0.0160719
716.381	0.0158051
716.459	0.0158130
716.538	0.0158100
716.616	0.0158582
716.694	0.0159203
716.772	0.0160415
716.850	0.0161916
716.928	0.0163260
717.006	0.0163704
717.084	0.0163442
717.163	0.0164488
717.241	0.0165181
717.319	0.0165205
717.397	0.0166877
717.475	0.0167770
717.553	0.0165549
717.631	0.0164223
717.709	0.0165828
717.788	0.0162794
717.866	0.0163130
717.944	0.0160590
718.022	0.0159713
718.100	0.0156213
718.178	0.0157035
718.256	0.0154657
718.334	0.0151456
718.413	0.0150188
718.491	0.0148304
718.569	0.0147794
718.647	0.0147240
718.725	0.0145430
718.803	0.0145845
718.881	0.0142965
718.959	0.0142695
719.038	0.0142441
719.116	0.0141234
719.194	0.0139285
719.272	0.0139826
719.350	0.0139034
719.428	0.0139785
719.506	0.0139368
719.584	0.0140512
719.663	0.0139668
719.741	0.0140972
719.819	0.0143291
719.897	0.0145031
719.975	0.0145216
720.053	0.0145705
720.131	0.0146589
720.209	0.0147702
720.288	0.0148554
720.366	0.0147714
720.444	0.0148849
720.522	0.0149944
720.600	0.0147405
720.678	0.0148275
720.756	0.0146510
720.834	0.0148422
720.913	0.0150465
720.991	0.0151013
721.069	0.0150869
721.147	0.0151040
721.225	0.0154445
721.303	0.0157294
721.381	0.0157858
721.459	0.0159475
721.538	0.0160551
721.616	0.0160950
721.694	0.0163113
721.772	0.0166232
721.850	0.0167332
721.928	0.0167271
722.006	0.0168610
722.084	0.0169134
722.163	0.0170295
722.241	0.0169495
722.319	0.0169856
722.397	0.0170014
722.475	0.0169998
722.553	0.0168432
722.631	0.0167639
722.709	0.0166751
722.788	0.0166200
722.866	0.0162508
722.944	0.0161307
723.022	0.0159575
723.100	0.0158204
723.178	0.0156628
723.256	0.0153453
723.334	0.0153279
723.413	0.0151755
723.491	0.0150249
723.569	0.0148445
723.647	0.0148738
723.725	0.0149464
723.803	0.0149374
723.881	0.0148483
723.959	0.0148235
724.038	0.0148212
724.116	0.0148714
724.194	0.0148539
724.272	0.0149565
724.350	0.0149606
724.428	0.0150804
724.506	0.0150152
724.584	0.0152249
724.663	0.0154416
724.741	0.0154217
724.819	0.0154041
724.897	0.0155965
724.975	0.0157488
725.053	0.0158126
725.131	0.0157346
725.209	0.0159653
725.288	0.0160375
725.366	0.0159022
725.444	0.0159009
725.522	0.0159834
725.600	0.0159332
725.678	0.0159258
725.756	0.0158624
725.834	0.0159151
725.913	0.0159496
725.991	0.0158840
726.069	0.0158499
726.147	0.0157285
726.225	0.0155991
726.303	0.0156357
726.381	0.0156761
726.459	0.0155316
726.538	0.0154147
726.616	0.0153802
726.694	0.0152232
726.772	0.0150691
726.850	0.0148042
726.928	0.0147910
727.006	0.0146607
727.084	0.0144648
727.163	0.0143441
727.241	0.0141349
727.319	0.0139533
727.397	0.0139230
727.475	0.0137849
727.553	0.0136411
727.631	0.0138720
727.709	0.0136510
727.788	0.0136764
727.866	0.0138693
727.944	0.0138605
728.022	0.0140267
728.100	0.0141276
728.178	0.0140929
728.256	0.0144243
728.334	0.0146671
728.413	0.0147765
728.491	0.0148666
728.569	0.0151034
728.647	0.0151798
728.725	0.0151576
728.803	0.0154572
728.881	0.0154575
728.959	0.0155267
729.038	0.0156454
729.116	0.0158451
729.194	0.0157834
729.272	0.0158136
729.350	0.0160856
729.428	0.0161188
729.506	0.0163412
729.584	0.0163670
729.663	0.0166227
729.741	0.0166971
729.819	0.0166722
729.897	0.0168623
729.975	0.0168839
730.053	0.0170228
730.131	0.0170052
730.209	0.0170624
730.288	0.0170715
730.366	0.0170102
730.444	0.0171333
730.522	0.0168361
730.600	0.0167706
730.678	0.0167388
730.756	0.0165974
730.834	0.0164824
730.913	0.0163371
730.991	0.0163246
731.069	0.0160171
731.147	0.0158022
731.225	0.0157863
731.303	0.0155302
731.381	0.0152506
731.459	0.0149915
731.538	0.0148430
731.616	0.0146802
731.694	0.0144275
731.772	0.0142783
731.850	0.0141591
731.928	0.0140546
732.006	0.0139225
732.084	0.0139147
732.163	0.0137201
732.241	0.0138277
732.319	0.0137193
732.397	0.0136876
732.475	0.0137016
732.553	0.0136542
732.631	0.0136871
732.709	0.0138072
732.788	0.0139164
732.866	0.0139398
732.944	0.0140044
733.022	0.0139763
733.100	0.0142704
733.178	0.0143373
733.256	0.0144958
733.334	0.0145306
733.413	0.0146241
733.491	0.0148871
733.569	0.0150038
733.647	0.0151069
733.725	0.0151378
733.803	0.0151392
733.881	0.0153146
733.959	0.0153670
734.038	0.0154020
734.116	0.0154029
734.194	0.0154239
734.272	0.0155323
734.350	0.0155120
734.428	0.0155506
734.506	0.0154551
734.584	0.0155699
734.663	0.0155221
734.741	0.0154459
734.819	0.0155507
734.897	0.0156062
734.975	0.0154979
735.053	0.0155292
735.131	0.0156540
735.209	0.0156874
735.288	0.0156849
735.366	0.0157372
735.444	0.0157375
735.522	0.0158545
735.600	0.0159102
735.678	0.0157611
735.756	0.0157775
735.834	0.0157108
735.913	0.0156649
735.991	0.0157706
736.069	0.0158453
736.147	0.0155832
736.225	0.0154697
736.303	0.0154928
736.381	0.0155413
736.459	0.0154622
736.538	0.0154069
736.616	0.0152796
736.694	0.0153149
736.772	0.0154811
736.850	0.0154449
736.928	0.0153602
737.006	0.0154372
737.084	0.0154176
737.163	0.0155468
737.241	0.0157736
737.319	0.0156467
737.397	0.0156773
737.475	0.0158538
737.553	0.0158459
737.631	0.0159175
737.709	0.0160133
737.788	0.0159866
737.866	0.0159444
737.944	0.0158593
738.022	0.0157204
738.100	0.0156545
738.178	0.0156323
738.256	0.0155602
738.334	0.0153696
738.413	0.0152687
738.491	0.0152782
738.569	0.0151978
738.647	0.0151953
738.725	0.0151945
738.803	0.0150809
738.881	0.0150183
738.959	0.0149742
739.038	0.0149657
739.116	0.0150230
739.194	0.0149110
739.272	0.0149044
739.350	0.0148814
739.428	0.0148718
739.506	0.0147688
739.584	0.0148914
739.663	0.0149512
739.741	0.0149529
739.819	0.0149898
739.897	0.0151390
739.975	0.0152393
740.053	0.0152499
740.131	0.0153491
740.209	0.0154738
740.288	0.0155529
740.366	0.0156343
740.444	0.0155990
740.522	0.0157178
740.600	0.0157116
740.678	0.0155623
740.756	0.0156392
740.834	0.0156379
740.913	0.0156763
740.991	0.0155332
741.069	0.0155839
741.147	0.0156863
741.225	0.0155617
741.303	0.0155241
741.381	0.0157603
741.459	0.0157438
741.538	0.0156976
741.616	0.0157792
741.694	0.0156786
741.772	0.0157137
741.850	0.0158855
741.928	0.0157668
742.006	0.0158215
742.084	0.0157640
742.163	0.0158166
742.241	0.0158579
742.319	0.0158627
742.397	0.0156944
742.475	0.0155083
742.553	0.0156947
742.631	0.0154687
742.709	0.0152287
742.788	0.0152201
742.866	0.0152290
742.944	0.0152176
743.022	0.0150504
743.100	0.0149433
743.178	0.0148494
743.256	0.0149922
743.334	0.0150716
743.413	0.0148444
743.491	0.0148824
743.569	0.0151764
743.647	0.0150944
743.725	0.0149795
743.803	0.0150028
743.881	0.0149638
743.959	0.0148901
744.038	0.0150095
744.116	0.0149979
744.194	0.0150780
744.272	0.0149671
744.350	0.0150669
744.428	0.0151163
744.506	0.0151978
744.584	0.0153139
744.663	0.0154883
744.741	0.0153539
744.819	0.0154618
744.897	0.0155730
744.975	0.0155891
745.053	0.0159422
745.131	0.0159857
745.209	0.0159687
745.288	0.0160255
745.366	0.0162656
745.444	0.0162861
745.522	0.0162807
745.600	0.0162357
745.678	0.0163983
745.756	0.0163443
745.834	0.0163577
745.913	0.0165230
745.991	0.0163518
746.069	0.0163760
746.147	0.0163375
746.225	0.0163158
746.303	0.0162774
746.381	0.0162861
746.459	0.0161765
746.538	0.0160665
746.616	0.0160174
746.694	0.0160126
746.772	0.0159420
746.850	0.0159917
746.928	0.0159068
747.006	0.0157753
747.084	0.0156437
747.163	0.0156200
747.241	0.0155712
747.319	0.0154333
747.397	0.0152760
747.475	0.0151624
747.553	0.0150380
747.631	0.0148949
747.709	0.0146413
747.788	0.0143000
747.866	0.0141867
747.944	0.0140894
748.022	0.0140811
748.100	0.0140406
748.178	0.0139191
748.256	0.0138140
748.334	0.0138606
748.413	0.0137355
748.491	0.0136668
748.569	0.0136874
748.647	0.0139414
748.725	0.0139244
748.803	0.0139034
748.881	0.0139815
748.959	0.0140090
749.038	0.0141446
749.116	0.0142576
749.194	0.0144129
749.272	0.0146935
749.350	0.0148378
749.428	0.0150050
749.506	0.0150977
749.584	0.0153133
749.663	0.0154309
749.741	0.0155728
749.819	0.0157428
749.897	0.0159241
749.975	0.0161857
750.053	0.0162182
750.131	0.0162980
750.209	0.0165342
750.288	0.0165809
750.366	0.0165871
750.444	0.0166700
750.522	0.0166508
750.600	0.0164727
750.678	0.0166107
750.756	0.0164125
750.834	0.0164287
750.913	0.0163295
750.991	0.0162701
751.069	0.0160815
751.147	0.0159358
751.225	0.0157306
751.303	0.0157081
751.381	0.0157224
751.459	0.0153957
751.538	0.0154295
751.616	0.0155463
751.694	0.0154847
751.772	0.0154684
751.850	0.0156087
751.928	0.0155959
752.006	0.0156647
752.084	0.0155739
752.163	0.0156508
752.241	0.0156236
752.319	0.0155102
752.397	0.0154932
752.475	0.0155305
752.553	0.0153423
752.631	0.0153533
752.709	0.0154391
752.788	0.0152486
752.866	0.0153782
752.944	0.0150549
753.022	0.0151592
753.100	0.0151557
753.178	0.0150110
753.256	0.0150736
753.334	0.0150653
753.413	0.0149429
753.491	0.0148183
753.569	0.0149580
753.647	0.0150081
753.725	0.0148710
753.803	0.0149167
753.881	0.0149458
753.959	0.0149572
754.038	0.0149766
754.116	0.0150688
754.194	0.0151838
754.272	0.0151600
754.350	0.0152244
754.428	0.0153664
754.506	0.0152791
754.584	0.0153803
754.663	0.0154380
754.741	0.0153828
754.819	0.0154546
754.897	0.0155753
754.975	0.0154469
755.053	0.0153291
755.131	0.0155695
755.209	0.0155370
755.288	0.0155961
755.366	0.0155246
755.444	0.0156596
755.522	0.0157328
755.600	0.0156584
755.678	0.0155621
755.756	0.0156711
755.834	0.0156105
755.913	0.0156109
755.991	0.0155549
756.069	0.0155212
756.147	0.0154181
756.225	0.0154701
756.303	0.0152010
756.381	0.0151868
756.459	0.0151693
756.538	0.0150809
756.616	0.0150092
756.694	0.0149070
756.772	0.0148921
756.850	0.0146342
756.928	0.0146146
757.006	0.0145594
757.084	0.0146113
757.163	0.0145907
757.241	0.0146680
757.319	0.0145606
757.397	0.0146477
757.475	0.0148089
757.553	0.0148443
757.631	0.0148804
757.709	0.0148254
757.788	0.0150682
757.866	0.0150990
757.944	0.0151091
758.022	0.0151877
758.100	0.0152307
758.178	0.0153233
758.256	0.0152537
758.334	0.0152743
758.413	0.0153529
758.491	0.0152665
758.569	0.0153219
758.647	0.0154400
758.725	0.0152964
758.803	0.0154529
758.881	0.0154549
758.959	0.0153658
759.038	0.0153770
759.116	0.0155128
759.194	0.0154222
759.272	0.0153907
759.350	0.0155759
759.428	0.0156864
759.506	0.0156938
759.584	0.0156641
759.663	0.0158488
759.741	0.0158843
759.819	0.0157951
759.897	0.0159015
759.975	0.0160225
760.053	0.0160415
760.131	0.0161060
760.209	0.0160602
760.288	0.0162564
760.366	0.0162080
760.444	0.0161433
760.522	0.0160586
760.600	0.0159930
760.678	0.0161983
760.756	0.0160774
760.834	0.0161073
760.913	0.0159943
760.991	0.0160378
761.069	0.0158752
761.147	0.0157864
761.225	0.0157634
761.303	0.0155932
761.381	0.0156247
761.459	0.0154451
761.538	0.0154821
761.616	0.0154462
761.694	0.0153593
761.772	0.0152160
761.850	0.0150356
761.928	0.0149743
762.006	0.0149715
762.084	0.0146629
762.163	0.0147961
762.241	0.0148306
762.319	0.0147597
762.397	0.0147813
762.475	0.0146616
762.553	0.0148428
762.631	0.0147624
762.709	0.0148223
762.788	0.0148475
762.866	0.0151288
762.944	0.0149632
763.022	0.0149418
763.100	0.0150568
763.178	0.0150129
763.256	0.0152237
763.334	0.0151584
763.413	0.0152254
763.491	0.0151717
763.569	0.0151336
763.647	0.0152090
763.725	0.0152204
763.803	0.0151156
763.881	0.0151521
763.959	0.0152180
764.038	0.0150948
764.116	0.0151820
764.194	0.0153062
764.272	0.0152811
764.350	0.0154171
764.428	0.0155040
764.506	0.0155197
764.584	0.0155759
764.663	0.0155361
764.741	0.0156345
764.819	0.0157373
764.897	0.0155949
764.975	0.0157635
765.053	0.0157417
765.131	0.0157509
765.209	0.0157731
765.288	0.0158825
765.366	0.0157905
765.444	0.0159680
765.522	0.0159295
765.600	0.0159155
765.678	0.0158763
765.756	0.0160277
765.834	0.0161347
765.913	0.0159340
765.991	0.0159778
766.069	0.0160741
766.147	0.0160654
766.225	0.0161076
766.303	0.0159323
766.381	0.0159174
766.459	0.0158780
766.538	0.0159312
766.616	0.0159622
766.694	0.0157539
766.772	0.0156473
766.850	0.0156522
766.928	0.0154913
767.006	0.0153936
767.084	0.0154121
767.163	0.0154514
767.241	0.0152713
767.319	0.0152940
767.397	0.0152744
767.475	0.0153110
767.553	0.0151393
767.631	0.0151321
767.709	0.0151553
767.788	0.0150774
767.866	0.0150703
767.944	0.0149487
768.022	0.0149043
768.100	0.0149294
768.178	0.0147191
768.256	0.0147674
768.334	0.0147913
768.413	0.0146530
768.491	0.0146124
768.569	0.0147732
768.647	0.0147469
768.725	0.0147459
768.803	0.0147965
768.881	0.0148927
768.959	0.0149899
769.038	0.0151371
769.116	0.0151138
769.194	0.0150585
769.272	0.0153642
769.350	0.0155683
769.428	0.0155178
769.506	0.0154842
769.584	0.0155354
769.663	0.0156334
769.741	0.0157656
769.819	0.0156904
769.897	0.0158775
769.975	0.0157714
770.053	0.0157072
770.131	0.0158265
770.209	0.0156819
770.288	0.0156452
770.366	0.0155476
770.444	0.0155224
770.522	0.0153236
770.600	0.0152798
770.678	0.0153281
770.756	0.0151470
770.834	0.0150954
770.913	0.0149338
770.991	0.0149671
771.069	0.0148798
771.147	0.0149251
771.225	0.0149037
771.303	0.0149517
771.381	0.0149066
771.459	0.0149271
771.538	0.0150348
771.616	0.0148885
771.694	0.0151270
771.772	0.0151080
771.850	0.0152500
771.928	0.0151027
772.006	0.0151054
772.084	0.0152271
772.163	0.0151008
772.241	0.0151286
772.319	0.0151598
772.397	0.0151780
772.475	0.0150517
772.553	0.0149686
772.631	0.0151881
772.709	0.0151608
772.788	0.0150266
772.866	0.0152383
772.944	0.0153590
773.022	0.0152066
773.100	0.0152332
773.178	0.0154012
773.256	0.0154431
773.334	0.0154357
773.413	0.0155034
773.491	0.0155855
773.569	0.0154855
773.647	0.0154470
773.725	0.0155691
773.803	0.0154810
773.881	0.0156834
773.959	0.0155717
774.038	0.0153893
774.116	0.0154863
774.194	0.0153659
774.272	0.0154982
774.350	0.0154803
774.428	0.0156122
774.506	0.0155812
774.584	0.0154495
774.663	0.0156794
774.741	0.0156042
774.819	0.0156194
774.897	0.0154491
774.975	0.0157368
775.053	0.0158465
775.131	0.0157854
775.209	0.0159248
775.288	0.0157574
775.366	0.0158996
775.444	0.0158761
775.522	0.0158826
775.600	0.0157890
775.678	0.0157870
775.756	0.0156992
775.834	0.0155753
775.913	0.0155220
775.991	0.0155363
776.069	0.0156329
776.147	0.0153832
776.225	0.0153603
776.303	0.0153114
776.381	0.0152508
776.459	0.0152841
776.538	0.0151794
776.616	0.0151658
776.694	0.0151282
776.772	0.0149672
776.850	0.0150286
776.928	0.0150745
777.006	0.0151941
777.084	0.0151309
777.163	0.0151763
777.241	0.0152995
777.319	0.0152967
777.397	0.0152800
777.475	0.0153359
777.553	0.0154146
777.631	0.0152863
777.709	0.0151682
777.788	0.0152712
777.866	0.0153006
777.944	0.0152618
778.022	0.0153490
778.100	0.0152937
778.178	0.0152415
778.256	0.0153046
778.334	0.0154366
778.413	0.0153091
778.491	0.0153043
778.569	0.0154600
778.647	0.0153733
778.725	0.0152459
778.803	0.0153305
778.881	0.0154534
778.959	0.0154333
779.038	0.0153622
779.116	0.0153357
779.194	0.0153010
779.272	0.0153494
779.350	0.0152261
779.428	0.0152674
779.506	0.0154724
779.584	0.0153382
779.663	0.0154689
779.741	0.0154003
779.819	0.0153444
779.897	0.0155077
779.975	0.0154319
780.053	0.0154436
780.131	0.0153950
780.209	0.0154684
780.288	0.0155061
780.366	0.0154495
780.444	0.0155029
780.522	0.0155940
780.600	0.0153497
780.678	0.0153207
780.756	0.0153017
780.834	0.0153316
780.913	0.0153006
780.991	0.0153714
781.069	0.0151353
781.147	0.0152100
781.225	0.0151941
781.303	0.0150686
781.381	0.0150719
781.459	0.0151538
781.538	0.0151627
781.616	0.0151411
781.694	0.0151390
781.772	0.0153050
781.850	0.0153442
781.928	0.0152580
782.006	0.0155078
782.084	0.0155612
782.163	0.0155676
782.241	0.0154610
782.319	0.0156148
782.397	0.0157054
782.475	0.0156081
782.553	0.0155553
782.631	0.0156375
782.709	0.0154581
782.788	0.0153838
782.866	0.0154828
782.944	0.0154967
783.022	0.0155160
783.100	0.0154132
783.178	0.0154890
783.256	0.0153675
783.334	0.0154964
783.413	0.0154062
783.491	0.0154684
783.569	0.0154427
783.647	0.0155107
783.725	0.0155990
783.803	0.0156234
783.881	0.0155997
783.959	0.0154687
784.038	0.0154639
784.116	0.0154610
784.194	0.0156538
784.272	0.0154798
784.350	0.0156081
784.428	0.0153741
784.506	0.0154483
784.584	0.0155197
784.663	0.0154745
784.741	0.0155143
784.819	0.0154124
784.897	0.0153293
784.975	0.0154792
785.053	0.0155301
785.131	0.0154864
785.209	0.0154708
785.288	0.0153963
785.366	0.0155928
785.444	0.0155726
785.522	0.0157156
785.600	0.0154615
785.678	0.0156045
785.756	0.0156019
785.834	0.0154633
785.913	0.0153566
785.991	0.0152905
786.069	0.0152921
786.147	0.0153168
786.225	0.0151997
786.303	0.0152134
786.381	0.0151325
786.459	0.0150918
786.538	0.0151140
786.616	0.0152316
786.694	0.0151866
786.772	0.0151809
786.850	0.0152396
786.928	0.0152174
787.006	0.0155405
787.084	0.0154659
787.163	0.0154918
787.241	0.0156187
787.319	0.0157163
787.397	0.0156515
787.475	0.0158192
787.553	0.0158796
787.631	0.0158266
787.709	0.0157842
787.788	0.0158606
787.866	0.0158963
787.944	0.0158863
788.022	0.0159187
788.100	0.0156763
788.178	0.0157204
788.256	0.0157905
788.334	0.0156887
788.413	0.0156956
788.491	0.0156258
788.569	0.0156760
788.647	0.0156105
788.725	0.0156321
788.803	0.0154714
788.881	0.0155495
788.959	0.0155202
789.038	0.0154339
789.116	0.0155350
789.194	0.0154286
789.272	0.0155470
789.350	0.0154237
789.428	0.0154365
789.506	0.0156020
789.584	0.0154466
789.663	0.0153268
789.741	0.0154246
789.819	0.0154044
789.897	0.0152685
789.975	0.0152837
790.053	0.0152282
790.131	0.0151572
790.209	0.0152412
790.288	0.0151922
790.366	0.0150566
790.444	0.0150713
790.522	0.0150850
790.600	0.0151241
790.678	0.0151434
790.756	0.0150783
790.834	0.0151093
790.913	0.0150525
790.991	0.0150253
791.069	0.0151527
791.147	0.0152435
791.225	0.0152842
791.303	0.0153439
791.381	0.0153441
791.459	0.0153899
791.538	0.0154437
791.616	0.0155006
791.694	0.0153143
791.772	0.0154699
791.850	0.0155206
791.928	0.0155899
792.006	0.0154184
792.084	0.0154861
792.163	0.0154929
792.241	0.0155992
792.319	0.0154106
792.397	0.0154684
792.475	0.0154884
792.553	0.0153995
792.631	0.0153336
792.709	0.0153229
792.788	0.0153456
792.866	0.0153709
792.944	0.0153543
793.022	0.0151681
793.100	0.0154062
793.178	0.0151666
793.256	0.0151142
793.334	0.0153188
793.413	0.0151540
793.491	0.0151704
793.569	0.0149831
793.647	0.0151347
793.725	0.0151662
793.803	0.0151315
793.881	0.0150858
793.959	0.0151617
794.038	0.0152529
794.116	0.0151695
794.194	0.0152116
794.272	0.0151615
794.350	0.0150677
794.428	0.0151791
794.506	0.0150684
794.584	0.0152050
794.663	0.0150803
794.741	0.0150398
794.819	0.0151067
794.897	0.0150478
794.975	0.0149679
795.053	0.0150404
795.131	0.0150092
795.209	0.0149568
795.288	0.0150700
795.366	0.0150632
795.444	0.0151356
795.522	0.0152055
795.600	0.0153905
795.678	0.0153366
795.756	0.0153619
795.834	0.0153658
795.913	0.0154214
795.991	0.0155205
796.069	0.0156310
796.147	0.0155927
796.225	0.0157802
796.303	0.0156881
796.381	0.0156689
796.459	0.0157429
796.538	0.0156205
796.616	0.0157326
796.694	0.0156222
796.772	0.0155791
796.850	0.0155193
796.928	0.0153985
797.006	0.0152658
797.084	0.0153051
797.163	0.0151436
797.241	0.0152528
797.319	0.0152176
797.397	0.0151199
797.475	0.0150589
797.553	0.0150647
797.631	0.0149911
797.709	0.0149992
797.788	0.0150505
797.866	0.0150452
797.944	0.0151656
798.022	0.0151240
798.100	0.0149882
798.178	0.0150355
798.256	0.0149797
798.334	0.0149294
798.413	0.0149227
798.491	0.0149653
798.569	0.0150557
798.647	0.0150835
798.725	0.0151674
798.803	0.0150438
798.881	0.0151724
798.959	0.0152024
799.038	0.0151809
799.116	0.0151993
799.194	0.0152901
799.272	0.0152916
799.350	0.0154774
799.428	0.0155372
799.506	0.0154240
799.584	0.0154636
799.663	0.0155574
799.741	0.0156841
799.819	0.0157652
799.897	0.0155897
799.975	0.0157146
800.053	0.0159277
800.131	0.0158016
800.209	0.0159007
800.288	0.0158573
800.366	0.0159533
800.444	0.0159694
800.522	0.0159866
800.600	0.0159969
800.678	0.0159382
800.756	0.0159538
800.834	0.0158733
800.913	0.0159480
800.991	0.0159048
801.069	0.0155797
801.147	0.0156127
801.225	0.0155028
801.303	0.0154583
801.381	0.0152272
801.459	0.0153034
801.538	0.0152326
801.616	0.0150729
801.694	0.0150483
801.772	0.0150190
801.850	0.0149672
801.928	0.0148332
802.006	0.0148431
802.084	0.0148851
802.163	0.0147112
802.241	0.0148248
802.319	0.0147251
802.397	0.0146475
802.475	0.0147963
802.553	0.0147558
802.631	0.0148804
802.709	0.0150067
802.788	0.0149012
802.866	0.0148357
802.944	0.0149287
803.022	0.0151511
803.100	0.0150583
803.178	0.0148988
803.256	0.0151237
803.334	0.0151021
803.413	0.0152740
803.491	0.0152190
803.569	0.0151984
803.647	0.0151080
803.725	0.0151961
803.803	0.0151261
803.881	0.0151341
803.959	0.0150924
804.038	0.0153471
804.116	0.0153581
804.194	0.0153407
804.272	0.0154469
804.350	0.0155338
804.428	0.0153558
804.506	0.0156477
804.584	0.0158160
804.663	0.0157572
804.741	0.0156692
804.819	0.0156595
804.897	0.0158314
804.975	0.0160706
805.053	0.0159214
805.131	0.0160426
805.209	0.0159065
805.288	0.0160654
805.366	0.0160167
805.444	0.0158525
805.522	0.0159547
805.600	0.0158927
805.678	0.0157683
805.756	0.0158232
805.834	0.0158337
805.913	0.0157587
805.991	0.0157447
806.069	0.0156335
806.147	0.0156572
806.225	0.0156261
806.303	0.0155984
806.381	0.0155212
806.459	0.0154576
806.538	0.0154173
806.616	0.0154442
806.694	0.0153819
806.772	0.0152750
806.850	0.0151202
806.928	0.0152215
807.006	0.0153243
807.084	0.0151239
807.163	0.0151367
807.241	0.0152052
807.319	0.0150776
807.397	0.0151512
807.475	0.0151135
807.553	0.0151738
807.631	0.0153786
807.709	0.0153409
807.788	0.0152633
807.866	0.0153870
807.944	0.0155440
808.022	0.0154866
808.100	0.0156154
808.178	0.0156866
808.256	0.0156295
808.334	0.0157442
808.413	0.0157024
808.491	0.0157661
808.569	0.0156767
808.647	0.0157774
808.725	0.0157946
808.803	0.0158887
808.881	0.0158810
808.959	0.0157239
809.038	0.0158282
809.116	0.0156981
809.194	0.0155634
809.272	0.0155950
809.350	0.0156727
809.428	0.0154282
809.506	0.0153471
809.584	0.0154083
809.663	0.0153716
809.741	0.0153545
809.819	0.0153247
809.897	0.0153761
809.975	0.0151438
810.053	0.0150526
810.131	0.0152265
810.209	0.0151972
810.288	0.0150960
810.366	0.0149676
810.444	0.0152960
810.522	0.0151852
810.600	0.0152419
810.678	0.0152758
810.756	0.0152981
810.834	0.0152515
810.913	0.0151790
810.991	0.0155231
811.069	0.0154558
811.147	0.0152995
811.225	0.0152527
811.303	0.0153611
811.381	0.0153415
811.459	0.0153427
811.538	0.0153681
811.616	0.0153681
811.694	0.0153267
811.772	0.0153217
811.850	0.0151865
811.928	0.0152763
812.006	0.0154233
812.084	0.0152522
812.163	0.0151997
812.241	0.0151839
812.319	0.0152618
812.397	0.0153108
812.475	0.0152723
812.553	0.0153301
812.631	0.0153358
812.709	0.0153020
812.788	0.0151974
812.866	0.0153405
812.944	0.0153611
813.022	0.0154208
813.100	0.0155165
813.178	0.0153355
813.256	0.0154377
813.334	0.0153391
813.413	0.0155349
813.491	0.0154718
813.569	0.0153444
813.647	0.0154288
813.725	0.0154124
813.803	0.0153612
813.881	0.0153872
813.959	0.0152859
814.038	0.0152845
814.116	0.0155027
814.194	0.0152303
814.272	0.0152182
814.350	0.0153413
814.428	0.0154278
814.506	0.0154083
814.584	0.0153292
814.663	0.0153978
814.741	0.0153428
814.819	0.0153732
814.897	0.0153571
814.975	0.0152547
815.053	0.0153700
815.131	0.0152558
815.209	0.0151569
815.288	0.0152855
815.366	0.0152063
815.444	0.0151754
815.522	0.0151875
815.600	0.0151692
815.678	0.0150499
815.756	0.0150037
815.834	0.0150590
815.913	0.0153217
815.991	0.0151608
816.069	0.0151335
816.147	0.0151337
816.225	0.0151346
816.303	0.0152523
816.381	0.0152724
816.459	0.0152094
816.538	0.0153918
816.616	0.0151331
816.694	0.0152753
816.772	0.0154743
816.850	0.0154657
816.928	0.0154525
817.006	0.0154230
817.084	0.0153481
817.163	0.0153786
817.241	0.0155038
817.319	0.0155437
817.397	0.0156048
817.475	0.0153292
817.553	0.0156107
817.631	0.0155676
817.709	0.0154724
817.788	0.0155561
817.866	0.0154815
817.944	0.0154445
818.022	0.0154630
818.100	0.0155107
818.178	0.0154646
818.256	0.0154762
818.334	0.0154561
818.413	0.0154774
818.491	0.0156166
818.569	0.0155667
818.647	0.0154947
818.725	0.0155467
818.803	0.0156255
818.881	0.0155667
818.959	0.0157193
819.038	0.0155649
819.116	0.0155539
819.194	0.0155254
819.272	0.0155392
819.350	0.0154666
819.428	0.0156004
819.506	0.0156564
819.584	0.0153738
819.663	0.0154155
819.741	0.0153665
819.819	0.0154765
819.897	0.0153579
819.975	0.0154133
820.053	0.0154224
820.131	0.0154173
820.209	0.0153490
820.288	0.0155244
820.366	0.0154692
820.444	0.0154965
820.522	0.0155494
820.600	0.0154780
820.678	0.0155102
820.756	0.0153867
820.834	0.0155075
820.913	0.0155382
820.991	0.0154119
821.069	0.0153770
821.147	0.0154845
821.225	0.0154903
821.303	0.0154350
821.381	0.0154364
821.459	0.0154707
821.538	0.0154774
821.616	0.0155640
821.694	0.0153963
821.772	0.0156055
821.850	0.0155022
821.928	0.0154502
822.006	0.0154401
822.084	0.0154626
822.163	0.0154517
822.241	0.0153948
822.319	0.0153260
822.397	0.0155203
822.475	0.0152287
822.553	0.0153549
822.631	0.0153859
822.709	0.0153098
822.788	0.0151221
822.866	0.0152856
822.944	0.0153621
823.022	0.0153067
823.100	0.0152676
823.178	0.0152256
823.256	0.0152946
823.334	0.0154333
823.413	0.0153374
823.491	0.0151624
823.569	0.0151794
823.647	0.0154363
823.725	0.0153783
823.803	0.0153705
823.881	0.0152423
823.959	0.0152912
824.038	0.0152158
824.116	0.0151496
824.194	0.0153117
824.272	0.0153538
824.350	0.0152029
824.428	0.0153827
824.506	0.0152782
824.584	0.0151544
824.663	0.0152431
824.741	0.0153027
824.819	0.0153189
824.897	0.0152494
824.975	0.0152413
825.053	0.0153471
825.131	0.0152689
825.209	0.0152074
825.288	0.0152799
825.366	0.0153468
825.444	0.0154130
825.522	0.0153882
825.600	0.0153527
825.678	0.0155009
825.756	0.0153310
825.834	0.0154733
825.913	0.0155213
825.991	0.0154272
826.069	0.0154875
826.147	0.0155289
826.225	0.0155080
826.303	0.0153957
826.381	0.0154234
826.459	0.0154572
826.538	0.0155042
826.616	0.0154953
826.694	0.0154221
826.772	0.0155183
826.850	0.0154667
826.928	0.0154751
827.006	0.0154398
827.084	0.0156197
827.163	0.0154007
827.241	0.0153664
827.319	0.0155813
827.397	0.0154439
827.475	0.0153801
827.553	0.0154846
827.631	0.0153528
827.709	0.0153391
827.788	0.0153532
827.866	0.0152785
827.944	0.0152477
828.022	0.0152765
828.100	0.0152309
828.178	0.0152135
828.256	0.0151661
828.334	0.0152233
828.413	0.0152115
828.491	0.0152515
828.569	0.0152202
828.647	0.0152612
828.725	0.0152357
828.803	0.0154244
828.881	0.0152075
828.959	0.0153112
829.038	0.0152445
829.116	0.0152770
829.194	0.0153162
829.272	0.0153201
829.350	0.0155175
829.428	0.0154237
829.506	0.0155518
829.584	0.0154186
829.663	0.0155287
829.741	0.0154181
829.819	0.0154298
829.897	0.0154353
829.975	0.0156094
830.053	0.0155691
830.131	0.0154574
830.209	0.0154671
830.288	0.0155238
830.366	0.0154668
830.444	0.0154407
830.522	0.0155527
830.600	0.0156267
830.678	0.0155312
830.756	0.0155141
830.834	0.0155562
830.913	0.0155326
830.991	0.0155076
831.069	0.0156313
831.147	0.0155527
831.225	0.0155081
831.303	0.0155607
831.381	0.0154780
831.459	0.0154373
831.538	0.0153915
831.616	0.0154047
831.694	0.0155074
831.772	0.0153570
831.850	0.0152932
831.928	0.0154996
832.006	0.0153827
832.084	0.0155383
832.163	0.0153833
832.241	0.0153849
832.319	0.0155286
832.397	0.0153371
832.475	0.0154326
832.553	0.0154830
832.631	0.0152938
832.709	0.0153677
832.788	0.0153114
832.866	0.0153825
832.944	0.0154867
833.022	0.0155452
833.100	0.0154033
833.178	0.0153918
833.256	0.0154465
833.334	0.0154417
833.413	0.0152822
833.491	0.0151785
833.569	0.0152969
833.647	0.0153663
833.725	0.0152073
833.803	0.0151208
833.881	0.0151831
833.959	0.0152159
834.038	0.0150609
834.116	0.0151535
834.194	0.0152624
834.272	0.0150797
834.350	0.0151620
834.428	0.0151404
834.506	0.0151602
834.584	0.0153967
834.663	0.0152161
834.741	0.0152097
834.819	0.0152792
834.897	0.0153665
834.975	0.0152331
835.053	0.0153837
835.131	0.0153179
835.209	0.0152974
835.288	0.0153016
835.366	0.0153725
835.444	0.0153559
835.522	0.0152799
835.600	0.0152523
835.678	0.0153625
835.756	0.0153561
835.834	0.0152168
835.913	0.0151624
835.991	0.0150865
836.069	0.0151647
836.147	0.0151492
836.225	0.0151168
836.303	0.0152467
836.381	0.0152148
836.459	0.0150803
836.538	0.0150426
836.616	0.0151952
836.694	0.0151788
836.772	0.0152609
836.850	0.0153968
836.928	0.0153202
837.006	0.0153396
837.084	0.0153929
837.163	0.0155276
837.241	0.0155534
837.319	0.0154713
837.397	0.0154650
837.475	0.0155468
837.553	0.0155416
837.631	0.0154813
837.709	0.0155710
837.788	0.0155318
837.866	0.0156185
837.944	0.0155841
838.022	0.0153220
838.100	0.0154614
838.178	0.0154484
838.256	0.0153555
838.334	0.0154282
838.413	0.0153303
838.491	0.0153825
838.569	0.0155431
838.647	0.0154884
838.725	0.0153458
838.803	0.0152988
838.881	0.0154044
838.959	0.0154447
839.038	0.0153034
839.116	0.0152956
839.194	0.0153891
839.272	0.0152617
839.350	0.0152952
839.428	0.0154356
839.506	0.0152726
839.584	0.0153158
839.663	0.0151790
839.741	0.0152483
839.819	0.0153562
839.897	0.0151763
839.975	0.0152256
840.053	0.0153127
840.131	0.0151593
840.209	0.0152848
840.288	0.0150637
840.366	0.0152105
840.444	0.0153908
840.522	0.0152289
840.600	0.0153765
840.678	0.0152157
840.756	0.0150996
840.834	0.0154401
840.913	0.0152634
840.991	0.0153310
841.069	0.0152664
841.147	0.0154036
841.225	0.0155034
841.303	0.0154377
841.381	0.0156023
841.459	0.0155508
841.538	0.0155075
841.616	0.0157913
841.694	0.0157380
841.772	0.0156303
841.850	0.0156926
841.928	0.0158488
842.006	0.0157034
842.084	0.0158134
842.163	0.0159014
842.241	0.0157740
842.319	0.0157455
842.397	0.0157497
842.475	0.0157912
842.553	0.0157584
842.631	0.0155778
842.709	0.0156967
842.788	0.0157043
842.866	0.0156126
842.944	0.0154923
843.022	0.0153253
843.100	0.0153412
843.178	0.0152885
843.256	0.0154299
843.334	0.0153909
843.413	0.0151897
843.491	0.0153335
843.569	0.0154486
843.647	0.0153071
843.725	0.0152431
843.803	0.0153802
843.881	0.0152697
843.959	0.0154076
844.038	0.0154446
844.116	0.0153819
844.194	0.0153912
844.272	0.0152483
844.350	0.0152973
844.428	0.0154639
844.506	0.0154924
844.584	0.0153006
844.663	0.0152760
844.741	0.0153235
844.819	0.0152881
844.897	0.0152576
844.975	0.0154262
845.053	0.0153874
845.131	0.0152894
845.209	0.0152785
845.288	0.0153334
845.366	0.0153172
845.444	0.0153207
845.522	0.0153368
845.600	0.0153020
845.678	0.0153548
845.756	0.0153403
845.834	0.0154203
845.913	0.0152626
845.991	0.0153396
846.069	0.0155515
846.147	0.0155095
846.225	0.0156207
846.303	0.0157034
846.381	0.0155965
846.459	0.0155430
846.538	0.0155757
846.616	0.0153944
846.694	0.0155765
846.772	0.0155854
846.850	0.0156117
846.928	0.0155075
847.006	0.0155587
847.084	0.0154891
847.163	0.0155235
847.241	0.0153986
847.319	0.0154045
847.397	0.0155021
847.475	0.0154059
847.553	0.0154114
847.631	0.0153340
847.709	0.0153973
847.788	0.0154111
847.866	0.0155032
847.944	0.0154573
848.022	0.0152984
848.100	0.0152334
848.178	0.0154502
848.256	0.0153829
848.334	0.0153584
848.413	0.0153285
848.491	0.0154337
848.569	0.0152406
848.647	0.0152986
848.725	0.0154080
848.803	0.0153572
848.881	0.0153391
848.959	0.0154021
849.038	0.0153874
849.116	0.0154240
849.194	0.0154849
849.272	0.0153223
849.350	0.0153429
849.428	0.0155038
849.506	0.0154745
849.584	0.0154613
849.663	0.0153519
849.741	0.0152055
849.819	0.0153970
849.897	0.0154213
849.975	0.0153020
850.053	0.0152239
850.131	0.0152897
850.209	0.0152193
850.288	0.0154279
850.366	0.0153417
850.444	0.0154258
850.522	0.0153561
850.600	0.0154073
850.678	0.0156319
850.756	0.0154621
850.834	0.0154498
850.913	0.0154549
850.991	0.0155798
851.069	0.0155183
851.147	0.0155634
851.225	0.0154895
851.303	0.0154248
851.381	0.0155241
851.459	0.0154980
851.538	0.0155138
851.616	0.0155707
851.694	0.0154828
851.772	0.0154519
851.850	0.0154105
851.928	0.0155066
852.006	0.0154454
852.084	0.0154845
852.163	0.0152940
852.241	0.0154153
852.319	0.0155065
852.397	0.0153834
852.475	0.0154751
852.553	0.0154695
852.631	0.0153642
852.709	0.0154875
852.788	0.0156107
852.866	0.0155756
852.944	0.0156775
853.022	0.0156719
853.100	0.0155999
853.178	0.0157226
853.256	0.0156172
853.334	0.0155444
853.413	0.0157167
853.491	0.0157646
853.569	0.0156342
853.647	0.0156606
853.725	0.0156240
853.803	0.0156372
853.881	0.0156715
853.959	0.0156010
854.038	0.0155935
854.116	0.0154542
854.194	0.0155089
854.272	0.0154095
854.350	0.0154243
854.428	0.0154172
854.506	0.0153909
854.584	0.0154230
854.663	0.0154358
854.741	0.0153106
854.819	0.0153833
854.897	0.0152811
854.975	0.0152410
855.053	0.0154388
855.131	0.0154464
855.209	0.0153519
855.288	0.0152906
855.366	0.0153349
855.444	0.0153820
855.522	0.0152403
855.600	0.0154436
855.678	0.0152171
855.756	0.0153722
855.834	0.0153371
855.913	0.0152585
855.991	0.0153307
856.069	0.0153582
856.147	0.0151174
856.225	0.0151920
856.303	0.0152029
856.381	0.0153004
856.459	0.0151131
856.538	0.0152474
856.616	0.0151453
856.694	0.0154213
856.772	0.0152309
856.850	0.0151637
856.928	0.0152411
857.006	0.0151150
857.084	0.0149973
857.163	0.0152127
857.241	0.0152962
857.319	0.0151779
857.397	0.0151491
857.475	0.0150672
857.553	0.0151515
857.631	0.0151687
857.709	0.0151013
857.788	0.0151492
857.866	0.0150732
857.944	0.0151228
858.022	0.0150709
858.100	0.0149924
858.178	0.0149397
858.256	0.0150826
858.334	0.0151201
858.413	0.0150517
858.491	0.0150126
858.569	0.0150694
858.647	0.0150751
858.725	0.0149861
858.803	0.0150260
858.881	0.0151023
858.959	0.0150515
859.038	0.0151067
859.116	0.0151181
859.194	0.0152215
859.272	0.0151408
859.350	0.0151855
859.428	0.0151853
859.506	0.0152306
859.584	0.0151942
859.663	0.0152918
859.741	0.0154514
859.819	0.0153979
859.897	0.0153716
859.975	0.0153220
860.053	0.0153444
860.131	0.0154388
860.209	0.0154860
860.288	0.0154011
860.366	0.0154840
860.444	0.0154217
860.522	0.0154229
860.600	0.0153820
860.678	0.0153690
860.756	0.0153173
860.834	0.0152480
860.913	0.0151942
860.991	0.0151965
861.069	0.0152032
861.147	0.0152164
861.225	0.0150923
861.303	0.0152261
861.381	0.0153814
861.459	0.0152364
861.538	0.0152286
861.616	0.0153002
861.694	0.0152770
861.772	0.0153367
861.850	0.0154457
861.928	0.0154418
862.006	0.0154059
862.084	0.0155086
862.163	0.0155534
862.241	0.0155711
862.319	0.0156985
862.397	0.0155151
862.475	0.0156470
862.553	0.0157210
862.631	0.0156257
862.709	0.0156258
862.788	0.0155444
862.866	0.0156317
862.944	0.0156898
863.022	0.0156454
863.100	0.0156438
863.178	0.0155756
863.256	0.0155097
863.334	0.0154673
863.413	0.0155795
863.491	0.0154241
863.569	0.0154058
863.647	0.0154723
863.725	0.0154090
863.803	0.0155956
863.881	0.0154588
863.959	0.0154712
864.038	0.0154842
864.116	0.0153794
864.194	0.0155496
864.272	0.0155656
864.350	0.0154494
864.428	0.0154921
864.506	0.0155054
864.584	0.0155001
864.663	0.0154811
864.741	0.0154255
864.819	0.0153789
864.897	0.0151833
864.975	0.0152341
865.053	0.0152810
865.131	0.0152986
865.209	0.0153395
865.288	0.0152975
865.366	0.0149890
865.444	0.0152741
865.522	0.0151070
865.600	0.0152532
865.678	0.0153465
865.756	0.0155601
865.834	0.0154079
865.913	0.0154498
865.991	0.0154966
866.069	0.0155763
866.147	0.0157140
866.225	0.0157073
866.303	0.0155717
866.381	0.0154562
866.459	0.0155699
866.538	0.0157500
866.616	0.0155755
866.694	0.0157616
866.772	0.0155546
866.850	0.0156757
866.928	0.0157130
867.006	0.0154986
867.084	0.0157051
867.163	0.0155669
867.241	0.0154960
867.319	0.0156181
867.397	0.0155322
867.475	0.0156301
867.553	0.0156940
867.631	0.0155920
867.709	0.0154893
867.788	0.0155396
867.866	0.0155827
867.944	0.0155015
868.022	0.0154238
868.100	0.0152924
868.178	0.0152781
868.256	0.0154000
868.334	0.0153047
868.413	0.0152473
868.491	0.0151632
868.569	0.0151773
868.647	0.0152025
868.725	0.0151263
868.803	0.0151521
868.881	0.0152271
868.959	0.0151183
869.038	0.0151457
869.116	0.0151577
869.194	0.0152761
869.272	0.0151293
869.350	0.0152644
869.428	0.0152823
869.506	0.0153858
869.584	0.0152737
869.663	0.0153029
869.741	0.0153651
869.819	0.0152417
869.897	0.0152742
869.975	0.0153867
870.053	0.0153034
870.131	0.0152942
870.209	0.0151922
870.288	0.0153139
870.366	0.0152460
870.444	0.0153128
870.522	0.0151968
870.600	0.0154068
870.678	0.0154649
870.756	0.0154784
870.834	0.0154683
870.913	0.0152729
870.991	0.0154236
871.069	0.0153811
871.147	0.0154510
871.225	0.0156065
871.303	0.0155663
871.381	0.0155529
871.459	0.0155883
871.538	0.0155299
871.616	0.0155755
871.694	0.0155778
871.772	0.0156683
871.850	0.0156127
871.928	0.0156578
872.006	0.0156779
872.084	0.0156775
872.163	0.0157005
872.241	0.0156916
872.319	0.0156367
872.397	0.0157079
872.475	0.0157056
872.553	0.0154621
872.631	0.0155921
872.709	0.0155489
872.788	0.0154905
872.866	0.0155847
872.944	0.0155180
873.022	0.0154300
873.100	0.0153602
873.178	0.0152214
873.256	0.0153838
873.334	0.0153326
873.413	0.0153732
873.491	0.0154221
873.569	0.0153352
873.647	0.0152981
873.725	0.0153385
873.803	0.0152822
873.881	0.0152065
873.959	0.0153157
874.038	0.0153099
874.116	0.0153249
874.194	0.0153174
874.272	0.0152522
874.350	0.0151824
874.428	0.0153116
874.506	0.0154114
874.584	0.0154063
874.663	0.0153605
874.741	0.0152344
874.819	0.0153313
874.897	0.0154737
874.975	0.0154701
875.053	0.0153808
875.131	0.0154589
875.209	0.0154454
875.288	0.0155894
875.366	0.0154362
875.444	0.0154869
875.522	0.0156200
875.600	0.0156010
875.678	0.0154200
875.756	0.0155718
875.834	0.0156040
875.913	0.0156099
875.991	0.0156470
876.069	0.0155317
876.147	0.0154954
876.225	0.0154774
876.303	0.0154668
876.381	0.0153733
876.459	0.0153709
876.538	0.0154650
876.616	0.0152044
876.694	0.0153240
876.772	0.0153135
876.850	0.0152949
876.928	0.0152999
877.006	0.0152822
877.084	0.0151984
877.163	0.0152101
877.241	0.0153439
877.319	0.0152055
877.397	0.0151638
877.475	0.0152946
877.553	0.0152292
877.631	0.0152927
877.709	0.0150927
877.788	0.0151997
877.866	0.0153010
877.944	0.0152528
878.022	0.0152143
878.100	0.0153035
878.178	0.0153304
878.256	0.0153757
878.334	0.0154239
878.413	0.0154669
878.491	0.0154846
878.569	0.0154646
878.647	0.0156693
878.725	0.0156201
878.803	0.0155451
878.881	0.0154690
878.959	0.0155841
879.038	0.0156068
879.116	0.0156072
879.194	0.0154050
879.272	0.0153902
879.350	0.0154626
879.428	0.0153833
879.506	0.0154877
879.584	0.0153918
879.663	0.0152068
879.741	0.0153539
879.819	0.0153404
879.897	0.0152757
879.975	0.0152911
880.053	0.0151786
880.131	0.0151641
880.209	0.0151852
880.288	0.0153659
880.366	0.0151950
880.444	0.0152712
880.522	0.0151833
880.600	0.0152386
880.678	0.0152824
880.756	0.0153635
880.834	0.0152475
880.913	0.0153503
880.991	0.0152592
881.069	0.0152927
881.147	0.0153480
881.225	0.0154382
881.303	0.0153162
881.381	0.0154210
881.459	0.0154572
881.538	0.0155606
881.616	0.0154694
881.694	0.0153551
881.772	0.0154457
881.850	0.0153905
881.928	0.0153338
882.006	0.0154079
882.084	0.0152441
882.163	0.0153240
882.241	0.0153637
882.319	0.0153188
882.397	0.0152719
882.475	0.0151836
882.553	0.0152138
882.631	0.0152843
882.709	0.0153539
882.788	0.0153646
882.866	0.0153372
882.944	0.0153583
883.022	0.0154345
883.100	0.0155737
883.178	0.0155973
883.256	0.0155038
883.334	0.0155180
883.413	0.0155309
883.491	0.0155356
883.569	0.0156971
883.647	0.0156827
883.725	0.0155569
883.803	0.0155575
883.881	0.0155824
883.959	0.0154745
884.038	0.0156185
884.116	0.0156300
884.194	0.0155202
884.272	0.0153021
884.350	0.0154412
884.428	0.0155606
884.506	0.0155159
884.584	0.0152880
884.663	0.0153701
884.741	0.0153132
884.819	0.0153249
884.897	0.0151899
884.975	0.0152074
885.053	0.0151894
885.131	0.0151133
885.209	0.0150820
885.288	0.0152013
885.366	0.0150954
885.444	0.0152258
885.522	0.0151831
885.600	0.0150552
885.678	0.0151209
885.756	0.0152698
885.834	0.0150236
885.913	0.0151186
885.991	0.0152023
886.069	0.0151392
886.147	0.0150628
886.225	0.0151912
886.303	0.0151624
886.381	0.0152594
886.459	0.0153430
886.538	0.0152342
886.616	0.0152993
886.694	0.0151701
886.772	0.0151502
886.850	0.0152431
886.928	0.0152367
887.006	0.0152729
887.084	0.0153460
887.163	0.0153526
887.241	0.0152490
887.319	0.0155087
887.397	0.0154491
887.475	0.0153563
887.553	0.0154658
887.631	0.0155227
887.709	0.0155352
887.788	0.0154328
887.866	0.0152209
887.944	0.0153973
888.022	0.0154163
888.100	0.0154825
888.178	0.0154304
888.256	0.0154687
888.334	0.0153004
888.413	0.0152628
888.491	0.0154837
888.569	0.0153117
888.647	0.0154147
888.725	0.0153550
888.803	0.0153123
888.881	0.0152813
888.959	0.0153426
889.038	0.0152527
889.116	0.0153194
889.194	0.0154497
889.272	0.0152728
889.350	0.0151623
889.428	0.0151168
889.506	0.0152863
889.584	0.0153661
889.663	0.0151756
889.741	0.0153730
889.819	0.0153780
889.897	0.0152590
889.975	0.0153255
890.053	0.0153013
890.131	0.0153638
890.209	0.0154335
890.288	0.0153730
890.366	0.0154433
890.444	0.0154578
890.522	0.0153528
890.600	0.0153712
890.678	0.0153492
890.756	0.0152186
890.834	0.0152755
890.913	0.0154935
890.991	0.0152557
891.069	0.0153824
891.147	0.0154380
891.225	0.0152020
891.303	0.0152594
891.381	0.0153145
891.459	0.0154111
891.538	0.0154156
891.616	0.0153699
891.694	0.0154998
891.772	0.0154292
891.850	0.0154369
891.928	0.0154776
892.006	0.0154124
892.084	0.0154495
892.163	0.0154149
892.241	0.0154460
892.319	0.0154977
892.397	0.0155074
892.475	0.0154603
892.553	0.0153656
892.631	0.0154949
892.709	0.0153995
892.788	0.0153221
892.866	0.0152631
892.944	0.0153663
893.022	0.0154258
893.100	0.0153127
893.178	0.0151834
893.256	0.0153415
893.334	0.0152025
893.413	0.0151720
893.491	0.0152769
893.569	0.0153440
893.647	0.0152368
893.725	0.0151741
893.803	0.0151913
893.881	0.0152390
893.959	0.0153024
894.038	0.0151479
894.116	0.0151128
894.194	0.0150909
894.272	0.0152061
894.350	0.0152093
894.428	0.0150802
894.506	0.0150022
894.584	0.0151163
894.663	0.0152348
894.741	0.0151836
894.819	0.0151513
894.897	0.0152138
894.975	0.0153465
895.053	0.0153826
895.131	0.0153450
895.209	0.0153400
895.288	0.0153397
895.366	0.0153798
895.444	0.0154229
895.522	0.0154373
895.600	0.0153935
895.678	0.0155250
895.756	0.0153540
895.834	0.0153313
895.913	0.0154166
895.991	0.0153394
896.069	0.0152728
896.147	0.0154390
896.225	0.0153983
896.303	0.0153829
896.381	0.0151988
896.459	0.0153130
896.538	0.0153467
896.616	0.0153117
896.694	0.0153676
896.772	0.0151744
896.850	0.0153693
896.928	0.0151753
897.006	0.0151826
897.084	0.0151960
897.163	0.0151666
897.241	0.0151666
897.319	0.0150454
897.397	0.0150466
897.475	0.0151138
897.553	0.0151489
897.631	0.0152103
897.709	0.0150897
897.788	0.0150166
897.866	0.0152610
897.944	0.0151799
898.022	0.0152211
898.100	0.0152401
898.178	0.0152128
898.256	0.0152861
898.334	0.0154113
898.413	0.0154577
898.491	0.0153353
898.569	0.0154583
898.647	0.0154492
898.725	0.0155644
898.803	0.0155490
898.881	0.0154894
898.959	0.0155562
899.038	0.0155341
899.116	0.0155511
899.194	0.0155776
899.272	0.0156159
899.350	0.0155160
899.428	0.0155660
899.506	0.0156774
899.584	0.0155293
899.663	0.0154310
899.741	0.0154555
899.819	0.0155245
899.897	0.0155823
899.975	0.0154974
900.053	0.0153935
900.131	0.0153185
900.209	0.0153485
900.288	0.0153478
900.366	0.0152328
900.444	0.0152981
900.522	0.0154205
900.600	0.0153618
900.678	0.0153355
900.756	0.0153046
900.834	0.0153809
900.913	0.0152047
900.991	0.0151336
901.069	0.0153236
901.147	0.0154134
901.225	0.0153084
901.303	0.0151929
901.381	0.0151640
901.459	0.0153238
901.538	0.0153378
901.616	0.0151865
901.694	0.0152539
901.772	0.0153101
901.850	0.0154064
901.928	0.0152741
902.006	0.0152014
902.084	0.0152374
902.163	0.0153449
902.241	0.0153334
902.319	0.0150997
902.397	0.0153251
902.475	0.0153284
902.553	0.0154617
902.631	0.0154353
902.709	0.0154266
902.788	0.0154163
902.866	0.0153416
902.944	0.0154139
903.022	0.0155708
903.100	0.0154897
903.178	0.0154476
903.256	0.0153270
903.334	0.0153778
903.413	0.0153042
903.491	0.0154105
903.569	0.0154593
903.647	0.0153678
903.725	0.0153603
903.803	0.0154398
903.881	0.0155704
903.959	0.0154742
904.038	0.0154671
904.116	0.0154220
904.194	0.0155057
904.272	0.0154008
904.350	0.0154774
904.428	0.0155426
904.506	0.0155666
904.584	0.0154239
904.663	0.0153922
904.741	0.0153907
904.819	0.0154801
904.897	0.0154710
904.975	0.0155241
905.053	0.0155627
905.131	0.0153429
905.209	0.0154951
905.288	0.0153940
905.366	0.0152131
905.444	0.0153555
905.522	0.0153513
905.600	0.0154766
905.678	0.0154819
905.756	0.0152721
905.834	0.0154278
905.913	0.0154899
905.991	0.0154982
906.069	0.0152924
906.147	0.0152796
906.225	0.0153545
906.303	0.0153286
906.381	0.0154478
906.459	0.0152831
906.538	0.0154516
906.616	0.0153075
906.694	0.0153604
906.772	0.0154837
906.850	0.0154848
906.928	0.0154331
907.006	0.0153057
907.084	0.0155277
907.163	0.0154565
907.241	0.0153088
907.319	0.0154406
907.397	0.0153356
907.475	0.0153854
907.553	0.0153391
907.631	0.0153902
907.709	0.0153813
907.788	0.0155499
907.866	0.0154740
907.944	0.0154788
908.022	0.0154909
908.100	0.0154511
908.178	0.0153770
908.256	0.0153225
908.334	0.0153979
908.413	0.0154736
908.491	0.0154533
908.569	0.0155195
908.647	0.0154801
908.725	0.0153696
908.803	0.0155073
908.881	0.0154646
908.959	0.0153136
909.038	0.0153687
909.116	0.0154136
909.194	0.0155325
909.272	0.0154039
909.350	0.0153439
909.428	0.0154316
909.506	0.0151903
909.584	0.0154537
909.663	0.0155025
909.741	0.0154190
909.819	0.0152942
909.897	0.0152033
909.975	0.0151956
910.053	0.0152809
910.131	0.0153381
910.209	0.0154159
910.288	0.0153455
910.366	0.0154546
910.444	0.0153725
910.522	0.0152840
910.600	0.0153831
910.678	0.0154442
910.756	0.0154108
910.834	0.0152725
910.913	0.0152420
910.991	0.0153240
911.069	0.0153975
911.147	0.0153259
911.225	0.0153830
911.303	0.0153898
911.381	0.0154227
911.459	0.0154926
911.538	0.0153102
911.616	0.0154147
911.694	0.0154653
911.772	0.0154214
911.850	0.0154710
911.928	0.0154643
912.006	0.0155598
912.084	0.0154669
912.163	0.0154476
912.241	0.0153898
912.319	0.0154472
912.397	0.0156657
912.475	0.0154924
912.553	0.0154328
912.631	0.0154031
912.709	0.0153342
912.788	0.0153629
912.866	0.0155110
912.944	0.0153474
913.022	0.0152579
913.100	0.0152170
913.178	0.0153540
913.256	0.0152955
913.334	0.0154121
913.413	0.0152710
913.491	0.0152333
913.569	0.0152837
913.647	0.0152864
913.725	0.0153703
913.803	0.0152634
913.881	0.0152625
913.959	0.0152986
914.038	0.0151905
914.116	0.0150607
914.194	0.0152450
914.272	0.0152511
914.350	0.0151710
914.428	0.0152667
914.506	0.0152527
914.584	0.0149841
914.663	0.0152282
914.741	0.0152567
914.819	0.0151514
914.897	0.0150829
914.975	0.0152146
915.053	0.0152119
915.131	0.0152190
915.209	0.0152182
915.288	0.0150532
915.366	0.0151674
915.444	0.0151927
915.522	0.0151997
915.600	0.0153077
915.678	0.0153041
915.756	0.0152544
915.834	0.0151841
915.913	0.0151526
915.991	0.0152023
916.069	0.0152254
916.147	0.0151650
916.225	0.0153268
916.303	0.0153252
916.381	0.0152286
916.459	0.0152977
916.538	0.0153825
916.616	0.0152553
916.694	0.0153675
916.772	0.0153211
916.850	0.0154078
916.928	0.0153605
917.006	0.0153332
917.084	0.0154066
917.163	0.0152380
917.241	0.0153680
917.319	0.0153471
917.397	0.0152766
917.475	0.0151738
917.553	0.0152048
917.631	0.0151807
917.709	0.0153114
917.788	0.0151858
917.866	0.0153333
917.944	0.0153539
918.022	0.0153180
918.100	0.0152435
918.178	0.0151829
918.256	0.0152545
918.334	0.0152604
918.413	0.0152718
918.491	0.0152503
918.569	0.0152177
918.647	0.0151315
918.725	0.0151553
918.803	0.0152249
918.881	0.0151369
918.959	0.0150569
919.038	0.0152382
919.116	0.0152433
919.194	0.0151947
919.272	0.0152020
919.350	0.0152713
919.428	0.0151881
919.506	0.0152372
919.584	0.0152560
919.663	0.0153626
919.741	0.0153513
919.819	0.0153461
919.897	0.0153874
