05/20/2022	21:14:49	Ver.	4.1	UNKNOWN
Optical Delay	599.975067	Delta X		0.078125	Sweeps	1	Scan Rate	0/0
Coordinates	Axis 1	NaN	Axis 2	NaN	Axis 3	NaN	Axis 4	NaN	Axis 5	NaN	Axis 6	0.000000
TX Power	0.000000	RX Power	0.000000

599.975	0.0154719
600.053	0.0155688
600.131	0.0155688
600.209	0.0154710
600.288	0.0156175
600.366	0.0154108
600.444	0.0153973
600.522	0.0155349
600.600	0.0155222
600.678	0.0154156
600.756	0.0154929
600.834	0.0156072
600.913	0.0153445
600.991	0.0154845
601.069	0.0156227
601.147	0.0154980
601.225	0.0155192
601.303	0.0154631
601.381	0.0154454
601.459	0.0155538
601.538	0.0156529
601.616	0.0155965
601.694	0.0155029
601.772	0.0155334
601.850	0.0155604
601.928	0.0156800
602.006	0.0154875
602.084	0.0155835
602.163	0.0155789
602.241	0.0157034
602.319	0.0155325
602.397	0.0155072
602.475	0.0154015
602.553	0.0155170
602.631	0.0155659
602.709	0.0154690
602.788	0.0153573
602.866	0.0156344
602.944	0.0156446
603.022	0.0154711
603.100	0.0155412
603.178	0.0154795
603.256	0.0155253
603.334	0.0154669
603.413	0.0154961
603.491	0.0154010
603.569	0.0154928
603.647	0.0154793
603.725	0.0153682
603.803	0.0154072
603.881	0.0153703
603.959	0.0153695
604.038	0.0153735
604.116	0.0153725
604.194	0.0153736
604.272	0.0154414
604.350	0.0153068
604.428	0.0152025
604.506	0.0153136
604.584	0.0153735
604.663	0.0153300
604.741	0.0154269
604.819	0.0153060
604.897	0.0153693
604.975	0.0152460
605.053	0.0152998
605.131	0.0152689
605.209	0.0152872
605.288	0.0152214
605.366	0.0151553
605.444	0.0151755
605.522	0.0152199
605.600	0.0152919
605.678	0.0151325
605.756	0.0152056
605.834	0.0151842
605.913	0.0151833
605.991	0.0152113
606.069	0.0151540
606.147	0.0152300
606.225	0.0151962
606.303	0.0152701
606.381	0.0151686
606.459	0.0151720
606.538	0.0151579
606.616	0.0151351
606.694	0.0152142
606.772	0.0152327
606.850	0.0152362
606.928	0.0152579
607.006	0.0151228
607.084	0.0152455
607.163	0.0151714
607.241	0.0152917
607.319	0.0152426
607.397	0.0152298
607.475	0.0152556
607.553	0.0151423
607.631	0.0152110
607.709	0.0152023
607.788	0.0151752
607.866	0.0152631
607.944	0.0152433
608.022	0.0151427
608.100	0.0152837
608.178	0.0152833
608.256	0.0150900
608.334	0.0152051
608.413	0.0152279
608.491	0.0153291
608.569	0.0151442
608.647	0.0151869
608.725	0.0152475
608.803	0.0152872
608.881	0.0151937
608.959	0.0150732
609.038	0.0151320
609.116	0.0151844
609.194	0.0152342
609.272	0.0152535
609.350	0.0152127
609.428	0.0152536
609.506	0.0153241
609.584	0.0151967
609.663	0.0152288
609.741	0.0153506
609.819	0.0153992
609.897	0.0152518
609.975	0.0152409
610.053	0.0153269
610.131	0.0153562
610.209	0.0151942
610.288	0.0152480
610.366	0.0154781
610.444	0.0153443
610.522	0.0154124
610.600	0.0155082
610.678	0.0154749
610.756	0.0154220
610.834	0.0152962
610.913	0.0153413
610.991	0.0154498
611.069	0.0154143
611.147	0.0153278
611.225	0.0154408
611.303	0.0153962
611.381	0.0153936
611.459	0.0153708
611.538	0.0153609
611.616	0.0154845
611.694	0.0153984
611.772	0.0154640
611.850	0.0154253
611.928	0.0153844
612.006	0.0155286
612.084	0.0154502
612.163	0.0154491
612.241	0.0154014
612.319	0.0153384
612.397	0.0154810
612.475	0.0152730
612.553	0.0152931
612.631	0.0154801
612.709	0.0154836
612.788	0.0153865
612.866	0.0154430
612.944	0.0153310
613.022	0.0153388
613.100	0.0153601
613.178	0.0153981
613.256	0.0154627
613.334	0.0152345
613.413	0.0153461
613.491	0.0155072
613.569	0.0154184
613.647	0.0152474
613.725	0.0153434
613.803	0.0153680
613.881	0.0153241
613.959	0.0153487
614.038	0.0151959
614.116	0.0153159
614.194	0.0153634
614.272	0.0153351
614.350	0.0152988
614.428	0.0151994
614.506	0.0153692
614.584	0.0153604
614.663	0.0153204
614.741	0.0154591
614.819	0.0154501
614.897	0.0154135
614.975	0.0153425
615.053	0.0153711
615.131	0.0155138
615.209	0.0154565
615.288	0.0154060
615.366	0.0154082
615.444	0.0155141
615.522	0.0155061
615.600	0.0154382
615.678	0.0155717
615.756	0.0155468
615.834	0.0156197
615.913	0.0156677
615.991	0.0156474
616.069	0.0155697
616.147	0.0156686
616.225	0.0156434
616.303	0.0155504
616.381	0.0155757
616.459	0.0156915
616.538	0.0155468
616.616	0.0155909
616.694	0.0155706
616.772	0.0157747
616.850	0.0156715
616.928	0.0156314
617.006	0.0156524
617.084	0.0155668
617.163	0.0155968
617.241	0.0155652
617.319	0.0156911
617.397	0.0156380
617.475	0.0157367
617.553	0.0157859
617.631	0.0157704
617.709	0.0156998
617.788	0.0155425
617.866	0.0156144
617.944	0.0157584
618.022	0.0156889
618.100	0.0158089
618.178	0.0156831
618.256	0.0157240
618.334	0.0156289
618.413	0.0156142
618.491	0.0157803
618.569	0.0157969
618.647	0.0155988
618.725	0.0155600
618.803	0.0156123
618.881	0.0157501
618.959	0.0157265
619.038	0.0155799
619.116	0.0156048
619.194	0.0154865
619.272	0.0155901
619.350	0.0156672
619.428	0.0158266
619.506	0.0155973
619.584	0.0155415
619.663	0.0156316
619.741	0.0156013
619.819	0.0158078
619.897	0.0157420
619.975	0.0156154
620.053	0.0155057
620.131	0.0155836
620.209	0.0157240
620.288	0.0156153
620.366	0.0155890
620.444	0.0154601
620.522	0.0157341
620.600	0.0155476
620.678	0.0154684
620.756	0.0154004
620.834	0.0155820
620.913	0.0153894
620.991	0.0154599
621.069	0.0155611
621.147	0.0154732
621.225	0.0154920
621.303	0.0154183
621.381	0.0153400
621.459	0.0153944
621.538	0.0155141
621.616	0.0154857
621.694	0.0154363
621.772	0.0154156
621.850	0.0154700
621.928	0.0153991
622.006	0.0152776
622.084	0.0154004
622.163	0.0154801
622.241	0.0154078
622.319	0.0153403
622.397	0.0153327
622.475	0.0153004
622.553	0.0154293
622.631	0.0153779
622.709	0.0154715
622.788	0.0154705
622.866	0.0154538
622.944	0.0153841
623.022	0.0152132
623.100	0.0155077
623.178	0.0155383
623.256	0.0154355
623.334	0.0154556
623.413	0.0153448
623.491	0.0153796
623.569	0.0153662
623.647	0.0153925
623.725	0.0152745
623.803	0.0155113
623.881	0.0154593
623.959	0.0152831
624.038	0.0153574
624.116	0.0152928
624.194	0.0153087
624.272	0.0153269
624.350	0.0154060
624.428	0.0155207
624.506	0.0153876
624.584	0.0152308
624.663	0.0154130
624.741	0.0153374
624.819	0.0153391
624.897	0.0155986
624.975	0.0154670
625.053	0.0153606
625.131	0.0154133
625.209	0.0154707
625.288	0.0154882
625.366	0.0155018
625.444	0.0155230
625.522	0.0154409
625.600	0.0153718
625.678	0.0153992
625.756	0.0154994
625.834	0.0153754
625.913	0.0153698
625.991	0.0154150
626.069	0.0154534
626.147	0.0155100
626.225	0.0154693
626.303	0.0154219
626.381	0.0154104
626.459	0.0154285
626.538	0.0154479
626.616	0.0152235
626.694	0.0154166
626.772	0.0155194
626.850	0.0154874
626.928	0.0154586
627.006	0.0154627
627.084	0.0154240
627.163	0.0154746
627.241	0.0154368
627.319	0.0154714
627.397	0.0155855
627.475	0.0154493
627.553	0.0152557
627.631	0.0154322
627.709	0.0156057
627.788	0.0155988
627.866	0.0153544
627.944	0.0153996
628.022	0.0154665
628.100	0.0152345
628.178	0.0152022
628.256	0.0153396
628.334	0.0152361
628.413	0.0152931
628.491	0.0152679
628.569	0.0152303
628.647	0.0151100
628.725	0.0153454
628.803	0.0152247
628.881	0.0153571
628.959	0.0152354
629.038	0.0153642
629.116	0.0153854
629.194	0.0154069
629.272	0.0153720
629.350	0.0153296
629.428	0.0153436
629.506	0.0152641
629.584	0.0152728
629.663	0.0152338
629.741	0.0153003
629.819	0.0152785
629.897	0.0154004
629.975	0.0154092
630.053	0.0152848
630.131	0.0152219
630.209	0.0152177
630.288	0.0153136
630.366	0.0150584
630.444	0.0152180
630.522	0.0152599
630.600	0.0151437
630.678	0.0153033
630.756	0.0154794
630.834	0.0152406
630.913	0.0152353
630.991	0.0153346
631.069	0.0152583
631.147	0.0151894
631.225	0.0152123
631.303	0.0152438
631.381	0.0152486
631.459	0.0152969
631.538	0.0150883
631.616	0.0152888
631.694	0.0151837
631.772	0.0152351
631.850	0.0152073
631.928	0.0152604
632.006	0.0152852
632.084	0.0151015
632.163	0.0152757
632.241	0.0152699
632.319	0.0151262
632.397	0.0152097
632.475	0.0152660
632.553	0.0152107
632.631	0.0153551
632.709	0.0154281
632.788	0.0152499
632.866	0.0151785
632.944	0.0152887
633.022	0.0152000
633.100	0.0150781
633.178	0.0152296
633.256	0.0152630
633.334	0.0153127
633.413	0.0152465
633.491	0.0152827
633.569	0.0152786
633.647	0.0153985
633.725	0.0152554
633.803	0.0150891
633.881	0.0151346
633.959	0.0152721
634.038	0.0152454
634.116	0.0152351
634.194	0.0152282
634.272	0.0153007
634.350	0.0153569
634.428	0.0152587
634.506	0.0152647
634.584	0.0151281
634.663	0.0151818
634.741	0.0152757
634.819	0.0152120
634.897	0.0152132
634.975	0.0151493
635.053	0.0153492
635.131	0.0153454
635.209	0.0153046
635.288	0.0153410
635.366	0.0152728
635.444	0.0152299
635.522	0.0154825
635.600	0.0153353
635.678	0.0151949
635.756	0.0152252
635.834	0.0153625
635.913	0.0152847
635.991	0.0152804
636.069	0.0154485
636.147	0.0154154
636.225	0.0153638
636.303	0.0153529
636.381	0.0152349
636.459	0.0152848
636.538	0.0152352
636.616	0.0153809
636.694	0.0153697
636.772	0.0153292
636.850	0.0153210
636.928	0.0153422
637.006	0.0154915
637.084	0.0152718
637.163	0.0154189
637.241	0.0153979
637.319	0.0154453
637.397	0.0154547
637.475	0.0154199
637.553	0.0154493
637.631	0.0154519
637.709	0.0154723
637.788	0.0154951
637.866	0.0154344
637.944	0.0154459
638.022	0.0155291
638.100	0.0154377
638.178	0.0154844
638.256	0.0154727
638.334	0.0155777
638.413	0.0155325
638.491	0.0154349
638.569	0.0154818
638.647	0.0154904
638.725	0.0153785
638.803	0.0153097
638.881	0.0153434
638.959	0.0154245
639.038	0.0154121
639.116	0.0154135
639.194	0.0153777
639.272	0.0155106
639.350	0.0154855
639.428	0.0154742
639.506	0.0154797
639.584	0.0154835
639.663	0.0154146
639.741	0.0155405
639.819	0.0154785
639.897	0.0154851
639.975	0.0155920
640.053	0.0154459
640.131	0.0153809
640.209	0.0155411
640.288	0.0153504
640.366	0.0154485
640.444	0.0154492
640.522	0.0153209
640.600	0.0153721
640.678	0.0152978
640.756	0.0152898
640.834	0.0153214
640.913	0.0154224
640.991	0.0153801
641.069	0.0153371
641.147	0.0153585
641.225	0.0153895
641.303	0.0154944
641.381	0.0154295
641.459	0.0154920
641.538	0.0154206
641.616	0.0154987
641.694	0.0154236
641.772	0.0153835
641.850	0.0154740
641.928	0.0152827
642.006	0.0154455
642.084	0.0155139
642.163	0.0155866
642.241	0.0154338
642.319	0.0153900
642.397	0.0154896
642.475	0.0154632
642.553	0.0155092
642.631	0.0153539
642.709	0.0154187
642.788	0.0153035
642.866	0.0153902
642.944	0.0154243
643.022	0.0153371
643.100	0.0152184
643.178	0.0154007
643.256	0.0154419
643.334	0.0154230
643.413	0.0155917
643.491	0.0154656
643.569	0.0153591
643.647	0.0152940
643.725	0.0153848
643.803	0.0154195
643.881	0.0154607
643.959	0.0154192
644.038	0.0153462
644.116	0.0154187
644.194	0.0153795
644.272	0.0153908
644.350	0.0154807
644.428	0.0154195
644.506	0.0154867
644.584	0.0156209
644.663	0.0155892
644.741	0.0155592
644.819	0.0154549
644.897	0.0155483
644.975	0.0155561
645.053	0.0154781
645.131	0.0156178
645.209	0.0155613
645.288	0.0155744
645.366	0.0155048
645.444	0.0154410
645.522	0.0154401
645.600	0.0153812
645.678	0.0154803
645.756	0.0155561
645.834	0.0154099
645.913	0.0153651
645.991	0.0154422
646.069	0.0155494
646.147	0.0155853
646.225	0.0156233
646.303	0.0154273
646.381	0.0155009
646.459	0.0154749
646.538	0.0156095
646.616	0.0154572
646.694	0.0155296
646.772	0.0154866
646.850	0.0155104
646.928	0.0155698
647.006	0.0154102
647.084	0.0155677
647.163	0.0155267
647.241	0.0156587
647.319	0.0157442
647.397	0.0156151
647.475	0.0154741
647.553	0.0154336
647.631	0.0154702
647.709	0.0155187
647.788	0.0155569
647.866	0.0155457
647.944	0.0155156
648.022	0.0154147
648.100	0.0154379
648.178	0.0155157
648.256	0.0155105
648.334	0.0154437
648.413	0.0154848
648.491	0.0154327
648.569	0.0153568
648.647	0.0154219
648.725	0.0155022
648.803	0.0153951
648.881	0.0154438
648.959	0.0154397
649.038	0.0154459
649.116	0.0154260
649.194	0.0154790
649.272	0.0155930
649.350	0.0154815
649.428	0.0154483
649.506	0.0155432
649.584	0.0155711
649.663	0.0154984
649.741	0.0154377
649.819	0.0154856
649.897	0.0155283
649.975	0.0155930
650.053	0.0155247
650.131	0.0154833
650.209	0.0153974
650.288	0.0154179
650.366	0.0154572
650.444	0.0154574
650.522	0.0154270
650.600	0.0154073
650.678	0.0154320
650.756	0.0154071
650.834	0.0154004
650.913	0.0153231
650.991	0.0155380
651.069	0.0153971
651.147	0.0154263
651.225	0.0152896
651.303	0.0153336
651.381	0.0152679
651.459	0.0152380
651.538	0.0153394
651.616	0.0154278
651.694	0.0154028
651.772	0.0153868
651.850	0.0153528
651.928	0.0153582
652.006	0.0152361
652.084	0.0153250
652.163	0.0153529
652.241	0.0153170
652.319	0.0154309
652.397	0.0154100
652.475	0.0152279
652.553	0.0153614
652.631	0.0152442
652.709	0.0152344
652.788	0.0152108
652.866	0.0151175
652.944	0.0150709
653.022	0.0152136
653.100	0.0152798
653.178	0.0151016
653.256	0.0150977
653.334	0.0149448
653.413	0.0150449
653.491	0.0150691
653.569	0.0150195
653.647	0.0150166
653.725	0.0149633
653.803	0.0149523
653.881	0.0151067
653.959	0.0150037
654.038	0.0149879
654.116	0.0149949
654.194	0.0150887
654.272	0.0150462
654.350	0.0150901
654.428	0.0150169
654.506	0.0151416
654.584	0.0150755
654.663	0.0150458
654.741	0.0151241
654.819	0.0151746
654.897	0.0151543
654.975	0.0151625
655.053	0.0151438
655.131	0.0152048
655.209	0.0153151
655.288	0.0153030
655.366	0.0152742
655.444	0.0151498
655.522	0.0152660
655.600	0.0152891
655.678	0.0152761
655.756	0.0153661
655.834	0.0152881
655.913	0.0154362
655.991	0.0153872
656.069	0.0154366
656.147	0.0153226
656.225	0.0153394
656.303	0.0153091
656.381	0.0153958
656.459	0.0153375
656.538	0.0153181
656.616	0.0153543
656.694	0.0154590
656.772	0.0154074
656.850	0.0152923
656.928	0.0155015
657.006	0.0153388
657.084	0.0153963
657.163	0.0153973
657.241	0.0155312
657.319	0.0154836
657.397	0.0155598
657.475	0.0155466
657.553	0.0154748
657.631	0.0153630
657.709	0.0155891
657.788	0.0155390
657.866	0.0155311
657.944	0.0156123
658.022	0.0154446
658.100	0.0154239
658.178	0.0154996
658.256	0.0153683
658.334	0.0151622
658.413	0.0154220
658.491	0.0154147
658.569	0.0153103
658.647	0.0152776
658.725	0.0154439
658.803	0.0154295
658.881	0.0153027
658.959	0.0152426
659.038	0.0153329
659.116	0.0154252
659.194	0.0154457
659.272	0.0153725
659.350	0.0153628
659.428	0.0153111
659.506	0.0153625
659.584	0.0153713
659.663	0.0154861
659.741	0.0154052
659.819	0.0152967
659.897	0.0153435
659.975	0.0154624
660.053	0.0155007
660.131	0.0155394
660.209	0.0154360
660.288	0.0154819
660.366	0.0155674
660.444	0.0155104
660.522	0.0155779
660.600	0.0156453
660.678	0.0156941
660.756	0.0155654
660.834	0.0155215
660.913	0.0154372
660.991	0.0154958
661.069	0.0155169
661.147	0.0155019
661.225	0.0155186
661.303	0.0156477
661.381	0.0155328
661.459	0.0156884
661.538	0.0157377
661.616	0.0156250
661.694	0.0157103
661.772	0.0159392
661.850	0.0158990
661.928	0.0157608
662.006	0.0160213
662.084	0.0159660
662.163	0.0158747
662.241	0.0158317
662.319	0.0159156
662.397	0.0157975
662.475	0.0156700
662.553	0.0157474
662.631	0.0156724
662.709	0.0155171
662.788	0.0156776
662.866	0.0154423
662.944	0.0154023
663.022	0.0154662
663.100	0.0155000
663.178	0.0152470
663.256	0.0153982
663.334	0.0152548
663.413	0.0153384
663.491	0.0153168
663.569	0.0152756
663.647	0.0154063
663.725	0.0154376
663.803	0.0153321
663.881	0.0152783
663.959	0.0154288
664.038	0.0153870
664.116	0.0154044
664.194	0.0154471
664.272	0.0153712
664.350	0.0154070
664.428	0.0154286
664.506	0.0153617
664.584	0.0154047
664.663	0.0152950
664.741	0.0153442
664.819	0.0154211
664.897	0.0153994
664.975	0.0153268
665.053	0.0153046
665.131	0.0154945
665.209	0.0153408
665.288	0.0153110
665.366	0.0153733
665.444	0.0154050
665.522	0.0154443
665.600	0.0154684
665.678	0.0152392
665.756	0.0153246
665.834	0.0153619
665.913	0.0152972
665.991	0.0153807
666.069	0.0153716
666.147	0.0153283
666.225	0.0153868
666.303	0.0152378
666.381	0.0152271
666.459	0.0153574
666.538	0.0152238
666.616	0.0152557
666.694	0.0152942
666.772	0.0153396
666.850	0.0155141
666.928	0.0153223
667.006	0.0153716
667.084	0.0154509
667.163	0.0153815
667.241	0.0151831
667.319	0.0154365
667.397	0.0153061
667.475	0.0152888
667.553	0.0154614
667.631	0.0153331
667.709	0.0152534
667.788	0.0153323
667.866	0.0154485
667.944	0.0153577
668.022	0.0152885
668.100	0.0153544
668.178	0.0154609
668.256	0.0155824
668.334	0.0154073
668.413	0.0154591
668.491	0.0154123
668.569	0.0155367
668.647	0.0154382
668.725	0.0154810
668.803	0.0154968
668.881	0.0154295
668.959	0.0154326
669.038	0.0153790
669.116	0.0153971
669.194	0.0154995
669.272	0.0153143
669.350	0.0151558
669.428	0.0152477
669.506	0.0152260
669.584	0.0151466
669.663	0.0152322
669.741	0.0150541
669.819	0.0150264
669.897	0.0150764
669.975	0.0150237
670.053	0.0151200
670.131	0.0150890
670.209	0.0151820
670.288	0.0151949
670.366	0.0151998
670.444	0.0149834
670.522	0.0152102
670.600	0.0152823
670.678	0.0153680
670.756	0.0154005
670.834	0.0155347
670.913	0.0155194
670.991	0.0156344
671.069	0.0157531
671.147	0.0156059
671.225	0.0156741
671.303	0.0157321
671.381	0.0156763
671.459	0.0157375
671.538	0.0157283
671.616	0.0157384
671.694	0.0157691
671.772	0.0158402
671.850	0.0158215
671.928	0.0155595
672.006	0.0158164
672.084	0.0158265
672.163	0.0157456
672.241	0.0156308
672.319	0.0155226
672.397	0.0155950
672.475	0.0154599
672.553	0.0154343
672.631	0.0154037
672.709	0.0153175
672.788	0.0150475
672.866	0.0150182
672.944	0.0148721
673.022	0.0147805
673.100	0.0146961
673.178	0.0146166
673.256	0.0145820
673.334	0.0144695
673.413	0.0144467
673.491	0.0145430
673.569	0.0144099
673.647	0.0144233
673.725	0.0145677
673.803	0.0145479
673.881	0.0147071
673.959	0.0147909
674.038	0.0148727
674.116	0.0148277
674.194	0.0149282
674.272	0.0152730
674.350	0.0153763
674.428	0.0154897
674.506	0.0155990
674.584	0.0157923
674.663	0.0159815
674.741	0.0162357
674.819	0.0164897
674.897	0.0165900
674.975	0.0165009
675.053	0.0168726
675.131	0.0170201
675.209	0.0169083
675.288	0.0170206
675.366	0.0169115
675.444	0.0168922
675.522	0.0168253
675.600	0.0167314
675.678	0.0166504
675.756	0.0165430
675.834	0.0162542
675.913	0.0161016
675.991	0.0160017
676.069	0.0157010
676.147	0.0154785
676.225	0.0150845
676.303	0.0149046
676.381	0.0146217
676.459	0.0144786
676.538	0.0143347
676.616	0.0140916
676.694	0.0140212
676.772	0.0136903
676.850	0.0137067
676.928	0.0134085
677.006	0.0133489
677.084	0.0135004
677.163	0.0136436
677.241	0.0136689
677.319	0.0135189
677.397	0.0137586
677.475	0.0137899
677.553	0.0139924
677.631	0.0141066
677.709	0.0143382
677.788	0.0146915
677.866	0.0148146
677.944	0.0151646
678.022	0.0153186
678.100	0.0157513
678.178	0.0160174
678.256	0.0163895
678.334	0.0166531
678.413	0.0168525
678.491	0.0170004
678.569	0.0171673
678.647	0.0173257
678.725	0.0175579
678.803	0.0175991
678.881	0.0176581
678.959	0.0175256
679.038	0.0176600
679.116	0.0173782
679.194	0.0175188
679.272	0.0174641
679.350	0.0171509
679.428	0.0171385
679.506	0.0168876
679.584	0.0166981
679.663	0.0164507
679.741	0.0161957
679.819	0.0159753
679.897	0.0157331
679.975	0.0154444
680.053	0.0151890
680.131	0.0151127
680.209	0.0146175
680.288	0.0145052
680.366	0.0141423
680.444	0.0140910
680.522	0.0138934
680.600	0.0137882
680.678	0.0138712
680.756	0.0138389
680.834	0.0139021
680.913	0.0138494
680.991	0.0138756
681.069	0.0141153
681.147	0.0141525
681.225	0.0142549
681.303	0.0144740
681.381	0.0145380
681.459	0.0146275
681.538	0.0149897
681.616	0.0150542
681.694	0.0151835
681.772	0.0153300
681.850	0.0154849
681.928	0.0155358
682.006	0.0156430
682.084	0.0158051
682.163	0.0158640
682.241	0.0158011
682.319	0.0160799
682.397	0.0159972
682.475	0.0160250
682.553	0.0160219
682.631	0.0160799
682.709	0.0162695
682.788	0.0162270
682.866	0.0162519
682.944	0.0161805
683.022	0.0161705
683.100	0.0162579
683.178	0.0162617
683.256	0.0163840
683.334	0.0162221
683.413	0.0162819
683.491	0.0164201
683.569	0.0163029
683.647	0.0161740
683.725	0.0161590
683.803	0.0162012
683.881	0.0163213
683.959	0.0162904
684.038	0.0165200
684.116	0.0164187
684.194	0.0163876
684.272	0.0163074
684.350	0.0164036
684.428	0.0161897
684.506	0.0162769
684.584	0.0161497
684.663	0.0159650
684.741	0.0160835
684.819	0.0157328
684.897	0.0155508
684.975	0.0153944
685.053	0.0152220
685.131	0.0150316
685.209	0.0148713
685.288	0.0146080
685.366	0.0145464
685.444	0.0142494
685.522	0.0141930
685.600	0.0141784
685.678	0.0140613
685.756	0.0138960
685.834	0.0138588
685.913	0.0139663
685.991	0.0138908
686.069	0.0137801
686.147	0.0138392
686.225	0.0139649
686.303	0.0138233
686.381	0.0141029
686.459	0.0143122
686.538	0.0144853
686.616	0.0146612
686.694	0.0148711
686.772	0.0149973
686.850	0.0150948
686.928	0.0151078
687.006	0.0153735
687.084	0.0155408
687.163	0.0156584
687.241	0.0158620
687.319	0.0159428
687.397	0.0160207
687.475	0.0162135
687.553	0.0161990
687.631	0.0163133
687.709	0.0166206
687.788	0.0164186
687.866	0.0164863
687.944	0.0165030
688.022	0.0164648
688.100	0.0164565
688.178	0.0163663
688.256	0.0162474
688.334	0.0161694
688.413	0.0161239
688.491	0.0161814
688.569	0.0160252
688.647	0.0159586
688.725	0.0158991
688.803	0.0157807
688.881	0.0156423
688.959	0.0155655
689.038	0.0155962
689.116	0.0156733
689.194	0.0154707
689.272	0.0153786
689.350	0.0154021
689.428	0.0152423
689.506	0.0153272
689.584	0.0152556
689.663	0.0152820
689.741	0.0152242
689.819	0.0152937
689.897	0.0150538
689.975	0.0150081
690.053	0.0149299
690.131	0.0149203
690.209	0.0147754
690.288	0.0146498
690.366	0.0145766
690.444	0.0146084
690.522	0.0143861
690.600	0.0144521
690.678	0.0143572
690.756	0.0142891
690.834	0.0143560
690.913	0.0144176
690.991	0.0144046
691.069	0.0145987
691.147	0.0145092
691.225	0.0149007
691.303	0.0149937
691.381	0.0151351
691.459	0.0153383
691.538	0.0156375
691.616	0.0158238
691.694	0.0158804
691.772	0.0162245
691.850	0.0163779
691.928	0.0164390
692.006	0.0166152
692.084	0.0167970
692.163	0.0169247
692.241	0.0170278
692.319	0.0171033
692.397	0.0170898
692.475	0.0171590
692.553	0.0172007
692.631	0.0171840
692.709	0.0169533
692.788	0.0169958
692.866	0.0168291
692.944	0.0165003
693.022	0.0163790
693.100	0.0160727
693.178	0.0157515
693.256	0.0155814
693.334	0.0153001
693.413	0.0150388
693.491	0.0147351
693.569	0.0144491
693.647	0.0141426
693.725	0.0138474
693.803	0.0137923
693.881	0.0135626
693.959	0.0133208
694.038	0.0133466
694.116	0.0133498
694.194	0.0133290
694.272	0.0132055
694.350	0.0132693
694.428	0.0133594
694.506	0.0135489
694.584	0.0136121
694.663	0.0138616
694.741	0.0141457
694.819	0.0143396
694.897	0.0145192
694.975	0.0147367
695.053	0.0150805
695.131	0.0153888
695.209	0.0155331
695.288	0.0157946
695.366	0.0161039
695.444	0.0161897
695.522	0.0165504
695.600	0.0169006
695.678	0.0171295
695.756	0.0171873
695.834	0.0173458
695.913	0.0176565
695.991	0.0175957
696.069	0.0176205
696.147	0.0175895
696.225	0.0175193
696.303	0.0172924
696.381	0.0172407
696.459	0.0171648
696.538	0.0168902
696.616	0.0165724
696.694	0.0164299
696.772	0.0161215
696.850	0.0159506
696.928	0.0156427
697.006	0.0154231
697.084	0.0153075
697.163	0.0149963
697.241	0.0147448
697.319	0.0146555
697.397	0.0145604
697.475	0.0142677
697.553	0.0143530
697.631	0.0141913
697.709	0.0139805
697.788	0.0138594
697.866	0.0138877
697.944	0.0139119
698.022	0.0139835
698.100	0.0141286
698.178	0.0141006
698.256	0.0141301
698.334	0.0142304
698.413	0.0144325
698.491	0.0145943
698.569	0.0145647
698.647	0.0149100
698.725	0.0149171
698.803	0.0149049
698.881	0.0150278
698.959	0.0151287
699.038	0.0152088
699.116	0.0154241
699.194	0.0154301
699.272	0.0155568
699.350	0.0157928
699.428	0.0158521
699.506	0.0160886
699.584	0.0162923
699.663	0.0163870
699.741	0.0166183
699.819	0.0167996
699.897	0.0168253
699.975	0.0169724
700.053	0.0170005
700.131	0.0169383
700.209	0.0169447
700.288	0.0169609
700.366	0.0168367
700.444	0.0166495
700.522	0.0165981
700.600	0.0163552
700.678	0.0162418
700.756	0.0158385
700.834	0.0157420
700.913	0.0154456
700.991	0.0151584
701.069	0.0148906
701.147	0.0147890
701.225	0.0145114
701.303	0.0143342
701.381	0.0141720
701.459	0.0138169
701.538	0.0136891
701.616	0.0136300
701.694	0.0134879
701.772	0.0133221
701.850	0.0132606
701.928	0.0132858
702.006	0.0131853
702.084	0.0132696
702.163	0.0132500
702.241	0.0133401
702.319	0.0134098
702.397	0.0135395
702.475	0.0135856
702.553	0.0137961
702.631	0.0138831
702.709	0.0141546
702.788	0.0143468
702.866	0.0146560
702.944	0.0149072
703.022	0.0152673
703.100	0.0156779
703.178	0.0160822
703.256	0.0163187
703.334	0.0166195
703.413	0.0171252
703.491	0.0173415
703.569	0.0175188
703.647	0.0176481
703.725	0.0179451
703.803	0.0179939
703.881	0.0180649
703.959	0.0183449
704.038	0.0181364
704.116	0.0182129
704.194	0.0183630
704.272	0.0182328
704.350	0.0179480
704.428	0.0181055
704.506	0.0179510
704.584	0.0178264
704.663	0.0177099
704.741	0.0175809
704.819	0.0173425
704.897	0.0169623
704.975	0.0167252
705.053	0.0164980
705.131	0.0161460
705.209	0.0156922
705.288	0.0152731
705.366	0.0150599
705.444	0.0146329
705.522	0.0143694
705.600	0.0140349
705.678	0.0136791
705.756	0.0134160
705.834	0.0132198
705.913	0.0129313
705.991	0.0128750
706.069	0.0126683
706.147	0.0124938
706.225	0.0123751
706.303	0.0122983
706.381	0.0122677
706.459	0.0122851
706.538	0.0123479
706.616	0.0124214
706.694	0.0126919
706.772	0.0126934
706.850	0.0130939
706.928	0.0132059
707.006	0.0134781
707.084	0.0137789
707.163	0.0140591
707.241	0.0143341
707.319	0.0144484
707.397	0.0148382
707.475	0.0152043
707.553	0.0154082
707.631	0.0155000
707.709	0.0156759
707.788	0.0160392
707.866	0.0162365
707.944	0.0164435
708.022	0.0166499
708.100	0.0168312
708.178	0.0169500
708.256	0.0171411
708.334	0.0173671
708.413	0.0174102
708.491	0.0172662
708.569	0.0175470
708.647	0.0175983
708.725	0.0176617
708.803	0.0175483
708.881	0.0175259
708.959	0.0173571
709.038	0.0171877
709.116	0.0172260
709.194	0.0170458
709.272	0.0169189
709.350	0.0168070
709.428	0.0166673
709.506	0.0165069
709.584	0.0164574
709.663	0.0163769
709.741	0.0161479
709.819	0.0159650
709.897	0.0158405
709.975	0.0155745
710.053	0.0152930
710.131	0.0152280
710.209	0.0151398
710.288	0.0146999
710.366	0.0144610
710.444	0.0143998
710.522	0.0139750
710.600	0.0138549
710.678	0.0138469
710.756	0.0137344
710.834	0.0135309
710.913	0.0134483
710.991	0.0135074
711.069	0.0135732
711.147	0.0136427
711.225	0.0138960
711.303	0.0139577
711.381	0.0140105
711.459	0.0140560
711.538	0.0144794
711.616	0.0145068
711.694	0.0147956
711.772	0.0151546
711.850	0.0151723
711.928	0.0153433
712.006	0.0156776
712.084	0.0159480
712.163	0.0160354
712.241	0.0161727
712.319	0.0162901
712.397	0.0164252
712.475	0.0165369
712.553	0.0167057
712.631	0.0168937
712.709	0.0169091
712.788	0.0169260
712.866	0.0168211
712.944	0.0168970
713.022	0.0166926
713.100	0.0165488
713.178	0.0163928
713.256	0.0161395
713.334	0.0159061
713.413	0.0155276
713.491	0.0150407
713.569	0.0147992
713.647	0.0147952
713.725	0.0143415
713.803	0.0141109
713.881	0.0138959
713.959	0.0137883
714.038	0.0134258
714.116	0.0133455
714.194	0.0132851
714.272	0.0133481
714.350	0.0134058
714.428	0.0134483
714.506	0.0136391
714.584	0.0137791
714.663	0.0137402
714.741	0.0139390
714.819	0.0142989
714.897	0.0143851
714.975	0.0145910
715.053	0.0150428
715.131	0.0151052
715.209	0.0154936
715.288	0.0156821
715.366	0.0161159
715.444	0.0161528
715.522	0.0165526
715.600	0.0167245
715.678	0.0168513
715.756	0.0170319
715.834	0.0170709
715.913	0.0171363
715.991	0.0172015
716.069	0.0170624
716.147	0.0168118
716.225	0.0166822
716.303	0.0166116
716.381	0.0164433
716.459	0.0163689
716.538	0.0162804
716.616	0.0160566
716.694	0.0160953
716.772	0.0159553
716.850	0.0160242
716.928	0.0160667
717.006	0.0160764
717.084	0.0160547
717.163	0.0163538
717.241	0.0163732
717.319	0.0163309
717.397	0.0163898
717.475	0.0162833
717.553	0.0162395
717.631	0.0163380
717.709	0.0163517
717.788	0.0165574
717.866	0.0163266
717.944	0.0163118
718.022	0.0161755
718.100	0.0162118
718.178	0.0161555
718.256	0.0159337
718.334	0.0159713
718.413	0.0157024
718.491	0.0154837
718.569	0.0152919
718.647	0.0151176
718.725	0.0149021
718.803	0.0147236
718.881	0.0145898
718.959	0.0144205
719.038	0.0141860
719.116	0.0143452
719.194	0.0142955
719.272	0.0142301
719.350	0.0141599
719.428	0.0140376
719.506	0.0141063
719.584	0.0140182
719.663	0.0140632
719.741	0.0141234
719.819	0.0140161
719.897	0.0142715
719.975	0.0141121
720.053	0.0141345
720.131	0.0142199
720.209	0.0144109
720.288	0.0145556
720.366	0.0146788
720.444	0.0147401
720.522	0.0147919
720.600	0.0150784
720.678	0.0150673
720.756	0.0151624
720.834	0.0151197
720.913	0.0151350
720.991	0.0150731
721.069	0.0152044
721.147	0.0152158
721.225	0.0152777
721.303	0.0154329
721.381	0.0154811
721.459	0.0155256
721.538	0.0156412
721.616	0.0157729
721.694	0.0156706
721.772	0.0157616
721.850	0.0159870
721.928	0.0160769
722.006	0.0160862
722.084	0.0161785
722.163	0.0163412
722.241	0.0163392
722.319	0.0163548
722.397	0.0166011
722.475	0.0166108
722.553	0.0166614
722.631	0.0168309
722.709	0.0166360
722.788	0.0167629
722.866	0.0167738
722.944	0.0168011
723.022	0.0167774
723.100	0.0167385
723.178	0.0167065
723.256	0.0165571
723.334	0.0166084
723.413	0.0164478
723.491	0.0161929
723.569	0.0160995
723.647	0.0159912
723.725	0.0158507
723.803	0.0157005
723.881	0.0156555
723.959	0.0157114
724.038	0.0156718
724.116	0.0154005
724.194	0.0152942
724.272	0.0153698
724.350	0.0152647
724.428	0.0151987
724.506	0.0152020
724.584	0.0151868
724.663	0.0150529
724.741	0.0150810
724.819	0.0150184
724.897	0.0150294
724.975	0.0150135
725.053	0.0149829
725.131	0.0150342
725.209	0.0149334
725.288	0.0147839
725.366	0.0147820
725.444	0.0148464
725.522	0.0147562
725.600	0.0147225
725.678	0.0146917
725.756	0.0147504
725.834	0.0146387
725.913	0.0147496
725.991	0.0147943
726.069	0.0148306
726.147	0.0149350
726.225	0.0148338
726.303	0.0150085
726.381	0.0151344
726.459	0.0150784
726.538	0.0151254
726.616	0.0152036
726.694	0.0153123
726.772	0.0151834
726.850	0.0150843
726.928	0.0152599
727.006	0.0152052
727.084	0.0151232
727.163	0.0151832
727.241	0.0150165
727.319	0.0150658
727.397	0.0151332
727.475	0.0149833
727.553	0.0148077
727.631	0.0147990
727.709	0.0148590
727.788	0.0148048
727.866	0.0146490
727.944	0.0146092
728.022	0.0144788
728.100	0.0143867
728.178	0.0143895
728.256	0.0143455
728.334	0.0143573
728.413	0.0143736
728.491	0.0142438
728.569	0.0144484
728.647	0.0146406
728.725	0.0145291
728.803	0.0148238
728.881	0.0147804
728.959	0.0149739
729.038	0.0150542
729.116	0.0151126
729.194	0.0153366
729.272	0.0154221
729.350	0.0153799
729.428	0.0155591
729.506	0.0156033
729.584	0.0156546
729.663	0.0159566
729.741	0.0158112
729.819	0.0159064
729.897	0.0160516
729.975	0.0160342
730.053	0.0160887
730.131	0.0160433
730.209	0.0161749
730.288	0.0163368
730.366	0.0163603
730.444	0.0163275
730.522	0.0163797
730.600	0.0165145
730.678	0.0165200
730.756	0.0164011
730.834	0.0165661
730.913	0.0165010
730.991	0.0164915
731.069	0.0165740
731.147	0.0165821
731.225	0.0165983
731.303	0.0164893
731.381	0.0164121
731.459	0.0163429
731.538	0.0162920
731.616	0.0163299
731.694	0.0162990
731.772	0.0162132
731.850	0.0160513
731.928	0.0157602
732.006	0.0155858
732.084	0.0153489
732.163	0.0152683
732.241	0.0150365
732.319	0.0148585
732.397	0.0146529
732.475	0.0143671
732.553	0.0143179
732.631	0.0141018
732.709	0.0139684
732.788	0.0137328
732.866	0.0137769
732.944	0.0138663
733.022	0.0136759
733.100	0.0136866
733.178	0.0135522
733.256	0.0135748
733.334	0.0135827
733.413	0.0136942
733.491	0.0136998
733.569	0.0139430
733.647	0.0139173
733.725	0.0139931
733.803	0.0142352
733.881	0.0144407
733.959	0.0145319
734.038	0.0147859
734.116	0.0148509
734.194	0.0150703
734.272	0.0151270
734.350	0.0153532
734.428	0.0153841
734.506	0.0156549
734.584	0.0157327
734.663	0.0158262
734.741	0.0159171
734.819	0.0158056
734.897	0.0160030
734.975	0.0159908
735.053	0.0160654
735.131	0.0162314
735.209	0.0163731
735.288	0.0164418
735.366	0.0164230
735.444	0.0163716
735.522	0.0163422
735.600	0.0162356
735.678	0.0161500
735.756	0.0159286
735.834	0.0158960
735.913	0.0157206
735.991	0.0157024
736.069	0.0157343
736.147	0.0154591
736.225	0.0154271
736.303	0.0152896
736.381	0.0152832
736.459	0.0154268
736.538	0.0153898
736.616	0.0152769
736.694	0.0153860
736.772	0.0154973
736.850	0.0156812
736.928	0.0156298
737.006	0.0155985
737.084	0.0157322
737.163	0.0156203
737.241	0.0156273
737.319	0.0157292
737.397	0.0157376
737.475	0.0157882
737.553	0.0157943
737.631	0.0157956
737.709	0.0159325
737.788	0.0159525
737.866	0.0159788
737.944	0.0159992
738.022	0.0160236
738.100	0.0161147
738.178	0.0161491
738.256	0.0160156
738.334	0.0162424
738.413	0.0161710
738.491	0.0160386
738.569	0.0160216
738.647	0.0161680
738.725	0.0158572
738.803	0.0158586
738.881	0.0157567
738.959	0.0155907
739.038	0.0155439
739.116	0.0154140
739.194	0.0155658
739.272	0.0156599
739.350	0.0154438
739.428	0.0153538
739.506	0.0152911
739.584	0.0152606
739.663	0.0153053
739.741	0.0152997
739.819	0.0152229
739.897	0.0151262
739.975	0.0151546
740.053	0.0151906
740.131	0.0151871
740.209	0.0150954
740.288	0.0151704
740.366	0.0150241
740.444	0.0149470
740.522	0.0148946
740.600	0.0151333
740.678	0.0150660
740.756	0.0150450
740.834	0.0151246
740.913	0.0149795
740.991	0.0150052
741.069	0.0150121
741.147	0.0151296
741.225	0.0150332
741.303	0.0149718
741.381	0.0150506
741.459	0.0149842
741.538	0.0149335
741.616	0.0150481
741.694	0.0149407
741.772	0.0149991
741.850	0.0151048
741.928	0.0150932
742.006	0.0151370
742.084	0.0152591
742.163	0.0152317
742.241	0.0153104
742.319	0.0155125
742.397	0.0154466
742.475	0.0154606
742.553	0.0154993
742.631	0.0157286
742.709	0.0157378
742.788	0.0158038
742.866	0.0159273
742.944	0.0157822
743.022	0.0159425
743.100	0.0159599
743.178	0.0160704
743.256	0.0161649
743.334	0.0162528
743.413	0.0162177
743.491	0.0160725
743.569	0.0161213
743.647	0.0159158
743.725	0.0159486
743.803	0.0158566
743.881	0.0156132
743.959	0.0154766
744.038	0.0153909
744.116	0.0152032
744.194	0.0151669
744.272	0.0152193
744.350	0.0151379
744.428	0.0150321
744.506	0.0149328
744.584	0.0150057
744.663	0.0149026
744.741	0.0148890
744.819	0.0149577
744.897	0.0149516
744.975	0.0149949
745.053	0.0150007
745.131	0.0151105
745.209	0.0149905
745.288	0.0152352
745.366	0.0152846
745.444	0.0152994
745.522	0.0153983
745.600	0.0154502
745.678	0.0154745
745.756	0.0155312
745.834	0.0157153
745.913	0.0156929
745.991	0.0157896
746.069	0.0159276
746.147	0.0157703
746.225	0.0156984
746.303	0.0157022
746.381	0.0158025
746.459	0.0158674
746.538	0.0157304
746.616	0.0159013
746.694	0.0160115
746.772	0.0158859
746.850	0.0159600
746.928	0.0160887
747.006	0.0161652
747.084	0.0161031
747.163	0.0161037
747.241	0.0160680
747.319	0.0162285
747.397	0.0161092
747.475	0.0161405
747.553	0.0162265
747.631	0.0162010
747.709	0.0161697
747.788	0.0160720
747.866	0.0161862
747.944	0.0158389
748.022	0.0157153
748.100	0.0157042
748.178	0.0154497
748.256	0.0152055
748.334	0.0148211
748.413	0.0146749
748.491	0.0145968
748.569	0.0142336
748.647	0.0138667
748.725	0.0138500
748.803	0.0138874
748.881	0.0137527
748.959	0.0135219
749.038	0.0136053
749.116	0.0136996
749.194	0.0137649
749.272	0.0137273
749.350	0.0138029
749.428	0.0140323
749.506	0.0141640
749.584	0.0142863
749.663	0.0144004
749.741	0.0145245
749.819	0.0146272
749.897	0.0148005
749.975	0.0149961
750.053	0.0150826
750.131	0.0152495
750.209	0.0152824
750.288	0.0154450
750.366	0.0156317
750.444	0.0156210
750.522	0.0159464
750.600	0.0158896
750.678	0.0162319
750.756	0.0162124
750.834	0.0162922
750.913	0.0162639
750.991	0.0162782
751.069	0.0162760
751.147	0.0161613
751.225	0.0163148
751.303	0.0163016
751.381	0.0163198
751.459	0.0162960
751.538	0.0162496
751.616	0.0162984
751.694	0.0160851
751.772	0.0163182
751.850	0.0162475
751.928	0.0161472
752.006	0.0162949
752.084	0.0161229
752.163	0.0161846
752.241	0.0160685
752.319	0.0159104
752.397	0.0158781
752.475	0.0157682
752.553	0.0157082
752.631	0.0157127
752.709	0.0156120
752.788	0.0155663
752.866	0.0153867
752.944	0.0152061
753.022	0.0153181
753.100	0.0151615
753.178	0.0150651
753.256	0.0150183
753.334	0.0150708
753.413	0.0149367
753.491	0.0147813
753.569	0.0146973
753.647	0.0147622
753.725	0.0146152
753.803	0.0146114
753.881	0.0147012
753.959	0.0146144
754.038	0.0145787
754.116	0.0146335
754.194	0.0145955
754.272	0.0146104
754.350	0.0146520
754.428	0.0147588
754.506	0.0148466
754.584	0.0148027
754.663	0.0150459
754.741	0.0151305
754.819	0.0150683
754.897	0.0152790
754.975	0.0153105
755.053	0.0155018
755.131	0.0154735
755.209	0.0157572
755.288	0.0157595
755.366	0.0157690
755.444	0.0157434
755.522	0.0158498
755.600	0.0158766
755.678	0.0160748
755.756	0.0159734
755.834	0.0159533
755.913	0.0158673
755.991	0.0159161
756.069	0.0158486
756.147	0.0157848
756.225	0.0157286
756.303	0.0157234
756.381	0.0156387
756.459	0.0154749
756.538	0.0153069
756.616	0.0153704
756.694	0.0152184
756.772	0.0151241
756.850	0.0150169
756.928	0.0150996
757.006	0.0150041
757.084	0.0148740
757.163	0.0147924
757.241	0.0148442
757.319	0.0149094
757.397	0.0149290
757.475	0.0148849
757.553	0.0151119
757.631	0.0150524
757.709	0.0151711
757.788	0.0151545
757.866	0.0153108
757.944	0.0153330
758.022	0.0153802
758.100	0.0153343
758.178	0.0154195
758.256	0.0153358
758.334	0.0153761
758.413	0.0155858
758.491	0.0153866
758.569	0.0155145
758.647	0.0154826
758.725	0.0154311
758.803	0.0154037
758.881	0.0155902
758.959	0.0155124
759.038	0.0156025
759.116	0.0155724
759.194	0.0154520
759.272	0.0155985
759.350	0.0153583
759.428	0.0154600
759.506	0.0155698
759.584	0.0156304
759.663	0.0157160
759.741	0.0156388
759.819	0.0156967
759.897	0.0159655
759.975	0.0160613
760.053	0.0160347
760.131	0.0160732
760.209	0.0162296
760.288	0.0163245
760.366	0.0163641
760.444	0.0163982
760.522	0.0164641
760.600	0.0164031
760.678	0.0163831
760.756	0.0164164
760.834	0.0163390
760.913	0.0161600
760.991	0.0161861
761.069	0.0160813
761.147	0.0160880
761.225	0.0160065
761.303	0.0158089
761.381	0.0157115
761.459	0.0157048
761.538	0.0155972
761.616	0.0156218
761.694	0.0154201
761.772	0.0154573
761.850	0.0151290
761.928	0.0151702
762.006	0.0154053
762.084	0.0153146
762.163	0.0153526
762.241	0.0151866
762.319	0.0153021
762.397	0.0152570
762.475	0.0152075
762.553	0.0153252
762.631	0.0152367
762.709	0.0152488
762.788	0.0152275
762.866	0.0153384
762.944	0.0152482
763.022	0.0154909
763.100	0.0154552
763.178	0.0153059
763.256	0.0152905
763.334	0.0154314
763.413	0.0152261
763.491	0.0152059
763.569	0.0152053
763.647	0.0149813
763.725	0.0149396
763.803	0.0147227
763.881	0.0148512
763.959	0.0147946
764.038	0.0144987
764.116	0.0146220
764.194	0.0146296
764.272	0.0144321
764.350	0.0146724
764.428	0.0144916
764.506	0.0145054
764.584	0.0146254
764.663	0.0145866
764.741	0.0145401
764.819	0.0147904
764.897	0.0148682
764.975	0.0150404
765.053	0.0150960
765.131	0.0150421
765.209	0.0150917
765.288	0.0153604
765.366	0.0153099
765.444	0.0153895
765.522	0.0155508
765.600	0.0156814
765.678	0.0156812
765.756	0.0157302
765.834	0.0158932
765.913	0.0159501
765.991	0.0159063
766.069	0.0160462
766.147	0.0161900
766.225	0.0160946
766.303	0.0161278
766.381	0.0161922
766.459	0.0162114
766.538	0.0162128
766.616	0.0161346
766.694	0.0160994
766.772	0.0162200
766.850	0.0161708
766.928	0.0161329
767.006	0.0159248
767.084	0.0158791
767.163	0.0158395
767.241	0.0157350
767.319	0.0156615
767.397	0.0156911
767.475	0.0155357
767.553	0.0155019
767.631	0.0153452
767.709	0.0152789
767.788	0.0152539
767.866	0.0150706
767.944	0.0151711
768.022	0.0150687
768.100	0.0149698
768.178	0.0148596
768.256	0.0149706
768.334	0.0149045
768.413	0.0148826
768.491	0.0148195
768.569	0.0148452
768.647	0.0149272
768.725	0.0147733
768.803	0.0148213
768.881	0.0148592
768.959	0.0146702
769.038	0.0149730
769.116	0.0149546
769.194	0.0146555
769.272	0.0148022
769.350	0.0147953
769.428	0.0147730
769.506	0.0148341
769.584	0.0148193
769.663	0.0149467
769.741	0.0150519
769.819	0.0151967
769.897	0.0151027
769.975	0.0151474
770.053	0.0153513
770.131	0.0153875
770.209	0.0154409
770.288	0.0155263
770.366	0.0156143
770.444	0.0155980
770.522	0.0154913
770.600	0.0158547
770.678	0.0158549
770.756	0.0155963
770.834	0.0155766
770.913	0.0155409
770.991	0.0155855
771.069	0.0155213
771.147	0.0154810
771.225	0.0154227
771.303	0.0154264
771.381	0.0154508
771.459	0.0153432
771.538	0.0153190
771.616	0.0152831
771.694	0.0155340
771.772	0.0153291
771.850	0.0154089
771.928	0.0155054
772.006	0.0155573
772.084	0.0154001
772.163	0.0154351
772.241	0.0153833
772.319	0.0152672
772.397	0.0153941
772.475	0.0153085
772.553	0.0153822
772.631	0.0152703
772.709	0.0152518
772.788	0.0151825
772.866	0.0152271
772.944	0.0150519
773.022	0.0151366
773.100	0.0150710
773.178	0.0149879
773.256	0.0151549
773.334	0.0153997
773.413	0.0152521
773.491	0.0153929
773.569	0.0153175
773.647	0.0153367
773.725	0.0154596
773.803	0.0154945
773.881	0.0155846
773.959	0.0156683
774.038	0.0155643
774.116	0.0155456
774.194	0.0157093
774.272	0.0156860
774.350	0.0157028
774.428	0.0156310
774.506	0.0157362
774.584	0.0158133
774.663	0.0157217
774.741	0.0157833
774.819	0.0157232
774.897	0.0158186
774.975	0.0156678
775.053	0.0159460
775.131	0.0160149
775.209	0.0160278
775.288	0.0160247
775.366	0.0161087
775.444	0.0159548
775.522	0.0158774
775.600	0.0160387
775.678	0.0160483
775.756	0.0160534
775.834	0.0158798
775.913	0.0159016
775.991	0.0158649
776.069	0.0157317
776.147	0.0156055
776.225	0.0155496
776.303	0.0153947
776.381	0.0153576
776.459	0.0153676
776.538	0.0153579
776.616	0.0151679
776.694	0.0151012
776.772	0.0149586
776.850	0.0150494
776.928	0.0149257
777.006	0.0147932
777.084	0.0147925
777.163	0.0147964
777.241	0.0147809
777.319	0.0147208
777.397	0.0149369
777.475	0.0147915
777.553	0.0149224
777.631	0.0150426
777.709	0.0150581
777.788	0.0152365
777.866	0.0153120
777.944	0.0152269
778.022	0.0152972
778.100	0.0152491
778.178	0.0153250
778.256	0.0153518
778.334	0.0154517
778.413	0.0152863
778.491	0.0153174
778.569	0.0153998
778.647	0.0154729
778.725	0.0153807
778.803	0.0151566
778.881	0.0154636
778.959	0.0153313
779.038	0.0153818
779.116	0.0153862
779.194	0.0153575
779.272	0.0152590
779.350	0.0153537
779.428	0.0153845
779.506	0.0153339
779.584	0.0153282
779.663	0.0154181
779.741	0.0154956
779.819	0.0155048
779.897	0.0154872
779.975	0.0154784
780.053	0.0156137
780.131	0.0156997
780.209	0.0156721
780.288	0.0155116
780.366	0.0155614
780.444	0.0157066
780.522	0.0157571
780.600	0.0156469
780.678	0.0154667
780.756	0.0155978
780.834	0.0155109
780.913	0.0154530
780.991	0.0154086
781.069	0.0153572
781.147	0.0154511
781.225	0.0154916
781.303	0.0153104
781.381	0.0152915
781.459	0.0153293
781.538	0.0153466
781.616	0.0153403
781.694	0.0154197
781.772	0.0153633
781.850	0.0154542
781.928	0.0155448
782.006	0.0155262
782.084	0.0156121
782.163	0.0157003
782.241	0.0157640
782.319	0.0157748
782.397	0.0157270
782.475	0.0157739
782.553	0.0157530
782.631	0.0156712
782.709	0.0157420
782.788	0.0158083
782.866	0.0157411
782.944	0.0155753
783.022	0.0156968
783.100	0.0156165
783.178	0.0156243
783.256	0.0156284
783.334	0.0156996
783.413	0.0156097
783.491	0.0155547
783.569	0.0156790
783.647	0.0156413
783.725	0.0156502
783.803	0.0156089
783.881	0.0156900
783.959	0.0157939
784.038	0.0157716
784.116	0.0157007
784.194	0.0157703
784.272	0.0158469
784.350	0.0157043
784.428	0.0157032
784.506	0.0157763
784.584	0.0156249
784.663	0.0155154
784.741	0.0154224
784.819	0.0154869
784.897	0.0153463
784.975	0.0153667
785.053	0.0153918
785.131	0.0154669
785.209	0.0153545
785.288	0.0154855
785.366	0.0152679
785.444	0.0152452
785.522	0.0155291
785.600	0.0154597
785.678	0.0155094
785.756	0.0154213
785.834	0.0154263
785.913	0.0155086
785.991	0.0152676
786.069	0.0154012
786.147	0.0154784
786.225	0.0153175
786.303	0.0151671
786.381	0.0151942
786.459	0.0150647
786.538	0.0150043
786.616	0.0149457
786.694	0.0149760
786.772	0.0148163
786.850	0.0148476
786.928	0.0148991
787.006	0.0149479
787.084	0.0149349
787.163	0.0150204
787.241	0.0150660
787.319	0.0149930
787.397	0.0151362
787.475	0.0151871
787.553	0.0152886
787.631	0.0153479
787.709	0.0154575
787.788	0.0153613
787.866	0.0156374
787.944	0.0155589
788.022	0.0155013
788.100	0.0156767
788.178	0.0157406
788.256	0.0156347
788.334	0.0158319
788.413	0.0158127
788.491	0.0157108
788.569	0.0156102
788.647	0.0155893
788.725	0.0155466
788.803	0.0156704
788.881	0.0154987
788.959	0.0155768
789.038	0.0156239
789.116	0.0154868
789.194	0.0155869
789.272	0.0156505
789.350	0.0154845
789.428	0.0153641
789.506	0.0155119
789.584	0.0155341
789.663	0.0155678
789.741	0.0154180
789.819	0.0153919
789.897	0.0153173
789.975	0.0153020
790.053	0.0151423
790.131	0.0152155
790.209	0.0151470
790.288	0.0151231
790.366	0.0152906
790.444	0.0152309
790.522	0.0150999
790.600	0.0150944
790.678	0.0148523
790.756	0.0150659
790.834	0.0150411
790.913	0.0149058
790.991	0.0150270
791.069	0.0150441
791.147	0.0150773
791.225	0.0149064
791.303	0.0149309
791.381	0.0150536
791.459	0.0150444
791.538	0.0149886
791.616	0.0151422
791.694	0.0151666
791.772	0.0151424
791.850	0.0152726
791.928	0.0153294
792.006	0.0154041
792.084	0.0153465
792.163	0.0154095
792.241	0.0153077
792.319	0.0155467
792.397	0.0154214
792.475	0.0154163
792.553	0.0155800
792.631	0.0155445
792.709	0.0156456
792.788	0.0155823
792.866	0.0156284
792.944	0.0156275
793.022	0.0155147
793.100	0.0156331
793.178	0.0156144
793.256	0.0154907
793.334	0.0154547
793.413	0.0153214
793.491	0.0154061
793.569	0.0152585
793.647	0.0152822
793.725	0.0151624
793.803	0.0151851
793.881	0.0151817
793.959	0.0150083
794.038	0.0149862
794.116	0.0150931
794.194	0.0151044
794.272	0.0150189
794.350	0.0151037
794.428	0.0150854
794.506	0.0149924
794.584	0.0151353
794.663	0.0150778
794.741	0.0149980
794.819	0.0150826
794.897	0.0151134
794.975	0.0151781
795.053	0.0152267
795.131	0.0151272
795.209	0.0152630
795.288	0.0154140
795.366	0.0153912
795.444	0.0153595
795.522	0.0155125
795.600	0.0155247
795.678	0.0156577
795.756	0.0153897
795.834	0.0154655
795.913	0.0154491
795.991	0.0157381
796.069	0.0155576
796.147	0.0156128
796.225	0.0157514
796.303	0.0156946
796.381	0.0157457
796.459	0.0157411
796.538	0.0156925
796.616	0.0157901
796.694	0.0158084
796.772	0.0157579
796.850	0.0157845
796.928	0.0156593
797.006	0.0155536
797.084	0.0155830
797.163	0.0156281
797.241	0.0156499
797.319	0.0154626
797.397	0.0154292
797.475	0.0152893
797.553	0.0152612
797.631	0.0152311
797.709	0.0153292
797.788	0.0152615
797.866	0.0152345
797.944	0.0152899
798.022	0.0152458
798.100	0.0151715
798.178	0.0150862
798.256	0.0152193
798.334	0.0150011
798.413	0.0150960
798.491	0.0150524
798.569	0.0151385
798.647	0.0151832
798.725	0.0150220
798.803	0.0152038
798.881	0.0152305
798.959	0.0151237
799.038	0.0151865
799.116	0.0152728
799.194	0.0152065
799.272	0.0151954
799.350	0.0153305
799.428	0.0153120
799.506	0.0154704
799.584	0.0153680
799.663	0.0154775
799.741	0.0154486
799.819	0.0153931
799.897	0.0155778
799.975	0.0155559
800.053	0.0156743
800.131	0.0156539
800.209	0.0156351
800.288	0.0157795
800.366	0.0158123
800.444	0.0157567
800.522	0.0158787
800.600	0.0159222
800.678	0.0159143
800.756	0.0159435
800.834	0.0160796
800.913	0.0158916
800.991	0.0158909
801.069	0.0158944
801.147	0.0158229
801.225	0.0157555
801.303	0.0157297
801.381	0.0155998
801.459	0.0155856
801.538	0.0156204
801.616	0.0152273
801.694	0.0153091
801.772	0.0153120
801.850	0.0152478
801.928	0.0150764
802.006	0.0151516
802.084	0.0149651
802.163	0.0149260
802.241	0.0151783
802.319	0.0150105
802.397	0.0148097
802.475	0.0148856
802.553	0.0148914
802.631	0.0148254
802.709	0.0148902
802.788	0.0147330
802.866	0.0149400
802.944	0.0149166
803.022	0.0150889
803.100	0.0151218
803.178	0.0152078
803.256	0.0151971
803.334	0.0152908
803.413	0.0152148
803.491	0.0154022
803.569	0.0155550
803.647	0.0153589
803.725	0.0155411
803.803	0.0154862
803.881	0.0155795
803.959	0.0155540
804.038	0.0154021
804.116	0.0155871
804.194	0.0154192
804.272	0.0155257
804.350	0.0155128
804.428	0.0155473
804.506	0.0155215
804.584	0.0155595
804.663	0.0156560
804.741	0.0158386
804.819	0.0159117
804.897	0.0157405
804.975	0.0158949
805.053	0.0160251
805.131	0.0159596
805.209	0.0159412
805.288	0.0162000
805.366	0.0162636
805.444	0.0162397
805.522	0.0163102
805.600	0.0160851
805.678	0.0161351
805.756	0.0162238
805.834	0.0162926
805.913	0.0161604
805.991	0.0159897
806.069	0.0160191
806.147	0.0159386
806.225	0.0159830
806.303	0.0159934
806.381	0.0158688
806.459	0.0158620
806.538	0.0157443
806.616	0.0154669
806.694	0.0155421
806.772	0.0154766
806.850	0.0152909
806.928	0.0152162
807.006	0.0153324
807.084	0.0151675
807.163	0.0149963
807.241	0.0150089
807.319	0.0150115
807.397	0.0150730
807.475	0.0149396
807.553	0.0148995
807.631	0.0147478
807.709	0.0149131
807.788	0.0149086
807.866	0.0148657
807.944	0.0150530
808.022	0.0149537
808.100	0.0150288
808.178	0.0149043
808.256	0.0150504
808.334	0.0151157
808.413	0.0150372
808.491	0.0150814
808.569	0.0151414
808.647	0.0152841
808.725	0.0153007
808.803	0.0152539
808.881	0.0153152
808.959	0.0154042
809.038	0.0152882
809.116	0.0153122
809.194	0.0153637
809.272	0.0153783
809.350	0.0154247
809.428	0.0153836
809.506	0.0152436
809.584	0.0153343
809.663	0.0153017
809.741	0.0154453
809.819	0.0153083
809.897	0.0152336
809.975	0.0151258
810.053	0.0152460
810.131	0.0150433
810.209	0.0149668
810.288	0.0148576
810.366	0.0151606
810.444	0.0151589
810.522	0.0147668
810.600	0.0149572
810.678	0.0150410
810.756	0.0151602
810.834	0.0152074
810.913	0.0152170
810.991	0.0153110
811.069	0.0153388
811.147	0.0154122
811.225	0.0153844
811.303	0.0153331
811.381	0.0155326
811.459	0.0155735
811.538	0.0155515
811.616	0.0156181
811.694	0.0157618
811.772	0.0157001
811.850	0.0157034
811.928	0.0155484
812.006	0.0157221
812.084	0.0156781
812.163	0.0155997
812.241	0.0154500
812.319	0.0154492
812.397	0.0153587
812.475	0.0154150
812.553	0.0155414
812.631	0.0154459
812.709	0.0152860
812.788	0.0153380
812.866	0.0152885
812.944	0.0153957
813.022	0.0153941
813.100	0.0154368
813.178	0.0154489
813.256	0.0155014
813.334	0.0155322
813.413	0.0156445
813.491	0.0155701
813.569	0.0157483
813.647	0.0156722
813.725	0.0156534
813.803	0.0156399
813.881	0.0155563
813.959	0.0155103
814.038	0.0155585
814.116	0.0155813
814.194	0.0153366
814.272	0.0154568
814.350	0.0155800
814.428	0.0153917
814.506	0.0153704
814.584	0.0154445
814.663	0.0154559
814.741	0.0153899
814.819	0.0155176
814.897	0.0154504
814.975	0.0153900
815.053	0.0153027
815.131	0.0152912
815.209	0.0153455
815.288	0.0152307
815.366	0.0153460
815.444	0.0153364
815.522	0.0153259
815.600	0.0153599
815.678	0.0153978
815.756	0.0153162
815.834	0.0154337
815.913	0.0153973
815.991	0.0153429
816.069	0.0153436
816.147	0.0153201
816.225	0.0153130
816.303	0.0153313
816.381	0.0153377
816.459	0.0152596
816.538	0.0154495
816.616	0.0152785
816.694	0.0153564
816.772	0.0152769
816.850	0.0155065
816.928	0.0155486
817.006	0.0154168
817.084	0.0153767
817.163	0.0155243
817.241	0.0154955
817.319	0.0156457
817.397	0.0155156
817.475	0.0156324
817.553	0.0156020
817.631	0.0155964
817.709	0.0156743
817.788	0.0156691
817.866	0.0155859
817.944	0.0155940
818.022	0.0157224
818.100	0.0157497
818.178	0.0157853
818.256	0.0156074
818.334	0.0155673
818.413	0.0156063
818.491	0.0155298
818.569	0.0157898
818.647	0.0157313
818.725	0.0155396
818.803	0.0156279
818.881	0.0156242
818.959	0.0156850
819.038	0.0156329
819.116	0.0155424
819.194	0.0156561
819.272	0.0155126
819.350	0.0156480
819.428	0.0154375
819.506	0.0152762
819.584	0.0154363
819.663	0.0154746
819.741	0.0152428
819.819	0.0153403
819.897	0.0153777
819.975	0.0151766
820.053	0.0152940
820.131	0.0152299
820.209	0.0153445
820.288	0.0153673
820.366	0.0153340
820.444	0.0152276
820.522	0.0152963
820.600	0.0153672
820.678	0.0154030
820.756	0.0154685
820.834	0.0154426
820.913	0.0153349
820.991	0.0152553
821.069	0.0152872
821.147	0.0153436
821.225	0.0154599
821.303	0.0153522
821.381	0.0154218
821.459	0.0152441
821.538	0.0152197
821.616	0.0151515
821.694	0.0152975
821.772	0.0153504
821.850	0.0153236
821.928	0.0151125
822.006	0.0152770
822.084	0.0152054
822.163	0.0153095
822.241	0.0153380
822.319	0.0152994
822.397	0.0152621
822.475	0.0152567
822.553	0.0152380
822.631	0.0153564
822.709	0.0152144
822.788	0.0153133
822.866	0.0152359
822.944	0.0150957
823.022	0.0152160
823.100	0.0152649
823.178	0.0152332
823.256	0.0151786
823.334	0.0153422
823.413	0.0152507
823.491	0.0152958
823.569	0.0153127
823.647	0.0153168
823.725	0.0153925
823.803	0.0154488
823.881	0.0154828
823.959	0.0153560
824.038	0.0154068
824.116	0.0153949
824.194	0.0154222
824.272	0.0153564
824.350	0.0152719
824.428	0.0154121
824.506	0.0153891
824.584	0.0153634
824.663	0.0153699
824.741	0.0154163
824.819	0.0153999
824.897	0.0153503
824.975	0.0154726
825.053	0.0154989
825.131	0.0152775
825.209	0.0153883
825.288	0.0155357
825.366	0.0155770
825.444	0.0155583
825.522	0.0154469
825.600	0.0156631
825.678	0.0155918
825.756	0.0155720
825.834	0.0156042
825.913	0.0155788
825.991	0.0157033
826.069	0.0156867
826.147	0.0156584
826.225	0.0157079
826.303	0.0156638
826.381	0.0156116
826.459	0.0156290
826.538	0.0154861
826.616	0.0155495
826.694	0.0156548
826.772	0.0156162
826.850	0.0153998
826.928	0.0155401
827.006	0.0154336
827.084	0.0154823
827.163	0.0154667
827.241	0.0154691
827.319	0.0154505
827.397	0.0154678
827.475	0.0153480
827.553	0.0155193
827.631	0.0156194
827.709	0.0153558
827.788	0.0155058
827.866	0.0155596
827.944	0.0154309
828.022	0.0154768
828.100	0.0153515
828.178	0.0154110
828.256	0.0153947
828.334	0.0153084
828.413	0.0152106
828.491	0.0151910
828.569	0.0151938
828.647	0.0152318
828.725	0.0151938
828.803	0.0152088
828.881	0.0151333
828.959	0.0151841
829.038	0.0153158
829.116	0.0150997
829.194	0.0150348
829.272	0.0151071
829.350	0.0152485
829.428	0.0151452
829.506	0.0152177
829.584	0.0152591
829.663	0.0152746
829.741	0.0151022
829.819	0.0150148
829.897	0.0151931
829.975	0.0153171
830.053	0.0153106
830.131	0.0152017
830.209	0.0152173
830.288	0.0151230
830.366	0.0153422
830.444	0.0151782
830.522	0.0152942
830.600	0.0153968
830.678	0.0153275
830.756	0.0154342
830.834	0.0154052
830.913	0.0153078
830.991	0.0154094
831.069	0.0154094
831.147	0.0154630
831.225	0.0155357
831.303	0.0154043
831.381	0.0154465
831.459	0.0154623
831.538	0.0154313
831.616	0.0154736
831.694	0.0152750
831.772	0.0154328
831.850	0.0153075
831.928	0.0155846
832.006	0.0153904
832.084	0.0152787
832.163	0.0153164
832.241	0.0154649
832.319	0.0153642
832.397	0.0153810
832.475	0.0153374
832.553	0.0154020
832.631	0.0153951
832.709	0.0154288
832.788	0.0154382
832.866	0.0156262
832.944	0.0154972
833.022	0.0155081
833.100	0.0155658
833.178	0.0156289
833.256	0.0155286
833.334	0.0155418
833.413	0.0156068
833.491	0.0155598
833.569	0.0154028
833.647	0.0153668
833.725	0.0153362
833.803	0.0152952
833.881	0.0153083
833.959	0.0152485
834.038	0.0152251
834.116	0.0152590
834.194	0.0151633
834.272	0.0151402
834.350	0.0152544
834.428	0.0152014
834.506	0.0152626
834.584	0.0152713
834.663	0.0153133
834.741	0.0151344
834.819	0.0153970
834.897	0.0154053
834.975	0.0152467
835.053	0.0153239
835.131	0.0154008
835.209	0.0154942
835.288	0.0155714
835.366	0.0155676
835.444	0.0154008
835.522	0.0153627
835.600	0.0153808
835.678	0.0154745
835.756	0.0155109
835.834	0.0154865
835.913	0.0154286
835.991	0.0154960
836.069	0.0154031
836.147	0.0153980
836.225	0.0154010
836.303	0.0152537
836.381	0.0153112
836.459	0.0152387
836.538	0.0152534
836.616	0.0153313
836.694	0.0152730
836.772	0.0154009
836.850	0.0153624
836.928	0.0152847
837.006	0.0153283
837.084	0.0154190
837.163	0.0154492
837.241	0.0153263
837.319	0.0154562
837.397	0.0154240
837.475	0.0154297
837.553	0.0154627
837.631	0.0156097
837.709	0.0155611
837.788	0.0155127
837.866	0.0155614
837.944	0.0154955
838.022	0.0155193
838.100	0.0157199
838.178	0.0156785
838.256	0.0156937
838.334	0.0156947
838.413	0.0154165
838.491	0.0155890
838.569	0.0156886
838.647	0.0157190
838.725	0.0155465
838.803	0.0156275
838.881	0.0154816
838.959	0.0155123
839.038	0.0157122
839.116	0.0156672
839.194	0.0156105
839.272	0.0155308
839.350	0.0155859
839.428	0.0155405
839.506	0.0154334
839.584	0.0155305
839.663	0.0155257
839.741	0.0156464
839.819	0.0156415
839.897	0.0156300
839.975	0.0155123
840.053	0.0155949
840.131	0.0156174
840.209	0.0154668
840.288	0.0154441
840.366	0.0154086
840.444	0.0154222
840.522	0.0154567
840.600	0.0154044
840.678	0.0154114
840.756	0.0153479
840.834	0.0154893
840.913	0.0155269
840.991	0.0153344
841.069	0.0154984
841.147	0.0155581
841.225	0.0155292
841.303	0.0154089
841.381	0.0155091
841.459	0.0155868
841.538	0.0155231
841.616	0.0156247
841.694	0.0155671
841.772	0.0155495
841.850	0.0156385
841.928	0.0155396
842.006	0.0157060
842.084	0.0157738
842.163	0.0157585
842.241	0.0156561
842.319	0.0157040
842.397	0.0156603
842.475	0.0156776
842.553	0.0155350
842.631	0.0155314
842.709	0.0155566
842.788	0.0154148
842.866	0.0154748
842.944	0.0154659
843.022	0.0155057
843.100	0.0152007
843.178	0.0153075
843.256	0.0153349
843.334	0.0152988
843.413	0.0153162
843.491	0.0152583
843.569	0.0151554
843.647	0.0152343
843.725	0.0152177
843.803	0.0152906
843.881	0.0152322
843.959	0.0152013
844.038	0.0152438
844.116	0.0153061
844.194	0.0152605
844.272	0.0152771
844.350	0.0151862
844.428	0.0153526
844.506	0.0153392
844.584	0.0153770
844.663	0.0152691
844.741	0.0152518
844.819	0.0153228
844.897	0.0153075
844.975	0.0153400
845.053	0.0152880
845.131	0.0152341
845.209	0.0153891
845.288	0.0154208
845.366	0.0154258
845.444	0.0153063
845.522	0.0154035
845.600	0.0153790
845.678	0.0155000
845.756	0.0152853
845.834	0.0153765
845.913	0.0154557
845.991	0.0154667
846.069	0.0154082
846.147	0.0156689
846.225	0.0155711
846.303	0.0155730
846.381	0.0155392
846.459	0.0155910
846.538	0.0154743
846.616	0.0154992
846.694	0.0155246
846.772	0.0155865
846.850	0.0155679
846.928	0.0155791
847.006	0.0154836
847.084	0.0155640
847.163	0.0154700
847.241	0.0154427
847.319	0.0156049
847.397	0.0155823
847.475	0.0156152
847.553	0.0155172
847.631	0.0155784
847.709	0.0155013
847.788	0.0155317
847.866	0.0156003
847.944	0.0155669
848.022	0.0156105
848.100	0.0155431
848.178	0.0154752
848.256	0.0154560
848.334	0.0156211
848.413	0.0155521
848.491	0.0153936
848.569	0.0155891
848.647	0.0155514
848.725	0.0155294
848.803	0.0155452
848.881	0.0155846
848.959	0.0154821
849.038	0.0156378
849.116	0.0156771
849.194	0.0156199
849.272	0.0156810
849.350	0.0156070
849.428	0.0156668
849.506	0.0155341
849.584	0.0154499
849.663	0.0154871
849.741	0.0154606
849.819	0.0153744
849.897	0.0155820
849.975	0.0153387
850.053	0.0154309
850.131	0.0154126
850.209	0.0154127
850.288	0.0154759
850.366	0.0152955
850.444	0.0152442
850.522	0.0152411
850.600	0.0152927
850.678	0.0153049
850.756	0.0153685
850.834	0.0154456
850.913	0.0154501
850.991	0.0154293
851.069	0.0154512
851.147	0.0154196
851.225	0.0153868
851.303	0.0154147
851.381	0.0154675
851.459	0.0155373
851.538	0.0154291
851.616	0.0153639
851.694	0.0154131
851.772	0.0152534
851.850	0.0152988
851.928	0.0152222
852.006	0.0151981
852.084	0.0151431
852.163	0.0152065
852.241	0.0151051
852.319	0.0153191
852.397	0.0151991
852.475	0.0151755
852.553	0.0150228
852.631	0.0150356
852.709	0.0151463
852.788	0.0151894
852.866	0.0151228
852.944	0.0152455
853.022	0.0151363
853.100	0.0150861
853.178	0.0151572
853.256	0.0152004
853.334	0.0152053
853.413	0.0153500
853.491	0.0153644
853.569	0.0153001
853.647	0.0152843
853.725	0.0153181
853.803	0.0152903
853.881	0.0152725
853.959	0.0152309
854.038	0.0152035
854.116	0.0152189
854.194	0.0152156
854.272	0.0151021
854.350	0.0150816
854.428	0.0152648
854.506	0.0151702
854.584	0.0151172
854.663	0.0152701
854.741	0.0153046
854.819	0.0150284
854.897	0.0151842
854.975	0.0151089
855.053	0.0152251
855.131	0.0152666
855.209	0.0151884
855.288	0.0152032
855.366	0.0153756
855.444	0.0151353
855.522	0.0151030
855.600	0.0153989
855.678	0.0153793
855.756	0.0150368
855.834	0.0150488
855.913	0.0151300
855.991	0.0152711
856.069	0.0151311
856.147	0.0152598
856.225	0.0151895
856.303	0.0151776
856.381	0.0153116
856.459	0.0152822
856.538	0.0152955
856.616	0.0153482
856.694	0.0153144
856.772	0.0154159
856.850	0.0154240
856.928	0.0155704
857.006	0.0154012
857.084	0.0154391
857.163	0.0156010
857.241	0.0154147
857.319	0.0154761
857.397	0.0154578
857.475	0.0153481
857.553	0.0155533
857.631	0.0153924
857.709	0.0154720
857.788	0.0153539
857.866	0.0153973
857.944	0.0153267
858.022	0.0153970
858.100	0.0155891
858.178	0.0154554
858.256	0.0152910
858.334	0.0154701
858.413	0.0154659
858.491	0.0156056
858.569	0.0155853
858.647	0.0155673
858.725	0.0154382
858.803	0.0155254
858.881	0.0154463
858.959	0.0155199
859.038	0.0155517
859.116	0.0154679
859.194	0.0154400
859.272	0.0154958
859.350	0.0154125
859.428	0.0156141
859.506	0.0154177
859.584	0.0154015
859.663	0.0153815
859.741	0.0154891
859.819	0.0156008
859.897	0.0154859
859.975	0.0155334
860.053	0.0154624
860.131	0.0156059
860.209	0.0155445
860.288	0.0154742
860.366	0.0154547
860.444	0.0156042
860.522	0.0154548
860.600	0.0157098
860.678	0.0156596
860.756	0.0156254
860.834	0.0155901
860.913	0.0155949
860.991	0.0155187
861.069	0.0154634
861.147	0.0155521
861.225	0.0155326
861.303	0.0154778
861.381	0.0154039
861.459	0.0155859
861.538	0.0155208
861.616	0.0153293
861.694	0.0153698
861.772	0.0153912
861.850	0.0154766
861.928	0.0155020
862.006	0.0154428
862.084	0.0154189
862.163	0.0154076
862.241	0.0154856
862.319	0.0156273
862.397	0.0154912
862.475	0.0155433
862.553	0.0157101
862.631	0.0156281
862.709	0.0155553
862.788	0.0155213
862.866	0.0157491
862.944	0.0156551
863.022	0.0156470
863.100	0.0155311
863.178	0.0154530
863.256	0.0155715
863.334	0.0155905
863.413	0.0154592
863.491	0.0153725
863.569	0.0155955
863.647	0.0155936
863.725	0.0154898
863.803	0.0153870
863.881	0.0154407
863.959	0.0154050
864.038	0.0154315
864.116	0.0153555
864.194	0.0154452
864.272	0.0155024
864.350	0.0154676
864.428	0.0155356
864.506	0.0154143
864.584	0.0152694
864.663	0.0155580
864.741	0.0154585
864.819	0.0154257
864.897	0.0153741
864.975	0.0152749
865.053	0.0152315
865.131	0.0152924
865.209	0.0152910
865.288	0.0151145
865.366	0.0151619
865.444	0.0152601
865.522	0.0152485
865.600	0.0151508
865.678	0.0152529
865.756	0.0151073
865.834	0.0152174
865.913	0.0153291
865.991	0.0153073
866.069	0.0152312
866.147	0.0152003
866.225	0.0153230
866.303	0.0152787
866.381	0.0153741
866.459	0.0153294
866.538	0.0152255
866.616	0.0154258
866.694	0.0154384
866.772	0.0153516
866.850	0.0153677
866.928	0.0153148
867.006	0.0155418
867.084	0.0155463
867.163	0.0155382
867.241	0.0153985
867.319	0.0154716
867.397	0.0154343
867.475	0.0155276
867.553	0.0155330
867.631	0.0156016
867.709	0.0155677
867.788	0.0155774
867.866	0.0154852
867.944	0.0154337
868.022	0.0154680
868.100	0.0154547
868.178	0.0153032
868.256	0.0154053
868.334	0.0153549
868.413	0.0153049
868.491	0.0151495
868.569	0.0152906
868.647	0.0152960
868.725	0.0154412
868.803	0.0153509
868.881	0.0151960
868.959	0.0151653
869.038	0.0153186
869.116	0.0153139
869.194	0.0153195
869.272	0.0153476
869.350	0.0153148
869.428	0.0153172
869.506	0.0153176
869.584	0.0153532
869.663	0.0153540
869.741	0.0153070
869.819	0.0152891
869.897	0.0153553
869.975	0.0154124
870.053	0.0152694
870.131	0.0153631
870.209	0.0154332
870.288	0.0153506
870.366	0.0154699
870.444	0.0153107
870.522	0.0155189
870.600	0.0154640
870.678	0.0152960
870.756	0.0153632
870.834	0.0153891
870.913	0.0154382
870.991	0.0154131
871.069	0.0153670
871.147	0.0154352
871.225	0.0154277
871.303	0.0155067
871.381	0.0156229
871.459	0.0153696
871.538	0.0154662
871.616	0.0156402
871.694	0.0155257
871.772	0.0154827
871.850	0.0156572
871.928	0.0156833
872.006	0.0156934
872.084	0.0156380
872.163	0.0155305
872.241	0.0156067
872.319	0.0154846
872.397	0.0155936
872.475	0.0154752
872.553	0.0154942
872.631	0.0155975
872.709	0.0155761
872.788	0.0155582
872.866	0.0156049
872.944	0.0157703
873.022	0.0154321
873.100	0.0154172
873.178	0.0155607
873.256	0.0155083
873.334	0.0154874
873.413	0.0154375
873.491	0.0154932
873.569	0.0155149
873.647	0.0151392
873.725	0.0154309
873.803	0.0153630
873.881	0.0153395
873.959	0.0153223
874.038	0.0152496
874.116	0.0151663
874.194	0.0154020
874.272	0.0152742
874.350	0.0152153
874.428	0.0151833
874.506	0.0153593
874.584	0.0151621
874.663	0.0151782
874.741	0.0153555
874.819	0.0154261
874.897	0.0152172
874.975	0.0154254
875.053	0.0153078
875.131	0.0154465
875.209	0.0153810
875.288	0.0154006
875.366	0.0154723
875.444	0.0155173
875.522	0.0155529
875.600	0.0154762
875.678	0.0154987
875.756	0.0154295
875.834	0.0154723
875.913	0.0155225
875.991	0.0153983
876.069	0.0153690
876.147	0.0154733
876.225	0.0153535
876.303	0.0154270
876.381	0.0154193
876.459	0.0154081
876.538	0.0152890
876.616	0.0153442
876.694	0.0153474
876.772	0.0152966
876.850	0.0152380
876.928	0.0151363
877.006	0.0150683
877.084	0.0152236
877.163	0.0151590
877.241	0.0150965
877.319	0.0151894
877.397	0.0150926
877.475	0.0152274
877.553	0.0153740
877.631	0.0153147
877.709	0.0153152
877.788	0.0151607
877.866	0.0153532
877.944	0.0154160
878.022	0.0155459
878.100	0.0154844
878.178	0.0154860
878.256	0.0154907
878.334	0.0155177
878.413	0.0155746
878.491	0.0155691
878.569	0.0157001
878.647	0.0156631
878.725	0.0157014
878.803	0.0156300
878.881	0.0155704
878.959	0.0156519
879.038	0.0156103
879.116	0.0155325
879.194	0.0155743
879.272	0.0155249
879.350	0.0154408
879.428	0.0154055
879.506	0.0154404
879.584	0.0155126
879.663	0.0153642
879.741	0.0154643
879.819	0.0153970
879.897	0.0154171
879.975	0.0154816
880.053	0.0155281
880.131	0.0155621
880.209	0.0153782
880.288	0.0155589
880.366	0.0151968
880.444	0.0153616
880.522	0.0154348
880.600	0.0153836
880.678	0.0154718
880.756	0.0153893
880.834	0.0153966
880.913	0.0155293
880.991	0.0153321
881.069	0.0153551
881.147	0.0153886
881.225	0.0154444
881.303	0.0152657
881.381	0.0153655
881.459	0.0153636
881.538	0.0154179
881.616	0.0153333
881.694	0.0153123
881.772	0.0152726
881.850	0.0152364
881.928	0.0153692
882.006	0.0152609
882.084	0.0151488
882.163	0.0151708
882.241	0.0151607
882.319	0.0153304
882.397	0.0151290
882.475	0.0150948
882.553	0.0151011
882.631	0.0149941
882.709	0.0151640
882.788	0.0151341
882.866	0.0151746
882.944	0.0150114
883.022	0.0151727
883.100	0.0152371
883.178	0.0153677
883.256	0.0151673
883.334	0.0152428
883.413	0.0152554
883.491	0.0153372
883.569	0.0152779
883.647	0.0153120
883.725	0.0153455
883.803	0.0154323
883.881	0.0154416
883.959	0.0153747
884.038	0.0153993
884.116	0.0154261
884.194	0.0154678
884.272	0.0154556
884.350	0.0153638
884.428	0.0153611
884.506	0.0154505
884.584	0.0154414
884.663	0.0154639
884.741	0.0154588
884.819	0.0152994
884.897	0.0154393
884.975	0.0152729
885.053	0.0152317
885.131	0.0153004
885.209	0.0153717
885.288	0.0152850
885.366	0.0152943
885.444	0.0152846
885.522	0.0153651
885.600	0.0150900
885.678	0.0152611
885.756	0.0152611
885.834	0.0153436
885.913	0.0152877
885.991	0.0152299
886.069	0.0153264
886.147	0.0152440
886.225	0.0152956
886.303	0.0153107
886.381	0.0153453
886.459	0.0154727
886.538	0.0154435
886.616	0.0153195
886.694	0.0153206
886.772	0.0154432
886.850	0.0153186
886.928	0.0154350
887.006	0.0153328
887.084	0.0155615
887.163	0.0153479
887.241	0.0154646
887.319	0.0155086
887.397	0.0155137
887.475	0.0154745
887.553	0.0155421
887.631	0.0153096
887.709	0.0154602
887.788	0.0156549
887.866	0.0155310
887.944	0.0156310
888.022	0.0156368
888.100	0.0154741
888.178	0.0155600
888.256	0.0155324
888.334	0.0155018
888.413	0.0154737
888.491	0.0154803
888.569	0.0155249
888.647	0.0154780
888.725	0.0154883
888.803	0.0154329
888.881	0.0152309
888.959	0.0153461
889.038	0.0154198
889.116	0.0152879
889.194	0.0152254
889.272	0.0151191
889.350	0.0153355
889.428	0.0153020
889.506	0.0153217
889.584	0.0153356
889.663	0.0152239
889.741	0.0150700
889.819	0.0152483
889.897	0.0151919
889.975	0.0153020
890.053	0.0152032
890.131	0.0153487
890.209	0.0152216
890.288	0.0152028
890.366	0.0150866
890.444	0.0151978
890.522	0.0152930
890.600	0.0151920
890.678	0.0152149
890.756	0.0152259
890.834	0.0150751
890.913	0.0151123
890.991	0.0152715
891.069	0.0152581
891.147	0.0152293
891.225	0.0153366
891.303	0.0153783
891.381	0.0152915
891.459	0.0152451
891.538	0.0153415
891.616	0.0153709
891.694	0.0153756
891.772	0.0154025
891.850	0.0153384
891.928	0.0153642
892.006	0.0152372
892.084	0.0153510
892.163	0.0153989
892.241	0.0153692
892.319	0.0152103
892.397	0.0153620
892.475	0.0154159
892.553	0.0153764
892.631	0.0153268
892.709	0.0153028
892.788	0.0154655
892.866	0.0153212
892.944	0.0153362
893.022	0.0153069
893.100	0.0152518
893.178	0.0151859
893.256	0.0152593
893.334	0.0152122
893.413	0.0153204
893.491	0.0153030
893.569	0.0152718
893.647	0.0153092
893.725	0.0153308
893.803	0.0151364
893.881	0.0152148
893.959	0.0152944
894.038	0.0153191
894.116	0.0152788
894.194	0.0152670
894.272	0.0152235
894.350	0.0152850
894.428	0.0152814
894.506	0.0153141
894.584	0.0153422
894.663	0.0154272
894.741	0.0153508
894.819	0.0153461
894.897	0.0154981
894.975	0.0153545
895.053	0.0153551
895.131	0.0153990
895.209	0.0155894
895.288	0.0155182
895.366	0.0155814
895.444	0.0156122
895.522	0.0154468
895.600	0.0155624
895.678	0.0154069
895.756	0.0154766
895.834	0.0155644
895.913	0.0154636
895.991	0.0154635
896.069	0.0154685
896.147	0.0154357
896.225	0.0154434
896.303	0.0155207
896.381	0.0155667
896.459	0.0155706
896.538	0.0154457
896.616	0.0154234
896.694	0.0153809
896.772	0.0154717
896.850	0.0154735
896.928	0.0154573
897.006	0.0153651
897.084	0.0153037
897.163	0.0151349
897.241	0.0153783
897.319	0.0153888
897.397	0.0151838
897.475	0.0151704
897.553	0.0152446
897.631	0.0150659
897.709	0.0150315
897.788	0.0151392
897.866	0.0150914
897.944	0.0151275
898.022	0.0150299
898.100	0.0151021
898.178	0.0150966
898.256	0.0152264
898.334	0.0151224
898.413	0.0151904
898.491	0.0151225
898.569	0.0151357
898.647	0.0151162
898.725	0.0154616
898.803	0.0154784
898.881	0.0153013
898.959	0.0154937
899.038	0.0155533
899.116	0.0155141
899.194	0.0154997
899.272	0.0155408
899.350	0.0155930
899.428	0.0156603
899.506	0.0154939
899.584	0.0157047
899.663	0.0157481
899.741	0.0154868
899.819	0.0155818
899.897	0.0154907
899.975	0.0156829
900.053	0.0156127
900.131	0.0155882
900.209	0.0155428
900.288	0.0155310
900.366	0.0154117
900.444	0.0154408
900.522	0.0154198
900.600	0.0154733
900.678	0.0153756
900.756	0.0153413
900.834	0.0153308
900.913	0.0154063
900.991	0.0152856
901.069	0.0153262
901.147	0.0154561
901.225	0.0153471
901.303	0.0154231
901.381	0.0154367
901.459	0.0153395
901.538	0.0154659
901.616	0.0154323
901.694	0.0153632
901.772	0.0153578
901.850	0.0154149
901.928	0.0152834
902.006	0.0153956
902.084	0.0154010
902.163	0.0153155
902.241	0.0153159
902.319	0.0152889
902.397	0.0154375
902.475	0.0153475
902.553	0.0152773
902.631	0.0152523
902.709	0.0153373
902.788	0.0152701
902.866	0.0153778
902.944	0.0155038
903.022	0.0156358
903.100	0.0155357
903.178	0.0154333
903.256	0.0155388
903.334	0.0155148
903.413	0.0155809
903.491	0.0154945
903.569	0.0154301
903.647	0.0155999
903.725	0.0155389
903.803	0.0155043
903.881	0.0154906
903.959	0.0154781
904.038	0.0154622
904.116	0.0154458
904.194	0.0155788
904.272	0.0154886
904.350	0.0155212
904.428	0.0154912
904.506	0.0154491
904.584	0.0154148
904.663	0.0155078
904.741	0.0153844
904.819	0.0153376
904.897	0.0154172
904.975	0.0154248
905.053	0.0153695
905.131	0.0153515
905.209	0.0151428
905.288	0.0152035
905.366	0.0151601
905.444	0.0150669
905.522	0.0152597
905.600	0.0152801
905.678	0.0151056
905.756	0.0151105
905.834	0.0152077
905.913	0.0153140
905.991	0.0152147
906.069	0.0150626
906.147	0.0152037
906.225	0.0153154
906.303	0.0153174
906.381	0.0152310
906.459	0.0152737
906.538	0.0151767
906.616	0.0152170
906.694	0.0152650
906.772	0.0153363
906.850	0.0152410
906.928	0.0153052
907.006	0.0153237
907.084	0.0155010
907.163	0.0154195
907.241	0.0153938
907.319	0.0152433
907.397	0.0154295
907.475	0.0154036
907.553	0.0153947
907.631	0.0153870
907.709	0.0154784
907.788	0.0154324
907.866	0.0154878
907.944	0.0153832
908.022	0.0154628
908.100	0.0154045
908.178	0.0155641
908.256	0.0153486
908.334	0.0154186
908.413	0.0154174
908.491	0.0153701
908.569	0.0153837
908.647	0.0154298
908.725	0.0154006
908.803	0.0154478
908.881	0.0154287
908.959	0.0153891
909.038	0.0155507
909.116	0.0155100
909.194	0.0154057
909.272	0.0153552
909.350	0.0153941
909.428	0.0153039
909.506	0.0153786
909.584	0.0152972
909.663	0.0153275
909.741	0.0153008
909.819	0.0152714
909.897	0.0153101
909.975	0.0152809
910.053	0.0154457
910.131	0.0152745
910.209	0.0152950
910.288	0.0152681
910.366	0.0153173
910.444	0.0153062
910.522	0.0152525
910.600	0.0151619
910.678	0.0152204
910.756	0.0153849
910.834	0.0153139
910.913	0.0152721
910.991	0.0152070
911.069	0.0151493
911.147	0.0153463
911.225	0.0151508
911.303	0.0152098
911.381	0.0152783
911.459	0.0151935
911.538	0.0151205
911.616	0.0151642
911.694	0.0152367
911.772	0.0152624
911.850	0.0152017
911.928	0.0151797
912.006	0.0151522
912.084	0.0151258
912.163	0.0153533
912.241	0.0153622
912.319	0.0151301
912.397	0.0151698
912.475	0.0151580
912.553	0.0152241
912.631	0.0153262
912.709	0.0153194
912.788	0.0153255
912.866	0.0152275
912.944	0.0151364
913.022	0.0151300
913.100	0.0151532
913.178	0.0152496
913.256	0.0150746
913.334	0.0152914
913.413	0.0151675
913.491	0.0150477
913.569	0.0151934
913.647	0.0150956
913.725	0.0152177
913.803	0.0153149
913.881	0.0154547
913.959	0.0153086
914.038	0.0153156
914.116	0.0150621
914.194	0.0151948
914.272	0.0152473
914.350	0.0151974
914.428	0.0152157
914.506	0.0151606
914.584	0.0153699
914.663	0.0151219
914.741	0.0150886
914.819	0.0151604
914.897	0.0151888
914.975	0.0152527
915.053	0.0151287
915.131	0.0152164
915.209	0.0153727
915.288	0.0152916
915.366	0.0151022
915.444	0.0151003
915.522	0.0152915
915.600	0.0152415
915.678	0.0153690
915.756	0.0153895
915.834	0.0153064
915.913	0.0152396
915.991	0.0153073
916.069	0.0153379
916.147	0.0152737
916.225	0.0153020
916.303	0.0152827
916.381	0.0153809
916.459	0.0153449
916.538	0.0154228
916.616	0.0153881
916.694	0.0155122
916.772	0.0154223
916.850	0.0152474
916.928	0.0154090
917.006	0.0155523
917.084	0.0154507
917.163	0.0155133
917.241	0.0153576
917.319	0.0154758
917.397	0.0154079
917.475	0.0154221
917.553	0.0155138
917.631	0.0154835
917.709	0.0152719
917.788	0.0154556
917.866	0.0153569
917.944	0.0153864
918.022	0.0154489
918.100	0.0154266
918.178	0.0153687
918.256	0.0154012
918.334	0.0154517
918.413	0.0154668
918.491	0.0155067
918.569	0.0154231
918.647	0.0152954
918.725	0.0153321
918.803	0.0152813
918.881	0.0152153
918.959	0.0152524
919.038	0.0153516
919.116	0.0154498
919.194	0.0152909
919.272	0.0152327
919.350	0.0151297
919.428	0.0152962
919.506	0.0153839
919.584	0.0153635
919.663	0.0154526
919.741	0.0153659
919.819	0.0153964
919.897	0.0154730
