05/20/2022	21:15:29	Ver.	4.1	UNKNOWN
Optical Delay	599.975067	Delta X		0.078125	Sweeps	1	Scan Rate	0/0
Coordinates	Axis 1	NaN	Axis 2	NaN	Axis 3	NaN	Axis 4	NaN	Axis 5	NaN	Axis 6	0.000000
TX Power	0.000000	RX Power	0.000000

599.975	0.0153544
600.053	0.0153678
600.131	0.0153399
600.209	0.0152554
600.288	0.0153875
600.366	0.0153546
600.444	0.0153636
600.522	0.0154153
600.600	0.0152903
600.678	0.0153588
600.756	0.0154759
600.834	0.0154102
600.913	0.0153497
600.991	0.0153938
601.069	0.0154315
601.147	0.0155164
601.225	0.0154256
601.303	0.0153802
601.381	0.0153001
601.459	0.0154465
601.538	0.0154984
601.616	0.0153967
601.694	0.0154410
601.772	0.0154373
601.850	0.0154384
601.928	0.0154517
602.006	0.0155666
602.084	0.0154707
602.163	0.0154607
602.241	0.0152603
602.319	0.0153936
602.397	0.0154013
602.475	0.0154286
602.553	0.0154404
602.631	0.0154582
602.709	0.0155083
602.788	0.0154488
602.866	0.0153571
602.944	0.0154683
603.022	0.0155090
603.100	0.0154410
603.178	0.0154386
603.256	0.0153504
603.334	0.0152756
603.413	0.0154327
603.491	0.0154224
603.569	0.0153520
603.647	0.0153072
603.725	0.0155047
603.803	0.0153591
603.881	0.0153812
603.959	0.0154385
604.038	0.0154757
604.116	0.0154908
604.194	0.0155502
604.272	0.0154569
604.350	0.0154815
604.428	0.0156343
604.506	0.0154885
604.584	0.0153862
604.663	0.0156006
604.741	0.0155711
604.819	0.0156197
604.897	0.0154475
604.975	0.0156202
605.053	0.0155566
605.131	0.0155545
605.209	0.0154974
605.288	0.0156464
605.366	0.0155865
605.444	0.0155721
605.522	0.0157156
605.600	0.0156147
605.678	0.0155099
605.756	0.0155756
605.834	0.0155334
605.913	0.0155441
605.991	0.0155241
606.069	0.0155575
606.147	0.0154430
606.225	0.0155766
606.303	0.0154193
606.381	0.0155940
606.459	0.0155344
606.538	0.0154829
606.616	0.0155095
606.694	0.0154121
606.772	0.0154981
606.850	0.0154271
606.928	0.0153706
607.006	0.0155083
607.084	0.0156143
607.163	0.0154906
607.241	0.0154980
607.319	0.0155074
607.397	0.0155447
607.475	0.0155172
607.553	0.0154736
607.631	0.0156616
607.709	0.0155952
607.788	0.0156399
607.866	0.0155135
607.944	0.0155785
608.022	0.0155647
608.100	0.0155797
608.178	0.0156402
608.256	0.0155820
608.334	0.0155771
608.413	0.0156487
608.491	0.0155228
608.569	0.0155890
608.647	0.0155885
608.725	0.0156502
608.803	0.0157404
608.881	0.0155524
608.959	0.0157134
609.038	0.0158111
609.116	0.0156747
609.194	0.0157784
609.272	0.0157691
609.350	0.0157620
609.428	0.0157518
609.506	0.0157967
609.584	0.0156709
609.663	0.0157394
609.741	0.0157167
609.819	0.0156917
609.897	0.0157814
609.975	0.0157919
610.053	0.0157602
610.131	0.0158246
610.209	0.0158262
610.288	0.0157158
610.366	0.0158910
610.444	0.0156870
610.522	0.0156744
610.600	0.0156573
610.678	0.0158279
610.756	0.0157715
610.834	0.0158273
610.913	0.0158170
610.991	0.0156635
611.069	0.0158031
611.147	0.0156570
611.225	0.0158482
611.303	0.0155549
611.381	0.0157304
611.459	0.0156017
611.538	0.0157090
611.616	0.0156645
611.694	0.0156611
611.772	0.0157144
611.850	0.0156496
611.928	0.0157195
612.006	0.0157189
612.084	0.0157384
612.163	0.0155703
612.241	0.0156861
612.319	0.0158446
612.397	0.0156248
612.475	0.0156227
612.553	0.0157595
612.631	0.0156559
612.709	0.0156291
612.788	0.0156003
612.866	0.0156487
612.944	0.0156162
613.022	0.0155350
613.100	0.0156076
613.178	0.0156849
613.256	0.0156207
613.334	0.0156030
613.413	0.0156049
613.491	0.0156474
613.569	0.0155418
613.647	0.0155862
613.725	0.0157098
613.803	0.0155864
613.881	0.0155263
613.959	0.0155496
614.038	0.0156815
614.116	0.0155260
614.194	0.0155414
614.272	0.0154980
614.350	0.0155284
614.428	0.0155088
614.506	0.0155350
614.584	0.0153560
614.663	0.0153945
614.741	0.0153780
614.819	0.0154188
614.897	0.0154504
614.975	0.0153729
615.053	0.0156621
615.131	0.0154997
615.209	0.0155029
615.288	0.0154535
615.366	0.0154782
615.444	0.0155666
615.522	0.0154775
615.600	0.0154188
615.678	0.0154899
615.756	0.0155018
615.834	0.0154875
615.913	0.0155379
615.991	0.0155936
616.069	0.0155041
616.147	0.0154551
616.225	0.0153880
616.303	0.0154296
616.381	0.0154211
616.459	0.0154488
616.538	0.0155725
616.616	0.0156057
616.694	0.0154869
616.772	0.0154781
616.850	0.0154864
616.928	0.0156130
617.006	0.0156307
617.084	0.0156004
617.163	0.0155631
617.241	0.0155850
617.319	0.0155389
617.397	0.0156047
617.475	0.0155530
617.553	0.0155869
617.631	0.0156346
617.709	0.0156785
617.788	0.0155702
617.866	0.0155673
617.944	0.0155089
618.022	0.0155458
618.100	0.0154420
618.178	0.0155090
618.256	0.0155611
618.334	0.0155607
618.413	0.0155844
618.491	0.0154239
618.569	0.0155635
618.647	0.0155637
618.725	0.0154877
618.803	0.0154826
618.881	0.0155819
618.959	0.0155578
619.038	0.0155756
619.116	0.0155635
619.194	0.0154833
619.272	0.0155907
619.350	0.0155537
619.428	0.0155083
619.506	0.0155192
619.584	0.0155981
619.663	0.0154786
619.741	0.0156351
619.819	0.0156484
619.897	0.0154773
619.975	0.0155446
620.053	0.0156123
620.131	0.0155774
620.209	0.0155524
620.288	0.0154082
620.366	0.0154942
620.444	0.0155132
620.522	0.0154211
620.600	0.0155720
620.678	0.0155307
620.756	0.0154418
620.834	0.0155220
620.913	0.0153477
620.991	0.0154333
621.069	0.0154679
621.147	0.0153919
621.225	0.0153874
621.303	0.0154096
621.381	0.0153431
621.459	0.0153608
621.538	0.0154813
621.616	0.0154910
621.694	0.0153935
621.772	0.0153915
621.850	0.0152850
621.928	0.0153653
622.006	0.0154276
622.084	0.0154394
622.163	0.0153779
622.241	0.0152551
622.319	0.0153394
622.397	0.0152871
622.475	0.0152561
622.553	0.0153576
622.631	0.0154060
622.709	0.0152847
622.788	0.0153077
622.866	0.0152735
622.944	0.0152929
623.022	0.0152755
623.100	0.0153112
623.178	0.0152595
623.256	0.0154080
623.334	0.0153915
623.413	0.0153494
623.491	0.0153017
623.569	0.0154688
623.647	0.0154552
623.725	0.0153072
623.803	0.0153707
623.881	0.0154382
623.959	0.0155275
624.038	0.0153896
624.116	0.0153417
624.194	0.0152688
624.272	0.0154508
624.350	0.0153603
624.428	0.0153349
624.506	0.0154229
624.584	0.0154231
624.663	0.0154103
624.741	0.0154099
624.819	0.0153853
624.897	0.0154084
624.975	0.0153728
625.053	0.0153175
625.131	0.0153438
625.209	0.0153914
625.288	0.0153316
625.366	0.0153697
625.444	0.0153196
625.522	0.0152522
625.600	0.0152272
625.678	0.0152769
625.756	0.0153644
625.834	0.0153523
625.913	0.0152662
625.991	0.0152309
626.069	0.0152740
626.147	0.0154510
626.225	0.0154751
626.303	0.0153950
626.381	0.0153995
626.459	0.0155583
626.538	0.0154002
626.616	0.0152612
626.694	0.0153296
626.772	0.0153741
626.850	0.0153535
626.928	0.0152596
627.006	0.0153709
627.084	0.0153313
627.163	0.0154140
627.241	0.0153490
627.319	0.0153978
627.397	0.0154862
627.475	0.0155212
627.553	0.0153951
627.631	0.0152574
627.709	0.0154666
627.788	0.0153639
627.866	0.0153823
627.944	0.0152954
628.022	0.0152861
628.100	0.0154638
628.178	0.0154359
628.256	0.0153817
628.334	0.0153481
628.413	0.0153007
628.491	0.0155026
628.569	0.0154608
628.647	0.0151997
628.725	0.0153631
628.803	0.0154214
628.881	0.0154443
628.959	0.0152936
629.038	0.0153851
629.116	0.0154357
629.194	0.0153699
629.272	0.0154517
629.350	0.0154235
629.428	0.0156093
629.506	0.0154427
629.584	0.0155489
629.663	0.0154906
629.741	0.0154442
629.819	0.0156323
629.897	0.0154864
629.975	0.0155439
630.053	0.0156137
630.131	0.0156256
630.209	0.0156387
630.288	0.0156246
630.366	0.0155667
630.444	0.0155525
630.522	0.0156648
630.600	0.0154227
630.678	0.0155131
630.756	0.0156416
630.834	0.0156725
630.913	0.0156177
630.991	0.0155402
631.069	0.0154458
631.147	0.0155818
631.225	0.0155969
631.303	0.0154775
631.381	0.0155593
631.459	0.0154929
631.538	0.0154665
631.616	0.0156063
631.694	0.0155508
631.772	0.0157068
631.850	0.0156224
631.928	0.0156921
632.006	0.0157045
632.084	0.0156454
632.163	0.0157189
632.241	0.0157500
632.319	0.0155531
632.397	0.0157048
632.475	0.0156544
632.553	0.0157523
632.631	0.0155897
632.709	0.0156864
632.788	0.0157860
632.866	0.0157205
632.944	0.0155717
633.022	0.0156235
633.100	0.0156410
633.178	0.0155869
633.256	0.0156460
633.334	0.0155373
633.413	0.0155235
633.491	0.0156500
633.569	0.0155380
633.647	0.0154438
633.725	0.0155360
633.803	0.0155214
633.881	0.0154713
633.959	0.0155594
634.038	0.0154413
634.116	0.0155458
634.194	0.0155571
634.272	0.0155873
634.350	0.0155004
634.428	0.0156373
634.506	0.0156308
634.584	0.0154091
634.663	0.0156650
634.741	0.0157332
634.819	0.0156052
634.897	0.0155683
634.975	0.0156487
635.053	0.0156360
635.131	0.0157179
635.209	0.0156389
635.288	0.0156357
635.366	0.0155875
635.444	0.0155546
635.522	0.0155090
635.600	0.0155831
635.678	0.0154843
635.756	0.0155119
635.834	0.0155313
635.913	0.0154684
635.991	0.0155721
636.069	0.0153233
636.147	0.0155187
636.225	0.0156268
636.303	0.0156002
636.381	0.0154920
636.459	0.0156460
636.538	0.0155042
636.616	0.0155762
636.694	0.0156102
636.772	0.0156920
636.850	0.0155241
636.928	0.0156181
637.006	0.0156849
637.084	0.0155546
637.163	0.0156061
637.241	0.0156699
637.319	0.0156349
637.397	0.0155156
637.475	0.0156071
637.553	0.0153997
637.631	0.0154201
637.709	0.0155209
637.788	0.0154772
637.866	0.0155207
637.944	0.0154523
638.022	0.0156742
638.100	0.0155027
638.178	0.0154892
638.256	0.0155277
638.334	0.0155531
638.413	0.0155393
638.491	0.0154142
638.569	0.0154813
638.647	0.0156643
638.725	0.0155869
638.803	0.0155807
638.881	0.0155097
638.959	0.0156062
639.038	0.0156082
639.116	0.0155069
639.194	0.0155680
639.272	0.0154608
639.350	0.0156023
639.428	0.0155006
639.506	0.0155993
639.584	0.0155695
639.663	0.0156071
639.741	0.0156487
639.819	0.0154798
639.897	0.0155461
639.975	0.0154614
640.053	0.0154797
640.131	0.0155058
640.209	0.0156171
640.288	0.0156302
640.366	0.0155247
640.444	0.0154448
640.522	0.0154716
640.600	0.0155141
640.678	0.0157071
640.756	0.0156427
640.834	0.0155015
640.913	0.0155140
640.991	0.0156824
641.069	0.0155048
641.147	0.0155618
641.225	0.0155127
641.303	0.0155659
641.381	0.0156857
641.459	0.0154822
641.538	0.0156595
641.616	0.0155956
641.694	0.0155344
641.772	0.0155520
641.850	0.0155543
641.928	0.0155009
642.006	0.0154558
642.084	0.0154864
642.163	0.0155585
642.241	0.0155024
642.319	0.0154357
642.397	0.0154861
642.475	0.0155087
642.553	0.0155398
642.631	0.0155170
642.709	0.0154396
642.788	0.0154425
642.866	0.0154199
642.944	0.0154652
643.022	0.0155124
643.100	0.0155183
643.178	0.0154162
643.256	0.0153425
643.334	0.0154536
643.413	0.0155128
643.491	0.0153568
643.569	0.0155137
643.647	0.0155759
643.725	0.0153895
643.803	0.0154585
643.881	0.0154756
643.959	0.0153465
644.038	0.0152792
644.116	0.0152979
644.194	0.0154453
644.272	0.0154482
644.350	0.0154340
644.428	0.0154636
644.506	0.0154430
644.584	0.0155334
644.663	0.0154783
644.741	0.0153264
644.819	0.0153153
644.897	0.0153191
644.975	0.0154408
645.053	0.0154106
645.131	0.0153564
645.209	0.0155115
645.288	0.0154626
645.366	0.0154150
645.444	0.0153444
645.522	0.0153398
645.600	0.0153543
645.678	0.0152895
645.756	0.0153739
645.834	0.0153355
645.913	0.0152796
645.991	0.0154367
646.069	0.0154652
646.147	0.0153208
646.225	0.0152516
646.303	0.0153535
646.381	0.0153415
646.459	0.0154007
646.538	0.0151711
646.616	0.0153136
646.694	0.0152340
646.772	0.0153307
646.850	0.0153209
646.928	0.0152663
647.006	0.0151447
647.084	0.0152774
647.163	0.0152220
647.241	0.0151814
647.319	0.0153625
647.397	0.0153854
647.475	0.0153848
647.553	0.0152805
647.631	0.0152682
647.709	0.0153545
647.788	0.0153465
647.866	0.0153635
647.944	0.0153305
648.022	0.0153280
648.100	0.0154065
648.178	0.0155393
648.256	0.0155074
648.334	0.0154853
648.413	0.0154065
648.491	0.0154957
648.569	0.0155022
648.647	0.0154236
648.725	0.0155921
648.803	0.0156815
648.881	0.0156331
648.959	0.0156611
649.038	0.0155638
649.116	0.0155929
649.194	0.0157264
649.272	0.0155173
649.350	0.0155670
649.428	0.0156080
649.506	0.0156948
649.584	0.0156355
649.663	0.0154513
649.741	0.0155602
649.819	0.0154099
649.897	0.0156260
649.975	0.0155673
650.053	0.0155133
650.131	0.0154539
650.209	0.0153867
650.288	0.0154166
650.366	0.0155087
650.444	0.0155099
650.522	0.0154594
650.600	0.0154535
650.678	0.0154765
650.756	0.0153485
650.834	0.0152953
650.913	0.0153410
650.991	0.0155469
651.069	0.0155968
651.147	0.0153022
651.225	0.0154889
651.303	0.0156244
651.381	0.0154385
651.459	0.0153983
651.538	0.0155685
651.616	0.0154724
651.694	0.0154858
651.772	0.0154894
651.850	0.0154762
651.928	0.0155339
652.006	0.0155701
652.084	0.0154420
652.163	0.0155315
652.241	0.0156200
652.319	0.0158247
652.397	0.0155846
652.475	0.0156455
652.553	0.0156124
652.631	0.0157795
652.709	0.0157893
652.788	0.0156592
652.866	0.0157515
652.944	0.0157019
653.022	0.0158019
653.100	0.0157702
653.178	0.0157616
653.256	0.0156946
653.334	0.0157320
653.413	0.0157931
653.491	0.0157693
653.569	0.0158376
653.647	0.0158590
653.725	0.0158746
653.803	0.0157450
653.881	0.0158524
653.959	0.0159025
654.038	0.0159404
654.116	0.0159165
654.194	0.0158690
654.272	0.0158532
654.350	0.0159622
654.428	0.0158995
654.506	0.0160199
654.584	0.0158537
654.663	0.0158668
654.741	0.0159342
654.819	0.0158362
654.897	0.0158902
654.975	0.0158169
655.053	0.0156725
655.131	0.0158076
655.209	0.0158910
655.288	0.0156297
655.366	0.0155492
655.444	0.0156007
655.522	0.0155466
655.600	0.0154868
655.678	0.0153826
655.756	0.0155157
655.834	0.0154255
655.913	0.0156047
655.991	0.0154217
656.069	0.0153761
656.147	0.0154543
656.225	0.0154190
656.303	0.0155002
656.381	0.0154807
656.459	0.0154954
656.538	0.0154378
656.616	0.0154372
656.694	0.0154569
656.772	0.0154773
656.850	0.0153384
656.928	0.0153835
657.006	0.0153611
657.084	0.0153490
657.163	0.0155713
657.241	0.0152479
657.319	0.0153719
657.397	0.0153426
657.475	0.0152615
657.553	0.0150719
657.631	0.0152739
657.709	0.0152472
657.788	0.0152956
657.866	0.0153361
657.944	0.0153645
658.022	0.0153260
658.100	0.0153236
658.178	0.0152397
658.256	0.0153087
658.334	0.0153455
658.413	0.0154518
658.491	0.0152914
658.569	0.0153622
658.647	0.0154490
658.725	0.0154422
658.803	0.0154442
658.881	0.0154813
658.959	0.0154956
659.038	0.0155607
659.116	0.0155663
659.194	0.0155540
659.272	0.0155075
659.350	0.0156120
659.428	0.0155298
659.506	0.0155231
659.584	0.0155069
659.663	0.0155424
659.741	0.0157533
659.819	0.0156993
659.897	0.0155849
659.975	0.0154858
660.053	0.0154599
660.131	0.0155170
660.209	0.0154962
660.288	0.0155091
660.366	0.0154712
660.444	0.0155545
660.522	0.0155430
660.600	0.0155546
660.678	0.0155679
660.756	0.0154865
660.834	0.0156168
660.913	0.0155112
660.991	0.0155133
661.069	0.0156303
661.147	0.0155606
661.225	0.0155001
661.303	0.0154934
661.381	0.0155421
661.459	0.0152995
661.538	0.0153211
661.616	0.0153604
661.694	0.0154682
661.772	0.0154164
661.850	0.0152868
661.928	0.0153563
662.006	0.0153889
662.084	0.0153354
662.163	0.0154240
662.241	0.0152185
662.319	0.0154241
662.397	0.0153713
662.475	0.0153717
662.553	0.0155116
662.631	0.0155526
662.709	0.0155569
662.788	0.0153825
662.866	0.0154617
662.944	0.0153708
663.022	0.0156144
663.100	0.0154805
663.178	0.0154746
663.256	0.0153241
663.334	0.0154965
663.413	0.0154784
663.491	0.0155389
663.569	0.0155486
663.647	0.0153917
663.725	0.0154349
663.803	0.0154839
663.881	0.0155204
663.959	0.0154673
664.038	0.0155090
664.116	0.0154465
664.194	0.0155259
664.272	0.0157098
664.350	0.0155341
664.428	0.0155610
664.506	0.0154872
664.584	0.0154588
664.663	0.0155353
664.741	0.0155661
664.819	0.0155576
664.897	0.0156783
664.975	0.0155347
665.053	0.0154446
665.131	0.0154929
665.209	0.0153630
665.288	0.0154518
665.366	0.0155384
665.444	0.0154314
665.522	0.0153026
665.600	0.0154833
665.678	0.0155534
665.756	0.0154683
665.834	0.0153938
665.913	0.0155956
665.991	0.0155010
666.069	0.0154368
666.147	0.0154410
666.225	0.0153510
666.303	0.0155206
666.381	0.0154825
666.459	0.0155338
666.538	0.0155730
666.616	0.0154610
666.694	0.0155732
666.772	0.0155734
666.850	0.0155255
666.928	0.0156247
667.006	0.0155476
667.084	0.0156047
667.163	0.0157047
667.241	0.0156252
667.319	0.0156152
667.397	0.0158001
667.475	0.0157406
667.553	0.0157870
667.631	0.0156870
667.709	0.0156671
667.788	0.0156593
667.866	0.0156595
667.944	0.0155742
668.022	0.0155859
668.100	0.0157282
668.178	0.0154685
668.256	0.0153355
668.334	0.0152752
668.413	0.0151451
668.491	0.0153600
668.569	0.0152112
668.647	0.0152703
668.725	0.0152465
668.803	0.0152747
668.881	0.0152559
668.959	0.0152805
669.038	0.0152426
669.116	0.0152741
669.194	0.0152746
669.272	0.0153487
669.350	0.0154709
669.428	0.0154929
669.506	0.0156550
669.584	0.0156848
669.663	0.0156708
669.741	0.0156895
669.819	0.0157322
669.897	0.0159233
669.975	0.0158668
670.053	0.0157536
670.131	0.0159825
670.209	0.0158619
670.288	0.0158340
670.366	0.0158711
670.444	0.0158192
670.522	0.0157935
670.600	0.0158378
670.678	0.0158897
670.756	0.0158519
670.834	0.0158286
670.913	0.0159255
670.991	0.0158926
671.069	0.0158690
671.147	0.0157785
671.225	0.0157304
671.303	0.0155207
671.381	0.0155496
671.459	0.0157076
671.538	0.0153910
671.616	0.0153133
671.694	0.0152925
671.772	0.0151662
671.850	0.0151302
671.928	0.0149857
672.006	0.0148981
672.084	0.0151009
672.163	0.0148270
672.241	0.0149020
672.319	0.0148113
672.397	0.0149174
672.475	0.0147038
672.553	0.0149001
672.631	0.0149250
672.709	0.0150951
672.788	0.0151942
672.866	0.0151134
672.944	0.0152203
673.022	0.0154206
673.100	0.0154184
673.178	0.0157884
673.256	0.0158751
673.334	0.0159032
673.413	0.0161425
673.491	0.0162176
673.569	0.0164631
673.647	0.0163966
673.725	0.0165179
673.803	0.0167625
673.881	0.0169382
673.959	0.0171530
674.038	0.0171431
674.116	0.0171664
674.194	0.0171016
674.272	0.0169873
674.350	0.0169913
674.428	0.0170081
674.506	0.0169675
674.584	0.0167542
674.663	0.0166574
674.741	0.0165244
674.819	0.0162543
674.897	0.0161447
674.975	0.0159436
675.053	0.0155697
675.131	0.0154073
675.209	0.0152172
675.288	0.0150524
675.366	0.0147421
675.444	0.0146206
675.522	0.0143600
675.600	0.0141726
675.678	0.0140004
675.756	0.0140923
675.834	0.0140209
675.913	0.0139394
675.991	0.0138916
676.069	0.0139120
676.147	0.0140595
676.225	0.0139826
676.303	0.0141594
676.381	0.0141537
676.459	0.0143439
676.538	0.0145908
676.616	0.0148673
676.694	0.0149399
676.772	0.0152564
676.850	0.0153889
676.928	0.0156973
677.006	0.0160466
677.084	0.0162614
677.163	0.0163843
677.241	0.0168672
677.319	0.0170740
677.397	0.0170922
677.475	0.0173679
677.553	0.0176026
677.631	0.0175989
677.709	0.0177545
677.788	0.0177054
677.866	0.0176983
677.944	0.0177267
678.022	0.0175601
678.100	0.0175288
678.178	0.0173338
678.256	0.0171311
678.334	0.0168287
678.413	0.0165743
678.491	0.0164841
678.569	0.0161553
678.647	0.0159215
678.725	0.0157533
678.803	0.0154054
678.881	0.0152072
678.959	0.0148871
679.038	0.0146284
679.116	0.0142474
679.194	0.0140668
679.272	0.0139050
679.350	0.0136726
679.428	0.0135418
679.506	0.0134014
679.584	0.0134201
679.663	0.0132774
679.741	0.0132679
679.819	0.0133021
679.897	0.0133546
679.975	0.0136195
680.053	0.0136969
680.131	0.0137964
680.209	0.0140450
680.288	0.0142336
680.366	0.0144637
680.444	0.0148203
680.522	0.0148856
680.600	0.0149681
680.678	0.0152262
680.756	0.0154062
680.834	0.0156232
680.913	0.0158804
680.991	0.0159573
681.069	0.0160138
681.147	0.0160805
681.225	0.0161844
681.303	0.0164262
681.381	0.0164284
681.459	0.0164771
681.538	0.0164925
681.616	0.0166478
681.694	0.0165078
681.772	0.0166977
681.850	0.0167053
681.928	0.0165854
682.006	0.0165709
682.084	0.0164776
682.163	0.0164565
682.241	0.0164114
682.319	0.0162395
682.397	0.0163019
682.475	0.0162059
682.553	0.0161906
682.631	0.0160819
682.709	0.0160464
682.788	0.0158674
682.866	0.0159155
682.944	0.0159451
683.022	0.0161319
683.100	0.0159981
683.178	0.0160052
683.256	0.0160612
683.334	0.0159269
683.413	0.0158828
683.491	0.0158746
683.569	0.0157674
683.647	0.0158245
683.725	0.0158196
683.803	0.0155916
683.881	0.0154660
683.959	0.0155048
684.038	0.0154083
684.116	0.0153492
684.194	0.0152199
684.272	0.0149377
684.350	0.0147774
684.428	0.0148753
684.506	0.0148064
684.584	0.0147969
684.663	0.0147359
684.741	0.0145340
684.819	0.0144444
684.897	0.0143799
684.975	0.0143860
685.053	0.0142106
685.131	0.0143764
685.209	0.0146352
685.288	0.0145673
685.366	0.0144908
685.444	0.0145850
685.522	0.0147395
685.600	0.0148885
685.678	0.0149028
685.756	0.0150324
685.834	0.0151049
685.913	0.0153552
685.991	0.0155003
686.069	0.0156153
686.147	0.0157583
686.225	0.0157936
686.303	0.0161239
686.381	0.0162762
686.459	0.0162066
686.538	0.0162704
686.616	0.0163078
686.694	0.0164141
686.772	0.0165434
686.850	0.0163788
686.928	0.0163907
687.006	0.0164542
687.084	0.0164536
687.163	0.0162525
687.241	0.0164634
687.319	0.0162868
687.397	0.0161708
687.475	0.0162764
687.553	0.0163863
687.631	0.0161838
687.709	0.0161403
687.788	0.0160774
687.866	0.0160664
687.944	0.0159760
688.022	0.0158636
688.100	0.0158153
688.178	0.0158328
688.256	0.0157056
688.334	0.0155309
688.413	0.0156078
688.491	0.0155158
688.569	0.0153341
688.647	0.0152991
688.725	0.0153543
688.803	0.0153445
688.881	0.0151779
688.959	0.0151721
689.038	0.0150463
689.116	0.0152268
689.194	0.0152026
689.272	0.0151189
689.350	0.0150462
689.428	0.0149299
689.506	0.0147605
689.584	0.0147475
689.663	0.0147274
689.741	0.0147057
689.819	0.0145460
689.897	0.0145172
689.975	0.0143359
690.053	0.0143858
690.131	0.0145843
690.209	0.0144610
690.288	0.0144629
690.366	0.0144942
690.444	0.0144818
690.522	0.0147031
690.600	0.0147868
690.678	0.0149239
690.756	0.0150783
690.834	0.0153687
690.913	0.0155038
690.991	0.0156313
691.069	0.0159368
691.147	0.0162278
691.225	0.0163312
691.303	0.0164293
691.381	0.0166252
691.459	0.0167881
691.538	0.0169394
691.616	0.0169308
691.694	0.0171125
691.772	0.0169958
691.850	0.0170692
691.928	0.0170642
692.006	0.0168859
692.084	0.0169143
692.163	0.0169038
692.241	0.0167680
692.319	0.0165224
692.397	0.0164273
692.475	0.0163113
692.553	0.0162035
692.631	0.0159003
692.709	0.0156313
692.788	0.0153297
692.866	0.0151103
692.944	0.0148254
693.022	0.0145004
693.100	0.0144083
693.178	0.0141133
693.256	0.0138066
693.334	0.0137125
693.413	0.0136680
693.491	0.0134011
693.569	0.0135138
693.647	0.0135249
693.725	0.0134309
693.803	0.0135248
693.881	0.0137674
693.959	0.0140047
694.038	0.0141606
694.116	0.0141547
694.194	0.0144386
694.272	0.0146798
694.350	0.0149536
694.428	0.0152475
694.506	0.0154292
694.584	0.0157552
694.663	0.0160251
694.741	0.0163326
694.819	0.0165255
694.897	0.0167040
694.975	0.0170628
695.053	0.0172874
695.131	0.0174464
695.209	0.0175962
695.288	0.0176179
695.366	0.0176465
695.444	0.0176897
695.522	0.0178336
695.600	0.0178157
695.678	0.0176737
695.756	0.0174786
695.834	0.0174516
695.913	0.0171593
695.991	0.0170256
696.069	0.0167545
696.147	0.0164594
696.225	0.0160975
696.303	0.0156937
696.381	0.0156543
696.459	0.0152503
696.538	0.0149974
696.616	0.0146126
696.694	0.0145023
696.772	0.0142159
696.850	0.0141620
696.928	0.0139700
697.006	0.0138352
697.084	0.0136971
697.163	0.0137230
697.241	0.0136023
697.319	0.0135794
697.397	0.0135914
697.475	0.0135905
697.553	0.0137648
697.631	0.0138759
697.709	0.0140607
697.788	0.0141497
697.866	0.0144117
697.944	0.0146328
698.022	0.0148342
698.100	0.0150956
698.178	0.0153131
698.256	0.0156312
698.334	0.0157855
698.413	0.0159628
698.491	0.0163119
698.569	0.0164165
698.647	0.0165434
698.725	0.0166463
698.803	0.0169138
698.881	0.0169167
698.959	0.0170078
699.038	0.0170812
699.116	0.0171779
699.194	0.0172598
699.272	0.0171861
699.350	0.0171016
699.428	0.0170799
699.506	0.0168134
699.584	0.0167238
699.663	0.0165603
699.741	0.0164252
699.819	0.0162403
699.897	0.0160627
699.975	0.0159389
700.053	0.0157052
700.131	0.0153407
700.209	0.0151379
700.288	0.0150475
700.366	0.0148092
700.444	0.0145953
700.522	0.0143779
700.600	0.0142210
700.678	0.0140897
700.756	0.0138916
700.834	0.0137475
700.913	0.0138305
700.991	0.0138168
701.069	0.0137123
701.147	0.0137749
701.225	0.0137212
701.303	0.0136897
701.381	0.0138704
701.459	0.0138316
701.538	0.0140795
701.616	0.0141753
701.694	0.0143306
701.772	0.0143543
701.850	0.0146554
701.928	0.0148702
702.006	0.0150160
702.084	0.0150253
702.163	0.0153207
702.241	0.0155093
702.319	0.0157331
702.397	0.0158891
702.475	0.0160574
702.553	0.0162846
702.631	0.0164787
702.709	0.0166237
702.788	0.0166571
702.866	0.0168250
702.944	0.0168434
703.022	0.0168234
703.100	0.0169333
703.178	0.0169665
703.256	0.0168574
703.334	0.0170134
703.413	0.0169556
703.491	0.0169551
703.569	0.0169922
703.647	0.0170224
703.725	0.0169987
703.803	0.0168488
703.881	0.0168745
703.959	0.0169379
704.038	0.0167743
704.116	0.0168043
704.194	0.0167969
704.272	0.0166193
704.350	0.0164779
704.428	0.0162708
704.506	0.0163676
704.584	0.0163016
704.663	0.0160957
704.741	0.0158147
704.819	0.0156387
704.897	0.0153539
704.975	0.0153503
705.053	0.0150591
705.131	0.0149078
705.209	0.0146211
705.288	0.0144282
705.366	0.0141555
705.444	0.0139485
705.522	0.0138512
705.600	0.0136239
705.678	0.0135412
705.756	0.0134185
705.834	0.0132680
705.913	0.0131114
705.991	0.0129694
706.069	0.0128854
706.147	0.0130218
706.225	0.0129205
706.303	0.0130627
706.381	0.0131403
706.459	0.0133951
706.538	0.0134408
706.616	0.0135538
706.694	0.0139423
706.772	0.0141210
706.850	0.0143060
706.928	0.0146111
707.006	0.0149326
707.084	0.0152847
707.163	0.0155912
707.241	0.0157441
707.319	0.0159382
707.397	0.0161555
707.475	0.0162561
707.553	0.0167015
707.631	0.0168668
707.709	0.0170815
707.788	0.0174233
707.866	0.0176595
707.944	0.0177464
708.022	0.0178829
708.100	0.0180744
708.178	0.0183369
708.256	0.0184077
708.334	0.0184724
708.413	0.0185721
708.491	0.0185173
708.569	0.0184968
708.647	0.0185786
708.725	0.0185522
708.803	0.0183884
708.881	0.0183408
708.959	0.0180843
709.038	0.0178914
709.116	0.0176429
709.194	0.0175477
709.272	0.0172604
709.350	0.0167383
709.428	0.0165012
709.506	0.0160591
709.584	0.0155852
709.663	0.0152931
709.741	0.0147752
709.819	0.0144601
709.897	0.0139921
709.975	0.0138132
710.053	0.0136170
710.131	0.0133301
710.209	0.0132582
710.288	0.0129274
710.366	0.0126715
710.444	0.0128070
710.522	0.0127905
710.600	0.0127851
710.678	0.0127209
710.756	0.0128703
710.834	0.0129630
710.913	0.0130817
710.991	0.0134156
711.069	0.0136842
711.147	0.0138239
711.225	0.0142274
711.303	0.0146743
711.381	0.0148949
711.459	0.0153269
711.538	0.0156438
711.616	0.0159532
711.694	0.0163010
711.772	0.0164834
711.850	0.0167310
711.928	0.0167931
712.006	0.0170370
712.084	0.0172225
712.163	0.0174838
712.241	0.0174473
712.319	0.0173981
712.397	0.0173397
712.475	0.0174010
712.553	0.0170613
712.631	0.0170396
712.709	0.0169302
712.788	0.0165224
712.866	0.0164004
712.944	0.0162146
713.022	0.0158327
713.100	0.0155428
713.178	0.0152616
713.256	0.0150985
713.334	0.0147328
713.413	0.0144456
713.491	0.0141788
713.569	0.0140714
713.647	0.0138757
713.725	0.0139502
713.803	0.0139470
713.881	0.0137967
713.959	0.0137308
714.038	0.0137107
714.116	0.0138876
714.194	0.0139321
714.272	0.0139893
714.350	0.0141232
714.428	0.0144020
714.506	0.0146623
714.584	0.0147246
714.663	0.0149336
714.741	0.0151491
714.819	0.0153130
714.897	0.0155551
714.975	0.0157225
715.053	0.0160249
715.131	0.0162543
715.209	0.0162286
715.288	0.0165462
715.366	0.0167004
715.444	0.0168726
715.522	0.0169043
715.600	0.0169257
715.678	0.0171323
715.756	0.0171099
715.834	0.0171458
715.913	0.0171458
715.991	0.0171193
716.069	0.0170856
716.147	0.0171757
716.225	0.0169421
716.303	0.0167799
716.381	0.0167588
716.459	0.0168539
716.538	0.0167317
716.616	0.0166686
716.694	0.0164171
716.772	0.0162652
716.850	0.0164026
716.928	0.0161893
717.006	0.0161145
717.084	0.0160110
717.163	0.0159318
717.241	0.0157999
717.319	0.0156386
717.397	0.0156216
717.475	0.0155640
717.553	0.0154333
717.631	0.0152999
717.709	0.0150917
717.788	0.0149426
717.866	0.0150074
717.944	0.0149951
718.022	0.0147219
718.100	0.0144385
718.178	0.0145595
718.256	0.0144717
718.334	0.0144772
718.413	0.0143159
718.491	0.0142496
718.569	0.0142628
718.647	0.0141861
718.725	0.0142639
718.803	0.0144218
718.881	0.0144675
718.959	0.0144748
719.038	0.0145888
719.116	0.0147541
719.194	0.0146106
719.272	0.0147829
719.350	0.0149599
719.428	0.0149631
719.506	0.0150139
719.584	0.0150351
719.663	0.0150685
719.741	0.0149406
719.819	0.0149444
719.897	0.0150970
719.975	0.0151582
720.053	0.0151417
720.131	0.0151115
720.209	0.0152859
720.288	0.0152684
720.366	0.0153039
720.444	0.0154005
720.522	0.0154750
720.600	0.0155008
720.678	0.0155666
720.756	0.0157677
720.834	0.0157520
720.913	0.0157304
720.991	0.0156741
721.069	0.0156945
721.147	0.0157046
721.225	0.0157814
721.303	0.0155340
721.381	0.0155907
721.459	0.0153196
721.538	0.0152721
721.616	0.0152316
721.694	0.0150377
721.772	0.0150928
721.850	0.0149525
721.928	0.0149920
722.006	0.0150140
722.084	0.0150127
722.163	0.0151292
722.241	0.0153291
722.319	0.0152741
722.397	0.0156491
722.475	0.0157630
722.553	0.0160022
722.631	0.0160899
722.709	0.0163381
722.788	0.0164118
722.866	0.0166273
722.944	0.0167828
723.022	0.0169065
723.100	0.0169023
723.178	0.0168680
723.256	0.0170352
723.334	0.0170460
723.413	0.0169044
723.491	0.0167905
723.569	0.0167686
723.647	0.0167033
723.725	0.0166383
723.803	0.0165695
723.881	0.0163311
723.959	0.0162344
724.038	0.0160078
724.116	0.0157639
724.194	0.0156184
724.272	0.0153843
724.350	0.0152146
724.428	0.0149848
724.506	0.0148422
724.584	0.0147566
724.663	0.0144057
724.741	0.0142699
724.819	0.0141485
724.897	0.0139861
724.975	0.0138879
725.053	0.0138418
725.131	0.0136820
725.209	0.0136172
725.288	0.0134544
725.366	0.0133783
725.444	0.0133804
725.522	0.0134766
725.600	0.0135224
725.678	0.0134027
725.756	0.0136427
725.834	0.0136705
725.913	0.0138332
725.991	0.0139647
726.069	0.0142019
726.147	0.0142832
726.225	0.0144874
726.303	0.0147042
726.381	0.0149383
726.459	0.0150447
726.538	0.0151761
726.616	0.0151928
726.694	0.0153772
726.772	0.0157114
726.850	0.0158488
726.928	0.0159418
727.006	0.0160802
727.084	0.0164288
727.163	0.0164151
727.241	0.0164240
727.319	0.0164829
727.397	0.0165171
727.475	0.0166272
727.553	0.0166926
727.631	0.0165738
727.709	0.0165369
727.788	0.0166245
727.866	0.0165260
727.944	0.0165239
728.022	0.0164529
728.100	0.0164648
728.178	0.0165424
728.256	0.0162769
728.334	0.0161545
728.413	0.0160862
728.491	0.0161423
728.569	0.0161311
728.647	0.0160953
728.725	0.0159444
728.803	0.0157852
728.881	0.0157115
728.959	0.0156768
729.038	0.0156036
729.116	0.0154967
729.194	0.0155515
729.272	0.0155396
729.350	0.0154978
729.428	0.0154032
729.506	0.0155573
729.584	0.0157157
729.663	0.0156345
729.741	0.0155248
729.819	0.0157684
729.897	0.0158981
729.975	0.0157549
730.053	0.0158810
730.131	0.0158748
730.209	0.0159576
730.288	0.0160188
730.366	0.0160651
730.444	0.0161195
730.522	0.0162099
730.600	0.0163046
730.678	0.0163834
730.756	0.0163277
730.834	0.0164346
730.913	0.0165205
730.991	0.0164366
731.069	0.0164709
731.147	0.0163303
731.225	0.0164290
731.303	0.0164942
731.381	0.0161750
731.459	0.0162104
731.538	0.0160260
731.616	0.0160073
731.694	0.0159673
731.772	0.0159283
731.850	0.0157419
731.928	0.0154768
732.006	0.0155168
732.084	0.0152017
732.163	0.0151134
732.241	0.0152355
732.319	0.0149997
732.397	0.0146996
732.475	0.0147195
732.553	0.0145566
732.631	0.0145480
732.709	0.0141446
732.788	0.0141771
732.866	0.0143114
732.944	0.0141877
733.022	0.0140254
733.100	0.0139279
733.178	0.0140748
733.256	0.0141639
733.334	0.0141942
733.413	0.0143797
733.491	0.0144798
733.569	0.0145865
733.647	0.0146387
733.725	0.0148354
733.803	0.0150610
733.881	0.0150818
733.959	0.0153020
734.038	0.0155309
734.116	0.0157033
734.194	0.0157671
734.272	0.0158776
734.350	0.0161979
734.428	0.0162421
734.506	0.0165257
734.584	0.0164884
734.663	0.0167032
734.741	0.0166907
734.819	0.0166317
734.897	0.0168789
734.975	0.0168573
735.053	0.0168876
735.131	0.0166898
735.209	0.0166962
735.288	0.0165755
735.366	0.0164501
735.444	0.0162722
735.522	0.0161323
735.600	0.0160461
735.678	0.0158655
735.756	0.0157404
735.834	0.0156954
735.913	0.0153938
735.991	0.0153580
736.069	0.0153184
736.147	0.0153899
736.225	0.0151460
736.303	0.0150789
736.381	0.0150473
736.459	0.0150934
736.538	0.0149972
736.616	0.0150513
736.694	0.0151028
736.772	0.0150992
736.850	0.0151336
736.928	0.0152576
737.006	0.0150900
737.084	0.0152246
737.163	0.0154550
737.241	0.0154816
737.319	0.0156178
737.397	0.0156096
737.475	0.0156677
737.553	0.0157690
737.631	0.0156899
737.709	0.0159048
737.788	0.0157780
737.866	0.0157336
737.944	0.0160030
738.022	0.0162494
738.100	0.0161289
738.178	0.0161433
738.256	0.0161559
738.334	0.0161468
738.413	0.0161260
738.491	0.0162422
738.569	0.0161749
738.647	0.0162923
738.725	0.0163650
738.803	0.0162309
738.881	0.0164538
738.959	0.0163319
739.038	0.0163599
739.116	0.0161842
739.194	0.0162495
739.272	0.0161627
739.350	0.0159575
739.428	0.0159613
739.506	0.0158619
739.584	0.0157098
739.663	0.0153317
739.741	0.0152263
739.819	0.0149991
739.897	0.0148328
739.975	0.0147486
740.053	0.0146676
740.131	0.0144211
740.209	0.0143221
740.288	0.0141996
740.366	0.0140292
740.444	0.0140195
740.522	0.0141312
740.600	0.0140173
740.678	0.0139422
740.756	0.0139947
740.834	0.0139540
740.913	0.0140763
740.991	0.0141528
741.069	0.0142557
741.147	0.0142397
741.225	0.0144498
741.303	0.0143751
741.381	0.0147858
741.459	0.0148318
741.538	0.0149574
741.616	0.0151242
741.694	0.0151676
741.772	0.0152829
741.850	0.0154606
741.928	0.0154737
742.006	0.0156361
742.084	0.0159497
742.163	0.0158489
742.241	0.0159031
742.319	0.0159356
742.397	0.0159299
742.475	0.0161183
742.553	0.0160657
742.631	0.0161501
742.709	0.0163639
742.788	0.0163094
742.866	0.0164141
742.944	0.0165127
743.022	0.0165037
743.100	0.0166663
743.178	0.0167065
743.256	0.0166759
743.334	0.0167089
743.413	0.0167471
743.491	0.0165172
743.569	0.0165448
743.647	0.0165665
743.725	0.0163277
743.803	0.0162498
743.881	0.0160450
743.959	0.0160083
744.038	0.0158519
744.116	0.0156975
744.194	0.0157285
744.272	0.0155994
744.350	0.0155475
744.428	0.0154388
744.506	0.0153761
744.584	0.0151507
744.663	0.0151473
744.741	0.0150231
744.819	0.0150088
744.897	0.0148685
744.975	0.0147829
745.053	0.0149030
745.131	0.0146255
745.209	0.0146216
745.288	0.0146502
745.366	0.0147488
745.444	0.0147139
745.522	0.0145861
745.600	0.0145021
745.678	0.0147073
745.756	0.0146918
745.834	0.0146864
745.913	0.0146671
745.991	0.0146669
746.069	0.0145543
746.147	0.0147212
746.225	0.0148682
746.303	0.0149957
746.381	0.0150221
746.459	0.0150780
746.538	0.0153866
746.616	0.0152981
746.694	0.0154851
746.772	0.0156345
746.850	0.0158140
746.928	0.0159170
747.006	0.0160458
747.084	0.0159606
747.163	0.0160999
747.241	0.0161398
747.319	0.0162493
747.397	0.0162962
747.475	0.0162651
747.553	0.0162361
747.631	0.0163868
747.709	0.0163010
747.788	0.0163132
747.866	0.0161960
747.944	0.0160831
748.022	0.0160361
748.100	0.0159671
748.178	0.0157575
748.256	0.0158321
748.334	0.0155668
748.413	0.0155295
748.491	0.0154691
748.569	0.0153597
748.647	0.0153154
748.725	0.0152608
748.803	0.0153105
748.881	0.0153218
748.959	0.0150398
749.038	0.0149232
749.116	0.0149645
749.194	0.0148461
749.272	0.0148066
749.350	0.0147709
749.428	0.0146667
749.506	0.0146324
749.584	0.0145137
749.663	0.0143687
749.741	0.0144762
749.819	0.0144930
749.897	0.0144765
749.975	0.0145987
750.053	0.0146106
750.131	0.0147169
750.209	0.0147602
750.288	0.0149137
750.366	0.0151773
750.444	0.0152341
750.522	0.0153584
750.600	0.0154646
750.678	0.0156419
750.756	0.0155495
750.834	0.0157466
750.913	0.0158961
750.991	0.0160081
751.069	0.0161662
751.147	0.0163719
751.225	0.0164513
751.303	0.0166331
751.381	0.0166197
751.459	0.0169388
751.538	0.0171100
751.616	0.0169857
751.694	0.0172374
751.772	0.0172668
751.850	0.0171455
751.928	0.0173415
752.006	0.0173447
752.084	0.0171055
752.163	0.0171453
752.241	0.0170055
752.319	0.0168938
752.397	0.0167105
752.475	0.0165602
752.553	0.0163754
752.631	0.0163513
752.709	0.0161160
752.788	0.0158888
752.866	0.0158201
752.944	0.0156176
753.022	0.0154247
753.100	0.0153137
753.178	0.0151692
753.256	0.0150501
753.334	0.0148801
753.413	0.0147388
753.491	0.0146680
753.569	0.0144614
753.647	0.0144884
753.725	0.0144093
753.803	0.0144463
753.881	0.0144719
753.959	0.0144459
754.038	0.0145943
754.116	0.0145786
754.194	0.0146227
754.272	0.0148188
754.350	0.0148546
754.428	0.0150624
754.506	0.0151177
754.584	0.0151666
754.663	0.0152767
754.741	0.0154651
754.819	0.0155865
754.897	0.0156353
754.975	0.0158387
755.053	0.0158056
755.131	0.0158390
755.209	0.0157742
755.288	0.0157890
755.366	0.0158434
755.444	0.0157875
755.522	0.0156348
755.600	0.0156704
755.678	0.0155970
755.756	0.0154462
755.834	0.0155429
755.913	0.0155870
755.991	0.0153353
756.069	0.0154029
756.147	0.0152808
756.225	0.0153545
756.303	0.0153493
756.381	0.0153193
756.459	0.0153046
756.538	0.0151560
756.616	0.0152836
756.694	0.0153559
756.772	0.0153862
756.850	0.0152987
756.928	0.0154606
757.006	0.0155627
757.084	0.0156574
757.163	0.0157586
757.241	0.0156114
757.319	0.0155902
757.397	0.0157930
757.475	0.0156837
757.553	0.0157289
757.631	0.0158105
757.709	0.0156341
757.788	0.0156197
757.866	0.0156685
757.944	0.0155922
758.022	0.0154261
758.100	0.0152276
758.178	0.0152324
758.256	0.0151790
758.334	0.0151946
758.413	0.0151194
758.491	0.0150665
758.569	0.0150575
758.647	0.0151543
758.725	0.0152089
758.803	0.0152318
758.881	0.0151842
758.959	0.0153240
759.038	0.0154155
759.116	0.0154021
759.194	0.0153725
759.272	0.0157678
759.350	0.0156985
759.428	0.0157650
759.506	0.0157879
759.584	0.0160775
759.663	0.0161334
759.741	0.0161840
759.819	0.0161390
759.897	0.0160126
759.975	0.0160084
760.053	0.0158660
760.131	0.0160320
760.209	0.0158934
760.288	0.0156283
760.366	0.0156730
760.444	0.0154259
760.522	0.0153660
760.600	0.0152246
760.678	0.0150681
760.756	0.0150014
760.834	0.0148032
760.913	0.0147054
760.991	0.0145367
761.069	0.0145581
761.147	0.0146455
761.225	0.0145593
761.303	0.0146769
761.381	0.0147159
761.459	0.0148228
761.538	0.0147842
761.616	0.0148608
761.694	0.0149271
761.772	0.0150964
761.850	0.0153080
761.928	0.0153883
762.006	0.0154519
762.084	0.0157517
762.163	0.0157928
762.241	0.0156792
762.319	0.0158961
762.397	0.0160918
762.475	0.0161636
762.553	0.0162417
762.631	0.0160855
762.709	0.0161035
762.788	0.0160148
762.866	0.0160623
762.944	0.0160009
763.022	0.0159409
763.100	0.0158924
763.178	0.0159064
763.256	0.0156749
763.334	0.0156002
763.413	0.0155428
763.491	0.0154417
763.569	0.0152592
763.647	0.0151066
763.725	0.0151068
763.803	0.0148991
763.881	0.0148096
763.959	0.0147898
764.038	0.0148610
764.116	0.0145602
764.194	0.0145813
764.272	0.0145586
764.350	0.0146535
764.428	0.0146970
764.506	0.0146234
764.584	0.0147289
764.663	0.0148592
764.741	0.0149303
764.819	0.0148550
764.897	0.0150412
764.975	0.0151933
765.053	0.0154147
765.131	0.0154610
765.209	0.0154096
765.288	0.0155375
765.366	0.0157848
765.444	0.0159189
765.522	0.0158781
765.600	0.0158106
765.678	0.0159536
765.756	0.0161246
765.834	0.0162093
765.913	0.0163002
765.991	0.0162715
766.069	0.0162778
766.147	0.0163042
766.225	0.0163293
766.303	0.0161549
766.381	0.0161946
766.459	0.0163818
766.538	0.0162699
766.616	0.0162463
766.694	0.0162296
766.772	0.0161085
766.850	0.0162990
766.928	0.0162636
767.006	0.0161535
767.084	0.0161902
767.163	0.0160333
767.241	0.0162251
767.319	0.0159410
767.397	0.0160298
767.475	0.0160451
767.553	0.0159319
767.631	0.0159109
767.709	0.0157643
767.788	0.0157981
767.866	0.0158054
767.944	0.0157218
768.022	0.0156258
768.100	0.0155771
768.178	0.0154547
768.256	0.0154094
768.334	0.0153667
768.413	0.0153143
768.491	0.0151736
768.569	0.0152013
768.647	0.0151306
768.725	0.0151334
768.803	0.0151293
768.881	0.0151508
768.959	0.0150519
769.038	0.0151292
769.116	0.0151814
769.194	0.0151447
769.272	0.0150813
769.350	0.0151968
769.428	0.0151814
769.506	0.0153217
769.584	0.0152972
769.663	0.0150713
769.741	0.0151706
769.819	0.0153339
769.897	0.0153123
769.975	0.0152614
770.053	0.0152191
770.131	0.0152422
770.209	0.0153728
770.288	0.0154657
770.366	0.0153698
770.444	0.0153738
770.522	0.0154137
770.600	0.0154105
770.678	0.0154327
770.756	0.0154356
770.834	0.0155409
770.913	0.0157132
770.991	0.0157246
771.069	0.0155315
771.147	0.0156601
771.225	0.0156874
771.303	0.0155992
771.381	0.0156191
771.459	0.0154899
771.538	0.0154392
771.616	0.0154155
771.694	0.0154767
771.772	0.0155969
771.850	0.0154156
771.928	0.0153895
772.006	0.0154418
772.084	0.0152189
772.163	0.0154411
772.241	0.0153555
772.319	0.0153405
772.397	0.0154337
772.475	0.0154260
772.553	0.0154476
772.631	0.0154958
772.709	0.0153333
772.788	0.0155150
772.866	0.0154841
772.944	0.0154562
773.022	0.0154845
773.100	0.0154463
773.178	0.0153503
773.256	0.0152953
773.334	0.0153683
773.413	0.0153255
773.491	0.0153757
773.569	0.0152957
773.647	0.0154317
773.725	0.0152670
773.803	0.0152536
773.881	0.0155714
773.959	0.0155753
774.038	0.0154773
774.116	0.0155857
774.194	0.0156067
774.272	0.0158318
774.350	0.0158730
774.428	0.0158855
774.506	0.0160892
774.584	0.0163074
774.663	0.0162951
774.741	0.0163806
774.819	0.0162677
774.897	0.0163192
774.975	0.0164127
775.053	0.0164809
775.131	0.0164357
775.209	0.0163944
775.288	0.0163802
775.366	0.0163352
775.444	0.0160937
775.522	0.0159625
775.600	0.0159717
775.678	0.0155755
775.756	0.0154714
775.834	0.0153968
775.913	0.0152498
775.991	0.0150548
776.069	0.0150527
776.147	0.0148828
776.225	0.0147369
776.303	0.0148193
776.381	0.0147630
776.459	0.0148045
776.538	0.0149236
776.616	0.0150263
776.694	0.0150609
776.772	0.0150874
776.850	0.0151403
776.928	0.0153853
777.006	0.0155566
777.084	0.0154736
777.163	0.0155750
777.241	0.0158097
777.319	0.0158807
777.397	0.0159906
777.475	0.0158756
777.553	0.0160259
777.631	0.0158888
777.709	0.0157763
777.788	0.0158134
777.866	0.0158699
777.944	0.0157801
778.022	0.0155968
778.100	0.0155941
778.178	0.0155493
778.256	0.0155970
778.334	0.0154498
778.413	0.0152847
778.491	0.0152811
778.569	0.0152871
778.647	0.0152082
778.725	0.0152318
778.803	0.0152561
778.881	0.0153681
778.959	0.0153484
779.038	0.0151667
779.116	0.0151945
779.194	0.0154170
779.272	0.0154507
779.350	0.0153695
779.428	0.0154670
779.506	0.0155475
779.584	0.0156956
779.663	0.0155422
779.741	0.0156886
779.819	0.0157230
779.897	0.0157201
779.975	0.0156697
780.053	0.0155956
780.131	0.0156396
780.209	0.0156013
780.288	0.0156159
780.366	0.0155695
780.444	0.0153854
780.522	0.0154145
780.600	0.0154286
780.678	0.0154090
780.756	0.0154218
780.834	0.0153273
780.913	0.0152872
780.991	0.0155013
781.069	0.0153165
781.147	0.0153796
781.225	0.0152696
781.303	0.0154274
781.381	0.0153841
781.459	0.0154339
781.538	0.0153503
781.616	0.0153658
781.694	0.0154568
781.772	0.0152795
781.850	0.0153059
781.928	0.0154307
782.006	0.0154691
782.084	0.0154791
782.163	0.0153786
782.241	0.0152956
782.319	0.0155002
782.397	0.0153430
782.475	0.0153057
782.553	0.0154154
782.631	0.0154440
782.709	0.0154629
782.788	0.0154334
782.866	0.0155222
782.944	0.0156812
783.022	0.0155321
783.100	0.0156065
783.178	0.0157128
783.256	0.0156381
783.334	0.0156998
783.413	0.0155910
783.491	0.0157664
783.569	0.0156445
783.647	0.0156291
783.725	0.0156401
783.803	0.0155685
783.881	0.0155297
783.959	0.0155936
784.038	0.0156055
784.116	0.0154597
784.194	0.0156578
784.272	0.0153516
784.350	0.0155209
784.428	0.0155775
784.506	0.0155393
784.584	0.0155686
784.663	0.0154933
784.741	0.0154841
784.819	0.0155067
784.897	0.0153580
784.975	0.0154436
785.053	0.0153622
785.131	0.0153561
785.209	0.0152553
785.288	0.0153989
785.366	0.0153565
785.444	0.0153752
785.522	0.0152811
785.600	0.0152596
785.678	0.0151778
785.756	0.0153915
785.834	0.0152702
785.913	0.0153005
785.991	0.0153104
786.069	0.0154025
786.147	0.0151485
786.225	0.0151260
786.303	0.0151835
786.381	0.0151357
786.459	0.0151177
786.538	0.0148933
786.616	0.0148706
786.694	0.0148964
786.772	0.0149005
786.850	0.0149208
786.928	0.0149300
787.006	0.0149268
787.084	0.0149112
787.163	0.0150877
787.241	0.0149847
787.319	0.0151271
787.397	0.0151670
787.475	0.0152397
787.553	0.0152671
787.631	0.0154068
787.709	0.0155336
787.788	0.0156165
787.866	0.0155882
787.944	0.0158136
788.022	0.0158379
788.100	0.0158681
788.178	0.0158694
788.256	0.0161277
788.334	0.0161143
788.413	0.0160465
788.491	0.0161755
788.569	0.0163593
788.647	0.0162849
788.725	0.0161926
788.803	0.0162643
788.881	0.0162818
788.959	0.0160861
789.038	0.0161423
789.116	0.0159756
789.194	0.0159776
789.272	0.0159612
789.350	0.0159302
789.428	0.0157579
789.506	0.0156617
789.584	0.0157468
789.663	0.0155300
789.741	0.0154611
789.819	0.0155135
789.897	0.0154465
789.975	0.0153646
790.053	0.0154246
790.131	0.0154228
790.209	0.0154140
790.288	0.0152549
790.366	0.0154755
790.444	0.0155552
790.522	0.0152885
790.600	0.0154021
790.678	0.0153037
790.756	0.0152205
790.834	0.0153495
790.913	0.0152454
790.991	0.0152795
791.069	0.0152348
791.147	0.0152188
791.225	0.0152670
791.303	0.0153049
791.381	0.0151442
791.459	0.0151741
791.538	0.0154048
791.616	0.0153665
791.694	0.0153243
791.772	0.0155539
791.850	0.0155965
791.928	0.0156660
792.006	0.0156564
792.084	0.0157542
792.163	0.0157919
792.241	0.0158594
792.319	0.0158965
792.397	0.0158651
792.475	0.0157979
792.553	0.0158057
792.631	0.0158042
792.709	0.0158324
792.788	0.0157378
792.866	0.0156132
792.944	0.0157144
793.022	0.0155334
793.100	0.0154208
793.178	0.0155759
793.256	0.0152816
793.334	0.0154105
793.413	0.0153516
793.491	0.0153661
793.569	0.0153445
793.647	0.0154282
793.725	0.0152174
793.803	0.0151943
793.881	0.0152349
793.959	0.0152443
794.038	0.0152537
794.116	0.0151734
794.194	0.0152921
794.272	0.0153311
794.350	0.0154285
794.428	0.0153904
794.506	0.0155836
794.584	0.0154067
794.663	0.0154546
794.741	0.0155615
794.819	0.0156119
794.897	0.0157147
794.975	0.0156415
795.053	0.0157671
795.131	0.0156396
795.209	0.0157297
795.288	0.0157656
795.366	0.0157066
795.444	0.0157365
795.522	0.0159418
795.600	0.0158230
795.678	0.0157910
795.756	0.0158332
795.834	0.0157272
795.913	0.0157019
795.991	0.0157239
796.069	0.0157312
796.147	0.0157770
796.225	0.0156746
796.303	0.0156007
796.381	0.0153940
796.459	0.0154753
796.538	0.0155003
796.616	0.0155853
796.694	0.0156168
796.772	0.0154235
796.850	0.0154941
796.928	0.0154684
797.006	0.0154419
797.084	0.0155279
797.163	0.0155869
797.241	0.0154533
797.319	0.0155180
797.397	0.0155925
797.475	0.0156573
797.553	0.0155723
797.631	0.0154716
797.709	0.0154926
797.788	0.0155847
797.866	0.0156617
797.944	0.0156897
798.022	0.0157293
798.100	0.0156745
798.178	0.0157314
798.256	0.0157039
798.334	0.0157511
798.413	0.0158222
798.491	0.0158693
798.569	0.0158982
798.647	0.0157487
798.725	0.0157875
798.803	0.0156680
798.881	0.0157239
798.959	0.0157279
799.038	0.0157352
799.116	0.0157962
799.194	0.0157790
799.272	0.0157629
799.350	0.0156674
799.428	0.0157175
799.506	0.0156759
799.584	0.0157681
799.663	0.0156335
799.741	0.0155446
799.819	0.0157011
799.897	0.0155849
799.975	0.0155011
800.053	0.0157009
800.131	0.0156235
800.209	0.0155816
800.288	0.0156045
800.366	0.0155976
800.444	0.0157216
800.522	0.0157710
800.600	0.0157043
800.678	0.0155236
800.756	0.0156480
800.834	0.0156161
800.913	0.0155473
800.991	0.0156292
801.069	0.0155076
801.147	0.0155019
801.225	0.0154707
801.303	0.0152415
801.381	0.0151557
801.459	0.0151737
801.538	0.0150305
801.616	0.0149445
801.694	0.0149203
801.772	0.0148177
801.850	0.0147249
801.928	0.0148010
802.006	0.0147250
802.084	0.0148615
802.163	0.0148228
802.241	0.0148798
802.319	0.0148951
802.397	0.0149107
802.475	0.0148507
802.553	0.0149144
802.631	0.0151543
802.709	0.0148975
802.788	0.0151009
802.866	0.0150790
802.944	0.0151815
803.022	0.0152378
803.100	0.0152840
803.178	0.0153342
803.256	0.0153147
803.334	0.0153487
803.413	0.0153802
803.491	0.0154625
803.569	0.0153847
803.647	0.0154016
803.725	0.0154437
803.803	0.0153812
803.881	0.0154785
803.959	0.0155882
804.038	0.0154605
804.116	0.0155512
804.194	0.0155689
804.272	0.0156690
804.350	0.0157806
804.428	0.0157367
804.506	0.0159073
804.584	0.0158701
804.663	0.0159504
804.741	0.0158933
804.819	0.0159347
804.897	0.0159541
804.975	0.0159621
805.053	0.0159430
805.131	0.0158920
805.209	0.0159003
805.288	0.0158980
805.366	0.0159104
805.444	0.0158140
805.522	0.0157762
805.600	0.0158373
805.678	0.0157553
805.756	0.0156377
805.834	0.0158302
805.913	0.0157147
805.991	0.0156073
806.069	0.0157645
806.147	0.0155471
806.225	0.0155110
806.303	0.0156709
806.381	0.0157062
806.459	0.0154733
806.538	0.0154388
806.616	0.0154569
806.694	0.0155551
806.772	0.0154386
806.850	0.0153819
806.928	0.0153920
807.006	0.0155944
807.084	0.0154314
807.163	0.0152787
807.241	0.0153465
807.319	0.0153666
807.397	0.0153807
807.475	0.0153838
807.553	0.0154834
807.631	0.0153546
807.709	0.0154568
807.788	0.0155324
807.866	0.0156314
807.944	0.0155174
808.022	0.0156352
808.100	0.0157285
808.178	0.0156855
808.256	0.0157719
808.334	0.0157417
808.413	0.0157770
808.491	0.0158281
808.569	0.0159103
808.647	0.0157690
808.725	0.0158103
808.803	0.0157872
808.881	0.0157785
808.959	0.0158163
809.038	0.0157137
809.116	0.0157047
809.194	0.0156292
809.272	0.0155518
809.350	0.0155375
809.428	0.0153915
809.506	0.0155687
809.584	0.0154237
809.663	0.0155318
809.741	0.0154432
809.819	0.0153335
809.897	0.0155142
809.975	0.0154404
810.053	0.0155234
810.131	0.0154904
810.209	0.0156374
810.288	0.0153999
810.366	0.0153629
810.444	0.0155012
810.522	0.0154530
810.600	0.0156651
810.678	0.0156931
810.756	0.0155074
810.834	0.0156422
810.913	0.0157179
810.991	0.0156513
811.069	0.0156495
811.147	0.0157917
811.225	0.0157734
811.303	0.0156555
811.381	0.0158214
811.459	0.0156404
811.538	0.0156914
811.616	0.0158357
811.694	0.0157439
811.772	0.0157778
811.850	0.0157269
811.928	0.0155891
812.006	0.0155627
812.084	0.0156854
812.163	0.0156422
812.241	0.0156857
812.319	0.0157252
812.397	0.0156836
812.475	0.0155375
812.553	0.0155158
812.631	0.0156432
812.709	0.0156129
812.788	0.0155967
812.866	0.0155584
812.944	0.0154419
813.022	0.0153145
813.100	0.0155105
813.178	0.0154590
813.256	0.0152764
813.334	0.0153917
813.413	0.0153304
813.491	0.0154851
813.569	0.0154282
813.647	0.0152706
813.725	0.0153212
813.803	0.0153403
813.881	0.0154383
813.959	0.0154844
814.038	0.0153650
814.116	0.0153359
814.194	0.0153498
814.272	0.0154070
814.350	0.0153263
814.428	0.0155662
814.506	0.0155278
814.584	0.0154513
814.663	0.0155032
814.741	0.0154997
814.819	0.0155790
814.897	0.0154581
814.975	0.0153908
815.053	0.0155243
815.131	0.0156685
815.209	0.0154392
815.288	0.0156738
815.366	0.0155685
815.444	0.0154850
815.522	0.0155235
815.600	0.0154705
815.678	0.0156031
815.756	0.0156364
815.834	0.0154009
815.913	0.0153371
815.991	0.0154360
816.069	0.0155987
816.147	0.0155702
816.225	0.0154730
816.303	0.0154515
816.381	0.0154861
816.459	0.0154568
816.538	0.0153745
816.616	0.0153508
816.694	0.0155906
816.772	0.0155228
816.850	0.0154644
816.928	0.0154160
817.006	0.0155119
817.084	0.0155193
817.163	0.0154635
817.241	0.0154521
817.319	0.0154631
817.397	0.0154620
817.475	0.0153898
817.553	0.0153736
817.631	0.0154072
817.709	0.0152916
817.788	0.0154380
817.866	0.0153499
817.944	0.0152014
818.022	0.0153850
818.100	0.0155779
818.178	0.0153854
818.256	0.0153387
818.334	0.0154810
818.413	0.0154373
818.491	0.0156227
818.569	0.0155309
818.647	0.0155941
818.725	0.0154891
818.803	0.0156945
818.881	0.0155512
818.959	0.0155818
819.038	0.0156036
819.116	0.0157240
819.194	0.0158115
819.272	0.0157998
819.350	0.0157105
819.428	0.0157613
819.506	0.0157500
819.584	0.0157790
819.663	0.0157128
819.741	0.0157036
819.819	0.0158022
819.897	0.0158694
819.975	0.0156689
820.053	0.0157476
820.131	0.0159174
820.209	0.0158462
820.288	0.0158721
820.366	0.0156812
820.444	0.0157065
820.522	0.0157919
820.600	0.0156958
820.678	0.0156326
820.756	0.0156478
820.834	0.0156220
820.913	0.0155674
820.991	0.0153703
821.069	0.0153606
821.147	0.0152758
821.225	0.0154050
821.303	0.0152500
821.381	0.0152942
821.459	0.0152979
821.538	0.0152965
821.616	0.0151869
821.694	0.0151892
821.772	0.0152257
821.850	0.0152631
821.928	0.0151315
822.006	0.0151908
822.084	0.0153688
822.163	0.0152742
822.241	0.0152739
822.319	0.0152715
822.397	0.0152061
822.475	0.0153207
822.553	0.0153870
822.631	0.0154152
822.709	0.0155022
822.788	0.0153078
822.866	0.0152378
822.944	0.0154929
823.022	0.0153407
823.100	0.0154749
823.178	0.0154462
823.256	0.0154223
823.334	0.0155081
823.413	0.0154787
823.491	0.0155270
823.569	0.0156506
823.647	0.0156696
823.725	0.0155385
823.803	0.0156071
823.881	0.0156226
823.959	0.0157147
824.038	0.0156723
824.116	0.0155987
824.194	0.0157043
824.272	0.0157837
824.350	0.0156767
824.428	0.0157909
824.506	0.0157942
824.584	0.0157419
824.663	0.0157677
824.741	0.0158885
824.819	0.0156162
824.897	0.0157030
824.975	0.0157161
825.053	0.0158602
825.131	0.0156541
825.209	0.0156568
825.288	0.0156245
825.366	0.0155914
825.444	0.0154770
825.522	0.0154679
825.600	0.0154794
825.678	0.0154496
825.756	0.0155435
825.834	0.0155259
825.913	0.0154838
825.991	0.0155370
826.069	0.0155808
826.147	0.0155080
826.225	0.0152872
826.303	0.0153854
826.381	0.0154778
826.459	0.0154388
826.538	0.0154397
826.616	0.0154060
826.694	0.0154382
826.772	0.0152885
826.850	0.0153854
826.928	0.0154858
827.006	0.0152951
827.084	0.0153482
827.163	0.0153330
827.241	0.0154794
827.319	0.0153716
827.397	0.0153919
827.475	0.0153614
827.553	0.0155402
827.631	0.0153937
827.709	0.0154636
827.788	0.0156326
827.866	0.0154229
827.944	0.0153208
828.022	0.0155994
828.100	0.0156537
828.178	0.0155033
828.256	0.0154701
828.334	0.0157751
828.413	0.0155681
828.491	0.0153362
828.569	0.0154826
828.647	0.0155084
828.725	0.0154987
828.803	0.0154561
828.881	0.0155836
828.959	0.0153744
829.038	0.0155094
829.116	0.0154291
829.194	0.0154813
829.272	0.0155951
829.350	0.0155128
829.428	0.0156093
829.506	0.0155787
829.584	0.0154332
829.663	0.0155573
829.741	0.0156012
829.819	0.0155171
829.897	0.0154984
829.975	0.0155852
830.053	0.0155788
830.131	0.0155180
830.209	0.0155396
830.288	0.0156239
830.366	0.0156792
830.444	0.0156012
830.522	0.0156478
830.600	0.0157965
830.678	0.0156288
830.756	0.0157648
830.834	0.0157574
830.913	0.0156370
830.991	0.0157604
831.069	0.0156647
831.147	0.0157688
831.225	0.0157607
831.303	0.0156606
831.381	0.0156629
831.459	0.0156728
831.538	0.0156179
831.616	0.0156879
831.694	0.0157007
831.772	0.0156512
831.850	0.0155428
831.928	0.0155354
832.006	0.0156988
832.084	0.0156472
832.163	0.0155511
832.241	0.0156847
832.319	0.0156349
832.397	0.0155483
832.475	0.0155688
832.553	0.0156455
832.631	0.0156989
832.709	0.0156738
832.788	0.0157574
832.866	0.0156001
832.944	0.0154678
833.022	0.0155655
833.100	0.0155097
833.178	0.0153720
833.256	0.0154567
833.334	0.0154565
833.413	0.0155006
833.491	0.0154233
833.569	0.0155991
833.647	0.0157362
833.725	0.0154625
833.803	0.0155068
833.881	0.0155840
833.959	0.0155405
834.038	0.0154816
834.116	0.0156689
834.194	0.0155227
834.272	0.0156197
834.350	0.0157322
834.428	0.0157340
834.506	0.0156887
834.584	0.0155871
834.663	0.0156737
834.741	0.0156013
834.819	0.0156510
834.897	0.0156104
834.975	0.0156951
835.053	0.0156831
835.131	0.0157655
835.209	0.0157333
835.288	0.0157388
835.366	0.0156766
835.444	0.0155968
835.522	0.0156561
835.600	0.0157441
835.678	0.0156069
835.756	0.0156956
835.834	0.0156739
835.913	0.0156957
835.991	0.0157318
836.069	0.0155339
836.147	0.0155374
836.225	0.0154722
836.303	0.0155791
836.381	0.0155194
836.459	0.0155058
836.538	0.0153471
836.616	0.0154160
836.694	0.0154639
836.772	0.0154903
836.850	0.0154221
836.928	0.0154012
837.006	0.0154362
837.084	0.0154914
837.163	0.0154449
837.241	0.0154173
837.319	0.0155146
837.397	0.0153841
837.475	0.0154581
837.553	0.0154088
837.631	0.0154714
837.709	0.0154402
837.788	0.0154342
837.866	0.0153752
837.944	0.0153938
838.022	0.0154900
838.100	0.0154144
838.178	0.0155267
838.256	0.0154449
838.334	0.0155303
838.413	0.0155694
838.491	0.0155196
838.569	0.0154874
838.647	0.0155194
838.725	0.0156609
838.803	0.0155797
838.881	0.0154977
838.959	0.0155701
839.038	0.0156516
839.116	0.0156042
839.194	0.0154833
839.272	0.0155750
839.350	0.0154722
839.428	0.0156116
839.506	0.0156781
839.584	0.0154781
839.663	0.0155725
839.741	0.0156200
839.819	0.0156232
839.897	0.0156003
839.975	0.0154922
840.053	0.0156458
840.131	0.0155609
840.209	0.0156820
840.288	0.0154385
840.366	0.0153576
840.444	0.0154782
840.522	0.0153548
840.600	0.0155232
840.678	0.0155613
840.756	0.0154964
840.834	0.0155704
840.913	0.0155345
840.991	0.0155791
841.069	0.0155792
841.147	0.0155363
841.225	0.0156738
841.303	0.0156454
841.381	0.0155908
841.459	0.0158102
841.538	0.0157043
841.616	0.0156721
841.694	0.0156519
841.772	0.0156609
841.850	0.0156136
841.928	0.0156246
842.006	0.0157114
842.084	0.0155717
842.163	0.0155570
842.241	0.0155576
842.319	0.0154189
842.397	0.0154758
842.475	0.0155108
842.553	0.0155021
842.631	0.0155106
842.709	0.0154990
842.788	0.0154305
842.866	0.0155482
842.944	0.0154622
843.022	0.0155103
843.100	0.0156152
843.178	0.0154892
843.256	0.0154997
843.334	0.0155740
843.413	0.0155554
843.491	0.0155434
843.569	0.0155118
843.647	0.0155615
843.725	0.0156571
843.803	0.0155138
843.881	0.0155731
843.959	0.0155086
844.038	0.0154989
844.116	0.0155710
844.194	0.0154823
844.272	0.0156606
844.350	0.0154182
844.428	0.0157149
844.506	0.0156790
844.584	0.0155888
844.663	0.0154928
844.741	0.0156554
844.819	0.0156598
844.897	0.0155930
844.975	0.0154580
845.053	0.0156474
845.131	0.0154755
845.209	0.0155042
845.288	0.0154094
845.366	0.0153922
845.444	0.0155126
845.522	0.0155922
845.600	0.0152654
845.678	0.0153178
845.756	0.0153304
845.834	0.0152745
845.913	0.0151760
845.991	0.0152882
846.069	0.0153529
846.147	0.0153499
846.225	0.0153960
846.303	0.0151702
846.381	0.0152763
846.459	0.0152588
846.538	0.0153081
846.616	0.0154736
846.694	0.0153668
846.772	0.0153230
846.850	0.0154194
846.928	0.0152771
847.006	0.0153805
847.084	0.0153717
847.163	0.0153332
847.241	0.0152197
847.319	0.0154008
847.397	0.0154337
847.475	0.0154330
847.553	0.0153368
847.631	0.0154871
847.709	0.0156152
847.788	0.0153367
847.866	0.0154008
847.944	0.0153411
848.022	0.0154357
848.100	0.0155838
848.178	0.0154990
848.256	0.0154472
848.334	0.0154860
848.413	0.0155334
848.491	0.0154603
848.569	0.0155536
848.647	0.0155255
848.725	0.0155962
848.803	0.0154858
848.881	0.0155318
848.959	0.0154673
849.038	0.0155289
849.116	0.0156814
849.194	0.0154185
849.272	0.0154646
849.350	0.0154209
849.428	0.0155535
849.506	0.0156705
849.584	0.0155029
849.663	0.0153851
849.741	0.0154129
849.819	0.0154335
849.897	0.0155842
849.975	0.0153909
850.053	0.0156012
850.131	0.0155750
850.209	0.0154893
850.288	0.0154630
850.366	0.0155757
850.444	0.0155318
850.522	0.0155726
850.600	0.0156313
850.678	0.0155960
850.756	0.0156289
850.834	0.0154028
850.913	0.0155869
850.991	0.0156316
851.069	0.0155785
851.147	0.0156779
851.225	0.0155901
851.303	0.0154668
851.381	0.0155039
851.459	0.0155480
851.538	0.0155857
851.616	0.0154940
851.694	0.0155363
851.772	0.0156466
851.850	0.0155741
851.928	0.0156778
852.006	0.0156336
852.084	0.0156129
852.163	0.0155589
852.241	0.0155806
852.319	0.0155859
852.397	0.0156816
852.475	0.0156686
852.553	0.0154875
852.631	0.0156993
852.709	0.0156937
852.788	0.0155468
852.866	0.0156472
852.944	0.0158041
853.022	0.0157120
853.100	0.0157286
853.178	0.0156959
853.256	0.0156630
853.334	0.0157143
853.413	0.0156712
853.491	0.0157643
853.569	0.0157316
853.647	0.0159317
853.725	0.0158202
853.803	0.0157423
853.881	0.0157961
853.959	0.0158714
854.038	0.0158351
854.116	0.0158170
854.194	0.0157402
854.272	0.0156834
854.350	0.0157298
854.428	0.0158009
854.506	0.0158042
854.584	0.0157068
854.663	0.0156417
854.741	0.0155889
854.819	0.0155511
854.897	0.0157519
854.975	0.0156686
855.053	0.0156660
855.131	0.0156857
855.209	0.0155333
855.288	0.0155762
855.366	0.0156398
855.444	0.0156903
855.522	0.0156647
855.600	0.0155976
855.678	0.0156354
855.756	0.0157209
855.834	0.0156557
855.913	0.0157148
855.991	0.0155552
856.069	0.0154594
856.147	0.0156702
856.225	0.0157493
856.303	0.0154068
856.381	0.0153550
856.459	0.0153456
856.538	0.0154781
856.616	0.0153805
856.694	0.0153928
856.772	0.0153784
856.850	0.0152673
856.928	0.0153304
857.006	0.0153503
857.084	0.0152567
857.163	0.0152759
857.241	0.0152784
857.319	0.0152303
857.397	0.0153918
857.475	0.0153751
857.553	0.0153290
857.631	0.0151636
857.709	0.0153685
857.788	0.0153796
857.866	0.0152180
857.944	0.0151841
858.022	0.0152720
858.100	0.0151149
858.178	0.0152644
858.256	0.0154188
858.334	0.0154183
858.413	0.0153513
858.491	0.0153492
858.569	0.0154811
858.647	0.0153862
858.725	0.0153439
858.803	0.0154689
858.881	0.0154554
858.959	0.0155450
859.038	0.0155371
859.116	0.0154749
859.194	0.0156226
859.272	0.0155608
859.350	0.0155788
859.428	0.0154810
859.506	0.0156735
859.584	0.0155736
859.663	0.0155378
859.741	0.0155804
859.819	0.0155079
859.897	0.0153882
859.975	0.0154326
860.053	0.0154737
860.131	0.0153607
860.209	0.0153483
860.288	0.0153307
860.366	0.0152906
860.444	0.0152377
860.522	0.0153067
860.600	0.0152242
860.678	0.0151762
860.756	0.0152773
860.834	0.0154122
860.913	0.0152927
860.991	0.0153075
861.069	0.0152126
861.147	0.0152391
861.225	0.0152949
861.303	0.0152949
861.381	0.0154485
861.459	0.0154172
861.538	0.0154041
861.616	0.0154877
861.694	0.0155086
861.772	0.0155107
861.850	0.0155582
861.928	0.0155579
862.006	0.0157656
862.084	0.0156264
862.163	0.0154638
862.241	0.0157083
862.319	0.0157530
862.397	0.0156773
862.475	0.0157172
862.553	0.0157550
862.631	0.0157430
862.709	0.0156509
862.788	0.0156443
862.866	0.0157001
862.944	0.0156527
863.022	0.0156620
863.100	0.0157908
863.178	0.0156210
863.256	0.0156503
863.334	0.0157130
863.413	0.0156186
863.491	0.0156974
863.569	0.0156657
863.647	0.0156049
863.725	0.0156145
863.803	0.0155986
863.881	0.0156583
863.959	0.0156307
864.038	0.0156960
864.116	0.0155759
864.194	0.0155231
864.272	0.0155665
864.350	0.0155741
864.428	0.0153922
864.506	0.0155031
864.584	0.0155649
864.663	0.0155474
864.741	0.0154725
864.819	0.0155878
864.897	0.0155961
864.975	0.0155689
865.053	0.0156402
865.131	0.0155993
865.209	0.0156757
865.288	0.0157903
865.366	0.0155675
865.444	0.0155695
865.522	0.0156774
865.600	0.0158356
865.678	0.0155737
865.756	0.0155953
865.834	0.0156890
865.913	0.0156469
865.991	0.0155891
866.069	0.0155257
866.147	0.0155523
866.225	0.0155707
866.303	0.0155327
866.381	0.0155078
866.459	0.0154538
866.538	0.0154868
866.616	0.0154929
866.694	0.0155937
866.772	0.0156567
866.850	0.0154619
866.928	0.0155455
867.006	0.0154568
867.084	0.0154787
867.163	0.0154053
867.241	0.0153220
867.319	0.0153661
867.397	0.0155119
867.475	0.0152628
867.553	0.0153473
867.631	0.0153583
867.709	0.0153780
867.788	0.0154921
867.866	0.0152769
867.944	0.0154482
868.022	0.0153829
868.100	0.0153042
868.178	0.0155074
868.256	0.0154474
868.334	0.0153931
868.413	0.0154086
868.491	0.0154037
868.569	0.0154385
868.647	0.0155232
868.725	0.0154953
868.803	0.0154704
868.881	0.0154105
868.959	0.0154865
869.038	0.0155100
869.116	0.0155420
869.194	0.0155582
869.272	0.0154246
869.350	0.0153625
869.428	0.0154351
869.506	0.0153690
869.584	0.0154277
869.663	0.0153961
869.741	0.0154402
869.819	0.0155741
869.897	0.0153410
869.975	0.0154083
870.053	0.0154935
870.131	0.0156445
870.209	0.0154568
870.288	0.0155395
870.366	0.0154423
870.444	0.0154443
870.522	0.0154977
870.600	0.0153905
870.678	0.0156232
870.756	0.0155710
870.834	0.0156439
870.913	0.0156266
870.991	0.0155821
871.069	0.0155254
871.147	0.0156269
871.225	0.0157252
871.303	0.0157149
871.381	0.0157412
871.459	0.0156922
871.538	0.0156798
871.616	0.0157606
871.694	0.0157162
871.772	0.0157606
871.850	0.0156903
871.928	0.0158193
872.006	0.0156987
872.084	0.0156528
872.163	0.0157298
872.241	0.0156596
872.319	0.0156423
872.397	0.0157069
872.475	0.0156180
872.553	0.0154797
872.631	0.0155904
872.709	0.0155946
872.788	0.0156083
872.866	0.0155215
872.944	0.0154353
873.022	0.0153692
873.100	0.0154681
873.178	0.0153527
873.256	0.0154500
873.334	0.0153342
873.413	0.0153358
873.491	0.0154860
873.569	0.0153024
873.647	0.0154299
873.725	0.0154279
873.803	0.0154351
873.881	0.0155148
873.959	0.0155640
874.038	0.0154329
874.116	0.0155544
874.194	0.0155243
874.272	0.0156458
874.350	0.0156642
874.428	0.0155853
874.506	0.0157486
874.584	0.0157073
874.663	0.0156998
874.741	0.0156099
874.819	0.0155678
874.897	0.0156403
874.975	0.0156751
875.053	0.0156731
875.131	0.0155802
875.209	0.0154876
875.288	0.0155885
875.366	0.0155235
875.444	0.0153948
875.522	0.0155394
875.600	0.0154140
875.678	0.0153504
875.756	0.0152347
875.834	0.0154366
875.913	0.0153147
875.991	0.0153392
876.069	0.0153073
876.147	0.0153228
876.225	0.0153728
876.303	0.0153714
876.381	0.0152431
876.459	0.0152325
876.538	0.0152695
876.616	0.0153780
876.694	0.0153522
876.772	0.0153150
876.850	0.0153287
876.928	0.0152757
877.006	0.0154572
877.084	0.0152896
877.163	0.0154140
877.241	0.0153649
877.319	0.0153780
877.397	0.0153857
877.475	0.0155179
877.553	0.0154949
877.631	0.0154323
877.709	0.0155178
877.788	0.0155544
877.866	0.0156225
877.944	0.0155973
878.022	0.0155376
878.100	0.0155421
878.178	0.0155612
878.256	0.0156448
878.334	0.0156528
878.413	0.0155334
878.491	0.0155733
878.569	0.0156140
878.647	0.0156250
878.725	0.0156066
878.803	0.0157852
878.881	0.0155051
878.959	0.0154557
879.038	0.0155073
879.116	0.0154207
879.194	0.0153706
879.272	0.0154943
879.350	0.0155187
879.428	0.0154234
879.506	0.0153187
879.584	0.0153703
879.663	0.0154021
879.741	0.0155751
879.819	0.0154861
879.897	0.0154256
879.975	0.0155057
880.053	0.0155114
880.131	0.0155730
880.209	0.0155648
880.288	0.0154840
880.366	0.0155688
880.444	0.0156398
880.522	0.0155118
880.600	0.0155565
880.678	0.0156389
880.756	0.0156841
880.834	0.0155759
880.913	0.0156003
880.991	0.0157937
881.069	0.0154796
881.147	0.0154713
881.225	0.0155853
881.303	0.0154255
881.381	0.0154641
881.459	0.0155286
881.538	0.0154620
881.616	0.0154141
881.694	0.0154021
881.772	0.0154829
881.850	0.0154551
881.928	0.0153871
882.006	0.0153464
882.084	0.0154600
882.163	0.0153108
882.241	0.0152905
882.319	0.0153719
882.397	0.0152522
882.475	0.0151997
882.553	0.0154892
882.631	0.0152634
882.709	0.0153838
882.788	0.0155125
882.866	0.0154098
882.944	0.0153400
883.022	0.0153510
883.100	0.0153859
883.178	0.0153922
883.256	0.0154775
883.334	0.0154131
883.413	0.0154148
883.491	0.0153067
883.569	0.0153428
883.647	0.0154852
883.725	0.0154253
883.803	0.0153369
883.881	0.0153542
883.959	0.0155281
884.038	0.0155103
884.116	0.0153703
884.194	0.0154533
884.272	0.0154453
884.350	0.0154569
884.428	0.0154806
884.506	0.0154560
884.584	0.0153077
884.663	0.0154076
884.741	0.0153869
884.819	0.0154082
884.897	0.0154864
884.975	0.0153981
885.053	0.0153390
885.131	0.0153416
885.209	0.0155077
885.288	0.0154542
885.366	0.0154511
885.444	0.0155161
885.522	0.0156092
885.600	0.0155965
885.678	0.0156157
885.756	0.0156243
885.834	0.0156870
885.913	0.0157381
885.991	0.0157264
886.069	0.0156097
886.147	0.0156376
886.225	0.0157674
886.303	0.0156618
886.381	0.0156339
886.459	0.0158537
886.538	0.0157311
886.616	0.0158974
886.694	0.0157642
886.772	0.0158376
886.850	0.0158592
886.928	0.0158179
887.006	0.0157010
887.084	0.0158131
887.163	0.0158328
887.241	0.0157850
887.319	0.0158982
887.397	0.0157384
887.475	0.0156924
887.553	0.0156525
887.631	0.0156329
887.709	0.0156156
887.788	0.0154432
887.866	0.0154238
887.944	0.0154701
888.022	0.0155657
888.100	0.0155515
888.178	0.0153528
888.256	0.0152890
888.334	0.0152489
888.413	0.0153893
888.491	0.0153165
888.569	0.0153365
888.647	0.0153812
888.725	0.0153323
888.803	0.0154228
888.881	0.0153497
888.959	0.0152838
889.038	0.0152762
889.116	0.0155376
889.194	0.0154153
889.272	0.0155480
889.350	0.0155148
889.428	0.0155676
889.506	0.0154800
889.584	0.0155788
889.663	0.0156818
889.741	0.0154704
889.819	0.0154397
889.897	0.0156088
889.975	0.0156295
890.053	0.0156022
890.131	0.0156258
890.209	0.0155585
890.288	0.0155188
890.366	0.0156303
890.444	0.0155549
890.522	0.0155545
890.600	0.0154926
890.678	0.0154596
890.756	0.0155722
890.834	0.0155544
890.913	0.0155325
890.991	0.0154428
891.069	0.0154753
891.147	0.0154459
891.225	0.0155318
891.303	0.0154919
891.381	0.0153323
891.459	0.0154533
891.538	0.0154900
891.616	0.0154279
891.694	0.0153776
891.772	0.0155168
891.850	0.0154031
891.928	0.0154818
892.006	0.0154748
892.084	0.0153955
892.163	0.0154729
892.241	0.0154371
892.319	0.0153526
892.397	0.0154615
892.475	0.0154789
892.553	0.0154788
892.631	0.0154147
892.709	0.0154221
892.788	0.0154087
892.866	0.0154250
892.944	0.0155338
893.022	0.0154925
893.100	0.0154917
893.178	0.0154705
893.256	0.0156070
893.334	0.0156113
893.413	0.0156393
893.491	0.0154719
893.569	0.0156796
893.647	0.0155231
893.725	0.0155839
893.803	0.0155505
893.881	0.0156419
893.959	0.0155917
894.038	0.0156403
894.116	0.0155726
894.194	0.0155246
894.272	0.0156208
894.350	0.0156918
894.428	0.0156100
894.506	0.0155385
894.584	0.0157253
894.663	0.0155116
894.741	0.0155836
894.819	0.0157721
894.897	0.0156178
894.975	0.0156409
895.053	0.0155523
895.131	0.0157130
895.209	0.0156727
895.288	0.0158262
895.366	0.0156936
895.444	0.0157608
895.522	0.0156871
895.600	0.0157497
895.678	0.0156937
895.756	0.0156953
895.834	0.0157388
895.913	0.0157819
895.991	0.0157496
896.069	0.0157003
896.147	0.0156457
896.225	0.0157507
896.303	0.0157628
896.381	0.0156541
896.459	0.0156933
896.538	0.0157697
896.616	0.0155495
896.694	0.0155365
896.772	0.0155541
896.850	0.0155122
896.928	0.0154466
897.006	0.0153608
897.084	0.0155194
897.163	0.0153296
897.241	0.0153501
897.319	0.0153065
897.397	0.0152211
897.475	0.0151695
897.553	0.0151873
897.631	0.0154099
897.709	0.0152431
897.788	0.0152813
897.866	0.0153028
897.944	0.0153569
898.022	0.0155038
898.100	0.0152399
898.178	0.0153714
898.256	0.0155601
898.334	0.0154659
898.413	0.0155822
898.491	0.0156452
898.569	0.0155772
898.647	0.0156830
898.725	0.0157131
898.803	0.0158392
898.881	0.0157479
898.959	0.0158389
899.038	0.0157182
899.116	0.0157120
899.194	0.0157063
899.272	0.0156974
899.350	0.0156594
899.428	0.0156844
899.506	0.0156339
899.584	0.0157151
899.663	0.0156590
899.741	0.0156376
899.819	0.0156310
899.897	0.0156429
899.975	0.0155825
900.053	0.0155219
900.131	0.0154702
900.209	0.0157179
900.288	0.0156396
900.366	0.0154896
900.444	0.0154240
900.522	0.0155454
900.600	0.0154884
900.678	0.0155455
900.756	0.0153960
900.834	0.0152328
900.913	0.0153566
900.991	0.0153368
901.069	0.0154292
901.147	0.0153635
901.225	0.0152833
901.303	0.0151215
901.381	0.0153231
901.459	0.0150891
901.538	0.0152169
901.616	0.0153609
901.694	0.0152905
901.772	0.0152905
901.850	0.0152944
901.928	0.0153508
902.006	0.0153838
902.084	0.0152651
902.163	0.0153903
902.241	0.0155610
902.319	0.0155634
902.397	0.0154388
902.475	0.0156813
902.553	0.0155412
902.631	0.0154955
902.709	0.0155747
902.788	0.0156143
902.866	0.0157777
902.944	0.0157463
903.022	0.0158263
903.100	0.0155607
903.178	0.0156133
903.256	0.0156857
903.334	0.0157628
903.413	0.0157619
903.491	0.0157693
903.569	0.0156174
903.647	0.0155467
903.725	0.0156597
903.803	0.0156564
903.881	0.0155724
903.959	0.0155724
904.038	0.0155933
904.116	0.0155020
904.194	0.0154306
904.272	0.0155214
904.350	0.0154765
904.428	0.0154382
904.506	0.0152911
904.584	0.0152877
904.663	0.0152304
904.741	0.0152953
904.819	0.0152115
904.897	0.0151713
904.975	0.0151985
905.053	0.0152094
905.131	0.0150934
905.209	0.0151812
905.288	0.0152909
905.366	0.0152540
905.444	0.0152267
905.522	0.0152148
905.600	0.0151328
905.678	0.0153413
905.756	0.0153084
905.834	0.0152523
905.913	0.0152340
905.991	0.0154278
906.069	0.0153476
906.147	0.0152143
906.225	0.0154181
906.303	0.0154066
906.381	0.0154212
906.459	0.0154209
906.538	0.0153747
906.616	0.0155309
906.694	0.0153957
906.772	0.0154881
906.850	0.0153562
906.928	0.0154082
907.006	0.0156551
907.084	0.0156469
907.163	0.0156527
907.241	0.0156518
907.319	0.0155425
907.397	0.0155247
907.475	0.0154852
907.553	0.0157054
907.631	0.0157741
907.709	0.0156641
907.788	0.0155295
907.866	0.0155556
907.944	0.0156708
908.022	0.0155652
908.100	0.0155805
908.178	0.0154868
908.256	0.0155766
908.334	0.0156074
908.413	0.0154163
908.491	0.0154675
908.569	0.0154664
908.647	0.0155896
908.725	0.0154454
908.803	0.0154486
908.881	0.0155079
908.959	0.0155042
909.038	0.0155960
909.116	0.0156598
909.194	0.0155170
909.272	0.0153513
909.350	0.0154192
909.428	0.0154475
909.506	0.0155347
909.584	0.0155172
909.663	0.0153435
909.741	0.0153323
909.819	0.0154375
909.897	0.0154170
909.975	0.0152792
910.053	0.0154803
910.131	0.0154599
910.209	0.0154152
910.288	0.0153358
910.366	0.0154532
910.444	0.0153089
910.522	0.0154897
910.600	0.0155840
910.678	0.0154717
910.756	0.0155357
910.834	0.0154829
910.913	0.0155917
910.991	0.0154079
911.069	0.0155880
911.147	0.0156364
911.225	0.0154723
911.303	0.0157224
911.381	0.0155198
911.459	0.0154761
911.538	0.0155301
911.616	0.0156139
911.694	0.0156693
911.772	0.0156951
911.850	0.0155537
911.928	0.0155702
912.006	0.0155529
912.084	0.0156042
912.163	0.0156938
912.241	0.0155251
912.319	0.0154871
912.397	0.0154693
912.475	0.0155639
912.553	0.0156050
912.631	0.0155247
912.709	0.0155965
912.788	0.0155990
912.866	0.0154682
912.944	0.0154726
913.022	0.0154305
913.100	0.0155272
913.178	0.0153857
913.256	0.0154022
913.334	0.0155785
913.413	0.0154469
913.491	0.0154088
913.569	0.0154546
913.647	0.0153960
913.725	0.0154308
913.803	0.0153852
913.881	0.0153083
913.959	0.0154722
914.038	0.0155128
914.116	0.0153913
914.194	0.0154119
914.272	0.0156999
914.350	0.0154716
914.428	0.0154887
914.506	0.0155816
914.584	0.0154641
914.663	0.0156637
914.741	0.0154494
914.819	0.0155762
914.897	0.0156153
914.975	0.0155965
915.053	0.0154731
915.131	0.0156268
915.209	0.0156947
915.288	0.0157063
915.366	0.0156284
915.444	0.0156746
915.522	0.0158141
915.600	0.0158498
915.678	0.0158237
915.756	0.0158041
915.834	0.0157050
915.913	0.0157155
915.991	0.0157649
916.069	0.0156667
916.147	0.0156873
916.225	0.0156660
916.303	0.0157427
916.381	0.0157368
916.459	0.0157521
916.538	0.0158360
916.616	0.0158095
916.694	0.0158221
916.772	0.0157384
916.850	0.0157609
916.928	0.0157121
917.006	0.0156020
917.084	0.0156138
917.163	0.0155155
917.241	0.0156721
917.319	0.0156191
917.397	0.0155531
917.475	0.0155275
917.553	0.0154709
917.631	0.0155337
917.709	0.0155830
917.788	0.0156342
917.866	0.0154151
917.944	0.0155355
918.022	0.0155744
918.100	0.0156889
918.178	0.0156174
918.256	0.0155128
918.334	0.0156554
918.413	0.0155672
918.491	0.0155836
918.569	0.0154975
918.647	0.0156617
918.725	0.0156525
918.803	0.0155322
918.881	0.0156527
918.959	0.0157730
919.038	0.0157394
919.116	0.0157361
919.194	0.0156359
919.272	0.0155776
919.350	0.0157039
919.428	0.0156506
919.506	0.0156621
919.584	0.0155617
919.663	0.0157217
919.741	0.0157281
919.819	0.0156530
919.897	0.0155647
