05/20/2022	21:15:44	Ver.	4.1	UNKNOWN
Optical Delay	599.975067	Delta X		0.078125	Sweeps	1	Scan Rate	0/0
Coordinates	Axis 1	NaN	Axis 2	NaN	Axis 3	NaN	Axis 4	NaN	Axis 5	NaN	Axis 6	0.000000
TX Power	0.000000	RX Power	0.000000

599.975	0.0155279
600.053	0.0154790
600.131	0.0154318
600.209	0.0154810
600.288	0.0154088
600.366	0.0154833
600.444	0.0154868
600.522	0.0154616
600.600	0.0155170
600.678	0.0156654
600.756	0.0157005
600.834	0.0156586
600.913	0.0155804
600.991	0.0157245
601.069	0.0155742
601.147	0.0156208
601.225	0.0156470
601.303	0.0156863
601.381	0.0157683
601.459	0.0157678
601.538	0.0157037
601.616	0.0157014
601.694	0.0157488
601.772	0.0156432
601.850	0.0157856
601.928	0.0156275
602.006	0.0157591
602.084	0.0157709
602.163	0.0157716
602.241	0.0157627
602.319	0.0156763
602.397	0.0156442
602.475	0.0157634
602.553	0.0157761
602.631	0.0156718
602.709	0.0156886
602.788	0.0156211
602.866	0.0156941
602.944	0.0155266
603.022	0.0155541
603.100	0.0156555
603.178	0.0157439
603.256	0.0158432
603.334	0.0156482
603.413	0.0157603
603.491	0.0156763
603.569	0.0156149
603.647	0.0157312
603.725	0.0156367
603.803	0.0157058
603.881	0.0157279
603.959	0.0156577
604.038	0.0156384
604.116	0.0156519
604.194	0.0156046
604.272	0.0156742
604.350	0.0156534
604.428	0.0156335
604.506	0.0157690
604.584	0.0156355
604.663	0.0156798
604.741	0.0156510
604.819	0.0155435
604.897	0.0156479
604.975	0.0156972
605.053	0.0156236
605.131	0.0156103
605.209	0.0156161
605.288	0.0157251
605.366	0.0156352
605.444	0.0157664
605.522	0.0158853
605.600	0.0157139
605.678	0.0156866
605.756	0.0156853
605.834	0.0155749
605.913	0.0156682
605.991	0.0158179
606.069	0.0157962
606.147	0.0157471
606.225	0.0157483
606.303	0.0158153
606.381	0.0157327
606.459	0.0157735
606.538	0.0158544
606.616	0.0158301
606.694	0.0157688
606.772	0.0159016
606.850	0.0158454
606.928	0.0158421
607.006	0.0158257
607.084	0.0159616
607.163	0.0157861
607.241	0.0158261
607.319	0.0158634
607.397	0.0158276
607.475	0.0158752
607.553	0.0157264
607.631	0.0157500
607.709	0.0158995
607.788	0.0160154
607.866	0.0157520
607.944	0.0157593
608.022	0.0159049
608.100	0.0157446
608.178	0.0158069
608.256	0.0157388
608.334	0.0158591
608.413	0.0157918
608.491	0.0157992
608.569	0.0158649
608.647	0.0159365
608.725	0.0159651
608.803	0.0156837
608.881	0.0156041
608.959	0.0157539
609.038	0.0157349
609.116	0.0158812
609.194	0.0157311
609.272	0.0156175
609.350	0.0156549
609.428	0.0156945
609.506	0.0157491
609.584	0.0155979
609.663	0.0156835
609.741	0.0156123
609.819	0.0157440
609.897	0.0157214
609.975	0.0157858
610.053	0.0156868
610.131	0.0157044
610.209	0.0157008
610.288	0.0157749
610.366	0.0156637
610.444	0.0155604
610.522	0.0156156
610.600	0.0157040
610.678	0.0156082
610.756	0.0156208
610.834	0.0156544
610.913	0.0155943
610.991	0.0156984
611.069	0.0156685
611.147	0.0156890
611.225	0.0156149
611.303	0.0156162
611.381	0.0155933
611.459	0.0157028
611.538	0.0156979
611.616	0.0155603
611.694	0.0157990
611.772	0.0156486
611.850	0.0157154
611.928	0.0156379
612.006	0.0155893
612.084	0.0157560
612.163	0.0156116
612.241	0.0154860
612.319	0.0157114
612.397	0.0157175
612.475	0.0155404
612.553	0.0156724
612.631	0.0156660
612.709	0.0155650
612.788	0.0155488
612.866	0.0155518
612.944	0.0156106
613.022	0.0156539
613.100	0.0155875
613.178	0.0155751
613.256	0.0156772
613.334	0.0155962
613.413	0.0156296
613.491	0.0154811
613.569	0.0156612
613.647	0.0156390
613.725	0.0154961
613.803	0.0155986
613.881	0.0156705
613.959	0.0156769
614.038	0.0156152
614.116	0.0155746
614.194	0.0156123
614.272	0.0157050
614.350	0.0155865
614.428	0.0156391
614.506	0.0157124
614.584	0.0157487
614.663	0.0156754
614.741	0.0156409
614.819	0.0157749
614.897	0.0156470
614.975	0.0156599
615.053	0.0155502
615.131	0.0157215
615.209	0.0157710
615.288	0.0157487
615.366	0.0157172
615.444	0.0157088
615.522	0.0157386
615.600	0.0157241
615.678	0.0156627
615.756	0.0157108
615.834	0.0157166
615.913	0.0157876
615.991	0.0157021
616.069	0.0157600
616.147	0.0156110
616.225	0.0156885
616.303	0.0158495
616.381	0.0156530
616.459	0.0155861
616.538	0.0156483
616.616	0.0156847
616.694	0.0156535
616.772	0.0155705
616.850	0.0156380
616.928	0.0155502
617.006	0.0156321
617.084	0.0156515
617.163	0.0155530
617.241	0.0154757
617.319	0.0157807
617.397	0.0156693
617.475	0.0156006
617.553	0.0154848
617.631	0.0153867
617.709	0.0154951
617.788	0.0156926
617.866	0.0155250
617.944	0.0155524
618.022	0.0156178
618.100	0.0155888
618.178	0.0156079
618.256	0.0154716
618.334	0.0154839
618.413	0.0156388
618.491	0.0155996
618.569	0.0156969
618.647	0.0156392
618.725	0.0155851
618.803	0.0154839
618.881	0.0154619
618.959	0.0155164
619.038	0.0155782
619.116	0.0155846
619.194	0.0154660
619.272	0.0154602
619.350	0.0154075
619.428	0.0154704
619.506	0.0154880
619.584	0.0153966
619.663	0.0154369
619.741	0.0154815
619.819	0.0154271
619.897	0.0153935
619.975	0.0154372
620.053	0.0154007
620.131	0.0153539
620.209	0.0155001
620.288	0.0155611
620.366	0.0156073
620.444	0.0155500
620.522	0.0153680
620.600	0.0155740
620.678	0.0154623
620.756	0.0155565
620.834	0.0154497
620.913	0.0153916
620.991	0.0155643
621.069	0.0154192
621.147	0.0154637
621.225	0.0154848
621.303	0.0155004
621.381	0.0154805
621.459	0.0153073
621.538	0.0154539
621.616	0.0154475
621.694	0.0154166
621.772	0.0154726
621.850	0.0153414
621.928	0.0154761
622.006	0.0153452
622.084	0.0152695
622.163	0.0156363
622.241	0.0155040
622.319	0.0154521
622.397	0.0154045
622.475	0.0153004
622.553	0.0154456
622.631	0.0155263
622.709	0.0156242
622.788	0.0155069
622.866	0.0154171
622.944	0.0155244
623.022	0.0154292
623.100	0.0156375
623.178	0.0154875
623.256	0.0154897
623.334	0.0155692
623.413	0.0155766
623.491	0.0155289
623.569	0.0155572
623.647	0.0153692
623.725	0.0153461
623.803	0.0155323
623.881	0.0155366
623.959	0.0153576
624.038	0.0152843
624.116	0.0155194
624.194	0.0154488
624.272	0.0153096
624.350	0.0154840
624.428	0.0153579
624.506	0.0154050
624.584	0.0156147
624.663	0.0154070
624.741	0.0154916
624.819	0.0155049
624.897	0.0155940
624.975	0.0155430
625.053	0.0156004
625.131	0.0155882
625.209	0.0156390
625.288	0.0154861
625.366	0.0154970
625.444	0.0156036
625.522	0.0155879
625.600	0.0157709
625.678	0.0155663
625.756	0.0157156
625.834	0.0155714
625.913	0.0158529
625.991	0.0155375
626.069	0.0156011
626.147	0.0156110
626.225	0.0156775
626.303	0.0156319
626.381	0.0156470
626.459	0.0157587
626.538	0.0155872
626.616	0.0155788
626.694	0.0157838
626.772	0.0158993
626.850	0.0156868
626.928	0.0158630
627.006	0.0157828
627.084	0.0156931
627.163	0.0157037
627.241	0.0157302
627.319	0.0158080
627.397	0.0158714
627.475	0.0157079
627.553	0.0157473
627.631	0.0156912
627.709	0.0158143
627.788	0.0158177
627.866	0.0157499
627.944	0.0158643
628.022	0.0158280
628.100	0.0158891
628.178	0.0156623
628.256	0.0157109
628.334	0.0159124
628.413	0.0159475
628.491	0.0159404
628.569	0.0158234
628.647	0.0156186
628.725	0.0157921
628.803	0.0158544
628.881	0.0157491
628.959	0.0158606
629.038	0.0159535
629.116	0.0158421
629.194	0.0157108
629.272	0.0157639
629.350	0.0157063
629.428	0.0158235
629.506	0.0157072
629.584	0.0157467
629.663	0.0157227
629.741	0.0157857
629.819	0.0157904
629.897	0.0156391
629.975	0.0158140
630.053	0.0157385
630.131	0.0157603
630.209	0.0156850
630.288	0.0157359
630.366	0.0156229
630.444	0.0157372
630.522	0.0155830
630.600	0.0156590
630.678	0.0156499
630.756	0.0158540
630.834	0.0157278
630.913	0.0156939
630.991	0.0156232
631.069	0.0156817
631.147	0.0157388
631.225	0.0156820
631.303	0.0157121
631.381	0.0155369
631.459	0.0156691
631.538	0.0156828
631.616	0.0156625
631.694	0.0155987
631.772	0.0155985
631.850	0.0156012
631.928	0.0156180
632.006	0.0154948
632.084	0.0154520
632.163	0.0157159
632.241	0.0155157
632.319	0.0155859
632.397	0.0157792
632.475	0.0155763
632.553	0.0155783
632.631	0.0156091
632.709	0.0158022
632.788	0.0156915
632.866	0.0156327
632.944	0.0156091
633.022	0.0155625
633.100	0.0156140
633.178	0.0157989
633.256	0.0157090
633.334	0.0156303
633.413	0.0155381
633.491	0.0156676
633.569	0.0157657
633.647	0.0156246
633.725	0.0156076
633.803	0.0156480
633.881	0.0155987
633.959	0.0155824
634.038	0.0155857
634.116	0.0156008
634.194	0.0155138
634.272	0.0154434
634.350	0.0155675
634.428	0.0155702
634.506	0.0154895
634.584	0.0155748
634.663	0.0155146
634.741	0.0154996
634.819	0.0155750
634.897	0.0156844
634.975	0.0157164
635.053	0.0155769
635.131	0.0155882
635.209	0.0155965
635.288	0.0156033
635.366	0.0157081
635.444	0.0156590
635.522	0.0155430
635.600	0.0155719
635.678	0.0155977
635.756	0.0156111
635.834	0.0156911
635.913	0.0156654
635.991	0.0156305
636.069	0.0154494
636.147	0.0155096
636.225	0.0155627
636.303	0.0155894
636.381	0.0156576
636.459	0.0156464
636.538	0.0155848
636.616	0.0155739
636.694	0.0155637
636.772	0.0155424
636.850	0.0156573
636.928	0.0156116
637.006	0.0156103
637.084	0.0157748
637.163	0.0156194
637.241	0.0156983
637.319	0.0156886
637.397	0.0156237
637.475	0.0157613
637.553	0.0156698
637.631	0.0156255
637.709	0.0156290
637.788	0.0158084
637.866	0.0157576
637.944	0.0157735
638.022	0.0156709
638.100	0.0157296
638.178	0.0156201
638.256	0.0157673
638.334	0.0156658
638.413	0.0156243
638.491	0.0156171
638.569	0.0155913
638.647	0.0154632
638.725	0.0156336
638.803	0.0155620
638.881	0.0157821
638.959	0.0155332
639.038	0.0155527
639.116	0.0155524
639.194	0.0154811
639.272	0.0156479
639.350	0.0154807
639.428	0.0155750
639.506	0.0157221
639.584	0.0156306
639.663	0.0156247
639.741	0.0155139
639.819	0.0157009
639.897	0.0157142
639.975	0.0156833
640.053	0.0155925
640.131	0.0156861
640.209	0.0156361
640.288	0.0156372
640.366	0.0156091
640.444	0.0156156
640.522	0.0156087
640.600	0.0156907
640.678	0.0154477
640.756	0.0156791
640.834	0.0155330
640.913	0.0154376
640.991	0.0155614
641.069	0.0154420
641.147	0.0153241
641.225	0.0153999
641.303	0.0155563
641.381	0.0154350
641.459	0.0154363
641.538	0.0154584
641.616	0.0155331
641.694	0.0154991
641.772	0.0155383
641.850	0.0154637
641.928	0.0154661
642.006	0.0154596
642.084	0.0154313
642.163	0.0153661
642.241	0.0154974
642.319	0.0154675
642.397	0.0154167
642.475	0.0153725
642.553	0.0154220
642.631	0.0153797
642.709	0.0153801
642.788	0.0154020
642.866	0.0154780
642.944	0.0155153
643.022	0.0154369
643.100	0.0154355
643.178	0.0155271
643.256	0.0154751
643.334	0.0154326
643.413	0.0154412
643.491	0.0155140
643.569	0.0154035
643.647	0.0154622
643.725	0.0154449
643.803	0.0154437
643.881	0.0155103
643.959	0.0154851
644.038	0.0155151
644.116	0.0154192
644.194	0.0155238
644.272	0.0155447
644.350	0.0155943
644.428	0.0154161
644.506	0.0154575
644.584	0.0155595
644.663	0.0155408
644.741	0.0153902
644.819	0.0153625
644.897	0.0155112
644.975	0.0155833
645.053	0.0157175
645.131	0.0157104
645.209	0.0156448
645.288	0.0155785
645.366	0.0157407
645.444	0.0157010
645.522	0.0156500
645.600	0.0156828
645.678	0.0155020
645.756	0.0156915
645.834	0.0156657
645.913	0.0155977
645.991	0.0155733
646.069	0.0156352
646.147	0.0155762
646.225	0.0155981
646.303	0.0156447
646.381	0.0155705
646.459	0.0155662
646.538	0.0154613
646.616	0.0155446
646.694	0.0154976
646.772	0.0156356
646.850	0.0155023
646.928	0.0155998
647.006	0.0154861
647.084	0.0156985
647.163	0.0156326
647.241	0.0156094
647.319	0.0155026
647.397	0.0155482
647.475	0.0155054
647.553	0.0155603
647.631	0.0156305
647.709	0.0155065
647.788	0.0155589
647.866	0.0156361
647.944	0.0155735
648.022	0.0156909
648.100	0.0157886
648.178	0.0156143
648.256	0.0156004
648.334	0.0156072
648.413	0.0157146
648.491	0.0157184
648.569	0.0157468
648.647	0.0156949
648.725	0.0157635
648.803	0.0158872
648.881	0.0157476
648.959	0.0157255
649.038	0.0157392
649.116	0.0158215
649.194	0.0157293
649.272	0.0156851
649.350	0.0158070
649.428	0.0159067
649.506	0.0159907
649.584	0.0158705
649.663	0.0159168
649.741	0.0159222
649.819	0.0159903
649.897	0.0158962
649.975	0.0158839
650.053	0.0160151
650.131	0.0160627
650.209	0.0160227
650.288	0.0159909
650.366	0.0161145
650.444	0.0160820
650.522	0.0159859
650.600	0.0158849
650.678	0.0160499
650.756	0.0160120
650.834	0.0159444
650.913	0.0160562
650.991	0.0159766
651.069	0.0160436
651.147	0.0159825
651.225	0.0160049
651.303	0.0160727
651.381	0.0160307
651.459	0.0158694
651.538	0.0160085
651.616	0.0159332
651.694	0.0159906
651.772	0.0158218
651.850	0.0156844
651.928	0.0156609
652.006	0.0156913
652.084	0.0156940
652.163	0.0157209
652.241	0.0156210
652.319	0.0155756
652.397	0.0154939
652.475	0.0156708
652.553	0.0154628
652.631	0.0156053
652.709	0.0155655
652.788	0.0155487
652.866	0.0154858
652.944	0.0155798
653.022	0.0154878
653.100	0.0155746
653.178	0.0154861
653.256	0.0155470
653.334	0.0155433
653.413	0.0154632
653.491	0.0154107
653.569	0.0153722
653.647	0.0153606
653.725	0.0154881
653.803	0.0153834
653.881	0.0153096
653.959	0.0152534
654.038	0.0152460
654.116	0.0152417
654.194	0.0152822
654.272	0.0153252
654.350	0.0153562
654.428	0.0153056
654.506	0.0153714
654.584	0.0153325
654.663	0.0154317
654.741	0.0154189
654.819	0.0154109
654.897	0.0154527
654.975	0.0155193
655.053	0.0153564
655.131	0.0154323
655.209	0.0155484
655.288	0.0156299
655.366	0.0154600
655.444	0.0155165
655.522	0.0156954
655.600	0.0155413
655.678	0.0155314
655.756	0.0156002
655.834	0.0155553
655.913	0.0155310
655.991	0.0155719
656.069	0.0156178
656.147	0.0156115
656.225	0.0157586
656.303	0.0155943
656.381	0.0154379
656.459	0.0155421
656.538	0.0156947
656.616	0.0155027
656.694	0.0155984
656.772	0.0157343
656.850	0.0157087
656.928	0.0156876
657.006	0.0156345
657.084	0.0156687
657.163	0.0156283
657.241	0.0156494
657.319	0.0156581
657.397	0.0158000
657.475	0.0157285
657.553	0.0155283
657.631	0.0157296
657.709	0.0155878
657.788	0.0155193
657.866	0.0154970
657.944	0.0156739
658.022	0.0156609
658.100	0.0156062
658.178	0.0154848
658.256	0.0155859
658.334	0.0156682
658.413	0.0155602
658.491	0.0155311
658.569	0.0154799
658.647	0.0154262
658.725	0.0153831
658.803	0.0155001
658.881	0.0155089
658.959	0.0155402
659.038	0.0155514
659.116	0.0155862
659.194	0.0154620
659.272	0.0156548
659.350	0.0156393
659.428	0.0155566
659.506	0.0156813
659.584	0.0155463
659.663	0.0155658
659.741	0.0156762
659.819	0.0155544
659.897	0.0155619
659.975	0.0154387
660.053	0.0156378
660.131	0.0155794
660.209	0.0155028
660.288	0.0155478
660.366	0.0154933
660.444	0.0155515
660.522	0.0155198
660.600	0.0155360
660.678	0.0155054
660.756	0.0156097
660.834	0.0155451
660.913	0.0155009
660.991	0.0156046
661.069	0.0155492
661.147	0.0155531
661.225	0.0155153
661.303	0.0155410
661.381	0.0156009
661.459	0.0155538
661.538	0.0156400
661.616	0.0155956
661.694	0.0157218
661.772	0.0157021
661.850	0.0156033
661.928	0.0155509
662.006	0.0156790
662.084	0.0155922
662.163	0.0156918
662.241	0.0156875
662.319	0.0156643
662.397	0.0156450
662.475	0.0154549
662.553	0.0156409
662.631	0.0157205
662.709	0.0156007
662.788	0.0155447
662.866	0.0155887
662.944	0.0156136
663.022	0.0154976
663.100	0.0157045
663.178	0.0156610
663.256	0.0155584
663.334	0.0155952
663.413	0.0156889
663.491	0.0156134
663.569	0.0156190
663.647	0.0155626
663.725	0.0156432
663.803	0.0156042
663.881	0.0156724
663.959	0.0154956
664.038	0.0155050
664.116	0.0156008
664.194	0.0156693
664.272	0.0154744
664.350	0.0154569
664.428	0.0155853
664.506	0.0153415
664.584	0.0154131
664.663	0.0155453
664.741	0.0154855
664.819	0.0154316
664.897	0.0155286
664.975	0.0155029
665.053	0.0154987
665.131	0.0154945
665.209	0.0155294
665.288	0.0158039
665.366	0.0156052
665.444	0.0157334
665.522	0.0156888
665.600	0.0156038
665.678	0.0157170
665.756	0.0156694
665.834	0.0156558
665.913	0.0157912
665.991	0.0156497
666.069	0.0156167
666.147	0.0158318
666.225	0.0155931
666.303	0.0157149
666.381	0.0156905
666.459	0.0155685
666.538	0.0156743
666.616	0.0156895
666.694	0.0158498
666.772	0.0157517
666.850	0.0156747
666.928	0.0158036
667.006	0.0158764
667.084	0.0158963
667.163	0.0158761
667.241	0.0157320
667.319	0.0157043
667.397	0.0157316
667.475	0.0158302
667.553	0.0155450
667.631	0.0156674
667.709	0.0155286
667.788	0.0155456
667.866	0.0155186
667.944	0.0154862
668.022	0.0155859
668.100	0.0153942
668.178	0.0154671
668.256	0.0154315
668.334	0.0153536
668.413	0.0154733
668.491	0.0154054
668.569	0.0155216
668.647	0.0154896
668.725	0.0155631
668.803	0.0157545
668.881	0.0158405
668.959	0.0158139
669.038	0.0158741
669.116	0.0160326
669.194	0.0160601
669.272	0.0160582
669.350	0.0160851
669.428	0.0161911
669.506	0.0162080
669.584	0.0161982
669.663	0.0160876
669.741	0.0161373
669.819	0.0162104
669.897	0.0161956
669.975	0.0161319
670.053	0.0162384
670.131	0.0160607
670.209	0.0161156
670.288	0.0161018
670.366	0.0159229
670.444	0.0161467
670.522	0.0161696
670.600	0.0159867
670.678	0.0158917
670.756	0.0156999
670.834	0.0157562
670.913	0.0157153
670.991	0.0156491
671.069	0.0156376
671.147	0.0155353
671.225	0.0153771
671.303	0.0152863
671.381	0.0151804
671.459	0.0151936
671.538	0.0151045
671.616	0.0149268
671.694	0.0149985
671.772	0.0151610
671.850	0.0151566
671.928	0.0151024
672.006	0.0150657
672.084	0.0150959
672.163	0.0152335
672.241	0.0151873
672.319	0.0154156
672.397	0.0156870
672.475	0.0156136
672.553	0.0157708
672.631	0.0158187
672.709	0.0159554
672.788	0.0162360
672.866	0.0164532
672.944	0.0164935
673.022	0.0165223
673.100	0.0167081
673.178	0.0168256
673.256	0.0169255
673.334	0.0170356
673.413	0.0171445
673.491	0.0171182
673.569	0.0170461
673.647	0.0170567
673.725	0.0170587
673.803	0.0169964
673.881	0.0169733
673.959	0.0168502
674.038	0.0166306
674.116	0.0164753
674.194	0.0163714
674.272	0.0160253
674.350	0.0158947
674.428	0.0156275
674.506	0.0152560
674.584	0.0151098
674.663	0.0147510
674.741	0.0145969
674.819	0.0143112
674.897	0.0140721
674.975	0.0138406
675.053	0.0137699
675.131	0.0136468
675.209	0.0134564
675.288	0.0134778
675.366	0.0133968
675.444	0.0135899
675.522	0.0136626
675.600	0.0137103
675.678	0.0137522
675.756	0.0137424
675.834	0.0139615
675.913	0.0141610
675.991	0.0143835
676.069	0.0145940
676.147	0.0147469
676.225	0.0148864
676.303	0.0153266
676.381	0.0155012
676.459	0.0158253
676.538	0.0162196
676.616	0.0164798
676.694	0.0167738
676.772	0.0168758
676.850	0.0170915
676.928	0.0174423
677.006	0.0175777
677.084	0.0176858
677.163	0.0179076
677.241	0.0178999
677.319	0.0177675
677.397	0.0177405
677.475	0.0177573
677.553	0.0176796
677.631	0.0175417
677.709	0.0174484
677.788	0.0170470
677.866	0.0168681
677.944	0.0167746
678.022	0.0165140
678.100	0.0163888
678.178	0.0161301
678.256	0.0158468
678.334	0.0156200
678.413	0.0153549
678.491	0.0150601
678.569	0.0147996
678.647	0.0145337
678.725	0.0143642
678.803	0.0142212
678.881	0.0140955
678.959	0.0138094
679.038	0.0137056
679.116	0.0136903
679.194	0.0136761
679.272	0.0138110
679.350	0.0138171
679.428	0.0138718
679.506	0.0139504
679.584	0.0141573
679.663	0.0141924
679.741	0.0144988
679.819	0.0146403
679.897	0.0149480
679.975	0.0150716
680.053	0.0153706
680.131	0.0154483
680.209	0.0156608
680.288	0.0159452
680.366	0.0161791
680.444	0.0161867
680.522	0.0162836
680.600	0.0163663
680.678	0.0165430
680.756	0.0167098
680.834	0.0166930
680.913	0.0167914
680.991	0.0167297
681.069	0.0167505
681.147	0.0168340
681.225	0.0168075
681.303	0.0166689
681.381	0.0164767
681.459	0.0164884
681.538	0.0164699
681.616	0.0163844
681.694	0.0162478
681.772	0.0160383
681.850	0.0159611
681.928	0.0158768
682.006	0.0158575
682.084	0.0156264
682.163	0.0156422
682.241	0.0156055
682.319	0.0154800
682.397	0.0155066
682.475	0.0155500
682.553	0.0156577
682.631	0.0155206
682.709	0.0156615
682.788	0.0155803
682.866	0.0156072
682.944	0.0157104
683.022	0.0158679
683.100	0.0155010
683.178	0.0157793
683.256	0.0157373
683.334	0.0156278
683.413	0.0156101
683.491	0.0155466
683.569	0.0154828
683.647	0.0155708
683.725	0.0153802
683.803	0.0155205
683.881	0.0155340
683.959	0.0152123
684.038	0.0152515
684.116	0.0152211
684.194	0.0151720
684.272	0.0151414
684.350	0.0149271
684.428	0.0149205
684.506	0.0149672
684.584	0.0148235
684.663	0.0148242
684.741	0.0149166
684.819	0.0148280
684.897	0.0147267
684.975	0.0146963
685.053	0.0148717
685.131	0.0149419
685.209	0.0150651
685.288	0.0149754
685.366	0.0151116
685.444	0.0152708
685.522	0.0154549
685.600	0.0156681
685.678	0.0157098
685.756	0.0158471
685.834	0.0159210
685.913	0.0160763
685.991	0.0160699
686.069	0.0160867
686.147	0.0162762
686.225	0.0162556
686.303	0.0162386
686.381	0.0161788
686.459	0.0162363
686.538	0.0162399
686.616	0.0162967
686.694	0.0162112
686.772	0.0162665
686.850	0.0163470
686.928	0.0161919
687.006	0.0161475
687.084	0.0161993
687.163	0.0162157
687.241	0.0160618
687.319	0.0160656
687.397	0.0161274
687.475	0.0160136
687.553	0.0160513
687.631	0.0159302
687.709	0.0157216
687.788	0.0156770
687.866	0.0155696
687.944	0.0155824
688.022	0.0157917
688.100	0.0154900
688.178	0.0155344
688.256	0.0153907
688.334	0.0154372
688.413	0.0154898
688.491	0.0153955
688.569	0.0151514
688.647	0.0153413
688.725	0.0153484
688.803	0.0152565
688.881	0.0153394
688.959	0.0150592
689.038	0.0150362
689.116	0.0148716
689.194	0.0149336
689.272	0.0148895
689.350	0.0148782
689.428	0.0147798
689.506	0.0147083
689.584	0.0146800
689.663	0.0146134
689.741	0.0146651
689.819	0.0145745
689.897	0.0145493
689.975	0.0145081
690.053	0.0147460
690.131	0.0147034
690.209	0.0149332
690.288	0.0150234
690.366	0.0150692
690.444	0.0153215
690.522	0.0155466
690.600	0.0157257
690.678	0.0159457
690.756	0.0161636
690.834	0.0162023
690.913	0.0164424
690.991	0.0167154
691.069	0.0167793
691.147	0.0168061
691.225	0.0169759
691.303	0.0170385
691.381	0.0170354
691.459	0.0171522
691.538	0.0169962
691.616	0.0171116
691.694	0.0171785
691.772	0.0170514
691.850	0.0169676
691.928	0.0170287
692.006	0.0168662
692.084	0.0167304
692.163	0.0164603
692.241	0.0163911
692.319	0.0161143
692.397	0.0158574
692.475	0.0155550
692.553	0.0153307
692.631	0.0150201
692.709	0.0146487
692.788	0.0144916
692.866	0.0142945
692.944	0.0140044
693.022	0.0138180
693.100	0.0137269
693.178	0.0135260
693.256	0.0135240
693.334	0.0134640
693.413	0.0135548
693.491	0.0136107
693.569	0.0136697
693.647	0.0137014
693.725	0.0139658
693.803	0.0143327
693.881	0.0143830
693.959	0.0146394
694.038	0.0150449
694.116	0.0153082
694.194	0.0155517
694.272	0.0158624
694.350	0.0161074
694.428	0.0163306
694.506	0.0166308
694.584	0.0167800
694.663	0.0170651
694.741	0.0172884
694.819	0.0174571
694.897	0.0175471
694.975	0.0177850
695.053	0.0178590
695.131	0.0177988
695.209	0.0176828
695.288	0.0178922
695.366	0.0176562
695.444	0.0175728
695.522	0.0173151
695.600	0.0172135
695.678	0.0169647
695.756	0.0165526
695.834	0.0163917
695.913	0.0162038
695.991	0.0157675
696.069	0.0154170
696.147	0.0150610
696.225	0.0147066
696.303	0.0143754
696.381	0.0142136
696.459	0.0140240
696.538	0.0138803
696.616	0.0139108
696.694	0.0135387
696.772	0.0134990
696.850	0.0135324
696.928	0.0136833
697.006	0.0134648
697.084	0.0135381
697.163	0.0137998
697.241	0.0138372
697.319	0.0139008
697.397	0.0141604
697.475	0.0143155
697.553	0.0145368
697.631	0.0147952
697.709	0.0151292
697.788	0.0154331
697.866	0.0157742
697.944	0.0159175
698.022	0.0164751
698.100	0.0165459
698.178	0.0168468
698.256	0.0169953
698.334	0.0171188
698.413	0.0173466
698.491	0.0173873
698.569	0.0175462
698.647	0.0174557
698.725	0.0172150
698.803	0.0171339
698.881	0.0171137
698.959	0.0167683
699.038	0.0166727
699.116	0.0167987
699.194	0.0164526
699.272	0.0164758
699.350	0.0162543
699.428	0.0160445
699.506	0.0161200
699.584	0.0157531
699.663	0.0156573
699.741	0.0155143
699.819	0.0152782
699.897	0.0151082
699.975	0.0147833
700.053	0.0145271
700.131	0.0143666
700.209	0.0143412
700.288	0.0140560
700.366	0.0139675
700.444	0.0139326
700.522	0.0140462
700.600	0.0140779
700.678	0.0139597
700.756	0.0140059
700.834	0.0142839
700.913	0.0143081
700.991	0.0143074
701.069	0.0144997
701.147	0.0146216
701.225	0.0146725
701.303	0.0146986
701.381	0.0149184
701.459	0.0151536
701.538	0.0153210
701.616	0.0152785
701.694	0.0155429
701.772	0.0157048
701.850	0.0160693
701.928	0.0162157
702.006	0.0163936
702.084	0.0164033
702.163	0.0165231
702.241	0.0166695
702.319	0.0168011
702.397	0.0168906
702.475	0.0170454
702.553	0.0168591
702.631	0.0169427
702.709	0.0169604
702.788	0.0170246
702.866	0.0169431
702.944	0.0169594
703.022	0.0171275
703.100	0.0169492
703.178	0.0169201
703.256	0.0169403
703.334	0.0168754
703.413	0.0169323
703.491	0.0170006
703.569	0.0168786
703.647	0.0168352
703.725	0.0168376
703.803	0.0167731
703.881	0.0166835
703.959	0.0164874
704.038	0.0164545
704.116	0.0164108
704.194	0.0162294
704.272	0.0162977
704.350	0.0161160
704.428	0.0159729
704.506	0.0156579
704.584	0.0156422
704.663	0.0155545
704.741	0.0153594
704.819	0.0152534
704.897	0.0150049
704.975	0.0147127
705.053	0.0146339
705.131	0.0143694
705.209	0.0143197
705.288	0.0139374
705.366	0.0139299
705.444	0.0137712
705.522	0.0134718
705.600	0.0134629
705.678	0.0135205
705.756	0.0133292
705.834	0.0132973
705.913	0.0132823
705.991	0.0132355
706.069	0.0131964
706.147	0.0133677
706.225	0.0134877
706.303	0.0136528
706.381	0.0139058
706.459	0.0143066
706.538	0.0142619
706.616	0.0145992
706.694	0.0148543
706.772	0.0149712
706.850	0.0153677
706.928	0.0158391
707.006	0.0159428
707.084	0.0161736
707.163	0.0163380
707.241	0.0164960
707.319	0.0168102
707.397	0.0170802
707.475	0.0171426
707.553	0.0172401
707.631	0.0175417
707.709	0.0177393
707.788	0.0179631
707.866	0.0181814
707.944	0.0182611
708.022	0.0184665
708.100	0.0186452
708.178	0.0188496
708.256	0.0189153
708.334	0.0188636
708.413	0.0189608
708.491	0.0189732
708.569	0.0186441
708.647	0.0185505
708.725	0.0184346
708.803	0.0179869
708.881	0.0176729
708.959	0.0171398
709.038	0.0167611
709.116	0.0164053
709.194	0.0156992
709.272	0.0153222
709.350	0.0149010
709.428	0.0145274
709.506	0.0142458
709.584	0.0139398
709.663	0.0135028
709.741	0.0131386
709.819	0.0129479
709.897	0.0127504
709.975	0.0125993
710.053	0.0124770
710.131	0.0124973
710.209	0.0121896
710.288	0.0123405
710.366	0.0123006
710.444	0.0123045
710.522	0.0125941
710.600	0.0129174
710.678	0.0130420
710.756	0.0133227
710.834	0.0138468
710.913	0.0140659
710.991	0.0145153
711.069	0.0149552
711.147	0.0153130
711.225	0.0157638
711.303	0.0160635
711.381	0.0163044
711.459	0.0167141
711.538	0.0169088
711.616	0.0172078
711.694	0.0174264
711.772	0.0175055
711.850	0.0174599
711.928	0.0176939
712.006	0.0177023
712.084	0.0177824
712.163	0.0176158
712.241	0.0176230
712.319	0.0176382
712.397	0.0173648
712.475	0.0172266
712.553	0.0170229
712.631	0.0168816
712.709	0.0165611
712.788	0.0162122
712.866	0.0160325
712.944	0.0157136
713.022	0.0154106
713.100	0.0151104
713.178	0.0150040
713.256	0.0147078
713.334	0.0147739
713.413	0.0143844
713.491	0.0141981
713.569	0.0141799
713.647	0.0142988
713.725	0.0143744
713.803	0.0141241
713.881	0.0140772
713.959	0.0142038
714.038	0.0143296
714.116	0.0143867
714.194	0.0146261
714.272	0.0147511
714.350	0.0147546
714.428	0.0148989
714.506	0.0151391
714.584	0.0150938
714.663	0.0152731
714.741	0.0157061
714.819	0.0157749
714.897	0.0159614
714.975	0.0161075
715.053	0.0162667
715.131	0.0165243
715.209	0.0167184
715.288	0.0168404
715.366	0.0170327
715.444	0.0170381
715.522	0.0169819
715.600	0.0170623
715.678	0.0171416
715.756	0.0172655
715.834	0.0171881
715.913	0.0169550
715.991	0.0169769
716.069	0.0169842
716.147	0.0168901
716.225	0.0168184
716.303	0.0165871
716.381	0.0164866
716.459	0.0164023
716.538	0.0161118
716.616	0.0160079
716.694	0.0158752
716.772	0.0156957
716.850	0.0154560
716.928	0.0152683
717.006	0.0151991
717.084	0.0150429
717.163	0.0148366
717.241	0.0147324
717.319	0.0144003
717.397	0.0142977
717.475	0.0142634
717.553	0.0140941
717.631	0.0141547
717.709	0.0141137
717.788	0.0139484
717.866	0.0141277
717.944	0.0142197
718.022	0.0142429
718.100	0.0142412
718.178	0.0144550
718.256	0.0144147
718.334	0.0145960
718.413	0.0146977
718.491	0.0147193
718.569	0.0149162
718.647	0.0150181
718.725	0.0149971
718.803	0.0150515
718.881	0.0150693
718.959	0.0150691
719.038	0.0150531
719.116	0.0150569
719.194	0.0152131
719.272	0.0151522
719.350	0.0152531
719.428	0.0151683
719.506	0.0153530
719.584	0.0153846
719.663	0.0155712
719.741	0.0156738
719.819	0.0155322
719.897	0.0157108
719.975	0.0157469
720.053	0.0156821
720.131	0.0158122
720.209	0.0157034
720.288	0.0158024
720.366	0.0157696
720.444	0.0157996
720.522	0.0156341
720.600	0.0155516
720.678	0.0155286
720.756	0.0156423
720.834	0.0156473
720.913	0.0155602
720.991	0.0154108
721.069	0.0154012
721.147	0.0153588
721.225	0.0152213
721.303	0.0151998
721.381	0.0151479
721.459	0.0151472
721.538	0.0148614
721.616	0.0149751
721.694	0.0150417
721.772	0.0150542
721.850	0.0151218
721.928	0.0152355
722.006	0.0154385
722.084	0.0155518
722.163	0.0157552
722.241	0.0159700
722.319	0.0161884
722.397	0.0163473
722.475	0.0165308
722.553	0.0167248
722.631	0.0168983
722.709	0.0171244
722.788	0.0173265
722.866	0.0173438
722.944	0.0173979
723.022	0.0174120
723.100	0.0173602
723.178	0.0174987
723.256	0.0173534
723.334	0.0172424
723.413	0.0171985
723.491	0.0170867
723.569	0.0169340
723.647	0.0167680
723.725	0.0166402
723.803	0.0163085
723.881	0.0161383
723.959	0.0159739
724.038	0.0157507
724.116	0.0153814
724.194	0.0152923
724.272	0.0149474
724.350	0.0147982
724.428	0.0144918
724.506	0.0145174
724.584	0.0142967
724.663	0.0142127
724.741	0.0141934
724.819	0.0138447
724.897	0.0138348
724.975	0.0138344
725.053	0.0137813
725.131	0.0136868
725.209	0.0137272
725.288	0.0137756
725.366	0.0137708
725.444	0.0138000
725.522	0.0138568
725.600	0.0139607
725.678	0.0140503
725.756	0.0141601
725.834	0.0141666
725.913	0.0143592
725.991	0.0144916
726.069	0.0146822
726.147	0.0149812
726.225	0.0150945
726.303	0.0153538
726.381	0.0155811
726.459	0.0157801
726.538	0.0159870
726.616	0.0161676
726.694	0.0165617
726.772	0.0166767
726.850	0.0169458
726.928	0.0169518
727.006	0.0172272
727.084	0.0172953
727.163	0.0173196
727.241	0.0174390
727.319	0.0174947
727.397	0.0174529
727.475	0.0174100
727.553	0.0174030
727.631	0.0173045
727.709	0.0173073
727.788	0.0173550
727.866	0.0171668
727.944	0.0170797
728.022	0.0170979
728.100	0.0168678
728.178	0.0167286
728.256	0.0165775
728.334	0.0165994
728.413	0.0164989
728.491	0.0162986
728.569	0.0161897
728.647	0.0160381
728.725	0.0157890
728.803	0.0156210
728.881	0.0155009
728.959	0.0151633
729.038	0.0151123
729.116	0.0151534
729.194	0.0150996
729.272	0.0150464
729.350	0.0149250
729.428	0.0149979
729.506	0.0151209
729.584	0.0149895
729.663	0.0151187
729.741	0.0152989
729.819	0.0153990
729.897	0.0154692
729.975	0.0155762
730.053	0.0157608
730.131	0.0157960
730.209	0.0157491
730.288	0.0158176
730.366	0.0161087
730.444	0.0160680
730.522	0.0160963
730.600	0.0162611
730.678	0.0161933
730.756	0.0162440
730.834	0.0160751
730.913	0.0161031
730.991	0.0160066
731.069	0.0158467
731.147	0.0159085
731.225	0.0157903
731.303	0.0156757
731.381	0.0155719
731.459	0.0154298
731.538	0.0154437
731.616	0.0155210
731.694	0.0154425
731.772	0.0152139
731.850	0.0150945
731.928	0.0150698
732.006	0.0150630
732.084	0.0150157
732.163	0.0151690
732.241	0.0150767
732.319	0.0149809
732.397	0.0149245
732.475	0.0150249
732.553	0.0149445
732.631	0.0149413
732.709	0.0150129
732.788	0.0149300
732.866	0.0149303
732.944	0.0150074
733.022	0.0149557
733.100	0.0149757
733.178	0.0149900
733.256	0.0149201
733.334	0.0150093
733.413	0.0149005
733.491	0.0149638
733.569	0.0150850
733.647	0.0151742
733.725	0.0151437
733.803	0.0153854
733.881	0.0152980
733.959	0.0155087
734.038	0.0156660
734.116	0.0158401
734.194	0.0159945
734.272	0.0162113
734.350	0.0163764
734.428	0.0163612
734.506	0.0163862
734.584	0.0164335
734.663	0.0165893
734.741	0.0167657
734.819	0.0165058
734.897	0.0164923
734.975	0.0165257
735.053	0.0165946
735.131	0.0164445
735.209	0.0162706
735.288	0.0162166
735.366	0.0162003
735.444	0.0160385
735.522	0.0159589
735.600	0.0157763
735.678	0.0158020
735.756	0.0158324
735.834	0.0155206
735.913	0.0156676
735.991	0.0156490
736.069	0.0156528
736.147	0.0155579
736.225	0.0153935
736.303	0.0153716
736.381	0.0153411
736.459	0.0154984
736.538	0.0153044
736.616	0.0150938
736.694	0.0151850
736.772	0.0151273
736.850	0.0150882
736.928	0.0152681
737.006	0.0152299
737.084	0.0151999
737.163	0.0153397
737.241	0.0153623
737.319	0.0155699
737.397	0.0154622
737.475	0.0156158
737.553	0.0157813
737.631	0.0158920
737.709	0.0158322
737.788	0.0159173
737.866	0.0160678
737.944	0.0162292
738.022	0.0163148
738.100	0.0162942
738.178	0.0162029
738.256	0.0163364
738.334	0.0163619
738.413	0.0164938
738.491	0.0165741
738.569	0.0164500
738.647	0.0162885
738.725	0.0162133
738.803	0.0162357
738.881	0.0163754
738.959	0.0160735
739.038	0.0159757
739.116	0.0158900
739.194	0.0157829
739.272	0.0155450
739.350	0.0153886
739.428	0.0154546
739.506	0.0152053
739.584	0.0150954
739.663	0.0149502
739.741	0.0147221
739.819	0.0146304
739.897	0.0145804
739.975	0.0144560
740.053	0.0143011
740.131	0.0143208
740.209	0.0142076
740.288	0.0140063
740.366	0.0139493
740.444	0.0139951
740.522	0.0138672
740.600	0.0138954
740.678	0.0139835
740.756	0.0140081
740.834	0.0141158
740.913	0.0143063
740.991	0.0143979
741.069	0.0144424
741.147	0.0146267
741.225	0.0146838
741.303	0.0148446
741.381	0.0149577
741.459	0.0152332
741.538	0.0153464
741.616	0.0155603
741.694	0.0156755
741.772	0.0156760
741.850	0.0158242
741.928	0.0159061
742.006	0.0160278
742.084	0.0161292
742.163	0.0162533
742.241	0.0163786
742.319	0.0165620
742.397	0.0165372
742.475	0.0164479
742.553	0.0166121
742.631	0.0168775
742.709	0.0168613
742.788	0.0167440
742.866	0.0168547
742.944	0.0169686
743.022	0.0169843
743.100	0.0168980
743.178	0.0168591
743.256	0.0168261
743.334	0.0168803
743.413	0.0168154
743.491	0.0167955
743.569	0.0165674
743.647	0.0165792
743.725	0.0163789
743.803	0.0163977
743.881	0.0164292
743.959	0.0161268
744.038	0.0161349
744.116	0.0159535
744.194	0.0158659
744.272	0.0157198
744.350	0.0157387
744.428	0.0155280
744.506	0.0153429
744.584	0.0151585
744.663	0.0151437
744.741	0.0149472
744.819	0.0149123
744.897	0.0148228
744.975	0.0146236
745.053	0.0145590
745.131	0.0146047
745.209	0.0146859
745.288	0.0146283
745.366	0.0147138
745.444	0.0147838
745.522	0.0148566
745.600	0.0149169
745.678	0.0148773
745.756	0.0150179
745.834	0.0150268
745.913	0.0151077
745.991	0.0150731
746.069	0.0150700
746.147	0.0152536
746.225	0.0150143
746.303	0.0152538
746.381	0.0152898
746.459	0.0152014
746.538	0.0153563
746.616	0.0154169
746.694	0.0156258
746.772	0.0157678
746.850	0.0158030
746.928	0.0158392
747.006	0.0159927
747.084	0.0160761
747.163	0.0160151
747.241	0.0161719
747.319	0.0161864
747.397	0.0161733
747.475	0.0161149
747.553	0.0161952
747.631	0.0162415
747.709	0.0162585
747.788	0.0162402
747.866	0.0162599
747.944	0.0162695
748.022	0.0163564
748.100	0.0163896
748.178	0.0162022
748.256	0.0162772
748.334	0.0163514
748.413	0.0163224
748.491	0.0161575
748.569	0.0161291
748.647	0.0162187
748.725	0.0161009
748.803	0.0158858
748.881	0.0157015
748.959	0.0155351
749.038	0.0154853
749.116	0.0153622
749.194	0.0152390
749.272	0.0151129
749.350	0.0149448
749.428	0.0149086
749.506	0.0147614
749.584	0.0145786
749.663	0.0146780
749.741	0.0146300
749.819	0.0146534
749.897	0.0147614
749.975	0.0147196
750.053	0.0148900
750.131	0.0148858
750.209	0.0150202
750.288	0.0151676
750.366	0.0152568
750.444	0.0153492
750.522	0.0155231
750.600	0.0157273
750.678	0.0156985
750.756	0.0158611
750.834	0.0159750
750.913	0.0159772
750.991	0.0160801
751.069	0.0163937
751.147	0.0164175
751.225	0.0164616
751.303	0.0165530
751.381	0.0166168
751.459	0.0167290
751.538	0.0167670
751.616	0.0168227
751.694	0.0169255
751.772	0.0168208
751.850	0.0168111
751.928	0.0169197
752.006	0.0167545
752.084	0.0167034
752.163	0.0168491
752.241	0.0166691
752.319	0.0164571
752.397	0.0164850
752.475	0.0163084
752.553	0.0163241
752.631	0.0160967
752.709	0.0159480
752.788	0.0157358
752.866	0.0154978
752.944	0.0153464
753.022	0.0151137
753.100	0.0151311
753.178	0.0150384
753.256	0.0148398
753.334	0.0148277
753.413	0.0146188
753.491	0.0146210
753.569	0.0147755
753.647	0.0145783
753.725	0.0145369
753.803	0.0148727
753.881	0.0148790
753.959	0.0147824
754.038	0.0149231
754.116	0.0150449
754.194	0.0150263
754.272	0.0149500
754.350	0.0150788
754.428	0.0150909
754.506	0.0152354
754.584	0.0152607
754.663	0.0153019
754.741	0.0152259
754.819	0.0152619
754.897	0.0154366
754.975	0.0154401
755.053	0.0153716
755.131	0.0153992
755.209	0.0154804
755.288	0.0155747
755.366	0.0155693
755.444	0.0155744
755.522	0.0155536
755.600	0.0156830
755.678	0.0156404
755.756	0.0155500
755.834	0.0154623
755.913	0.0155937
755.991	0.0156350
756.069	0.0154577
756.147	0.0155192
756.225	0.0154271
756.303	0.0154202
756.381	0.0155722
756.459	0.0156482
756.538	0.0156136
756.616	0.0156559
756.694	0.0156692
756.772	0.0155388
756.850	0.0158243
756.928	0.0156888
757.006	0.0156126
757.084	0.0157131
757.163	0.0156242
757.241	0.0155850
757.319	0.0156073
757.397	0.0154398
757.475	0.0152485
757.553	0.0153876
757.631	0.0153243
757.709	0.0153983
757.788	0.0153120
757.866	0.0153839
757.944	0.0153472
758.022	0.0152184
758.100	0.0155232
758.178	0.0155480
758.256	0.0155302
758.334	0.0157045
758.413	0.0156429
758.491	0.0156284
758.569	0.0157981
758.647	0.0159781
758.725	0.0158691
758.803	0.0159618
758.881	0.0159281
758.959	0.0161184
759.038	0.0162045
759.116	0.0162788
759.194	0.0162841
759.272	0.0162936
759.350	0.0162718
759.428	0.0163165
759.506	0.0162635
759.584	0.0163589
759.663	0.0162430
759.741	0.0161269
759.819	0.0159402
759.897	0.0160155
759.975	0.0158868
760.053	0.0156760
760.131	0.0155495
760.209	0.0155625
760.288	0.0153036
760.366	0.0150409
760.444	0.0150177
760.522	0.0150504
760.600	0.0149200
760.678	0.0148450
760.756	0.0147373
760.834	0.0148384
760.913	0.0148255
760.991	0.0149149
761.069	0.0148661
761.147	0.0148775
761.225	0.0149459
761.303	0.0150353
761.381	0.0150959
761.459	0.0153667
761.538	0.0153489
761.616	0.0153021
761.694	0.0157096
761.772	0.0157616
761.850	0.0159258
761.928	0.0160404
762.006	0.0162243
762.084	0.0164557
762.163	0.0164065
762.241	0.0165244
762.319	0.0165743
762.397	0.0165735
762.475	0.0166338
762.553	0.0165398
762.631	0.0164882
762.709	0.0164877
762.788	0.0164294
762.866	0.0162128
762.944	0.0160578
763.022	0.0159092
763.100	0.0158313
763.178	0.0156566
763.256	0.0153351
763.334	0.0154993
763.413	0.0154416
763.491	0.0151656
763.569	0.0152303
763.647	0.0151022
763.725	0.0150153
763.803	0.0150420
763.881	0.0149891
763.959	0.0148460
764.038	0.0150002
764.116	0.0150447
764.194	0.0149510
764.272	0.0149576
764.350	0.0151542
764.428	0.0152100
764.506	0.0152664
764.584	0.0153127
764.663	0.0153225
764.741	0.0153823
764.819	0.0154029
764.897	0.0154343
764.975	0.0155032
765.053	0.0155054
765.131	0.0156863
765.209	0.0157278
765.288	0.0157706
765.366	0.0158030
765.444	0.0157721
765.522	0.0156567
765.600	0.0157388
765.678	0.0158654
765.756	0.0157025
765.834	0.0158224
765.913	0.0157539
765.991	0.0156992
766.069	0.0157722
766.147	0.0158335
766.225	0.0159129
766.303	0.0160158
766.381	0.0159917
766.459	0.0159356
766.538	0.0160591
766.616	0.0160302
766.694	0.0160040
766.772	0.0161079
766.850	0.0161748
766.928	0.0161935
767.006	0.0161086
767.084	0.0161831
767.163	0.0162593
767.241	0.0161205
767.319	0.0160056
767.397	0.0161183
767.475	0.0161274
767.553	0.0160376
767.631	0.0159743
767.709	0.0158237
767.788	0.0157449
767.866	0.0156651
767.944	0.0156745
768.022	0.0155613
768.100	0.0154585
768.178	0.0154901
768.256	0.0152853
768.334	0.0152646
768.413	0.0152807
768.491	0.0150998
768.569	0.0151152
768.647	0.0150403
768.725	0.0150596
768.803	0.0150919
768.881	0.0150301
768.959	0.0150942
769.038	0.0152580
769.116	0.0151603
769.194	0.0152221
769.272	0.0151638
769.350	0.0152972
769.428	0.0154721
769.506	0.0154454
769.584	0.0153446
769.663	0.0152260
769.741	0.0152908
769.819	0.0153962
769.897	0.0153638
769.975	0.0153493
770.053	0.0153827
770.131	0.0153626
770.209	0.0152652
770.288	0.0153905
770.366	0.0153936
770.444	0.0153211
770.522	0.0153876
770.600	0.0154510
770.678	0.0153088
770.756	0.0153548
770.834	0.0153178
770.913	0.0154333
770.991	0.0153175
771.069	0.0154813
771.147	0.0154931
771.225	0.0156371
771.303	0.0156416
771.381	0.0157869
771.459	0.0158592
771.538	0.0157899
771.616	0.0158711
771.694	0.0159472
771.772	0.0158353
771.850	0.0159468
771.928	0.0159517
772.006	0.0159630
772.084	0.0158572
772.163	0.0158945
772.241	0.0158215
772.319	0.0159010
772.397	0.0160063
772.475	0.0157307
772.553	0.0157996
772.631	0.0158351
772.709	0.0156602
772.788	0.0155919
772.866	0.0155648
772.944	0.0156299
773.022	0.0155795
773.100	0.0155302
773.178	0.0155432
773.256	0.0155221
773.334	0.0155573
773.413	0.0155376
773.491	0.0155872
773.569	0.0155612
773.647	0.0157629
773.725	0.0156799
773.803	0.0157966
773.881	0.0158730
773.959	0.0159270
774.038	0.0160944
774.116	0.0160027
774.194	0.0160167
774.272	0.0161213
774.350	0.0162020
774.428	0.0162348
774.506	0.0161809
774.584	0.0161976
774.663	0.0164283
774.741	0.0164026
774.819	0.0162849
774.897	0.0162627
774.975	0.0159860
775.053	0.0159693
775.131	0.0159802
775.209	0.0158627
775.288	0.0157870
775.366	0.0156133
775.444	0.0154458
775.522	0.0152268
775.600	0.0150296
775.678	0.0149751
775.756	0.0149555
775.834	0.0148270
775.913	0.0148075
775.991	0.0146366
776.069	0.0147724
776.147	0.0147925
776.225	0.0148678
776.303	0.0149545
776.381	0.0150309
776.459	0.0150559
776.538	0.0153078
776.616	0.0154330
776.694	0.0155273
776.772	0.0156598
776.850	0.0156257
776.928	0.0157098
777.006	0.0158096
777.084	0.0158889
777.163	0.0159682
777.241	0.0161076
777.319	0.0160266
777.397	0.0160416
777.475	0.0160795
777.553	0.0160014
777.631	0.0159801
777.709	0.0157034
777.788	0.0158086
777.866	0.0155755
777.944	0.0155359
778.022	0.0153378
778.100	0.0153725
778.178	0.0153085
778.256	0.0152574
778.334	0.0152516
778.413	0.0152064
778.491	0.0151545
778.569	0.0152708
778.647	0.0153155
778.725	0.0153283
778.803	0.0152757
778.881	0.0154309
778.959	0.0154971
779.038	0.0156409
779.116	0.0155482
779.194	0.0157162
779.272	0.0157394
779.350	0.0157509
779.428	0.0156872
779.506	0.0158138
779.584	0.0156245
779.663	0.0156783
779.741	0.0157663
779.819	0.0156329
779.897	0.0156808
779.975	0.0156252
780.053	0.0156241
780.131	0.0157151
780.209	0.0155647
780.288	0.0155794
780.366	0.0155415
780.444	0.0155999
780.522	0.0154281
780.600	0.0155523
780.678	0.0154632
780.756	0.0153642
780.834	0.0155038
780.913	0.0154346
780.991	0.0154782
781.069	0.0154053
781.147	0.0154388
781.225	0.0154966
781.303	0.0155265
781.381	0.0155313
781.459	0.0154813
781.538	0.0156480
781.616	0.0155231
781.694	0.0156775
781.772	0.0156896
781.850	0.0156186
781.928	0.0156747
782.006	0.0156525
782.084	0.0155138
782.163	0.0155508
782.241	0.0155659
782.319	0.0156749
782.397	0.0156493
782.475	0.0156190
782.553	0.0157786
782.631	0.0157242
782.709	0.0157227
782.788	0.0158290
782.866	0.0156955
782.944	0.0157951
783.022	0.0156629
783.100	0.0158185
783.178	0.0157948
783.256	0.0157742
783.334	0.0158263
783.413	0.0157211
783.491	0.0157433
783.569	0.0157850
783.647	0.0156951
783.725	0.0156699
783.803	0.0157582
783.881	0.0156315
783.959	0.0156203
784.038	0.0156751
784.116	0.0156470
784.194	0.0155752
784.272	0.0155200
784.350	0.0156649
784.428	0.0156448
784.506	0.0155222
784.584	0.0156916
784.663	0.0156702
784.741	0.0156223
784.819	0.0158234
784.897	0.0157146
784.975	0.0157317
785.053	0.0155923
785.131	0.0158186
785.209	0.0157294
785.288	0.0157005
785.366	0.0159225
785.444	0.0156789
785.522	0.0156225
785.600	0.0157018
785.678	0.0156109
785.756	0.0154964
785.834	0.0156267
785.913	0.0155405
785.991	0.0154154
786.069	0.0153446
786.147	0.0153938
786.225	0.0152945
786.303	0.0152090
786.381	0.0151157
786.459	0.0151889
786.538	0.0151955
786.616	0.0151762
786.694	0.0150641
786.772	0.0151427
786.850	0.0151897
786.928	0.0151787
787.006	0.0151699
787.084	0.0152267
787.163	0.0153267
787.241	0.0154572
787.319	0.0155546
787.397	0.0156121
787.475	0.0157809
787.553	0.0156931
787.631	0.0158837
787.709	0.0158385
787.788	0.0159997
787.866	0.0160378
787.944	0.0160983
788.022	0.0160313
788.100	0.0162418
788.178	0.0163493
788.256	0.0162175
788.334	0.0161699
788.413	0.0161447
788.491	0.0161950
788.569	0.0162275
788.647	0.0163731
788.725	0.0161739
788.803	0.0161011
788.881	0.0160268
788.959	0.0160756
789.038	0.0159311
789.116	0.0158893
789.194	0.0158405
789.272	0.0157647
789.350	0.0157514
789.428	0.0156320
789.506	0.0155684
789.584	0.0154503
789.663	0.0154044
789.741	0.0151950
789.819	0.0152528
789.897	0.0152554
789.975	0.0151679
790.053	0.0151952
790.131	0.0152859
790.209	0.0153155
790.288	0.0150994
790.366	0.0150758
790.444	0.0151927
790.522	0.0152208
790.600	0.0151656
790.678	0.0152089
790.756	0.0152673
790.834	0.0152679
790.913	0.0152737
790.991	0.0151683
791.069	0.0152956
791.147	0.0152595
791.225	0.0154104
791.303	0.0153644
791.381	0.0155390
791.459	0.0156841
791.538	0.0156316
791.616	0.0157662
791.694	0.0158057
791.772	0.0158616
791.850	0.0159963
791.928	0.0159260
792.006	0.0159538
792.084	0.0160250
792.163	0.0159686
792.241	0.0160658
792.319	0.0160467
792.397	0.0159641
792.475	0.0158967
792.553	0.0158585
792.631	0.0157829
792.709	0.0158145
792.788	0.0157331
792.866	0.0156799
792.944	0.0155405
793.022	0.0156236
793.100	0.0155804
793.178	0.0154013
793.256	0.0155150
793.334	0.0155836
793.413	0.0155303
793.491	0.0154322
793.569	0.0155379
793.647	0.0154990
793.725	0.0155998
793.803	0.0157027
793.881	0.0155858
793.959	0.0159047
794.038	0.0158280
794.116	0.0158823
794.194	0.0158540
794.272	0.0159673
794.350	0.0158277
794.428	0.0158959
794.506	0.0159289
794.584	0.0158980
794.663	0.0159145
794.741	0.0159298
794.819	0.0158675
794.897	0.0159012
794.975	0.0161013
795.053	0.0159505
795.131	0.0158562
795.209	0.0158008
795.288	0.0158326
795.366	0.0158644
795.444	0.0157815
795.522	0.0157381
795.600	0.0156433
795.678	0.0156084
795.756	0.0157085
795.834	0.0156918
795.913	0.0156198
795.991	0.0155530
796.069	0.0155647
796.147	0.0155093
796.225	0.0154886
796.303	0.0153806
796.381	0.0153743
796.459	0.0153242
796.538	0.0153680
796.616	0.0152246
796.694	0.0155608
796.772	0.0154485
796.850	0.0151398
796.928	0.0152572
797.006	0.0151926
797.084	0.0153111
797.163	0.0153880
797.241	0.0153091
797.319	0.0152657
797.397	0.0152528
797.475	0.0154142
797.553	0.0154322
797.631	0.0153982
797.709	0.0154667
797.788	0.0154441
797.866	0.0156040
797.944	0.0157050
798.022	0.0157759
798.100	0.0157661
798.178	0.0157307
798.256	0.0158925
798.334	0.0159483
798.413	0.0160328
798.491	0.0159226
798.569	0.0159789
798.647	0.0159744
798.725	0.0158096
798.803	0.0159415
798.881	0.0158385
798.959	0.0157007
799.038	0.0158894
799.116	0.0159073
799.194	0.0157533
799.272	0.0156291
799.350	0.0157045
799.428	0.0156670
799.506	0.0157012
799.584	0.0155571
799.663	0.0155184
799.741	0.0155880
799.819	0.0155997
799.897	0.0155692
799.975	0.0157009
800.053	0.0155409
800.131	0.0157197
800.209	0.0157243
800.288	0.0155852
800.366	0.0156229
800.444	0.0157407
800.522	0.0157625
800.600	0.0158173
800.678	0.0155266
800.756	0.0156404
800.834	0.0155974
800.913	0.0155677
800.991	0.0154076
801.069	0.0153703
801.147	0.0153489
801.225	0.0152685
801.303	0.0152821
801.381	0.0151475
801.459	0.0150500
801.538	0.0150875
801.616	0.0150143
801.694	0.0151327
801.772	0.0151007
801.850	0.0149823
801.928	0.0150141
802.006	0.0151018
802.084	0.0151143
802.163	0.0150595
802.241	0.0151823
802.319	0.0151605
802.397	0.0150449
802.475	0.0153452
802.553	0.0154099
802.631	0.0153585
802.709	0.0152985
802.788	0.0155362
802.866	0.0156412
802.944	0.0155818
803.022	0.0157532
803.100	0.0159470
803.178	0.0157469
803.256	0.0156596
803.334	0.0158662
803.413	0.0157933
803.491	0.0158027
803.569	0.0159315
803.647	0.0160035
803.725	0.0160729
803.803	0.0159862
803.881	0.0162313
803.959	0.0160245
804.038	0.0160471
804.116	0.0161734
804.194	0.0161784
804.272	0.0162585
804.350	0.0162612
804.428	0.0160487
804.506	0.0163068
804.584	0.0163196
804.663	0.0160629
804.741	0.0161297
804.819	0.0161791
804.897	0.0161638
804.975	0.0161356
805.053	0.0161037
805.131	0.0161426
805.209	0.0160351
805.288	0.0160562
805.366	0.0160775
805.444	0.0158634
805.522	0.0160593
805.600	0.0158067
805.678	0.0157979
805.756	0.0157179
805.834	0.0157867
805.913	0.0157881
805.991	0.0156366
806.069	0.0157679
806.147	0.0158255
806.225	0.0155640
806.303	0.0156436
806.381	0.0155500
806.459	0.0156616
806.538	0.0155496
806.616	0.0155154
806.694	0.0154561
806.772	0.0155582
806.850	0.0155016
806.928	0.0155048
807.006	0.0155208
807.084	0.0154312
807.163	0.0155096
807.241	0.0155904
807.319	0.0156264
807.397	0.0155253
807.475	0.0155965
807.553	0.0156242
807.631	0.0159133
807.709	0.0158134
807.788	0.0159067
807.866	0.0158755
807.944	0.0159106
808.022	0.0159307
808.100	0.0159422
808.178	0.0159558
808.256	0.0158481
808.334	0.0159020
808.413	0.0159824
808.491	0.0159113
808.569	0.0157807
808.647	0.0157248
808.725	0.0156773
808.803	0.0154938
808.881	0.0155375
808.959	0.0156931
809.038	0.0157753
809.116	0.0155411
809.194	0.0154818
809.272	0.0155051
809.350	0.0154330
809.428	0.0155218
809.506	0.0153901
809.584	0.0153621
809.663	0.0154855
809.741	0.0155254
809.819	0.0153375
809.897	0.0152653
809.975	0.0154235
810.053	0.0152374
810.131	0.0151929
810.209	0.0152672
810.288	0.0153127
810.366	0.0154106
810.444	0.0153954
810.522	0.0153854
810.600	0.0155701
810.678	0.0153503
810.756	0.0156054
810.834	0.0157025
810.913	0.0155945
810.991	0.0156924
811.069	0.0156327
811.147	0.0155455
811.225	0.0156430
811.303	0.0157440
811.381	0.0157646
811.459	0.0157539
811.538	0.0157396
811.616	0.0157986
811.694	0.0158237
811.772	0.0158713
811.850	0.0156097
811.928	0.0158310
812.006	0.0159612
812.084	0.0159807
812.163	0.0159486
812.241	0.0159205
812.319	0.0158557
812.397	0.0159079
812.475	0.0158880
812.553	0.0157534
812.631	0.0158530
812.709	0.0157629
812.788	0.0156104
812.866	0.0156868
812.944	0.0155314
813.022	0.0156869
813.100	0.0155636
813.178	0.0155585
813.256	0.0155391
813.334	0.0155180
813.413	0.0155199
813.491	0.0155403
813.569	0.0152977
813.647	0.0155839
813.725	0.0153748
813.803	0.0154736
813.881	0.0154665
813.959	0.0154890
814.038	0.0155498
814.116	0.0154877
814.194	0.0154498
814.272	0.0154813
814.350	0.0154314
814.428	0.0155277
814.506	0.0155445
814.584	0.0155522
814.663	0.0156002
814.741	0.0155834
814.819	0.0156402
814.897	0.0156500
814.975	0.0155701
815.053	0.0157584
815.131	0.0157580
815.209	0.0156773
815.288	0.0158146
815.366	0.0157519
815.444	0.0156425
815.522	0.0158415
815.600	0.0157377
815.678	0.0156875
815.756	0.0157264
815.834	0.0157231
815.913	0.0157570
815.991	0.0158479
816.069	0.0156704
816.147	0.0157033
816.225	0.0157665
816.303	0.0157865
816.381	0.0156618
816.459	0.0157375
816.538	0.0156339
816.616	0.0155450
816.694	0.0157323
816.772	0.0156026
816.850	0.0157632
816.928	0.0157225
817.006	0.0157331
817.084	0.0157050
817.163	0.0157458
817.241	0.0156821
817.319	0.0156255
817.397	0.0156181
817.475	0.0155836
817.553	0.0154229
817.631	0.0153867
817.709	0.0155528
817.788	0.0155306
817.866	0.0155135
817.944	0.0155955
818.022	0.0155535
818.100	0.0155154
818.178	0.0156268
818.256	0.0155950
818.334	0.0155994
818.413	0.0155247
818.491	0.0157463
818.569	0.0156831
818.647	0.0157272
818.725	0.0157912
818.803	0.0157337
818.881	0.0157064
818.959	0.0157967
819.038	0.0158364
819.116	0.0159042
819.194	0.0158620
819.272	0.0158945
819.350	0.0159956
819.428	0.0159191
819.506	0.0159975
819.584	0.0160021
819.663	0.0159809
819.741	0.0160571
819.819	0.0158394
819.897	0.0159621
819.975	0.0159476
820.053	0.0158965
820.131	0.0159695
820.209	0.0158607
820.288	0.0157744
820.366	0.0158179
820.444	0.0156853
820.522	0.0156133
820.600	0.0154907
820.678	0.0155624
820.756	0.0156368
820.834	0.0154037
820.913	0.0154627
820.991	0.0153635
821.069	0.0153684
821.147	0.0153442
821.225	0.0154517
821.303	0.0152988
821.381	0.0153137
821.459	0.0153405
821.538	0.0154384
821.616	0.0153103
821.694	0.0154396
821.772	0.0155737
821.850	0.0154818
821.928	0.0153242
822.006	0.0153638
822.084	0.0153631
822.163	0.0153625
822.241	0.0154982
822.319	0.0155134
822.397	0.0154364
822.475	0.0153654
822.553	0.0155310
822.631	0.0153915
822.709	0.0154829
822.788	0.0155251
822.866	0.0154369
822.944	0.0155939
823.022	0.0155202
823.100	0.0154092
823.178	0.0154974
823.256	0.0156452
823.334	0.0156054
823.413	0.0156610
823.491	0.0156625
823.569	0.0157636
823.647	0.0157491
823.725	0.0158536
823.803	0.0158064
823.881	0.0159428
823.959	0.0157878
824.038	0.0159060
824.116	0.0159472
824.194	0.0158093
824.272	0.0159217
824.350	0.0159369
824.428	0.0159328
824.506	0.0159016
824.584	0.0157890
824.663	0.0158409
824.741	0.0158052
824.819	0.0157925
824.897	0.0157862
824.975	0.0156327
825.053	0.0156332
825.131	0.0156422
825.209	0.0155106
825.288	0.0154686
825.366	0.0155977
825.444	0.0155053
825.522	0.0154680
825.600	0.0154744
825.678	0.0154404
825.756	0.0154546
825.834	0.0155099
825.913	0.0154720
825.991	0.0154858
826.069	0.0154947
826.147	0.0155121
826.225	0.0154744
826.303	0.0154752
826.381	0.0154838
826.459	0.0155848
826.538	0.0153532
826.616	0.0153838
826.694	0.0155147
826.772	0.0155141
826.850	0.0154975
826.928	0.0155981
827.006	0.0154688
827.084	0.0154803
827.163	0.0156199
827.241	0.0154088
827.319	0.0154987
827.397	0.0154038
827.475	0.0155666
827.553	0.0156240
827.631	0.0155257
827.709	0.0155824
827.788	0.0156279
827.866	0.0156798
827.944	0.0157100
828.022	0.0156226
828.100	0.0156266
828.178	0.0155232
828.256	0.0157703
828.334	0.0156445
828.413	0.0155598
828.491	0.0157452
828.569	0.0156649
828.647	0.0157133
828.725	0.0158399
828.803	0.0158179
828.881	0.0157339
828.959	0.0155661
829.038	0.0158862
829.116	0.0157582
829.194	0.0158902
829.272	0.0158335
829.350	0.0158890
829.428	0.0157471
829.506	0.0158113
829.584	0.0158235
829.663	0.0157581
829.741	0.0158249
829.819	0.0158878
829.897	0.0157815
829.975	0.0158408
830.053	0.0159275
830.131	0.0157838
830.209	0.0157916
830.288	0.0157816
830.366	0.0158051
830.444	0.0157241
830.522	0.0159287
830.600	0.0159023
830.678	0.0159131
830.756	0.0157801
830.834	0.0158232
830.913	0.0159354
830.991	0.0158074
831.069	0.0158961
831.147	0.0158519
831.225	0.0157458
831.303	0.0156844
831.381	0.0158780
831.459	0.0157475
831.538	0.0157594
831.616	0.0157363
831.694	0.0157185
831.772	0.0157835
831.850	0.0156426
831.928	0.0156760
832.006	0.0156873
832.084	0.0156531
832.163	0.0154806
832.241	0.0156861
832.319	0.0156062
832.397	0.0155309
832.475	0.0154977
832.553	0.0155010
832.631	0.0155541
832.709	0.0154457
832.788	0.0154613
832.866	0.0155422
832.944	0.0154887
833.022	0.0153859
833.100	0.0154818
833.178	0.0155536
833.256	0.0154128
833.334	0.0154391
833.413	0.0154699
833.491	0.0153024
833.569	0.0155595
833.647	0.0155614
833.725	0.0154533
833.803	0.0154834
833.881	0.0154503
833.959	0.0154984
834.038	0.0156221
834.116	0.0155584
834.194	0.0155669
834.272	0.0155433
834.350	0.0155661
834.428	0.0156244
834.506	0.0156790
834.584	0.0156231
834.663	0.0156738
834.741	0.0155931
834.819	0.0155870
834.897	0.0156967
834.975	0.0156722
835.053	0.0155917
835.131	0.0155656
835.209	0.0154942
835.288	0.0155561
835.366	0.0155339
835.444	0.0156087
835.522	0.0153866
835.600	0.0154850
835.678	0.0156251
835.756	0.0153398
835.834	0.0155076
835.913	0.0155000
835.991	0.0154280
836.069	0.0155138
836.147	0.0153844
836.225	0.0155573
836.303	0.0155170
836.381	0.0155259
836.459	0.0156347
836.538	0.0154762
836.616	0.0153375
836.694	0.0154048
836.772	0.0155209
836.850	0.0155068
836.928	0.0155806
837.006	0.0154162
837.084	0.0154771
837.163	0.0155794
837.241	0.0155618
837.319	0.0157117
837.397	0.0157180
837.475	0.0156120
837.553	0.0156311
837.631	0.0156541
837.709	0.0155367
837.788	0.0157597
837.866	0.0155236
837.944	0.0156795
838.022	0.0157219
838.100	0.0158248
838.178	0.0156988
838.256	0.0156631
838.334	0.0156374
838.413	0.0156639
838.491	0.0157614
838.569	0.0156915
838.647	0.0157465
838.725	0.0157111
838.803	0.0156710
838.881	0.0157063
838.959	0.0156799
839.038	0.0156459
839.116	0.0158140
839.194	0.0158258
839.272	0.0157883
839.350	0.0157240
839.428	0.0158533
839.506	0.0157565
839.584	0.0157329
839.663	0.0156638
839.741	0.0157117
839.819	0.0157777
839.897	0.0158041
839.975	0.0157227
840.053	0.0157024
840.131	0.0158176
840.209	0.0157717
840.288	0.0157195
840.366	0.0157633
840.444	0.0157404
840.522	0.0156837
840.600	0.0158216
840.678	0.0156116
840.756	0.0157478
840.834	0.0158028
840.913	0.0157509
840.991	0.0157405
841.069	0.0157692
841.147	0.0155713
841.225	0.0155080
841.303	0.0156556
841.381	0.0156708
841.459	0.0155695
841.538	0.0155139
841.616	0.0154048
841.694	0.0155032
841.772	0.0154051
841.850	0.0154793
841.928	0.0153502
842.006	0.0153891
842.084	0.0154214
842.163	0.0153738
842.241	0.0154987
842.319	0.0155220
842.397	0.0154198
842.475	0.0152734
842.553	0.0153558
842.631	0.0153417
842.709	0.0152187
842.788	0.0153922
842.866	0.0153272
842.944	0.0153385
843.022	0.0152184
843.100	0.0153858
843.178	0.0153470
843.256	0.0152652
843.334	0.0152413
843.413	0.0153848
843.491	0.0153756
843.569	0.0154656
843.647	0.0153340
843.725	0.0155222
843.803	0.0154847
843.881	0.0155029
843.959	0.0154257
844.038	0.0155462
844.116	0.0156013
844.194	0.0155968
844.272	0.0155195
844.350	0.0157697
844.428	0.0157348
844.506	0.0156597
844.584	0.0156114
844.663	0.0157149
844.741	0.0157556
844.819	0.0156524
844.897	0.0156182
844.975	0.0156188
845.053	0.0154482
845.131	0.0155552
845.209	0.0158347
845.288	0.0157086
845.366	0.0156749
845.444	0.0156402
845.522	0.0155826
845.600	0.0156452
845.678	0.0154476
845.756	0.0155803
845.834	0.0156915
845.913	0.0156068
845.991	0.0155099
846.069	0.0154565
846.147	0.0155910
846.225	0.0157152
846.303	0.0155987
846.381	0.0156616
846.459	0.0156692
846.538	0.0155460
846.616	0.0155920
846.694	0.0157301
846.772	0.0156575
846.850	0.0155959
846.928	0.0156796
847.006	0.0157629
847.084	0.0156657
847.163	0.0157196
847.241	0.0156956
847.319	0.0157717
847.397	0.0157165
847.475	0.0156981
847.553	0.0156590
847.631	0.0157594
847.709	0.0157817
847.788	0.0157516
847.866	0.0157389
847.944	0.0158647
848.022	0.0156941
848.100	0.0158159
848.178	0.0158132
848.256	0.0158244
848.334	0.0157703
848.413	0.0158489
848.491	0.0157487
848.569	0.0158346
848.647	0.0157034
848.725	0.0157389
848.803	0.0159373
848.881	0.0157890
848.959	0.0158025
849.038	0.0159232
849.116	0.0157432
849.194	0.0156880
849.272	0.0157795
849.350	0.0157829
849.428	0.0156525
849.506	0.0155972
849.584	0.0157038
849.663	0.0155740
849.741	0.0157278
849.819	0.0155635
849.897	0.0156883
849.975	0.0155599
850.053	0.0156039
850.131	0.0155668
850.209	0.0156150
850.288	0.0156518
850.366	0.0155975
850.444	0.0156377
850.522	0.0157105
850.600	0.0158447
850.678	0.0155685
850.756	0.0155690
850.834	0.0156844
850.913	0.0156413
850.991	0.0157481
851.069	0.0157946
851.147	0.0156074
851.225	0.0157783
851.303	0.0156382
851.381	0.0155446
851.459	0.0156548
851.538	0.0156585
851.616	0.0156647
851.694	0.0157952
851.772	0.0157314
851.850	0.0156602
851.928	0.0156487
852.006	0.0155860
852.084	0.0157594
852.163	0.0156235
852.241	0.0155613
852.319	0.0156182
852.397	0.0156718
852.475	0.0154741
852.553	0.0155901
852.631	0.0155885
852.709	0.0156869
852.788	0.0156522
852.866	0.0155679
852.944	0.0155575
853.022	0.0157766
853.100	0.0157257
853.178	0.0157224
853.256	0.0156086
853.334	0.0156354
853.413	0.0155889
853.491	0.0157044
853.569	0.0155286
853.647	0.0155775
853.725	0.0154878
853.803	0.0154330
853.881	0.0155376
853.959	0.0154385
854.038	0.0155290
854.116	0.0153196
854.194	0.0154723
854.272	0.0153738
854.350	0.0153644
854.428	0.0152325
854.506	0.0153687
854.584	0.0153938
854.663	0.0154101
854.741	0.0154333
854.819	0.0154729
854.897	0.0155126
854.975	0.0154878
855.053	0.0154196
855.131	0.0154777
855.209	0.0154687
855.288	0.0155574
855.366	0.0156071
855.444	0.0157963
855.522	0.0156072
855.600	0.0155222
855.678	0.0156264
855.756	0.0157169
855.834	0.0156823
855.913	0.0154903
855.991	0.0155876
856.069	0.0156116
856.147	0.0156727
856.225	0.0156304
856.303	0.0155502
856.381	0.0154492
856.459	0.0154412
856.538	0.0155872
856.616	0.0155488
856.694	0.0156223
856.772	0.0155101
856.850	0.0153769
856.928	0.0154072
857.006	0.0154002
857.084	0.0154868
857.163	0.0156034
857.241	0.0154785
857.319	0.0153527
857.397	0.0153694
857.475	0.0154200
857.553	0.0153444
857.631	0.0154261
857.709	0.0153378
857.788	0.0155426
857.866	0.0154531
857.944	0.0157015
858.022	0.0156181
858.100	0.0154741
858.178	0.0155865
858.256	0.0155786
858.334	0.0156836
858.413	0.0156973
858.491	0.0156452
858.569	0.0157508
858.647	0.0156578
858.725	0.0157240
858.803	0.0156566
858.881	0.0156126
858.959	0.0157993
859.038	0.0158623
859.116	0.0159393
859.194	0.0159256
859.272	0.0158094
859.350	0.0158797
859.428	0.0158085
859.506	0.0158115
859.584	0.0157059
859.663	0.0157169
859.741	0.0156981
859.819	0.0156430
859.897	0.0156525
859.975	0.0156596
860.053	0.0155043
860.131	0.0157268
860.209	0.0154736
860.288	0.0156035
860.366	0.0155618
860.444	0.0155299
860.522	0.0156652
860.600	0.0156304
860.678	0.0155951
860.756	0.0155853
860.834	0.0155847
860.913	0.0155410
860.991	0.0155515
861.069	0.0156115
861.147	0.0156432
861.225	0.0156127
861.303	0.0155664
861.381	0.0155222
861.459	0.0156792
861.538	0.0158746
861.616	0.0157043
861.694	0.0157157
861.772	0.0158070
861.850	0.0157046
861.928	0.0159051
862.006	0.0158691
862.084	0.0158170
862.163	0.0158927
862.241	0.0158573
862.319	0.0159631
862.397	0.0158396
862.475	0.0158091
862.553	0.0158076
862.631	0.0158802
862.709	0.0157738
862.788	0.0158537
862.866	0.0156836
862.944	0.0157233
863.022	0.0155927
863.100	0.0156416
863.178	0.0155540
863.256	0.0155532
863.334	0.0155188
863.413	0.0155640
863.491	0.0156642
863.569	0.0155891
863.647	0.0155379
863.725	0.0156506
863.803	0.0155315
863.881	0.0156279
863.959	0.0154726
864.038	0.0156091
864.116	0.0154890
864.194	0.0156136
864.272	0.0156001
864.350	0.0154819
864.428	0.0156297
864.506	0.0155619
864.584	0.0155482
864.663	0.0156174
864.741	0.0155273
864.819	0.0156687
864.897	0.0155280
864.975	0.0155548
865.053	0.0156303
865.131	0.0157227
865.209	0.0156767
865.288	0.0155153
865.366	0.0156512
865.444	0.0156369
865.522	0.0154886
865.600	0.0156509
865.678	0.0155938
865.756	0.0155157
865.834	0.0156880
865.913	0.0156477
865.991	0.0155095
866.069	0.0156567
866.147	0.0155765
866.225	0.0155606
866.303	0.0156346
866.381	0.0155042
866.459	0.0155935
866.538	0.0155075
866.616	0.0156894
866.694	0.0156254
866.772	0.0153932
866.850	0.0156718
866.928	0.0156340
867.006	0.0154472
867.084	0.0155663
867.163	0.0156570
867.241	0.0155666
867.319	0.0153937
867.397	0.0154886
867.475	0.0155408
867.553	0.0156216
867.631	0.0154723
867.709	0.0155289
867.788	0.0155035
867.866	0.0156944
867.944	0.0156278
868.022	0.0155746
868.100	0.0156367
868.178	0.0157960
868.256	0.0156905
868.334	0.0156602
868.413	0.0156683
868.491	0.0156659
868.569	0.0158186
868.647	0.0157195
868.725	0.0156955
868.803	0.0157932
868.881	0.0158414
868.959	0.0158263
869.038	0.0157550
869.116	0.0157932
869.194	0.0157965
869.272	0.0157605
869.350	0.0157384
869.428	0.0157464
869.506	0.0158111
869.584	0.0158176
869.663	0.0156892
869.741	0.0157562
869.819	0.0157613
869.897	0.0157600
869.975	0.0157745
870.053	0.0156547
870.131	0.0156792
870.209	0.0157716
870.288	0.0158906
870.366	0.0158279
870.444	0.0158268
870.522	0.0157710
870.600	0.0158139
870.678	0.0159003
870.756	0.0158614
870.834	0.0158313
870.913	0.0158158
870.991	0.0159005
871.069	0.0159647
871.147	0.0158198
871.225	0.0158492
871.303	0.0158824
871.381	0.0157573
871.459	0.0158473
871.538	0.0156073
871.616	0.0155750
871.694	0.0155798
871.772	0.0156542
871.850	0.0157092
871.928	0.0155461
872.006	0.0153628
872.084	0.0153252
872.163	0.0153877
872.241	0.0155080
872.319	0.0152860
872.397	0.0153325
872.475	0.0153748
872.553	0.0152787
872.631	0.0152695
872.709	0.0152162
872.788	0.0152827
872.866	0.0153413
872.944	0.0153667
873.022	0.0153603
873.100	0.0155056
873.178	0.0153922
873.256	0.0153664
873.334	0.0154196
873.413	0.0155605
873.491	0.0155430
873.569	0.0154858
873.647	0.0154420
873.725	0.0155475
873.803	0.0154870
873.881	0.0156792
873.959	0.0156657
874.038	0.0155586
874.116	0.0157252
874.194	0.0156872
874.272	0.0155462
874.350	0.0157455
874.428	0.0156773
874.506	0.0157038
874.584	0.0156335
874.663	0.0156484
874.741	0.0155737
874.819	0.0155015
874.897	0.0155594
874.975	0.0155803
875.053	0.0154881
875.131	0.0155971
875.209	0.0155345
875.288	0.0156316
875.366	0.0155278
875.444	0.0153519
875.522	0.0153302
875.600	0.0154317
875.678	0.0152316
875.756	0.0154307
875.834	0.0154189
875.913	0.0153146
875.991	0.0154190
876.069	0.0154319
876.147	0.0154348
876.225	0.0155139
876.303	0.0154674
876.381	0.0155011
876.459	0.0152696
876.538	0.0153915
876.616	0.0155425
876.694	0.0155515
876.772	0.0154295
876.850	0.0155434
876.928	0.0155093
877.006	0.0156002
877.084	0.0157110
877.163	0.0157549
877.241	0.0156641
877.319	0.0157703
877.397	0.0158143
877.475	0.0157866
877.553	0.0157610
877.631	0.0157766
877.709	0.0158012
877.788	0.0159329
877.866	0.0158362
877.944	0.0157548
878.022	0.0157505
878.100	0.0157250
878.178	0.0156885
878.256	0.0155039
878.334	0.0157084
878.413	0.0155992
878.491	0.0156051
878.569	0.0155217
878.647	0.0155209
878.725	0.0154364
878.803	0.0155527
878.881	0.0154551
878.959	0.0154431
879.038	0.0155783
879.116	0.0155647
879.194	0.0153720
879.272	0.0154832
879.350	0.0155218
879.428	0.0154807
879.506	0.0154326
879.584	0.0155514
879.663	0.0156489
879.741	0.0154345
879.819	0.0156333
879.897	0.0157632
879.975	0.0157093
880.053	0.0157208
880.131	0.0154618
880.209	0.0155104
880.288	0.0156775
880.366	0.0157130
880.444	0.0156366
880.522	0.0157155
880.600	0.0155462
880.678	0.0155117
880.756	0.0155345
880.834	0.0155769
880.913	0.0156648
880.991	0.0156332
881.069	0.0154515
881.147	0.0154846
881.225	0.0154184
881.303	0.0156677
881.381	0.0155984
881.459	0.0155509
881.538	0.0155714
881.616	0.0153717
881.694	0.0155238
881.772	0.0155848
881.850	0.0154796
881.928	0.0154865
882.006	0.0155397
882.084	0.0156342
882.163	0.0156832
882.241	0.0156155
882.319	0.0156943
882.397	0.0155942
882.475	0.0157125
882.553	0.0156496
882.631	0.0156676
882.709	0.0156769
882.788	0.0156328
882.866	0.0156160
882.944	0.0156676
883.022	0.0156499
883.100	0.0157135
883.178	0.0154927
883.256	0.0156947
883.334	0.0156302
883.413	0.0156914
883.491	0.0157216
883.569	0.0156870
883.647	0.0156706
883.725	0.0155549
883.803	0.0157058
883.881	0.0157376
883.959	0.0157569
884.038	0.0156574
884.116	0.0156438
884.194	0.0157330
884.272	0.0157245
884.350	0.0155924
884.428	0.0156724
884.506	0.0156459
884.584	0.0155276
884.663	0.0156314
884.741	0.0155291
884.819	0.0156020
884.897	0.0156742
884.975	0.0156223
885.053	0.0155616
885.131	0.0157071
885.209	0.0157280
885.288	0.0156464
885.366	0.0156870
885.444	0.0157411
885.522	0.0156752
885.600	0.0157049
885.678	0.0157925
885.756	0.0157485
885.834	0.0157359
885.913	0.0156746
885.991	0.0158288
886.069	0.0157825
886.147	0.0156432
886.225	0.0157117
886.303	0.0158196
886.381	0.0158837
886.459	0.0157743
886.538	0.0155379
886.616	0.0157652
886.694	0.0158597
886.772	0.0155755
886.850	0.0156076
886.928	0.0156918
887.006	0.0156915
887.084	0.0156961
887.163	0.0155196
887.241	0.0154520
887.319	0.0154627
887.397	0.0154921
887.475	0.0153641
887.553	0.0153349
887.631	0.0153493
887.709	0.0152747
887.788	0.0152702
887.866	0.0152736
887.944	0.0152865
888.022	0.0152675
888.100	0.0153404
888.178	0.0153513
888.256	0.0153731
888.334	0.0152295
888.413	0.0152915
888.491	0.0153043
888.569	0.0155414
888.647	0.0153770
888.725	0.0153759
888.803	0.0155741
888.881	0.0155739
888.959	0.0155696
889.038	0.0155681
889.116	0.0157034
889.194	0.0156465
889.272	0.0157501
889.350	0.0158350
889.428	0.0157879
889.506	0.0158335
889.584	0.0158289
889.663	0.0158706
889.741	0.0159770
889.819	0.0160162
889.897	0.0158727
889.975	0.0160271
890.053	0.0159968
890.131	0.0160142
890.209	0.0159973
890.288	0.0159184
890.366	0.0158208
890.444	0.0158921
890.522	0.0158776
890.600	0.0157490
890.678	0.0156107
890.756	0.0156424
890.834	0.0157674
890.913	0.0156279
890.991	0.0156375
891.069	0.0157508
891.147	0.0156659
891.225	0.0157194
891.303	0.0156049
891.381	0.0156053
891.459	0.0156255
891.538	0.0155738
891.616	0.0154036
891.694	0.0156147
891.772	0.0155451
891.850	0.0155685
891.928	0.0155331
892.006	0.0153955
892.084	0.0155573
892.163	0.0155727
892.241	0.0153366
892.319	0.0154962
892.397	0.0154695
892.475	0.0155268
892.553	0.0155193
892.631	0.0154620
892.709	0.0155971
892.788	0.0156435
892.866	0.0156743
892.944	0.0155740
893.022	0.0156828
893.100	0.0156179
893.178	0.0156157
893.256	0.0157574
893.334	0.0155565
893.413	0.0155083
893.491	0.0155494
893.569	0.0156972
893.647	0.0157182
893.725	0.0156438
893.803	0.0156347
893.881	0.0157066
893.959	0.0157693
894.038	0.0156068
894.116	0.0156657
894.194	0.0157287
894.272	0.0157583
894.350	0.0157637
894.428	0.0155904
894.506	0.0158521
894.584	0.0157194
894.663	0.0157435
894.741	0.0157974
894.819	0.0157624
894.897	0.0158641
894.975	0.0158598
895.053	0.0156897
895.131	0.0157154
895.209	0.0159241
895.288	0.0157649
895.366	0.0159204
895.444	0.0158569
895.522	0.0158366
895.600	0.0157880
895.678	0.0158502
895.756	0.0156373
895.834	0.0156927
895.913	0.0157150
895.991	0.0155776
896.069	0.0157732
896.147	0.0157887
896.225	0.0155728
896.303	0.0155181
896.381	0.0155922
896.459	0.0155212
896.538	0.0155280
896.616	0.0154900
896.694	0.0154798
896.772	0.0153310
896.850	0.0154655
896.928	0.0152863
897.006	0.0153295
897.084	0.0153962
897.163	0.0152240
897.241	0.0153499
897.319	0.0152162
897.397	0.0153760
897.475	0.0153218
897.553	0.0152954
897.631	0.0152736
897.709	0.0152456
897.788	0.0154807
897.866	0.0154523
897.944	0.0155064
898.022	0.0154617
898.100	0.0157339
898.178	0.0156516
898.256	0.0157655
898.334	0.0157162
898.413	0.0157243
898.491	0.0157278
898.569	0.0156355
898.647	0.0158623
898.725	0.0157496
898.803	0.0157030
898.881	0.0158144
898.959	0.0159407
899.038	0.0156914
899.116	0.0157394
899.194	0.0157426
899.272	0.0159085
899.350	0.0157818
899.428	0.0157658
899.506	0.0157517
899.584	0.0157024
899.663	0.0157703
899.741	0.0156551
899.819	0.0156616
899.897	0.0156841
899.975	0.0156159
900.053	0.0156283
900.131	0.0155772
900.209	0.0155820
900.288	0.0156112
900.366	0.0154825
900.444	0.0154041
900.522	0.0152843
900.600	0.0153037
900.678	0.0153352
900.756	0.0153098
900.834	0.0152766
900.913	0.0152792
900.991	0.0152850
901.069	0.0151600
901.147	0.0155392
901.225	0.0153701
901.303	0.0150766
901.381	0.0152460
901.459	0.0154939
901.538	0.0154122
901.616	0.0154183
901.694	0.0155994
901.772	0.0154189
901.850	0.0155562
901.928	0.0156451
902.006	0.0157008
902.084	0.0155616
902.163	0.0156142
902.241	0.0156415
902.319	0.0156748
902.397	0.0156252
902.475	0.0157005
902.553	0.0156308
902.631	0.0157368
902.709	0.0157959
902.788	0.0158328
902.866	0.0158111
902.944	0.0158177
903.022	0.0159184
903.100	0.0159496
903.178	0.0159032
903.256	0.0158456
903.334	0.0156984
903.413	0.0157696
903.491	0.0157776
903.569	0.0157806
903.647	0.0156938
903.725	0.0157623
903.803	0.0155334
903.881	0.0154984
903.959	0.0156155
904.038	0.0155015
904.116	0.0153874
904.194	0.0154514
904.272	0.0154030
904.350	0.0153146
904.428	0.0153095
904.506	0.0152228
904.584	0.0153321
904.663	0.0152170
904.741	0.0152634
904.819	0.0152912
904.897	0.0153069
904.975	0.0152909
905.053	0.0154556
905.131	0.0152272
905.209	0.0152286
905.288	0.0153542
905.366	0.0154339
905.444	0.0152903
905.522	0.0154462
905.600	0.0153688
905.678	0.0154761
905.756	0.0154780
905.834	0.0154432
905.913	0.0156172
905.991	0.0156786
906.069	0.0155328
906.147	0.0155598
906.225	0.0156672
906.303	0.0156193
906.381	0.0156625
906.459	0.0154945
906.538	0.0155576
906.616	0.0157764
906.694	0.0157300
906.772	0.0157082
906.850	0.0156696
906.928	0.0156114
907.006	0.0156094
907.084	0.0157355
907.163	0.0157723
907.241	0.0158158
907.319	0.0157790
907.397	0.0155747
907.475	0.0157745
907.553	0.0157434
907.631	0.0155350
907.709	0.0155344
907.788	0.0156596
907.866	0.0156624
907.944	0.0156198
908.022	0.0155865
908.100	0.0154702
908.178	0.0154250
908.256	0.0156915
908.334	0.0155612
908.413	0.0156612
908.491	0.0154860
908.569	0.0155183
908.647	0.0155153
908.725	0.0156892
908.803	0.0154615
908.881	0.0155627
908.959	0.0156678
909.038	0.0154832
909.116	0.0155005
909.194	0.0154462
909.272	0.0154930
909.350	0.0154665
909.428	0.0156601
909.506	0.0155417
909.584	0.0156367
909.663	0.0155886
909.741	0.0156734
909.819	0.0158107
909.897	0.0155667
909.975	0.0155470
910.053	0.0157040
910.131	0.0157397
910.209	0.0157349
910.288	0.0155927
910.366	0.0156715
910.444	0.0158397
910.522	0.0157660
910.600	0.0158421
910.678	0.0158289
910.756	0.0156591
910.834	0.0156057
910.913	0.0156483
910.991	0.0156731
911.069	0.0157162
911.147	0.0156993
911.225	0.0156928
911.303	0.0156752
911.381	0.0156766
911.459	0.0156416
911.538	0.0155572
911.616	0.0156966
911.694	0.0156580
911.772	0.0157258
911.850	0.0157107
911.928	0.0157200
912.006	0.0155927
912.084	0.0156144
912.163	0.0157225
912.241	0.0157399
912.319	0.0156902
912.397	0.0156234
912.475	0.0156736
912.553	0.0157664
912.631	0.0157013
912.709	0.0157070
912.788	0.0157396
912.866	0.0156422
912.944	0.0157724
913.022	0.0156092
913.100	0.0156344
913.178	0.0157465
913.256	0.0156451
913.334	0.0156310
913.413	0.0154667
913.491	0.0156181
913.569	0.0155640
913.647	0.0156036
913.725	0.0156477
913.803	0.0156048
913.881	0.0154214
913.959	0.0156934
914.038	0.0156281
914.116	0.0156302
914.194	0.0157614
914.272	0.0156938
914.350	0.0157930
914.428	0.0157770
914.506	0.0158380
914.584	0.0158440
914.663	0.0158195
914.741	0.0157708
914.819	0.0160140
914.897	0.0157448
914.975	0.0157460
915.053	0.0158396
915.131	0.0158862
915.209	0.0158997
915.288	0.0158134
915.366	0.0159515
915.444	0.0159887
915.522	0.0159558
915.600	0.0158881
915.678	0.0159212
915.756	0.0159224
915.834	0.0160143
915.913	0.0160741
915.991	0.0160461
916.069	0.0159264
916.147	0.0160084
916.225	0.0158775
916.303	0.0159843
916.381	0.0160157
916.459	0.0159514
916.538	0.0160155
916.616	0.0159016
916.694	0.0159979
916.772	0.0159026
916.850	0.0159249
916.928	0.0158530
917.006	0.0158002
917.084	0.0157836
917.163	0.0157632
917.241	0.0158504
917.319	0.0157462
917.397	0.0155732
917.475	0.0157089
917.553	0.0156485
917.631	0.0156404
917.709	0.0157066
917.788	0.0155291
917.866	0.0154327
917.944	0.0155846
918.022	0.0155865
918.100	0.0155991
918.178	0.0154481
918.256	0.0155571
918.334	0.0155872
918.413	0.0157395
918.491	0.0157040
918.569	0.0156728
918.647	0.0157462
918.725	0.0157350
918.803	0.0157896
918.881	0.0157979
918.959	0.0155917
919.038	0.0156904
919.116	0.0158229
919.194	0.0157490
919.272	0.0156928
919.350	0.0158190
919.428	0.0155971
919.506	0.0156351
919.584	0.0158082
919.663	0.0157241
919.741	0.0157121
919.819	0.0156982
919.897	0.0158431
