05/20/2022	21:17:54	Ver.	4.1	UNKNOWN
Optical Delay	599.975067	Delta X		0.078125	Sweeps	1	Scan Rate	0/0
Coordinates	Axis 1	NaN	Axis 2	NaN	Axis 3	NaN	Axis 4	NaN	Axis 5	NaN	Axis 6	0.000000
TX Power	0.000000	RX Power	0.000000

599.975	0.0152206
600.053	0.0151569
600.131	0.0151633
600.209	0.0152076
600.288	0.0152614
600.366	0.0153162
600.444	0.0152442
600.522	0.0152232
600.600	0.0152632
600.678	0.0152626
600.756	0.0151881
600.834	0.0152821
600.913	0.0153045
600.991	0.0151977
601.069	0.0152759
601.147	0.0152113
601.225	0.0152539
601.303	0.0153240
601.381	0.0151761
601.459	0.0151217
601.538	0.0152898
601.616	0.0151624
601.694	0.0150510
601.772	0.0151352
601.850	0.0153187
601.928	0.0152678
602.006	0.0152907
602.084	0.0152824
602.163	0.0152025
602.241	0.0151201
602.319	0.0151644
602.397	0.0152200
602.475	0.0152735
602.553	0.0151416
602.631	0.0151772
602.709	0.0151017
602.788	0.0151285
602.866	0.0151735
602.944	0.0151465
603.022	0.0149682
603.100	0.0151366
603.178	0.0152202
603.256	0.0150853
603.334	0.0150359
603.413	0.0150475
603.491	0.0151135
603.569	0.0150455
603.647	0.0151640
603.725	0.0150955
603.803	0.0150961
603.881	0.0150824
603.959	0.0149931
604.038	0.0151297
604.116	0.0151000
604.194	0.0151125
604.272	0.0150843
604.350	0.0150323
604.428	0.0149680
604.506	0.0150172
604.584	0.0150848
604.663	0.0150858
604.741	0.0150957
604.819	0.0151505
604.897	0.0150860
604.975	0.0150482
605.053	0.0150651
605.131	0.0150049
605.209	0.0151981
605.288	0.0150615
605.366	0.0150907
605.444	0.0149960
605.522	0.0150154
605.600	0.0150870
605.678	0.0150201
605.756	0.0151559
605.834	0.0150603
605.913	0.0150777
605.991	0.0151821
606.069	0.0151103
606.147	0.0151163
606.225	0.0150474
606.303	0.0150603
606.381	0.0151623
606.459	0.0151711
606.538	0.0151410
606.616	0.0151590
606.694	0.0151077
606.772	0.0151707
606.850	0.0150748
606.928	0.0149852
607.006	0.0151357
607.084	0.0149498
607.163	0.0150730
607.241	0.0151845
607.319	0.0152488
607.397	0.0151054
607.475	0.0150157
607.553	0.0149465
607.631	0.0151390
607.709	0.0149922
607.788	0.0151085
607.866	0.0150278
607.944	0.0150575
608.022	0.0152319
608.100	0.0151133
608.178	0.0152375
608.256	0.0151543
608.334	0.0151080
608.413	0.0151409
608.491	0.0150935
608.569	0.0151769
608.647	0.0151268
608.725	0.0151751
608.803	0.0151881
608.881	0.0150446
608.959	0.0150179
609.038	0.0151815
609.116	0.0151533
609.194	0.0151398
609.272	0.0151070
609.350	0.0150006
609.428	0.0151408
609.506	0.0151327
609.584	0.0151038
609.663	0.0151321
609.741	0.0151231
609.819	0.0150382
609.897	0.0150787
609.975	0.0150653
610.053	0.0150968
610.131	0.0149792
610.209	0.0150681
610.288	0.0149999
610.366	0.0150447
610.444	0.0151753
610.522	0.0149420
610.600	0.0150391
610.678	0.0149483
610.756	0.0151012
610.834	0.0151480
610.913	0.0149091
610.991	0.0150750
611.069	0.0151124
611.147	0.0151056
611.225	0.0149020
611.303	0.0148540
611.381	0.0149027
611.459	0.0150423
611.538	0.0147849
611.616	0.0150451
611.694	0.0150862
611.772	0.0150983
611.850	0.0150185
611.928	0.0150352
612.006	0.0149900
612.084	0.0150891
612.163	0.0149995
612.241	0.0149861
612.319	0.0149417
612.397	0.0149363
612.475	0.0150530
612.553	0.0150303
612.631	0.0151113
612.709	0.0150298
612.788	0.0150098
612.866	0.0149586
612.944	0.0150663
613.022	0.0151164
613.100	0.0150729
613.178	0.0151322
613.256	0.0150891
613.334	0.0149826
613.413	0.0149271
613.491	0.0150491
613.569	0.0150397
613.647	0.0148428
613.725	0.0149774
613.803	0.0149877
613.881	0.0149998
613.959	0.0151347
614.038	0.0150535
614.116	0.0150126
614.194	0.0149980
614.272	0.0150373
614.350	0.0151056
614.428	0.0149179
614.506	0.0149612
614.584	0.0149361
614.663	0.0149345
614.741	0.0149666
614.819	0.0149885
614.897	0.0149728
614.975	0.0150392
615.053	0.0149760
615.131	0.0149652
615.209	0.0150509
615.288	0.0150464
615.366	0.0151382
615.444	0.0149377
615.522	0.0152173
615.600	0.0150773
615.678	0.0150373
615.756	0.0150471
615.834	0.0150469
615.913	0.0149870
615.991	0.0151125
616.069	0.0151372
616.147	0.0150485
616.225	0.0149541
616.303	0.0149893
616.381	0.0149672
616.459	0.0149740
616.538	0.0149792
616.616	0.0150784
616.694	0.0149890
616.772	0.0149432
616.850	0.0150375
616.928	0.0149284
617.006	0.0150822
617.084	0.0150562
617.163	0.0149761
617.241	0.0150478
617.319	0.0150679
617.397	0.0150275
617.475	0.0149524
617.553	0.0150671
617.631	0.0152311
617.709	0.0150912
617.788	0.0152241
617.866	0.0150797
617.944	0.0152068
618.022	0.0151403
618.100	0.0151922
618.178	0.0151378
618.256	0.0150970
618.334	0.0151223
618.413	0.0151035
618.491	0.0151485
618.569	0.0152148
618.647	0.0151935
618.725	0.0151715
618.803	0.0151942
618.881	0.0151152
618.959	0.0152365
619.038	0.0152158
619.116	0.0152807
619.194	0.0152142
619.272	0.0152502
619.350	0.0152721
619.428	0.0151077
619.506	0.0152458
619.584	0.0152576
619.663	0.0153206
619.741	0.0151197
619.819	0.0151899
619.897	0.0153208
619.975	0.0153039
620.053	0.0153008
620.131	0.0153383
620.209	0.0152731
620.288	0.0152275
620.366	0.0153030
620.444	0.0154030
620.522	0.0153439
620.600	0.0151471
620.678	0.0152361
620.756	0.0153245
620.834	0.0154090
620.913	0.0154055
620.991	0.0152071
621.069	0.0151789
621.147	0.0152938
621.225	0.0152376
621.303	0.0151794
621.381	0.0152662
621.459	0.0151760
621.538	0.0151048
621.616	0.0151579
621.694	0.0153941
621.772	0.0151801
621.850	0.0150735
621.928	0.0153438
622.006	0.0152002
622.084	0.0152191
622.163	0.0152317
622.241	0.0153369
622.319	0.0152261
622.397	0.0151110
622.475	0.0152298
622.553	0.0152480
622.631	0.0152863
622.709	0.0152029
622.788	0.0151488
622.866	0.0151910
622.944	0.0151828
623.022	0.0152150
623.100	0.0152148
623.178	0.0150312
623.256	0.0153354
623.334	0.0154037
623.413	0.0152451
623.491	0.0151610
623.569	0.0152769
623.647	0.0152320
623.725	0.0152879
623.803	0.0151891
623.881	0.0152339
623.959	0.0152433
624.038	0.0151289
624.116	0.0151935
624.194	0.0153361
624.272	0.0152520
624.350	0.0152232
624.428	0.0151025
624.506	0.0151952
624.584	0.0151427
624.663	0.0151781
624.741	0.0152998
624.819	0.0151242
624.897	0.0150607
624.975	0.0151151
625.053	0.0151437
625.131	0.0150929
625.209	0.0150150
625.288	0.0150998
625.366	0.0150542
625.444	0.0150244
625.522	0.0150526
625.600	0.0152000
625.678	0.0151688
625.756	0.0151529
625.834	0.0151619
625.913	0.0150935
625.991	0.0150180
626.069	0.0150365
626.147	0.0151698
626.225	0.0152498
626.303	0.0150974
626.381	0.0152158
626.459	0.0152003
626.538	0.0152146
626.616	0.0151153
626.694	0.0151281
626.772	0.0151521
626.850	0.0151655
626.928	0.0151359
627.006	0.0151278
627.084	0.0151678
627.163	0.0150777
627.241	0.0149928
627.319	0.0150890
627.397	0.0150742
627.475	0.0150040
627.553	0.0150451
627.631	0.0150132
627.709	0.0150413
627.788	0.0151428
627.866	0.0151580
627.944	0.0151862
628.022	0.0150298
628.100	0.0149762
628.178	0.0151495
628.256	0.0150133
628.334	0.0150995
628.413	0.0152750
628.491	0.0151934
628.569	0.0151217
628.647	0.0150867
628.725	0.0152282
628.803	0.0151562
628.881	0.0150459
628.959	0.0150398
629.038	0.0151336
629.116	0.0150802
629.194	0.0149024
629.272	0.0149560
629.350	0.0150890
629.428	0.0150146
629.506	0.0149139
629.584	0.0149467
629.663	0.0150575
629.741	0.0149905
629.819	0.0150861
629.897	0.0150060
629.975	0.0151038
630.053	0.0151233
630.131	0.0149748
630.209	0.0151069
630.288	0.0151698
630.366	0.0151180
630.444	0.0152237
630.522	0.0151945
630.600	0.0150632
630.678	0.0150890
630.756	0.0150260
630.834	0.0151706
630.913	0.0152484
630.991	0.0150089
631.069	0.0151535
631.147	0.0150815
631.225	0.0151392
631.303	0.0151396
631.381	0.0150336
631.459	0.0150958
631.538	0.0150909
631.616	0.0150176
631.694	0.0150614
631.772	0.0151252
631.850	0.0151363
631.928	0.0149878
632.006	0.0150880
632.084	0.0150528
632.163	0.0151197
632.241	0.0149788
632.319	0.0149805
632.397	0.0151171
632.475	0.0150803
632.553	0.0151280
632.631	0.0152724
632.709	0.0151023
632.788	0.0150502
632.866	0.0151926
632.944	0.0151371
633.022	0.0151313
633.100	0.0149256
633.178	0.0150327
633.256	0.0150890
633.334	0.0148534
633.413	0.0149717
633.491	0.0148883
633.569	0.0148600
633.647	0.0149815
633.725	0.0150331
633.803	0.0148154
633.881	0.0149226
633.959	0.0149564
634.038	0.0149175
634.116	0.0149212
634.194	0.0149595
634.272	0.0149232
634.350	0.0150663
634.428	0.0149899
634.506	0.0151147
634.584	0.0150735
634.663	0.0149156
634.741	0.0149503
634.819	0.0150170
634.897	0.0150475
634.975	0.0149559
635.053	0.0150510
635.131	0.0150735
635.209	0.0150449
635.288	0.0149706
635.366	0.0150348
635.444	0.0149726
635.522	0.0151047
635.600	0.0151122
635.678	0.0150786
635.756	0.0149268
635.834	0.0150469
635.913	0.0150895
635.991	0.0151290
636.069	0.0150893
636.147	0.0150917
636.225	0.0150491
636.303	0.0149942
636.381	0.0148825
636.459	0.0150760
636.538	0.0151002
636.616	0.0150168
636.694	0.0150696
636.772	0.0152060
636.850	0.0150119
636.928	0.0151162
637.006	0.0151955
637.084	0.0151058
637.163	0.0150358
637.241	0.0152094
637.319	0.0150673
637.397	0.0150504
637.475	0.0150805
637.553	0.0150043
637.631	0.0150497
637.709	0.0150559
637.788	0.0151808
637.866	0.0151418
637.944	0.0149899
638.022	0.0151028
638.100	0.0149049
638.178	0.0148179
638.256	0.0150359
638.334	0.0149974
638.413	0.0149366
638.491	0.0149954
638.569	0.0149457
638.647	0.0149644
638.725	0.0149715
638.803	0.0149902
638.881	0.0151421
638.959	0.0149698
639.038	0.0148985
639.116	0.0150768
639.194	0.0150537
639.272	0.0149004
639.350	0.0149740
639.428	0.0150174
639.506	0.0151400
639.584	0.0149974
639.663	0.0150019
639.741	0.0149943
639.819	0.0150308
639.897	0.0150710
639.975	0.0150379
640.053	0.0150652
640.131	0.0149392
640.209	0.0148950
640.288	0.0150222
640.366	0.0150502
640.444	0.0150396
640.522	0.0150947
640.600	0.0151912
640.678	0.0151459
640.756	0.0150626
640.834	0.0150384
640.913	0.0152144
640.991	0.0150456
641.069	0.0151687
641.147	0.0150558
641.225	0.0152499
641.303	0.0152733
641.381	0.0152332
641.459	0.0152091
641.538	0.0153123
641.616	0.0153605
641.694	0.0151861
641.772	0.0151849
641.850	0.0154160
641.928	0.0154144
642.006	0.0153478
642.084	0.0153904
642.163	0.0154332
642.241	0.0155056
642.319	0.0153914
642.397	0.0155264
642.475	0.0154942
642.553	0.0154009
642.631	0.0154186
642.709	0.0154474
642.788	0.0154794
642.866	0.0153469
642.944	0.0154774
643.022	0.0155001
643.100	0.0154601
643.178	0.0152985
643.256	0.0155082
643.334	0.0154639
643.413	0.0154275
643.491	0.0153493
643.569	0.0153058
643.647	0.0154816
643.725	0.0155820
643.803	0.0154193
643.881	0.0155003
643.959	0.0155070
644.038	0.0155073
644.116	0.0154175
644.194	0.0154566
644.272	0.0154008
644.350	0.0154984
644.428	0.0154156
644.506	0.0154031
644.584	0.0153577
644.663	0.0152185
644.741	0.0152756
644.819	0.0153260
644.897	0.0151862
644.975	0.0150770
645.053	0.0151657
645.131	0.0150662
645.209	0.0151031
645.288	0.0152746
645.366	0.0150958
645.444	0.0149999
645.522	0.0150169
645.600	0.0149937
645.678	0.0150134
645.756	0.0150671
645.834	0.0150346
645.913	0.0148953
645.991	0.0149889
646.069	0.0149928
646.147	0.0147244
646.225	0.0148520
646.303	0.0149155
646.381	0.0147887
646.459	0.0148724
646.538	0.0150136
646.616	0.0149825
646.694	0.0148324
646.772	0.0148369
646.850	0.0148191
646.928	0.0148933
647.006	0.0148367
647.084	0.0149802
647.163	0.0148277
647.241	0.0148360
647.319	0.0150851
647.397	0.0149344
647.475	0.0149422
647.553	0.0150135
647.631	0.0149778
647.709	0.0148563
647.788	0.0147092
647.866	0.0150075
647.944	0.0150085
648.022	0.0150142
648.100	0.0149223
648.178	0.0148695
648.256	0.0150154
648.334	0.0149448
648.413	0.0149016
648.491	0.0150996
648.569	0.0150344
648.647	0.0148292
648.725	0.0149888
648.803	0.0150751
648.881	0.0150051
648.959	0.0152737
649.038	0.0151613
649.116	0.0150092
649.194	0.0150925
649.272	0.0151225
649.350	0.0151136
649.428	0.0150497
649.506	0.0151910
649.584	0.0150729
649.663	0.0149644
649.741	0.0151599
649.819	0.0151048
649.897	0.0150174
649.975	0.0151011
650.053	0.0150157
650.131	0.0151492
650.209	0.0151083
650.288	0.0149519
650.366	0.0150394
650.444	0.0150056
650.522	0.0150413
650.600	0.0149796
650.678	0.0150568
650.756	0.0148474
650.834	0.0148955
650.913	0.0150290
650.991	0.0151734
651.069	0.0149197
651.147	0.0149149
651.225	0.0149522
651.303	0.0149931
651.381	0.0150336
651.459	0.0149449
651.538	0.0149575
651.616	0.0149493
651.694	0.0149704
651.772	0.0150397
651.850	0.0150608
651.928	0.0151167
652.006	0.0149142
652.084	0.0150324
652.163	0.0150315
652.241	0.0148833
652.319	0.0150626
652.397	0.0150299
652.475	0.0150014
652.553	0.0151487
652.631	0.0150906
652.709	0.0150459
652.788	0.0149953
652.866	0.0150120
652.944	0.0150852
653.022	0.0150091
653.100	0.0150472
653.178	0.0149789
653.256	0.0149973
653.334	0.0150179
653.413	0.0149686
653.491	0.0151696
653.569	0.0151957
653.647	0.0151376
653.725	0.0150489
653.803	0.0150428
653.881	0.0150719
653.959	0.0151641
654.038	0.0151486
654.116	0.0151624
654.194	0.0151131
654.272	0.0152399
654.350	0.0151646
654.428	0.0151736
654.506	0.0151447
654.584	0.0152401
654.663	0.0151846
654.741	0.0151250
654.819	0.0151075
654.897	0.0152870
654.975	0.0151419
655.053	0.0152117
655.131	0.0151897
655.209	0.0151963
655.288	0.0150567
655.366	0.0151718
655.444	0.0151850
655.522	0.0150998
655.600	0.0151801
655.678	0.0151714
655.756	0.0150519
655.834	0.0150828
655.913	0.0150500
655.991	0.0151639
656.069	0.0149995
656.147	0.0150958
656.225	0.0151526
656.303	0.0152025
656.381	0.0151111
656.459	0.0149883
656.538	0.0150677
656.616	0.0150179
656.694	0.0150520
656.772	0.0152231
656.850	0.0150434
656.928	0.0150358
657.006	0.0149516
657.084	0.0148707
657.163	0.0150449
657.241	0.0149860
657.319	0.0151111
657.397	0.0150641
657.475	0.0152689
657.553	0.0150675
657.631	0.0150596
657.709	0.0150594
657.788	0.0150763
657.866	0.0151827
657.944	0.0149679
658.022	0.0150622
658.100	0.0151312
658.178	0.0151274
658.256	0.0151617
658.334	0.0150681
658.413	0.0150329
658.491	0.0150394
658.569	0.0150446
658.647	0.0150756
658.725	0.0150407
658.803	0.0151572
658.881	0.0150887
658.959	0.0150182
659.038	0.0149770
659.116	0.0150322
659.194	0.0151338
659.272	0.0150556
659.350	0.0150239
659.428	0.0151018
659.506	0.0150179
659.584	0.0149935
659.663	0.0148887
659.741	0.0150786
659.819	0.0151126
659.897	0.0150022
659.975	0.0149612
660.053	0.0150262
660.131	0.0149833
660.209	0.0151659
660.288	0.0150492
660.366	0.0151202
660.444	0.0150039
660.522	0.0151243
660.600	0.0151791
660.678	0.0150330
660.756	0.0152909
660.834	0.0152048
660.913	0.0150379
660.991	0.0151926
661.069	0.0150999
661.147	0.0153194
661.225	0.0153629
661.303	0.0153118
661.381	0.0152995
661.459	0.0152760
661.538	0.0152479
661.616	0.0152370
661.694	0.0152316
661.772	0.0152588
661.850	0.0152763
661.928	0.0152129
662.006	0.0153201
662.084	0.0152216
662.163	0.0153116
662.241	0.0152828
662.319	0.0153307
662.397	0.0153002
662.475	0.0150790
662.553	0.0151721
662.631	0.0153577
662.709	0.0153064
662.788	0.0152739
662.866	0.0151708
662.944	0.0153188
663.022	0.0151520
663.100	0.0152596
663.178	0.0152879
663.256	0.0152858
663.334	0.0153290
663.413	0.0152138
663.491	0.0151844
663.569	0.0151361
663.647	0.0151639
663.725	0.0151439
663.803	0.0151416
663.881	0.0151936
663.959	0.0151947
664.038	0.0152608
664.116	0.0153558
664.194	0.0152049
664.272	0.0152346
664.350	0.0153228
664.428	0.0153710
664.506	0.0153896
664.584	0.0153384
664.663	0.0154189
664.741	0.0154227
664.819	0.0155379
664.897	0.0153311
664.975	0.0154645
665.053	0.0154320
665.131	0.0154801
665.209	0.0154169
665.288	0.0155566
665.366	0.0154649
665.444	0.0153327
665.522	0.0152894
665.600	0.0152557
665.678	0.0153468
665.756	0.0153809
665.834	0.0154631
665.913	0.0154035
665.991	0.0154234
666.069	0.0154982
666.147	0.0155798
666.225	0.0153369
666.303	0.0154423
666.381	0.0153802
666.459	0.0153852
666.538	0.0153393
666.616	0.0152584
666.694	0.0150616
666.772	0.0150109
666.850	0.0151044
666.928	0.0150454
667.006	0.0148357
667.084	0.0147614
667.163	0.0147195
667.241	0.0147395
667.319	0.0146285
667.397	0.0145626
667.475	0.0146394
667.553	0.0146754
667.631	0.0147369
667.709	0.0145663
667.788	0.0148328
667.866	0.0148313
667.944	0.0147337
668.022	0.0149539
668.100	0.0149100
668.178	0.0149410
668.256	0.0149950
668.334	0.0150283
668.413	0.0151273
668.491	0.0152763
668.569	0.0153288
668.647	0.0153207
668.725	0.0155382
668.803	0.0155723
668.881	0.0155798
668.959	0.0154391
669.038	0.0154883
669.116	0.0155203
669.194	0.0154897
669.272	0.0153887
669.350	0.0154078
669.428	0.0154213
669.506	0.0153882
669.584	0.0153288
669.663	0.0151101
669.741	0.0152587
669.819	0.0152774
669.897	0.0151723
669.975	0.0150484
670.053	0.0150656
670.131	0.0149692
670.209	0.0150586
670.288	0.0149609
670.366	0.0147160
670.444	0.0146920
670.522	0.0146938
670.600	0.0146082
670.678	0.0145688
670.756	0.0145054
670.834	0.0144983
670.913	0.0145357
670.991	0.0145252
671.069	0.0145023
671.147	0.0146282
671.225	0.0146061
671.303	0.0147295
671.381	0.0147146
671.459	0.0148085
671.538	0.0148116
671.616	0.0148586
671.694	0.0149813
671.772	0.0150935
671.850	0.0151875
671.928	0.0151157
672.006	0.0153562
672.084	0.0153962
672.163	0.0154918
672.241	0.0157861
672.319	0.0159347
672.397	0.0159666
672.475	0.0160208
672.553	0.0160359
672.631	0.0163141
672.709	0.0162140
672.788	0.0164015
672.866	0.0164540
672.944	0.0164239
673.022	0.0163348
673.100	0.0162138
673.178	0.0164092
673.256	0.0161790
673.334	0.0160165
673.413	0.0159711
673.491	0.0158556
673.569	0.0156279
673.647	0.0153537
673.725	0.0151349
673.803	0.0149944
673.881	0.0147059
673.959	0.0146639
674.038	0.0143657
674.116	0.0142070
674.194	0.0139587
674.272	0.0138536
674.350	0.0136186
674.428	0.0135085
674.506	0.0134679
674.584	0.0134311
674.663	0.0134015
674.741	0.0134749
674.819	0.0135580
674.897	0.0134830
674.975	0.0135022
675.053	0.0135508
675.131	0.0137791
675.209	0.0140247
675.288	0.0141169
675.366	0.0143626
675.444	0.0144985
675.522	0.0146834
675.600	0.0150005
675.678	0.0151874
675.756	0.0152917
675.834	0.0156058
675.913	0.0160184
675.991	0.0161373
676.069	0.0165253
676.147	0.0166221
676.225	0.0168771
676.303	0.0170621
676.381	0.0172752
676.459	0.0173252
676.538	0.0173805
676.616	0.0174203
676.694	0.0174988
676.772	0.0174469
676.850	0.0174522
676.928	0.0173030
677.006	0.0171516
677.084	0.0168156
677.163	0.0168137
677.241	0.0164869
677.319	0.0161852
677.397	0.0158629
677.475	0.0156495
677.553	0.0155019
677.631	0.0151524
677.709	0.0149162
677.788	0.0145129
677.866	0.0141602
677.944	0.0139857
678.022	0.0137260
678.100	0.0135763
678.178	0.0132757
678.256	0.0130850
678.334	0.0129711
678.413	0.0129564
678.491	0.0129252
678.569	0.0127204
678.647	0.0128494
678.725	0.0128451
678.803	0.0128625
678.881	0.0129390
678.959	0.0129829
679.038	0.0132595
679.116	0.0134225
679.194	0.0136627
679.272	0.0140151
679.350	0.0143179
679.428	0.0145068
679.506	0.0148035
679.584	0.0149670
679.663	0.0152911
679.741	0.0155553
679.819	0.0157022
679.897	0.0159975
679.975	0.0162746
680.053	0.0162853
680.131	0.0164259
680.209	0.0166600
680.288	0.0167047
680.366	0.0167876
680.444	0.0166785
680.522	0.0166287
680.600	0.0166654
680.678	0.0165592
680.756	0.0164153
680.834	0.0161963
680.913	0.0161935
680.991	0.0159910
681.069	0.0158405
681.147	0.0156922
681.225	0.0155573
681.303	0.0154394
681.381	0.0153444
681.459	0.0150515
681.538	0.0149576
681.616	0.0147908
681.694	0.0148078
681.772	0.0146384
681.850	0.0146144
681.928	0.0147174
682.006	0.0145853
682.084	0.0146040
682.163	0.0145767
682.241	0.0146589
682.319	0.0146690
682.397	0.0146606
682.475	0.0146816
682.553	0.0148055
682.631	0.0149089
682.709	0.0147648
682.788	0.0148753
682.866	0.0149781
682.944	0.0148415
683.022	0.0148886
683.100	0.0149644
683.178	0.0150243
683.256	0.0150045
683.334	0.0150333
683.413	0.0151349
683.491	0.0150938
683.569	0.0152422
683.647	0.0151184
683.725	0.0151588
683.803	0.0149873
683.881	0.0148457
683.959	0.0148843
684.038	0.0146179
684.116	0.0146990
684.194	0.0147505
684.272	0.0145007
684.350	0.0145388
684.428	0.0144554
684.506	0.0142442
684.584	0.0143153
684.663	0.0144183
684.741	0.0144748
684.819	0.0144891
684.897	0.0147142
684.975	0.0148345
685.053	0.0149313
685.131	0.0150615
685.209	0.0152035
685.288	0.0153825
685.366	0.0153031
685.444	0.0152834
685.522	0.0154903
685.600	0.0156145
685.678	0.0155971
685.756	0.0155322
685.834	0.0157327
685.913	0.0156835
685.991	0.0158002
686.069	0.0157822
686.147	0.0158650
686.225	0.0159290
686.303	0.0157958
686.381	0.0158913
686.459	0.0158819
686.538	0.0158736
686.616	0.0157968
686.694	0.0159184
686.772	0.0159306
686.850	0.0156054
686.928	0.0154913
687.006	0.0156635
687.084	0.0154022
687.163	0.0154268
687.241	0.0152949
687.319	0.0153252
687.397	0.0152184
687.475	0.0150906
687.553	0.0151514
687.631	0.0151581
687.709	0.0151693
687.788	0.0150778
687.866	0.0150578
687.944	0.0149960
688.022	0.0150396
688.100	0.0149978
688.178	0.0148607
688.256	0.0147446
688.334	0.0147692
688.413	0.0146194
688.491	0.0146196
688.569	0.0145360
688.647	0.0145852
688.725	0.0144563
688.803	0.0143059
688.881	0.0143264
688.959	0.0143471
689.038	0.0143645
689.116	0.0143259
689.194	0.0143036
689.272	0.0143166
689.350	0.0142271
689.428	0.0142607
689.506	0.0141129
689.584	0.0141371
689.663	0.0140076
689.741	0.0142064
689.819	0.0141665
689.897	0.0141566
689.975	0.0142935
690.053	0.0141982
690.131	0.0142439
690.209	0.0144199
690.288	0.0147009
690.366	0.0148311
690.444	0.0148705
690.522	0.0151558
690.600	0.0151871
690.678	0.0154760
690.756	0.0158254
690.834	0.0158168
690.913	0.0160778
690.991	0.0162177
691.069	0.0162943
691.147	0.0163866
691.225	0.0165833
691.303	0.0167306
691.381	0.0167582
691.459	0.0168365
691.538	0.0168621
691.616	0.0167632
691.694	0.0167474
691.772	0.0166180
691.850	0.0165591
691.928	0.0164721
692.006	0.0163004
692.084	0.0161798
692.163	0.0157097
692.241	0.0153373
692.319	0.0151994
692.397	0.0149810
692.475	0.0146028
692.553	0.0143746
692.631	0.0141572
692.709	0.0138378
692.788	0.0136072
692.866	0.0133528
692.944	0.0131960
693.022	0.0131024
693.100	0.0129610
693.178	0.0131261
693.256	0.0129988
693.334	0.0130448
693.413	0.0131000
693.491	0.0133704
693.569	0.0133939
693.647	0.0136555
693.725	0.0138383
693.803	0.0141497
693.881	0.0144235
693.959	0.0148141
694.038	0.0152602
694.116	0.0152560
694.194	0.0156091
694.272	0.0159892
694.350	0.0162300
694.428	0.0164872
694.506	0.0167562
694.584	0.0170454
694.663	0.0171680
694.741	0.0172558
694.819	0.0175155
694.897	0.0174685
694.975	0.0176138
695.053	0.0174446
695.131	0.0174612
695.209	0.0173846
695.288	0.0174065
695.366	0.0172435
695.444	0.0170194
695.522	0.0166998
695.600	0.0163850
695.678	0.0160313
695.756	0.0159081
695.834	0.0155946
695.913	0.0151189
695.991	0.0147250
696.069	0.0144455
696.147	0.0141235
696.225	0.0137055
696.303	0.0135725
696.381	0.0133626
696.459	0.0132308
696.538	0.0131210
696.616	0.0129803
696.694	0.0128757
696.772	0.0129092
696.850	0.0130331
696.928	0.0130473
697.006	0.0132217
697.084	0.0133330
697.163	0.0137869
697.241	0.0139002
697.319	0.0139316
697.397	0.0144684
697.475	0.0147041
697.553	0.0151368
697.631	0.0154167
697.709	0.0157123
697.788	0.0160170
697.866	0.0164487
697.944	0.0166980
698.022	0.0168668
698.100	0.0171156
698.178	0.0172110
698.256	0.0174671
698.334	0.0174834
698.413	0.0173836
698.491	0.0172353
698.569	0.0169608
698.647	0.0167612
698.725	0.0166093
698.803	0.0164059
698.881	0.0162217
698.959	0.0160188
699.038	0.0159483
699.116	0.0158286
699.194	0.0156181
699.272	0.0155829
699.350	0.0153642
699.428	0.0152613
699.506	0.0150904
699.584	0.0148238
699.663	0.0147250
699.741	0.0145486
699.819	0.0142477
699.897	0.0141506
699.975	0.0141508
700.053	0.0138194
700.131	0.0137133
700.209	0.0136093
700.288	0.0136312
700.366	0.0137535
700.444	0.0137246
700.522	0.0137669
700.600	0.0139226
700.678	0.0140395
700.756	0.0139877
700.834	0.0141351
700.913	0.0142493
700.991	0.0144292
701.069	0.0144328
701.147	0.0143798
701.225	0.0145708
701.303	0.0146580
701.381	0.0147143
701.459	0.0149381
701.538	0.0148055
701.616	0.0150839
701.694	0.0152647
701.772	0.0154925
701.850	0.0155454
701.928	0.0156524
702.006	0.0159282
702.084	0.0159036
702.163	0.0160127
702.241	0.0160219
702.319	0.0161552
702.397	0.0162122
702.475	0.0161919
702.553	0.0162057
702.631	0.0161576
702.709	0.0161319
702.788	0.0162411
702.866	0.0161349
702.944	0.0161107
703.022	0.0162663
703.100	0.0162937
703.178	0.0162521
703.256	0.0161584
703.334	0.0162141
703.413	0.0160305
703.491	0.0159415
703.569	0.0157502
703.647	0.0156846
703.725	0.0155636
703.803	0.0153300
703.881	0.0152461
703.959	0.0151698
704.038	0.0150034
704.116	0.0150140
704.194	0.0147937
704.272	0.0148541
704.350	0.0146823
704.428	0.0146969
704.506	0.0147941
704.584	0.0146012
704.663	0.0145198
704.741	0.0145438
704.819	0.0142355
704.897	0.0141726
704.975	0.0141347
705.053	0.0141094
705.131	0.0139794
705.209	0.0136871
705.288	0.0138021
705.366	0.0138423
705.444	0.0136985
705.522	0.0135996
705.600	0.0133829
705.678	0.0136323
705.756	0.0135802
705.834	0.0136977
705.913	0.0136095
705.991	0.0135987
706.069	0.0135612
706.147	0.0137672
706.225	0.0137605
706.303	0.0137083
706.381	0.0138328
706.459	0.0138667
706.538	0.0139767
706.616	0.0140868
706.694	0.0143208
706.772	0.0143552
706.850	0.0144583
706.928	0.0147210
707.006	0.0149949
707.084	0.0152955
707.163	0.0155204
707.241	0.0158440
707.319	0.0158021
707.397	0.0162027
707.475	0.0163922
707.553	0.0167551
707.631	0.0170792
707.709	0.0173163
707.788	0.0177241
707.866	0.0180577
707.944	0.0182922
708.022	0.0183241
708.100	0.0186369
708.178	0.0188209
708.256	0.0185053
708.334	0.0186865
708.413	0.0186185
708.491	0.0186616
708.569	0.0181532
708.647	0.0178297
708.725	0.0177001
708.803	0.0172868
708.881	0.0168511
708.959	0.0163594
709.038	0.0160114
709.116	0.0156696
709.194	0.0151860
709.272	0.0148439
709.350	0.0144480
709.428	0.0138840
709.506	0.0135213
709.584	0.0131477
709.663	0.0127933
709.741	0.0124094
709.819	0.0120998
709.897	0.0117383
709.975	0.0116496
710.053	0.0115218
710.131	0.0114914
710.209	0.0112474
710.288	0.0114344
710.366	0.0114485
710.444	0.0115895
710.522	0.0118710
710.600	0.0121655
710.678	0.0125458
710.756	0.0128819
710.834	0.0131234
710.913	0.0135278
710.991	0.0139114
711.069	0.0141897
711.147	0.0145130
711.225	0.0147769
711.303	0.0150798
711.381	0.0155735
711.459	0.0158364
711.538	0.0160707
711.616	0.0164159
711.694	0.0166755
711.772	0.0166560
711.850	0.0170133
711.928	0.0171804
712.006	0.0171590
712.084	0.0172930
712.163	0.0171918
712.241	0.0171565
712.319	0.0170535
712.397	0.0168814
712.475	0.0165771
712.553	0.0163993
712.631	0.0161537
712.709	0.0157835
712.788	0.0157719
712.866	0.0156519
712.944	0.0153329
713.022	0.0150543
713.100	0.0147683
713.178	0.0146646
713.256	0.0146223
713.334	0.0143816
713.413	0.0141901
713.491	0.0140823
713.569	0.0139689
713.647	0.0139818
713.725	0.0138307
713.803	0.0137388
713.881	0.0136921
713.959	0.0136166
714.038	0.0134834
714.116	0.0136061
714.194	0.0137724
714.272	0.0137814
714.350	0.0137925
714.428	0.0140166
714.506	0.0141712
714.584	0.0143279
714.663	0.0143922
714.741	0.0144934
714.819	0.0146895
714.897	0.0150095
714.975	0.0150769
715.053	0.0152667
715.131	0.0154469
715.209	0.0156251
715.288	0.0158730
715.366	0.0160261
715.444	0.0161824
715.522	0.0162717
715.600	0.0165686
715.678	0.0166268
715.756	0.0164488
715.834	0.0167028
715.913	0.0167634
715.991	0.0167680
716.069	0.0166898
716.147	0.0166027
716.225	0.0166483
716.303	0.0165424
716.381	0.0164455
716.459	0.0159982
716.538	0.0160443
716.616	0.0158225
716.694	0.0154636
716.772	0.0154543
716.850	0.0150018
716.928	0.0147246
717.006	0.0144576
717.084	0.0142024
717.163	0.0140337
717.241	0.0137341
717.319	0.0136622
717.397	0.0135060
717.475	0.0133387
717.553	0.0132835
717.631	0.0132939
717.709	0.0134284
717.788	0.0136138
717.866	0.0136059
717.944	0.0137265
718.022	0.0139973
718.100	0.0143674
718.178	0.0145471
718.256	0.0148440
718.334	0.0149596
718.413	0.0151169
718.491	0.0154006
718.569	0.0157283
718.647	0.0157209
718.725	0.0158157
718.803	0.0158638
718.881	0.0160181
718.959	0.0161720
719.038	0.0159371
719.116	0.0161051
719.194	0.0161166
719.272	0.0161421
719.350	0.0161219
719.428	0.0159151
719.506	0.0161626
719.584	0.0161443
719.663	0.0162139
719.741	0.0160564
719.819	0.0159522
719.897	0.0159907
719.975	0.0158992
720.053	0.0159248
720.131	0.0155912
720.209	0.0156545
720.288	0.0155534
720.366	0.0152332
720.444	0.0152184
720.522	0.0150596
720.600	0.0150763
720.678	0.0148782
720.756	0.0147749
720.834	0.0146514
720.913	0.0147096
720.991	0.0147001
721.069	0.0147777
721.147	0.0147986
721.225	0.0147687
721.303	0.0148457
721.381	0.0148180
721.459	0.0147932
721.538	0.0148472
721.616	0.0150575
721.694	0.0152042
721.772	0.0151236
721.850	0.0151915
721.928	0.0153304
722.006	0.0153640
722.084	0.0154989
722.163	0.0155800
722.241	0.0156906
722.319	0.0158280
722.397	0.0158961
722.475	0.0160503
722.553	0.0161240
722.631	0.0163059
722.709	0.0162555
722.788	0.0164239
722.866	0.0164433
722.944	0.0163598
723.022	0.0164752
723.100	0.0164161
723.178	0.0165112
723.256	0.0165771
723.334	0.0163503
723.413	0.0163243
723.491	0.0162652
723.569	0.0161356
723.647	0.0159956
723.725	0.0160280
723.803	0.0159088
723.881	0.0157180
723.959	0.0156724
724.038	0.0153362
724.116	0.0150920
724.194	0.0149054
724.272	0.0147616
724.350	0.0146490
724.428	0.0143495
724.506	0.0143343
724.584	0.0140423
724.663	0.0140743
724.741	0.0137383
724.819	0.0137144
724.897	0.0136257
724.975	0.0134946
725.053	0.0132639
725.131	0.0132404
725.209	0.0132108
725.288	0.0132619
725.366	0.0130659
725.444	0.0131705
725.522	0.0132162
725.600	0.0131438
725.678	0.0131127
725.756	0.0131769
725.834	0.0133858
725.913	0.0132935
725.991	0.0132500
726.069	0.0132939
726.147	0.0134978
726.225	0.0137739
726.303	0.0138487
726.381	0.0140553
726.459	0.0142243
726.538	0.0143858
726.616	0.0145751
726.694	0.0148720
726.772	0.0151391
726.850	0.0153016
726.928	0.0154881
727.006	0.0159755
727.084	0.0160676
727.163	0.0162689
727.241	0.0163615
727.319	0.0166907
727.397	0.0167664
727.475	0.0168916
727.553	0.0170030
727.631	0.0171980
727.709	0.0174539
727.788	0.0174302
727.866	0.0174034
727.944	0.0175017
728.022	0.0175862
728.100	0.0175980
728.178	0.0173677
728.256	0.0173449
728.334	0.0171663
728.413	0.0168618
728.491	0.0165736
728.569	0.0164837
728.647	0.0162850
728.725	0.0158557
728.803	0.0156303
728.881	0.0154144
728.959	0.0152530
729.038	0.0149868
729.116	0.0149510
729.194	0.0148450
729.272	0.0147672
729.350	0.0147631
729.428	0.0145805
729.506	0.0147332
729.584	0.0147449
729.663	0.0145721
729.741	0.0144654
729.819	0.0146410
729.897	0.0144389
729.975	0.0144725
730.053	0.0144173
730.131	0.0144114
730.209	0.0143692
730.288	0.0144133
730.366	0.0145345
730.444	0.0142865
730.522	0.0142670
730.600	0.0142323
730.678	0.0141697
730.756	0.0142982
730.834	0.0143178
730.913	0.0141286
730.991	0.0142903
731.069	0.0142596
731.147	0.0142278
731.225	0.0142178
731.303	0.0141676
731.381	0.0142355
731.459	0.0141132
731.538	0.0140397
731.616	0.0141376
731.694	0.0140028
731.772	0.0141688
731.850	0.0142733
731.928	0.0143945
732.006	0.0143420
732.084	0.0144732
732.163	0.0146642
732.241	0.0146217
732.319	0.0147384
732.397	0.0150185
732.475	0.0152195
732.553	0.0153365
732.631	0.0153976
732.709	0.0154008
732.788	0.0153643
732.866	0.0155525
732.944	0.0153954
733.022	0.0156439
733.100	0.0155406
733.178	0.0155817
733.256	0.0155202
733.334	0.0153874
733.413	0.0154504
733.491	0.0153693
733.569	0.0154414
733.647	0.0152641
733.725	0.0151475
733.803	0.0150591
733.881	0.0150117
733.959	0.0149050
734.038	0.0149253
734.116	0.0149090
734.194	0.0148125
734.272	0.0148079
734.350	0.0149559
734.428	0.0150440
734.506	0.0149340
734.584	0.0150137
734.663	0.0150642
734.741	0.0149164
734.819	0.0150032
734.897	0.0150031
734.975	0.0151653
735.053	0.0153107
735.131	0.0153491
735.209	0.0153046
735.288	0.0152520
735.366	0.0152969
735.444	0.0153436
735.522	0.0151872
735.600	0.0151988
735.678	0.0152561
735.756	0.0150752
735.834	0.0150852
735.913	0.0151181
735.991	0.0149085
736.069	0.0149937
736.147	0.0150645
736.225	0.0149248
736.303	0.0149970
736.381	0.0147984
736.459	0.0147183
736.538	0.0147881
736.616	0.0148321
736.694	0.0147021
736.772	0.0148646
736.850	0.0150525
736.928	0.0150988
737.006	0.0151058
737.084	0.0150551
737.163	0.0152287
737.241	0.0152431
737.319	0.0153107
737.397	0.0154608
737.475	0.0155026
737.553	0.0156645
737.631	0.0156762
737.709	0.0157188
737.788	0.0158710
737.866	0.0158546
737.944	0.0160431
738.022	0.0160419
738.100	0.0160771
738.178	0.0159093
738.256	0.0158521
738.334	0.0157957
738.413	0.0158765
738.491	0.0156950
738.569	0.0155390
738.647	0.0154137
738.725	0.0154510
738.803	0.0152184
738.881	0.0151921
738.959	0.0150002
739.038	0.0147240
739.116	0.0146944
739.194	0.0146301
739.272	0.0145992
739.350	0.0145786
739.428	0.0146450
739.506	0.0147041
739.584	0.0145168
739.663	0.0145037
739.741	0.0146365
739.819	0.0147099
739.897	0.0147372
739.975	0.0148013
740.053	0.0148203
740.131	0.0147235
740.209	0.0146308
740.288	0.0147511
740.366	0.0147254
740.444	0.0145213
740.522	0.0145755
740.600	0.0144909
740.678	0.0145042
740.756	0.0145261
740.834	0.0145818
740.913	0.0146089
740.991	0.0145035
741.069	0.0144725
741.147	0.0144565
741.225	0.0145573
741.303	0.0145062
741.381	0.0144990
741.459	0.0145116
741.538	0.0143357
741.616	0.0144450
741.694	0.0144777
741.772	0.0144927
741.850	0.0144958
741.928	0.0146163
742.006	0.0146059
742.084	0.0147638
742.163	0.0149246
742.241	0.0150930
742.319	0.0153854
742.397	0.0154475
742.475	0.0157568
742.553	0.0159200
742.631	0.0160904
742.709	0.0163081
742.788	0.0165644
742.866	0.0165458
742.944	0.0167858
743.022	0.0168543
743.100	0.0170834
743.178	0.0171615
743.256	0.0173406
743.334	0.0174819
743.413	0.0174211
743.491	0.0172012
743.569	0.0172895
743.647	0.0174091
743.725	0.0170824
743.803	0.0169492
743.881	0.0168109
743.959	0.0166476
744.038	0.0163109
744.116	0.0159543
744.194	0.0157338
744.272	0.0156838
744.350	0.0152417
744.428	0.0149678
744.506	0.0148192
744.584	0.0146280
744.663	0.0144922
744.741	0.0142940
744.819	0.0140939
744.897	0.0139259
744.975	0.0138967
745.053	0.0137639
745.131	0.0137038
745.209	0.0137323
745.288	0.0136323
745.366	0.0135947
745.444	0.0137700
745.522	0.0136980
745.600	0.0137826
745.678	0.0137862
745.756	0.0139711
745.834	0.0141277
745.913	0.0141814
745.991	0.0141429
746.069	0.0141031
746.147	0.0144588
746.225	0.0144456
746.303	0.0144958
746.381	0.0145924
746.459	0.0145853
746.538	0.0145585
746.616	0.0146997
746.694	0.0147355
746.772	0.0147604
746.850	0.0148973
746.928	0.0148707
747.006	0.0149613
747.084	0.0150446
747.163	0.0150507
747.241	0.0151440
747.319	0.0151685
747.397	0.0153397
747.475	0.0153692
747.553	0.0154334
747.631	0.0154230
747.709	0.0155200
747.788	0.0156110
747.866	0.0156544
747.944	0.0158752
748.022	0.0157557
748.100	0.0158104
748.178	0.0158003
748.256	0.0158047
748.334	0.0157502
748.413	0.0158719
748.491	0.0157634
748.569	0.0157135
748.647	0.0156053
748.725	0.0154583
748.803	0.0155305
748.881	0.0154333
748.959	0.0153516
749.038	0.0152777
749.116	0.0152140
749.194	0.0152161
749.272	0.0149916
749.350	0.0151648
749.428	0.0149654
749.506	0.0149802
749.584	0.0150853
749.663	0.0151578
749.741	0.0151068
749.819	0.0149794
749.897	0.0148344
749.975	0.0149147
750.053	0.0148656
750.131	0.0147923
750.209	0.0147501
750.288	0.0147046
750.366	0.0147501
750.444	0.0146488
750.522	0.0145491
750.600	0.0145982
750.678	0.0147756
750.756	0.0146364
750.834	0.0147271
750.913	0.0147672
750.991	0.0146828
751.069	0.0147943
751.147	0.0148489
751.225	0.0150989
751.303	0.0149327
751.381	0.0150658
751.459	0.0152073
751.538	0.0152604
751.616	0.0152792
751.694	0.0151472
751.772	0.0153386
751.850	0.0153398
751.928	0.0154291
752.006	0.0152918
752.084	0.0152797
752.163	0.0153224
752.241	0.0152742
752.319	0.0153986
752.397	0.0153841
752.475	0.0153986
752.553	0.0151764
752.631	0.0152017
752.709	0.0154134
752.788	0.0154492
752.866	0.0155384
752.944	0.0154448
753.022	0.0155579
753.100	0.0156681
753.178	0.0155208
753.256	0.0154996
753.334	0.0154958
753.413	0.0154023
753.491	0.0154056
753.569	0.0153023
753.647	0.0153843
753.725	0.0151318
753.803	0.0151131
753.881	0.0150751
753.959	0.0150126
754.038	0.0148085
754.116	0.0146201
754.194	0.0146517
754.272	0.0145272
754.350	0.0144569
754.428	0.0144087
754.506	0.0144585
754.584	0.0143996
754.663	0.0143387
754.741	0.0143262
754.819	0.0143307
754.897	0.0144088
754.975	0.0144010
755.053	0.0144231
755.131	0.0144340
755.209	0.0145070
755.288	0.0146214
755.366	0.0145525
755.444	0.0148708
755.522	0.0146488
755.600	0.0148658
755.678	0.0151173
755.756	0.0150130
755.834	0.0151715
755.913	0.0153467
755.991	0.0153607
756.069	0.0154935
756.147	0.0156129
756.225	0.0156354
756.303	0.0157455
756.381	0.0156026
756.459	0.0157216
756.538	0.0155834
756.616	0.0155212
756.694	0.0154620
756.772	0.0152586
756.850	0.0153543
756.928	0.0151141
757.006	0.0151842
757.084	0.0151604
757.163	0.0150008
757.241	0.0149352
757.319	0.0148132
757.397	0.0147046
757.475	0.0147335
757.553	0.0148560
757.631	0.0146957
757.709	0.0147993
757.788	0.0147137
757.866	0.0148569
757.944	0.0149829
758.022	0.0148882
758.100	0.0150563
758.178	0.0149480
758.256	0.0150506
758.334	0.0152183
758.413	0.0152692
758.491	0.0154201
758.569	0.0154376
758.647	0.0155952
758.725	0.0156950
758.803	0.0158173
758.881	0.0158648
758.959	0.0159937
759.038	0.0160915
759.116	0.0160504
759.194	0.0159764
759.272	0.0160790
759.350	0.0161094
759.428	0.0160682
759.506	0.0160732
759.584	0.0161049
759.663	0.0158715
759.741	0.0157648
759.819	0.0156304
759.897	0.0154656
759.975	0.0155560
760.053	0.0152923
760.131	0.0148831
760.209	0.0149438
760.288	0.0148660
760.366	0.0146236
760.444	0.0146229
760.522	0.0145395
760.600	0.0143999
760.678	0.0142471
760.756	0.0142996
760.834	0.0144794
760.913	0.0142004
760.991	0.0143824
761.069	0.0143094
761.147	0.0142833
761.225	0.0141959
761.303	0.0143024
761.381	0.0143052
761.459	0.0143933
761.538	0.0143601
761.616	0.0142979
761.694	0.0144496
761.772	0.0144460
761.850	0.0145810
761.928	0.0146763
762.006	0.0147384
762.084	0.0148972
762.163	0.0147767
762.241	0.0148560
762.319	0.0149199
762.397	0.0150149
762.475	0.0150388
762.553	0.0152213
762.631	0.0154147
762.709	0.0152859
762.788	0.0152428
762.866	0.0153629
762.944	0.0153001
763.022	0.0154298
763.100	0.0154697
763.178	0.0154652
763.256	0.0153942
763.334	0.0151648
763.413	0.0152515
763.491	0.0152725
763.569	0.0153927
763.647	0.0151078
763.725	0.0152551
763.803	0.0151787
763.881	0.0151549
763.959	0.0150983
764.038	0.0151846
764.116	0.0151646
764.194	0.0152267
764.272	0.0152624
764.350	0.0151367
764.428	0.0152480
764.506	0.0154481
764.584	0.0154071
764.663	0.0152938
764.741	0.0154057
764.819	0.0153977
764.897	0.0154101
764.975	0.0153381
765.053	0.0153287
765.131	0.0152761
765.209	0.0151350
765.288	0.0151781
765.366	0.0150495
765.444	0.0150957
765.522	0.0150482
765.600	0.0150204
765.678	0.0148003
765.756	0.0146775
765.834	0.0146507
765.913	0.0146929
765.991	0.0146146
766.069	0.0145810
766.147	0.0146485
766.225	0.0146854
766.303	0.0146040
766.381	0.0147913
766.459	0.0148132
766.538	0.0149411
766.616	0.0149296
766.694	0.0151323
766.772	0.0151360
766.850	0.0153339
766.928	0.0153321
767.006	0.0153914
767.084	0.0154943
767.163	0.0155399
767.241	0.0154851
767.319	0.0153717
767.397	0.0156512
767.475	0.0155275
767.553	0.0153806
767.631	0.0153020
767.709	0.0154392
767.788	0.0154844
767.866	0.0155084
767.944	0.0155677
768.022	0.0154659
768.100	0.0153490
768.178	0.0153304
768.256	0.0151578
768.334	0.0152729
768.413	0.0153357
768.491	0.0152496
768.569	0.0153342
768.647	0.0152465
768.725	0.0150723
768.803	0.0151131
768.881	0.0151900
768.959	0.0151855
769.038	0.0152224
769.116	0.0151625
769.194	0.0152793
769.272	0.0153661
769.350	0.0153407
769.428	0.0153234
769.506	0.0152034
769.584	0.0153324
769.663	0.0152038
769.741	0.0153297
769.819	0.0153621
769.897	0.0152919
769.975	0.0151370
770.053	0.0151353
770.131	0.0150720
770.209	0.0147304
770.288	0.0146320
770.366	0.0146731
770.444	0.0145587
770.522	0.0145891
770.600	0.0145487
770.678	0.0144351
770.756	0.0143871
770.834	0.0145367
770.913	0.0145673
770.991	0.0143994
771.069	0.0142839
771.147	0.0144025
771.225	0.0145000
771.303	0.0145629
771.381	0.0145174
771.459	0.0146722
771.538	0.0147173
771.616	0.0148148
771.694	0.0149377
771.772	0.0149047
771.850	0.0150676
771.928	0.0150556
772.006	0.0152702
772.084	0.0153120
772.163	0.0155473
772.241	0.0154459
772.319	0.0156716
772.397	0.0157676
772.475	0.0156616
772.553	0.0155592
772.631	0.0155461
772.709	0.0155690
772.788	0.0155750
772.866	0.0155798
772.944	0.0155900
773.022	0.0154713
773.100	0.0154466
773.178	0.0154979
773.256	0.0153978
773.334	0.0154017
773.413	0.0154129
773.491	0.0154535
773.569	0.0154503
773.647	0.0154311
773.725	0.0151141
773.803	0.0152908
773.881	0.0152788
773.959	0.0154534
774.038	0.0153634
774.116	0.0152596
774.194	0.0155130
774.272	0.0153963
774.350	0.0153130
774.428	0.0153466
774.506	0.0155608
774.584	0.0154501
774.663	0.0155244
774.741	0.0154105
774.819	0.0152978
774.897	0.0151970
774.975	0.0150827
775.053	0.0151128
775.131	0.0150352
775.209	0.0151132
775.288	0.0147787
775.366	0.0146312
775.444	0.0147198
775.522	0.0147233
775.600	0.0145924
775.678	0.0146028
775.756	0.0144754
775.834	0.0145048
775.913	0.0144757
775.991	0.0146661
776.069	0.0144721
776.147	0.0144660
776.225	0.0145456
776.303	0.0145007
776.381	0.0146217
776.459	0.0147025
776.538	0.0148368
776.616	0.0148811
776.694	0.0150410
776.772	0.0150819
776.850	0.0151669
776.928	0.0151579
777.006	0.0152785
777.084	0.0152958
777.163	0.0153461
777.241	0.0154843
777.319	0.0156680
777.397	0.0154848
777.475	0.0155307
777.553	0.0155434
777.631	0.0154097
777.709	0.0152168
777.788	0.0153542
777.866	0.0151934
777.944	0.0152468
778.022	0.0151984
778.100	0.0150317
778.178	0.0150705
778.256	0.0150211
778.334	0.0148740
778.413	0.0148808
778.491	0.0148262
778.569	0.0147231
778.647	0.0147356
778.725	0.0147710
778.803	0.0147193
778.881	0.0146902
778.959	0.0147020
779.038	0.0147750
779.116	0.0147427
779.194	0.0147578
779.272	0.0148196
779.350	0.0149500
779.428	0.0148559
779.506	0.0151232
779.584	0.0151003
779.663	0.0151008
779.741	0.0152547
779.819	0.0153621
779.897	0.0153094
779.975	0.0153232
780.053	0.0153072
780.131	0.0153593
780.209	0.0154579
780.288	0.0153754
780.366	0.0153819
780.444	0.0152167
780.522	0.0152979
780.600	0.0151163
780.678	0.0151714
780.756	0.0151808
780.834	0.0150725
780.913	0.0150438
780.991	0.0149612
781.069	0.0150457
781.147	0.0149372
781.225	0.0149503
781.303	0.0150517
781.381	0.0150320
781.459	0.0150076
781.538	0.0149496
781.616	0.0151880
781.694	0.0150736
781.772	0.0151405
781.850	0.0152557
781.928	0.0151044
782.006	0.0151341
782.084	0.0153218
782.163	0.0153627
782.241	0.0153529
782.319	0.0153296
782.397	0.0154333
782.475	0.0153836
782.553	0.0153629
782.631	0.0154345
782.709	0.0153362
782.788	0.0153585
782.866	0.0153256
782.944	0.0153873
783.022	0.0151001
783.100	0.0152041
783.178	0.0152925
783.256	0.0151064
783.334	0.0150587
783.413	0.0150217
783.491	0.0150054
783.569	0.0149471
783.647	0.0149781
783.725	0.0148062
783.803	0.0147183
783.881	0.0147996
783.959	0.0147272
784.038	0.0146278
784.116	0.0147567
784.194	0.0148038
784.272	0.0147649
784.350	0.0149173
784.428	0.0148846
784.506	0.0150444
784.584	0.0151789
784.663	0.0152548
784.741	0.0153386
784.819	0.0154850
784.897	0.0156337
784.975	0.0154813
785.053	0.0155110
785.131	0.0156489
785.209	0.0156332
785.288	0.0156001
785.366	0.0156244
785.444	0.0157172
785.522	0.0157114
785.600	0.0155463
785.678	0.0155178
785.756	0.0154729
785.834	0.0152322
785.913	0.0153511
785.991	0.0151926
786.069	0.0150862
786.147	0.0151330
786.225	0.0149853
786.303	0.0150272
786.381	0.0149977
786.459	0.0148718
786.538	0.0147717
786.616	0.0146535
786.694	0.0146857
786.772	0.0147324
786.850	0.0147601
786.928	0.0148024
787.006	0.0147438
787.084	0.0147739
787.163	0.0147870
787.241	0.0150719
787.319	0.0149875
787.397	0.0151237
787.475	0.0150809
787.553	0.0151152
787.631	0.0152097
787.709	0.0153053
787.788	0.0154097
787.866	0.0153699
787.944	0.0153828
788.022	0.0154458
788.100	0.0154027
788.178	0.0155628
788.256	0.0154829
788.334	0.0155993
788.413	0.0156109
788.491	0.0155204
788.569	0.0155700
788.647	0.0156094
788.725	0.0154885
788.803	0.0154122
788.881	0.0154919
788.959	0.0153736
789.038	0.0152416
789.116	0.0154199
789.194	0.0153282
789.272	0.0152247
789.350	0.0152448
789.428	0.0151505
789.506	0.0151231
789.584	0.0150233
789.663	0.0149410
789.741	0.0151305
789.819	0.0151774
789.897	0.0149886
789.975	0.0148845
790.053	0.0149411
790.131	0.0149964
790.209	0.0149716
790.288	0.0149902
790.366	0.0148685
790.444	0.0150250
790.522	0.0150677
790.600	0.0150140
790.678	0.0150369
790.756	0.0151146
790.834	0.0149641
790.913	0.0151825
790.991	0.0152035
791.069	0.0151128
791.147	0.0150513
791.225	0.0153105
791.303	0.0152308
791.381	0.0151891
791.459	0.0152434
791.538	0.0153257
791.616	0.0152879
791.694	0.0151927
791.772	0.0153495
791.850	0.0151603
791.928	0.0152916
792.006	0.0152222
792.084	0.0152011
792.163	0.0153156
792.241	0.0150639
792.319	0.0149938
792.397	0.0151087
792.475	0.0150315
792.553	0.0148595
792.631	0.0148237
792.709	0.0147694
792.788	0.0148402
792.866	0.0146992
792.944	0.0147530
793.022	0.0148444
793.100	0.0146712
793.178	0.0147890
793.256	0.0147305
793.334	0.0147651
793.413	0.0147451
793.491	0.0148717
793.569	0.0147975
793.647	0.0148625
793.725	0.0148843
793.803	0.0150312
793.881	0.0151009
793.959	0.0151115
794.038	0.0151058
794.116	0.0152682
794.194	0.0152917
794.272	0.0151300
794.350	0.0151987
794.428	0.0152688
794.506	0.0152361
794.584	0.0152801
794.663	0.0151994
794.741	0.0154828
794.819	0.0153895
794.897	0.0153947
794.975	0.0152431
795.053	0.0151396
795.131	0.0152131
795.209	0.0151927
795.288	0.0151881
795.366	0.0151546
795.444	0.0150348
795.522	0.0152858
795.600	0.0151989
795.678	0.0152218
795.756	0.0152489
795.834	0.0150092
795.913	0.0151396
795.991	0.0152921
796.069	0.0151095
796.147	0.0150803
796.225	0.0152494
796.303	0.0150809
796.381	0.0150881
796.459	0.0150755
796.538	0.0151949
796.616	0.0150735
796.694	0.0149612
796.772	0.0149862
796.850	0.0150179
796.928	0.0150076
797.006	0.0149760
797.084	0.0150359
797.163	0.0149859
797.241	0.0150596
797.319	0.0150846
797.397	0.0151252
797.475	0.0149580
797.553	0.0151108
797.631	0.0152781
797.709	0.0152427
797.788	0.0152344
797.866	0.0153487
797.944	0.0154434
798.022	0.0154547
798.100	0.0157131
798.178	0.0156441
798.256	0.0156071
798.334	0.0157442
798.413	0.0156512
798.491	0.0156870
798.569	0.0157330
798.647	0.0157981
798.725	0.0157030
798.803	0.0157662
798.881	0.0157366
798.959	0.0157037
799.038	0.0156223
799.116	0.0154940
799.194	0.0155637
799.272	0.0154399
799.350	0.0151819
799.428	0.0151683
799.506	0.0152708
799.584	0.0152936
799.663	0.0151930
799.741	0.0150351
799.819	0.0150792
799.897	0.0152455
799.975	0.0150333
800.053	0.0151617
800.131	0.0152135
800.209	0.0149968
800.288	0.0150998
800.366	0.0152290
800.444	0.0151172
800.522	0.0151690
800.600	0.0150562
800.678	0.0152338
800.756	0.0152203
800.834	0.0151148
800.913	0.0151174
800.991	0.0152077
801.069	0.0151392
801.147	0.0152773
801.225	0.0151175
801.303	0.0149690
801.381	0.0150234
801.459	0.0148904
801.538	0.0148485
801.616	0.0147536
801.694	0.0146559
801.772	0.0146503
801.850	0.0145966
801.928	0.0145402
802.006	0.0145432
802.084	0.0146944
802.163	0.0146056
802.241	0.0146297
802.319	0.0146099
802.397	0.0145185
802.475	0.0149245
802.553	0.0148318
802.631	0.0149135
802.709	0.0149313
802.788	0.0149834
802.866	0.0148067
802.944	0.0150949
803.022	0.0150195
803.100	0.0151412
803.178	0.0152365
803.256	0.0150701
803.334	0.0152692
803.413	0.0152534
803.491	0.0153082
803.569	0.0152526
803.647	0.0154902
803.725	0.0154856
803.803	0.0154515
803.881	0.0154272
803.959	0.0157112
804.038	0.0156693
804.116	0.0155766
804.194	0.0158018
804.272	0.0157287
804.350	0.0157310
804.428	0.0156553
804.506	0.0157455
804.584	0.0156186
804.663	0.0155285
804.741	0.0157210
804.819	0.0155983
804.897	0.0155746
804.975	0.0155719
805.053	0.0154710
805.131	0.0152897
805.209	0.0153215
805.288	0.0153440
805.366	0.0153457
805.444	0.0152046
805.522	0.0151125
805.600	0.0151371
805.678	0.0150580
805.756	0.0151719
805.834	0.0150927
805.913	0.0149272
805.991	0.0149557
806.069	0.0148827
806.147	0.0148845
806.225	0.0149857
806.303	0.0149183
806.381	0.0148883
806.459	0.0149077
806.538	0.0148206
806.616	0.0147969
806.694	0.0147829
806.772	0.0149706
806.850	0.0150063
806.928	0.0148405
807.006	0.0149021
807.084	0.0149648
807.163	0.0150094
807.241	0.0150316
807.319	0.0150578
807.397	0.0151392
807.475	0.0151276
807.553	0.0149947
807.631	0.0151341
807.709	0.0151303
807.788	0.0152065
807.866	0.0153561
807.944	0.0152576
808.022	0.0153603
808.100	0.0152557
808.178	0.0153503
808.256	0.0151603
808.334	0.0153327
808.413	0.0154481
808.491	0.0155138
808.569	0.0155902
808.647	0.0154905
808.725	0.0155202
808.803	0.0155615
808.881	0.0155025
808.959	0.0155687
809.038	0.0155167
809.116	0.0155240
809.194	0.0154359
809.272	0.0156051
809.350	0.0155139
809.428	0.0155067
809.506	0.0154800
809.584	0.0153950
809.663	0.0154723
809.741	0.0152906
809.819	0.0153252
809.897	0.0152307
809.975	0.0151692
810.053	0.0150150
810.131	0.0149534
810.209	0.0149197
810.288	0.0149327
810.366	0.0147459
810.444	0.0145986
810.522	0.0145932
810.600	0.0145114
810.678	0.0145738
810.756	0.0146967
810.834	0.0146585
810.913	0.0147285
810.991	0.0147489
811.069	0.0148277
811.147	0.0148546
811.225	0.0149194
811.303	0.0151206
811.381	0.0151425
811.459	0.0152589
811.538	0.0151971
811.616	0.0153442
811.694	0.0154250
811.772	0.0153465
811.850	0.0154848
811.928	0.0156593
812.006	0.0154818
812.084	0.0154688
812.163	0.0156537
812.241	0.0157092
812.319	0.0155506
812.397	0.0155614
812.475	0.0155177
812.553	0.0155086
812.631	0.0154504
812.709	0.0152992
812.788	0.0152543
812.866	0.0153764
812.944	0.0154132
813.022	0.0151341
813.100	0.0151154
813.178	0.0150218
813.256	0.0150586
813.334	0.0150175
813.413	0.0148686
813.491	0.0148598
813.569	0.0147362
813.647	0.0149257
813.725	0.0148161
813.803	0.0148251
813.881	0.0148816
813.959	0.0149223
814.038	0.0148729
814.116	0.0148542
814.194	0.0148791
814.272	0.0149265
814.350	0.0148367
814.428	0.0148447
814.506	0.0148325
814.584	0.0149660
814.663	0.0150082
814.741	0.0149654
814.819	0.0150295
814.897	0.0151460
814.975	0.0150264
815.053	0.0151332
815.131	0.0149686
815.209	0.0150505
815.288	0.0152268
815.366	0.0151113
815.444	0.0151519
815.522	0.0152618
815.600	0.0152545
815.678	0.0150443
815.756	0.0152285
815.834	0.0151472
815.913	0.0150762
815.991	0.0153041
816.069	0.0152507
816.147	0.0151402
816.225	0.0150764
816.303	0.0151990
816.381	0.0151398
816.459	0.0150649
816.538	0.0151914
816.616	0.0151393
816.694	0.0149216
816.772	0.0150447
816.850	0.0148857
816.928	0.0149038
817.006	0.0148241
817.084	0.0148730
817.163	0.0147186
817.241	0.0147987
817.319	0.0148192
817.397	0.0147320
817.475	0.0148457
817.553	0.0147308
817.631	0.0147519
817.709	0.0149087
817.788	0.0149165
817.866	0.0147242
817.944	0.0148944
818.022	0.0149037
818.100	0.0148583
818.178	0.0150410
818.256	0.0150420
818.334	0.0148820
818.413	0.0148711
818.491	0.0148167
818.569	0.0149837
818.647	0.0150370
818.725	0.0150390
818.803	0.0151641
818.881	0.0151149
818.959	0.0151617
819.038	0.0150512
819.116	0.0152620
819.194	0.0153080
819.272	0.0153349
819.350	0.0152811
819.428	0.0154671
819.506	0.0153436
819.584	0.0153685
819.663	0.0155126
819.741	0.0153526
819.819	0.0153529
819.897	0.0153242
819.975	0.0153237
820.053	0.0153545
820.131	0.0153994
820.209	0.0153513
820.288	0.0154420
820.366	0.0152785
820.444	0.0152596
820.522	0.0152574
820.600	0.0151567
820.678	0.0151629
820.756	0.0151180
820.834	0.0150385
820.913	0.0150384
820.991	0.0150819
821.069	0.0149434
821.147	0.0148431
821.225	0.0148203
821.303	0.0148433
821.381	0.0147963
821.459	0.0148806
821.538	0.0149445
821.616	0.0149496
821.694	0.0148212
821.772	0.0149593
821.850	0.0150189
821.928	0.0147976
822.006	0.0147724
822.084	0.0148381
822.163	0.0147649
822.241	0.0148773
822.319	0.0150080
822.397	0.0150262
822.475	0.0149293
822.553	0.0148235
822.631	0.0149688
822.709	0.0149550
822.788	0.0147792
822.866	0.0149476
822.944	0.0150677
823.022	0.0150011
823.100	0.0151148
823.178	0.0151234
823.256	0.0151685
823.334	0.0151901
823.413	0.0153104
823.491	0.0152748
823.569	0.0154009
823.647	0.0154077
823.725	0.0155274
823.803	0.0156669
823.881	0.0156143
823.959	0.0155636
824.038	0.0156429
824.116	0.0157319
824.194	0.0156054
824.272	0.0155591
824.350	0.0155833
824.428	0.0155021
824.506	0.0156663
824.584	0.0154269
824.663	0.0156432
824.741	0.0154861
824.819	0.0154710
824.897	0.0155977
824.975	0.0155312
825.053	0.0155489
825.131	0.0153757
825.209	0.0154675
825.288	0.0154417
825.366	0.0153704
825.444	0.0153633
825.522	0.0153053
825.600	0.0151302
825.678	0.0152782
825.756	0.0152776
825.834	0.0151394
825.913	0.0151712
825.991	0.0149966
826.069	0.0149720
826.147	0.0150828
826.225	0.0148751
826.303	0.0147730
826.381	0.0149374
826.459	0.0150018
826.538	0.0148752
826.616	0.0148824
826.694	0.0148177
826.772	0.0148213
826.850	0.0148728
826.928	0.0149144
827.006	0.0148679
827.084	0.0149734
827.163	0.0148676
827.241	0.0151528
827.319	0.0152353
827.397	0.0150137
827.475	0.0150244
827.553	0.0149658
827.631	0.0149165
827.709	0.0149800
827.788	0.0151198
827.866	0.0149886
827.944	0.0151202
828.022	0.0149906
828.100	0.0150677
828.178	0.0150645
828.256	0.0150437
828.334	0.0152644
828.413	0.0150284
828.491	0.0150999
828.569	0.0152370
828.647	0.0150816
828.725	0.0151547
828.803	0.0150966
828.881	0.0153494
828.959	0.0152197
829.038	0.0151522
829.116	0.0152438
829.194	0.0151613
829.272	0.0152216
829.350	0.0152848
829.428	0.0152353
829.506	0.0151681
829.584	0.0153105
829.663	0.0153349
829.741	0.0153159
829.819	0.0153819
829.897	0.0153007
829.975	0.0152861
830.053	0.0151336
830.131	0.0151654
830.209	0.0152890
830.288	0.0153241
830.366	0.0153642
830.444	0.0153595
830.522	0.0151411
830.600	0.0153182
830.678	0.0154841
830.756	0.0153795
830.834	0.0153556
830.913	0.0153080
830.991	0.0153671
831.069	0.0153699
831.147	0.0153210
831.225	0.0153227
831.303	0.0152685
831.381	0.0153264
831.459	0.0150401
831.538	0.0151283
831.616	0.0152341
831.694	0.0153397
831.772	0.0151469
831.850	0.0150423
831.928	0.0151127
832.006	0.0151651
832.084	0.0151782
832.163	0.0150810
832.241	0.0151617
832.319	0.0151550
832.397	0.0150461
832.475	0.0149314
832.553	0.0149675
832.631	0.0150412
832.709	0.0150202
832.788	0.0149242
832.866	0.0150721
832.944	0.0150168
833.022	0.0148923
833.100	0.0150376
833.178	0.0150471
833.256	0.0150141
833.334	0.0148634
833.413	0.0149379
833.491	0.0148898
833.569	0.0149568
833.647	0.0150180
833.725	0.0150830
833.803	0.0149800
833.881	0.0149064
833.959	0.0151063
834.038	0.0150379
834.116	0.0150173
834.194	0.0151299
834.272	0.0150896
834.350	0.0150378
834.428	0.0150565
834.506	0.0150960
834.584	0.0151140
834.663	0.0151778
834.741	0.0150751
834.819	0.0150764
834.897	0.0151694
834.975	0.0152628
835.053	0.0152706
835.131	0.0151475
835.209	0.0151556
835.288	0.0150783
835.366	0.0153698
835.444	0.0153135
835.522	0.0149969
835.600	0.0151684
835.678	0.0151427
835.756	0.0151263
835.834	0.0151723
835.913	0.0149700
835.991	0.0149601
836.069	0.0151553
836.147	0.0151715
836.225	0.0149795
836.303	0.0148826
836.381	0.0148994
836.459	0.0150224
836.538	0.0149216
836.616	0.0149909
836.694	0.0148579
836.772	0.0148466
836.850	0.0149107
836.928	0.0149905
837.006	0.0148741
837.084	0.0149327
837.163	0.0148869
837.241	0.0149107
837.319	0.0149361
837.397	0.0148697
837.475	0.0149655
837.553	0.0149049
837.631	0.0151011
837.709	0.0149126
837.788	0.0150944
837.866	0.0149781
837.944	0.0149377
838.022	0.0151188
838.100	0.0150135
838.178	0.0147990
838.256	0.0148463
838.334	0.0149982
838.413	0.0150086
838.491	0.0150634
838.569	0.0149704
838.647	0.0149832
838.725	0.0150121
838.803	0.0150037
838.881	0.0149792
838.959	0.0150092
839.038	0.0150266
839.116	0.0149984
839.194	0.0151264
839.272	0.0151053
839.350	0.0150969
839.428	0.0151159
839.506	0.0151753
839.584	0.0152144
839.663	0.0150965
839.741	0.0152927
839.819	0.0152713
839.897	0.0153247
839.975	0.0153451
840.053	0.0152013
840.131	0.0152726
840.209	0.0152932
840.288	0.0151926
840.366	0.0153002
840.444	0.0151781
840.522	0.0152149
840.600	0.0152394
840.678	0.0151753
840.756	0.0151652
840.834	0.0151204
840.913	0.0151916
840.991	0.0153156
841.069	0.0150182
841.147	0.0150982
841.225	0.0151872
841.303	0.0151163
841.381	0.0152428
841.459	0.0150853
841.538	0.0151740
841.616	0.0151060
841.694	0.0151799
841.772	0.0151791
841.850	0.0151640
841.928	0.0151817
842.006	0.0151049
842.084	0.0150442
842.163	0.0148529
842.241	0.0149484
842.319	0.0149440
842.397	0.0149220
842.475	0.0148975
842.553	0.0148330
842.631	0.0148592
842.709	0.0149374
842.788	0.0147949
842.866	0.0148951
842.944	0.0149709
843.022	0.0148223
843.100	0.0148521
843.178	0.0150996
843.256	0.0149422
843.334	0.0150526
843.413	0.0150682
843.491	0.0151119
843.569	0.0150788
843.647	0.0152805
843.725	0.0151718
843.803	0.0152493
843.881	0.0152463
843.959	0.0152082
844.038	0.0152920
844.116	0.0152462
844.194	0.0152940
844.272	0.0154042
844.350	0.0152789
844.428	0.0152599
844.506	0.0152123
844.584	0.0152782
844.663	0.0152753
844.741	0.0154189
844.819	0.0153440
844.897	0.0151984
844.975	0.0153175
845.053	0.0152755
845.131	0.0152338
845.209	0.0151530
845.288	0.0151917
845.366	0.0152695
845.444	0.0153175
845.522	0.0152284
845.600	0.0151398
845.678	0.0152302
845.756	0.0153616
845.834	0.0151292
845.913	0.0150789
845.991	0.0153452
846.069	0.0151303
846.147	0.0151187
846.225	0.0151333
846.303	0.0150732
846.381	0.0149875
846.459	0.0149526
846.538	0.0151692
846.616	0.0151476
846.694	0.0150961
846.772	0.0150790
846.850	0.0149735
846.928	0.0150299
847.006	0.0149592
847.084	0.0149011
847.163	0.0150042
847.241	0.0149889
847.319	0.0149402
847.397	0.0149206
847.475	0.0149497
847.553	0.0149338
847.631	0.0149127
847.709	0.0149044
847.788	0.0147717
847.866	0.0148576
847.944	0.0150364
848.022	0.0149450
848.100	0.0148922
848.178	0.0149561
848.256	0.0149392
848.334	0.0149483
848.413	0.0149574
848.491	0.0150835
848.569	0.0149557
848.647	0.0150578
848.725	0.0149549
848.803	0.0148727
848.881	0.0149090
848.959	0.0149992
849.038	0.0151569
849.116	0.0149754
849.194	0.0150980
849.272	0.0150842
849.350	0.0149775
849.428	0.0150620
849.506	0.0150596
849.584	0.0151870
849.663	0.0151187
849.741	0.0150054
849.819	0.0151417
849.897	0.0150252
849.975	0.0152586
850.053	0.0151669
850.131	0.0150673
850.209	0.0151165
850.288	0.0150368
850.366	0.0151548
850.444	0.0151279
850.522	0.0152216
850.600	0.0150606
850.678	0.0150378
850.756	0.0149522
850.834	0.0151189
850.913	0.0151669
850.991	0.0151278
851.069	0.0151529
851.147	0.0151359
851.225	0.0150990
851.303	0.0151803
851.381	0.0151884
851.459	0.0152084
851.538	0.0151561
851.616	0.0151954
851.694	0.0151046
851.772	0.0151514
851.850	0.0151705
851.928	0.0151620
852.006	0.0152656
852.084	0.0152072
852.163	0.0151292
852.241	0.0152610
852.319	0.0153145
852.397	0.0152263
852.475	0.0151972
852.553	0.0152287
852.631	0.0153457
852.709	0.0153764
852.788	0.0153770
852.866	0.0150944
852.944	0.0153092
853.022	0.0154309
853.100	0.0151851
853.178	0.0152441
853.256	0.0151963
853.334	0.0153065
853.413	0.0152709
853.491	0.0151430
853.569	0.0151358
853.647	0.0151478
853.725	0.0152589
853.803	0.0153257
853.881	0.0152297
853.959	0.0152458
854.038	0.0152774
854.116	0.0150427
854.194	0.0151147
854.272	0.0152832
854.350	0.0153371
854.428	0.0152654
854.506	0.0153294
854.584	0.0153633
854.663	0.0154376
854.741	0.0152154
854.819	0.0152670
854.897	0.0152514
854.975	0.0154249
855.053	0.0153481
855.131	0.0152007
855.209	0.0153284
855.288	0.0153166
855.366	0.0153263
855.444	0.0152908
855.522	0.0152654
855.600	0.0152673
855.678	0.0152103
855.756	0.0151707
855.834	0.0151757
855.913	0.0152653
855.991	0.0152176
856.069	0.0151134
856.147	0.0152824
856.225	0.0149850
856.303	0.0149899
856.381	0.0151465
856.459	0.0151359
856.538	0.0151020
856.616	0.0150185
856.694	0.0150068
856.772	0.0149088
856.850	0.0149786
856.928	0.0148713
857.006	0.0149754
857.084	0.0150340
857.163	0.0147955
857.241	0.0147919
857.319	0.0149226
857.397	0.0150720
857.475	0.0149485
857.553	0.0148467
857.631	0.0149609
857.709	0.0149817
857.788	0.0149249
857.866	0.0149272
857.944	0.0148708
858.022	0.0149174
858.100	0.0149539
858.178	0.0149908
858.256	0.0150919
858.334	0.0150173
858.413	0.0150089
858.491	0.0150481
858.569	0.0150051
858.647	0.0150561
858.725	0.0151550
858.803	0.0151492
858.881	0.0151363
858.959	0.0150771
859.038	0.0151838
859.116	0.0150530
859.194	0.0151902
859.272	0.0151267
859.350	0.0149657
859.428	0.0151415
859.506	0.0151049
859.584	0.0150185
859.663	0.0150450
859.741	0.0151524
859.819	0.0150794
859.897	0.0150119
859.975	0.0150214
860.053	0.0150488
860.131	0.0151178
860.209	0.0151720
860.288	0.0150392
860.366	0.0150151
860.444	0.0150886
860.522	0.0151411
860.600	0.0150145
860.678	0.0150197
860.756	0.0151115
860.834	0.0151581
860.913	0.0150801
860.991	0.0151128
861.069	0.0151599
861.147	0.0152549
861.225	0.0151275
861.303	0.0152159
861.381	0.0153054
861.459	0.0151367
861.538	0.0151990
861.616	0.0153168
861.694	0.0152929
861.772	0.0152705
861.850	0.0153075
861.928	0.0152896
862.006	0.0152979
862.084	0.0153944
862.163	0.0153558
862.241	0.0153330
862.319	0.0152247
862.397	0.0153091
862.475	0.0152611
862.553	0.0152620
862.631	0.0150993
862.709	0.0152620
862.788	0.0152733
862.866	0.0151754
862.944	0.0153033
863.022	0.0153233
863.100	0.0150076
863.178	0.0152716
863.256	0.0151720
863.334	0.0150513
863.413	0.0150735
863.491	0.0151041
863.569	0.0150290
863.647	0.0150496
863.725	0.0150195
863.803	0.0150618
863.881	0.0150441
863.959	0.0150867
864.038	0.0152002
864.116	0.0151305
864.194	0.0150352
864.272	0.0151079
864.350	0.0152174
864.428	0.0151102
864.506	0.0150907
864.584	0.0151121
864.663	0.0152183
864.741	0.0151122
864.819	0.0152133
864.897	0.0150941
864.975	0.0152601
865.053	0.0152670
865.131	0.0152665
865.209	0.0151440
865.288	0.0151859
865.366	0.0152218
865.444	0.0153102
865.522	0.0152467
865.600	0.0153135
865.678	0.0152283
865.756	0.0151629
865.834	0.0151804
865.913	0.0152558
865.991	0.0151068
866.069	0.0151786
866.147	0.0151282
866.225	0.0150416
866.303	0.0150615
866.381	0.0150574
866.459	0.0150337
866.538	0.0149742
866.616	0.0149817
866.694	0.0150123
866.772	0.0150492
866.850	0.0150655
866.928	0.0150228
867.006	0.0150170
867.084	0.0149295
867.163	0.0149755
867.241	0.0151204
867.319	0.0149913
867.397	0.0149142
867.475	0.0150026
867.553	0.0150089
867.631	0.0151888
867.709	0.0150499
867.788	0.0150231
867.866	0.0149394
867.944	0.0149323
868.022	0.0152834
868.100	0.0151290
868.178	0.0151836
868.256	0.0151035
868.334	0.0150414
868.413	0.0150665
868.491	0.0152337
868.569	0.0151914
868.647	0.0150674
868.725	0.0151229
868.803	0.0150803
868.881	0.0150992
868.959	0.0150642
869.038	0.0151169
869.116	0.0150819
869.194	0.0151150
869.272	0.0151737
869.350	0.0151862
869.428	0.0151144
869.506	0.0152210
869.584	0.0150872
869.663	0.0151716
869.741	0.0152933
869.819	0.0153153
869.897	0.0153398
869.975	0.0151905
870.053	0.0153033
870.131	0.0153127
870.209	0.0152373
870.288	0.0150941
870.366	0.0152701
870.444	0.0153549
870.522	0.0152094
870.600	0.0152661
870.678	0.0153413
870.756	0.0152721
870.834	0.0152402
870.913	0.0153603
870.991	0.0153128
871.069	0.0151846
871.147	0.0153090
871.225	0.0152155
871.303	0.0153328
871.381	0.0152615
871.459	0.0151903
871.538	0.0151360
871.616	0.0151680
871.694	0.0152673
871.772	0.0151490
871.850	0.0151711
871.928	0.0150185
872.006	0.0148269
872.084	0.0148139
872.163	0.0149099
872.241	0.0149379
872.319	0.0148616
872.397	0.0148787
872.475	0.0148392
872.553	0.0147559
872.631	0.0149076
872.709	0.0148761
872.788	0.0149335
872.866	0.0148898
872.944	0.0148674
873.022	0.0149813
873.100	0.0148505
873.178	0.0149105
873.256	0.0149591
873.334	0.0150240
873.413	0.0151105
873.491	0.0151910
873.569	0.0150842
873.647	0.0150925
873.725	0.0149543
873.803	0.0151313
873.881	0.0150925
873.959	0.0150871
874.038	0.0152103
874.116	0.0152671
874.194	0.0152118
874.272	0.0150803
874.350	0.0151659
874.428	0.0151231
874.506	0.0149770
874.584	0.0150470
874.663	0.0151321
874.741	0.0151685
874.819	0.0151992
874.897	0.0151237
874.975	0.0151972
875.053	0.0149738
875.131	0.0150493
875.209	0.0150407
875.288	0.0151774
875.366	0.0150546
875.444	0.0150803
875.522	0.0150352
875.600	0.0150838
875.678	0.0150906
875.756	0.0149535
875.834	0.0150990
875.913	0.0150503
875.991	0.0149647
876.069	0.0151517
876.147	0.0151105
876.225	0.0151571
876.303	0.0151232
876.381	0.0151851
876.459	0.0152657
876.538	0.0152692
876.616	0.0152474
876.694	0.0154361
876.772	0.0154070
876.850	0.0153070
876.928	0.0152454
877.006	0.0153767
877.084	0.0154483
877.163	0.0153099
877.241	0.0153046
877.319	0.0151239
877.397	0.0152412
877.475	0.0151573
877.553	0.0152599
877.631	0.0151720
877.709	0.0151445
877.788	0.0150528
877.866	0.0152078
877.944	0.0152950
878.022	0.0151673
878.100	0.0151531
878.178	0.0151877
878.256	0.0151698
878.334	0.0151544
878.413	0.0151356
878.491	0.0152132
878.569	0.0150416
878.647	0.0150623
878.725	0.0149463
878.803	0.0149529
878.881	0.0150549
878.959	0.0149852
879.038	0.0149663
879.116	0.0149707
879.194	0.0150191
879.272	0.0149725
879.350	0.0149055
879.428	0.0149658
879.506	0.0150130
879.584	0.0149754
879.663	0.0150132
879.741	0.0149812
879.819	0.0150947
879.897	0.0150906
879.975	0.0149536
880.053	0.0149857
880.131	0.0149786
880.209	0.0149594
880.288	0.0152034
880.366	0.0149895
880.444	0.0150366
880.522	0.0150377
880.600	0.0150616
880.678	0.0150867
880.756	0.0150392
880.834	0.0150527
880.913	0.0150994
880.991	0.0150984
881.069	0.0150990
881.147	0.0151038
881.225	0.0151395
881.303	0.0152866
881.381	0.0151924
881.459	0.0152106
881.538	0.0149644
881.616	0.0149870
881.694	0.0151525
881.772	0.0151572
881.850	0.0150648
881.928	0.0151443
882.006	0.0151250
882.084	0.0151039
882.163	0.0152113
882.241	0.0153140
882.319	0.0151175
882.397	0.0150626
882.475	0.0151877
882.553	0.0152380
882.631	0.0149937
882.709	0.0151575
882.788	0.0152541
882.866	0.0151872
882.944	0.0151078
883.022	0.0151645
883.100	0.0149942
883.178	0.0150323
883.256	0.0151600
883.334	0.0150838
883.413	0.0151221
883.491	0.0150281
883.569	0.0150645
883.647	0.0151235
883.725	0.0150256
883.803	0.0150449
883.881	0.0150128
883.959	0.0149781
884.038	0.0149281
884.116	0.0151809
884.194	0.0150162
884.272	0.0149833
884.350	0.0149654
884.428	0.0151674
884.506	0.0151692
884.584	0.0150785
884.663	0.0153093
884.741	0.0152357
884.819	0.0151891
884.897	0.0150906
884.975	0.0152240
885.053	0.0153088
885.131	0.0152559
885.209	0.0153434
885.288	0.0155000
885.366	0.0153214
885.444	0.0154305
885.522	0.0154660
885.600	0.0154319
885.678	0.0156034
885.756	0.0154814
885.834	0.0156104
885.913	0.0156567
885.991	0.0154951
886.069	0.0155592
886.147	0.0155153
886.225	0.0155155
886.303	0.0156335
886.381	0.0155441
886.459	0.0155672
886.538	0.0154687
886.616	0.0154917
886.694	0.0154271
886.772	0.0153307
886.850	0.0152182
886.928	0.0153239
887.006	0.0153333
887.084	0.0152245
887.163	0.0150630
887.241	0.0151738
887.319	0.0150279
887.397	0.0149876
887.475	0.0150393
887.553	0.0149587
887.631	0.0148723
887.709	0.0150141
887.788	0.0149728
887.866	0.0149895
887.944	0.0148347
888.022	0.0147707
888.100	0.0147826
888.178	0.0148811
888.256	0.0149928
888.334	0.0149107
888.413	0.0149323
888.491	0.0149049
888.569	0.0150790
888.647	0.0150685
888.725	0.0151029
888.803	0.0152424
888.881	0.0150929
888.959	0.0153025
889.038	0.0152265
889.116	0.0152237
889.194	0.0153126
889.272	0.0153359
889.350	0.0153889
889.428	0.0153763
889.506	0.0153060
889.584	0.0152384
889.663	0.0155240
889.741	0.0154107
889.819	0.0154649
889.897	0.0154165
889.975	0.0154454
890.053	0.0153321
890.131	0.0153832
890.209	0.0152387
890.288	0.0152225
890.366	0.0152249
890.444	0.0151926
890.522	0.0152597
890.600	0.0152045
890.678	0.0150874
890.756	0.0152206
890.834	0.0150645
890.913	0.0150231
890.991	0.0150507
891.069	0.0152464
891.147	0.0150621
891.225	0.0149104
891.303	0.0149596
891.381	0.0150488
891.459	0.0149926
891.538	0.0150845
891.616	0.0149920
891.694	0.0149214
891.772	0.0150701
891.850	0.0151102
891.928	0.0149895
892.006	0.0150722
892.084	0.0150971
892.163	0.0149747
892.241	0.0150958
892.319	0.0151912
892.397	0.0149889
892.475	0.0149617
892.553	0.0151118
892.631	0.0150687
892.709	0.0150711
892.788	0.0148794
892.866	0.0151194
892.944	0.0150407
893.022	0.0149465
893.100	0.0149664
893.178	0.0150439
893.256	0.0149953
893.334	0.0149786
893.413	0.0151335
893.491	0.0150031
893.569	0.0149896
893.647	0.0148531
893.725	0.0150330
893.803	0.0150655
893.881	0.0151495
893.959	0.0150347
894.038	0.0149806
894.116	0.0151163
894.194	0.0150021
894.272	0.0148675
894.350	0.0151339
894.428	0.0151736
894.506	0.0151442
894.584	0.0151901
894.663	0.0149673
894.741	0.0151887
894.819	0.0152609
894.897	0.0152652
894.975	0.0151818
895.053	0.0151820
895.131	0.0152412
895.209	0.0152961
895.288	0.0153722
895.366	0.0153401
895.444	0.0151573
895.522	0.0153390
895.600	0.0152892
895.678	0.0151915
895.756	0.0152473
895.834	0.0152518
895.913	0.0152069
895.991	0.0152008
896.069	0.0152564
896.147	0.0152405
896.225	0.0149945
896.303	0.0150368
896.381	0.0151859
896.459	0.0150557
896.538	0.0151498
896.616	0.0151163
896.694	0.0147858
896.772	0.0148346
896.850	0.0149352
896.928	0.0148180
897.006	0.0149131
897.084	0.0148324
897.163	0.0148042
897.241	0.0148730
897.319	0.0147858
897.397	0.0148640
897.475	0.0148790
897.553	0.0148132
897.631	0.0149107
897.709	0.0149196
897.788	0.0148898
897.866	0.0150159
897.944	0.0150367
898.022	0.0149272
898.100	0.0149398
898.178	0.0150170
898.256	0.0149792
898.334	0.0150816
898.413	0.0152882
898.491	0.0151745
898.569	0.0150771
898.647	0.0152695
898.725	0.0152391
898.803	0.0151868
898.881	0.0151804
898.959	0.0151817
899.038	0.0152238
899.116	0.0152155
899.194	0.0154117
899.272	0.0153345
899.350	0.0151824
899.428	0.0152086
899.506	0.0152549
899.584	0.0152174
899.663	0.0151652
899.741	0.0151746
899.819	0.0150468
899.897	0.0150829
899.975	0.0153107
900.053	0.0151341
900.131	0.0150610
900.209	0.0150620
900.288	0.0150946
900.366	0.0149361
900.444	0.0148115
900.522	0.0149124
900.600	0.0149387
900.678	0.0148096
900.756	0.0148450
900.834	0.0149786
900.913	0.0149474
900.991	0.0149808
901.069	0.0149318
901.147	0.0149057
901.225	0.0149551
901.303	0.0149409
901.381	0.0150634
901.459	0.0149763
901.538	0.0150861
901.616	0.0151093
901.694	0.0151412
901.772	0.0152206
901.850	0.0151783
901.928	0.0152537
902.006	0.0152064
902.084	0.0152823
902.163	0.0152726
902.241	0.0153485
902.319	0.0152838
902.397	0.0152753
902.475	0.0153767
902.553	0.0152675
902.631	0.0153059
902.709	0.0153111
902.788	0.0153506
902.866	0.0153661
902.944	0.0152896
903.022	0.0153033
903.100	0.0153065
903.178	0.0153322
903.256	0.0153452
903.334	0.0150844
903.413	0.0153522
903.491	0.0153139
903.569	0.0151772
903.647	0.0150897
903.725	0.0152207
903.803	0.0150331
903.881	0.0150235
903.959	0.0151080
904.038	0.0150105
904.116	0.0150671
904.194	0.0149773
904.272	0.0150320
904.350	0.0149420
904.428	0.0149064
904.506	0.0148448
904.584	0.0150826
904.663	0.0148925
904.741	0.0148891
904.819	0.0149741
904.897	0.0149047
904.975	0.0149940
905.053	0.0150203
905.131	0.0150431
905.209	0.0150204
905.288	0.0150205
905.366	0.0151453
905.444	0.0150584
905.522	0.0150117
905.600	0.0152619
905.678	0.0151496
905.756	0.0151998
905.834	0.0152065
905.913	0.0154305
905.991	0.0153826
906.069	0.0153615
906.147	0.0153543
906.225	0.0153437
906.303	0.0152628
906.381	0.0155973
906.459	0.0153318
906.538	0.0153574
906.616	0.0154623
906.694	0.0154186
906.772	0.0154961
906.850	0.0152991
906.928	0.0153475
907.006	0.0155383
907.084	0.0155813
907.163	0.0153783
907.241	0.0153893
907.319	0.0153343
907.397	0.0154047
907.475	0.0153323
907.553	0.0154947
907.631	0.0153886
907.709	0.0153062
907.788	0.0153265
907.866	0.0153806
907.944	0.0152633
908.022	0.0154218
908.100	0.0152855
908.178	0.0153210
908.256	0.0152960
908.334	0.0152682
908.413	0.0151662
908.491	0.0153334
908.569	0.0153160
908.647	0.0151924
908.725	0.0151498
908.803	0.0152986
908.881	0.0152507
908.959	0.0151550
909.038	0.0151264
909.116	0.0152525
909.194	0.0152027
909.272	0.0152485
909.350	0.0151631
909.428	0.0151305
909.506	0.0151888
909.584	0.0153926
909.663	0.0153381
909.741	0.0152774
909.819	0.0153896
909.897	0.0154279
909.975	0.0154768
910.053	0.0153484
910.131	0.0154101
910.209	0.0155458
910.288	0.0154849
910.366	0.0153999
910.444	0.0154188
910.522	0.0154748
910.600	0.0152031
910.678	0.0152825
910.756	0.0152961
910.834	0.0153149
910.913	0.0152081
910.991	0.0151637
911.069	0.0152660
911.147	0.0152752
911.225	0.0152452
911.303	0.0151559
911.381	0.0151524
911.459	0.0151334
911.538	0.0152320
911.616	0.0152075
911.694	0.0151675
911.772	0.0151556
911.850	0.0150594
911.928	0.0150958
912.006	0.0150885
912.084	0.0150162
912.163	0.0150159
912.241	0.0150854
912.319	0.0149803
912.397	0.0149971
912.475	0.0149805
912.553	0.0149751
912.631	0.0150014
912.709	0.0148801
912.788	0.0149461
912.866	0.0150508
912.944	0.0149210
913.022	0.0149718
913.100	0.0149420
913.178	0.0149341
913.256	0.0148758
913.334	0.0148276
913.413	0.0147714
913.491	0.0148827
913.569	0.0148808
913.647	0.0149055
913.725	0.0150063
913.803	0.0150356
913.881	0.0149821
913.959	0.0149113
914.038	0.0150115
914.116	0.0148670
914.194	0.0150061
914.272	0.0150962
914.350	0.0150977
914.428	0.0150960
914.506	0.0149532
914.584	0.0150672
914.663	0.0151825
914.741	0.0152393
914.819	0.0150657
914.897	0.0151672
914.975	0.0151553
915.053	0.0152304
915.131	0.0153468
915.209	0.0152737
915.288	0.0151247
915.366	0.0151724
915.444	0.0151834
915.522	0.0151753
915.600	0.0152216
915.678	0.0152838
915.756	0.0153024
915.834	0.0152567
915.913	0.0152479
915.991	0.0152903
916.069	0.0152401
916.147	0.0151821
916.225	0.0150237
916.303	0.0150838
916.381	0.0151860
916.459	0.0152325
916.538	0.0151167
916.616	0.0150694
916.694	0.0151550
916.772	0.0149139
916.850	0.0151369
916.928	0.0149866
917.006	0.0149065
917.084	0.0150568
917.163	0.0150134
917.241	0.0150663
917.319	0.0151139
917.397	0.0148861
917.475	0.0150085
917.553	0.0149547
917.631	0.0151434
917.709	0.0151918
917.788	0.0150437
917.866	0.0150594
917.944	0.0151375
918.022	0.0150912
918.100	0.0150685
918.178	0.0148988
918.256	0.0150831
918.334	0.0150979
918.413	0.0150826
918.491	0.0151153
918.569	0.0150761
918.647	0.0149769
918.725	0.0149803
918.803	0.0151114
918.881	0.0149931
918.959	0.0151501
919.038	0.0151865
919.116	0.0151619
919.194	0.0150800
919.272	0.0151759
919.350	0.0151167
919.428	0.0151102
919.506	0.0151569
919.584	0.0152376
919.663	0.0152764
919.741	0.0152845
919.819	0.0152139
919.897	0.0151779
