05/20/2022	21:18:14	Ver.	4.1	UNKNOWN
Optical Delay	599.975067	Delta X		0.078125	Sweeps	1	Scan Rate	0/0
Coordinates	Axis 1	NaN	Axis 2	NaN	Axis 3	NaN	Axis 4	NaN	Axis 5	NaN	Axis 6	0.000000
TX Power	0.000000	RX Power	0.000000

599.975	0.0155982
600.053	0.0156557
600.131	0.0155435
600.209	0.0155956
600.288	0.0156308
600.366	0.0155708
600.444	0.0154381
600.522	0.0155106
600.600	0.0154230
600.678	0.0155138
600.756	0.0154279
600.834	0.0155168
600.913	0.0154210
600.991	0.0155821
601.069	0.0155572
601.147	0.0154661
601.225	0.0155643
601.303	0.0154694
601.381	0.0154889
601.459	0.0156459
601.538	0.0153473
601.616	0.0154516
601.694	0.0156280
601.772	0.0154226
601.850	0.0153497
601.928	0.0154340
602.006	0.0154344
602.084	0.0154677
602.163	0.0155350
602.241	0.0154382
602.319	0.0154575
602.397	0.0155166
602.475	0.0154359
602.553	0.0155014
602.631	0.0154383
602.709	0.0156369
602.788	0.0155914
602.866	0.0153770
602.944	0.0153799
603.022	0.0154314
603.100	0.0154037
603.178	0.0154542
603.256	0.0154323
603.334	0.0155524
603.413	0.0155257
603.491	0.0155229
603.569	0.0154346
603.647	0.0155727
603.725	0.0155017
603.803	0.0153809
603.881	0.0153987
603.959	0.0155195
604.038	0.0154700
604.116	0.0155897
604.194	0.0155396
604.272	0.0154163
604.350	0.0154060
604.428	0.0156406
604.506	0.0156107
604.584	0.0154669
604.663	0.0155747
604.741	0.0155023
604.819	0.0154170
604.897	0.0154610
604.975	0.0154882
605.053	0.0156093
605.131	0.0156062
605.209	0.0153717
605.288	0.0155121
605.366	0.0155090
605.444	0.0154941
605.522	0.0154379
605.600	0.0155183
605.678	0.0155234
605.756	0.0155540
605.834	0.0154899
605.913	0.0154828
605.991	0.0153806
606.069	0.0154659
606.147	0.0154067
606.225	0.0155081
606.303	0.0154508
606.381	0.0154920
606.459	0.0154200
606.538	0.0155235
606.616	0.0155075
606.694	0.0153654
606.772	0.0155120
606.850	0.0153596
606.928	0.0154392
607.006	0.0154173
607.084	0.0155569
607.163	0.0154006
607.241	0.0154949
607.319	0.0154661
607.397	0.0154739
607.475	0.0155474
607.553	0.0153590
607.631	0.0154562
607.709	0.0153806
607.788	0.0155302
607.866	0.0154678
607.944	0.0154425
608.022	0.0154211
608.100	0.0155279
608.178	0.0154444
608.256	0.0156003
608.334	0.0155522
608.413	0.0154090
608.491	0.0154377
608.569	0.0155442
608.647	0.0154406
608.725	0.0154327
608.803	0.0155032
608.881	0.0154054
608.959	0.0154621
609.038	0.0154681
609.116	0.0153480
609.194	0.0155432
609.272	0.0154140
609.350	0.0153851
609.428	0.0155201
609.506	0.0154241
609.584	0.0154902
609.663	0.0155134
609.741	0.0154229
609.819	0.0153502
609.897	0.0155054
609.975	0.0154193
610.053	0.0154067
610.131	0.0154314
610.209	0.0154321
610.288	0.0154583
610.366	0.0154691
610.444	0.0154757
610.522	0.0153725
610.600	0.0153595
610.678	0.0153433
610.756	0.0154367
610.834	0.0154557
610.913	0.0154201
610.991	0.0155135
611.069	0.0154363
611.147	0.0155571
611.225	0.0153713
611.303	0.0155038
611.381	0.0153489
611.459	0.0152970
611.538	0.0154082
611.616	0.0154289
611.694	0.0154210
611.772	0.0154247
611.850	0.0154872
611.928	0.0154465
612.006	0.0153518
612.084	0.0154578
612.163	0.0154927
612.241	0.0154961
612.319	0.0153631
612.397	0.0154013
612.475	0.0154462
612.553	0.0154370
612.631	0.0154577
612.709	0.0152934
612.788	0.0154985
612.866	0.0155187
612.944	0.0152635
613.022	0.0154462
613.100	0.0153212
613.178	0.0153896
613.256	0.0153773
613.334	0.0153944
613.413	0.0153891
613.491	0.0154527
613.569	0.0153900
613.647	0.0153902
613.725	0.0155105
613.803	0.0154325
613.881	0.0154163
613.959	0.0152246
614.038	0.0154189
614.116	0.0155327
614.194	0.0153979
614.272	0.0154120
614.350	0.0154954
614.428	0.0155405
614.506	0.0156173
614.584	0.0155247
614.663	0.0154661
614.741	0.0156037
614.819	0.0156072
614.897	0.0155765
614.975	0.0156033
615.053	0.0156509
615.131	0.0157362
615.209	0.0155694
615.288	0.0154777
615.366	0.0156490
615.444	0.0155069
615.522	0.0156269
615.600	0.0155515
615.678	0.0155346
615.756	0.0155815
615.834	0.0154295
615.913	0.0156002
615.991	0.0155905
616.069	0.0154066
616.147	0.0156461
616.225	0.0156310
616.303	0.0155782
616.381	0.0157682
616.459	0.0156699
616.538	0.0156460
616.616	0.0155872
616.694	0.0156615
616.772	0.0156377
616.850	0.0155843
616.928	0.0157577
617.006	0.0156320
617.084	0.0155817
617.163	0.0157866
617.241	0.0157098
617.319	0.0156255
617.397	0.0156234
617.475	0.0156789
617.553	0.0156261
617.631	0.0154729
617.709	0.0156384
617.788	0.0156471
617.866	0.0156391
617.944	0.0157162
618.022	0.0155996
618.100	0.0153751
618.178	0.0156406
618.256	0.0158000
618.334	0.0156748
618.413	0.0156599
618.491	0.0157292
618.569	0.0156066
618.647	0.0156111
618.725	0.0157361
618.803	0.0156676
618.881	0.0156349
618.959	0.0156575
619.038	0.0156359
619.116	0.0157129
619.194	0.0158574
619.272	0.0157540
619.350	0.0158298
619.428	0.0157404
619.506	0.0156520
619.584	0.0157745
619.663	0.0155753
619.741	0.0156590
619.819	0.0157172
619.897	0.0157258
619.975	0.0155916
620.053	0.0155991
620.131	0.0155345
620.209	0.0155981
620.288	0.0156509
620.366	0.0155302
620.444	0.0156529
620.522	0.0155186
620.600	0.0154915
620.678	0.0155665
620.756	0.0156236
620.834	0.0155334
620.913	0.0155289
620.991	0.0156004
621.069	0.0155650
621.147	0.0154937
621.225	0.0154718
621.303	0.0155264
621.381	0.0156129
621.459	0.0157240
621.538	0.0156970
621.616	0.0155306
621.694	0.0155192
621.772	0.0155405
621.850	0.0155929
621.928	0.0156024
622.006	0.0154044
622.084	0.0155924
622.163	0.0155582
622.241	0.0154946
622.319	0.0155241
622.397	0.0155912
622.475	0.0155488
622.553	0.0154834
622.631	0.0155031
622.709	0.0156089
622.788	0.0155112
622.866	0.0156321
622.944	0.0156778
623.022	0.0154857
623.100	0.0153909
623.178	0.0154370
623.256	0.0156089
623.334	0.0155969
623.413	0.0156033
623.491	0.0155717
623.569	0.0154928
623.647	0.0155138
623.725	0.0152950
623.803	0.0154715
623.881	0.0155851
623.959	0.0156467
624.038	0.0154678
624.116	0.0153658
624.194	0.0154047
624.272	0.0154750
624.350	0.0154937
624.428	0.0154584
624.506	0.0154485
624.584	0.0155157
624.663	0.0154849
624.741	0.0155914
624.819	0.0154412
624.897	0.0154295
624.975	0.0156104
625.053	0.0153780
625.131	0.0154124
625.209	0.0153735
625.288	0.0155237
625.366	0.0154385
625.444	0.0154011
625.522	0.0154337
625.600	0.0154730
625.678	0.0154539
625.756	0.0154619
625.834	0.0153287
625.913	0.0155511
625.991	0.0153667
626.069	0.0154649
626.147	0.0153568
626.225	0.0154089
626.303	0.0155418
626.381	0.0154554
626.459	0.0154845
626.538	0.0155618
626.616	0.0155513
626.694	0.0153320
626.772	0.0154706
626.850	0.0154340
626.928	0.0154548
627.006	0.0155978
627.084	0.0155444
627.163	0.0155814
627.241	0.0155674
627.319	0.0155374
627.397	0.0156157
627.475	0.0154680
627.553	0.0154304
627.631	0.0155180
627.709	0.0154303
627.788	0.0155130
627.866	0.0155051
627.944	0.0155392
628.022	0.0155750
628.100	0.0155024
628.178	0.0154646
628.256	0.0155233
628.334	0.0155000
628.413	0.0155926
628.491	0.0154746
628.569	0.0154639
628.647	0.0153960
628.725	0.0155098
628.803	0.0154432
628.881	0.0156161
628.959	0.0156280
629.038	0.0155193
629.116	0.0155737
629.194	0.0157043
629.272	0.0155534
629.350	0.0153132
629.428	0.0155783
629.506	0.0155838
629.584	0.0155500
629.663	0.0155295
629.741	0.0154618
629.819	0.0155951
629.897	0.0154979
629.975	0.0154202
630.053	0.0153509
630.131	0.0154263
630.209	0.0155180
630.288	0.0154801
630.366	0.0153764
630.444	0.0154977
630.522	0.0155106
630.600	0.0153618
630.678	0.0152353
630.756	0.0153721
630.834	0.0153399
630.913	0.0153859
630.991	0.0153375
631.069	0.0153046
631.147	0.0153757
631.225	0.0153606
631.303	0.0153061
631.381	0.0153464
631.459	0.0154086
631.538	0.0152625
631.616	0.0153789
631.694	0.0153866
631.772	0.0154520
631.850	0.0153497
631.928	0.0154903
632.006	0.0154765
632.084	0.0153419
632.163	0.0153733
632.241	0.0154388
632.319	0.0154323
632.397	0.0154670
632.475	0.0153296
632.553	0.0154445
632.631	0.0154784
632.709	0.0154221
632.788	0.0153928
632.866	0.0155347
632.944	0.0154884
633.022	0.0153517
633.100	0.0154003
633.178	0.0155018
633.256	0.0154389
633.334	0.0154208
633.413	0.0153158
633.491	0.0154243
633.569	0.0153970
633.647	0.0155232
633.725	0.0155190
633.803	0.0154165
633.881	0.0155527
633.959	0.0155200
634.038	0.0156530
634.116	0.0155850
634.194	0.0155523
634.272	0.0155427
634.350	0.0154837
634.428	0.0155231
634.506	0.0155565
634.584	0.0156128
634.663	0.0156060
634.741	0.0154380
634.819	0.0155526
634.897	0.0154786
634.975	0.0154425
635.053	0.0154409
635.131	0.0154496
635.209	0.0154515
635.288	0.0155343
635.366	0.0154683
635.444	0.0154309
635.522	0.0154405
635.600	0.0153940
635.678	0.0153934
635.756	0.0154360
635.834	0.0153133
635.913	0.0154391
635.991	0.0154395
636.069	0.0154671
636.147	0.0154539
636.225	0.0154505
636.303	0.0155824
636.381	0.0154444
636.459	0.0155491
636.538	0.0154382
636.616	0.0155766
636.694	0.0156689
636.772	0.0155503
636.850	0.0154150
636.928	0.0154034
637.006	0.0155448
637.084	0.0153941
637.163	0.0153949
637.241	0.0154451
637.319	0.0154948
637.397	0.0155029
637.475	0.0155006
637.553	0.0153783
637.631	0.0155004
637.709	0.0156757
637.788	0.0155386
637.866	0.0156148
637.944	0.0157690
638.022	0.0156285
638.100	0.0155701
638.178	0.0156509
638.256	0.0157442
638.334	0.0158345
638.413	0.0158653
638.491	0.0157253
638.569	0.0157204
638.647	0.0157998
638.725	0.0159381
638.803	0.0159415
638.881	0.0157404
638.959	0.0158961
639.038	0.0157598
639.116	0.0157946
639.194	0.0156866
639.272	0.0157645
639.350	0.0159077
639.428	0.0156433
639.506	0.0157946
639.584	0.0157803
639.663	0.0158885
639.741	0.0159112
639.819	0.0158006
639.897	0.0157970
639.975	0.0158138
640.053	0.0158105
640.131	0.0159017
640.209	0.0159730
640.288	0.0157862
640.366	0.0158660
640.444	0.0157999
640.522	0.0159268
640.600	0.0159908
640.678	0.0159751
640.756	0.0158813
640.834	0.0160015
640.913	0.0160316
640.991	0.0159775
641.069	0.0159345
641.147	0.0159174
641.225	0.0157877
641.303	0.0158184
641.381	0.0157450
641.459	0.0158514
641.538	0.0156207
641.616	0.0156226
641.694	0.0157809
641.772	0.0157460
641.850	0.0156303
641.928	0.0155604
642.006	0.0156190
642.084	0.0155215
642.163	0.0154595
642.241	0.0153683
642.319	0.0154575
642.397	0.0154570
642.475	0.0154086
642.553	0.0154105
642.631	0.0155006
642.709	0.0154430
642.788	0.0154360
642.866	0.0153542
642.944	0.0153036
643.022	0.0153292
643.100	0.0153299
643.178	0.0153553
643.256	0.0152766
643.334	0.0154169
643.413	0.0152171
643.491	0.0154431
643.569	0.0153159
643.647	0.0154877
643.725	0.0152799
643.803	0.0153365
643.881	0.0153322
643.959	0.0154112
644.038	0.0153762
644.116	0.0153677
644.194	0.0154607
644.272	0.0153506
644.350	0.0153355
644.428	0.0152354
644.506	0.0153034
644.584	0.0153371
644.663	0.0153471
644.741	0.0153468
644.819	0.0153635
644.897	0.0152036
644.975	0.0151951
645.053	0.0152243
645.131	0.0152978
645.209	0.0153004
645.288	0.0152830
645.366	0.0154089
645.444	0.0153554
645.522	0.0152213
645.600	0.0153861
645.678	0.0153126
645.756	0.0152188
645.834	0.0151925
645.913	0.0153250
645.991	0.0154920
646.069	0.0155280
646.147	0.0153567
646.225	0.0154955
646.303	0.0153762
646.381	0.0154985
646.459	0.0155122
646.538	0.0153729
646.616	0.0154682
646.694	0.0153524
646.772	0.0153211
646.850	0.0154351
646.928	0.0154843
647.006	0.0154136
647.084	0.0153629
647.163	0.0154773
647.241	0.0153937
647.319	0.0152868
647.397	0.0153972
647.475	0.0154826
647.553	0.0153844
647.631	0.0152798
647.709	0.0153355
647.788	0.0154118
647.866	0.0153509
647.944	0.0152265
648.022	0.0154218
648.100	0.0154107
648.178	0.0154321
648.256	0.0155643
648.334	0.0153020
648.413	0.0153943
648.491	0.0155601
648.569	0.0154352
648.647	0.0154651
648.725	0.0156309
648.803	0.0154736
648.881	0.0154109
648.959	0.0154498
649.038	0.0155107
649.116	0.0154669
649.194	0.0154903
649.272	0.0154554
649.350	0.0155890
649.428	0.0153343
649.506	0.0156084
649.584	0.0153668
649.663	0.0154218
649.741	0.0156357
649.819	0.0154665
649.897	0.0153827
649.975	0.0155055
650.053	0.0153636
650.131	0.0154729
650.209	0.0153921
650.288	0.0156123
650.366	0.0154618
650.444	0.0153740
650.522	0.0155449
650.600	0.0156556
650.678	0.0154301
650.756	0.0155476
650.834	0.0154957
650.913	0.0157085
650.991	0.0156335
651.069	0.0154750
651.147	0.0154865
651.225	0.0157130
651.303	0.0155425
651.381	0.0155001
651.459	0.0154299
651.538	0.0156244
651.616	0.0157133
651.694	0.0156078
651.772	0.0156380
651.850	0.0155287
651.928	0.0154717
652.006	0.0155681
652.084	0.0154645
652.163	0.0154120
652.241	0.0155918
652.319	0.0155097
652.397	0.0154774
652.475	0.0155232
652.553	0.0153640
652.631	0.0154159
652.709	0.0153969
652.788	0.0154674
652.866	0.0155055
652.944	0.0154258
653.022	0.0153608
653.100	0.0155141
653.178	0.0154881
653.256	0.0155239
653.334	0.0155117
653.413	0.0154607
653.491	0.0154601
653.569	0.0154031
653.647	0.0154749
653.725	0.0155279
653.803	0.0154850
653.881	0.0155390
653.959	0.0156992
654.038	0.0155116
654.116	0.0152921
654.194	0.0154311
654.272	0.0154660
654.350	0.0154863
654.428	0.0154694
654.506	0.0153817
654.584	0.0153253
654.663	0.0154575
654.741	0.0154395
654.819	0.0153961
654.897	0.0154372
654.975	0.0155602
655.053	0.0154200
655.131	0.0153299
655.209	0.0154720
655.288	0.0154004
655.366	0.0152634
655.444	0.0153735
655.522	0.0153183
655.600	0.0154938
655.678	0.0155346
655.756	0.0153706
655.834	0.0154674
655.913	0.0155504
655.991	0.0153193
656.069	0.0154385
656.147	0.0153596
656.225	0.0154964
656.303	0.0154828
656.381	0.0154060
656.459	0.0153665
656.538	0.0154392
656.616	0.0154610
656.694	0.0153903
656.772	0.0154984
656.850	0.0155315
656.928	0.0156093
657.006	0.0154004
657.084	0.0153694
657.163	0.0155377
657.241	0.0154193
657.319	0.0154857
657.397	0.0155558
657.475	0.0154353
657.553	0.0154121
657.631	0.0155977
657.709	0.0155058
657.788	0.0156494
657.866	0.0156088
657.944	0.0155154
658.022	0.0155125
658.100	0.0156890
658.178	0.0156808
658.256	0.0156134
658.334	0.0156615
658.413	0.0156449
658.491	0.0156683
658.569	0.0156593
658.647	0.0156109
658.725	0.0156959
658.803	0.0156497
658.881	0.0155913
658.959	0.0154424
659.038	0.0155548
659.116	0.0156267
659.194	0.0157071
659.272	0.0156573
659.350	0.0155443
659.428	0.0156133
659.506	0.0155861
659.584	0.0156260
659.663	0.0154401
659.741	0.0156284
659.819	0.0156232
659.897	0.0155343
659.975	0.0156627
660.053	0.0155787
660.131	0.0155283
660.209	0.0156004
660.288	0.0158118
660.366	0.0156253
660.444	0.0155958
660.522	0.0156322
660.600	0.0157001
660.678	0.0156643
660.756	0.0157285
660.834	0.0156073
660.913	0.0157642
660.991	0.0158342
661.069	0.0157192
661.147	0.0157172
661.225	0.0157469
661.303	0.0157340
661.381	0.0156778
661.459	0.0157917
661.538	0.0158585
661.616	0.0157317
661.694	0.0156773
661.772	0.0157645
661.850	0.0157551
661.928	0.0157268
662.006	0.0158228
662.084	0.0157096
662.163	0.0157316
662.241	0.0156942
662.319	0.0158392
662.397	0.0157805
662.475	0.0157747
662.553	0.0158195
662.631	0.0157175
662.709	0.0158095
662.788	0.0157350
662.866	0.0157510
662.944	0.0157285
663.022	0.0156841
663.100	0.0155873
663.178	0.0156413
663.256	0.0155324
663.334	0.0155985
663.413	0.0154868
663.491	0.0153165
663.569	0.0153818
663.647	0.0154919
663.725	0.0154610
663.803	0.0154028
663.881	0.0154430
663.959	0.0153806
664.038	0.0154062
664.116	0.0155038
664.194	0.0153931
664.272	0.0154006
664.350	0.0155066
664.428	0.0154834
664.506	0.0155081
664.584	0.0156083
664.663	0.0155120
664.741	0.0154335
664.819	0.0155611
664.897	0.0154770
664.975	0.0153664
665.053	0.0152645
665.131	0.0153758
665.209	0.0155534
665.288	0.0154425
665.366	0.0155241
665.444	0.0155067
665.522	0.0156362
665.600	0.0156103
665.678	0.0155595
665.756	0.0156248
665.834	0.0155851
665.913	0.0156673
665.991	0.0156677
666.069	0.0156794
666.147	0.0156750
666.225	0.0155414
666.303	0.0153680
666.381	0.0155156
666.459	0.0155103
666.538	0.0153435
666.616	0.0153689
666.694	0.0151770
666.772	0.0152842
666.850	0.0152058
666.928	0.0152394
667.006	0.0151090
667.084	0.0151176
667.163	0.0151793
667.241	0.0151851
667.319	0.0153459
667.397	0.0154447
667.475	0.0154276
667.553	0.0153801
667.631	0.0154945
667.709	0.0156409
667.788	0.0156584
667.866	0.0156728
667.944	0.0159117
668.022	0.0158834
668.100	0.0158283
668.178	0.0158620
668.256	0.0157674
668.334	0.0159824
668.413	0.0159576
668.491	0.0158817
668.569	0.0158628
668.647	0.0158553
668.725	0.0158526
668.803	0.0158179
668.881	0.0159483
668.959	0.0159471
669.038	0.0158611
669.116	0.0158590
669.194	0.0158784
669.272	0.0158945
669.350	0.0157237
669.428	0.0155924
669.506	0.0157848
669.584	0.0157397
669.663	0.0155203
669.741	0.0152802
669.819	0.0154494
669.897	0.0154386
669.975	0.0151440
670.053	0.0152802
670.131	0.0152092
670.209	0.0150825
670.288	0.0149089
670.366	0.0148254
670.444	0.0146968
670.522	0.0148273
670.600	0.0147974
670.678	0.0148574
670.756	0.0148242
670.834	0.0147688
670.913	0.0149610
670.991	0.0148373
671.069	0.0150221
671.147	0.0149734
671.225	0.0151357
671.303	0.0149998
671.381	0.0152757
671.459	0.0154881
671.538	0.0155098
671.616	0.0157103
671.694	0.0157109
671.772	0.0159370
671.850	0.0160385
671.928	0.0160892
672.006	0.0164224
672.084	0.0162347
672.163	0.0164040
672.241	0.0165475
672.319	0.0166792
672.397	0.0165462
672.475	0.0166735
672.553	0.0168019
672.631	0.0169585
672.709	0.0168004
672.788	0.0167195
672.866	0.0167947
672.944	0.0165459
673.022	0.0164955
673.100	0.0163435
673.178	0.0162888
673.256	0.0160956
673.334	0.0158392
673.413	0.0156757
673.491	0.0154208
673.569	0.0152155
673.647	0.0150664
673.725	0.0149104
673.803	0.0145549
673.881	0.0145812
673.959	0.0142139
674.038	0.0140577
674.116	0.0139285
674.194	0.0138481
674.272	0.0136387
674.350	0.0136884
674.428	0.0136835
674.506	0.0136362
674.584	0.0137994
674.663	0.0140417
674.741	0.0140525
674.819	0.0140883
674.897	0.0141457
674.975	0.0144615
675.053	0.0146595
675.131	0.0147330
675.209	0.0149313
675.288	0.0151691
675.366	0.0153643
675.444	0.0157244
675.522	0.0159724
675.600	0.0162108
675.678	0.0165991
675.756	0.0166784
675.834	0.0169282
675.913	0.0171181
675.991	0.0172596
676.069	0.0174448
676.147	0.0176026
676.225	0.0177332
676.303	0.0176685
676.381	0.0177842
676.459	0.0176894
676.538	0.0175648
676.616	0.0173907
676.694	0.0173628
676.772	0.0170006
676.850	0.0169429
676.928	0.0166132
677.006	0.0164682
677.084	0.0162923
677.163	0.0160306
677.241	0.0156786
677.319	0.0153938
677.397	0.0151532
677.475	0.0148222
677.553	0.0145359
677.631	0.0145293
677.709	0.0141878
677.788	0.0138970
677.866	0.0137482
677.944	0.0136395
678.022	0.0133511
678.100	0.0132442
678.178	0.0132505
678.256	0.0132325
678.334	0.0132131
678.413	0.0132797
678.491	0.0133657
678.569	0.0133605
678.647	0.0134316
678.725	0.0135598
678.803	0.0138262
678.881	0.0141506
678.959	0.0143016
679.038	0.0146108
679.116	0.0148953
679.194	0.0151391
679.272	0.0154005
679.350	0.0157643
679.428	0.0161105
679.506	0.0163214
679.584	0.0165920
679.663	0.0168264
679.741	0.0170661
679.819	0.0171674
679.897	0.0171709
679.975	0.0171409
680.053	0.0172929
680.131	0.0174413
680.209	0.0174585
680.288	0.0173164
680.366	0.0171313
680.444	0.0169585
680.522	0.0170777
680.600	0.0166952
680.678	0.0166140
680.756	0.0165176
680.834	0.0162325
680.913	0.0160049
680.991	0.0159525
681.069	0.0157028
681.147	0.0155917
681.225	0.0154708
681.303	0.0152474
681.381	0.0149905
681.459	0.0149299
681.538	0.0149467
681.616	0.0147594
681.694	0.0147800
681.772	0.0148186
681.850	0.0148167
681.928	0.0148633
682.006	0.0147739
682.084	0.0149291
682.163	0.0149815
682.241	0.0150838
682.319	0.0150699
682.397	0.0151583
682.475	0.0152896
682.553	0.0151961
682.631	0.0154121
682.709	0.0153732
682.788	0.0154847
682.866	0.0155663
682.944	0.0155099
683.022	0.0157149
683.100	0.0157151
683.178	0.0155841
683.256	0.0157253
683.334	0.0157296
683.413	0.0157819
683.491	0.0155340
683.569	0.0154201
683.647	0.0154396
683.725	0.0153117
683.803	0.0153106
683.881	0.0152598
683.959	0.0148934
684.038	0.0148056
684.116	0.0149629
684.194	0.0148701
684.272	0.0147475
684.350	0.0147232
684.428	0.0148383
684.506	0.0148232
684.584	0.0149052
684.663	0.0150371
684.741	0.0150065
684.819	0.0152924
684.897	0.0152966
684.975	0.0153049
685.053	0.0154416
685.131	0.0156121
685.209	0.0157005
685.288	0.0156869
685.366	0.0158169
685.444	0.0156867
685.522	0.0158324
685.600	0.0158047
685.678	0.0160097
685.756	0.0161192
685.834	0.0160217
685.913	0.0161743
685.991	0.0161625
686.069	0.0163272
686.147	0.0162635
686.225	0.0162009
686.303	0.0163544
686.381	0.0164188
686.459	0.0163719
686.538	0.0161944
686.616	0.0162761
686.694	0.0160386
686.772	0.0160327
686.850	0.0160263
686.928	0.0157412
687.006	0.0156004
687.084	0.0156741
687.163	0.0155955
687.241	0.0155805
687.319	0.0155531
687.397	0.0156154
687.475	0.0154359
687.553	0.0155118
687.631	0.0153758
687.709	0.0153973
687.788	0.0153590
687.866	0.0153049
687.944	0.0152760
688.022	0.0151836
688.100	0.0150004
688.178	0.0150037
688.256	0.0150680
688.334	0.0149788
688.413	0.0146636
688.491	0.0147263
688.569	0.0149012
688.647	0.0148457
688.725	0.0146429
688.803	0.0146925
688.881	0.0146262
688.959	0.0147154
689.038	0.0147239
689.116	0.0147330
689.194	0.0145320
689.272	0.0146200
689.350	0.0145104
689.428	0.0145026
689.506	0.0146395
689.584	0.0145528
689.663	0.0143680
689.741	0.0145563
689.819	0.0146454
689.897	0.0147025
689.975	0.0147775
690.053	0.0149631
690.131	0.0151788
690.209	0.0153092
690.288	0.0154547
690.366	0.0156084
690.444	0.0157290
690.522	0.0161971
690.600	0.0163140
690.678	0.0165534
690.756	0.0165205
690.834	0.0168030
690.913	0.0168595
690.991	0.0171482
691.069	0.0173016
691.147	0.0173965
691.225	0.0174833
691.303	0.0174561
691.381	0.0176079
691.459	0.0174704
691.538	0.0175177
691.616	0.0174140
691.694	0.0172339
691.772	0.0170713
691.850	0.0171090
691.928	0.0168642
692.006	0.0165752
692.084	0.0163359
692.163	0.0161085
692.241	0.0157341
692.319	0.0154113
692.397	0.0151559
692.475	0.0146627
692.553	0.0144827
692.631	0.0141645
692.709	0.0139304
692.788	0.0138539
692.866	0.0137318
692.944	0.0134895
693.022	0.0135104
693.100	0.0135377
693.178	0.0135223
693.256	0.0134694
693.334	0.0137050
693.413	0.0137828
693.491	0.0140903
693.569	0.0141821
693.647	0.0145799
693.725	0.0147229
693.803	0.0149130
693.881	0.0152599
693.959	0.0155846
694.038	0.0158973
694.116	0.0162151
694.194	0.0165627
694.272	0.0168368
694.350	0.0171127
694.428	0.0171893
694.506	0.0175013
694.584	0.0175914
694.663	0.0179174
694.741	0.0179865
694.819	0.0179511
694.897	0.0179558
694.975	0.0179791
695.053	0.0178374
695.131	0.0177953
695.209	0.0175488
695.288	0.0173325
695.366	0.0171877
695.444	0.0168291
695.522	0.0166705
695.600	0.0162914
695.678	0.0159129
695.756	0.0156330
695.834	0.0152576
695.913	0.0150041
695.991	0.0146089
696.069	0.0143192
696.147	0.0138090
696.225	0.0136562
696.303	0.0135055
696.381	0.0133433
696.459	0.0133972
696.538	0.0132694
696.616	0.0132246
696.694	0.0133757
696.772	0.0134877
696.850	0.0134597
696.928	0.0136792
697.006	0.0140512
697.084	0.0141054
697.163	0.0144249
697.241	0.0147044
697.319	0.0150297
697.397	0.0154494
697.475	0.0157250
697.553	0.0160739
697.631	0.0163376
697.709	0.0165447
697.788	0.0168456
697.866	0.0170949
697.944	0.0172295
698.022	0.0173215
698.100	0.0173287
698.178	0.0174985
698.256	0.0175420
698.334	0.0173310
698.413	0.0172031
698.491	0.0171194
698.569	0.0170352
698.647	0.0168121
698.725	0.0166002
698.803	0.0165463
698.881	0.0164106
698.959	0.0162950
699.038	0.0160733
699.116	0.0160139
699.194	0.0157059
699.272	0.0156045
699.350	0.0153097
699.428	0.0152546
699.506	0.0150457
699.584	0.0146377
699.663	0.0145368
699.741	0.0144592
699.819	0.0141600
699.897	0.0141832
699.975	0.0141641
700.053	0.0140186
700.131	0.0139452
700.209	0.0138908
700.288	0.0141399
700.366	0.0140605
700.444	0.0142865
700.522	0.0142717
700.600	0.0143668
700.678	0.0144647
700.756	0.0144341
700.834	0.0147631
700.913	0.0146880
700.991	0.0148824
701.069	0.0148593
701.147	0.0149681
701.225	0.0149022
701.303	0.0151826
701.381	0.0154382
701.459	0.0157111
701.538	0.0157112
701.616	0.0157980
701.694	0.0159799
701.772	0.0160483
701.850	0.0162332
701.928	0.0164420
702.006	0.0163567
702.084	0.0165496
702.163	0.0165540
702.241	0.0165890
702.319	0.0165637
702.397	0.0165586
702.475	0.0166893
702.553	0.0167121
702.631	0.0167660
702.709	0.0167109
702.788	0.0168341
702.866	0.0168641
702.944	0.0169434
703.022	0.0167909
703.100	0.0167576
703.178	0.0166238
703.256	0.0164812
703.334	0.0163524
703.413	0.0162115
703.491	0.0160950
703.569	0.0159687
703.647	0.0155779
703.725	0.0153435
703.803	0.0153390
703.881	0.0151601
703.959	0.0149344
704.038	0.0149541
704.116	0.0149438
704.194	0.0148349
704.272	0.0147950
704.350	0.0148154
704.428	0.0146852
704.506	0.0147249
704.584	0.0146920
704.663	0.0146673
704.741	0.0146638
704.819	0.0145699
704.897	0.0145194
704.975	0.0144658
705.053	0.0145969
705.131	0.0146060
705.209	0.0144910
705.288	0.0145459
705.366	0.0145670
705.444	0.0146280
705.522	0.0145803
705.600	0.0147260
705.678	0.0147885
705.756	0.0147530
705.834	0.0146111
705.913	0.0147123
705.991	0.0144619
706.069	0.0144830
706.147	0.0145059
706.225	0.0144550
706.303	0.0144754
706.381	0.0145136
706.459	0.0144662
706.538	0.0143105
706.616	0.0145719
706.694	0.0147843
706.772	0.0148375
706.850	0.0150137
706.928	0.0152583
707.006	0.0155186
707.084	0.0156734
707.163	0.0159842
707.241	0.0162843
707.319	0.0165605
707.397	0.0167635
707.475	0.0171720
707.553	0.0174038
707.631	0.0175142
707.709	0.0179524
707.788	0.0181872
707.866	0.0181956
707.944	0.0182508
708.022	0.0185067
708.100	0.0185215
708.178	0.0185291
708.256	0.0184496
708.334	0.0183878
708.413	0.0182686
708.491	0.0181541
708.569	0.0178831
708.647	0.0175991
708.725	0.0172289
708.803	0.0168941
708.881	0.0165048
708.959	0.0160220
709.038	0.0157519
709.116	0.0151793
709.194	0.0149167
709.272	0.0145263
709.350	0.0140252
709.428	0.0135428
709.506	0.0131997
709.584	0.0129301
709.663	0.0125513
709.741	0.0124469
709.819	0.0122120
709.897	0.0120111
709.975	0.0117967
710.053	0.0118696
710.131	0.0118547
710.209	0.0118760
710.288	0.0119699
710.366	0.0120677
710.444	0.0125166
710.522	0.0126962
710.600	0.0130044
710.678	0.0131739
710.756	0.0136514
710.834	0.0139536
710.913	0.0143023
710.991	0.0145782
711.069	0.0148589
711.147	0.0152588
711.225	0.0156697
711.303	0.0157694
711.381	0.0162458
711.459	0.0166053
711.538	0.0169650
711.616	0.0171473
711.694	0.0173085
711.772	0.0173550
711.850	0.0174507
711.928	0.0175498
712.006	0.0175249
712.084	0.0174323
712.163	0.0172516
712.241	0.0171791
712.319	0.0169610
712.397	0.0168814
712.475	0.0167877
712.553	0.0165370
712.631	0.0163361
712.709	0.0162785
712.788	0.0160413
712.866	0.0158683
712.944	0.0156977
713.022	0.0155713
713.100	0.0154073
713.178	0.0154391
713.256	0.0150447
713.334	0.0149561
713.413	0.0147935
713.491	0.0146456
713.569	0.0145299
713.647	0.0145666
713.725	0.0143685
713.803	0.0143945
713.881	0.0145789
713.959	0.0144824
714.038	0.0147144
714.116	0.0146986
714.194	0.0147800
714.272	0.0150038
714.350	0.0150672
714.428	0.0152672
714.506	0.0153170
714.584	0.0154330
714.663	0.0156330
714.741	0.0155957
714.819	0.0158020
714.897	0.0159207
714.975	0.0159862
715.053	0.0161571
715.131	0.0164588
715.209	0.0166673
715.288	0.0167264
715.366	0.0169489
715.444	0.0169303
715.522	0.0170578
715.600	0.0171803
715.678	0.0172646
715.756	0.0172412
715.834	0.0172827
715.913	0.0171752
715.991	0.0171056
716.069	0.0169479
716.147	0.0168625
716.225	0.0166854
716.303	0.0164645
716.381	0.0163382
716.459	0.0161114
716.538	0.0159090
716.616	0.0157867
716.694	0.0155470
716.772	0.0152225
716.850	0.0149833
716.928	0.0147856
717.006	0.0147910
717.084	0.0143903
717.163	0.0142531
717.241	0.0140670
717.319	0.0141402
717.397	0.0140807
717.475	0.0140922
717.553	0.0141231
717.631	0.0142263
717.709	0.0141998
717.788	0.0144319
717.866	0.0146255
717.944	0.0145984
718.022	0.0147794
718.100	0.0149036
718.178	0.0151363
718.256	0.0152224
718.334	0.0154470
718.413	0.0157494
718.491	0.0158791
718.569	0.0160077
718.647	0.0161717
718.725	0.0164545
718.803	0.0165197
718.881	0.0164267
718.959	0.0166718
719.038	0.0166779
719.116	0.0164786
719.194	0.0166750
719.272	0.0164803
719.350	0.0165235
719.428	0.0164269
719.506	0.0164627
719.584	0.0162136
719.663	0.0162167
719.741	0.0161991
719.819	0.0159750
719.897	0.0157316
719.975	0.0157732
720.053	0.0156155
720.131	0.0155109
720.209	0.0153220
720.288	0.0153770
720.366	0.0152211
720.444	0.0150439
720.522	0.0148652
720.600	0.0149706
720.678	0.0148795
720.756	0.0148373
720.834	0.0147227
720.913	0.0148006
720.991	0.0150000
721.069	0.0149854
721.147	0.0149091
721.225	0.0151037
721.303	0.0150581
721.381	0.0153829
721.459	0.0154166
721.538	0.0152179
721.616	0.0153339
721.694	0.0154848
721.772	0.0154884
721.850	0.0157453
721.928	0.0158161
722.006	0.0158624
722.084	0.0159557
722.163	0.0161034
722.241	0.0161864
722.319	0.0164005
722.397	0.0165004
722.475	0.0164903
722.553	0.0164080
722.631	0.0166450
722.709	0.0165446
722.788	0.0167191
722.866	0.0166748
722.944	0.0166190
723.022	0.0166210
723.100	0.0166303
723.178	0.0164736
723.256	0.0164981
723.334	0.0163418
723.413	0.0164634
723.491	0.0163328
723.569	0.0162196
723.647	0.0161266
723.725	0.0160480
723.803	0.0158630
723.881	0.0158395
723.959	0.0159367
724.038	0.0156462
724.116	0.0155007
724.194	0.0153587
724.272	0.0152004
724.350	0.0150761
724.428	0.0149757
724.506	0.0149257
724.584	0.0147309
724.663	0.0145009
724.741	0.0144195
724.819	0.0144856
724.897	0.0143530
724.975	0.0142314
725.053	0.0140396
725.131	0.0140099
725.209	0.0141439
725.288	0.0139767
725.366	0.0138483
725.444	0.0138887
725.522	0.0137244
725.600	0.0138424
725.678	0.0139424
725.756	0.0138495
725.834	0.0138193
725.913	0.0137794
725.991	0.0138029
726.069	0.0139389
726.147	0.0140626
726.225	0.0140319
726.303	0.0143815
726.381	0.0145197
726.459	0.0146597
726.538	0.0148824
726.616	0.0151409
726.694	0.0153184
726.772	0.0156006
726.850	0.0156200
726.928	0.0160675
727.006	0.0161603
727.084	0.0162437
727.163	0.0165964
727.241	0.0165811
727.319	0.0167800
727.397	0.0168858
727.475	0.0169474
727.553	0.0172816
727.631	0.0173397
727.709	0.0175514
727.788	0.0176719
727.866	0.0176171
727.944	0.0176821
728.022	0.0175494
728.100	0.0177301
728.178	0.0177154
728.256	0.0175834
728.334	0.0173512
728.413	0.0170882
728.491	0.0169926
728.569	0.0168449
728.647	0.0166586
728.725	0.0164805
728.803	0.0161983
728.881	0.0159209
728.959	0.0157177
729.038	0.0155695
729.116	0.0154012
729.194	0.0153461
729.272	0.0153136
729.350	0.0151231
729.428	0.0150497
729.506	0.0150570
729.584	0.0148750
729.663	0.0147767
729.741	0.0148420
729.819	0.0146836
729.897	0.0146796
729.975	0.0145255
730.053	0.0143135
730.131	0.0142085
730.209	0.0141248
730.288	0.0140558
730.366	0.0138880
730.444	0.0136544
730.522	0.0136205
730.600	0.0137500
730.678	0.0137405
730.756	0.0136956
730.834	0.0137957
730.913	0.0138161
730.991	0.0137699
731.069	0.0137428
731.147	0.0139771
731.225	0.0139693
731.303	0.0140423
731.381	0.0142056
731.459	0.0144563
731.538	0.0144213
731.616	0.0145646
731.694	0.0150025
731.772	0.0150108
731.850	0.0150821
731.928	0.0152883
732.006	0.0153065
732.084	0.0155071
732.163	0.0155975
732.241	0.0158430
732.319	0.0158193
732.397	0.0161065
732.475	0.0161199
732.553	0.0161800
732.631	0.0164314
732.709	0.0164490
732.788	0.0163614
732.866	0.0165730
732.944	0.0167101
733.022	0.0166101
733.100	0.0164246
733.178	0.0166084
733.256	0.0165350
733.334	0.0164162
733.413	0.0163435
733.491	0.0160685
733.569	0.0160229
733.647	0.0160046
733.725	0.0158201
733.803	0.0158791
733.881	0.0156482
733.959	0.0156367
734.038	0.0153857
734.116	0.0153880
734.194	0.0154102
734.272	0.0152947
734.350	0.0153648
734.428	0.0152744
734.506	0.0154147
734.584	0.0154328
734.663	0.0154578
734.741	0.0153760
734.819	0.0154755
734.897	0.0154441
734.975	0.0153356
735.053	0.0154718
735.131	0.0153267
735.209	0.0152880
735.288	0.0152648
735.366	0.0154343
735.444	0.0152866
735.522	0.0151376
735.600	0.0151685
735.678	0.0152638
735.756	0.0152776
735.834	0.0152583
735.913	0.0153331
735.991	0.0152714
736.069	0.0154159
736.147	0.0154492
736.225	0.0155054
736.303	0.0153433
736.381	0.0153982
736.459	0.0154668
736.538	0.0153020
736.616	0.0153800
736.694	0.0155882
736.772	0.0157380
736.850	0.0155807
736.928	0.0157580
737.006	0.0157453
737.084	0.0158759
737.163	0.0160108
737.241	0.0161475
737.319	0.0164045
737.397	0.0163426
737.475	0.0165228
737.553	0.0168479
737.631	0.0168894
737.709	0.0169124
737.788	0.0169318
737.866	0.0169758
737.944	0.0168484
738.022	0.0166824
738.100	0.0166060
738.178	0.0164402
738.256	0.0161366
738.334	0.0159409
738.413	0.0157114
738.491	0.0155773
738.569	0.0153857
738.647	0.0151427
738.725	0.0150183
738.803	0.0147698
738.881	0.0147399
738.959	0.0146077
739.038	0.0145862
739.116	0.0146027
739.194	0.0146812
739.272	0.0146732
739.350	0.0145153
739.428	0.0146329
739.506	0.0147833
739.584	0.0147729
739.663	0.0149175
739.741	0.0150126
739.819	0.0150676
739.897	0.0151121
739.975	0.0152081
740.053	0.0151410
740.131	0.0152625
740.209	0.0153355
740.288	0.0152723
740.366	0.0153393
740.444	0.0153127
740.522	0.0152094
740.600	0.0153410
740.678	0.0153536
740.756	0.0152757
740.834	0.0152174
740.913	0.0152895
740.991	0.0152563
741.069	0.0151454
741.147	0.0150765
741.225	0.0149901
741.303	0.0148237
741.381	0.0148484
741.459	0.0148724
741.538	0.0146703
741.616	0.0146721
741.694	0.0148560
741.772	0.0146195
741.850	0.0148562
741.928	0.0148922
742.006	0.0149548
742.084	0.0149725
742.163	0.0151559
742.241	0.0153912
742.319	0.0155479
742.397	0.0157743
742.475	0.0158218
742.553	0.0160397
742.631	0.0162905
742.709	0.0164575
742.788	0.0167323
742.866	0.0168826
742.944	0.0169905
743.022	0.0171779
743.100	0.0172804
743.178	0.0175845
743.256	0.0178181
743.334	0.0178056
743.413	0.0177312
743.491	0.0177280
743.569	0.0176962
743.647	0.0176630
743.725	0.0175272
743.803	0.0173743
743.881	0.0171788
743.959	0.0168064
744.038	0.0167288
744.116	0.0163341
744.194	0.0161560
744.272	0.0158102
744.350	0.0156351
744.428	0.0154930
744.506	0.0152939
744.584	0.0149978
744.663	0.0148975
744.741	0.0146748
744.819	0.0143658
744.897	0.0143232
744.975	0.0141923
745.053	0.0140367
745.131	0.0139706
745.209	0.0137367
745.288	0.0137848
745.366	0.0136720
745.444	0.0137551
745.522	0.0137116
745.600	0.0137404
745.678	0.0137138
745.756	0.0138857
745.834	0.0139805
745.913	0.0140802
745.991	0.0141199
746.069	0.0142435
746.147	0.0144061
746.225	0.0145354
746.303	0.0144912
746.381	0.0146284
746.459	0.0147441
746.538	0.0148785
746.616	0.0149877
746.694	0.0151329
746.772	0.0151286
746.850	0.0154568
746.928	0.0154754
747.006	0.0156219
747.084	0.0158189
747.163	0.0156957
747.241	0.0157756
747.319	0.0160139
747.397	0.0161085
747.475	0.0162694
747.553	0.0164027
747.631	0.0162245
747.709	0.0162527
747.788	0.0162445
747.866	0.0161314
747.944	0.0162181
748.022	0.0160415
748.100	0.0160316
748.178	0.0159906
748.256	0.0160022
748.334	0.0158162
748.413	0.0157437
748.491	0.0157929
748.569	0.0156851
748.647	0.0155362
748.725	0.0155449
748.803	0.0153995
748.881	0.0155432
748.959	0.0154428
749.038	0.0154089
749.116	0.0154236
749.194	0.0153986
749.272	0.0153159
749.350	0.0153572
749.428	0.0153369
749.506	0.0153622
749.584	0.0154256
749.663	0.0155019
749.741	0.0154794
749.819	0.0154075
749.897	0.0156505
749.975	0.0156086
750.053	0.0155835
750.131	0.0155888
750.209	0.0156223
750.288	0.0156228
750.366	0.0156743
750.444	0.0155367
750.522	0.0155562
750.600	0.0154623
750.678	0.0155715
750.756	0.0155659
750.834	0.0152867
750.913	0.0154589
750.991	0.0154957
751.069	0.0153986
751.147	0.0152823
751.225	0.0154207
751.303	0.0154293
751.381	0.0154198
751.459	0.0153881
751.538	0.0153289
751.616	0.0154775
751.694	0.0155096
751.772	0.0154337
751.850	0.0153577
751.928	0.0154710
752.006	0.0155022
752.084	0.0155131
752.163	0.0154555
752.241	0.0155538
752.319	0.0155899
752.397	0.0154846
752.475	0.0156561
752.553	0.0155338
752.631	0.0154969
752.709	0.0155336
752.788	0.0156404
752.866	0.0154556
752.944	0.0154974
753.022	0.0155695
753.100	0.0155932
753.178	0.0155775
753.256	0.0155809
753.334	0.0156454
753.413	0.0156038
753.491	0.0155641
753.569	0.0154435
753.647	0.0153577
753.725	0.0153923
753.803	0.0153771
753.881	0.0152085
753.959	0.0151356
754.038	0.0152455
754.116	0.0151501
754.194	0.0150451
754.272	0.0150450
754.350	0.0151463
754.428	0.0151559
754.506	0.0151898
754.584	0.0150476
754.663	0.0150940
754.741	0.0149744
754.819	0.0150793
754.897	0.0151949
754.975	0.0152225
755.053	0.0151866
755.131	0.0151562
755.209	0.0153220
755.288	0.0153426
755.366	0.0153851
755.444	0.0155292
755.522	0.0154624
755.600	0.0155962
755.678	0.0156178
755.756	0.0156889
755.834	0.0158555
755.913	0.0158463
755.991	0.0157391
756.069	0.0157024
756.147	0.0158416
756.225	0.0157284
756.303	0.0157095
756.381	0.0156982
756.459	0.0155621
756.538	0.0156665
756.616	0.0155785
756.694	0.0154528
756.772	0.0154144
756.850	0.0153393
756.928	0.0150994
757.006	0.0152990
757.084	0.0152477
757.163	0.0150990
757.241	0.0150597
757.319	0.0151145
757.397	0.0151037
757.475	0.0151904
757.553	0.0152035
757.631	0.0152800
757.709	0.0154951
757.788	0.0152679
757.866	0.0154815
757.944	0.0156385
758.022	0.0155766
758.100	0.0157481
758.178	0.0157992
758.256	0.0157314
758.334	0.0158401
758.413	0.0157289
758.491	0.0159677
758.569	0.0160503
758.647	0.0159799
758.725	0.0160828
758.803	0.0161881
758.881	0.0161301
758.959	0.0161029
759.038	0.0162670
759.116	0.0161604
759.194	0.0161432
759.272	0.0162229
759.350	0.0163699
759.428	0.0162473
759.506	0.0160913
759.584	0.0161392
759.663	0.0160416
759.741	0.0157963
759.819	0.0157286
759.897	0.0158713
759.975	0.0158001
760.053	0.0155102
760.131	0.0153677
760.209	0.0154118
760.288	0.0152350
760.366	0.0152589
760.444	0.0151263
760.522	0.0150129
760.600	0.0150302
760.678	0.0151098
760.756	0.0150993
760.834	0.0150114
760.913	0.0149506
760.991	0.0150192
761.069	0.0149025
761.147	0.0148461
761.225	0.0149485
761.303	0.0148857
761.381	0.0149139
761.459	0.0147625
761.538	0.0148351
761.616	0.0146930
761.694	0.0148159
761.772	0.0149086
761.850	0.0148504
761.928	0.0148118
762.006	0.0149784
762.084	0.0150363
762.163	0.0149945
762.241	0.0150875
762.319	0.0152540
762.397	0.0151976
762.475	0.0154038
762.553	0.0155067
762.631	0.0153553
762.709	0.0154093
762.788	0.0154710
762.866	0.0154800
762.944	0.0157599
763.022	0.0155657
763.100	0.0156985
763.178	0.0156956
763.256	0.0158733
763.334	0.0157373
763.413	0.0157683
763.491	0.0158160
763.569	0.0157291
763.647	0.0156982
763.725	0.0158005
763.803	0.0156805
763.881	0.0157886
763.959	0.0159061
764.038	0.0158044
764.116	0.0159424
764.194	0.0160390
764.272	0.0159539
764.350	0.0160452
764.428	0.0161578
764.506	0.0161300
764.584	0.0160572
764.663	0.0161560
764.741	0.0161231
764.819	0.0161230
764.897	0.0159956
764.975	0.0158964
765.053	0.0157064
765.131	0.0157799
765.209	0.0158254
765.288	0.0156705
765.366	0.0156136
765.444	0.0155025
765.522	0.0154615
765.600	0.0152738
765.678	0.0153442
765.756	0.0152918
765.834	0.0152435
765.913	0.0153040
765.991	0.0151929
766.069	0.0152775
766.147	0.0153780
766.225	0.0151896
766.303	0.0153349
766.381	0.0153462
766.459	0.0152838
766.538	0.0155094
766.616	0.0153454
766.694	0.0155615
766.772	0.0154957
766.850	0.0155636
766.928	0.0156730
767.006	0.0157076
767.084	0.0157132
767.163	0.0156573
767.241	0.0155762
767.319	0.0157856
767.397	0.0156755
767.475	0.0155954
767.553	0.0157099
767.631	0.0156478
767.709	0.0157184
767.788	0.0156837
767.866	0.0157784
767.944	0.0157673
768.022	0.0156525
768.100	0.0156588
768.178	0.0156787
768.256	0.0156181
768.334	0.0156570
768.413	0.0156484
768.491	0.0157726
768.569	0.0158500
768.647	0.0158501
768.725	0.0158285
768.803	0.0159283
768.881	0.0159120
768.959	0.0159084
769.038	0.0159241
769.116	0.0159028
769.194	0.0157854
769.272	0.0158104
769.350	0.0156602
769.428	0.0157769
769.506	0.0157759
769.584	0.0156338
769.663	0.0157427
769.741	0.0155660
769.819	0.0154860
769.897	0.0154140
769.975	0.0154665
770.053	0.0155294
770.131	0.0153519
770.209	0.0153814
770.288	0.0152239
770.366	0.0152203
770.444	0.0150981
770.522	0.0150484
770.600	0.0148130
770.678	0.0148946
770.756	0.0149331
770.834	0.0148749
770.913	0.0148824
770.991	0.0148054
771.069	0.0147644
771.147	0.0148252
771.225	0.0148781
771.303	0.0149043
771.381	0.0148517
771.459	0.0149922
771.538	0.0150819
771.616	0.0150723
771.694	0.0153091
771.772	0.0151588
771.850	0.0152747
771.928	0.0153814
772.006	0.0156156
772.084	0.0155826
772.163	0.0154450
772.241	0.0156558
772.319	0.0157494
772.397	0.0156498
772.475	0.0155783
772.553	0.0156987
772.631	0.0158270
772.709	0.0157905
772.788	0.0158081
772.866	0.0157713
772.944	0.0158162
773.022	0.0157854
773.100	0.0158054
773.178	0.0158398
773.256	0.0158065
773.334	0.0158088
773.413	0.0157356
773.491	0.0159408
773.569	0.0157546
773.647	0.0157233
773.725	0.0157623
773.803	0.0156062
773.881	0.0156608
773.959	0.0157759
774.038	0.0155640
774.116	0.0157236
774.194	0.0157384
774.272	0.0156487
774.350	0.0157338
774.428	0.0156898
774.506	0.0158379
774.584	0.0158565
774.663	0.0157967
774.741	0.0156819
774.819	0.0156297
774.897	0.0156077
774.975	0.0155483
775.053	0.0154671
775.131	0.0152732
775.209	0.0153072
775.288	0.0152339
775.366	0.0153468
775.444	0.0151301
775.522	0.0151122
775.600	0.0151287
775.678	0.0151405
775.756	0.0150386
775.834	0.0150726
775.913	0.0150338
775.991	0.0151732
776.069	0.0152721
776.147	0.0151186
776.225	0.0152045
776.303	0.0153350
776.381	0.0152513
776.459	0.0153634
776.538	0.0153634
776.616	0.0154934
776.694	0.0156915
776.772	0.0154466
776.850	0.0156377
776.928	0.0156498
777.006	0.0156952
777.084	0.0156742
777.163	0.0158050
777.241	0.0156838
777.319	0.0156057
777.397	0.0158063
777.475	0.0158047
777.553	0.0156354
777.631	0.0158609
777.709	0.0157310
777.788	0.0155475
777.866	0.0155998
777.944	0.0154741
778.022	0.0153958
778.100	0.0152874
778.178	0.0152348
778.256	0.0152595
778.334	0.0152023
778.413	0.0150504
778.491	0.0152016
778.569	0.0151031
778.647	0.0150159
778.725	0.0149997
778.803	0.0150992
778.881	0.0153166
778.959	0.0152173
779.038	0.0151926
779.116	0.0152094
779.194	0.0153427
779.272	0.0155771
779.350	0.0154079
779.428	0.0154410
779.506	0.0155866
779.584	0.0155807
779.663	0.0156770
779.741	0.0156635
779.819	0.0155666
779.897	0.0155244
779.975	0.0155415
780.053	0.0156052
780.131	0.0156715
780.209	0.0156097
780.288	0.0155928
780.366	0.0155197
780.444	0.0154318
780.522	0.0156280
780.600	0.0155869
780.678	0.0154955
780.756	0.0154310
780.834	0.0153146
780.913	0.0154305
780.991	0.0155007
781.069	0.0155356
781.147	0.0154495
781.225	0.0154318
781.303	0.0157458
781.381	0.0155834
781.459	0.0157054
781.538	0.0157130
781.616	0.0158945
781.694	0.0159412
781.772	0.0158199
781.850	0.0158881
781.928	0.0160530
782.006	0.0160098
782.084	0.0160726
782.163	0.0160339
782.241	0.0161754
782.319	0.0160699
782.397	0.0162115
782.475	0.0160527
782.553	0.0161235
782.631	0.0158904
782.709	0.0158460
782.788	0.0158888
782.866	0.0158368
782.944	0.0158075
783.022	0.0157389
783.100	0.0157375
783.178	0.0155349
783.256	0.0155129
783.334	0.0155620
783.413	0.0153243
783.491	0.0152616
783.569	0.0153895
783.647	0.0150784
783.725	0.0152894
783.803	0.0152805
783.881	0.0152666
783.959	0.0152286
784.038	0.0151447
784.116	0.0152563
784.194	0.0156182
784.272	0.0155656
784.350	0.0156055
784.428	0.0156287
784.506	0.0157811
784.584	0.0155723
784.663	0.0157127
784.741	0.0158575
784.819	0.0158309
784.897	0.0158118
784.975	0.0158691
785.053	0.0159743
785.131	0.0158398
785.209	0.0158618
785.288	0.0158172
785.366	0.0156091
785.444	0.0157331
785.522	0.0157001
785.600	0.0154885
785.678	0.0154709
785.756	0.0153505
785.834	0.0151137
785.913	0.0150964
785.991	0.0150575
786.069	0.0150497
786.147	0.0149282
786.225	0.0148634
786.303	0.0148883
786.381	0.0148050
786.459	0.0146964
786.538	0.0148095
786.616	0.0149879
786.694	0.0149066
786.772	0.0149816
786.850	0.0149252
786.928	0.0151757
787.006	0.0152289
787.084	0.0151135
787.163	0.0153065
787.241	0.0152052
787.319	0.0154188
787.397	0.0155422
787.475	0.0156267
787.553	0.0156535
787.631	0.0156732
787.709	0.0157446
787.788	0.0160931
787.866	0.0160969
787.944	0.0161344
788.022	0.0160322
788.100	0.0160196
788.178	0.0162112
788.256	0.0160387
788.334	0.0160646
788.413	0.0159285
788.491	0.0160230
788.569	0.0158436
788.647	0.0157574
788.725	0.0157901
788.803	0.0158806
788.881	0.0157962
788.959	0.0156590
789.038	0.0156298
789.116	0.0154984
789.194	0.0155784
789.272	0.0155022
789.350	0.0154729
789.428	0.0154874
789.506	0.0154692
789.584	0.0155155
789.663	0.0152625
789.741	0.0153612
789.819	0.0152764
789.897	0.0152676
789.975	0.0153102
790.053	0.0151924
790.131	0.0154714
790.209	0.0153633
790.288	0.0152837
790.366	0.0153406
790.444	0.0154738
790.522	0.0154968
790.600	0.0155927
790.678	0.0156032
790.756	0.0155367
790.834	0.0155482
790.913	0.0154913
790.991	0.0155437
791.069	0.0156467
791.147	0.0156405
791.225	0.0156271
791.303	0.0154565
791.381	0.0155557
791.459	0.0154655
791.538	0.0153681
791.616	0.0154659
791.694	0.0153531
791.772	0.0153836
791.850	0.0156233
791.928	0.0154552
792.006	0.0153631
792.084	0.0153472
792.163	0.0153400
792.241	0.0152499
792.319	0.0150502
792.397	0.0152350
792.475	0.0152958
792.553	0.0151945
792.631	0.0151526
792.709	0.0154122
792.788	0.0151601
792.866	0.0151935
792.944	0.0151907
793.022	0.0152904
793.100	0.0152861
793.178	0.0153723
793.256	0.0153967
793.334	0.0154604
793.413	0.0155537
793.491	0.0155539
793.569	0.0156425
793.647	0.0156006
793.725	0.0156911
793.803	0.0157268
793.881	0.0156580
793.959	0.0156711
794.038	0.0158333
794.116	0.0157743
794.194	0.0158783
794.272	0.0156934
794.350	0.0156860
794.428	0.0158968
794.506	0.0157936
794.584	0.0156138
794.663	0.0158534
794.741	0.0157498
794.819	0.0155836
794.897	0.0156208
794.975	0.0155939
795.053	0.0156470
795.131	0.0156781
795.209	0.0156648
795.288	0.0156318
795.366	0.0157946
795.444	0.0156902
795.522	0.0156867
795.600	0.0157590
795.678	0.0157458
795.756	0.0156757
795.834	0.0156927
795.913	0.0158643
795.991	0.0157217
796.069	0.0155473
796.147	0.0155866
796.225	0.0154496
796.303	0.0154636
796.381	0.0154356
796.459	0.0153696
796.538	0.0153771
796.616	0.0153399
796.694	0.0153826
796.772	0.0153300
796.850	0.0152842
796.928	0.0153494
797.006	0.0152782
797.084	0.0153036
797.163	0.0152675
797.241	0.0153127
797.319	0.0153556
797.397	0.0153747
797.475	0.0154520
797.553	0.0155209
797.631	0.0154425
797.709	0.0155162
797.788	0.0154302
797.866	0.0157422
797.944	0.0156926
798.022	0.0157735
798.100	0.0158175
798.178	0.0159077
798.256	0.0158369
798.334	0.0160624
798.413	0.0159644
798.491	0.0160098
798.569	0.0159500
798.647	0.0159153
798.725	0.0158734
798.803	0.0158080
798.881	0.0157227
798.959	0.0157305
799.038	0.0155183
799.116	0.0155929
799.194	0.0155686
799.272	0.0154889
799.350	0.0154787
799.428	0.0157322
799.506	0.0157671
799.584	0.0155848
799.663	0.0154993
799.741	0.0156466
799.819	0.0156013
799.897	0.0155313
799.975	0.0154745
800.053	0.0154952
800.131	0.0155993
800.209	0.0155416
800.288	0.0156482
800.366	0.0155309
800.444	0.0154713
800.522	0.0154532
800.600	0.0154842
800.678	0.0153754
800.756	0.0154181
800.834	0.0153673
800.913	0.0151775
800.991	0.0152312
801.069	0.0152242
801.147	0.0149441
801.225	0.0149871
801.303	0.0151284
801.381	0.0150012
801.459	0.0150752
801.538	0.0150446
801.616	0.0151223
801.694	0.0151357
801.772	0.0150877
801.850	0.0150607
801.928	0.0150815
802.006	0.0151731
802.084	0.0152541
802.163	0.0153558
802.241	0.0154311
802.319	0.0152903
802.397	0.0153887
802.475	0.0155470
802.553	0.0153907
802.631	0.0152917
802.709	0.0154902
802.788	0.0155083
802.866	0.0155975
802.944	0.0157056
803.022	0.0155628
803.100	0.0155509
803.178	0.0155781
803.256	0.0156436
803.334	0.0158068
803.413	0.0157766
803.491	0.0158764
803.569	0.0158567
803.647	0.0159636
803.725	0.0158204
803.803	0.0159782
803.881	0.0160406
803.959	0.0160163
804.038	0.0161036
804.116	0.0162144
804.194	0.0160647
804.272	0.0161812
804.350	0.0160815
804.428	0.0161812
804.506	0.0161951
804.584	0.0162705
804.663	0.0161190
804.741	0.0161438
804.819	0.0161060
804.897	0.0161869
804.975	0.0160934
805.053	0.0161349
805.131	0.0159299
805.209	0.0159657
805.288	0.0158472
805.366	0.0158393
805.444	0.0157772
805.522	0.0157298
805.600	0.0156478
805.678	0.0154769
805.756	0.0155120
805.834	0.0153586
805.913	0.0153107
805.991	0.0153328
806.069	0.0152837
806.147	0.0154100
806.225	0.0153809
806.303	0.0151742
806.381	0.0150283
806.459	0.0152597
806.538	0.0151833
806.616	0.0151518
806.694	0.0151537
806.772	0.0152686
806.850	0.0151815
806.928	0.0150905
807.006	0.0151595
807.084	0.0151312
807.163	0.0151402
807.241	0.0151473
807.319	0.0151487
807.397	0.0152299
807.475	0.0151599
807.553	0.0151613
807.631	0.0153572
807.709	0.0153073
807.788	0.0152317
807.866	0.0153383
807.944	0.0153568
808.022	0.0154895
808.100	0.0155302
808.178	0.0156249
808.256	0.0157426
808.334	0.0156502
808.413	0.0158039
808.491	0.0158539
808.569	0.0158535
808.647	0.0158585
808.725	0.0158722
808.803	0.0158279
808.881	0.0159785
808.959	0.0159938
809.038	0.0159149
809.116	0.0159348
809.194	0.0158369
809.272	0.0158721
809.350	0.0158994
809.428	0.0158237
809.506	0.0156696
809.584	0.0156811
809.663	0.0155737
809.741	0.0154318
809.819	0.0153130
809.897	0.0152965
809.975	0.0152740
810.053	0.0152428
810.131	0.0152189
810.209	0.0151329
810.288	0.0149942
810.366	0.0151083
810.444	0.0151289
810.522	0.0151776
810.600	0.0151655
810.678	0.0150047
810.756	0.0152406
810.834	0.0153270
810.913	0.0152231
810.991	0.0153986
811.069	0.0154493
811.147	0.0154786
811.225	0.0154991
811.303	0.0155768
811.381	0.0157676
811.459	0.0157019
811.538	0.0157848
811.616	0.0158910
811.694	0.0158670
811.772	0.0159758
811.850	0.0159563
811.928	0.0159416
812.006	0.0158467
812.084	0.0160017
812.163	0.0161088
812.241	0.0161026
812.319	0.0159068
812.397	0.0157639
812.475	0.0157838
812.553	0.0156828
812.631	0.0155588
812.709	0.0154633
812.788	0.0154549
812.866	0.0153385
812.944	0.0153848
813.022	0.0152607
813.100	0.0151710
813.178	0.0150517
813.256	0.0150822
813.334	0.0151229
813.413	0.0151263
813.491	0.0151094
813.569	0.0151228
813.647	0.0149162
813.725	0.0149600
813.803	0.0150069
813.881	0.0149845
813.959	0.0150283
814.038	0.0149835
814.116	0.0151451
814.194	0.0151184
814.272	0.0150546
814.350	0.0152470
814.428	0.0151973
814.506	0.0150262
814.584	0.0153402
814.663	0.0152689
814.741	0.0151728
814.819	0.0153016
814.897	0.0152693
814.975	0.0154111
815.053	0.0155017
815.131	0.0153664
815.209	0.0154608
815.288	0.0154456
815.366	0.0153279
815.444	0.0156069
815.522	0.0155707
815.600	0.0155305
815.678	0.0154707
815.756	0.0155598
815.834	0.0157298
815.913	0.0156611
815.991	0.0155124
816.069	0.0156853
816.147	0.0157327
816.225	0.0156024
816.303	0.0155669
816.381	0.0155924
816.459	0.0153580
816.538	0.0155053
816.616	0.0154624
816.694	0.0154939
816.772	0.0154765
816.850	0.0154345
816.928	0.0154250
817.006	0.0152736
817.084	0.0152057
817.163	0.0153485
817.241	0.0154539
817.319	0.0153329
817.397	0.0152443
817.475	0.0152777
817.553	0.0153750
817.631	0.0152090
817.709	0.0153518
817.788	0.0153758
817.866	0.0153527
817.944	0.0153337
818.022	0.0152699
818.100	0.0153058
818.178	0.0154767
818.256	0.0154394
818.334	0.0153804
818.413	0.0152804
818.491	0.0154803
818.569	0.0154670
818.647	0.0154309
818.725	0.0154936
818.803	0.0155042
818.881	0.0156214
818.959	0.0156956
819.038	0.0156248
819.116	0.0156876
819.194	0.0157110
819.272	0.0157571
819.350	0.0156361
819.428	0.0158807
819.506	0.0159559
819.584	0.0158344
819.663	0.0159560
819.741	0.0159505
819.819	0.0158802
819.897	0.0160667
819.975	0.0160451
820.053	0.0159781
820.131	0.0161800
820.209	0.0159222
820.288	0.0160728
820.366	0.0159541
820.444	0.0157973
820.522	0.0159789
820.600	0.0159077
820.678	0.0156413
820.756	0.0156252
820.834	0.0157988
820.913	0.0157079
820.991	0.0157063
821.069	0.0155721
821.147	0.0157048
821.225	0.0157260
821.303	0.0156191
821.381	0.0155325
821.459	0.0153855
821.538	0.0154488
821.616	0.0152752
821.694	0.0153181
821.772	0.0152438
821.850	0.0153448
821.928	0.0152912
822.006	0.0152719
822.084	0.0152771
822.163	0.0151913
822.241	0.0152338
822.319	0.0152887
822.397	0.0152708
822.475	0.0153016
822.553	0.0152244
822.631	0.0153883
822.709	0.0152952
822.788	0.0153282
822.866	0.0154768
822.944	0.0153863
823.022	0.0154518
823.100	0.0153593
823.178	0.0156353
823.256	0.0156824
823.334	0.0156851
823.413	0.0156432
823.491	0.0157348
823.569	0.0157661
823.647	0.0156890
823.725	0.0159700
823.803	0.0159564
823.881	0.0160652
823.959	0.0159033
824.038	0.0158878
824.116	0.0159639
824.194	0.0160485
824.272	0.0160059
824.350	0.0158727
824.428	0.0161050
824.506	0.0159525
824.584	0.0159283
824.663	0.0158662
824.741	0.0161363
824.819	0.0157634
824.897	0.0158088
824.975	0.0157693
825.053	0.0156777
825.131	0.0156394
825.209	0.0156271
825.288	0.0154919
825.366	0.0156443
825.444	0.0154805
825.522	0.0154243
825.600	0.0152093
825.678	0.0153846
825.756	0.0152372
825.834	0.0152561
825.913	0.0151745
825.991	0.0151218
826.069	0.0151690
826.147	0.0151721
826.225	0.0150116
826.303	0.0151533
826.381	0.0151375
826.459	0.0152016
826.538	0.0152898
826.616	0.0152897
826.694	0.0154198
826.772	0.0152658
826.850	0.0152814
826.928	0.0151628
827.006	0.0151807
827.084	0.0153858
827.163	0.0154285
827.241	0.0154587
827.319	0.0154857
827.397	0.0154994
827.475	0.0155133
827.553	0.0154657
827.631	0.0154644
827.709	0.0156457
827.788	0.0155943
827.866	0.0156654
827.944	0.0156978
828.022	0.0157386
828.100	0.0156835
828.178	0.0155631
828.256	0.0157921
828.334	0.0156488
828.413	0.0156200
828.491	0.0156956
828.569	0.0157587
828.647	0.0157300
828.725	0.0155729
828.803	0.0157420
828.881	0.0157509
828.959	0.0157485
829.038	0.0157323
829.116	0.0156178
829.194	0.0157281
829.272	0.0157784
829.350	0.0156586
829.428	0.0157111
829.506	0.0156606
829.584	0.0156898
829.663	0.0156929
829.741	0.0157826
829.819	0.0156604
829.897	0.0156632
829.975	0.0157864
830.053	0.0155367
830.131	0.0156152
830.209	0.0155799
830.288	0.0155720
830.366	0.0154768
830.444	0.0155602
830.522	0.0153565
830.600	0.0154700
830.678	0.0153832
830.756	0.0153410
830.834	0.0154729
830.913	0.0154442
830.991	0.0154790
831.069	0.0153313
831.147	0.0154746
831.225	0.0154198
831.303	0.0153731
831.381	0.0153205
831.459	0.0153426
831.538	0.0153518
831.616	0.0153170
831.694	0.0154550
831.772	0.0152943
831.850	0.0152478
831.928	0.0152964
832.006	0.0153396
832.084	0.0153827
832.163	0.0153332
832.241	0.0153782
832.319	0.0153442
832.397	0.0152250
832.475	0.0152553
832.553	0.0152787
832.631	0.0152778
832.709	0.0153458
832.788	0.0151041
832.866	0.0150788
832.944	0.0153430
833.022	0.0152819
833.100	0.0152542
833.178	0.0151688
833.256	0.0151560
833.334	0.0152960
833.413	0.0152013
833.491	0.0153007
833.569	0.0153178
833.647	0.0153988
833.725	0.0154639
833.803	0.0153965
833.881	0.0153469
833.959	0.0154742
834.038	0.0153928
834.116	0.0154128
834.194	0.0154823
834.272	0.0153872
834.350	0.0154389
834.428	0.0153963
834.506	0.0155690
834.584	0.0155032
834.663	0.0153529
834.741	0.0155629
834.819	0.0154829
834.897	0.0154240
834.975	0.0154865
835.053	0.0154521
835.131	0.0154642
835.209	0.0153471
835.288	0.0153545
835.366	0.0154364
835.444	0.0154691
835.522	0.0154908
835.600	0.0155260
835.678	0.0155560
835.756	0.0154690
835.834	0.0155089
835.913	0.0154825
835.991	0.0153043
836.069	0.0154667
836.147	0.0155626
836.225	0.0155093
836.303	0.0154523
836.381	0.0154193
836.459	0.0154032
836.538	0.0153561
836.616	0.0153462
836.694	0.0154202
836.772	0.0154157
836.850	0.0153758
836.928	0.0153066
837.006	0.0153561
837.084	0.0154162
837.163	0.0152049
837.241	0.0153625
837.319	0.0154572
837.397	0.0152840
837.475	0.0153618
837.553	0.0153979
837.631	0.0154005
837.709	0.0154937
837.788	0.0154951
837.866	0.0153473
837.944	0.0153789
838.022	0.0154408
838.100	0.0154712
838.178	0.0155765
838.256	0.0154558
838.334	0.0151739
838.413	0.0154028
838.491	0.0155004
838.569	0.0152891
838.647	0.0155580
838.725	0.0155338
838.803	0.0154273
838.881	0.0154998
838.959	0.0154836
839.038	0.0155874
839.116	0.0156022
839.194	0.0155529
839.272	0.0155613
839.350	0.0155418
839.428	0.0155638
839.506	0.0156175
839.584	0.0158333
839.663	0.0156001
839.741	0.0157382
839.819	0.0157028
839.897	0.0156726
839.975	0.0157114
840.053	0.0157520
840.131	0.0157684
840.209	0.0156010
840.288	0.0156780
840.366	0.0157063
840.444	0.0157224
840.522	0.0156331
840.600	0.0156046
840.678	0.0156030
840.756	0.0155067
840.834	0.0155661
840.913	0.0155241
840.991	0.0155694
841.069	0.0157084
841.147	0.0155664
841.225	0.0155357
841.303	0.0155928
841.381	0.0155887
841.459	0.0156050
841.538	0.0154417
841.616	0.0154461
841.694	0.0153963
841.772	0.0153507
841.850	0.0153240
841.928	0.0153146
842.006	0.0153153
842.084	0.0152994
842.163	0.0154061
842.241	0.0153021
842.319	0.0152246
842.397	0.0153203
842.475	0.0153173
842.553	0.0152363
842.631	0.0153540
842.709	0.0152512
842.788	0.0152782
842.866	0.0152934
842.944	0.0152316
843.022	0.0152454
843.100	0.0153646
843.178	0.0154331
843.256	0.0153905
843.334	0.0152837
843.413	0.0153037
843.491	0.0153947
843.569	0.0154082
843.647	0.0153822
843.725	0.0153801
843.803	0.0154913
843.881	0.0154562
843.959	0.0154593
844.038	0.0154926
844.116	0.0154730
844.194	0.0153893
844.272	0.0156149
844.350	0.0154889
844.428	0.0155177
844.506	0.0154594
844.584	0.0154995
844.663	0.0155013
844.741	0.0155813
844.819	0.0155949
844.897	0.0154063
844.975	0.0156554
845.053	0.0155159
845.131	0.0155145
845.209	0.0155290
845.288	0.0155302
845.366	0.0154516
845.444	0.0156091
845.522	0.0155495
845.600	0.0154391
845.678	0.0154118
845.756	0.0154451
845.834	0.0154378
845.913	0.0154803
845.991	0.0156216
846.069	0.0155495
846.147	0.0155985
846.225	0.0155886
846.303	0.0155312
846.381	0.0156008
846.459	0.0155254
846.538	0.0154553
846.616	0.0154390
846.694	0.0155137
846.772	0.0154465
846.850	0.0155131
846.928	0.0156461
847.006	0.0155229
847.084	0.0155165
847.163	0.0154133
847.241	0.0154852
847.319	0.0153849
847.397	0.0152695
847.475	0.0153397
847.553	0.0154523
847.631	0.0153458
847.709	0.0153293
847.788	0.0152919
847.866	0.0154385
847.944	0.0155630
848.022	0.0155787
848.100	0.0155708
848.178	0.0154174
848.256	0.0154491
848.334	0.0154826
848.413	0.0155103
848.491	0.0154945
848.569	0.0155383
848.647	0.0154041
848.725	0.0154943
848.803	0.0155177
848.881	0.0155389
848.959	0.0154525
849.038	0.0155106
849.116	0.0155881
849.194	0.0154132
849.272	0.0155252
849.350	0.0156309
849.428	0.0155325
849.506	0.0155814
849.584	0.0156705
849.663	0.0157102
849.741	0.0155357
849.819	0.0155405
849.897	0.0156060
849.975	0.0156157
850.053	0.0155942
850.131	0.0156072
850.209	0.0156623
850.288	0.0158576
850.366	0.0156430
850.444	0.0156295
850.522	0.0157090
850.600	0.0157178
850.678	0.0154589
850.756	0.0156190
850.834	0.0157142
850.913	0.0156606
850.991	0.0155767
851.069	0.0156079
851.147	0.0155138
851.225	0.0156541
851.303	0.0155014
851.381	0.0155085
851.459	0.0155668
851.538	0.0156882
851.616	0.0157150
851.694	0.0155345
851.772	0.0156806
851.850	0.0156413
851.928	0.0157082
852.006	0.0156557
852.084	0.0155753
852.163	0.0155663
852.241	0.0156230
852.319	0.0155105
852.397	0.0155824
852.475	0.0155561
852.553	0.0156678
852.631	0.0157194
852.709	0.0155043
852.788	0.0156088
852.866	0.0155738
852.944	0.0153471
853.022	0.0152844
853.100	0.0155572
853.178	0.0154809
853.256	0.0154462
853.334	0.0153748
853.413	0.0153742
853.491	0.0154243
853.569	0.0152976
853.647	0.0153533
853.725	0.0154016
853.803	0.0153915
853.881	0.0152774
853.959	0.0153555
854.038	0.0153168
854.116	0.0153062
854.194	0.0153416
854.272	0.0155247
854.350	0.0156099
854.428	0.0153622
854.506	0.0153244
854.584	0.0154060
854.663	0.0154141
854.741	0.0154406
854.819	0.0153680
854.897	0.0153985
854.975	0.0155038
855.053	0.0155451
855.131	0.0154626
855.209	0.0154992
855.288	0.0155032
855.366	0.0154340
855.444	0.0155345
855.522	0.0154727
855.600	0.0154564
855.678	0.0153273
855.756	0.0155185
855.834	0.0155334
855.913	0.0154770
855.991	0.0154952
856.069	0.0155120
856.147	0.0155210
856.225	0.0154353
856.303	0.0154522
856.381	0.0154600
856.459	0.0153036
856.538	0.0153030
856.616	0.0154584
856.694	0.0155013
856.772	0.0154380
856.850	0.0154012
856.928	0.0152479
857.006	0.0152299
857.084	0.0155207
857.163	0.0154124
857.241	0.0152673
857.319	0.0152707
857.397	0.0153628
857.475	0.0151874
857.553	0.0155442
857.631	0.0155325
857.709	0.0154288
857.788	0.0152593
857.866	0.0154607
857.944	0.0155307
858.022	0.0154979
858.100	0.0154192
858.178	0.0155984
858.256	0.0154478
858.334	0.0155471
858.413	0.0154876
858.491	0.0155172
858.569	0.0155406
858.647	0.0155506
858.725	0.0153861
858.803	0.0155266
858.881	0.0155521
858.959	0.0155537
859.038	0.0156226
859.116	0.0155750
859.194	0.0154510
859.272	0.0154968
859.350	0.0154812
859.428	0.0156798
859.506	0.0154802
859.584	0.0154668
859.663	0.0154505
859.741	0.0154669
859.819	0.0155736
859.897	0.0154702
859.975	0.0154861
860.053	0.0154896
860.131	0.0154927
860.209	0.0155298
860.288	0.0154996
860.366	0.0154291
860.444	0.0155108
860.522	0.0155535
860.600	0.0155478
860.678	0.0155312
860.756	0.0155388
860.834	0.0156733
860.913	0.0157296
860.991	0.0157024
861.069	0.0156992
861.147	0.0155930
861.225	0.0156184
861.303	0.0157993
861.381	0.0157365
861.459	0.0157593
861.538	0.0156713
861.616	0.0156388
861.694	0.0156672
861.772	0.0155538
861.850	0.0158076
861.928	0.0155820
862.006	0.0155890
862.084	0.0157893
862.163	0.0156309
862.241	0.0156381
862.319	0.0156177
862.397	0.0154816
862.475	0.0156306
862.553	0.0155248
862.631	0.0154416
862.709	0.0154538
862.788	0.0155099
862.866	0.0154830
862.944	0.0155844
863.022	0.0154700
863.100	0.0154250
863.178	0.0154678
863.256	0.0155101
863.334	0.0153945
863.413	0.0155281
863.491	0.0153497
863.569	0.0154507
863.647	0.0153767
863.725	0.0153690
863.803	0.0153362
863.881	0.0154987
863.959	0.0153129
864.038	0.0153403
864.116	0.0155972
864.194	0.0154766
864.272	0.0155366
864.350	0.0154572
864.428	0.0155022
864.506	0.0155411
864.584	0.0155025
864.663	0.0154622
864.741	0.0156989
864.819	0.0157665
864.897	0.0155809
864.975	0.0154126
865.053	0.0155643
865.131	0.0156532
865.209	0.0157214
865.288	0.0155695
865.366	0.0155117
865.444	0.0155118
865.522	0.0154240
865.600	0.0155480
865.678	0.0157143
865.756	0.0156283
865.834	0.0155978
865.913	0.0155657
865.991	0.0154356
866.069	0.0155106
866.147	0.0153638
866.225	0.0155864
866.303	0.0155020
866.381	0.0154486
866.459	0.0153000
866.538	0.0154223
866.616	0.0153651
866.694	0.0152741
866.772	0.0154771
866.850	0.0155173
866.928	0.0153863
867.006	0.0154403
867.084	0.0154370
867.163	0.0153972
867.241	0.0154017
867.319	0.0153897
867.397	0.0153588
867.475	0.0153522
867.553	0.0153796
867.631	0.0154649
867.709	0.0155025
867.788	0.0152933
867.866	0.0151691
867.944	0.0152961
868.022	0.0154160
868.100	0.0154004
868.178	0.0153368
868.256	0.0153957
868.334	0.0152423
868.413	0.0153131
868.491	0.0152164
868.569	0.0153857
868.647	0.0153461
868.725	0.0153082
868.803	0.0152283
868.881	0.0152477
868.959	0.0153148
869.038	0.0154400
869.116	0.0153789
869.194	0.0153358
869.272	0.0153748
869.350	0.0153584
869.428	0.0155768
869.506	0.0153905
869.584	0.0154038
869.663	0.0154372
869.741	0.0154024
869.819	0.0156145
869.897	0.0154984
869.975	0.0155228
870.053	0.0155031
870.131	0.0155348
870.209	0.0155737
870.288	0.0155930
870.366	0.0156187
870.444	0.0156977
870.522	0.0157150
870.600	0.0157531
870.678	0.0156766
870.756	0.0156512
870.834	0.0156656
870.913	0.0157505
870.991	0.0156876
871.069	0.0157240
871.147	0.0157506
871.225	0.0155893
871.303	0.0156512
871.381	0.0155836
871.459	0.0155421
871.538	0.0155531
871.616	0.0154456
871.694	0.0154679
871.772	0.0154716
871.850	0.0154412
871.928	0.0153144
872.006	0.0152216
872.084	0.0154478
872.163	0.0155604
872.241	0.0152783
872.319	0.0152708
872.397	0.0154710
872.475	0.0153944
872.553	0.0152896
872.631	0.0153381
872.709	0.0153773
872.788	0.0154766
872.866	0.0153828
872.944	0.0155232
873.022	0.0155139
873.100	0.0154687
873.178	0.0155946
873.256	0.0154968
873.334	0.0155531
873.413	0.0156386
873.491	0.0154843
873.569	0.0156194
873.647	0.0155281
873.725	0.0154845
873.803	0.0156178
873.881	0.0155873
873.959	0.0155918
874.038	0.0155673
874.116	0.0154289
874.194	0.0155756
874.272	0.0155995
874.350	0.0156590
874.428	0.0155853
874.506	0.0153362
874.584	0.0154056
874.663	0.0152951
874.741	0.0154083
874.819	0.0154420
874.897	0.0153116
874.975	0.0153193
875.053	0.0153668
875.131	0.0153284
875.209	0.0153948
875.288	0.0152408
875.366	0.0152772
875.444	0.0152776
875.522	0.0151733
875.600	0.0153473
875.678	0.0152200
875.756	0.0153011
875.834	0.0153767
875.913	0.0153522
875.991	0.0152938
876.069	0.0153458
876.147	0.0153862
876.225	0.0152915
876.303	0.0154474
876.381	0.0154710
876.459	0.0155190
876.538	0.0154688
876.616	0.0156256
876.694	0.0154018
876.772	0.0154837
876.850	0.0155785
876.928	0.0156638
877.006	0.0155183
877.084	0.0154872
877.163	0.0155813
877.241	0.0155042
877.319	0.0153344
877.397	0.0154785
877.475	0.0153217
877.553	0.0154795
877.631	0.0154021
877.709	0.0154512
877.788	0.0154326
877.866	0.0154827
877.944	0.0155398
878.022	0.0154665
878.100	0.0155885
878.178	0.0155739
878.256	0.0154537
878.334	0.0155535
878.413	0.0155160
878.491	0.0155663
878.569	0.0154251
878.647	0.0155869
878.725	0.0156656
878.803	0.0155882
878.881	0.0154813
878.959	0.0154321
879.038	0.0155427
879.116	0.0155256
879.194	0.0156405
879.272	0.0156203
879.350	0.0155956
879.428	0.0156729
879.506	0.0156082
879.584	0.0156293
879.663	0.0155943
879.741	0.0156998
879.819	0.0155289
879.897	0.0155762
879.975	0.0155727
880.053	0.0154645
880.131	0.0154079
880.209	0.0156099
880.288	0.0154657
880.366	0.0154905
880.444	0.0154827
880.522	0.0154943
880.600	0.0154968
880.678	0.0155322
880.756	0.0155801
880.834	0.0155576
880.913	0.0155423
880.991	0.0154426
881.069	0.0154205
881.147	0.0155859
881.225	0.0156396
881.303	0.0156345
881.381	0.0155005
881.459	0.0154498
881.538	0.0155245
881.616	0.0155547
881.694	0.0155111
881.772	0.0157310
881.850	0.0156297
881.928	0.0155393
882.006	0.0156347
882.084	0.0157561
882.163	0.0156744
882.241	0.0156710
882.319	0.0156609
882.397	0.0157716
882.475	0.0156681
882.553	0.0156409
882.631	0.0157252
882.709	0.0155270
882.788	0.0156386
882.866	0.0155816
882.944	0.0156042
883.022	0.0155563
883.100	0.0154845
883.178	0.0154737
883.256	0.0155144
883.334	0.0155685
883.413	0.0155891
883.491	0.0154960
883.569	0.0154369
883.647	0.0155581
883.725	0.0153866
883.803	0.0153960
883.881	0.0155572
883.959	0.0155011
884.038	0.0154658
884.116	0.0153191
884.194	0.0154571
884.272	0.0156153
884.350	0.0156052
884.428	0.0155469
884.506	0.0155305
884.584	0.0156444
884.663	0.0155490
884.741	0.0157549
884.819	0.0157521
884.897	0.0157494
884.975	0.0158057
885.053	0.0156998
885.131	0.0157655
885.209	0.0158556
885.288	0.0157837
885.366	0.0157647
885.444	0.0158351
885.522	0.0157835
885.600	0.0158522
885.678	0.0158760
885.756	0.0157890
885.834	0.0158784
885.913	0.0158562
885.991	0.0158199
886.069	0.0158167
886.147	0.0158569
886.225	0.0156483
886.303	0.0159151
886.381	0.0156023
886.459	0.0156231
886.538	0.0157449
886.616	0.0157592
886.694	0.0155197
886.772	0.0155539
886.850	0.0155930
886.928	0.0155293
887.006	0.0155267
887.084	0.0155081
887.163	0.0153917
887.241	0.0155306
887.319	0.0153901
887.397	0.0153465
887.475	0.0153821
887.553	0.0152612
887.631	0.0153480
887.709	0.0152365
887.788	0.0152504
887.866	0.0152505
887.944	0.0152191
888.022	0.0152750
888.100	0.0151671
888.178	0.0151892
888.256	0.0151675
888.334	0.0151587
888.413	0.0152463
888.491	0.0151775
888.569	0.0152655
888.647	0.0152539
888.725	0.0153258
888.803	0.0151331
888.881	0.0151913
888.959	0.0155196
889.038	0.0155263
889.116	0.0155460
889.194	0.0154993
889.272	0.0155565
889.350	0.0156686
889.428	0.0155305
889.506	0.0156246
889.584	0.0156232
889.663	0.0156767
889.741	0.0155119
889.819	0.0155357
889.897	0.0155823
889.975	0.0155441
890.053	0.0156897
890.131	0.0155569
890.209	0.0153728
890.288	0.0152427
890.366	0.0156390
890.444	0.0153793
890.522	0.0152115
890.600	0.0153207
890.678	0.0153992
890.756	0.0153528
890.834	0.0154939
890.913	0.0153113
890.991	0.0153912
891.069	0.0156018
891.147	0.0154029
891.225	0.0154474
891.303	0.0154140
891.381	0.0154366
891.459	0.0154564
891.538	0.0155437
891.616	0.0155026
891.694	0.0154258
891.772	0.0154005
891.850	0.0153979
891.928	0.0154087
892.006	0.0154385
892.084	0.0154390
892.163	0.0154276
892.241	0.0154459
892.319	0.0154194
892.397	0.0155652
892.475	0.0155537
892.553	0.0154496
892.631	0.0156853
892.709	0.0156303
892.788	0.0155489
892.866	0.0154126
892.944	0.0154251
893.022	0.0154203
893.100	0.0155228
893.178	0.0154521
893.256	0.0154194
893.334	0.0154383
893.413	0.0154435
893.491	0.0154121
893.569	0.0154562
893.647	0.0154486
893.725	0.0155293
893.803	0.0152985
893.881	0.0154723
893.959	0.0154054
894.038	0.0154061
894.116	0.0154992
894.194	0.0154316
894.272	0.0153059
894.350	0.0152604
894.428	0.0153401
894.506	0.0154131
894.584	0.0155470
894.663	0.0154826
894.741	0.0155403
894.819	0.0154631
894.897	0.0153706
894.975	0.0154453
895.053	0.0155138
895.131	0.0154602
895.209	0.0155189
895.288	0.0154392
895.366	0.0156106
895.444	0.0154085
895.522	0.0153808
895.600	0.0155437
895.678	0.0153083
895.756	0.0153945
895.834	0.0154121
895.913	0.0155517
895.991	0.0155359
896.069	0.0153246
896.147	0.0154000
896.225	0.0152715
896.303	0.0154717
896.381	0.0153468
896.459	0.0154767
896.538	0.0154658
896.616	0.0152716
896.694	0.0154413
896.772	0.0154091
896.850	0.0153808
896.928	0.0153246
897.006	0.0152371
897.084	0.0153947
897.163	0.0152944
897.241	0.0153367
897.319	0.0153734
897.397	0.0153072
897.475	0.0153307
897.553	0.0152512
897.631	0.0153098
897.709	0.0154609
897.788	0.0154124
897.866	0.0154181
897.944	0.0153320
898.022	0.0153701
898.100	0.0154105
898.178	0.0155021
898.256	0.0155309
898.334	0.0154912
898.413	0.0154533
898.491	0.0155435
898.569	0.0155947
898.647	0.0155003
898.725	0.0156327
898.803	0.0154152
898.881	0.0155910
898.959	0.0155695
899.038	0.0156980
899.116	0.0156289
899.194	0.0153582
899.272	0.0155362
899.350	0.0155746
899.428	0.0154968
899.506	0.0156379
899.584	0.0155116
899.663	0.0153630
899.741	0.0153918
899.819	0.0153494
899.897	0.0153822
899.975	0.0153876
900.053	0.0153510
900.131	0.0155280
900.209	0.0152657
900.288	0.0153680
900.366	0.0153642
900.444	0.0153082
900.522	0.0153573
900.600	0.0153389
900.678	0.0154337
900.756	0.0153555
900.834	0.0153840
900.913	0.0153566
900.991	0.0154416
901.069	0.0153661
901.147	0.0154860
901.225	0.0154611
901.303	0.0155093
901.381	0.0154887
901.459	0.0156850
901.538	0.0154669
901.616	0.0153825
901.694	0.0155174
901.772	0.0155549
901.850	0.0156226
901.928	0.0156143
902.006	0.0156467
902.084	0.0156396
902.163	0.0155592
902.241	0.0157423
902.319	0.0158724
902.397	0.0158405
902.475	0.0157594
902.553	0.0158298
902.631	0.0159212
902.709	0.0158111
902.788	0.0156885
902.866	0.0157507
902.944	0.0157972
903.022	0.0157095
903.100	0.0157067
903.178	0.0156733
903.256	0.0156134
903.334	0.0154935
903.413	0.0154571
903.491	0.0155086
903.569	0.0156110
903.647	0.0154459
903.725	0.0154886
903.803	0.0155341
903.881	0.0153966
903.959	0.0154264
904.038	0.0154597
904.116	0.0154546
904.194	0.0154087
904.272	0.0153262
904.350	0.0155126
904.428	0.0154417
904.506	0.0152606
904.584	0.0154071
904.663	0.0154230
904.741	0.0153433
904.819	0.0154522
904.897	0.0155644
904.975	0.0155095
905.053	0.0155270
905.131	0.0155820
905.209	0.0156131
905.288	0.0156335
905.366	0.0157063
905.444	0.0156543
905.522	0.0156794
905.600	0.0157468
905.678	0.0157718
905.756	0.0157492
905.834	0.0157951
905.913	0.0157443
905.991	0.0158648
906.069	0.0159675
906.147	0.0157817
906.225	0.0158785
906.303	0.0158342
906.381	0.0157996
906.459	0.0158758
906.538	0.0158704
906.616	0.0156921
906.694	0.0157260
906.772	0.0157715
906.850	0.0158405
906.928	0.0159005
907.006	0.0158530
907.084	0.0157185
907.163	0.0156286
907.241	0.0156646
907.319	0.0156957
907.397	0.0156775
907.475	0.0156281
907.553	0.0157021
907.631	0.0156622
907.709	0.0155290
907.788	0.0156560
907.866	0.0156522
907.944	0.0155483
908.022	0.0155568
908.100	0.0155904
908.178	0.0154104
908.256	0.0153931
908.334	0.0154566
908.413	0.0153370
908.491	0.0153456
908.569	0.0153113
908.647	0.0152112
908.725	0.0153305
908.803	0.0153422
908.881	0.0153188
908.959	0.0153519
909.038	0.0152668
909.116	0.0153103
909.194	0.0152417
909.272	0.0153376
909.350	0.0152231
909.428	0.0154392
909.506	0.0154149
909.584	0.0152951
909.663	0.0153825
909.741	0.0154838
909.819	0.0155331
909.897	0.0154992
909.975	0.0155056
910.053	0.0154962
910.131	0.0156514
910.209	0.0154218
910.288	0.0155693
910.366	0.0154845
910.444	0.0156128
910.522	0.0155228
910.600	0.0155015
910.678	0.0155420
910.756	0.0156858
910.834	0.0155498
910.913	0.0155159
910.991	0.0154116
911.069	0.0156227
911.147	0.0155848
911.225	0.0153462
911.303	0.0153799
911.381	0.0153188
911.459	0.0153605
911.538	0.0156078
911.616	0.0154684
911.694	0.0153298
911.772	0.0153639
911.850	0.0154211
911.928	0.0153408
912.006	0.0154424
912.084	0.0153841
912.163	0.0154188
912.241	0.0153910
912.319	0.0154443
912.397	0.0154537
912.475	0.0153522
912.553	0.0154266
912.631	0.0154485
912.709	0.0153458
912.788	0.0154163
912.866	0.0154111
912.944	0.0155263
913.022	0.0155142
913.100	0.0153719
913.178	0.0154448
913.256	0.0154639
913.334	0.0154609
913.413	0.0154686
913.491	0.0153674
913.569	0.0155130
913.647	0.0154905
913.725	0.0153481
913.803	0.0154481
913.881	0.0154307
913.959	0.0154811
914.038	0.0154607
914.116	0.0155170
914.194	0.0154188
914.272	0.0154192
914.350	0.0155262
914.428	0.0155899
914.506	0.0155778
914.584	0.0157252
914.663	0.0155648
914.741	0.0156754
914.819	0.0156725
914.897	0.0156155
914.975	0.0155665
915.053	0.0155609
915.131	0.0156792
915.209	0.0157236
915.288	0.0156990
915.366	0.0157012
915.444	0.0155836
915.522	0.0155748
915.600	0.0158167
915.678	0.0157204
915.756	0.0155785
915.834	0.0156049
915.913	0.0157368
915.991	0.0155001
916.069	0.0155530
916.147	0.0154295
916.225	0.0155106
916.303	0.0156031
916.381	0.0154237
916.459	0.0155191
916.538	0.0156248
916.616	0.0154458
916.694	0.0154337
916.772	0.0153896
916.850	0.0154739
916.928	0.0154332
917.006	0.0153823
917.084	0.0154346
917.163	0.0154277
917.241	0.0153691
917.319	0.0154984
917.397	0.0155389
917.475	0.0153028
917.553	0.0154965
917.631	0.0154128
917.709	0.0153539
917.788	0.0152854
917.866	0.0153938
917.944	0.0153944
918.022	0.0154173
918.100	0.0153569
918.178	0.0153574
918.256	0.0153732
918.334	0.0154144
918.413	0.0154273
918.491	0.0154856
918.569	0.0154414
918.647	0.0155589
918.725	0.0155151
918.803	0.0155223
918.881	0.0154102
918.959	0.0155423
919.038	0.0157494
919.116	0.0155151
919.194	0.0155513
919.272	0.0155680
919.350	0.0154575
919.428	0.0157043
919.506	0.0154556
919.584	0.0156229
919.663	0.0156513
919.741	0.0156309
919.819	0.0154341
919.897	0.0155675
