05/20/2022	21:19:39	Ver.	4.1	UNKNOWN
Optical Delay	599.975067	Delta X		0.078125	Sweeps	1	Scan Rate	0/0
Coordinates	Axis 1	NaN	Axis 2	NaN	Axis 3	NaN	Axis 4	NaN	Axis 5	NaN	Axis 6	0.000000
TX Power	0.000000	RX Power	0.000000

599.975	0.0151361
600.053	0.0151029
600.131	0.0149971
600.209	0.0151053
600.288	0.0150069
600.366	0.0152284
600.444	0.0150547
600.522	0.0150957
600.600	0.0151550
600.678	0.0150938
600.756	0.0151778
600.834	0.0151830
600.913	0.0153165
600.991	0.0151811
601.069	0.0151479
601.147	0.0152970
601.225	0.0151359
601.303	0.0152268
601.381	0.0152831
601.459	0.0151879
601.538	0.0150748
601.616	0.0152090
601.694	0.0152451
601.772	0.0152789
601.850	0.0151182
601.928	0.0151104
602.006	0.0152769
602.084	0.0152194
602.163	0.0151815
602.241	0.0151657
602.319	0.0151978
602.397	0.0151478
602.475	0.0152112
602.553	0.0151034
602.631	0.0153617
602.709	0.0153019
602.788	0.0151556
602.866	0.0151474
602.944	0.0149760
603.022	0.0152099
603.100	0.0151770
603.178	0.0151627
603.256	0.0150278
603.334	0.0150896
603.413	0.0152605
603.491	0.0151385
603.569	0.0152031
603.647	0.0152361
603.725	0.0152007
603.803	0.0152103
603.881	0.0151939
603.959	0.0151720
604.038	0.0151069
604.116	0.0153112
604.194	0.0150740
604.272	0.0150004
604.350	0.0150525
604.428	0.0151975
604.506	0.0151829
604.584	0.0151031
604.663	0.0151059
604.741	0.0151437
604.819	0.0151314
604.897	0.0150312
604.975	0.0151651
605.053	0.0151111
605.131	0.0151907
605.209	0.0151833
605.288	0.0152698
605.366	0.0150202
605.444	0.0150931
605.522	0.0151713
605.600	0.0151539
605.678	0.0151341
605.756	0.0151637
605.834	0.0149752
605.913	0.0152655
605.991	0.0151550
606.069	0.0151286
606.147	0.0150726
606.225	0.0152190
606.303	0.0151412
606.381	0.0149722
606.459	0.0150336
606.538	0.0150681
606.616	0.0150584
606.694	0.0149769
606.772	0.0149327
606.850	0.0151495
606.928	0.0151121
607.006	0.0150616
607.084	0.0150513
607.163	0.0150521
607.241	0.0150130
607.319	0.0150749
607.397	0.0151198
607.475	0.0150146
607.553	0.0149554
607.631	0.0148914
607.709	0.0149344
607.788	0.0151016
607.866	0.0151875
607.944	0.0149688
608.022	0.0149223
608.100	0.0150685
608.178	0.0150129
608.256	0.0149840
608.334	0.0150262
608.413	0.0150623
608.491	0.0150503
608.569	0.0150154
608.647	0.0149287
608.725	0.0149855
608.803	0.0150742
608.881	0.0149288
608.959	0.0149684
609.038	0.0151450
609.116	0.0151269
609.194	0.0150883
609.272	0.0149934
609.350	0.0149006
609.428	0.0150656
609.506	0.0151878
609.584	0.0151280
609.663	0.0150800
609.741	0.0149905
609.819	0.0149519
609.897	0.0150385
609.975	0.0151352
610.053	0.0150845
610.131	0.0149998
610.209	0.0150395
610.288	0.0150555
610.366	0.0148992
610.444	0.0149807
610.522	0.0150124
610.600	0.0148969
610.678	0.0149239
610.756	0.0150378
610.834	0.0149902
610.913	0.0148748
610.991	0.0150495
611.069	0.0149693
611.147	0.0148433
611.225	0.0149191
611.303	0.0150163
611.381	0.0150376
611.459	0.0148456
611.538	0.0148029
611.616	0.0148172
611.694	0.0149323
611.772	0.0150417
611.850	0.0150301
611.928	0.0150542
612.006	0.0151046
612.084	0.0150082
612.163	0.0149687
612.241	0.0150002
612.319	0.0150285
612.397	0.0149433
612.475	0.0150243
612.553	0.0149615
612.631	0.0149358
612.709	0.0149722
612.788	0.0151230
612.866	0.0149045
612.944	0.0150574
613.022	0.0152010
613.100	0.0149255
613.178	0.0149416
613.256	0.0151077
613.334	0.0152383
613.413	0.0150794
613.491	0.0151355
613.569	0.0151049
613.647	0.0150993
613.725	0.0151815
613.803	0.0151093
613.881	0.0151036
613.959	0.0150889
614.038	0.0150742
614.116	0.0151167
614.194	0.0152841
614.272	0.0151876
614.350	0.0152373
614.428	0.0150629
614.506	0.0150892
614.584	0.0152017
614.663	0.0151224
614.741	0.0150735
614.819	0.0151588
614.897	0.0152049
614.975	0.0150694
615.053	0.0150655
615.131	0.0151429
615.209	0.0152346
615.288	0.0151566
615.366	0.0151826
615.444	0.0151212
615.522	0.0150848
615.600	0.0151370
615.678	0.0150864
615.756	0.0151224
615.834	0.0152227
615.913	0.0151193
615.991	0.0151294
616.069	0.0149545
616.147	0.0150909
616.225	0.0150607
616.303	0.0149829
616.381	0.0149865
616.459	0.0151009
616.538	0.0151861
616.616	0.0150363
616.694	0.0150529
616.772	0.0149105
616.850	0.0150646
616.928	0.0149632
617.006	0.0149862
617.084	0.0150290
617.163	0.0150110
617.241	0.0149812
617.319	0.0150038
617.397	0.0150190
617.475	0.0150876
617.553	0.0150307
617.631	0.0150085
617.709	0.0151153
617.788	0.0150242
617.866	0.0149627
617.944	0.0149229
618.022	0.0149992
618.100	0.0151745
618.178	0.0151013
618.256	0.0150317
618.334	0.0150964
618.413	0.0152352
618.491	0.0149963
618.569	0.0149217
618.647	0.0151195
618.725	0.0152117
618.803	0.0151588
618.881	0.0152063
618.959	0.0150872
619.038	0.0151098
619.116	0.0151549
619.194	0.0152285
619.272	0.0150926
619.350	0.0152076
619.428	0.0152765
619.506	0.0152024
619.584	0.0151239
619.663	0.0153176
619.741	0.0152538
619.819	0.0153722
619.897	0.0153215
619.975	0.0152215
620.053	0.0154510
620.131	0.0154089
620.209	0.0153214
620.288	0.0154060
620.366	0.0151382
620.444	0.0152686
620.522	0.0153495
620.600	0.0152694
620.678	0.0153775
620.756	0.0152555
620.834	0.0151309
620.913	0.0151687
620.991	0.0153249
621.069	0.0151508
621.147	0.0151276
621.225	0.0150832
621.303	0.0152345
621.381	0.0151940
621.459	0.0152815
621.538	0.0151709
621.616	0.0152628
621.694	0.0152547
621.772	0.0151049
621.850	0.0151625
621.928	0.0152810
622.006	0.0152292
622.084	0.0152762
622.163	0.0152786
622.241	0.0152534
622.319	0.0154505
622.397	0.0152459
622.475	0.0152102
622.553	0.0152596
622.631	0.0152763
622.709	0.0153339
622.788	0.0153841
622.866	0.0153354
622.944	0.0152735
623.022	0.0152823
623.100	0.0151727
623.178	0.0152016
623.256	0.0150158
623.334	0.0151084
623.413	0.0150235
623.491	0.0151186
623.569	0.0151004
623.647	0.0149202
623.725	0.0149853
623.803	0.0150107
623.881	0.0149828
623.959	0.0150467
624.038	0.0149551
624.116	0.0148594
624.194	0.0150739
624.272	0.0150517
624.350	0.0151186
624.428	0.0151936
624.506	0.0152016
624.584	0.0151073
624.663	0.0150211
624.741	0.0151888
624.819	0.0152683
624.897	0.0151435
624.975	0.0151962
625.053	0.0152012
625.131	0.0152573
625.209	0.0152614
625.288	0.0152763
625.366	0.0151794
625.444	0.0152093
625.522	0.0151813
625.600	0.0152438
625.678	0.0153679
625.756	0.0150684
625.834	0.0151491
625.913	0.0151191
625.991	0.0152863
626.069	0.0150864
626.147	0.0151788
626.225	0.0151585
626.303	0.0150789
626.381	0.0152740
626.459	0.0153265
626.538	0.0151427
626.616	0.0152402
626.694	0.0151313
626.772	0.0151896
626.850	0.0152040
626.928	0.0150536
627.006	0.0151933
627.084	0.0151588
627.163	0.0152132
627.241	0.0152365
627.319	0.0152506
627.397	0.0151810
627.475	0.0151752
627.553	0.0150856
627.631	0.0151396
627.709	0.0150807
627.788	0.0153764
627.866	0.0151759
627.944	0.0152438
628.022	0.0151646
628.100	0.0152492
628.178	0.0150848
628.256	0.0149654
628.334	0.0151119
628.413	0.0150221
628.491	0.0151556
628.569	0.0149890
628.647	0.0150149
628.725	0.0148900
628.803	0.0150388
628.881	0.0150088
628.959	0.0148883
629.038	0.0146822
629.116	0.0148983
629.194	0.0149918
629.272	0.0148837
629.350	0.0149232
629.428	0.0149039
629.506	0.0148451
629.584	0.0148693
629.663	0.0147246
629.741	0.0149251
629.819	0.0149083
629.897	0.0148866
629.975	0.0148502
630.053	0.0148858
630.131	0.0149509
630.209	0.0149117
630.288	0.0149146
630.366	0.0148574
630.444	0.0148835
630.522	0.0148476
630.600	0.0150040
630.678	0.0148972
630.756	0.0149133
630.834	0.0149937
630.913	0.0148131
630.991	0.0149403
631.069	0.0149612
631.147	0.0148215
631.225	0.0149062
631.303	0.0149735
631.381	0.0148849
631.459	0.0148539
631.538	0.0147738
631.616	0.0150205
631.694	0.0149397
631.772	0.0148492
631.850	0.0149766
631.928	0.0149394
632.006	0.0150624
632.084	0.0151862
632.163	0.0151113
632.241	0.0151382
632.319	0.0150382
632.397	0.0150491
632.475	0.0152376
632.553	0.0150800
632.631	0.0150600
632.709	0.0152007
632.788	0.0151970
632.866	0.0150220
632.944	0.0150661
633.022	0.0150182
633.100	0.0151875
633.178	0.0152539
633.256	0.0150988
633.334	0.0151207
633.413	0.0150554
633.491	0.0151305
633.569	0.0152436
633.647	0.0151374
633.725	0.0152451
633.803	0.0151311
633.881	0.0150841
633.959	0.0151688
634.038	0.0152003
634.116	0.0151871
634.194	0.0151716
634.272	0.0151195
634.350	0.0152798
634.428	0.0151346
634.506	0.0151023
634.584	0.0150484
634.663	0.0150282
634.741	0.0152251
634.819	0.0150730
634.897	0.0151336
634.975	0.0152503
635.053	0.0149407
635.131	0.0149490
635.209	0.0150391
635.288	0.0150184
635.366	0.0152264
635.444	0.0152332
635.522	0.0151314
635.600	0.0149666
635.678	0.0149773
635.756	0.0150302
635.834	0.0151434
635.913	0.0151965
635.991	0.0150669
636.069	0.0151241
636.147	0.0150622
636.225	0.0150385
636.303	0.0150779
636.381	0.0149808
636.459	0.0150551
636.538	0.0151028
636.616	0.0150558
636.694	0.0150764
636.772	0.0151004
636.850	0.0151519
636.928	0.0148965
637.006	0.0150984
637.084	0.0151638
637.163	0.0150192
637.241	0.0150369
637.319	0.0150803
637.397	0.0150957
637.475	0.0152052
637.553	0.0150605
637.631	0.0150398
637.709	0.0151105
637.788	0.0150211
637.866	0.0151014
637.944	0.0150127
638.022	0.0151102
638.100	0.0150032
638.178	0.0151261
638.256	0.0151871
638.334	0.0150597
638.413	0.0150401
638.491	0.0150186
638.569	0.0150258
638.647	0.0150556
638.725	0.0152226
638.803	0.0151320
638.881	0.0151135
638.959	0.0150970
639.038	0.0152159
639.116	0.0149417
639.194	0.0150992
639.272	0.0150678
639.350	0.0150835
639.428	0.0152345
639.506	0.0151427
639.584	0.0151257
639.663	0.0151778
639.741	0.0151209
639.819	0.0152266
639.897	0.0150562
639.975	0.0149814
640.053	0.0152320
640.131	0.0152238
640.209	0.0152628
640.288	0.0151255
640.366	0.0150940
640.444	0.0151395
640.522	0.0150816
640.600	0.0151450
640.678	0.0151849
640.756	0.0151244
640.834	0.0151491
640.913	0.0151611
640.991	0.0152419
641.069	0.0152796
641.147	0.0150845
641.225	0.0151279
641.303	0.0152519
641.381	0.0151409
641.459	0.0151234
641.538	0.0150033
641.616	0.0150661
641.694	0.0151049
641.772	0.0151959
641.850	0.0151542
641.928	0.0150934
642.006	0.0151801
642.084	0.0151693
642.163	0.0152733
642.241	0.0151044
642.319	0.0152189
642.397	0.0152396
642.475	0.0151208
642.553	0.0151641
642.631	0.0151980
642.709	0.0151616
642.788	0.0151799
642.866	0.0152272
642.944	0.0152105
643.022	0.0151952
643.100	0.0152219
643.178	0.0152238
643.256	0.0150338
643.334	0.0151266
643.413	0.0152046
643.491	0.0151797
643.569	0.0151915
643.647	0.0151994
643.725	0.0152953
643.803	0.0152113
643.881	0.0151769
643.959	0.0152473
644.038	0.0151499
644.116	0.0150786
644.194	0.0153142
644.272	0.0152863
644.350	0.0151074
644.428	0.0150828
644.506	0.0151970
644.584	0.0152451
644.663	0.0151979
644.741	0.0150610
644.819	0.0151788
644.897	0.0150716
644.975	0.0149845
645.053	0.0151203
645.131	0.0150468
645.209	0.0150087
645.288	0.0150597
645.366	0.0149678
645.444	0.0151347
645.522	0.0152387
645.600	0.0151035
645.678	0.0150373
645.756	0.0151355
645.834	0.0151130
645.913	0.0152122
645.991	0.0151270
646.069	0.0150595
646.147	0.0150593
646.225	0.0152171
646.303	0.0151008
646.381	0.0152048
646.459	0.0151263
646.538	0.0150966
646.616	0.0152445
646.694	0.0151288
646.772	0.0152434
646.850	0.0153559
646.928	0.0152412
647.006	0.0150994
647.084	0.0151447
647.163	0.0151898
647.241	0.0151540
647.319	0.0150550
647.397	0.0152629
647.475	0.0152316
647.553	0.0151667
647.631	0.0152628
647.709	0.0152882
647.788	0.0151791
647.866	0.0151868
647.944	0.0150896
648.022	0.0152608
648.100	0.0150366
648.178	0.0151044
648.256	0.0150763
648.334	0.0152146
648.413	0.0152441
648.491	0.0151578
648.569	0.0150739
648.647	0.0152517
648.725	0.0151833
648.803	0.0151868
648.881	0.0153170
648.959	0.0153415
649.038	0.0152785
649.116	0.0153162
649.194	0.0153407
649.272	0.0153606
649.350	0.0153604
649.428	0.0152464
649.506	0.0151755
649.584	0.0153217
649.663	0.0152621
649.741	0.0152306
649.819	0.0151571
649.897	0.0152303
649.975	0.0153012
650.053	0.0152235
650.131	0.0152673
650.209	0.0153052
650.288	0.0151848
650.366	0.0152822
650.444	0.0152080
650.522	0.0151796
650.600	0.0151083
650.678	0.0152588
650.756	0.0152625
650.834	0.0152224
650.913	0.0151230
650.991	0.0150627
651.069	0.0152463
651.147	0.0151595
651.225	0.0152074
651.303	0.0151804
651.381	0.0151597
651.459	0.0151700
651.538	0.0152725
651.616	0.0151772
651.694	0.0151167
651.772	0.0151444
651.850	0.0152209
651.928	0.0150930
652.006	0.0151116
652.084	0.0150570
652.163	0.0150871
652.241	0.0150439
652.319	0.0151349
652.397	0.0151723
652.475	0.0151249
652.553	0.0150187
652.631	0.0151666
652.709	0.0151740
652.788	0.0150571
652.866	0.0151266
652.944	0.0151408
653.022	0.0150546
653.100	0.0151787
653.178	0.0151838
653.256	0.0151860
653.334	0.0151155
653.413	0.0151431
653.491	0.0151390
653.569	0.0150475
653.647	0.0152393
653.725	0.0152394
653.803	0.0152045
653.881	0.0151588
653.959	0.0151703
654.038	0.0151314
654.116	0.0152113
654.194	0.0153199
654.272	0.0152845
654.350	0.0152871
654.428	0.0152138
654.506	0.0152621
654.584	0.0153230
654.663	0.0151453
654.741	0.0152161
654.819	0.0151751
654.897	0.0151528
654.975	0.0152183
655.053	0.0151913
655.131	0.0152749
655.209	0.0152466
655.288	0.0152897
655.366	0.0153156
655.444	0.0152932
655.522	0.0151956
655.600	0.0151483
655.678	0.0151139
655.756	0.0150664
655.834	0.0152833
655.913	0.0151633
655.991	0.0152067
656.069	0.0151375
656.147	0.0151591
656.225	0.0150871
656.303	0.0151260
656.381	0.0150031
656.459	0.0151407
656.538	0.0150903
656.616	0.0150827
656.694	0.0150196
656.772	0.0150691
656.850	0.0151004
656.928	0.0151562
657.006	0.0151517
657.084	0.0151648
657.163	0.0150755
657.241	0.0151714
657.319	0.0151615
657.397	0.0150878
657.475	0.0151819
657.553	0.0153029
657.631	0.0152480
657.709	0.0152006
657.788	0.0152666
657.866	0.0152312
657.944	0.0151582
658.022	0.0152174
658.100	0.0151147
658.178	0.0152270
658.256	0.0150851
658.334	0.0151478
658.413	0.0151569
658.491	0.0151238
658.569	0.0150045
658.647	0.0151207
658.725	0.0151475
658.803	0.0151144
658.881	0.0150896
658.959	0.0150618
659.038	0.0151178
659.116	0.0151378
659.194	0.0149745
659.272	0.0149323
659.350	0.0150941
659.428	0.0149043
659.506	0.0149412
659.584	0.0150159
659.663	0.0150745
659.741	0.0151399
659.819	0.0151212
659.897	0.0151268
659.975	0.0150019
660.053	0.0150975
660.131	0.0150702
660.209	0.0148837
660.288	0.0150456
660.366	0.0150682
660.444	0.0149878
660.522	0.0149640
660.600	0.0149946
660.678	0.0149792
660.756	0.0149664
660.834	0.0150201
660.913	0.0150367
660.991	0.0150187
661.069	0.0149883
661.147	0.0151187
661.225	0.0151082
661.303	0.0150797
661.381	0.0150867
661.459	0.0150813
661.538	0.0150307
661.616	0.0152171
661.694	0.0153741
661.772	0.0151021
661.850	0.0153455
661.928	0.0151707
662.006	0.0150631
662.084	0.0150759
662.163	0.0150449
662.241	0.0149958
662.319	0.0151316
662.397	0.0150418
662.475	0.0150182
662.553	0.0150005
662.631	0.0150018
662.709	0.0150885
662.788	0.0150022
662.866	0.0150094
662.944	0.0151138
663.022	0.0151707
663.100	0.0151685
663.178	0.0152309
663.256	0.0152071
663.334	0.0151607
663.413	0.0151064
663.491	0.0151912
663.569	0.0151484
663.647	0.0151759
663.725	0.0150835
663.803	0.0150777
663.881	0.0149822
663.959	0.0150586
664.038	0.0150673
664.116	0.0149570
664.194	0.0149646
664.272	0.0148663
664.350	0.0147635
664.428	0.0147986
664.506	0.0147820
664.584	0.0149933
664.663	0.0147744
664.741	0.0147775
664.819	0.0148286
664.897	0.0148606
664.975	0.0149617
665.053	0.0148005
665.131	0.0149107
665.209	0.0150951
665.288	0.0150494
665.366	0.0150800
665.444	0.0151521
665.522	0.0152956
665.600	0.0151920
665.678	0.0151672
665.756	0.0152398
665.834	0.0152950
665.913	0.0154897
665.991	0.0154379
666.069	0.0153965
666.147	0.0154880
666.225	0.0153517
666.303	0.0153941
666.381	0.0153993
666.459	0.0153495
666.538	0.0152982
666.616	0.0152679
666.694	0.0152005
666.772	0.0151511
666.850	0.0151319
666.928	0.0151766
667.006	0.0150146
667.084	0.0148540
667.163	0.0148483
667.241	0.0148903
667.319	0.0148719
667.397	0.0147239
667.475	0.0148282
667.553	0.0147639
667.631	0.0146722
667.709	0.0146124
667.788	0.0145844
667.866	0.0148169
667.944	0.0146903
668.022	0.0144196
668.100	0.0145457
668.178	0.0144952
668.256	0.0145055
668.334	0.0146513
668.413	0.0146241
668.491	0.0146722
668.569	0.0146836
668.647	0.0147912
668.725	0.0147797
668.803	0.0148941
668.881	0.0148772
668.959	0.0150655
669.038	0.0150598
669.116	0.0153051
669.194	0.0153128
669.272	0.0153354
669.350	0.0154676
669.428	0.0155107
669.506	0.0155733
669.584	0.0156639
669.663	0.0156868
669.741	0.0157788
669.819	0.0158788
669.897	0.0157773
669.975	0.0157993
670.053	0.0158211
670.131	0.0158340
670.209	0.0157455
670.288	0.0158399
670.366	0.0156505
670.444	0.0156011
670.522	0.0155563
670.600	0.0154928
670.678	0.0154317
670.756	0.0151939
670.834	0.0151168
670.913	0.0151675
670.991	0.0150257
671.069	0.0146924
671.147	0.0146858
671.225	0.0145249
671.303	0.0142211
671.381	0.0141251
671.459	0.0140257
671.538	0.0139763
671.616	0.0137719
671.694	0.0138259
671.772	0.0135873
671.850	0.0136026
671.928	0.0137093
672.006	0.0136118
672.084	0.0136235
672.163	0.0136912
672.241	0.0137753
672.319	0.0138322
672.397	0.0141512
672.475	0.0142609
672.553	0.0142950
672.631	0.0146014
672.709	0.0148693
672.788	0.0150577
672.866	0.0152137
672.944	0.0154893
673.022	0.0157283
673.100	0.0159103
673.178	0.0160479
673.256	0.0164248
673.334	0.0165475
673.413	0.0167030
673.491	0.0169002
673.569	0.0168696
673.647	0.0170646
673.725	0.0170984
673.803	0.0171465
673.881	0.0172475
673.959	0.0172966
674.038	0.0170814
674.116	0.0170500
674.194	0.0168234
674.272	0.0168269
674.350	0.0165636
674.428	0.0162084
674.506	0.0161298
674.584	0.0160880
674.663	0.0156666
674.741	0.0154636
674.819	0.0152618
674.897	0.0149790
674.975	0.0147323
675.053	0.0146751
675.131	0.0144152
675.209	0.0142641
675.288	0.0140204
675.366	0.0139665
675.444	0.0136877
675.522	0.0137677
675.600	0.0135508
675.678	0.0136053
675.756	0.0133105
675.834	0.0133019
675.913	0.0133056
675.991	0.0132053
676.069	0.0132769
676.147	0.0133056
676.225	0.0132729
676.303	0.0132921
676.381	0.0133537
676.459	0.0136796
676.538	0.0139615
676.616	0.0141875
676.694	0.0142745
676.772	0.0146755
676.850	0.0149500
676.928	0.0153873
677.006	0.0155658
677.084	0.0159367
677.163	0.0161043
677.241	0.0162724
677.319	0.0166128
677.397	0.0169267
677.475	0.0171786
677.553	0.0172442
677.631	0.0174616
677.709	0.0174636
677.788	0.0176295
677.866	0.0176391
677.944	0.0175430
678.022	0.0174658
678.100	0.0174245
678.178	0.0173667
678.256	0.0170288
678.334	0.0169567
678.413	0.0167317
678.491	0.0164291
678.569	0.0163173
678.647	0.0158921
678.725	0.0156651
678.803	0.0154012
678.881	0.0151187
678.959	0.0149107
679.038	0.0146561
679.116	0.0144503
679.194	0.0142856
679.272	0.0141167
679.350	0.0138332
679.428	0.0136702
679.506	0.0136615
679.584	0.0135775
679.663	0.0136573
679.741	0.0135558
679.819	0.0136646
679.897	0.0136749
679.975	0.0137228
680.053	0.0137790
680.131	0.0139782
680.209	0.0140140
680.288	0.0142686
680.366	0.0144196
680.444	0.0145277
680.522	0.0147611
680.600	0.0150766
680.678	0.0152440
680.756	0.0153306
680.834	0.0155670
680.913	0.0156406
680.991	0.0156550
681.069	0.0158229
681.147	0.0158468
681.225	0.0156304
681.303	0.0158298
681.381	0.0158911
681.459	0.0158919
681.538	0.0155800
681.616	0.0156942
681.694	0.0155235
681.772	0.0155099
681.850	0.0153882
681.928	0.0151068
682.006	0.0150549
682.084	0.0151082
682.163	0.0149080
682.241	0.0149133
682.319	0.0146255
682.397	0.0144627
682.475	0.0144750
682.553	0.0143485
682.631	0.0144714
682.709	0.0143202
682.788	0.0142136
682.866	0.0144048
682.944	0.0144177
683.022	0.0144613
683.100	0.0147730
683.178	0.0147688
683.256	0.0148723
683.334	0.0151312
683.413	0.0152496
683.491	0.0153890
683.569	0.0155694
683.647	0.0155928
683.725	0.0157156
683.803	0.0158230
683.881	0.0159595
683.959	0.0160116
684.038	0.0158901
684.116	0.0159148
684.194	0.0161940
684.272	0.0161792
684.350	0.0161138
684.428	0.0163534
684.506	0.0160141
684.584	0.0161980
684.663	0.0161550
684.741	0.0161358
684.819	0.0160978
684.897	0.0158824
684.975	0.0158763
685.053	0.0156624
685.131	0.0155323
685.209	0.0154989
685.288	0.0152255
685.366	0.0149698
685.444	0.0148843
685.522	0.0147927
685.600	0.0147091
685.678	0.0147075
685.756	0.0145168
685.834	0.0145309
685.913	0.0144662
685.991	0.0143902
686.069	0.0142863
686.147	0.0143581
686.225	0.0142204
686.303	0.0144711
686.381	0.0142885
686.459	0.0140252
686.538	0.0141799
686.616	0.0141315
686.694	0.0139899
686.772	0.0139987
686.850	0.0141116
686.928	0.0141104
687.006	0.0141175
687.084	0.0140745
687.163	0.0141505
687.241	0.0141400
687.319	0.0142255
687.397	0.0143630
687.475	0.0145277
687.553	0.0144380
687.631	0.0144650
687.709	0.0144609
687.788	0.0146668
687.866	0.0145889
687.944	0.0146734
688.022	0.0146453
688.100	0.0147924
688.178	0.0146748
688.256	0.0146947
688.334	0.0150323
688.413	0.0149046
688.491	0.0150730
688.569	0.0150632
688.647	0.0151138
688.725	0.0151621
688.803	0.0153769
688.881	0.0154651
688.959	0.0158463
689.038	0.0159069
689.116	0.0160624
689.194	0.0161874
689.272	0.0165116
689.350	0.0164942
689.428	0.0165103
689.506	0.0167639
689.584	0.0167630
689.663	0.0167839
689.741	0.0167590
689.819	0.0168434
689.897	0.0167600
689.975	0.0167780
690.053	0.0166587
690.131	0.0165498
690.209	0.0166170
690.288	0.0164751
690.366	0.0162363
690.444	0.0160748
690.522	0.0159442
690.600	0.0158238
690.678	0.0154910
690.756	0.0150886
690.834	0.0147824
690.913	0.0144923
690.991	0.0142372
691.069	0.0139448
691.147	0.0136530
691.225	0.0132382
691.303	0.0130483
691.381	0.0129350
691.459	0.0126794
691.538	0.0126218
691.616	0.0126952
691.694	0.0125095
691.772	0.0124197
691.850	0.0124567
691.928	0.0123697
692.006	0.0125249
692.084	0.0125940
692.163	0.0129410
692.241	0.0129939
692.319	0.0131921
692.397	0.0134544
692.475	0.0136600
692.553	0.0140540
692.631	0.0142970
692.709	0.0148447
692.788	0.0153194
692.866	0.0157384
692.944	0.0160749
693.022	0.0164785
693.100	0.0168875
693.178	0.0172384
693.256	0.0174127
693.334	0.0175137
693.413	0.0176355
693.491	0.0177633
693.569	0.0176006
693.647	0.0174453
693.725	0.0173559
693.803	0.0173541
693.881	0.0170813
693.959	0.0167609
694.038	0.0164593
694.116	0.0159843
694.194	0.0158660
694.272	0.0156023
694.350	0.0154658
694.428	0.0151550
694.506	0.0149801
694.584	0.0147923
694.663	0.0145434
694.741	0.0143484
694.819	0.0141137
694.897	0.0139345
694.975	0.0137601
695.053	0.0136474
695.131	0.0134790
695.209	0.0132262
695.288	0.0132459
695.366	0.0133092
695.444	0.0130453
695.522	0.0131523
695.600	0.0131850
695.678	0.0133601
695.756	0.0135220
695.834	0.0136361
695.913	0.0139558
695.991	0.0142882
696.069	0.0144828
696.147	0.0146994
696.225	0.0149760
696.303	0.0151563
696.381	0.0152247
696.459	0.0154734
696.538	0.0158812
696.616	0.0160572
696.694	0.0159995
696.772	0.0162170
696.850	0.0164249
696.928	0.0164075
697.006	0.0166096
697.084	0.0167368
697.163	0.0168405
697.241	0.0169073
697.319	0.0169106
697.397	0.0168944
697.475	0.0166996
697.553	0.0167109
697.631	0.0165439
697.709	0.0163116
697.788	0.0161070
697.866	0.0158601
697.944	0.0157615
698.022	0.0153963
698.100	0.0149912
698.178	0.0148228
698.256	0.0144525
698.334	0.0142503
698.413	0.0139740
698.491	0.0137455
698.569	0.0135469
698.647	0.0136073
698.725	0.0133358
698.803	0.0133819
698.881	0.0134197
698.959	0.0133031
699.038	0.0134060
699.116	0.0135361
699.194	0.0134444
699.272	0.0137650
699.350	0.0139583
699.428	0.0140218
699.506	0.0140264
699.584	0.0143273
699.663	0.0144074
699.741	0.0145698
699.819	0.0148486
699.897	0.0150785
699.975	0.0151952
700.053	0.0152913
700.131	0.0156304
700.209	0.0159444
700.288	0.0161713
700.366	0.0164294
700.444	0.0166569
700.522	0.0169134
700.600	0.0171239
700.678	0.0173365
700.756	0.0172686
700.834	0.0173061
700.913	0.0174307
700.991	0.0172450
701.069	0.0171346
701.147	0.0169986
701.225	0.0168831
701.303	0.0167565
701.381	0.0165122
701.459	0.0162994
701.538	0.0160323
701.616	0.0158060
701.694	0.0155785
701.772	0.0152300
701.850	0.0152129
701.928	0.0148430
702.006	0.0147451
702.084	0.0144180
702.163	0.0140613
702.241	0.0139407
702.319	0.0135654
702.397	0.0134586
702.475	0.0134359
702.553	0.0132187
702.631	0.0131400
702.709	0.0131250
702.788	0.0131941
702.866	0.0130749
702.944	0.0131532
703.022	0.0131520
703.100	0.0135023
703.178	0.0135301
703.256	0.0138848
703.334	0.0139551
703.413	0.0141518
703.491	0.0143863
703.569	0.0146728
703.647	0.0148581
703.725	0.0150616
703.803	0.0152507
703.881	0.0155295
703.959	0.0158138
704.038	0.0158812
704.116	0.0160854
704.194	0.0163107
704.272	0.0164957
704.350	0.0165473
704.428	0.0165974
704.506	0.0165997
704.584	0.0167496
704.663	0.0167615
704.741	0.0167372
704.819	0.0165113
704.897	0.0165257
704.975	0.0164195
705.053	0.0163010
705.131	0.0160585
705.209	0.0158025
705.288	0.0154791
705.366	0.0151711
705.444	0.0149734
705.522	0.0147514
705.600	0.0145637
705.678	0.0141749
705.756	0.0138559
705.834	0.0138596
705.913	0.0135870
705.991	0.0136980
706.069	0.0135764
706.147	0.0137257
706.225	0.0137813
706.303	0.0139368
706.381	0.0139502
706.459	0.0143605
706.538	0.0143880
706.616	0.0147934
706.694	0.0152218
706.772	0.0154211
706.850	0.0155884
706.928	0.0157494
707.006	0.0161462
707.084	0.0162265
707.163	0.0163756
707.241	0.0165650
707.319	0.0167294
707.397	0.0168707
707.475	0.0169552
707.553	0.0169663
707.631	0.0170876
707.709	0.0170365
707.788	0.0169845
707.866	0.0168324
707.944	0.0167336
708.022	0.0166457
708.100	0.0165495
708.178	0.0162741
708.256	0.0159593
708.334	0.0157343
708.413	0.0153919
708.491	0.0149335
708.569	0.0147614
708.647	0.0145431
708.725	0.0141547
708.803	0.0138825
708.881	0.0135162
708.959	0.0132597
709.038	0.0132521
709.116	0.0129829
709.194	0.0129135
709.272	0.0129519
709.350	0.0127764
709.428	0.0126900
709.506	0.0125359
709.584	0.0125143
709.663	0.0125723
709.741	0.0126966
709.819	0.0127614
709.897	0.0129365
709.975	0.0131679
710.053	0.0133226
710.131	0.0136153
710.209	0.0139648
710.288	0.0142461
710.366	0.0146027
710.444	0.0149660
710.522	0.0153376
710.600	0.0155359
710.678	0.0158213
710.756	0.0160726
710.834	0.0164854
710.913	0.0165628
710.991	0.0166410
711.069	0.0166715
711.147	0.0167260
711.225	0.0166129
711.303	0.0166681
711.381	0.0165048
711.459	0.0162737
711.538	0.0164195
711.616	0.0162191
711.694	0.0160981
711.772	0.0161221
711.850	0.0160036
711.928	0.0158152
712.006	0.0158205
712.084	0.0157582
712.163	0.0158266
712.241	0.0154774
712.319	0.0154697
712.397	0.0154274
712.475	0.0153286
712.553	0.0152828
712.631	0.0153912
712.709	0.0153896
712.788	0.0150661
712.866	0.0151543
712.944	0.0151757
713.022	0.0153111
713.100	0.0152826
713.178	0.0154909
713.256	0.0153372
713.334	0.0153842
713.413	0.0153914
713.491	0.0154028
713.569	0.0152491
713.647	0.0151374
713.725	0.0151150
713.803	0.0151578
713.881	0.0148402
713.959	0.0147534
714.038	0.0145578
714.116	0.0144978
714.194	0.0141713
714.272	0.0141337
714.350	0.0140631
714.428	0.0139703
714.506	0.0138633
714.584	0.0139075
714.663	0.0139827
714.741	0.0139870
714.819	0.0138738
714.897	0.0139106
714.975	0.0139834
715.053	0.0140715
715.131	0.0139053
715.209	0.0137836
715.288	0.0136594
715.366	0.0136741
715.444	0.0138923
715.522	0.0139901
715.600	0.0138821
715.678	0.0141253
715.756	0.0143211
715.834	0.0144015
715.913	0.0146511
715.991	0.0148876
716.069	0.0151939
716.147	0.0151801
716.225	0.0153843
716.303	0.0155487
716.381	0.0156167
716.459	0.0157558
716.538	0.0159479
716.616	0.0158960
716.694	0.0158092
716.772	0.0159085
716.850	0.0159073
716.928	0.0159372
717.006	0.0159451
717.084	0.0158355
717.163	0.0158922
717.241	0.0157298
717.319	0.0156822
717.397	0.0157800
717.475	0.0157237
717.553	0.0157130
717.631	0.0156157
717.709	0.0155904
717.788	0.0156480
717.866	0.0154481
717.944	0.0154879
718.022	0.0154196
718.100	0.0154391
718.178	0.0153870
718.256	0.0153999
718.334	0.0153011
718.413	0.0153616
718.491	0.0154137
718.569	0.0152830
718.647	0.0152794
718.725	0.0152480
718.803	0.0152760
718.881	0.0152857
718.959	0.0153838
719.038	0.0153011
719.116	0.0152275
719.194	0.0151737
719.272	0.0152890
719.350	0.0151800
719.428	0.0151785
719.506	0.0152635
719.584	0.0152846
719.663	0.0152106
719.741	0.0151303
719.819	0.0150891
719.897	0.0149831
719.975	0.0150242
720.053	0.0150191
720.131	0.0150308
720.209	0.0151271
720.288	0.0150382
720.366	0.0150159
720.444	0.0150095
720.522	0.0149407
720.600	0.0148904
720.678	0.0147382
720.756	0.0147803
720.834	0.0147266
720.913	0.0146231
720.991	0.0146142
721.069	0.0146521
721.147	0.0146515
721.225	0.0146558
721.303	0.0146573
721.381	0.0145681
721.459	0.0145804
721.538	0.0146053
721.616	0.0145544
721.694	0.0145941
721.772	0.0145552
721.850	0.0147422
721.928	0.0147721
722.006	0.0148185
722.084	0.0149842
722.163	0.0149339
722.241	0.0151331
722.319	0.0154050
722.397	0.0154942
722.475	0.0156030
722.553	0.0156976
722.631	0.0158768
722.709	0.0159579
722.788	0.0160250
722.866	0.0160243
722.944	0.0161597
723.022	0.0162167
723.100	0.0162572
723.178	0.0162797
723.256	0.0161337
723.334	0.0161127
723.413	0.0159771
723.491	0.0158120
723.569	0.0156954
723.647	0.0154195
723.725	0.0153436
723.803	0.0152277
723.881	0.0150888
723.959	0.0148085
724.038	0.0146227
724.116	0.0145542
724.194	0.0143452
724.272	0.0143288
724.350	0.0141209
724.428	0.0139953
724.506	0.0138029
724.584	0.0138158
724.663	0.0136558
724.741	0.0137812
724.819	0.0136687
724.897	0.0137257
724.975	0.0137389
725.053	0.0137798
725.131	0.0136924
725.209	0.0137788
725.288	0.0139927
725.366	0.0140939
725.444	0.0141984
725.522	0.0142443
725.600	0.0141910
725.678	0.0142808
725.756	0.0144021
725.834	0.0144479
725.913	0.0145335
725.991	0.0147468
726.069	0.0147523
726.147	0.0149168
726.225	0.0150102
726.303	0.0151762
726.381	0.0153675
726.459	0.0154730
726.538	0.0156478
726.616	0.0156796
726.694	0.0159115
726.772	0.0161063
726.850	0.0161411
726.928	0.0160461
727.006	0.0161834
727.084	0.0161530
727.163	0.0163084
727.241	0.0164370
727.319	0.0164729
727.397	0.0164206
727.475	0.0165245
727.553	0.0166199
727.631	0.0166190
727.709	0.0165141
727.788	0.0166528
727.866	0.0165453
727.944	0.0164835
728.022	0.0165403
728.100	0.0165919
728.178	0.0164495
728.256	0.0163767
728.334	0.0163992
728.413	0.0162708
728.491	0.0159649
728.569	0.0158805
728.647	0.0156535
728.725	0.0153835
728.803	0.0153684
728.881	0.0151989
728.959	0.0149950
729.038	0.0148067
729.116	0.0145133
729.194	0.0144913
729.272	0.0142731
729.350	0.0140686
729.428	0.0138821
729.506	0.0136626
729.584	0.0136011
729.663	0.0134210
729.741	0.0132924
729.819	0.0131337
729.897	0.0131291
729.975	0.0128872
730.053	0.0129025
730.131	0.0127929
730.209	0.0127940
730.288	0.0126011
730.366	0.0126879
730.444	0.0127463
730.522	0.0127542
730.600	0.0129640
730.678	0.0129871
730.756	0.0130374
730.834	0.0131873
730.913	0.0134773
730.991	0.0136384
731.069	0.0140529
731.147	0.0143416
731.225	0.0144798
731.303	0.0147095
731.381	0.0151021
731.459	0.0152593
731.538	0.0154784
731.616	0.0158399
731.694	0.0160198
731.772	0.0162357
731.850	0.0165820
731.928	0.0167019
732.006	0.0169257
732.084	0.0171707
732.163	0.0172819
732.241	0.0174551
732.319	0.0174728
732.397	0.0175037
732.475	0.0176234
732.553	0.0176231
732.631	0.0177150
732.709	0.0175569
732.788	0.0175741
732.866	0.0176527
732.944	0.0174958
733.022	0.0171389
733.100	0.0169860
733.178	0.0168082
733.256	0.0164575
733.334	0.0162640
733.413	0.0160101
733.491	0.0157315
733.569	0.0154895
733.647	0.0151846
733.725	0.0148196
733.803	0.0147610
733.881	0.0145179
733.959	0.0140265
734.038	0.0139623
734.116	0.0137672
734.194	0.0137168
734.272	0.0134823
734.350	0.0135074
734.428	0.0135122
734.506	0.0134744
734.584	0.0135136
734.663	0.0135235
734.741	0.0136192
734.819	0.0137975
734.897	0.0138400
734.975	0.0139529
735.053	0.0142118
735.131	0.0142773
735.209	0.0145601
735.288	0.0146056
735.366	0.0147060
735.444	0.0149313
735.522	0.0150579
735.600	0.0150323
735.678	0.0150991
735.756	0.0152760
735.834	0.0154141
735.913	0.0150730
735.991	0.0151482
736.069	0.0152419
736.147	0.0150999
736.225	0.0149760
736.303	0.0149570
736.381	0.0147939
736.459	0.0147060
736.538	0.0148076
736.616	0.0147928
736.694	0.0147787
736.772	0.0146736
736.850	0.0145064
736.928	0.0144669
737.006	0.0146812
737.084	0.0145968
737.163	0.0146976
737.241	0.0147326
737.319	0.0146743
737.397	0.0148162
737.475	0.0148792
737.553	0.0150148
737.631	0.0151099
737.709	0.0151141
737.788	0.0154724
737.866	0.0155390
737.944	0.0157304
738.022	0.0157829
738.100	0.0159881
738.178	0.0158820
738.256	0.0158135
738.334	0.0159682
738.413	0.0159058
738.491	0.0159394
738.569	0.0158927
738.647	0.0158884
738.725	0.0157592
738.803	0.0156320
738.881	0.0156353
738.959	0.0155811
739.038	0.0156203
739.116	0.0153980
739.194	0.0153353
739.272	0.0151922
739.350	0.0151641
739.428	0.0149965
739.506	0.0148810
739.584	0.0148611
739.663	0.0148785
739.741	0.0147588
739.819	0.0145612
739.897	0.0144444
739.975	0.0142833
740.053	0.0141196
740.131	0.0142368
740.209	0.0141504
740.288	0.0140037
740.366	0.0139632
740.444	0.0140216
740.522	0.0141233
740.600	0.0141440
740.678	0.0142818
740.756	0.0143629
740.834	0.0145402
740.913	0.0147247
740.991	0.0149189
741.069	0.0151016
741.147	0.0152263
741.225	0.0154586
741.303	0.0155814
741.381	0.0156874
741.459	0.0157458
741.538	0.0160541
741.616	0.0161495
741.694	0.0161121
741.772	0.0162003
741.850	0.0163696
741.928	0.0164555
742.006	0.0163607
742.084	0.0165379
742.163	0.0164198
742.241	0.0164928
742.319	0.0165915
742.397	0.0165279
742.475	0.0164007
742.553	0.0162186
742.631	0.0160684
742.709	0.0159997
742.788	0.0158507
742.866	0.0156226
742.944	0.0156053
743.022	0.0155577
743.100	0.0152354
743.178	0.0150352
743.256	0.0149337
743.334	0.0149526
743.413	0.0147038
743.491	0.0146823
743.569	0.0146736
743.647	0.0145491
743.725	0.0146592
743.803	0.0145607
743.881	0.0144173
743.959	0.0143360
744.038	0.0143786
744.116	0.0143592
744.194	0.0143450
744.272	0.0141600
744.350	0.0141479
744.428	0.0141772
744.506	0.0140508
744.584	0.0142027
744.663	0.0143983
744.741	0.0142746
744.819	0.0142481
744.897	0.0143066
744.975	0.0144575
745.053	0.0145394
745.131	0.0144612
745.209	0.0145521
745.288	0.0146320
745.366	0.0145200
745.444	0.0146610
745.522	0.0147702
745.600	0.0146747
745.678	0.0146764
745.756	0.0146003
745.834	0.0146712
745.913	0.0147131
745.991	0.0147257
746.069	0.0147688
746.147	0.0147866
746.225	0.0147892
746.303	0.0148390
746.381	0.0149125
746.459	0.0148696
746.538	0.0149651
746.616	0.0151654
746.694	0.0148308
746.772	0.0150367
746.850	0.0151208
746.928	0.0152023
747.006	0.0151984
747.084	0.0151883
747.163	0.0153128
747.241	0.0153176
747.319	0.0154317
747.397	0.0154655
747.475	0.0155237
747.553	0.0156762
747.631	0.0156622
747.709	0.0157601
747.788	0.0158336
747.866	0.0158231
747.944	0.0160939
748.022	0.0160796
748.100	0.0162645
748.178	0.0160619
748.256	0.0161884
748.334	0.0161616
748.413	0.0161475
748.491	0.0160752
748.569	0.0160395
748.647	0.0158972
748.725	0.0156764
748.803	0.0155652
748.881	0.0154767
748.959	0.0153050
749.038	0.0151199
749.116	0.0149211
749.194	0.0147786
749.272	0.0147433
749.350	0.0147841
749.428	0.0146925
749.506	0.0146564
749.584	0.0144360
749.663	0.0145084
749.741	0.0146474
749.819	0.0145708
749.897	0.0146579
749.975	0.0146969
750.053	0.0146736
750.131	0.0148238
750.209	0.0148623
750.288	0.0151640
750.366	0.0150211
750.444	0.0149141
750.522	0.0151625
750.600	0.0151170
750.678	0.0151710
750.756	0.0153464
750.834	0.0153325
750.913	0.0153954
750.991	0.0155231
751.069	0.0156177
751.147	0.0155677
751.225	0.0155482
751.303	0.0155724
751.381	0.0153838
751.459	0.0154446
751.538	0.0152779
751.616	0.0155157
751.694	0.0153381
751.772	0.0152998
751.850	0.0154007
751.928	0.0153625
752.006	0.0151500
752.084	0.0151006
752.163	0.0151273
752.241	0.0151488
752.319	0.0150337
752.397	0.0149255
752.475	0.0148244
752.553	0.0149021
752.631	0.0147800
752.709	0.0146294
752.788	0.0145740
752.866	0.0145067
752.944	0.0144547
753.022	0.0145117
753.100	0.0144296
753.178	0.0143004
753.256	0.0141939
753.334	0.0142558
753.413	0.0140973
753.491	0.0143013
753.569	0.0142508
753.647	0.0142185
753.725	0.0142651
753.803	0.0142525
753.881	0.0142371
753.959	0.0142497
754.038	0.0143758
754.116	0.0142092
754.194	0.0144956
754.272	0.0145500
754.350	0.0146819
754.428	0.0148969
754.506	0.0148598
754.584	0.0149892
754.663	0.0151085
754.741	0.0154157
754.819	0.0153414
754.897	0.0153018
754.975	0.0155026
755.053	0.0158241
755.131	0.0160037
755.209	0.0161356
755.288	0.0161637
755.366	0.0162553
755.444	0.0162043
755.522	0.0163009
755.600	0.0162774
755.678	0.0164424
755.756	0.0162778
755.834	0.0163191
755.913	0.0162028
755.991	0.0161336
756.069	0.0160249
756.147	0.0159115
756.225	0.0157035
756.303	0.0157719
756.381	0.0155843
756.459	0.0155445
756.538	0.0155209
756.616	0.0154129
756.694	0.0152575
756.772	0.0150136
756.850	0.0149331
756.928	0.0148997
757.006	0.0149011
757.084	0.0145919
757.163	0.0145750
757.241	0.0146447
757.319	0.0145067
757.397	0.0144180
757.475	0.0145188
757.553	0.0145147
757.631	0.0145745
757.709	0.0145240
757.788	0.0146751
757.866	0.0147148
757.944	0.0146899
758.022	0.0147767
758.100	0.0149850
758.178	0.0148860
758.256	0.0148693
758.334	0.0148872
758.413	0.0148945
758.491	0.0147456
758.569	0.0148416
758.647	0.0148914
758.725	0.0150556
758.803	0.0148009
758.881	0.0149751
758.959	0.0149441
759.038	0.0148013
759.116	0.0149352
759.194	0.0149760
759.272	0.0149925
759.350	0.0150330
759.428	0.0148839
759.506	0.0149810
759.584	0.0151698
759.663	0.0150038
759.741	0.0150469
759.819	0.0151704
759.897	0.0151715
759.975	0.0150981
760.053	0.0151450
760.131	0.0150962
760.209	0.0151764
760.288	0.0150666
760.366	0.0152764
760.444	0.0151130
760.522	0.0152767
760.600	0.0151409
760.678	0.0152748
760.756	0.0154448
760.834	0.0153102
760.913	0.0153046
760.991	0.0153419
761.069	0.0154528
761.147	0.0155193
761.225	0.0155421
761.303	0.0155347
761.381	0.0154198
761.459	0.0155688
761.538	0.0155874
761.616	0.0156660
761.694	0.0155753
761.772	0.0154794
761.850	0.0154900
761.928	0.0154865
762.006	0.0154864
762.084	0.0152682
762.163	0.0152114
762.241	0.0151939
762.319	0.0149416
762.397	0.0148370
762.475	0.0148080
762.553	0.0146455
762.631	0.0146011
762.709	0.0145235
762.788	0.0144047
762.866	0.0143582
762.944	0.0144181
763.022	0.0144065
763.100	0.0144449
763.178	0.0143829
763.256	0.0143655
763.334	0.0145296
763.413	0.0146823
763.491	0.0147809
763.569	0.0147800
763.647	0.0147820
763.725	0.0150297
763.803	0.0151484
763.881	0.0150090
763.959	0.0153753
764.038	0.0152288
764.116	0.0153066
764.194	0.0153562
764.272	0.0154819
764.350	0.0156130
764.428	0.0155301
764.506	0.0154963
764.584	0.0155834
764.663	0.0155700
764.741	0.0156210
764.819	0.0157109
764.897	0.0156628
764.975	0.0157415
765.053	0.0158727
765.131	0.0157803
765.209	0.0157273
765.288	0.0158873
765.366	0.0157841
765.444	0.0159500
765.522	0.0158895
765.600	0.0157231
765.678	0.0158325
765.756	0.0156760
765.834	0.0155127
765.913	0.0156477
765.991	0.0157171
766.069	0.0155394
766.147	0.0155363
766.225	0.0155766
766.303	0.0155006
766.381	0.0155418
766.459	0.0155421
766.538	0.0154305
766.616	0.0152629
766.694	0.0154694
766.772	0.0153652
766.850	0.0154064
766.928	0.0151446
767.006	0.0151184
767.084	0.0149876
767.163	0.0146433
767.241	0.0147404
767.319	0.0144121
767.397	0.0144022
767.475	0.0143420
767.553	0.0141473
767.631	0.0142133
767.709	0.0139189
767.788	0.0140264
767.866	0.0140895
767.944	0.0140945
768.022	0.0141582
768.100	0.0140726
768.178	0.0143082
768.256	0.0142529
768.334	0.0141927
768.413	0.0144690
768.491	0.0146358
768.569	0.0145615
768.647	0.0147146
768.725	0.0148859
768.803	0.0149357
768.881	0.0149612
768.959	0.0149986
769.038	0.0151128
769.116	0.0151350
769.194	0.0151678
769.272	0.0153993
769.350	0.0155009
769.428	0.0154160
769.506	0.0154510
769.584	0.0154604
769.663	0.0155392
769.741	0.0154504
769.819	0.0154999
769.897	0.0156598
769.975	0.0153796
770.053	0.0156784
770.131	0.0155241
770.209	0.0157680
770.288	0.0156125
770.366	0.0155634
770.444	0.0156174
770.522	0.0157367
770.600	0.0156956
770.678	0.0156703
770.756	0.0156091
770.834	0.0156265
770.913	0.0158125
770.991	0.0157819
771.069	0.0155894
771.147	0.0156029
771.225	0.0156283
771.303	0.0156499
771.381	0.0155405
771.459	0.0153317
771.538	0.0151125
771.616	0.0151873
771.694	0.0150439
771.772	0.0148685
771.850	0.0149213
771.928	0.0147870
772.006	0.0147677
772.084	0.0146632
772.163	0.0145295
772.241	0.0145376
772.319	0.0145399
772.397	0.0145538
772.475	0.0145045
772.553	0.0145325
772.631	0.0145155
772.709	0.0146001
772.788	0.0146053
772.866	0.0146529
772.944	0.0146635
773.022	0.0148415
773.100	0.0148043
773.178	0.0149821
773.256	0.0150687
773.334	0.0151401
773.413	0.0152825
773.491	0.0153764
773.569	0.0155197
773.647	0.0154755
773.725	0.0156168
773.803	0.0158030
773.881	0.0158004
773.959	0.0158640
774.038	0.0157372
774.116	0.0159512
774.194	0.0158921
774.272	0.0157972
774.350	0.0159872
774.428	0.0157998
774.506	0.0156628
774.584	0.0155894
774.663	0.0155727
774.741	0.0153265
774.819	0.0153529
774.897	0.0153738
774.975	0.0151470
775.053	0.0151173
775.131	0.0150868
775.209	0.0150299
775.288	0.0149107
775.366	0.0150568
775.444	0.0149596
775.522	0.0149522
775.600	0.0150585
775.678	0.0150378
775.756	0.0148869
775.834	0.0150019
775.913	0.0149649
775.991	0.0150401
776.069	0.0150871
776.147	0.0150595
776.225	0.0150704
776.303	0.0151204
776.381	0.0149933
776.459	0.0149873
776.538	0.0149688
776.616	0.0150177
776.694	0.0150652
776.772	0.0150246
776.850	0.0150320
776.928	0.0150751
777.006	0.0149202
777.084	0.0149027
777.163	0.0149455
777.241	0.0149828
777.319	0.0149515
777.397	0.0150216
777.475	0.0149270
777.553	0.0150242
777.631	0.0149829
777.709	0.0149722
777.788	0.0149938
777.866	0.0148447
777.944	0.0148791
778.022	0.0148866
778.100	0.0148563
778.178	0.0149162
778.256	0.0147112
778.334	0.0147309
778.413	0.0148180
778.491	0.0148253
778.569	0.0148026
778.647	0.0149112
778.725	0.0148625
778.803	0.0147940
778.881	0.0149880
778.959	0.0149876
779.038	0.0149500
779.116	0.0150697
779.194	0.0151431
779.272	0.0150578
779.350	0.0152645
779.428	0.0152002
779.506	0.0154180
779.584	0.0153555
779.663	0.0153450
779.741	0.0155385
779.819	0.0155314
779.897	0.0154911
779.975	0.0155402
780.053	0.0154978
780.131	0.0155222
780.209	0.0154043
780.288	0.0154082
780.366	0.0153885
780.444	0.0153919
780.522	0.0152480
780.600	0.0152171
780.678	0.0151350
780.756	0.0150521
780.834	0.0150099
780.913	0.0151192
780.991	0.0149876
781.069	0.0149294
781.147	0.0150781
781.225	0.0147878
781.303	0.0147857
781.381	0.0149126
781.459	0.0149197
781.538	0.0148907
781.616	0.0149870
781.694	0.0148695
781.772	0.0150311
781.850	0.0151911
781.928	0.0150555
782.006	0.0151350
782.084	0.0152358
782.163	0.0151446
782.241	0.0152496
782.319	0.0152299
782.397	0.0152230
782.475	0.0151234
782.553	0.0151276
782.631	0.0151953
782.709	0.0150984
782.788	0.0151130
782.866	0.0150336
782.944	0.0149306
783.022	0.0150149
783.100	0.0148137
783.178	0.0148830
783.256	0.0148710
783.334	0.0148009
783.413	0.0146027
783.491	0.0147006
783.569	0.0146684
783.647	0.0146987
783.725	0.0148136
783.803	0.0145996
783.881	0.0145774
783.959	0.0148028
784.038	0.0148032
784.116	0.0147613
784.194	0.0148820
784.272	0.0148095
784.350	0.0148650
784.428	0.0150721
784.506	0.0151582
784.584	0.0150928
784.663	0.0151052
784.741	0.0152726
784.819	0.0151659
784.897	0.0151985
784.975	0.0151714
785.053	0.0151939
785.131	0.0153104
785.209	0.0153906
785.288	0.0153100
785.366	0.0153625
785.444	0.0153387
785.522	0.0155641
785.600	0.0154640
785.678	0.0155065
785.756	0.0154301
785.834	0.0155556
785.913	0.0155289
785.991	0.0155122
786.069	0.0154687
786.147	0.0153921
786.225	0.0154047
786.303	0.0152367
786.381	0.0153236
786.459	0.0152030
786.538	0.0153024
786.616	0.0152346
786.694	0.0152775
786.772	0.0154418
786.850	0.0152357
786.928	0.0154555
787.006	0.0153564
787.084	0.0152501
787.163	0.0152972
787.241	0.0152228
787.319	0.0151302
787.397	0.0151040
787.475	0.0151844
787.553	0.0150159
787.631	0.0150417
787.709	0.0150284
787.788	0.0149946
787.866	0.0148213
787.944	0.0148537
788.022	0.0149013
788.100	0.0147575
788.178	0.0147462
788.256	0.0148046
788.334	0.0147829
788.413	0.0148913
788.491	0.0147613
788.569	0.0147190
788.647	0.0148713
788.725	0.0148715
788.803	0.0147439
788.881	0.0150065
788.959	0.0149961
789.038	0.0150879
789.116	0.0151907
789.194	0.0152663
789.272	0.0153254
789.350	0.0154103
789.428	0.0155244
789.506	0.0155352
789.584	0.0155278
789.663	0.0155922
789.741	0.0155465
789.819	0.0158399
789.897	0.0157532
789.975	0.0158039
790.053	0.0156874
790.131	0.0158044
790.209	0.0156620
790.288	0.0154504
790.366	0.0156496
790.444	0.0155248
790.522	0.0155789
790.600	0.0153733
790.678	0.0154244
790.756	0.0152676
790.834	0.0154077
790.913	0.0152827
790.991	0.0152243
791.069	0.0153050
791.147	0.0152513
791.225	0.0150169
791.303	0.0152087
791.381	0.0150971
791.459	0.0149382
791.538	0.0148808
791.616	0.0148813
791.694	0.0148775
791.772	0.0147723
791.850	0.0147533
791.928	0.0147181
792.006	0.0146500
792.084	0.0147731
792.163	0.0148067
792.241	0.0148293
792.319	0.0147926
792.397	0.0147655
792.475	0.0148978
792.553	0.0149311
792.631	0.0148872
792.709	0.0148110
792.788	0.0150523
792.866	0.0150145
792.944	0.0150053
793.022	0.0151691
793.100	0.0152565
793.178	0.0154208
793.256	0.0151904
793.334	0.0153439
793.413	0.0151631
793.491	0.0152482
793.569	0.0152425
793.647	0.0153169
793.725	0.0152957
793.803	0.0151679
793.881	0.0152637
793.959	0.0151674
794.038	0.0152164
794.116	0.0151682
794.194	0.0151470
794.272	0.0151158
794.350	0.0151686
794.428	0.0151752
794.506	0.0150987
794.584	0.0149672
794.663	0.0150047
794.741	0.0151054
794.819	0.0150543
794.897	0.0148879
794.975	0.0150278
795.053	0.0150579
795.131	0.0148683
795.209	0.0149200
795.288	0.0148936
795.366	0.0150152
795.444	0.0150365
795.522	0.0148680
795.600	0.0149982
795.678	0.0150757
795.756	0.0150135
795.834	0.0148937
795.913	0.0151386
795.991	0.0151157
796.069	0.0150536
796.147	0.0150607
796.225	0.0151603
796.303	0.0151488
796.381	0.0150868
796.459	0.0151317
796.538	0.0151225
796.616	0.0151344
796.694	0.0149647
796.772	0.0151376
796.850	0.0151066
796.928	0.0151566
797.006	0.0150275
797.084	0.0150571
797.163	0.0151112
797.241	0.0150566
797.319	0.0152139
797.397	0.0151316
797.475	0.0151826
797.553	0.0152188
797.631	0.0151545
797.709	0.0150774
797.788	0.0150351
797.866	0.0149790
797.944	0.0150442
798.022	0.0149732
798.100	0.0150317
798.178	0.0149251
798.256	0.0147945
798.334	0.0149162
798.413	0.0149332
798.491	0.0148145
798.569	0.0147969
798.647	0.0147575
798.725	0.0146784
798.803	0.0147739
798.881	0.0147916
798.959	0.0146703
799.038	0.0145452
799.116	0.0146895
799.194	0.0145834
799.272	0.0146083
799.350	0.0146141
799.428	0.0147330
799.506	0.0148010
799.584	0.0147587
799.663	0.0148143
799.741	0.0146852
799.819	0.0147513
799.897	0.0148707
799.975	0.0148408
800.053	0.0148425
800.131	0.0150311
800.209	0.0149642
800.288	0.0150222
800.366	0.0150319
800.444	0.0152386
800.522	0.0151360
800.600	0.0151717
800.678	0.0152787
800.756	0.0151190
800.834	0.0152451
800.913	0.0152940
800.991	0.0153330
801.069	0.0151389
801.147	0.0151807
801.225	0.0151849
801.303	0.0152717
801.381	0.0153111
801.459	0.0152577
801.538	0.0151930
801.616	0.0151555
801.694	0.0151357
801.772	0.0149511
801.850	0.0149982
801.928	0.0149857
802.006	0.0148995
802.084	0.0149546
802.163	0.0148374
802.241	0.0148123
802.319	0.0148604
802.397	0.0149139
802.475	0.0147093
802.553	0.0147560
802.631	0.0147663
802.709	0.0146931
802.788	0.0148516
802.866	0.0147907
802.944	0.0148424
803.022	0.0148538
803.100	0.0149372
803.178	0.0149897
803.256	0.0150886
803.334	0.0150692
803.413	0.0152384
803.491	0.0153039
803.569	0.0152714
803.647	0.0153728
803.725	0.0153409
803.803	0.0153522
803.881	0.0155571
803.959	0.0154974
804.038	0.0156216
804.116	0.0156993
804.194	0.0155269
804.272	0.0155289
804.350	0.0156102
804.428	0.0157692
804.506	0.0155589
804.584	0.0156165
804.663	0.0156158
804.741	0.0154982
804.819	0.0153178
804.897	0.0153079
804.975	0.0152309
805.053	0.0152172
805.131	0.0151673
805.209	0.0150326
805.288	0.0149979
805.366	0.0149416
805.444	0.0149016
805.522	0.0147576
805.600	0.0146028
805.678	0.0148113
805.756	0.0147686
805.834	0.0146648
805.913	0.0147616
805.991	0.0148972
806.069	0.0147943
806.147	0.0148552
806.225	0.0146853
806.303	0.0148140
806.381	0.0148525
806.459	0.0147998
806.538	0.0149222
806.616	0.0149467
806.694	0.0150088
806.772	0.0150877
806.850	0.0150848
806.928	0.0152483
807.006	0.0152299
807.084	0.0152566
807.163	0.0153593
807.241	0.0155303
807.319	0.0155894
807.397	0.0155217
807.475	0.0156232
807.553	0.0156268
807.631	0.0157048
807.709	0.0155516
807.788	0.0156398
807.866	0.0154899
807.944	0.0155412
808.022	0.0155495
808.100	0.0155369
808.178	0.0155890
808.256	0.0154832
808.334	0.0153848
808.413	0.0154546
808.491	0.0152833
808.569	0.0150908
808.647	0.0152724
808.725	0.0152204
808.803	0.0150219
808.881	0.0149459
808.959	0.0151167
809.038	0.0149319
809.116	0.0149849
809.194	0.0149155
809.272	0.0148753
809.350	0.0149133
809.428	0.0148705
809.506	0.0149100
809.584	0.0149315
809.663	0.0149404
809.741	0.0150101
809.819	0.0148203
809.897	0.0149282
809.975	0.0149648
810.053	0.0151237
810.131	0.0151039
810.209	0.0151473
810.288	0.0150988
810.366	0.0150377
810.444	0.0152171
810.522	0.0152345
810.600	0.0151766
810.678	0.0152419
810.756	0.0153032
810.834	0.0152337
810.913	0.0152224
810.991	0.0151780
811.069	0.0149966
811.147	0.0151181
811.225	0.0150925
811.303	0.0148422
811.381	0.0150579
811.459	0.0150517
811.538	0.0149616
811.616	0.0147968
811.694	0.0147498
811.772	0.0146589
811.850	0.0147884
811.928	0.0148488
812.006	0.0148506
812.084	0.0147407
812.163	0.0148277
812.241	0.0148418
812.319	0.0149503
812.397	0.0148275
812.475	0.0149205
812.553	0.0149330
812.631	0.0148994
812.709	0.0150462
812.788	0.0150465
812.866	0.0151490
812.944	0.0149915
813.022	0.0150652
813.100	0.0151401
813.178	0.0150743
813.256	0.0150658
813.334	0.0151786
813.413	0.0152243
813.491	0.0151349
813.569	0.0151021
813.647	0.0150227
813.725	0.0151009
813.803	0.0150562
813.881	0.0149567
813.959	0.0150388
814.038	0.0149501
814.116	0.0148257
814.194	0.0148875
814.272	0.0149122
814.350	0.0148988
814.428	0.0148711
814.506	0.0149423
814.584	0.0148578
814.663	0.0148569
814.741	0.0149361
814.819	0.0150011
814.897	0.0147704
814.975	0.0148738
815.053	0.0149693
815.131	0.0151480
815.209	0.0152869
815.288	0.0151069
815.366	0.0150571
815.444	0.0151907
815.522	0.0152489
815.600	0.0153642
815.678	0.0152248
815.756	0.0153035
815.834	0.0151910
815.913	0.0152423
815.991	0.0153175
816.069	0.0152728
816.147	0.0152351
816.225	0.0151294
816.303	0.0153605
816.381	0.0152329
816.459	0.0151172
816.538	0.0151676
816.616	0.0152306
816.694	0.0151740
816.772	0.0151569
816.850	0.0150986
816.928	0.0150858
817.006	0.0149239
817.084	0.0149618
817.163	0.0151313
817.241	0.0150320
817.319	0.0150038
817.397	0.0150156
817.475	0.0149992
817.553	0.0149090
817.631	0.0150095
817.709	0.0148195
817.788	0.0148473
817.866	0.0147786
817.944	0.0148466
818.022	0.0149187
818.100	0.0149902
818.178	0.0149605
818.256	0.0150571
818.334	0.0150022
818.413	0.0149493
818.491	0.0150578
818.569	0.0150974
818.647	0.0151170
818.725	0.0150803
818.803	0.0152621
818.881	0.0151566
818.959	0.0152904
819.038	0.0151121
819.116	0.0152976
819.194	0.0154165
819.272	0.0153537
819.350	0.0153926
819.428	0.0154283
819.506	0.0152757
819.584	0.0153664
819.663	0.0155202
819.741	0.0153825
819.819	0.0152990
819.897	0.0153465
819.975	0.0153354
820.053	0.0153786
820.131	0.0152078
820.209	0.0153210
820.288	0.0154211
820.366	0.0153483
820.444	0.0153550
820.522	0.0151073
820.600	0.0151020
820.678	0.0151773
820.756	0.0152149
820.834	0.0151356
820.913	0.0150042
820.991	0.0149330
821.069	0.0150236
821.147	0.0148762
821.225	0.0147956
821.303	0.0148673
821.381	0.0147826
821.459	0.0147845
821.538	0.0147825
821.616	0.0148341
821.694	0.0148420
821.772	0.0146713
821.850	0.0146457
821.928	0.0147297
822.006	0.0148502
822.084	0.0147016
822.163	0.0146858
822.241	0.0146190
822.319	0.0147201
822.397	0.0147614
822.475	0.0148154
822.553	0.0147260
822.631	0.0146873
822.709	0.0147115
822.788	0.0148486
822.866	0.0146751
822.944	0.0148502
823.022	0.0150839
823.100	0.0150125
823.178	0.0149551
823.256	0.0150597
823.334	0.0150998
823.413	0.0151727
823.491	0.0153842
823.569	0.0151312
823.647	0.0150648
823.725	0.0152965
823.803	0.0153526
823.881	0.0153059
823.959	0.0152608
824.038	0.0152145
824.116	0.0151902
824.194	0.0151524
824.272	0.0153230
824.350	0.0152841
824.428	0.0152535
824.506	0.0150891
824.584	0.0152004
824.663	0.0151569
824.741	0.0151482
824.819	0.0152050
824.897	0.0151366
824.975	0.0151188
825.053	0.0151604
825.131	0.0150378
825.209	0.0151099
825.288	0.0150717
825.366	0.0149861
825.444	0.0149734
825.522	0.0149501
825.600	0.0151437
825.678	0.0148857
825.756	0.0149895
825.834	0.0149303
825.913	0.0147536
825.991	0.0147694
826.069	0.0147974
826.147	0.0148828
826.225	0.0146647
826.303	0.0146706
826.381	0.0147459
826.459	0.0146252
826.538	0.0146134
826.616	0.0145828
826.694	0.0146284
826.772	0.0147758
826.850	0.0147250
826.928	0.0145784
827.006	0.0146238
827.084	0.0147088
827.163	0.0147022
827.241	0.0146899
827.319	0.0147425
827.397	0.0147197
827.475	0.0148239
827.553	0.0147609
827.631	0.0149973
827.709	0.0150755
827.788	0.0151147
827.866	0.0150143
827.944	0.0150964
828.022	0.0151326
828.100	0.0151251
828.178	0.0152010
828.256	0.0152139
828.334	0.0152323
828.413	0.0152538
828.491	0.0152985
828.569	0.0153738
828.647	0.0152087
828.725	0.0152684
828.803	0.0155043
828.881	0.0152661
828.959	0.0152290
829.038	0.0154332
829.116	0.0154294
829.194	0.0154472
829.272	0.0154691
829.350	0.0154434
829.428	0.0153391
829.506	0.0153439
829.584	0.0154348
829.663	0.0154210
829.741	0.0154317
829.819	0.0152380
829.897	0.0152611
829.975	0.0152654
830.053	0.0151815
830.131	0.0151034
830.209	0.0150930
830.288	0.0150482
830.366	0.0150816
830.444	0.0149084
830.522	0.0150307
830.600	0.0150940
830.678	0.0150048
830.756	0.0149264
830.834	0.0149401
830.913	0.0148608
830.991	0.0148051
831.069	0.0147539
831.147	0.0149915
831.225	0.0149716
831.303	0.0149707
831.381	0.0150432
831.459	0.0149815
831.538	0.0149209
831.616	0.0147659
831.694	0.0149100
831.772	0.0149340
831.850	0.0150458
831.928	0.0149587
832.006	0.0149146
832.084	0.0150697
832.163	0.0151073
832.241	0.0150006
832.319	0.0149976
832.397	0.0150519
832.475	0.0151669
832.553	0.0151733
832.631	0.0152455
832.709	0.0151223
832.788	0.0151666
832.866	0.0151462
832.944	0.0151696
833.022	0.0152449
833.100	0.0152139
833.178	0.0152135
833.256	0.0150603
833.334	0.0151000
833.413	0.0151737
833.491	0.0151296
833.569	0.0152066
833.647	0.0151632
833.725	0.0151707
833.803	0.0151833
833.881	0.0151531
833.959	0.0151593
834.038	0.0152750
834.116	0.0152025
834.194	0.0152459
834.272	0.0152019
834.350	0.0152634
834.428	0.0152677
834.506	0.0152244
834.584	0.0152902
834.663	0.0152999
834.741	0.0151756
834.819	0.0152864
834.897	0.0152352
834.975	0.0151438
835.053	0.0153219
835.131	0.0152264
835.209	0.0153117
835.288	0.0151154
835.366	0.0151814
835.444	0.0152071
835.522	0.0151299
835.600	0.0151621
835.678	0.0151398
835.756	0.0149985
835.834	0.0151543
835.913	0.0151736
835.991	0.0150526
836.069	0.0151946
836.147	0.0151678
836.225	0.0150456
836.303	0.0151694
836.381	0.0149658
836.459	0.0150831
836.538	0.0151550
836.616	0.0149429
836.694	0.0150407
836.772	0.0149864
836.850	0.0150133
836.928	0.0150750
837.006	0.0151790
837.084	0.0151859
837.163	0.0150632
837.241	0.0150573
837.319	0.0150909
837.397	0.0150655
837.475	0.0151122
837.553	0.0152162
837.631	0.0150420
837.709	0.0149805
837.788	0.0149804
837.866	0.0150451
837.944	0.0150343
838.022	0.0151611
838.100	0.0150523
838.178	0.0151130
838.256	0.0150899
838.334	0.0151342
838.413	0.0151112
838.491	0.0151387
838.569	0.0150794
838.647	0.0151336
838.725	0.0151951
838.803	0.0150909
838.881	0.0151307
838.959	0.0151412
839.038	0.0150774
839.116	0.0152057
839.194	0.0152224
839.272	0.0151794
839.350	0.0151725
839.428	0.0151105
839.506	0.0152021
839.584	0.0152508
839.663	0.0152360
839.741	0.0153082
839.819	0.0153811
839.897	0.0152085
839.975	0.0152455
840.053	0.0153672
840.131	0.0152379
840.209	0.0151938
840.288	0.0152171
840.366	0.0151519
840.444	0.0153123
840.522	0.0153284
840.600	0.0152088
840.678	0.0150834
840.756	0.0151791
840.834	0.0150710
840.913	0.0152104
840.991	0.0151707
841.069	0.0151286
841.147	0.0149641
841.225	0.0150567
841.303	0.0150290
841.381	0.0150163
841.459	0.0150619
841.538	0.0149583
841.616	0.0149931
841.694	0.0148721
841.772	0.0149636
841.850	0.0148096
841.928	0.0147817
842.006	0.0149582
842.084	0.0148255
842.163	0.0149490
842.241	0.0148649
842.319	0.0148624
842.397	0.0149007
842.475	0.0148180
842.553	0.0148328
842.631	0.0149004
842.709	0.0149989
842.788	0.0148848
842.866	0.0151558
842.944	0.0151491
843.022	0.0150831
843.100	0.0151487
843.178	0.0151199
843.256	0.0152502
843.334	0.0152884
843.413	0.0152366
843.491	0.0151720
843.569	0.0153150
843.647	0.0153326
843.725	0.0152868
843.803	0.0153044
843.881	0.0153463
843.959	0.0154013
844.038	0.0154217
844.116	0.0154702
844.194	0.0153201
844.272	0.0153783
844.350	0.0154184
844.428	0.0154594
844.506	0.0153021
844.584	0.0152980
844.663	0.0151630
844.741	0.0152373
844.819	0.0153617
844.897	0.0153049
844.975	0.0152979
845.053	0.0153738
845.131	0.0151020
845.209	0.0152125
845.288	0.0151698
845.366	0.0151732
845.444	0.0151036
845.522	0.0151095
845.600	0.0151389
845.678	0.0149857
845.756	0.0151566
845.834	0.0150412
845.913	0.0152414
845.991	0.0152522
846.069	0.0151118
846.147	0.0152164
846.225	0.0153383
846.303	0.0153223
846.381	0.0151728
846.459	0.0153024
846.538	0.0151656
846.616	0.0151611
846.694	0.0150958
846.772	0.0152493
846.850	0.0150665
846.928	0.0151432
847.006	0.0150037
847.084	0.0150959
847.163	0.0151698
847.241	0.0151711
847.319	0.0150582
847.397	0.0150247
847.475	0.0149860
847.553	0.0151477
847.631	0.0151923
847.709	0.0150439
847.788	0.0151075
847.866	0.0150721
847.944	0.0151307
848.022	0.0151537
848.100	0.0150485
848.178	0.0150986
848.256	0.0152791
848.334	0.0151969
848.413	0.0152724
848.491	0.0151566
848.569	0.0151528
848.647	0.0150638
848.725	0.0150322
848.803	0.0152602
848.881	0.0151026
848.959	0.0150268
849.038	0.0151463
849.116	0.0151804
849.194	0.0151087
849.272	0.0151275
849.350	0.0150761
849.428	0.0151041
849.506	0.0151512
849.584	0.0148680
849.663	0.0150097
849.741	0.0150546
849.819	0.0150106
849.897	0.0149732
849.975	0.0150100
850.053	0.0150132
850.131	0.0149036
850.209	0.0149503
850.288	0.0148814
850.366	0.0148188
850.444	0.0150465
850.522	0.0148298
850.600	0.0147853
850.678	0.0149089
850.756	0.0148545
850.834	0.0149413
850.913	0.0148491
850.991	0.0149733
851.069	0.0148904
851.147	0.0148940
851.225	0.0149709
851.303	0.0150486
851.381	0.0149316
851.459	0.0149522
851.538	0.0150334
851.616	0.0150036
851.694	0.0150787
851.772	0.0149197
851.850	0.0150842
851.928	0.0150676
852.006	0.0150048
852.084	0.0151252
852.163	0.0149998
852.241	0.0149294
852.319	0.0150556
852.397	0.0150151
852.475	0.0148715
852.553	0.0149612
852.631	0.0149651
852.709	0.0150184
852.788	0.0151526
852.866	0.0150416
852.944	0.0150098
853.022	0.0150090
853.100	0.0150381
853.178	0.0150641
853.256	0.0151336
853.334	0.0150201
853.413	0.0151003
853.491	0.0152760
853.569	0.0149754
853.647	0.0149656
853.725	0.0150765
853.803	0.0149986
853.881	0.0149637
853.959	0.0151165
854.038	0.0150373
854.116	0.0150081
854.194	0.0150697
854.272	0.0150910
854.350	0.0150445
854.428	0.0151738
854.506	0.0151310
854.584	0.0151076
854.663	0.0151772
854.741	0.0152454
854.819	0.0151479
854.897	0.0151456
854.975	0.0152979
855.053	0.0154436
855.131	0.0152062
855.209	0.0151142
855.288	0.0151595
855.366	0.0152150
855.444	0.0153046
855.522	0.0153166
855.600	0.0152280
855.678	0.0152237
855.756	0.0152757
855.834	0.0152297
855.913	0.0151129
855.991	0.0150868
856.069	0.0151722
856.147	0.0151643
856.225	0.0150829
856.303	0.0150881
856.381	0.0152115
856.459	0.0152087
856.538	0.0150181
856.616	0.0149921
856.694	0.0149644
856.772	0.0149297
856.850	0.0149856
856.928	0.0150103
857.006	0.0149368
857.084	0.0150163
857.163	0.0151111
857.241	0.0150672
857.319	0.0150268
857.397	0.0149307
857.475	0.0150430
857.553	0.0149825
857.631	0.0150313
857.709	0.0150637
857.788	0.0149095
857.866	0.0151711
857.944	0.0150725
858.022	0.0150999
858.100	0.0148760
858.178	0.0150853
858.256	0.0150562
858.334	0.0150706
858.413	0.0150748
858.491	0.0150294
858.569	0.0152415
858.647	0.0151096
858.725	0.0151997
858.803	0.0150623
858.881	0.0151502
858.959	0.0151164
859.038	0.0151446
859.116	0.0149137
859.194	0.0150790
859.272	0.0151154
859.350	0.0150504
859.428	0.0150320
859.506	0.0149510
859.584	0.0151884
859.663	0.0151107
859.741	0.0149352
859.819	0.0149002
859.897	0.0149909
859.975	0.0149583
860.053	0.0152021
860.131	0.0150262
860.209	0.0149477
860.288	0.0150452
860.366	0.0150105
860.444	0.0149646
860.522	0.0150511
860.600	0.0151551
860.678	0.0150758
860.756	0.0152298
860.834	0.0151154
860.913	0.0150536
860.991	0.0150903
861.069	0.0151308
861.147	0.0151820
861.225	0.0151025
861.303	0.0151692
861.381	0.0152451
861.459	0.0150762
861.538	0.0151549
861.616	0.0153413
861.694	0.0153504
861.772	0.0152937
861.850	0.0152826
861.928	0.0152821
862.006	0.0153056
862.084	0.0153355
862.163	0.0152487
862.241	0.0153030
862.319	0.0153583
862.397	0.0153280
862.475	0.0151347
862.553	0.0152110
862.631	0.0152680
862.709	0.0151780
862.788	0.0152637
862.866	0.0151688
862.944	0.0152541
863.022	0.0150147
863.100	0.0151085
863.178	0.0151083
863.256	0.0149457
863.334	0.0151180
863.413	0.0149380
863.491	0.0148063
863.569	0.0150095
863.647	0.0150323
863.725	0.0149986
863.803	0.0151037
863.881	0.0150146
863.959	0.0150897
864.038	0.0152154
864.116	0.0151241
864.194	0.0152033
864.272	0.0151318
864.350	0.0152039
864.428	0.0151935
864.506	0.0152393
864.584	0.0153030
864.663	0.0151874
864.741	0.0152839
864.819	0.0152638
864.897	0.0151301
864.975	0.0152662
865.053	0.0151286
865.131	0.0152811
865.209	0.0151231
865.288	0.0153896
865.366	0.0154668
865.444	0.0152634
865.522	0.0151717
865.600	0.0151741
865.678	0.0150958
865.756	0.0153206
865.834	0.0151266
865.913	0.0150650
865.991	0.0151456
866.069	0.0151659
866.147	0.0152650
866.225	0.0151515
866.303	0.0150660
866.381	0.0151019
866.459	0.0150444
866.538	0.0151093
866.616	0.0150735
866.694	0.0152274
866.772	0.0151809
866.850	0.0153380
866.928	0.0151211
867.006	0.0152436
867.084	0.0151974
867.163	0.0154131
867.241	0.0153250
867.319	0.0153426
867.397	0.0152647
867.475	0.0152125
867.553	0.0151612
867.631	0.0152711
867.709	0.0152962
867.788	0.0152168
867.866	0.0152584
867.944	0.0151705
868.022	0.0152258
868.100	0.0151676
868.178	0.0153043
868.256	0.0152392
868.334	0.0152885
868.413	0.0152747
868.491	0.0152821
868.569	0.0151909
868.647	0.0153908
868.725	0.0151524
868.803	0.0151501
868.881	0.0152673
868.959	0.0152075
869.038	0.0151823
869.116	0.0152621
869.194	0.0151840
869.272	0.0152516
869.350	0.0151541
869.428	0.0151577
869.506	0.0149732
869.584	0.0151080
869.663	0.0149966
869.741	0.0150430
869.819	0.0151827
869.897	0.0150893
869.975	0.0150323
870.053	0.0150826
870.131	0.0151264
870.209	0.0151921
870.288	0.0150513
870.366	0.0151233
870.444	0.0152075
870.522	0.0151741
870.600	0.0151833
870.678	0.0152971
870.756	0.0153371
870.834	0.0152052
870.913	0.0151864
870.991	0.0150337
871.069	0.0152223
871.147	0.0152409
871.225	0.0151871
871.303	0.0151554
871.381	0.0151370
871.459	0.0153370
871.538	0.0151620
871.616	0.0151952
871.694	0.0150569
871.772	0.0151685
871.850	0.0151598
871.928	0.0150315
872.006	0.0151819
872.084	0.0150956
872.163	0.0149529
872.241	0.0151445
872.319	0.0151332
872.397	0.0150243
872.475	0.0151231
872.553	0.0149248
872.631	0.0150187
872.709	0.0150903
872.788	0.0151505
872.866	0.0150081
872.944	0.0149864
873.022	0.0150567
873.100	0.0148935
873.178	0.0151263
873.256	0.0149568
873.334	0.0149272
873.413	0.0151116
873.491	0.0150334
873.569	0.0150937
873.647	0.0150005
873.725	0.0151105
873.803	0.0151442
873.881	0.0150494
873.959	0.0149757
874.038	0.0149547
874.116	0.0151579
874.194	0.0150734
874.272	0.0151411
874.350	0.0151176
874.428	0.0150795
874.506	0.0151294
874.584	0.0151557
874.663	0.0150768
874.741	0.0149582
874.819	0.0150783
874.897	0.0150818
874.975	0.0151075
875.053	0.0151041
875.131	0.0150652
875.209	0.0150126
875.288	0.0151144
875.366	0.0150532
875.444	0.0149982
875.522	0.0151474
875.600	0.0151587
875.678	0.0149347
875.756	0.0149958
875.834	0.0150309
875.913	0.0149340
875.991	0.0150339
876.069	0.0150247
876.147	0.0150323
876.225	0.0150047
876.303	0.0149799
876.381	0.0151613
876.459	0.0148785
876.538	0.0150230
876.616	0.0150159
876.694	0.0151842
876.772	0.0151147
876.850	0.0150380
876.928	0.0150111
877.006	0.0151470
877.084	0.0150498
877.163	0.0150267
877.241	0.0148717
877.319	0.0150511
877.397	0.0149638
877.475	0.0149886
877.553	0.0149341
877.631	0.0149530
877.709	0.0151160
877.788	0.0150331
877.866	0.0150499
877.944	0.0148728
878.022	0.0150411
878.100	0.0150389
878.178	0.0150670
878.256	0.0148010
878.334	0.0148865
878.413	0.0148935
878.491	0.0149419
878.569	0.0149221
878.647	0.0148316
878.725	0.0149631
878.803	0.0150421
878.881	0.0150128
878.959	0.0148725
879.038	0.0149497
879.116	0.0149512
879.194	0.0149995
879.272	0.0149003
879.350	0.0148460
879.428	0.0149300
879.506	0.0148981
879.584	0.0149533
879.663	0.0148899
879.741	0.0148596
879.819	0.0148771
879.897	0.0149366
879.975	0.0150019
880.053	0.0149702
880.131	0.0148994
880.209	0.0148982
880.288	0.0149568
880.366	0.0150903
880.444	0.0149244
880.522	0.0150734
880.600	0.0149511
880.678	0.0150507
880.756	0.0151400
880.834	0.0150494
880.913	0.0150595
880.991	0.0149796
881.069	0.0150858
881.147	0.0151791
881.225	0.0151245
881.303	0.0150349
881.381	0.0149530
881.459	0.0149099
881.538	0.0149450
881.616	0.0151096
881.694	0.0149581
881.772	0.0149682
881.850	0.0150911
881.928	0.0151056
882.006	0.0149667
882.084	0.0150258
882.163	0.0148648
882.241	0.0151168
882.319	0.0150256
882.397	0.0150313
882.475	0.0150951
882.553	0.0150159
882.631	0.0150649
882.709	0.0150443
882.788	0.0152064
882.866	0.0149819
882.944	0.0150632
883.022	0.0150720
883.100	0.0153029
883.178	0.0150938
883.256	0.0151582
883.334	0.0151538
883.413	0.0150105
883.491	0.0151099
883.569	0.0151411
883.647	0.0150927
883.725	0.0151183
883.803	0.0150898
883.881	0.0151036
883.959	0.0150937
884.038	0.0150508
884.116	0.0150480
884.194	0.0150281
884.272	0.0150948
884.350	0.0150417
884.428	0.0150315
884.506	0.0151186
884.584	0.0149858
884.663	0.0150983
884.741	0.0151461
884.819	0.0149590
884.897	0.0151304
884.975	0.0151581
885.053	0.0150165
885.131	0.0150526
885.209	0.0149969
885.288	0.0150909
885.366	0.0148468
885.444	0.0148560
885.522	0.0149812
885.600	0.0149010
885.678	0.0149043
885.756	0.0149357
885.834	0.0150004
885.913	0.0149828
885.991	0.0150613
886.069	0.0150040
886.147	0.0150096
886.225	0.0150023
886.303	0.0150265
886.381	0.0150957
886.459	0.0151266
886.538	0.0152440
886.616	0.0153438
886.694	0.0152036
886.772	0.0152257
886.850	0.0150832
886.928	0.0151665
887.006	0.0153718
887.084	0.0151530
887.163	0.0151975
887.241	0.0152647
887.319	0.0152522
887.397	0.0153174
887.475	0.0153500
887.553	0.0152927
887.631	0.0153822
887.709	0.0154407
887.788	0.0153233
887.866	0.0153703
887.944	0.0153988
888.022	0.0153845
888.100	0.0153543
888.178	0.0153042
888.256	0.0152912
888.334	0.0152850
888.413	0.0153580
888.491	0.0152736
888.569	0.0152850
888.647	0.0153020
888.725	0.0153410
888.803	0.0153391
888.881	0.0151161
888.959	0.0152151
889.038	0.0152667
889.116	0.0153972
889.194	0.0153226
889.272	0.0152563
889.350	0.0154134
889.428	0.0152122
889.506	0.0152770
889.584	0.0151536
889.663	0.0152193
889.741	0.0151762
889.819	0.0152280
889.897	0.0151447
889.975	0.0151604
890.053	0.0152007
890.131	0.0151595
890.209	0.0152036
890.288	0.0152241
890.366	0.0151222
890.444	0.0152604
890.522	0.0149660
890.600	0.0151275
890.678	0.0152174
890.756	0.0152020
890.834	0.0152270
890.913	0.0152120
890.991	0.0152059
891.069	0.0153010
891.147	0.0152920
891.225	0.0151614
891.303	0.0152500
891.381	0.0152007
891.459	0.0152451
891.538	0.0152226
891.616	0.0153107
891.694	0.0151779
891.772	0.0152802
891.850	0.0153222
891.928	0.0153525
892.006	0.0152636
892.084	0.0152457
892.163	0.0152904
892.241	0.0153260
892.319	0.0154070
892.397	0.0152509
892.475	0.0152670
892.553	0.0153314
892.631	0.0151120
892.709	0.0153146
892.788	0.0152876
892.866	0.0151619
892.944	0.0151417
893.022	0.0152480
893.100	0.0151646
893.178	0.0151412
893.256	0.0150459
893.334	0.0151065
893.413	0.0151431
893.491	0.0151257
893.569	0.0150694
893.647	0.0151605
893.725	0.0150584
893.803	0.0151858
893.881	0.0151745
893.959	0.0151250
894.038	0.0151140
894.116	0.0151824
894.194	0.0149764
894.272	0.0149976
894.350	0.0150257
894.428	0.0150966
894.506	0.0150694
894.584	0.0151272
894.663	0.0150000
894.741	0.0150521
894.819	0.0151431
894.897	0.0151962
894.975	0.0151606
895.053	0.0151563
895.131	0.0151871
895.209	0.0152404
895.288	0.0151513
895.366	0.0151871
895.444	0.0152809
895.522	0.0153103
895.600	0.0152244
895.678	0.0150793
895.756	0.0151044
895.834	0.0151001
895.913	0.0151436
895.991	0.0150279
896.069	0.0150752
896.147	0.0150948
896.225	0.0151521
896.303	0.0151319
896.381	0.0150339
896.459	0.0150575
896.538	0.0152473
896.616	0.0149812
896.694	0.0149080
896.772	0.0150350
896.850	0.0149184
896.928	0.0148778
897.006	0.0149171
897.084	0.0150362
897.163	0.0149665
897.241	0.0150546
897.319	0.0150304
897.397	0.0149543
897.475	0.0148874
897.553	0.0149849
897.631	0.0150687
897.709	0.0150970
897.788	0.0149844
897.866	0.0151972
897.944	0.0153065
898.022	0.0151169
898.100	0.0151079
898.178	0.0152197
898.256	0.0153106
898.334	0.0153014
898.413	0.0153918
898.491	0.0153996
898.569	0.0152058
898.647	0.0152480
898.725	0.0153297
898.803	0.0153363
898.881	0.0153042
898.959	0.0151398
899.038	0.0151455
899.116	0.0151066
899.194	0.0152721
899.272	0.0151378
899.350	0.0150676
899.428	0.0151949
899.506	0.0152197
899.584	0.0151494
899.663	0.0151581
899.741	0.0151267
899.819	0.0151036
899.897	0.0150733
899.975	0.0151479
900.053	0.0151357
900.131	0.0151339
900.209	0.0150700
900.288	0.0148985
900.366	0.0148532
900.444	0.0147929
900.522	0.0149381
900.600	0.0150347
900.678	0.0150872
900.756	0.0149369
900.834	0.0150019
900.913	0.0150382
900.991	0.0150342
901.069	0.0149533
901.147	0.0149777
901.225	0.0149747
901.303	0.0150155
901.381	0.0148322
901.459	0.0148723
901.538	0.0149654
901.616	0.0149390
901.694	0.0149975
901.772	0.0149508
901.850	0.0148139
901.928	0.0149150
902.006	0.0149677
902.084	0.0148412
902.163	0.0148458
902.241	0.0149760
902.319	0.0149017
902.397	0.0150147
902.475	0.0148909
902.553	0.0149080
902.631	0.0149499
902.709	0.0150448
902.788	0.0149066
902.866	0.0149303
902.944	0.0150013
903.022	0.0148675
903.100	0.0148838
903.178	0.0149696
903.256	0.0149447
903.334	0.0149254
903.413	0.0148946
903.491	0.0149522
903.569	0.0148940
903.647	0.0149120
903.725	0.0149296
903.803	0.0150369
903.881	0.0149112
903.959	0.0150443
904.038	0.0150993
904.116	0.0150891
904.194	0.0150917
904.272	0.0150860
904.350	0.0150423
904.428	0.0151497
904.506	0.0150752
904.584	0.0151150
904.663	0.0150784
904.741	0.0151127
904.819	0.0152217
904.897	0.0151371
904.975	0.0150437
905.053	0.0150532
905.131	0.0151903
905.209	0.0151638
905.288	0.0151713
905.366	0.0150642
905.444	0.0151013
905.522	0.0149717
905.600	0.0150339
905.678	0.0151450
905.756	0.0149815
905.834	0.0149070
905.913	0.0148474
905.991	0.0149953
906.069	0.0149017
906.147	0.0149634
906.225	0.0149447
906.303	0.0148586
906.381	0.0150403
906.459	0.0150489
906.538	0.0149342
906.616	0.0149123
906.694	0.0149716
906.772	0.0149310
906.850	0.0149090
906.928	0.0149875
907.006	0.0150075
907.084	0.0150156
907.163	0.0150382
907.241	0.0150854
907.319	0.0151707
907.397	0.0151894
907.475	0.0152182
907.553	0.0151297
907.631	0.0152684
907.709	0.0152747
907.788	0.0152633
907.866	0.0154263
907.944	0.0153564
908.022	0.0153642
908.100	0.0154010
908.178	0.0153482
908.256	0.0153711
908.334	0.0154174
908.413	0.0151923
908.491	0.0152103
908.569	0.0152785
908.647	0.0153454
908.725	0.0152652
908.803	0.0151982
908.881	0.0152119
908.959	0.0152167
909.038	0.0151960
909.116	0.0151719
909.194	0.0152040
909.272	0.0152108
909.350	0.0151768
909.428	0.0151005
909.506	0.0151926
909.584	0.0151016
909.663	0.0151559
909.741	0.0151040
909.819	0.0151472
909.897	0.0151147
909.975	0.0150619
910.053	0.0151527
910.131	0.0150699
910.209	0.0151034
910.288	0.0150352
910.366	0.0152232
910.444	0.0151204
910.522	0.0152091
910.600	0.0150210
910.678	0.0149310
910.756	0.0150855
910.834	0.0150840
910.913	0.0150642
910.991	0.0151166
911.069	0.0151369
911.147	0.0152081
911.225	0.0151221
911.303	0.0151024
911.381	0.0149943
911.459	0.0152448
911.538	0.0151809
911.616	0.0151585
911.694	0.0150146
911.772	0.0151449
911.850	0.0151664
911.928	0.0150751
912.006	0.0150587
912.084	0.0151038
912.163	0.0152507
912.241	0.0150640
912.319	0.0149893
912.397	0.0150166
912.475	0.0151437
912.553	0.0151046
912.631	0.0150320
912.709	0.0149994
912.788	0.0150350
912.866	0.0150349
912.944	0.0149242
913.022	0.0151553
913.100	0.0151458
913.178	0.0150938
913.256	0.0149323
913.334	0.0149787
913.413	0.0150977
913.491	0.0151051
913.569	0.0150225
913.647	0.0150227
913.725	0.0151518
913.803	0.0150919
913.881	0.0150642
913.959	0.0150707
914.038	0.0150816
914.116	0.0152000
914.194	0.0153174
914.272	0.0151333
914.350	0.0150658
914.428	0.0151646
914.506	0.0151665
914.584	0.0153696
914.663	0.0151515
914.741	0.0152844
914.819	0.0151131
914.897	0.0151357
914.975	0.0151030
915.053	0.0150321
915.131	0.0151756
915.209	0.0152324
915.288	0.0151694
915.366	0.0149706
915.444	0.0151005
915.522	0.0150861
915.600	0.0152283
915.678	0.0150872
915.756	0.0150358
915.834	0.0152454
915.913	0.0150159
915.991	0.0151144
916.069	0.0150850
916.147	0.0150077
916.225	0.0151021
916.303	0.0151006
916.381	0.0151473
916.459	0.0151397
916.538	0.0152238
916.616	0.0153014
916.694	0.0150648
916.772	0.0151481
916.850	0.0152991
916.928	0.0153239
917.006	0.0153461
917.084	0.0153026
917.163	0.0153413
917.241	0.0152867
917.319	0.0153603
917.397	0.0154531
917.475	0.0152888
917.553	0.0153745
917.631	0.0152466
917.709	0.0153436
917.788	0.0153447
917.866	0.0153460
917.944	0.0153210
918.022	0.0154047
918.100	0.0154414
918.178	0.0153534
918.256	0.0154397
918.334	0.0155120
918.413	0.0153371
918.491	0.0152505
918.569	0.0152106
918.647	0.0151829
918.725	0.0151866
918.803	0.0151521
918.881	0.0152052
918.959	0.0151392
919.038	0.0150566
919.116	0.0151945
919.194	0.0151501
919.272	0.0150401
919.350	0.0151963
919.428	0.0152110
919.506	0.0152582
919.584	0.0152462
919.663	0.0151794
919.741	0.0152053
919.819	0.0152347
919.897	0.0154063
