05/20/2022	21:20:34	Ver.	4.1	UNKNOWN
Optical Delay	599.975067	Delta X		0.078125	Sweeps	1	Scan Rate	0/0
Coordinates	Axis 1	NaN	Axis 2	NaN	Axis 3	NaN	Axis 4	NaN	Axis 5	NaN	Axis 6	0.000000
TX Power	0.000000	RX Power	0.000000

599.975	0.0156466
600.053	0.0156108
600.131	0.0156163
600.209	0.0157232
600.288	0.0157631
600.366	0.0155717
600.444	0.0156226
600.522	0.0156799
600.600	0.0154521
600.678	0.0156133
600.756	0.0156469
600.834	0.0156060
600.913	0.0154972
600.991	0.0155218
601.069	0.0157411
601.147	0.0157457
601.225	0.0156986
601.303	0.0156147
601.381	0.0157477
601.459	0.0156449
601.538	0.0157275
601.616	0.0157726
601.694	0.0156409
601.772	0.0156306
601.850	0.0156491
601.928	0.0157188
602.006	0.0157071
602.084	0.0156799
602.163	0.0157776
602.241	0.0157208
602.319	0.0156985
602.397	0.0158175
602.475	0.0156168
602.553	0.0156743
602.631	0.0158038
602.709	0.0156880
602.788	0.0156586
602.866	0.0156752
602.944	0.0156459
603.022	0.0157415
603.100	0.0156812
603.178	0.0157641
603.256	0.0157088
603.334	0.0157186
603.413	0.0156802
603.491	0.0156181
603.569	0.0157258
603.647	0.0156992
603.725	0.0156773
603.803	0.0156685
603.881	0.0157598
603.959	0.0157114
604.038	0.0156110
604.116	0.0155862
604.194	0.0156416
604.272	0.0157194
604.350	0.0156064
604.428	0.0156350
604.506	0.0156677
604.584	0.0156691
604.663	0.0157285
604.741	0.0156284
604.819	0.0156606
604.897	0.0156631
604.975	0.0155582
605.053	0.0157299
605.131	0.0157153
605.209	0.0156258
605.288	0.0156748
605.366	0.0156710
605.444	0.0155519
605.522	0.0155646
605.600	0.0156109
605.678	0.0156239
605.756	0.0156991
605.834	0.0156306
605.913	0.0155834
605.991	0.0157429
606.069	0.0156628
606.147	0.0156944
606.225	0.0156879
606.303	0.0156448
606.381	0.0156762
606.459	0.0157046
606.538	0.0156905
606.616	0.0156493
606.694	0.0156880
606.772	0.0157815
606.850	0.0155888
606.928	0.0155883
607.006	0.0155341
607.084	0.0157191
607.163	0.0156731
607.241	0.0158002
607.319	0.0157600
607.397	0.0157134
607.475	0.0156961
607.553	0.0158054
607.631	0.0157330
607.709	0.0156855
607.788	0.0158513
607.866	0.0157112
607.944	0.0158231
608.022	0.0158031
608.100	0.0158275
608.178	0.0158125
608.256	0.0157919
608.334	0.0157119
608.413	0.0156488
608.491	0.0157682
608.569	0.0158463
608.647	0.0156944
608.725	0.0158184
608.803	0.0157655
608.881	0.0157936
608.959	0.0156686
609.038	0.0157584
609.116	0.0157415
609.194	0.0158848
609.272	0.0157505
609.350	0.0157175
609.428	0.0156283
609.506	0.0158184
609.584	0.0157793
609.663	0.0158273
609.741	0.0159190
609.819	0.0159157
609.897	0.0157635
609.975	0.0158507
610.053	0.0159848
610.131	0.0159373
610.209	0.0158521
610.288	0.0158699
610.366	0.0158993
610.444	0.0157706
610.522	0.0158571
610.600	0.0158778
610.678	0.0159042
610.756	0.0156578
610.834	0.0158344
610.913	0.0159545
610.991	0.0158064
611.069	0.0157415
611.147	0.0158221
611.225	0.0158514
611.303	0.0158162
611.381	0.0156458
611.459	0.0156598
611.538	0.0157623
611.616	0.0155847
611.694	0.0155980
611.772	0.0156358
611.850	0.0154944
611.928	0.0154704
612.006	0.0155523
612.084	0.0155446
612.163	0.0155789
612.241	0.0157111
612.319	0.0156168
612.397	0.0157031
612.475	0.0156784
612.553	0.0156240
612.631	0.0157761
612.709	0.0157206
612.788	0.0158957
612.866	0.0157117
612.944	0.0157899
613.022	0.0158355
613.100	0.0157635
613.178	0.0159019
613.256	0.0157967
613.334	0.0156601
613.413	0.0157602
613.491	0.0158079
613.569	0.0158051
613.647	0.0158224
613.725	0.0157237
613.803	0.0157993
613.881	0.0158042
613.959	0.0157664
614.038	0.0158199
614.116	0.0157175
614.194	0.0156484
614.272	0.0157823
614.350	0.0157788
614.428	0.0156555
614.506	0.0157406
614.584	0.0156445
614.663	0.0157216
614.741	0.0157104
614.819	0.0158695
614.897	0.0157124
614.975	0.0157218
615.053	0.0157630
615.131	0.0157543
615.209	0.0157968
615.288	0.0158172
615.366	0.0156292
615.444	0.0157870
615.522	0.0159196
615.600	0.0158557
615.678	0.0158781
615.756	0.0159145
615.834	0.0158247
615.913	0.0159724
615.991	0.0156297
616.069	0.0158257
616.147	0.0159177
616.225	0.0159507
616.303	0.0158881
616.381	0.0157677
616.459	0.0157015
616.538	0.0158356
616.616	0.0158285
616.694	0.0157993
616.772	0.0157183
616.850	0.0157433
616.928	0.0157304
617.006	0.0156484
617.084	0.0156979
617.163	0.0156852
617.241	0.0156581
617.319	0.0156406
617.397	0.0155816
617.475	0.0156129
617.553	0.0156395
617.631	0.0156863
617.709	0.0156767
617.788	0.0156639
617.866	0.0157324
617.944	0.0156456
618.022	0.0154568
618.100	0.0155832
618.178	0.0157529
618.256	0.0154608
618.334	0.0157378
618.413	0.0156755
618.491	0.0155729
618.569	0.0156085
618.647	0.0156737
618.725	0.0155623
618.803	0.0156351
618.881	0.0157150
618.959	0.0156329
619.038	0.0156548
619.116	0.0156004
619.194	0.0155951
619.272	0.0155824
619.350	0.0157148
619.428	0.0155076
619.506	0.0155481
619.584	0.0156601
619.663	0.0156187
619.741	0.0155508
619.819	0.0155289
619.897	0.0156428
619.975	0.0156133
620.053	0.0157219
620.131	0.0157758
620.209	0.0157056
620.288	0.0156683
620.366	0.0157259
620.444	0.0157749
620.522	0.0156656
620.600	0.0157338
620.678	0.0156590
620.756	0.0156454
620.834	0.0155742
620.913	0.0156703
620.991	0.0155979
621.069	0.0155833
621.147	0.0156796
621.225	0.0158114
621.303	0.0155877
621.381	0.0156751
621.459	0.0156681
621.538	0.0157071
621.616	0.0156388
621.694	0.0156025
621.772	0.0156451
621.850	0.0155793
621.928	0.0155443
622.006	0.0156585
622.084	0.0156605
622.163	0.0156077
622.241	0.0155949
622.319	0.0156639
622.397	0.0156062
622.475	0.0156042
622.553	0.0157092
622.631	0.0156846
622.709	0.0156026
622.788	0.0154967
622.866	0.0156877
622.944	0.0156276
623.022	0.0156091
623.100	0.0156287
623.178	0.0154871
623.256	0.0157626
623.334	0.0157445
623.413	0.0157983
623.491	0.0156905
623.569	0.0157347
623.647	0.0156610
623.725	0.0157244
623.803	0.0156866
623.881	0.0156899
623.959	0.0157658
624.038	0.0156248
624.116	0.0157931
624.194	0.0156434
624.272	0.0157369
624.350	0.0158222
624.428	0.0156059
624.506	0.0155835
624.584	0.0158231
624.663	0.0158389
624.741	0.0158087
624.819	0.0157204
624.897	0.0156922
624.975	0.0158125
625.053	0.0158933
625.131	0.0157401
625.209	0.0156935
625.288	0.0158459
625.366	0.0158039
625.444	0.0157791
625.522	0.0157654
625.600	0.0158275
625.678	0.0157652
625.756	0.0156071
625.834	0.0156428
625.913	0.0158147
625.991	0.0158054
626.069	0.0156200
626.147	0.0157750
626.225	0.0156063
626.303	0.0157419
626.381	0.0157221
626.459	0.0156467
626.538	0.0157838
626.616	0.0158241
626.694	0.0157516
626.772	0.0157110
626.850	0.0158682
626.928	0.0157590
627.006	0.0156716
627.084	0.0158316
627.163	0.0157065
627.241	0.0156966
627.319	0.0158622
627.397	0.0157975
627.475	0.0157064
627.553	0.0157896
627.631	0.0158414
627.709	0.0158212
627.788	0.0157458
627.866	0.0156910
627.944	0.0158498
628.022	0.0157793
628.100	0.0157391
628.178	0.0156598
628.256	0.0157282
628.334	0.0158083
628.413	0.0157227
628.491	0.0158395
628.569	0.0158715
628.647	0.0158124
628.725	0.0157253
628.803	0.0156855
628.881	0.0158356
628.959	0.0156932
629.038	0.0157231
629.116	0.0157942
629.194	0.0158673
629.272	0.0157127
629.350	0.0156327
629.428	0.0157281
629.506	0.0156226
629.584	0.0156803
629.663	0.0156782
629.741	0.0157454
629.819	0.0155818
629.897	0.0157151
629.975	0.0157382
630.053	0.0157543
630.131	0.0156535
630.209	0.0158183
630.288	0.0158931
630.366	0.0157333
630.444	0.0156581
630.522	0.0157496
630.600	0.0156097
630.678	0.0156745
630.756	0.0157066
630.834	0.0155901
630.913	0.0156760
630.991	0.0158298
631.069	0.0157943
631.147	0.0157851
631.225	0.0158300
631.303	0.0159416
631.381	0.0156732
631.459	0.0156763
631.538	0.0157736
631.616	0.0158780
631.694	0.0157722
631.772	0.0157226
631.850	0.0158408
631.928	0.0157703
632.006	0.0156719
632.084	0.0157719
632.163	0.0156685
632.241	0.0157230
632.319	0.0157825
632.397	0.0157085
632.475	0.0156487
632.553	0.0156799
632.631	0.0156849
632.709	0.0157050
632.788	0.0156812
632.866	0.0156312
632.944	0.0155997
633.022	0.0158416
633.100	0.0157020
633.178	0.0155481
633.256	0.0156190
633.334	0.0156274
633.413	0.0156215
633.491	0.0156468
633.569	0.0156001
633.647	0.0156164
633.725	0.0156097
633.803	0.0157359
633.881	0.0156441
633.959	0.0156321
634.038	0.0157118
634.116	0.0155597
634.194	0.0156055
634.272	0.0155518
634.350	0.0156552
634.428	0.0157384
634.506	0.0157051
634.584	0.0157273
634.663	0.0156035
634.741	0.0155562
634.819	0.0157696
634.897	0.0157095
634.975	0.0155968
635.053	0.0155664
635.131	0.0156467
635.209	0.0158113
635.288	0.0156473
635.366	0.0156828
635.444	0.0155851
635.522	0.0156056
635.600	0.0156748
635.678	0.0155891
635.756	0.0156536
635.834	0.0156927
635.913	0.0157053
635.991	0.0156145
636.069	0.0158512
636.147	0.0157356
636.225	0.0156767
636.303	0.0156688
636.381	0.0158109
636.459	0.0157398
636.538	0.0156641
636.616	0.0158553
636.694	0.0157849
636.772	0.0158257
636.850	0.0158288
636.928	0.0158733
637.006	0.0158704
637.084	0.0158958
637.163	0.0158615
637.241	0.0159902
637.319	0.0158289
637.397	0.0156914
637.475	0.0159144
637.553	0.0158294
637.631	0.0159845
637.709	0.0158561
637.788	0.0158923
637.866	0.0159679
637.944	0.0158608
638.022	0.0159032
638.100	0.0159418
638.178	0.0158910
638.256	0.0159363
638.334	0.0158320
638.413	0.0158754
638.491	0.0159006
638.569	0.0159268
638.647	0.0158203
638.725	0.0157936
638.803	0.0158141
638.881	0.0157927
638.959	0.0158933
639.038	0.0158148
639.116	0.0158545
639.194	0.0159685
639.272	0.0157822
639.350	0.0158080
639.428	0.0159010
639.506	0.0157015
639.584	0.0157968
639.663	0.0158476
639.741	0.0157218
639.819	0.0157160
639.897	0.0159573
639.975	0.0159644
640.053	0.0157835
640.131	0.0157442
640.209	0.0157411
640.288	0.0157548
640.366	0.0158858
640.444	0.0159645
640.522	0.0158650
640.600	0.0157271
640.678	0.0157101
640.756	0.0158841
640.834	0.0159901
640.913	0.0159525
640.991	0.0158681
641.069	0.0159400
641.147	0.0159112
641.225	0.0158894
641.303	0.0158865
641.381	0.0157757
641.459	0.0158853
641.538	0.0157673
641.616	0.0158058
641.694	0.0158353
641.772	0.0159119
641.850	0.0158694
641.928	0.0158168
642.006	0.0158619
642.084	0.0157368
642.163	0.0158107
642.241	0.0156607
642.319	0.0157464
642.397	0.0158983
642.475	0.0158762
642.553	0.0159045
642.631	0.0158164
642.709	0.0156993
642.788	0.0157771
642.866	0.0156950
642.944	0.0157204
643.022	0.0157585
643.100	0.0158101
643.178	0.0158563
643.256	0.0157549
643.334	0.0157018
643.413	0.0157085
643.491	0.0157262
643.569	0.0157555
643.647	0.0157744
643.725	0.0158776
643.803	0.0157823
643.881	0.0157452
643.959	0.0157895
644.038	0.0157457
644.116	0.0157557
644.194	0.0157558
644.272	0.0156112
644.350	0.0157323
644.428	0.0157507
644.506	0.0157352
644.584	0.0157520
644.663	0.0157425
644.741	0.0155677
644.819	0.0156139
644.897	0.0157813
644.975	0.0158003
645.053	0.0158367
645.131	0.0159451
645.209	0.0156335
645.288	0.0156802
645.366	0.0156893
645.444	0.0157111
645.522	0.0157776
645.600	0.0160560
645.678	0.0157426
645.756	0.0157584
645.834	0.0156078
645.913	0.0156324
645.991	0.0157291
646.069	0.0157914
646.147	0.0157997
646.225	0.0156998
646.303	0.0157330
646.381	0.0157605
646.459	0.0157204
646.538	0.0158820
646.616	0.0158334
646.694	0.0158397
646.772	0.0157024
646.850	0.0157435
646.928	0.0158180
647.006	0.0158450
647.084	0.0157793
647.163	0.0158035
647.241	0.0158248
647.319	0.0156963
647.397	0.0157667
647.475	0.0158059
647.553	0.0157455
647.631	0.0157619
647.709	0.0159866
647.788	0.0158566
647.866	0.0157707
647.944	0.0157549
648.022	0.0158418
648.100	0.0158092
648.178	0.0157876
648.256	0.0158270
648.334	0.0157809
648.413	0.0156391
648.491	0.0157632
648.569	0.0158235
648.647	0.0159339
648.725	0.0158874
648.803	0.0157520
648.881	0.0155605
648.959	0.0157468
649.038	0.0157279
649.116	0.0158586
649.194	0.0158867
649.272	0.0157027
649.350	0.0157239
649.428	0.0156221
649.506	0.0157642
649.584	0.0157446
649.663	0.0158415
649.741	0.0156490
649.819	0.0155993
649.897	0.0155344
649.975	0.0156559
650.053	0.0157563
650.131	0.0156423
650.209	0.0156647
650.288	0.0158018
650.366	0.0156139
650.444	0.0156678
650.522	0.0157149
650.600	0.0156996
650.678	0.0155640
650.756	0.0157020
650.834	0.0156754
650.913	0.0155172
650.991	0.0156936
651.069	0.0156915
651.147	0.0156595
651.225	0.0156065
651.303	0.0156013
651.381	0.0157514
651.459	0.0156920
651.538	0.0156184
651.616	0.0156116
651.694	0.0156260
651.772	0.0157489
651.850	0.0156940
651.928	0.0156617
652.006	0.0156538
652.084	0.0155849
652.163	0.0156886
652.241	0.0157211
652.319	0.0157327
652.397	0.0156342
652.475	0.0155522
652.553	0.0156535
652.631	0.0156572
652.709	0.0155486
652.788	0.0155666
652.866	0.0155570
652.944	0.0156366
653.022	0.0156533
653.100	0.0157588
653.178	0.0156308
653.256	0.0155446
653.334	0.0156850
653.413	0.0155817
653.491	0.0155918
653.569	0.0155525
653.647	0.0156594
653.725	0.0155625
653.803	0.0155820
653.881	0.0156014
653.959	0.0155105
654.038	0.0155331
654.116	0.0155689
654.194	0.0156115
654.272	0.0156575
654.350	0.0155752
654.428	0.0154484
654.506	0.0154197
654.584	0.0154369
654.663	0.0155582
654.741	0.0156613
654.819	0.0155348
654.897	0.0155421
654.975	0.0154667
655.053	0.0154563
655.131	0.0156328
655.209	0.0154995
655.288	0.0156150
655.366	0.0156995
655.444	0.0155281
655.522	0.0156181
655.600	0.0156406
655.678	0.0156055
655.756	0.0156464
655.834	0.0156432
655.913	0.0158143
655.991	0.0157362
656.069	0.0156408
656.147	0.0155840
656.225	0.0157624
656.303	0.0157201
656.381	0.0157822
656.459	0.0157906
656.538	0.0157696
656.616	0.0157122
656.694	0.0157151
656.772	0.0157451
656.850	0.0156558
656.928	0.0158408
657.006	0.0157793
657.084	0.0157798
657.163	0.0158303
657.241	0.0155482
657.319	0.0155542
657.397	0.0156277
657.475	0.0157141
657.553	0.0156907
657.631	0.0156866
657.709	0.0158453
657.788	0.0157193
657.866	0.0156142
657.944	0.0156255
658.022	0.0157590
658.100	0.0157761
658.178	0.0156758
658.256	0.0157566
658.334	0.0157896
658.413	0.0157864
658.491	0.0157923
658.569	0.0156171
658.647	0.0158200
658.725	0.0157140
658.803	0.0156984
658.881	0.0156850
658.959	0.0156796
659.038	0.0158138
659.116	0.0156297
659.194	0.0156883
659.272	0.0157816
659.350	0.0157140
659.428	0.0156299
659.506	0.0156951
659.584	0.0157154
659.663	0.0156293
659.741	0.0157056
659.819	0.0157767
659.897	0.0157430
659.975	0.0157878
660.053	0.0159987
660.131	0.0159730
660.209	0.0157621
660.288	0.0159660
660.366	0.0159905
660.444	0.0159999
660.522	0.0158401
660.600	0.0157945
660.678	0.0158196
660.756	0.0158798
660.834	0.0157512
660.913	0.0157270
660.991	0.0157037
661.069	0.0158116
661.147	0.0157864
661.225	0.0156455
661.303	0.0158416
661.381	0.0157595
661.459	0.0155615
661.538	0.0157871
661.616	0.0158012
661.694	0.0158736
661.772	0.0157946
661.850	0.0157690
661.928	0.0157828
662.006	0.0157104
662.084	0.0158366
662.163	0.0158063
662.241	0.0159302
662.319	0.0158587
662.397	0.0159557
662.475	0.0157904
662.553	0.0158231
662.631	0.0157609
662.709	0.0156375
662.788	0.0157925
662.866	0.0157165
662.944	0.0156355
663.022	0.0157146
663.100	0.0156877
663.178	0.0156523
663.256	0.0156443
663.334	0.0155642
663.413	0.0156963
663.491	0.0156623
663.569	0.0157118
663.647	0.0157690
663.725	0.0157214
663.803	0.0158460
663.881	0.0157826
663.959	0.0158164
664.038	0.0158480
664.116	0.0159377
664.194	0.0160579
664.272	0.0158829
664.350	0.0159675
664.428	0.0161861
664.506	0.0163213
664.584	0.0161054
664.663	0.0161560
664.741	0.0163746
664.819	0.0162543
664.897	0.0161372
664.975	0.0163156
665.053	0.0162238
665.131	0.0163487
665.209	0.0162322
665.288	0.0161584
665.366	0.0162235
665.444	0.0160135
665.522	0.0159910
665.600	0.0159949
665.678	0.0159568
665.756	0.0157434
665.834	0.0158456
665.913	0.0157002
665.991	0.0155721
666.069	0.0156071
666.147	0.0155468
666.225	0.0154545
666.303	0.0153242
666.381	0.0153503
666.459	0.0152769
666.538	0.0155386
666.616	0.0153738
666.694	0.0153864
666.772	0.0153539
666.850	0.0153327
666.928	0.0154297
667.006	0.0154874
667.084	0.0154694
667.163	0.0154926
667.241	0.0156614
667.319	0.0155244
667.397	0.0154662
667.475	0.0156886
667.553	0.0157709
667.631	0.0158191
667.709	0.0158601
667.788	0.0160071
667.866	0.0161017
667.944	0.0160500
668.022	0.0162439
668.100	0.0163586
668.178	0.0163902
668.256	0.0164974
668.334	0.0165504
668.413	0.0165553
668.491	0.0166132
668.569	0.0165765
668.647	0.0165085
668.725	0.0166021
668.803	0.0166022
668.881	0.0164902
668.959	0.0163434
669.038	0.0164267
669.116	0.0163772
669.194	0.0163721
669.272	0.0164570
669.350	0.0161265
669.428	0.0161782
669.506	0.0161243
669.584	0.0160057
669.663	0.0158566
669.741	0.0156339
669.819	0.0156026
669.897	0.0156340
669.975	0.0154070
670.053	0.0152005
670.131	0.0152084
670.209	0.0150621
670.288	0.0149249
670.366	0.0148315
670.444	0.0148127
670.522	0.0145585
670.600	0.0144609
670.678	0.0145186
670.756	0.0143798
670.834	0.0144675
670.913	0.0143993
670.991	0.0144234
671.069	0.0145423
671.147	0.0146634
671.225	0.0148193
671.303	0.0148890
671.381	0.0150880
671.459	0.0151834
671.538	0.0154200
671.616	0.0155716
671.694	0.0157794
671.772	0.0159389
671.850	0.0163127
671.928	0.0164998
672.006	0.0165969
672.084	0.0169011
672.163	0.0170019
672.241	0.0170683
672.319	0.0171077
672.397	0.0173591
672.475	0.0175177
672.553	0.0175508
672.631	0.0175119
672.709	0.0176452
672.788	0.0176613
672.866	0.0175388
672.944	0.0174770
673.022	0.0173091
673.100	0.0171709
673.178	0.0170527
673.256	0.0165957
673.334	0.0164550
673.413	0.0163221
673.491	0.0160512
673.569	0.0159020
673.647	0.0157081
673.725	0.0154105
673.803	0.0152709
673.881	0.0152425
673.959	0.0149921
674.038	0.0147654
674.116	0.0145901
674.194	0.0144101
674.272	0.0143400
674.350	0.0141967
674.428	0.0141448
674.506	0.0141702
674.584	0.0139397
674.663	0.0139001
674.741	0.0139710
674.819	0.0139048
674.897	0.0138409
674.975	0.0138335
675.053	0.0138390
675.131	0.0139597
675.209	0.0140673
675.288	0.0142265
675.366	0.0143345
675.444	0.0145679
675.522	0.0147071
675.600	0.0149393
675.678	0.0150466
675.756	0.0153757
675.834	0.0155664
675.913	0.0158537
675.991	0.0161239
676.069	0.0163548
676.147	0.0166564
676.225	0.0168657
676.303	0.0169006
676.381	0.0172069
676.459	0.0173944
676.538	0.0174818
676.616	0.0175318
676.694	0.0176079
676.772	0.0176650
676.850	0.0176105
676.928	0.0177872
677.006	0.0177328
677.084	0.0175925
677.163	0.0174927
677.241	0.0174942
677.319	0.0171707
677.397	0.0169910
677.475	0.0168578
677.553	0.0165944
677.631	0.0163142
677.709	0.0161527
677.788	0.0156943
677.866	0.0155219
677.944	0.0153034
678.022	0.0150262
678.100	0.0147966
678.178	0.0145972
678.256	0.0145117
678.334	0.0143564
678.413	0.0142215
678.491	0.0140832
678.569	0.0140218
678.647	0.0140324
678.725	0.0139924
678.803	0.0137298
678.881	0.0137433
678.959	0.0137998
679.038	0.0140142
679.116	0.0140822
679.194	0.0141780
679.272	0.0144902
679.350	0.0145438
679.428	0.0147549
679.506	0.0150811
679.584	0.0152496
679.663	0.0155915
679.741	0.0158086
679.819	0.0159750
679.897	0.0160312
679.975	0.0163422
680.053	0.0164226
680.131	0.0164446
680.209	0.0165112
680.288	0.0166681
680.366	0.0166746
680.444	0.0167353
680.522	0.0167214
680.600	0.0165453
680.678	0.0164392
680.756	0.0164225
680.834	0.0164497
680.913	0.0163281
680.991	0.0161745
681.069	0.0161338
681.147	0.0160040
681.225	0.0157771
681.303	0.0156754
681.381	0.0157430
681.459	0.0153691
681.538	0.0154536
681.616	0.0153216
681.694	0.0152655
681.772	0.0150224
681.850	0.0150959
681.928	0.0151086
682.006	0.0150583
682.084	0.0152379
682.163	0.0152380
682.241	0.0152705
682.319	0.0152819
682.397	0.0153065
682.475	0.0154817
682.553	0.0154967
682.631	0.0157061
682.709	0.0158829
682.788	0.0159856
682.866	0.0160641
682.944	0.0161463
683.022	0.0161463
683.100	0.0163948
683.178	0.0165077
683.256	0.0166052
683.334	0.0167413
683.413	0.0166082
683.491	0.0168025
683.569	0.0167619
683.647	0.0166813
683.725	0.0167198
683.803	0.0169050
683.881	0.0166774
683.959	0.0165420
684.038	0.0163524
684.116	0.0164622
684.194	0.0163727
684.272	0.0161158
684.350	0.0159599
684.428	0.0159238
684.506	0.0157632
684.584	0.0155777
684.663	0.0154570
684.741	0.0153397
684.819	0.0152795
684.897	0.0151007
684.975	0.0150699
685.053	0.0150736
685.131	0.0148371
685.209	0.0147894
685.288	0.0146783
685.366	0.0146155
685.444	0.0145846
685.522	0.0145210
685.600	0.0145200
685.678	0.0145885
685.756	0.0145566
685.834	0.0146303
685.913	0.0147599
685.991	0.0147870
686.069	0.0149030
686.147	0.0148212
686.225	0.0150765
686.303	0.0149841
686.381	0.0151537
686.459	0.0153146
686.538	0.0152839
686.616	0.0153999
686.694	0.0155165
686.772	0.0154126
686.850	0.0155746
686.928	0.0155715
687.006	0.0156511
687.084	0.0157362
687.163	0.0158736
687.241	0.0159445
687.319	0.0159902
687.397	0.0161480
687.475	0.0161771
687.553	0.0162778
687.631	0.0162489
687.709	0.0163452
687.788	0.0164541
687.866	0.0164971
687.944	0.0164475
688.022	0.0163734
688.100	0.0163471
688.178	0.0162885
688.256	0.0164351
688.334	0.0164703
688.413	0.0163100
688.491	0.0163138
688.569	0.0164939
688.647	0.0166918
688.725	0.0165950
688.803	0.0166759
688.881	0.0166594
688.959	0.0167473
689.038	0.0168404
689.116	0.0169247
689.194	0.0168732
689.272	0.0167810
689.350	0.0168402
689.428	0.0169401
689.506	0.0166897
689.584	0.0166859
689.663	0.0166045
689.741	0.0166824
689.819	0.0164744
689.897	0.0162901
689.975	0.0162065
690.053	0.0159563
690.131	0.0157905
690.209	0.0155708
690.288	0.0154251
690.366	0.0151338
690.444	0.0148077
690.522	0.0145375
690.600	0.0142508
690.678	0.0140157
690.756	0.0139079
690.834	0.0137173
690.913	0.0134753
690.991	0.0132889
691.069	0.0131274
691.147	0.0131049
691.225	0.0131282
691.303	0.0131451
691.381	0.0132024
691.459	0.0132265
691.538	0.0133392
691.616	0.0137100
691.694	0.0138184
691.772	0.0139684
691.850	0.0143583
691.928	0.0147800
692.006	0.0149722
692.084	0.0153158
692.163	0.0157745
692.241	0.0160534
692.319	0.0164021
692.397	0.0168036
692.475	0.0171227
692.553	0.0174301
692.631	0.0178236
692.709	0.0180063
692.788	0.0181605
692.866	0.0183101
692.944	0.0186157
693.022	0.0187560
693.100	0.0188743
693.178	0.0188005
693.256	0.0186596
693.334	0.0186254
693.413	0.0184601
693.491	0.0181593
693.569	0.0180625
693.647	0.0178811
693.725	0.0176090
693.803	0.0172615
693.881	0.0166988
693.959	0.0165115
694.038	0.0163461
694.116	0.0160291
694.194	0.0155385
694.272	0.0153301
694.350	0.0150845
694.428	0.0147997
694.506	0.0145790
694.584	0.0144277
694.663	0.0144224
694.741	0.0141508
694.819	0.0142416
694.897	0.0140985
694.975	0.0140511
695.053	0.0141885
695.131	0.0141087
695.209	0.0143087
695.288	0.0144028
695.366	0.0143511
695.444	0.0144339
695.522	0.0148008
695.600	0.0147726
695.678	0.0149635
695.756	0.0150277
695.834	0.0152177
695.913	0.0155627
695.991	0.0156416
696.069	0.0157185
696.147	0.0159637
696.225	0.0161244
696.303	0.0163226
696.381	0.0164859
696.459	0.0165527
696.538	0.0166583
696.616	0.0166983
696.694	0.0168787
696.772	0.0168513
696.850	0.0169274
696.928	0.0169444
697.006	0.0169888
697.084	0.0167114
697.163	0.0165105
697.241	0.0164459
697.319	0.0164642
697.397	0.0163524
697.475	0.0160849
697.553	0.0160373
697.631	0.0157784
697.709	0.0154880
697.788	0.0154044
697.866	0.0152916
697.944	0.0150324
698.022	0.0148048
698.100	0.0148753
698.178	0.0147514
698.256	0.0145762
698.334	0.0143600
698.413	0.0143381
698.491	0.0142594
698.569	0.0142809
698.647	0.0142431
698.725	0.0140811
698.803	0.0142779
698.881	0.0143035
698.959	0.0143382
699.038	0.0146140
699.116	0.0146369
699.194	0.0149522
699.272	0.0153452
699.350	0.0154762
699.428	0.0157587
699.506	0.0160078
699.584	0.0162055
699.663	0.0165311
699.741	0.0168688
699.819	0.0170316
699.897	0.0172205
699.975	0.0174018
700.053	0.0175238
700.131	0.0175912
700.209	0.0175765
700.288	0.0176784
700.366	0.0174771
700.444	0.0174328
700.522	0.0174618
700.600	0.0173102
700.678	0.0171480
700.756	0.0169111
700.834	0.0166985
700.913	0.0163544
700.991	0.0161473
701.069	0.0157967
701.147	0.0157005
701.225	0.0153020
701.303	0.0149678
701.381	0.0148026
701.459	0.0144872
701.538	0.0143658
701.616	0.0141801
701.694	0.0140060
701.772	0.0138403
701.850	0.0137157
701.928	0.0136098
702.006	0.0135764
702.084	0.0136352
702.163	0.0137818
702.241	0.0138484
702.319	0.0139211
702.397	0.0139664
702.475	0.0142349
702.553	0.0144830
702.631	0.0146420
702.709	0.0147054
702.788	0.0150654
702.866	0.0151280
702.944	0.0152905
703.022	0.0154989
703.100	0.0156303
703.178	0.0157728
703.256	0.0160992
703.334	0.0161597
703.413	0.0163322
703.491	0.0165828
703.569	0.0166566
703.647	0.0168854
703.725	0.0170742
703.803	0.0171537
703.881	0.0171707
703.959	0.0172041
704.038	0.0173147
704.116	0.0172680
704.194	0.0173235
704.272	0.0174036
704.350	0.0172144
704.428	0.0173220
704.506	0.0169820
704.584	0.0169454
704.663	0.0168099
704.741	0.0167562
704.819	0.0162878
704.897	0.0161013
704.975	0.0159251
705.053	0.0157582
705.131	0.0153452
705.209	0.0150394
705.288	0.0147375
705.366	0.0145708
705.444	0.0141975
705.522	0.0141862
705.600	0.0139867
705.678	0.0137415
705.756	0.0137263
705.834	0.0136858
705.913	0.0136607
705.991	0.0137112
706.069	0.0136390
706.147	0.0139047
706.225	0.0142838
706.303	0.0145779
706.381	0.0147359
706.459	0.0150215
706.538	0.0152487
706.616	0.0153435
706.694	0.0158232
706.772	0.0159321
706.850	0.0162339
706.928	0.0167204
707.006	0.0168426
707.084	0.0168953
707.163	0.0172460
707.241	0.0173190
707.319	0.0175094
707.397	0.0176315
707.475	0.0177030
707.553	0.0179371
707.631	0.0177369
707.709	0.0176431
707.788	0.0178181
707.866	0.0176551
707.944	0.0174409
708.022	0.0172794
708.100	0.0170434
708.178	0.0167278
708.256	0.0165298
708.334	0.0162995
708.413	0.0161887
708.491	0.0156110
708.569	0.0153185
708.647	0.0150689
708.725	0.0148398
708.803	0.0143414
708.881	0.0141682
708.959	0.0138999
709.038	0.0138102
709.116	0.0137380
709.194	0.0135836
709.272	0.0135043
709.350	0.0135114
709.428	0.0136243
709.506	0.0134742
709.584	0.0136874
709.663	0.0137885
709.741	0.0139861
709.819	0.0140635
709.897	0.0142269
709.975	0.0144160
710.053	0.0145931
710.131	0.0146431
710.209	0.0148955
710.288	0.0150560
710.366	0.0153216
710.444	0.0155679
710.522	0.0156016
710.600	0.0158624
710.678	0.0160665
710.756	0.0161333
710.834	0.0162977
710.913	0.0166985
710.991	0.0167886
711.069	0.0170274
711.147	0.0170573
711.225	0.0173512
711.303	0.0172217
711.381	0.0173665
711.459	0.0174856
711.538	0.0173323
711.616	0.0175092
711.694	0.0174883
711.772	0.0174817
711.850	0.0173283
711.928	0.0174793
712.006	0.0172153
712.084	0.0169987
712.163	0.0169317
712.241	0.0168123
712.319	0.0167089
712.397	0.0165643
712.475	0.0164708
712.553	0.0164900
712.631	0.0163234
712.709	0.0160832
712.788	0.0160119
712.866	0.0159429
712.944	0.0158287
713.022	0.0155788
713.100	0.0155682
713.178	0.0155403
713.256	0.0153047
713.334	0.0151929
713.413	0.0151142
713.491	0.0150074
713.569	0.0151051
713.647	0.0149891
713.725	0.0149081
713.803	0.0147183
713.881	0.0147726
713.959	0.0147668
714.038	0.0146797
714.116	0.0146016
714.194	0.0145690
714.272	0.0144381
714.350	0.0145657
714.428	0.0145914
714.506	0.0146072
714.584	0.0143845
714.663	0.0143929
714.741	0.0145004
714.819	0.0143996
714.897	0.0143928
714.975	0.0143091
715.053	0.0144953
715.131	0.0146043
715.209	0.0145516
715.288	0.0145847
715.366	0.0146606
715.444	0.0147135
715.522	0.0148790
715.600	0.0150175
715.678	0.0151935
715.756	0.0152361
715.834	0.0156337
715.913	0.0155107
715.991	0.0157198
716.069	0.0159232
716.147	0.0159573
716.225	0.0161044
716.303	0.0162347
716.381	0.0162745
716.459	0.0163161
716.538	0.0163843
716.616	0.0165417
716.694	0.0167410
716.772	0.0165438
716.850	0.0165903
716.928	0.0167803
717.006	0.0168637
717.084	0.0169342
717.163	0.0169752
717.241	0.0171165
717.319	0.0170578
717.397	0.0171378
717.475	0.0170497
717.553	0.0170795
717.631	0.0170529
717.709	0.0169346
717.788	0.0169306
717.866	0.0170454
717.944	0.0170144
718.022	0.0168889
718.100	0.0167378
718.178	0.0166466
718.256	0.0163908
718.334	0.0165089
718.413	0.0162929
718.491	0.0162856
718.569	0.0161083
718.647	0.0157496
718.725	0.0157179
718.803	0.0154008
718.881	0.0153364
718.959	0.0151459
719.038	0.0150882
719.116	0.0148677
719.194	0.0145557
719.272	0.0146158
719.350	0.0145064
719.428	0.0143784
719.506	0.0144003
719.584	0.0143591
719.663	0.0143000
719.741	0.0145288
719.819	0.0146067
719.897	0.0149642
719.975	0.0148737
720.053	0.0153353
720.131	0.0155332
720.209	0.0155798
720.288	0.0157697
720.366	0.0159674
720.444	0.0162051
720.522	0.0162758
720.600	0.0163632
720.678	0.0164324
720.756	0.0163756
720.834	0.0162236
720.913	0.0161360
720.991	0.0159045
721.069	0.0158845
721.147	0.0157325
721.225	0.0156371
721.303	0.0156001
721.381	0.0154457
721.459	0.0152625
721.538	0.0152483
721.616	0.0151225
721.694	0.0151976
721.772	0.0153031
721.850	0.0152621
721.928	0.0152351
722.006	0.0152644
722.084	0.0154740
722.163	0.0154342
722.241	0.0155607
722.319	0.0158281
722.397	0.0158693
722.475	0.0159863
722.553	0.0162395
722.631	0.0163586
722.709	0.0164766
722.788	0.0167988
722.866	0.0168690
722.944	0.0168600
723.022	0.0168977
723.100	0.0171149
723.178	0.0170820
723.256	0.0169070
723.334	0.0170436
723.413	0.0169938
723.491	0.0170284
723.569	0.0168378
723.647	0.0165640
723.725	0.0163828
723.803	0.0161919
723.881	0.0159191
723.959	0.0157500
724.038	0.0154756
724.116	0.0152170
724.194	0.0150967
724.272	0.0148942
724.350	0.0146383
724.428	0.0144374
724.506	0.0143338
724.584	0.0141975
724.663	0.0139108
724.741	0.0138965
724.819	0.0140744
724.897	0.0140720
724.975	0.0139565
725.053	0.0140263
725.131	0.0140995
725.209	0.0139592
725.288	0.0140975
725.366	0.0144418
725.444	0.0143178
725.522	0.0145411
725.600	0.0147166
725.678	0.0148649
725.756	0.0151710
725.834	0.0155422
725.913	0.0157574
725.991	0.0159338
726.069	0.0162125
726.147	0.0165311
726.225	0.0167622
726.303	0.0167673
726.381	0.0169640
726.459	0.0171336
726.538	0.0170426
726.616	0.0171378
726.694	0.0170261
726.772	0.0171754
726.850	0.0170901
726.928	0.0170898
727.006	0.0169756
727.084	0.0168539
727.163	0.0168526
727.241	0.0168275
727.319	0.0166914
727.397	0.0165985
727.475	0.0165031
727.553	0.0163392
727.631	0.0159917
727.709	0.0158147
727.788	0.0158743
727.866	0.0156626
727.944	0.0154897
728.022	0.0155371
728.100	0.0155894
728.178	0.0151585
728.256	0.0152635
728.334	0.0154695
728.413	0.0152837
728.491	0.0152103
728.569	0.0153597
728.647	0.0152132
728.725	0.0152773
728.803	0.0153502
728.881	0.0155290
728.959	0.0153555
729.038	0.0155413
729.116	0.0154071
729.194	0.0155103
729.272	0.0155726
729.350	0.0155643
729.428	0.0155259
729.506	0.0155836
729.584	0.0155950
729.663	0.0155285
729.741	0.0154287
729.819	0.0153583
729.897	0.0153173
729.975	0.0153246
730.053	0.0152156
730.131	0.0152481
730.209	0.0151850
730.288	0.0150564
730.366	0.0150927
730.444	0.0149284
730.522	0.0149488
730.600	0.0148298
730.678	0.0147443
730.756	0.0146552
730.834	0.0148112
730.913	0.0148289
730.991	0.0146914
731.069	0.0146842
731.147	0.0145017
731.225	0.0145734
731.303	0.0148180
731.381	0.0148172
731.459	0.0149010
731.538	0.0150809
731.616	0.0151486
731.694	0.0153471
731.772	0.0156004
731.850	0.0158511
731.928	0.0162090
732.006	0.0164015
732.084	0.0166418
732.163	0.0168697
732.241	0.0173279
732.319	0.0173350
732.397	0.0176386
732.475	0.0177051
732.553	0.0177577
732.631	0.0178860
732.709	0.0177216
732.788	0.0179494
732.866	0.0176620
732.944	0.0175629
733.022	0.0176839
733.100	0.0174355
733.178	0.0172977
733.256	0.0171047
733.334	0.0170370
733.413	0.0167375
733.491	0.0167160
733.569	0.0165308
733.647	0.0163755
733.725	0.0161908
733.803	0.0161359
733.881	0.0160810
733.959	0.0157278
734.038	0.0156372
734.116	0.0157299
734.194	0.0154646
734.272	0.0153310
734.350	0.0153822
734.428	0.0151853
734.506	0.0151631
734.584	0.0149406
734.663	0.0148141
734.741	0.0148921
734.819	0.0147574
734.897	0.0147842
734.975	0.0145563
735.053	0.0145597
735.131	0.0145805
735.209	0.0145734
735.288	0.0145786
735.366	0.0144836
735.444	0.0144701
735.522	0.0144561
735.600	0.0145168
735.678	0.0148565
735.756	0.0148309
735.834	0.0146709
735.913	0.0149915
735.991	0.0150457
736.069	0.0150085
736.147	0.0150552
736.225	0.0153136
736.303	0.0153774
736.381	0.0153193
736.459	0.0154284
736.538	0.0154290
736.616	0.0155437
736.694	0.0155875
736.772	0.0156235
736.850	0.0157979
736.928	0.0156290
737.006	0.0157236
737.084	0.0157613
737.163	0.0158788
737.241	0.0158673
737.319	0.0159001
737.397	0.0157164
737.475	0.0157283
737.553	0.0159401
737.631	0.0157650
737.709	0.0157608
737.788	0.0157406
737.866	0.0155995
737.944	0.0156750
738.022	0.0156269
738.100	0.0155373
738.178	0.0157016
738.256	0.0158427
738.334	0.0156976
738.413	0.0159485
738.491	0.0159566
738.569	0.0159743
738.647	0.0162305
738.725	0.0163880
738.803	0.0164028
738.881	0.0165797
738.959	0.0166740
739.038	0.0167477
739.116	0.0167377
739.194	0.0168857
739.272	0.0169704
739.350	0.0167802
739.428	0.0169223
739.506	0.0167942
739.584	0.0168547
739.663	0.0167326
739.741	0.0167130
739.819	0.0164184
739.897	0.0165173
739.975	0.0163622
740.053	0.0162388
740.131	0.0161507
740.209	0.0160334
740.288	0.0158305
740.366	0.0157367
740.444	0.0156242
740.522	0.0153999
740.600	0.0154023
740.678	0.0151439
740.756	0.0150444
740.834	0.0149647
740.913	0.0148281
740.991	0.0148270
741.069	0.0149209
741.147	0.0146803
741.225	0.0146454
741.303	0.0147130
741.381	0.0148143
741.459	0.0149356
741.538	0.0148200
741.616	0.0149113
741.694	0.0150594
741.772	0.0150329
741.850	0.0153416
741.928	0.0154742
742.006	0.0154787
742.084	0.0155344
742.163	0.0157307
742.241	0.0157609
742.319	0.0158617
742.397	0.0159872
742.475	0.0161359
742.553	0.0160902
742.631	0.0161632
742.709	0.0161578
742.788	0.0161913
742.866	0.0162435
742.944	0.0163137
743.022	0.0162708
743.100	0.0162344
743.178	0.0162132
743.256	0.0163478
743.334	0.0162423
743.413	0.0161315
743.491	0.0160422
743.569	0.0160446
743.647	0.0159116
743.725	0.0157863
743.803	0.0159475
743.881	0.0158554
743.959	0.0159023
744.038	0.0158775
744.116	0.0158319
744.194	0.0158183
744.272	0.0157678
744.350	0.0157680
744.428	0.0157752
744.506	0.0156897
744.584	0.0155510
744.663	0.0153913
744.741	0.0153743
744.819	0.0155182
744.897	0.0152489
744.975	0.0151231
745.053	0.0150267
745.131	0.0151470
745.209	0.0152835
745.288	0.0152679
745.366	0.0152200
745.444	0.0152441
745.522	0.0153284
745.600	0.0152995
745.678	0.0153737
745.756	0.0154333
745.834	0.0155454
745.913	0.0157186
745.991	0.0158216
746.069	0.0157916
746.147	0.0159927
746.225	0.0160178
746.303	0.0159496
746.381	0.0160326
746.459	0.0159819
746.538	0.0162225
746.616	0.0163470
746.694	0.0162486
746.772	0.0161637
746.850	0.0160734
746.928	0.0161806
747.006	0.0163457
747.084	0.0161152
747.163	0.0161847
747.241	0.0162806
747.319	0.0161948
747.397	0.0162659
747.475	0.0160465
747.553	0.0159616
747.631	0.0160764
747.709	0.0159411
747.788	0.0159751
747.866	0.0158403
747.944	0.0160168
748.022	0.0160305
748.100	0.0157181
748.178	0.0157452
748.256	0.0158635
748.334	0.0156640
748.413	0.0157563
748.491	0.0156403
748.569	0.0156351
748.647	0.0154103
748.725	0.0153527
748.803	0.0154599
748.881	0.0154156
748.959	0.0156485
749.038	0.0156526
749.116	0.0154533
749.194	0.0155467
749.272	0.0157898
749.350	0.0158890
749.428	0.0159440
749.506	0.0158177
749.584	0.0158974
749.663	0.0160493
749.741	0.0160761
749.819	0.0162617
749.897	0.0162081
749.975	0.0160526
750.053	0.0160730
750.131	0.0161329
750.209	0.0161390
750.288	0.0160084
750.366	0.0158308
750.444	0.0157680
750.522	0.0155478
750.600	0.0155617
750.678	0.0154779
750.756	0.0154103
750.834	0.0152699
750.913	0.0151649
750.991	0.0151055
751.069	0.0151591
751.147	0.0151477
751.225	0.0150422
751.303	0.0151944
751.381	0.0150763
751.459	0.0151186
751.538	0.0152020
751.616	0.0152068
751.694	0.0153803
751.772	0.0154948
751.850	0.0154774
751.928	0.0156741
752.006	0.0155859
752.084	0.0157361
752.163	0.0157175
752.241	0.0157719
752.319	0.0159137
752.397	0.0158960
752.475	0.0158975
752.553	0.0160396
752.631	0.0159792
752.709	0.0160459
752.788	0.0158650
752.866	0.0160171
752.944	0.0158456
753.022	0.0159476
753.100	0.0161075
753.178	0.0159961
753.256	0.0160041
753.334	0.0159534
753.413	0.0159645
753.491	0.0160941
753.569	0.0160420
753.647	0.0161645
753.725	0.0160862
753.803	0.0160384
753.881	0.0159789
753.959	0.0161291
754.038	0.0159183
754.116	0.0159306
754.194	0.0157875
754.272	0.0157362
754.350	0.0156953
754.428	0.0157949
754.506	0.0157920
754.584	0.0156247
754.663	0.0157797
754.741	0.0157042
754.819	0.0156934
754.897	0.0155981
754.975	0.0156006
755.053	0.0156193
755.131	0.0156718
755.209	0.0156808
755.288	0.0157542
755.366	0.0155618
755.444	0.0156783
755.522	0.0157293
755.600	0.0157847
755.678	0.0156627
755.756	0.0158559
755.834	0.0157729
755.913	0.0157716
755.991	0.0157274
756.069	0.0157396
756.147	0.0157844
756.225	0.0157401
756.303	0.0158199
756.381	0.0158907
756.459	0.0159418
756.538	0.0161801
756.616	0.0161788
756.694	0.0160945
756.772	0.0162276
756.850	0.0162809
756.928	0.0161552
757.006	0.0163415
757.084	0.0164001
757.163	0.0164403
757.241	0.0165009
757.319	0.0164015
757.397	0.0164556
757.475	0.0164050
757.553	0.0163668
757.631	0.0163160
757.709	0.0163908
757.788	0.0163084
757.866	0.0161471
757.944	0.0160369
758.022	0.0157890
758.100	0.0158216
758.178	0.0156765
758.256	0.0155023
758.334	0.0153006
758.413	0.0150530
758.491	0.0150600
758.569	0.0148098
758.647	0.0148876
758.725	0.0146721
758.803	0.0146638
758.881	0.0147012
758.959	0.0144778
759.038	0.0146080
759.116	0.0145770
759.194	0.0146294
759.272	0.0147340
759.350	0.0147795
759.428	0.0147134
759.506	0.0147854
759.584	0.0151864
759.663	0.0150565
759.741	0.0150457
759.819	0.0152568
759.897	0.0152779
759.975	0.0154768
760.053	0.0155108
760.131	0.0157034
760.209	0.0158257
760.288	0.0158444
760.366	0.0159001
760.444	0.0159581
760.522	0.0160392
760.600	0.0161230
760.678	0.0161642
760.756	0.0162245
760.834	0.0161731
760.913	0.0162916
760.991	0.0162672
761.069	0.0161919
761.147	0.0161695
761.225	0.0161523
761.303	0.0160199
761.381	0.0160802
761.459	0.0160732
761.538	0.0160422
761.616	0.0161520
761.694	0.0160011
761.772	0.0160038
761.850	0.0160387
761.928	0.0160685
762.006	0.0160092
762.084	0.0159599
762.163	0.0161900
762.241	0.0161372
762.319	0.0160429
762.397	0.0161326
762.475	0.0162540
762.553	0.0162061
762.631	0.0161825
762.709	0.0162399
762.788	0.0163237
762.866	0.0163507
762.944	0.0163779
763.022	0.0163194
763.100	0.0163213
763.178	0.0161701
763.256	0.0161686
763.334	0.0161320
763.413	0.0161892
763.491	0.0159470
763.569	0.0159254
763.647	0.0157537
763.725	0.0158382
763.803	0.0155905
763.881	0.0156023
763.959	0.0154227
764.038	0.0153516
764.116	0.0153021
764.194	0.0151513
764.272	0.0150384
764.350	0.0150493
764.428	0.0150763
764.506	0.0150062
764.584	0.0148577
764.663	0.0149432
764.741	0.0149755
764.819	0.0149924
764.897	0.0151418
764.975	0.0152282
765.053	0.0152100
765.131	0.0153564
765.209	0.0153153
765.288	0.0154546
765.366	0.0156283
765.444	0.0156608
765.522	0.0158012
765.600	0.0160032
765.678	0.0160787
765.756	0.0160773
765.834	0.0160948
765.913	0.0162807
765.991	0.0162962
766.069	0.0164238
766.147	0.0165035
766.225	0.0164893
766.303	0.0165228
766.381	0.0163050
766.459	0.0162910
766.538	0.0161633
766.616	0.0161015
766.694	0.0161641
766.772	0.0159831
766.850	0.0158468
766.928	0.0155898
767.006	0.0156298
767.084	0.0154419
767.163	0.0153903
767.241	0.0152469
767.319	0.0152256
767.397	0.0152709
767.475	0.0151180
767.553	0.0152552
767.631	0.0150773
767.709	0.0151504
767.788	0.0152751
767.866	0.0154453
767.944	0.0153705
768.022	0.0154382
768.100	0.0156782
768.178	0.0157085
768.256	0.0158837
768.334	0.0158823
768.413	0.0159299
768.491	0.0160551
768.569	0.0161071
768.647	0.0160254
768.725	0.0159722
768.803	0.0160269
768.881	0.0159613
768.959	0.0159521
769.038	0.0159212
769.116	0.0159165
769.194	0.0159158
769.272	0.0157850
769.350	0.0157263
769.428	0.0156036
769.506	0.0156133
769.584	0.0154291
769.663	0.0155396
769.741	0.0152953
769.819	0.0154079
769.897	0.0152460
769.975	0.0152762
770.053	0.0151703
770.131	0.0150120
770.209	0.0150057
770.288	0.0151241
770.366	0.0151068
770.444	0.0149149
770.522	0.0148719
770.600	0.0150314
770.678	0.0150719
770.756	0.0150420
770.834	0.0152569
770.913	0.0151736
770.991	0.0153017
771.069	0.0155211
771.147	0.0155060
771.225	0.0155727
771.303	0.0155962
771.381	0.0156991
771.459	0.0158132
771.538	0.0158793
771.616	0.0159411
771.694	0.0159339
771.772	0.0159553
771.850	0.0159942
771.928	0.0160387
772.006	0.0161327
772.084	0.0162014
772.163	0.0161995
772.241	0.0161832
772.319	0.0163655
772.397	0.0162687
772.475	0.0163958
772.553	0.0164895
772.631	0.0165991
772.709	0.0165303
772.788	0.0165569
772.866	0.0164962
772.944	0.0164869
773.022	0.0164104
773.100	0.0165400
773.178	0.0164338
773.256	0.0163906
773.334	0.0162322
773.413	0.0161498
773.491	0.0162459
773.569	0.0161522
773.647	0.0159610
773.725	0.0158690
773.803	0.0157429
773.881	0.0157226
773.959	0.0157669
774.038	0.0156165
774.116	0.0155184
774.194	0.0154547
774.272	0.0154105
774.350	0.0154610
774.428	0.0153770
774.506	0.0152577
774.584	0.0152509
774.663	0.0151777
774.741	0.0150518
774.819	0.0150028
774.897	0.0148904
774.975	0.0149376
775.053	0.0148375
775.131	0.0148298
775.209	0.0150310
775.288	0.0149671
775.366	0.0150256
775.444	0.0149435
775.522	0.0150898
775.600	0.0151955
775.678	0.0151626
775.756	0.0154109
775.834	0.0155212
775.913	0.0156775
775.991	0.0157984
776.069	0.0158374
776.147	0.0160376
776.225	0.0161115
776.303	0.0160947
776.381	0.0160625
776.459	0.0161883
776.538	0.0164491
776.616	0.0162716
776.694	0.0164025
776.772	0.0163062
776.850	0.0164336
776.928	0.0163109
777.006	0.0163560
777.084	0.0163586
777.163	0.0163174
777.241	0.0164196
777.319	0.0161810
777.397	0.0163764
777.475	0.0162423
777.553	0.0160888
777.631	0.0160658
777.709	0.0160309
777.788	0.0159712
777.866	0.0158743
777.944	0.0158984
778.022	0.0159556
778.100	0.0157639
778.178	0.0156467
778.256	0.0157284
778.334	0.0157377
778.413	0.0156805
778.491	0.0157220
778.569	0.0158775
778.647	0.0158233
778.725	0.0159058
778.803	0.0159843
778.881	0.0160121
778.959	0.0160365
779.038	0.0159216
779.116	0.0160236
779.194	0.0159210
779.272	0.0158745
779.350	0.0158145
779.428	0.0159145
779.506	0.0157375
779.584	0.0158305
779.663	0.0157793
779.741	0.0157339
779.819	0.0156973
779.897	0.0157750
779.975	0.0156982
780.053	0.0156539
780.131	0.0156561
780.209	0.0157659
780.288	0.0156232
780.366	0.0157681
780.444	0.0156732
780.522	0.0155840
780.600	0.0157787
780.678	0.0158443
780.756	0.0157812
780.834	0.0157771
780.913	0.0158192
780.991	0.0159407
781.069	0.0157400
781.147	0.0159748
781.225	0.0160854
781.303	0.0160422
781.381	0.0158345
781.459	0.0159468
781.538	0.0159955
781.616	0.0159005
781.694	0.0157867
781.772	0.0157211
781.850	0.0158514
781.928	0.0157987
782.006	0.0156360
782.084	0.0156131
782.163	0.0154996
782.241	0.0155282
782.319	0.0155010
782.397	0.0153601
782.475	0.0154221
782.553	0.0153700
782.631	0.0153667
782.709	0.0153057
782.788	0.0153903
782.866	0.0153891
782.944	0.0155245
783.022	0.0154153
783.100	0.0154663
783.178	0.0153065
783.256	0.0155302
783.334	0.0155391
783.413	0.0154674
783.491	0.0155353
783.569	0.0155505
783.647	0.0155179
783.725	0.0155813
783.803	0.0156214
783.881	0.0154598
783.959	0.0156930
784.038	0.0157178
784.116	0.0157753
784.194	0.0157621
784.272	0.0157803
784.350	0.0157767
784.428	0.0156504
784.506	0.0156817
784.584	0.0158141
784.663	0.0158955
784.741	0.0158836
784.819	0.0157872
784.897	0.0156224
784.975	0.0156725
785.053	0.0156926
785.131	0.0159011
785.209	0.0158105
785.288	0.0158794
785.366	0.0157195
785.444	0.0156952
785.522	0.0157649
785.600	0.0158087
785.678	0.0157275
785.756	0.0157445
785.834	0.0155521
785.913	0.0156921
785.991	0.0158482
786.069	0.0158276
786.147	0.0157736
786.225	0.0156981
786.303	0.0156389
786.381	0.0155844
786.459	0.0156313
786.538	0.0156068
786.616	0.0155264
786.694	0.0155446
786.772	0.0153654
786.850	0.0153601
786.928	0.0154940
787.006	0.0155038
787.084	0.0153129
787.163	0.0153055
787.241	0.0153556
787.319	0.0153484
787.397	0.0153101
787.475	0.0152445
787.553	0.0154406
787.631	0.0154776
787.709	0.0153819
787.788	0.0152986
787.866	0.0153628
787.944	0.0153313
788.022	0.0153141
788.100	0.0152454
788.178	0.0154240
788.256	0.0153728
788.334	0.0153310
788.413	0.0153957
788.491	0.0153870
788.569	0.0154478
788.647	0.0155042
788.725	0.0155567
788.803	0.0157293
788.881	0.0157596
788.959	0.0158009
789.038	0.0158287
789.116	0.0157821
789.194	0.0158522
789.272	0.0159186
789.350	0.0158279
789.428	0.0159869
789.506	0.0159228
789.584	0.0159016
789.663	0.0157570
789.741	0.0158861
789.819	0.0158913
789.897	0.0158808
789.975	0.0157807
790.053	0.0158299
790.131	0.0157841
790.209	0.0159918
790.288	0.0157718
790.366	0.0159093
790.444	0.0157517
790.522	0.0158404
790.600	0.0156837
790.678	0.0157588
790.756	0.0155980
790.834	0.0155683
790.913	0.0156843
790.991	0.0155956
791.069	0.0155550
791.147	0.0152170
791.225	0.0155229
791.303	0.0154318
791.381	0.0153794
791.459	0.0154464
791.538	0.0154155
791.616	0.0152341
791.694	0.0154617
791.772	0.0154263
791.850	0.0153875
791.928	0.0153410
792.006	0.0154065
792.084	0.0154483
792.163	0.0153373
792.241	0.0154265
792.319	0.0153785
792.397	0.0155284
792.475	0.0156381
792.553	0.0154540
792.631	0.0153793
792.709	0.0154720
792.788	0.0155173
792.866	0.0155802
792.944	0.0156570
793.022	0.0156976
793.100	0.0156409
793.178	0.0157622
793.256	0.0156522
793.334	0.0158211
793.413	0.0158535
793.491	0.0157958
793.569	0.0158340
793.647	0.0157230
793.725	0.0157312
793.803	0.0157551
793.881	0.0159172
793.959	0.0159138
794.038	0.0156687
794.116	0.0157426
794.194	0.0157278
794.272	0.0157407
794.350	0.0158486
794.428	0.0157455
794.506	0.0158729
794.584	0.0157533
794.663	0.0156734
794.741	0.0158100
794.819	0.0158002
794.897	0.0157589
794.975	0.0157527
795.053	0.0156740
795.131	0.0157955
795.209	0.0157973
795.288	0.0157448
795.366	0.0157714
795.444	0.0158898
795.522	0.0157435
795.600	0.0158554
795.678	0.0158718
795.756	0.0160467
795.834	0.0161119
795.913	0.0160640
795.991	0.0161687
796.069	0.0160497
796.147	0.0162303
796.225	0.0162381
796.303	0.0161740
796.381	0.0162193
796.459	0.0162428
796.538	0.0162432
796.616	0.0162168
796.694	0.0162828
796.772	0.0161962
796.850	0.0162518
796.928	0.0162023
797.006	0.0160207
797.084	0.0161696
797.163	0.0160583
797.241	0.0160070
797.319	0.0159850
797.397	0.0159396
797.475	0.0158898
797.553	0.0157187
797.631	0.0157014
797.709	0.0156991
797.788	0.0156435
797.866	0.0155190
797.944	0.0155325
798.022	0.0153944
798.100	0.0153598
798.178	0.0154225
798.256	0.0154096
798.334	0.0153316
798.413	0.0152957
798.491	0.0153156
798.569	0.0151131
798.647	0.0152493
798.725	0.0152298
798.803	0.0152593
798.881	0.0153427
798.959	0.0153664
799.038	0.0152335
799.116	0.0154076
799.194	0.0155297
799.272	0.0154070
799.350	0.0155605
799.428	0.0157697
799.506	0.0157249
799.584	0.0156860
799.663	0.0158586
799.741	0.0159718
799.819	0.0159963
799.897	0.0159994
799.975	0.0159341
800.053	0.0159697
800.131	0.0160517
800.209	0.0159158
800.288	0.0159608
800.366	0.0160419
800.444	0.0161019
800.522	0.0160454
800.600	0.0159995
800.678	0.0157475
800.756	0.0157366
800.834	0.0158047
800.913	0.0158553
800.991	0.0157152
801.069	0.0155357
801.147	0.0155486
801.225	0.0155959
801.303	0.0155158
801.381	0.0154659
801.459	0.0154624
801.538	0.0154070
801.616	0.0154218
801.694	0.0153663
801.772	0.0153507
801.850	0.0153267
801.928	0.0153607
802.006	0.0152498
802.084	0.0152742
802.163	0.0152755
802.241	0.0151152
802.319	0.0151778
802.397	0.0152886
802.475	0.0152923
802.553	0.0153771
802.631	0.0152976
802.709	0.0153917
802.788	0.0154951
802.866	0.0153427
802.944	0.0157021
803.022	0.0157047
803.100	0.0156470
803.178	0.0154971
803.256	0.0157027
803.334	0.0158225
803.413	0.0158507
803.491	0.0158163
803.569	0.0158996
803.647	0.0159167
803.725	0.0158861
803.803	0.0160004
803.881	0.0159345
803.959	0.0160033
804.038	0.0159926
804.116	0.0160269
804.194	0.0159848
804.272	0.0160273
804.350	0.0159833
804.428	0.0158047
804.506	0.0157564
804.584	0.0160477
804.663	0.0158784
804.741	0.0157945
804.819	0.0158495
804.897	0.0158522
804.975	0.0158134
805.053	0.0157173
805.131	0.0157736
805.209	0.0157639
805.288	0.0157683
805.366	0.0155991
805.444	0.0155218
805.522	0.0155821
805.600	0.0155011
805.678	0.0155867
805.756	0.0155170
805.834	0.0155473
805.913	0.0153381
805.991	0.0152798
806.069	0.0153185
806.147	0.0153809
806.225	0.0154305
806.303	0.0152451
806.381	0.0151113
806.459	0.0154109
806.538	0.0152563
806.616	0.0151404
806.694	0.0151693
806.772	0.0151527
806.850	0.0151978
806.928	0.0152995
807.006	0.0152577
807.084	0.0152959
807.163	0.0154082
807.241	0.0155506
807.319	0.0154063
807.397	0.0156213
807.475	0.0158096
807.553	0.0159918
807.631	0.0158665
807.709	0.0159348
807.788	0.0160979
807.866	0.0162005
807.944	0.0161073
808.022	0.0162704
808.100	0.0162891
808.178	0.0161777
808.256	0.0163363
808.334	0.0163387
808.413	0.0161250
808.491	0.0162895
808.569	0.0161736
808.647	0.0161162
808.725	0.0160551
808.803	0.0161118
808.881	0.0160320
808.959	0.0160561
809.038	0.0158601
809.116	0.0157399
809.194	0.0157370
809.272	0.0157059
809.350	0.0156615
809.428	0.0155810
809.506	0.0155798
809.584	0.0154781
809.663	0.0154192
809.741	0.0155249
809.819	0.0153682
809.897	0.0153259
809.975	0.0153763
810.053	0.0154324
810.131	0.0154238
810.209	0.0154391
810.288	0.0154098
810.366	0.0155014
810.444	0.0155451
810.522	0.0153577
810.600	0.0155169
810.678	0.0155172
810.756	0.0155150
810.834	0.0155439
810.913	0.0153966
810.991	0.0155710
811.069	0.0154176
811.147	0.0155303
811.225	0.0154775
811.303	0.0153539
811.381	0.0155157
811.459	0.0154292
811.538	0.0154033
811.616	0.0155524
811.694	0.0155226
811.772	0.0155418
811.850	0.0155322
811.928	0.0155843
812.006	0.0156152
812.084	0.0154987
812.163	0.0154668
812.241	0.0155171
812.319	0.0156976
812.397	0.0156158
812.475	0.0155236
812.553	0.0155643
812.631	0.0157527
812.709	0.0157262
812.788	0.0157991
812.866	0.0157713
812.944	0.0157844
813.022	0.0158056
813.100	0.0160345
813.178	0.0159321
813.256	0.0159298
813.334	0.0160514
813.413	0.0160220
813.491	0.0160768
813.569	0.0158968
813.647	0.0160023
813.725	0.0159943
813.803	0.0158969
813.881	0.0158453
813.959	0.0158052
814.038	0.0157457
814.116	0.0159497
814.194	0.0157483
814.272	0.0156586
814.350	0.0157066
814.428	0.0156644
814.506	0.0155949
814.584	0.0157010
814.663	0.0156629
814.741	0.0156348
814.819	0.0157070
814.897	0.0156254
814.975	0.0154760
815.053	0.0154881
815.131	0.0154910
815.209	0.0155457
815.288	0.0156275
815.366	0.0155664
815.444	0.0155968
815.522	0.0155045
815.600	0.0155988
815.678	0.0156821
815.756	0.0156292
815.834	0.0156366
815.913	0.0155495
815.991	0.0155638
816.069	0.0156754
816.147	0.0156142
816.225	0.0156944
816.303	0.0157784
816.381	0.0157545
816.459	0.0156462
816.538	0.0157510
816.616	0.0157885
816.694	0.0156735
816.772	0.0156517
816.850	0.0157370
816.928	0.0156514
817.006	0.0157154
817.084	0.0157201
817.163	0.0156891
817.241	0.0157205
817.319	0.0156862
817.397	0.0157106
817.475	0.0157441
817.553	0.0156933
817.631	0.0156071
817.709	0.0155403
817.788	0.0157887
817.866	0.0156011
817.944	0.0155756
818.022	0.0156721
818.100	0.0156965
818.178	0.0155797
818.256	0.0157574
818.334	0.0158327
818.413	0.0157224
818.491	0.0157246
818.569	0.0157636
818.647	0.0159011
818.725	0.0158566
818.803	0.0161049
818.881	0.0160046
818.959	0.0160506
819.038	0.0159420
819.116	0.0161303
819.194	0.0160248
819.272	0.0160661
819.350	0.0162240
819.428	0.0161957
819.506	0.0161511
819.584	0.0161029
819.663	0.0163007
819.741	0.0161317
819.819	0.0159320
819.897	0.0162175
819.975	0.0160889
820.053	0.0159866
820.131	0.0159492
820.209	0.0161433
820.288	0.0158492
820.366	0.0159041
820.444	0.0159472
820.522	0.0158159
820.600	0.0156815
820.678	0.0157500
820.756	0.0156935
820.834	0.0157068
820.913	0.0155370
820.991	0.0156301
821.069	0.0155894
821.147	0.0155311
821.225	0.0156272
821.303	0.0155430
821.381	0.0155450
821.459	0.0154815
821.538	0.0155296
821.616	0.0155680
821.694	0.0155320
821.772	0.0154784
821.850	0.0153886
821.928	0.0154438
822.006	0.0153503
822.084	0.0155201
822.163	0.0155080
822.241	0.0154230
822.319	0.0154038
822.397	0.0154604
822.475	0.0155636
822.553	0.0155173
822.631	0.0154989
822.709	0.0155590
822.788	0.0154141
822.866	0.0155463
822.944	0.0155956
823.022	0.0157837
823.100	0.0158147
823.178	0.0156908
823.256	0.0157783
823.334	0.0157003
823.413	0.0158282
823.491	0.0159653
823.569	0.0157436
823.647	0.0159346
823.725	0.0160247
823.803	0.0158950
823.881	0.0159128
823.959	0.0159871
824.038	0.0159100
824.116	0.0159223
824.194	0.0159686
824.272	0.0159791
824.350	0.0159777
824.428	0.0160373
824.506	0.0159298
824.584	0.0157992
824.663	0.0159152
824.741	0.0158833
824.819	0.0160152
824.897	0.0157949
824.975	0.0155837
825.053	0.0156514
825.131	0.0157900
825.209	0.0158559
825.288	0.0156039
825.366	0.0155449
825.444	0.0156040
825.522	0.0155772
825.600	0.0154477
825.678	0.0155814
825.756	0.0155434
825.834	0.0155688
825.913	0.0155619
825.991	0.0155992
826.069	0.0156786
826.147	0.0156076
826.225	0.0154724
826.303	0.0155914
826.381	0.0157315
826.459	0.0156112
826.538	0.0155695
826.616	0.0157434
826.694	0.0157683
826.772	0.0158263
826.850	0.0157602
826.928	0.0156774
827.006	0.0157162
827.084	0.0158321
827.163	0.0157784
827.241	0.0156866
827.319	0.0157732
827.397	0.0157220
827.475	0.0157437
827.553	0.0156836
827.631	0.0157598
827.709	0.0157590
827.788	0.0155942
827.866	0.0156114
827.944	0.0157410
828.022	0.0158029
828.100	0.0157778
828.178	0.0156290
828.256	0.0157713
828.334	0.0157132
828.413	0.0158388
828.491	0.0158140
828.569	0.0159148
828.647	0.0158508
828.725	0.0156948
828.803	0.0158549
828.881	0.0160275
828.959	0.0160351
829.038	0.0160180
829.116	0.0160139
829.194	0.0159638
829.272	0.0161069
829.350	0.0160153
829.428	0.0160477
829.506	0.0161238
829.584	0.0161084
829.663	0.0161098
829.741	0.0161311
829.819	0.0160230
829.897	0.0161034
829.975	0.0160913
830.053	0.0160236
830.131	0.0160836
830.209	0.0160140
830.288	0.0157800
830.366	0.0159763
830.444	0.0158755
830.522	0.0158768
830.600	0.0159421
830.678	0.0157778
830.756	0.0157570
830.834	0.0157029
830.913	0.0157481
830.991	0.0156994
831.069	0.0157140
831.147	0.0156548
831.225	0.0157137
831.303	0.0157585
831.381	0.0156463
831.459	0.0155371
831.538	0.0154928
831.616	0.0156313
831.694	0.0155473
831.772	0.0155522
831.850	0.0156046
831.928	0.0156737
832.006	0.0154855
832.084	0.0157437
832.163	0.0155552
832.241	0.0155676
832.319	0.0156256
832.397	0.0157089
832.475	0.0155717
832.553	0.0154518
832.631	0.0157514
832.709	0.0156326
832.788	0.0155547
832.866	0.0157539
832.944	0.0157627
833.022	0.0159003
833.100	0.0157603
833.178	0.0158449
833.256	0.0157487
833.334	0.0156087
833.413	0.0157187
833.491	0.0157254
833.569	0.0158228
833.647	0.0159187
833.725	0.0158857
833.803	0.0157491
833.881	0.0156194
833.959	0.0157188
834.038	0.0157485
834.116	0.0159509
834.194	0.0159086
834.272	0.0158683
834.350	0.0158907
834.428	0.0159104
834.506	0.0158828
834.584	0.0158873
834.663	0.0159949
834.741	0.0161269
834.819	0.0160861
834.897	0.0159756
834.975	0.0159863
835.053	0.0161662
835.131	0.0160489
835.209	0.0161913
835.288	0.0161964
835.366	0.0161774
835.444	0.0162098
835.522	0.0161298
835.600	0.0161536
835.678	0.0161140
835.756	0.0162447
835.834	0.0162132
835.913	0.0162483
835.991	0.0160489
836.069	0.0160393
836.147	0.0160821
836.225	0.0160502
836.303	0.0160713
836.381	0.0159613
836.459	0.0159514
836.538	0.0157900
836.616	0.0159009
836.694	0.0158086
836.772	0.0157745
836.850	0.0156631
836.928	0.0158253
837.006	0.0156995
837.084	0.0157439
837.163	0.0157927
837.241	0.0156428
837.319	0.0156557
837.397	0.0156493
837.475	0.0156432
837.553	0.0156499
837.631	0.0157937
837.709	0.0157359
837.788	0.0156002
837.866	0.0154969
837.944	0.0156822
838.022	0.0156731
838.100	0.0156775
838.178	0.0156716
838.256	0.0157629
838.334	0.0155655
838.413	0.0157589
838.491	0.0157009
838.569	0.0156261
838.647	0.0158098
838.725	0.0156973
838.803	0.0157348
838.881	0.0157809
838.959	0.0158304
839.038	0.0159045
839.116	0.0158276
839.194	0.0158669
839.272	0.0158872
839.350	0.0158344
839.428	0.0157387
839.506	0.0157458
839.584	0.0158563
839.663	0.0158044
839.741	0.0158080
839.819	0.0157407
839.897	0.0158173
839.975	0.0158298
840.053	0.0158516
840.131	0.0157027
840.209	0.0156270
840.288	0.0158013
840.366	0.0158440
840.444	0.0157218
840.522	0.0155888
840.600	0.0156200
840.678	0.0156403
840.756	0.0155943
840.834	0.0154871
840.913	0.0155103
840.991	0.0155317
841.069	0.0155784
841.147	0.0155671
841.225	0.0154865
841.303	0.0155852
841.381	0.0156229
841.459	0.0155312
841.538	0.0154507
841.616	0.0155228
841.694	0.0154290
841.772	0.0155284
841.850	0.0154962
841.928	0.0155722
842.006	0.0156820
842.084	0.0157042
842.163	0.0156697
842.241	0.0157234
842.319	0.0156042
842.397	0.0156650
842.475	0.0155903
842.553	0.0154929
842.631	0.0155623
842.709	0.0157460
842.788	0.0156235
842.866	0.0156521
842.944	0.0154723
843.022	0.0156546
843.100	0.0157933
843.178	0.0156030
843.256	0.0155893
843.334	0.0156548
843.413	0.0157257
843.491	0.0158411
843.569	0.0156101
843.647	0.0154802
843.725	0.0158550
843.803	0.0156367
843.881	0.0156938
843.959	0.0156709
844.038	0.0157472
844.116	0.0157211
844.194	0.0157061
844.272	0.0157031
844.350	0.0157127
844.428	0.0157817
844.506	0.0157124
844.584	0.0157500
844.663	0.0156364
844.741	0.0157108
844.819	0.0156454
844.897	0.0155626
844.975	0.0159055
845.053	0.0157258
845.131	0.0156482
845.209	0.0158227
845.288	0.0157622
845.366	0.0155745
845.444	0.0156807
845.522	0.0157917
845.600	0.0157883
845.678	0.0157670
845.756	0.0156851
845.834	0.0157248
845.913	0.0157390
845.991	0.0156921
846.069	0.0157319
846.147	0.0157505
846.225	0.0157141
846.303	0.0155763
846.381	0.0154968
846.459	0.0155473
846.538	0.0156113
846.616	0.0156731
846.694	0.0156870
846.772	0.0156421
846.850	0.0156760
846.928	0.0154929
847.006	0.0155354
847.084	0.0155647
847.163	0.0155351
847.241	0.0156969
847.319	0.0156075
847.397	0.0155367
847.475	0.0157172
847.553	0.0157457
847.631	0.0156780
847.709	0.0156592
847.788	0.0156482
847.866	0.0157137
847.944	0.0156483
848.022	0.0157166
848.100	0.0157502
848.178	0.0156659
848.256	0.0156261
848.334	0.0158795
848.413	0.0156503
848.491	0.0156763
848.569	0.0156792
848.647	0.0157789
848.725	0.0157448
848.803	0.0158315
848.881	0.0158326
848.959	0.0158514
849.038	0.0157929
849.116	0.0156931
849.194	0.0159058
849.272	0.0157391
849.350	0.0157252
849.428	0.0158064
849.506	0.0157804
849.584	0.0157265
849.663	0.0156828
849.741	0.0157491
849.819	0.0157290
849.897	0.0156384
849.975	0.0157689
850.053	0.0157085
850.131	0.0157378
850.209	0.0158143
850.288	0.0157883
850.366	0.0157775
850.444	0.0157761
850.522	0.0158115
850.600	0.0157257
850.678	0.0158326
850.756	0.0157588
850.834	0.0157746
850.913	0.0157993
850.991	0.0158080
851.069	0.0158443
851.147	0.0156834
851.225	0.0159109
851.303	0.0157400
851.381	0.0156174
851.459	0.0158168
851.538	0.0158414
851.616	0.0157699
851.694	0.0158560
851.772	0.0156715
851.850	0.0157220
851.928	0.0157839
852.006	0.0157361
852.084	0.0156700
852.163	0.0157025
852.241	0.0157359
852.319	0.0156222
852.397	0.0156048
852.475	0.0156057
852.553	0.0156526
852.631	0.0157429
852.709	0.0156920
852.788	0.0156252
852.866	0.0157286
852.944	0.0157738
853.022	0.0157952
853.100	0.0158879
853.178	0.0158652
853.256	0.0159020
853.334	0.0159825
853.413	0.0159612
853.491	0.0157928
853.569	0.0159795
853.647	0.0159586
853.725	0.0159383
853.803	0.0159717
853.881	0.0158769
853.959	0.0159178
854.038	0.0159292
854.116	0.0158572
854.194	0.0158292
854.272	0.0158801
854.350	0.0160104
854.428	0.0159315
854.506	0.0158686
854.584	0.0158864
854.663	0.0160192
854.741	0.0157193
854.819	0.0159005
854.897	0.0157443
854.975	0.0158183
855.053	0.0158604
855.131	0.0159259
855.209	0.0158212
855.288	0.0158371
855.366	0.0159635
855.444	0.0159454
855.522	0.0158683
855.600	0.0157529
855.678	0.0157903
855.756	0.0157723
855.834	0.0158184
855.913	0.0157555
855.991	0.0157899
856.069	0.0157138
856.147	0.0156906
856.225	0.0156845
856.303	0.0159073
856.381	0.0157009
856.459	0.0157579
856.538	0.0158791
856.616	0.0156850
856.694	0.0157417
856.772	0.0157984
856.850	0.0157032
856.928	0.0157397
857.006	0.0157585
857.084	0.0158768
857.163	0.0158478
857.241	0.0158910
857.319	0.0158457
857.397	0.0156239
857.475	0.0157754
857.553	0.0157353
857.631	0.0156518
857.709	0.0159724
857.788	0.0157776
857.866	0.0156432
857.944	0.0157471
858.022	0.0157875
858.100	0.0156664
858.178	0.0156744
858.256	0.0159238
858.334	0.0156754
858.413	0.0158271
858.491	0.0158367
858.569	0.0157611
858.647	0.0158167
858.725	0.0157729
858.803	0.0158150
858.881	0.0158221
858.959	0.0158711
859.038	0.0158624
859.116	0.0158521
859.194	0.0158543
859.272	0.0158807
859.350	0.0159093
859.428	0.0160260
859.506	0.0160059
859.584	0.0158642
859.663	0.0158115
859.741	0.0159142
859.819	0.0160104
859.897	0.0160350
859.975	0.0159891
860.053	0.0159963
860.131	0.0158367
860.209	0.0158880
860.288	0.0158877
860.366	0.0160113
860.444	0.0158186
860.522	0.0159109
860.600	0.0158509
860.678	0.0158958
860.756	0.0158466
860.834	0.0157836
860.913	0.0157226
860.991	0.0157272
861.069	0.0158362
861.147	0.0157645
861.225	0.0158273
861.303	0.0158819
861.381	0.0159071
861.459	0.0157097
861.538	0.0158268
861.616	0.0158388
861.694	0.0157733
861.772	0.0157828
861.850	0.0157436
861.928	0.0158548
862.006	0.0158961
862.084	0.0158682
862.163	0.0157957
862.241	0.0158680
862.319	0.0157985
862.397	0.0156749
862.475	0.0157495
862.553	0.0158195
862.631	0.0157731
862.709	0.0158043
862.788	0.0157378
862.866	0.0157537
862.944	0.0156454
863.022	0.0156940
863.100	0.0156822
863.178	0.0157547
863.256	0.0158700
863.334	0.0158496
863.413	0.0156805
863.491	0.0156304
863.569	0.0157296
863.647	0.0157464
863.725	0.0157308
863.803	0.0156867
863.881	0.0155939
863.959	0.0156789
864.038	0.0157758
864.116	0.0157041
864.194	0.0157023
864.272	0.0158611
864.350	0.0157497
864.428	0.0158056
864.506	0.0156442
864.584	0.0155509
864.663	0.0156929
864.741	0.0156842
864.819	0.0156112
864.897	0.0155322
864.975	0.0156136
865.053	0.0156696
865.131	0.0156204
865.209	0.0154284
865.288	0.0156187
865.366	0.0156857
865.444	0.0154528
865.522	0.0153855
865.600	0.0156090
865.678	0.0155278
865.756	0.0155357
865.834	0.0153288
865.913	0.0154246
865.991	0.0154710
866.069	0.0155188
866.147	0.0154573
866.225	0.0154040
866.303	0.0154408
866.381	0.0154292
866.459	0.0154893
866.538	0.0153448
866.616	0.0153713
866.694	0.0154088
866.772	0.0154315
866.850	0.0154108
866.928	0.0154708
867.006	0.0154629
867.084	0.0154211
867.163	0.0155021
867.241	0.0154570
867.319	0.0154223
867.397	0.0156273
867.475	0.0156297
867.553	0.0157247
867.631	0.0156008
867.709	0.0154961
867.788	0.0156700
867.866	0.0156743
867.944	0.0157526
868.022	0.0157096
868.100	0.0157007
868.178	0.0157872
868.256	0.0157146
868.334	0.0157436
868.413	0.0158211
868.491	0.0158566
868.569	0.0158164
868.647	0.0157271
868.725	0.0157510
868.803	0.0157268
868.881	0.0156697
868.959	0.0158083
869.038	0.0156900
869.116	0.0157973
869.194	0.0157342
869.272	0.0159090
869.350	0.0157013
869.428	0.0156907
869.506	0.0157003
869.584	0.0157963
869.663	0.0159557
869.741	0.0157535
869.819	0.0157967
869.897	0.0157868
869.975	0.0158373
870.053	0.0156595
870.131	0.0157437
870.209	0.0155967
870.288	0.0156950
870.366	0.0155602
870.444	0.0155682
870.522	0.0156079
870.600	0.0155794
870.678	0.0156310
870.756	0.0156515
870.834	0.0156391
870.913	0.0155860
870.991	0.0155826
871.069	0.0156348
871.147	0.0156445
871.225	0.0156782
871.303	0.0156656
871.381	0.0156316
871.459	0.0157117
871.538	0.0156079
871.616	0.0155638
871.694	0.0155971
871.772	0.0155696
871.850	0.0156750
871.928	0.0155657
872.006	0.0155150
872.084	0.0154596
872.163	0.0156010
872.241	0.0156296
872.319	0.0156519
872.397	0.0156374
872.475	0.0157259
872.553	0.0158306
872.631	0.0156284
872.709	0.0157014
872.788	0.0157750
872.866	0.0158139
872.944	0.0158209
873.022	0.0156365
873.100	0.0157400
873.178	0.0158308
873.256	0.0159538
873.334	0.0158317
873.413	0.0157351
873.491	0.0158035
873.569	0.0157265
873.647	0.0158109
873.725	0.0158439
873.803	0.0157723
873.881	0.0158224
873.959	0.0157483
874.038	0.0157462
874.116	0.0156417
874.194	0.0157222
874.272	0.0158377
874.350	0.0157595
874.428	0.0156034
874.506	0.0156170
874.584	0.0157320
874.663	0.0158405
874.741	0.0157936
874.819	0.0157570
874.897	0.0157397
874.975	0.0156806
875.053	0.0158835
875.131	0.0156322
875.209	0.0157410
875.288	0.0159158
875.366	0.0156876
875.444	0.0156852
875.522	0.0157941
875.600	0.0158559
875.678	0.0157598
875.756	0.0157448
875.834	0.0157530
875.913	0.0158833
875.991	0.0158519
876.069	0.0156908
876.147	0.0158204
876.225	0.0158024
876.303	0.0158018
876.381	0.0158660
876.459	0.0157784
876.538	0.0157348
876.616	0.0158401
876.694	0.0158736
876.772	0.0157173
876.850	0.0159396
876.928	0.0159959
877.006	0.0159166
877.084	0.0160156
877.163	0.0158704
877.241	0.0157265
877.319	0.0158292
877.397	0.0159834
877.475	0.0158401
877.553	0.0158784
877.631	0.0159514
877.709	0.0157810
877.788	0.0159193
877.866	0.0159525
877.944	0.0159004
878.022	0.0158369
878.100	0.0157583
878.178	0.0158615
878.256	0.0158056
878.334	0.0156373
878.413	0.0155886
878.491	0.0157526
878.569	0.0155663
878.647	0.0156247
878.725	0.0156819
878.803	0.0156399
878.881	0.0156409
878.959	0.0155550
879.038	0.0154585
879.116	0.0156469
879.194	0.0154834
879.272	0.0155703
879.350	0.0157279
879.428	0.0156576
879.506	0.0156538
879.584	0.0156594
879.663	0.0157555
879.741	0.0157777
879.819	0.0157140
879.897	0.0157986
879.975	0.0159540
880.053	0.0158586
880.131	0.0158368
880.209	0.0157891
880.288	0.0158562
880.366	0.0158093
880.444	0.0158527
880.522	0.0159784
880.600	0.0159664
880.678	0.0157491
880.756	0.0157784
880.834	0.0158475
880.913	0.0159627
880.991	0.0158495
881.069	0.0158198
881.147	0.0156934
881.225	0.0157429
881.303	0.0157572
881.381	0.0157669
881.459	0.0158018
881.538	0.0158198
881.616	0.0157796
881.694	0.0157339
881.772	0.0158189
881.850	0.0158895
881.928	0.0156890
882.006	0.0157597
882.084	0.0158485
882.163	0.0157774
882.241	0.0157720
882.319	0.0157938
882.397	0.0159200
882.475	0.0157843
882.553	0.0157796
882.631	0.0157985
882.709	0.0157055
882.788	0.0156332
882.866	0.0157114
882.944	0.0158199
883.022	0.0157482
883.100	0.0157330
883.178	0.0156878
883.256	0.0158014
883.334	0.0156448
883.413	0.0157242
883.491	0.0157006
883.569	0.0156495
883.647	0.0156036
883.725	0.0157756
883.803	0.0157871
883.881	0.0158350
883.959	0.0157468
884.038	0.0158267
884.116	0.0156532
884.194	0.0157284
884.272	0.0157973
884.350	0.0156935
884.428	0.0156451
884.506	0.0157919
884.584	0.0157573
884.663	0.0157181
884.741	0.0156591
884.819	0.0157713
884.897	0.0157759
884.975	0.0156248
885.053	0.0156611
885.131	0.0156780
885.209	0.0157135
885.288	0.0156654
885.366	0.0156219
885.444	0.0156343
885.522	0.0155365
885.600	0.0157062
885.678	0.0155608
885.756	0.0155317
885.834	0.0155657
885.913	0.0154675
885.991	0.0154487
886.069	0.0155152
886.147	0.0155661
886.225	0.0155829
886.303	0.0156977
886.381	0.0156946
886.459	0.0158357
886.538	0.0156672
886.616	0.0156342
886.694	0.0156876
886.772	0.0157182
886.850	0.0157510
886.928	0.0157714
887.006	0.0159267
887.084	0.0158440
887.163	0.0156291
887.241	0.0157845
887.319	0.0157493
887.397	0.0157188
887.475	0.0158363
887.553	0.0157236
887.631	0.0157618
887.709	0.0156605
887.788	0.0157007
887.866	0.0156677
887.944	0.0156395
888.022	0.0156441
888.100	0.0156212
888.178	0.0156746
888.256	0.0156660
888.334	0.0156871
888.413	0.0158093
888.491	0.0155872
888.569	0.0157020
888.647	0.0155719
888.725	0.0156667
888.803	0.0157773
888.881	0.0157707
888.959	0.0156403
889.038	0.0157317
889.116	0.0156561
889.194	0.0158104
889.272	0.0156650
889.350	0.0155432
889.428	0.0157267
889.506	0.0157114
889.584	0.0156998
889.663	0.0156776
889.741	0.0156801
889.819	0.0157014
889.897	0.0156544
889.975	0.0156377
890.053	0.0156834
890.131	0.0156102
890.209	0.0157568
890.288	0.0156688
890.366	0.0155560
890.444	0.0156496
890.522	0.0157413
890.600	0.0157387
890.678	0.0156902
890.756	0.0156258
890.834	0.0156978
890.913	0.0158824
890.991	0.0157713
891.069	0.0156388
891.147	0.0156586
891.225	0.0158663
891.303	0.0159740
891.381	0.0158585
891.459	0.0159888
891.538	0.0158305
891.616	0.0157101
891.694	0.0157629
891.772	0.0157642
891.850	0.0158604
891.928	0.0157905
892.006	0.0158764
892.084	0.0156468
892.163	0.0157327
892.241	0.0157874
892.319	0.0157041
892.397	0.0155145
892.475	0.0156406
892.553	0.0156572
892.631	0.0156197
892.709	0.0155513
892.788	0.0155307
892.866	0.0155337
892.944	0.0157759
893.022	0.0156697
893.100	0.0154521
893.178	0.0157273
893.256	0.0155672
893.334	0.0155801
893.413	0.0156548
893.491	0.0156120
893.569	0.0155901
893.647	0.0156316
893.725	0.0157579
893.803	0.0158199
893.881	0.0157753
893.959	0.0157763
894.038	0.0158463
894.116	0.0158273
894.194	0.0157881
894.272	0.0158439
894.350	0.0158863
894.428	0.0157950
894.506	0.0158522
894.584	0.0159994
894.663	0.0160013
894.741	0.0158511
894.819	0.0158464
894.897	0.0159154
894.975	0.0158663
895.053	0.0159773
895.131	0.0160010
895.209	0.0158529
895.288	0.0159517
895.366	0.0157368
895.444	0.0158110
895.522	0.0159554
895.600	0.0158826
895.678	0.0157451
895.756	0.0158327
895.834	0.0158121
895.913	0.0157126
895.991	0.0158414
896.069	0.0158115
896.147	0.0158579
896.225	0.0157156
896.303	0.0157133
896.381	0.0157464
896.459	0.0157523
896.538	0.0156914
896.616	0.0158018
896.694	0.0156960
896.772	0.0156876
896.850	0.0158438
896.928	0.0158012
897.006	0.0155627
897.084	0.0156069
897.163	0.0157304
897.241	0.0158190
897.319	0.0156743
897.397	0.0157809
897.475	0.0158150
897.553	0.0157359
897.631	0.0155476
897.709	0.0157725
897.788	0.0159188
897.866	0.0158372
897.944	0.0158544
898.022	0.0158127
898.100	0.0158566
898.178	0.0158507
898.256	0.0159154
898.334	0.0158274
898.413	0.0158226
898.491	0.0159295
898.569	0.0159962
898.647	0.0158587
898.725	0.0158102
898.803	0.0158415
898.881	0.0158129
898.959	0.0158449
899.038	0.0158002
899.116	0.0157061
899.194	0.0156253
899.272	0.0157968
899.350	0.0156061
899.428	0.0155408
899.506	0.0155517
899.584	0.0155106
899.663	0.0155124
899.741	0.0155208
899.819	0.0156404
899.897	0.0155518
899.975	0.0154485
900.053	0.0155042
900.131	0.0156040
900.209	0.0155833
900.288	0.0155724
900.366	0.0156599
900.444	0.0154767
900.522	0.0156923
900.600	0.0155299
900.678	0.0157414
900.756	0.0156421
900.834	0.0156483
900.913	0.0157193
900.991	0.0158160
901.069	0.0157259
901.147	0.0157851
901.225	0.0156882
901.303	0.0159532
901.381	0.0157341
901.459	0.0156673
901.538	0.0157752
901.616	0.0158583
901.694	0.0157511
901.772	0.0156940
901.850	0.0157355
901.928	0.0157808
902.006	0.0157196
902.084	0.0157982
902.163	0.0158254
902.241	0.0156619
902.319	0.0155207
902.397	0.0155620
902.475	0.0157184
902.553	0.0157419
902.631	0.0157111
902.709	0.0156006
902.788	0.0156286
902.866	0.0156461
902.944	0.0157498
903.022	0.0156886
903.100	0.0157704
903.178	0.0155980
903.256	0.0156282
903.334	0.0156284
903.413	0.0157162
903.491	0.0156104
903.569	0.0155237
903.647	0.0156250
903.725	0.0157137
903.803	0.0157465
903.881	0.0157227
903.959	0.0157590
904.038	0.0156567
904.116	0.0156393
904.194	0.0157629
904.272	0.0156391
904.350	0.0156422
904.428	0.0157504
904.506	0.0158031
904.584	0.0157816
904.663	0.0157465
904.741	0.0157547
904.819	0.0156738
904.897	0.0157790
904.975	0.0158283
905.053	0.0157812
905.131	0.0157993
905.209	0.0157781
905.288	0.0158460
905.366	0.0157401
905.444	0.0157886
905.522	0.0159257
905.600	0.0158483
905.678	0.0157963
905.756	0.0158893
905.834	0.0157966
905.913	0.0157802
905.991	0.0157065
906.069	0.0157575
906.147	0.0158967
906.225	0.0156931
906.303	0.0156567
906.381	0.0157349
906.459	0.0157742
906.538	0.0158314
906.616	0.0158349
906.694	0.0158370
906.772	0.0157462
906.850	0.0157666
906.928	0.0158434
907.006	0.0159129
907.084	0.0158083
907.163	0.0158437
907.241	0.0158910
907.319	0.0157558
907.397	0.0159763
907.475	0.0158603
907.553	0.0159383
907.631	0.0158644
907.709	0.0158014
907.788	0.0158509
907.866	0.0157940
907.944	0.0159916
908.022	0.0158966
908.100	0.0158463
908.178	0.0158006
908.256	0.0159849
908.334	0.0159579
908.413	0.0160197
908.491	0.0160305
908.569	0.0158404
908.647	0.0158607
908.725	0.0158140
908.803	0.0158377
908.881	0.0159089
908.959	0.0158760
909.038	0.0158842
909.116	0.0158041
909.194	0.0158364
909.272	0.0158411
909.350	0.0158435
909.428	0.0158782
909.506	0.0158435
909.584	0.0157301
909.663	0.0158668
909.741	0.0159160
909.819	0.0157745
909.897	0.0159393
909.975	0.0158595
910.053	0.0157952
910.131	0.0158772
910.209	0.0158778
910.288	0.0158665
910.366	0.0157091
910.444	0.0156753
910.522	0.0157328
910.600	0.0156274
910.678	0.0158686
910.756	0.0158453
910.834	0.0156820
910.913	0.0156733
910.991	0.0157490
911.069	0.0154829
911.147	0.0156601
911.225	0.0156822
911.303	0.0156613
911.381	0.0155972
911.459	0.0155729
911.538	0.0156245
911.616	0.0157104
911.694	0.0156111
911.772	0.0156994
911.850	0.0157690
911.928	0.0156828
912.006	0.0158131
912.084	0.0157671
912.163	0.0158546
912.241	0.0158172
912.319	0.0158430
912.397	0.0158238
912.475	0.0158176
912.553	0.0159122
912.631	0.0156892
912.709	0.0159354
912.788	0.0157851
912.866	0.0157213
912.944	0.0156534
913.022	0.0156579
913.100	0.0157152
913.178	0.0157832
913.256	0.0157991
913.334	0.0156801
913.413	0.0156526
913.491	0.0157202
913.569	0.0157116
913.647	0.0158216
913.725	0.0156470
913.803	0.0157052
913.881	0.0156485
913.959	0.0156533
914.038	0.0157359
914.116	0.0157532
914.194	0.0157779
914.272	0.0157049
914.350	0.0157594
914.428	0.0158002
914.506	0.0158713
914.584	0.0157667
914.663	0.0159829
914.741	0.0159100
914.819	0.0158282
914.897	0.0158483
914.975	0.0158440
915.053	0.0158275
915.131	0.0157744
915.209	0.0159304
915.288	0.0158298
915.366	0.0157302
915.444	0.0157473
915.522	0.0156970
915.600	0.0156618
915.678	0.0156773
915.756	0.0156294
915.834	0.0155843
915.913	0.0157246
915.991	0.0155320
916.069	0.0156438
916.147	0.0156276
916.225	0.0157142
916.303	0.0156821
916.381	0.0156662
916.459	0.0156334
916.538	0.0156055
916.616	0.0155510
916.694	0.0156886
916.772	0.0156670
916.850	0.0156377
916.928	0.0157245
917.006	0.0157870
917.084	0.0157613
917.163	0.0155660
917.241	0.0156096
917.319	0.0156692
917.397	0.0156587
917.475	0.0157666
917.553	0.0157522
917.631	0.0156683
917.709	0.0159049
917.788	0.0157442
917.866	0.0158270
917.944	0.0157233
918.022	0.0158368
918.100	0.0156985
918.178	0.0157784
918.256	0.0157917
918.334	0.0157932
918.413	0.0157536
918.491	0.0158189
918.569	0.0157275
918.647	0.0157307
918.725	0.0157756
918.803	0.0158820
918.881	0.0159431
918.959	0.0157520
919.038	0.0157742
919.116	0.0157319
919.194	0.0157516
919.272	0.0156593
919.350	0.0157122
919.428	0.0157738
919.506	0.0158844
919.584	0.0156667
919.663	0.0156706
919.741	0.0157068
919.819	0.0156483
919.897	0.0158771
