05/20/2022	21:20:49	Ver.	4.1	UNKNOWN
Optical Delay	599.975067	Delta X		0.078125	Sweeps	1	Scan Rate	0/0
Coordinates	Axis 1	NaN	Axis 2	NaN	Axis 3	NaN	Axis 4	NaN	Axis 5	NaN	Axis 6	0.000000
TX Power	0.000000	RX Power	0.000000

599.975	0.0150758
600.053	0.0151585
600.131	0.0150709
600.209	0.0151421
600.288	0.0151350
600.366	0.0151624
600.444	0.0151640
600.522	0.0151160
600.600	0.0151083
600.678	0.0150554
600.756	0.0151356
600.834	0.0151031
600.913	0.0152058
600.991	0.0150768
601.069	0.0150813
601.147	0.0151623
601.225	0.0151878
601.303	0.0151663
601.381	0.0151059
601.459	0.0151411
601.538	0.0151045
601.616	0.0152005
601.694	0.0151797
601.772	0.0150613
601.850	0.0152230
601.928	0.0150825
602.006	0.0151267
602.084	0.0151498
602.163	0.0150858
602.241	0.0150410
602.319	0.0151479
602.397	0.0150987
602.475	0.0152377
602.553	0.0151531
602.631	0.0151338
602.709	0.0150002
602.788	0.0150838
602.866	0.0151421
602.944	0.0151089
603.022	0.0151088
603.100	0.0150378
603.178	0.0150967
603.256	0.0151770
603.334	0.0150448
603.413	0.0150793
603.491	0.0152807
603.569	0.0151755
603.647	0.0152551
603.725	0.0152999
603.803	0.0151726
603.881	0.0152064
603.959	0.0152831
604.038	0.0151250
604.116	0.0152145
604.194	0.0152216
604.272	0.0151278
604.350	0.0151078
604.428	0.0152983
604.506	0.0151363
604.584	0.0151592
604.663	0.0151672
604.741	0.0151443
604.819	0.0151989
604.897	0.0150919
604.975	0.0152765
605.053	0.0150629
605.131	0.0152048
605.209	0.0150826
605.288	0.0150827
605.366	0.0152020
605.444	0.0153321
605.522	0.0151915
605.600	0.0152766
605.678	0.0152745
605.756	0.0152093
605.834	0.0150716
605.913	0.0152779
605.991	0.0152793
606.069	0.0152135
606.147	0.0151855
606.225	0.0152806
606.303	0.0152477
606.381	0.0152584
606.459	0.0152147
606.538	0.0151301
606.616	0.0152460
606.694	0.0151266
606.772	0.0154266
606.850	0.0152971
606.928	0.0151857
607.006	0.0152266
607.084	0.0152955
607.163	0.0152372
607.241	0.0152946
607.319	0.0151943
607.397	0.0152345
607.475	0.0153502
607.553	0.0151147
607.631	0.0152535
607.709	0.0153124
607.788	0.0152346
607.866	0.0152154
607.944	0.0151965
608.022	0.0151802
608.100	0.0153558
608.178	0.0153386
608.256	0.0152203
608.334	0.0153040
608.413	0.0152914
608.491	0.0151818
608.569	0.0151458
608.647	0.0152299
608.725	0.0151512
608.803	0.0151327
608.881	0.0151208
608.959	0.0150745
609.038	0.0151251
609.116	0.0151665
609.194	0.0151228
609.272	0.0150737
609.350	0.0151701
609.428	0.0151552
609.506	0.0151298
609.584	0.0150958
609.663	0.0150369
609.741	0.0151482
609.819	0.0152292
609.897	0.0153284
609.975	0.0153068
610.053	0.0152412
610.131	0.0152406
610.209	0.0154321
610.288	0.0152248
610.366	0.0152094
610.444	0.0152850
610.522	0.0151849
610.600	0.0153053
610.678	0.0151984
610.756	0.0151630
610.834	0.0151209
610.913	0.0151097
610.991	0.0151664
611.069	0.0153295
611.147	0.0152966
611.225	0.0152592
611.303	0.0151003
611.381	0.0151418
611.459	0.0153110
611.538	0.0152000
611.616	0.0151303
611.694	0.0152751
611.772	0.0153915
611.850	0.0152354
611.928	0.0153061
612.006	0.0152282
612.084	0.0151218
612.163	0.0152879
612.241	0.0152419
612.319	0.0152413
612.397	0.0152637
612.475	0.0153886
612.553	0.0152969
612.631	0.0153411
612.709	0.0154552
612.788	0.0151556
612.866	0.0151736
612.944	0.0152182
613.022	0.0152834
613.100	0.0151853
613.178	0.0151642
613.256	0.0154046
613.334	0.0152779
613.413	0.0150827
613.491	0.0152759
613.569	0.0152605
613.647	0.0151584
613.725	0.0152647
613.803	0.0153604
613.881	0.0152297
613.959	0.0151709
614.038	0.0151560
614.116	0.0150897
614.194	0.0151948
614.272	0.0152475
614.350	0.0151052
614.428	0.0151550
614.506	0.0153121
614.584	0.0152058
614.663	0.0151645
614.741	0.0151768
614.819	0.0151080
614.897	0.0152195
614.975	0.0152287
615.053	0.0151998
615.131	0.0152190
615.209	0.0152290
615.288	0.0150571
615.366	0.0151297
615.444	0.0151656
615.522	0.0150706
615.600	0.0151501
615.678	0.0152019
615.756	0.0151252
615.834	0.0150567
615.913	0.0151141
615.991	0.0149916
616.069	0.0151402
616.147	0.0151989
616.225	0.0151341
616.303	0.0150790
616.381	0.0149741
616.459	0.0149687
616.538	0.0151753
616.616	0.0151158
616.694	0.0149926
616.772	0.0151236
616.850	0.0150520
616.928	0.0150505
617.006	0.0151729
617.084	0.0150976
617.163	0.0150128
617.241	0.0150698
617.319	0.0152522
617.397	0.0151162
617.475	0.0151138
617.553	0.0151418
617.631	0.0150946
617.709	0.0151508
617.788	0.0150572
617.866	0.0150347
617.944	0.0152615
618.022	0.0150620
618.100	0.0150473
618.178	0.0150404
618.256	0.0150780
618.334	0.0152216
618.413	0.0151205
618.491	0.0150681
618.569	0.0150889
618.647	0.0150638
618.725	0.0151131
618.803	0.0152334
618.881	0.0150935
618.959	0.0150948
619.038	0.0151571
619.116	0.0150414
619.194	0.0149615
619.272	0.0151598
619.350	0.0151623
619.428	0.0150769
619.506	0.0150967
619.584	0.0150534
619.663	0.0150714
619.741	0.0150488
619.819	0.0149739
619.897	0.0151304
619.975	0.0151891
620.053	0.0151108
620.131	0.0149702
620.209	0.0151375
620.288	0.0150365
620.366	0.0152190
620.444	0.0151183
620.522	0.0151876
620.600	0.0152293
620.678	0.0150499
620.756	0.0150109
620.834	0.0151217
620.913	0.0151363
620.991	0.0150632
621.069	0.0150314
621.147	0.0151120
621.225	0.0151304
621.303	0.0151325
621.381	0.0150289
621.459	0.0149860
621.538	0.0151904
621.616	0.0151820
621.694	0.0150648
621.772	0.0151121
621.850	0.0151962
621.928	0.0151068
622.006	0.0153340
622.084	0.0150706
622.163	0.0150218
622.241	0.0151639
622.319	0.0150924
622.397	0.0150753
622.475	0.0151749
622.553	0.0150869
622.631	0.0151427
622.709	0.0150656
622.788	0.0149759
622.866	0.0153028
622.944	0.0152498
623.022	0.0150852
623.100	0.0150024
623.178	0.0152905
623.256	0.0151845
623.334	0.0150208
623.413	0.0149972
623.491	0.0152440
623.569	0.0151554
623.647	0.0151503
623.725	0.0150822
623.803	0.0151466
623.881	0.0150947
623.959	0.0152712
624.038	0.0152708
624.116	0.0152563
624.194	0.0151119
624.272	0.0150901
624.350	0.0151020
624.428	0.0151772
624.506	0.0152733
624.584	0.0151725
624.663	0.0152235
624.741	0.0152161
624.819	0.0151650
624.897	0.0151578
624.975	0.0150744
625.053	0.0151040
625.131	0.0151017
625.209	0.0151187
625.288	0.0152356
625.366	0.0151735
625.444	0.0150883
625.522	0.0153308
625.600	0.0152158
625.678	0.0152415
625.756	0.0151086
625.834	0.0151189
625.913	0.0151775
625.991	0.0152408
626.069	0.0151053
626.147	0.0151987
626.225	0.0151586
626.303	0.0150963
626.381	0.0151310
626.459	0.0150124
626.538	0.0150806
626.616	0.0153112
626.694	0.0151909
626.772	0.0150425
626.850	0.0152560
626.928	0.0152999
627.006	0.0150697
627.084	0.0150641
627.163	0.0151518
627.241	0.0151149
627.319	0.0150828
627.397	0.0151878
627.475	0.0153142
627.553	0.0151280
627.631	0.0152192
627.709	0.0151814
627.788	0.0151987
627.866	0.0152190
627.944	0.0151783
628.022	0.0151773
628.100	0.0153594
628.178	0.0151976
628.256	0.0153398
628.334	0.0151846
628.413	0.0150780
628.491	0.0152151
628.569	0.0151168
628.647	0.0151696
628.725	0.0152307
628.803	0.0151530
628.881	0.0150766
628.959	0.0151292
629.038	0.0152054
629.116	0.0152611
629.194	0.0151871
629.272	0.0151272
629.350	0.0153256
629.428	0.0153351
629.506	0.0152877
629.584	0.0151914
629.663	0.0152258
629.741	0.0152305
629.819	0.0152929
629.897	0.0151574
629.975	0.0151108
630.053	0.0151264
630.131	0.0152014
630.209	0.0152596
630.288	0.0152026
630.366	0.0150671
630.444	0.0152087
630.522	0.0153011
630.600	0.0151105
630.678	0.0149759
630.756	0.0150589
630.834	0.0149681
630.913	0.0150723
630.991	0.0151325
631.069	0.0150121
631.147	0.0150969
631.225	0.0152136
631.303	0.0150822
631.381	0.0150876
631.459	0.0151463
631.538	0.0151331
631.616	0.0150830
631.694	0.0150945
631.772	0.0152373
631.850	0.0150729
631.928	0.0150649
632.006	0.0151538
632.084	0.0152648
632.163	0.0151848
632.241	0.0151234
632.319	0.0152114
632.397	0.0150976
632.475	0.0150121
632.553	0.0152285
632.631	0.0150965
632.709	0.0150858
632.788	0.0152351
632.866	0.0152116
632.944	0.0150713
633.022	0.0151875
633.100	0.0151794
633.178	0.0150858
633.256	0.0151189
633.334	0.0152216
633.413	0.0149970
633.491	0.0152119
633.569	0.0151894
633.647	0.0150708
633.725	0.0152045
633.803	0.0152100
633.881	0.0152842
633.959	0.0152457
634.038	0.0151684
634.116	0.0153121
634.194	0.0152973
634.272	0.0152497
634.350	0.0153088
634.428	0.0154218
634.506	0.0153379
634.584	0.0151897
634.663	0.0153005
634.741	0.0152336
634.819	0.0153436
634.897	0.0153507
634.975	0.0153410
635.053	0.0154198
635.131	0.0152390
635.209	0.0153345
635.288	0.0154003
635.366	0.0153360
635.444	0.0152940
635.522	0.0153118
635.600	0.0154142
635.678	0.0154247
635.756	0.0153654
635.834	0.0153148
635.913	0.0153262
635.991	0.0154464
636.069	0.0152646
636.147	0.0153434
636.225	0.0153973
636.303	0.0153577
636.381	0.0153342
636.459	0.0152166
636.538	0.0153529
636.616	0.0153062
636.694	0.0153262
636.772	0.0153477
636.850	0.0153951
636.928	0.0155110
637.006	0.0152976
637.084	0.0151850
637.163	0.0153547
637.241	0.0153005
637.319	0.0153372
637.397	0.0152925
637.475	0.0154704
637.553	0.0153596
637.631	0.0152279
637.709	0.0152834
637.788	0.0152741
637.866	0.0154680
637.944	0.0152757
638.022	0.0152604
638.100	0.0153727
638.178	0.0154467
638.256	0.0153032
638.334	0.0154826
638.413	0.0153875
638.491	0.0151601
638.569	0.0153571
638.647	0.0154106
638.725	0.0153743
638.803	0.0153693
638.881	0.0154745
638.959	0.0153191
639.038	0.0153586
639.116	0.0154086
639.194	0.0153921
639.272	0.0152934
639.350	0.0152838
639.428	0.0154066
639.506	0.0154021
639.584	0.0154147
639.663	0.0154070
639.741	0.0151773
639.819	0.0153097
639.897	0.0153405
639.975	0.0154059
640.053	0.0154125
640.131	0.0153062
640.209	0.0152295
640.288	0.0152874
640.366	0.0153386
640.444	0.0153603
640.522	0.0153030
640.600	0.0153265
640.678	0.0152781
640.756	0.0153447
640.834	0.0152222
640.913	0.0153850
640.991	0.0152025
641.069	0.0151338
641.147	0.0152237
641.225	0.0152203
641.303	0.0152909
641.381	0.0152193
641.459	0.0151995
641.538	0.0151806
641.616	0.0153117
641.694	0.0151575
641.772	0.0151223
641.850	0.0151538
641.928	0.0151981
642.006	0.0151401
642.084	0.0151516
642.163	0.0153703
642.241	0.0152065
642.319	0.0149400
642.397	0.0150777
642.475	0.0152001
642.553	0.0152129
642.631	0.0149958
642.709	0.0151926
642.788	0.0151661
642.866	0.0150888
642.944	0.0152277
643.022	0.0152445
643.100	0.0149598
643.178	0.0151601
643.256	0.0151830
643.334	0.0152656
643.413	0.0153143
643.491	0.0151044
643.569	0.0154018
643.647	0.0152393
643.725	0.0150816
643.803	0.0152125
643.881	0.0152528
643.959	0.0152103
644.038	0.0153410
644.116	0.0152427
644.194	0.0151416
644.272	0.0151969
644.350	0.0153883
644.428	0.0153088
644.506	0.0151162
644.584	0.0153933
644.663	0.0154081
644.741	0.0152718
644.819	0.0152446
644.897	0.0153255
644.975	0.0152888
645.053	0.0152128
645.131	0.0153227
645.209	0.0152663
645.288	0.0155056
645.366	0.0154420
645.444	0.0151513
645.522	0.0152908
645.600	0.0152504
645.678	0.0152010
645.756	0.0152754
645.834	0.0153221
645.913	0.0153391
645.991	0.0150858
646.069	0.0152415
646.147	0.0151500
646.225	0.0152544
646.303	0.0153096
646.381	0.0153146
646.459	0.0151999
646.538	0.0153064
646.616	0.0153285
646.694	0.0153806
646.772	0.0152059
646.850	0.0152731
646.928	0.0152575
647.006	0.0154199
647.084	0.0154109
647.163	0.0154008
647.241	0.0151100
647.319	0.0153165
647.397	0.0151624
647.475	0.0151190
647.553	0.0151122
647.631	0.0151203
647.709	0.0151344
647.788	0.0151350
647.866	0.0150807
647.944	0.0150942
648.022	0.0151019
648.100	0.0151328
648.178	0.0151814
648.256	0.0149699
648.334	0.0150494
648.413	0.0150773
648.491	0.0151832
648.569	0.0150828
648.647	0.0150617
648.725	0.0151137
648.803	0.0150817
648.881	0.0152344
648.959	0.0151357
649.038	0.0151572
649.116	0.0151036
649.194	0.0150615
649.272	0.0150692
649.350	0.0150797
649.428	0.0150751
649.506	0.0150905
649.584	0.0150727
649.663	0.0151994
649.741	0.0151460
649.819	0.0150594
649.897	0.0150428
649.975	0.0150346
650.053	0.0149676
650.131	0.0151366
650.209	0.0150733
650.288	0.0150512
650.366	0.0151452
650.444	0.0150642
650.522	0.0150604
650.600	0.0151012
650.678	0.0150250
650.756	0.0151022
650.834	0.0150638
650.913	0.0150791
650.991	0.0150128
651.069	0.0149728
651.147	0.0151231
651.225	0.0149002
651.303	0.0149918
651.381	0.0148792
651.459	0.0149982
651.538	0.0150393
651.616	0.0150338
651.694	0.0151405
651.772	0.0150903
651.850	0.0150240
651.928	0.0151694
652.006	0.0150761
652.084	0.0151158
652.163	0.0149846
652.241	0.0151051
652.319	0.0150826
652.397	0.0150497
652.475	0.0149331
652.553	0.0151107
652.631	0.0151380
652.709	0.0149504
652.788	0.0150305
652.866	0.0149998
652.944	0.0150683
653.022	0.0149995
653.100	0.0149986
653.178	0.0150805
653.256	0.0150784
653.334	0.0151197
653.413	0.0151099
653.491	0.0150320
653.569	0.0149666
653.647	0.0151143
653.725	0.0151481
653.803	0.0151605
653.881	0.0151111
653.959	0.0151014
654.038	0.0151403
654.116	0.0152014
654.194	0.0152246
654.272	0.0151397
654.350	0.0151488
654.428	0.0152072
654.506	0.0152213
654.584	0.0151396
654.663	0.0150900
654.741	0.0150543
654.819	0.0150295
654.897	0.0150941
654.975	0.0151765
655.053	0.0152427
655.131	0.0152486
655.209	0.0150444
655.288	0.0150578
655.366	0.0151357
655.444	0.0151859
655.522	0.0150191
655.600	0.0153442
655.678	0.0152042
655.756	0.0152062
655.834	0.0152433
655.913	0.0153562
655.991	0.0152644
656.069	0.0152769
656.147	0.0152121
656.225	0.0151210
656.303	0.0151960
656.381	0.0152145
656.459	0.0152984
656.538	0.0152040
656.616	0.0152015
656.694	0.0152462
656.772	0.0152331
656.850	0.0152262
656.928	0.0151646
657.006	0.0151884
657.084	0.0152205
657.163	0.0151340
657.241	0.0152048
657.319	0.0152285
657.397	0.0151657
657.475	0.0151904
657.553	0.0150491
657.631	0.0150926
657.709	0.0151212
657.788	0.0152184
657.866	0.0152052
657.944	0.0150538
658.022	0.0151274
658.100	0.0151907
658.178	0.0152497
658.256	0.0154315
658.334	0.0151324
658.413	0.0152212
658.491	0.0152345
658.569	0.0151035
658.647	0.0151942
658.725	0.0152731
658.803	0.0151075
658.881	0.0151714
658.959	0.0150844
659.038	0.0150164
659.116	0.0150989
659.194	0.0151483
659.272	0.0152208
659.350	0.0152917
659.428	0.0151575
659.506	0.0152021
659.584	0.0153037
659.663	0.0154747
659.741	0.0154362
659.819	0.0153744
659.897	0.0153767
659.975	0.0154343
660.053	0.0154630
660.131	0.0155534
660.209	0.0154185
660.288	0.0153734
660.366	0.0153435
660.444	0.0152680
660.522	0.0152753
660.600	0.0153600
660.678	0.0153175
660.756	0.0151788
660.834	0.0151557
660.913	0.0151938
660.991	0.0151745
661.069	0.0152644
661.147	0.0151060
661.225	0.0151025
661.303	0.0152098
661.381	0.0153310
661.459	0.0153139
661.538	0.0153217
661.616	0.0153249
661.694	0.0153921
661.772	0.0153299
661.850	0.0152902
661.928	0.0153918
662.006	0.0153375
662.084	0.0155450
662.163	0.0152859
662.241	0.0153655
662.319	0.0154073
662.397	0.0152554
662.475	0.0153607
662.553	0.0151618
662.631	0.0151384
662.709	0.0150999
662.788	0.0150605
662.866	0.0150779
662.944	0.0150521
663.022	0.0150031
663.100	0.0149916
663.178	0.0151676
663.256	0.0150912
663.334	0.0151285
663.413	0.0151620
663.491	0.0151287
663.569	0.0153061
663.647	0.0151996
663.725	0.0152842
663.803	0.0151724
663.881	0.0153778
663.959	0.0155561
664.038	0.0155253
664.116	0.0154491
664.194	0.0155633
664.272	0.0156179
664.350	0.0156199
664.428	0.0156192
664.506	0.0157063
664.584	0.0157061
664.663	0.0157132
664.741	0.0158465
664.819	0.0157673
664.897	0.0157819
664.975	0.0156335
665.053	0.0157413
665.131	0.0155410
665.209	0.0154801
665.288	0.0154559
665.366	0.0153577
665.444	0.0152143
665.522	0.0151902
665.600	0.0151730
665.678	0.0150220
665.756	0.0150473
665.834	0.0149534
665.913	0.0149043
665.991	0.0149021
666.069	0.0149147
666.147	0.0148933
666.225	0.0150041
666.303	0.0149145
666.381	0.0148956
666.459	0.0148106
666.538	0.0149922
666.616	0.0150831
666.694	0.0150159
666.772	0.0149826
666.850	0.0150253
666.928	0.0149916
667.006	0.0149718
667.084	0.0150704
667.163	0.0151503
667.241	0.0151485
667.319	0.0152922
667.397	0.0152612
667.475	0.0154160
667.553	0.0155058
667.631	0.0156265
667.709	0.0155274
667.788	0.0157980
667.866	0.0158333
667.944	0.0158871
668.022	0.0159590
668.100	0.0160023
668.178	0.0158711
668.256	0.0159351
668.334	0.0160558
668.413	0.0159071
668.491	0.0160247
668.569	0.0158321
668.647	0.0158152
668.725	0.0159922
668.803	0.0157143
668.881	0.0157742
668.959	0.0159114
669.038	0.0156543
669.116	0.0156310
669.194	0.0155388
669.272	0.0153743
669.350	0.0154609
669.428	0.0153883
669.506	0.0151066
669.584	0.0151057
669.663	0.0151348
669.741	0.0149237
669.819	0.0147411
669.897	0.0145776
669.975	0.0144653
670.053	0.0143597
670.131	0.0142233
670.209	0.0140548
670.288	0.0140033
670.366	0.0140788
670.444	0.0139045
670.522	0.0138378
670.600	0.0138182
670.678	0.0139423
670.756	0.0140692
670.834	0.0141153
670.913	0.0139363
670.991	0.0142328
671.069	0.0144107
671.147	0.0146217
671.225	0.0146577
671.303	0.0148331
671.381	0.0151646
671.459	0.0153523
671.538	0.0154778
671.616	0.0156197
671.694	0.0159354
671.772	0.0160607
671.850	0.0161111
671.928	0.0163995
672.006	0.0164389
672.084	0.0166447
672.163	0.0166896
672.241	0.0168909
672.319	0.0169764
672.397	0.0169476
672.475	0.0169045
672.553	0.0170059
672.631	0.0168530
672.709	0.0167007
672.788	0.0166582
672.866	0.0165060
672.944	0.0163470
673.022	0.0161520
673.100	0.0159406
673.178	0.0156062
673.256	0.0153833
673.334	0.0151984
673.413	0.0150336
673.491	0.0147855
673.569	0.0145792
673.647	0.0144564
673.725	0.0142522
673.803	0.0141428
673.881	0.0140338
673.959	0.0138257
674.038	0.0137341
674.116	0.0136910
674.194	0.0136950
674.272	0.0135049
674.350	0.0133149
674.428	0.0133912
674.506	0.0132809
674.584	0.0133072
674.663	0.0132505
674.741	0.0132442
674.819	0.0132685
674.897	0.0134756
674.975	0.0134874
675.053	0.0136868
675.131	0.0136744
675.209	0.0139046
675.288	0.0141754
675.366	0.0143841
675.444	0.0145688
675.522	0.0147565
675.600	0.0150723
675.678	0.0152632
675.756	0.0154932
675.834	0.0156527
675.913	0.0159728
675.991	0.0162741
676.069	0.0163145
676.147	0.0165171
676.225	0.0166527
676.303	0.0167623
676.381	0.0170332
676.459	0.0170483
676.538	0.0171183
676.616	0.0171566
676.694	0.0172469
676.772	0.0171368
676.850	0.0171223
676.928	0.0170976
677.006	0.0168986
677.084	0.0167850
677.163	0.0166476
677.241	0.0163113
677.319	0.0161003
677.397	0.0159130
677.475	0.0157670
677.553	0.0153864
677.631	0.0150985
677.709	0.0148183
677.788	0.0145933
677.866	0.0144498
677.944	0.0142432
678.022	0.0141028
678.100	0.0137009
678.178	0.0138197
678.256	0.0136411
678.334	0.0135300
678.413	0.0134458
678.491	0.0133643
678.569	0.0132608
678.647	0.0132827
678.725	0.0133794
678.803	0.0134733
678.881	0.0134826
678.959	0.0135701
679.038	0.0137604
679.116	0.0140968
679.194	0.0141781
679.272	0.0143369
679.350	0.0147418
679.428	0.0148227
679.506	0.0152038
679.584	0.0153498
679.663	0.0156207
679.741	0.0157623
679.819	0.0159328
679.897	0.0159885
679.975	0.0160806
680.053	0.0162650
680.131	0.0161946
680.209	0.0160826
680.288	0.0160672
680.366	0.0161730
680.444	0.0161728
680.522	0.0161326
680.600	0.0160246
680.678	0.0158752
680.756	0.0156976
680.834	0.0156599
680.913	0.0155460
680.991	0.0153281
681.069	0.0153915
681.147	0.0151315
681.225	0.0150500
681.303	0.0150581
681.381	0.0148178
681.459	0.0146782
681.538	0.0146168
681.616	0.0146198
681.694	0.0145840
681.772	0.0143716
681.850	0.0144550
681.928	0.0145872
682.006	0.0145861
682.084	0.0147674
682.163	0.0146973
682.241	0.0149002
682.319	0.0148530
682.397	0.0150381
682.475	0.0151543
682.553	0.0153616
682.631	0.0154204
682.709	0.0154140
682.788	0.0156427
682.866	0.0157575
682.944	0.0159693
683.022	0.0160638
683.100	0.0159766
683.178	0.0161068
683.256	0.0162689
683.334	0.0161064
683.413	0.0162530
683.491	0.0163766
683.569	0.0162202
683.647	0.0161139
683.725	0.0163129
683.803	0.0162139
683.881	0.0160655
683.959	0.0158402
684.038	0.0157510
684.116	0.0155151
684.194	0.0154047
684.272	0.0154381
684.350	0.0151933
684.428	0.0151766
684.506	0.0150555
684.584	0.0149729
684.663	0.0147747
684.741	0.0146098
684.819	0.0145184
684.897	0.0144753
684.975	0.0144685
685.053	0.0142672
685.131	0.0140296
685.209	0.0141580
685.288	0.0141034
685.366	0.0140850
685.444	0.0139442
685.522	0.0138574
685.600	0.0138797
685.678	0.0140083
685.756	0.0140786
685.834	0.0140534
685.913	0.0142648
685.991	0.0143321
686.069	0.0143185
686.147	0.0145313
686.225	0.0146056
686.303	0.0146100
686.381	0.0147692
686.459	0.0148889
686.538	0.0147698
686.616	0.0150162
686.694	0.0149899
686.772	0.0150619
686.850	0.0150582
686.928	0.0152673
687.006	0.0153289
687.084	0.0153843
687.163	0.0155038
687.241	0.0157288
687.319	0.0157369
687.397	0.0157984
687.475	0.0159613
687.553	0.0160889
687.631	0.0158737
687.709	0.0159714
687.788	0.0159287
687.866	0.0160515
687.944	0.0159254
688.022	0.0158876
688.100	0.0159110
688.178	0.0158737
688.256	0.0159311
688.334	0.0158443
688.413	0.0158781
688.491	0.0160552
688.569	0.0160862
688.647	0.0161065
688.725	0.0160753
688.803	0.0162060
688.881	0.0162396
688.959	0.0162393
689.038	0.0164912
689.116	0.0162296
689.194	0.0162713
689.272	0.0162119
689.350	0.0161286
689.428	0.0161281
689.506	0.0161508
689.584	0.0160292
689.663	0.0159708
689.741	0.0157357
689.819	0.0157901
689.897	0.0154750
689.975	0.0154170
690.053	0.0152285
690.131	0.0151461
690.209	0.0147549
690.288	0.0145749
690.366	0.0143855
690.444	0.0140829
690.522	0.0138422
690.600	0.0136318
690.678	0.0134584
690.756	0.0131284
690.834	0.0130090
690.913	0.0129733
690.991	0.0126623
691.069	0.0127837
691.147	0.0128357
691.225	0.0129796
691.303	0.0128438
691.381	0.0130608
691.459	0.0132503
691.538	0.0132806
691.616	0.0134743
691.694	0.0138577
691.772	0.0140678
691.850	0.0143179
691.928	0.0146118
692.006	0.0151315
692.084	0.0152911
692.163	0.0158123
692.241	0.0161163
692.319	0.0163542
692.397	0.0165759
692.475	0.0169913
692.553	0.0172984
692.631	0.0176037
692.709	0.0176228
692.788	0.0179427
692.866	0.0180612
692.944	0.0180147
693.022	0.0181594
693.100	0.0182396
693.178	0.0180230
693.256	0.0180149
693.334	0.0180088
693.413	0.0178998
693.491	0.0175465
693.569	0.0171688
693.647	0.0168253
693.725	0.0166440
693.803	0.0163754
693.881	0.0159445
693.959	0.0156557
694.038	0.0152869
694.116	0.0150126
694.194	0.0146154
694.272	0.0143901
694.350	0.0140601
694.428	0.0139286
694.506	0.0137925
694.584	0.0136359
694.663	0.0134556
694.741	0.0135948
694.819	0.0135415
694.897	0.0133462
694.975	0.0133017
695.053	0.0134245
695.131	0.0134008
695.209	0.0136365
695.288	0.0137117
695.366	0.0136539
695.444	0.0138258
695.522	0.0138786
695.600	0.0140322
695.678	0.0140856
695.756	0.0144488
695.834	0.0144080
695.913	0.0147785
695.991	0.0148186
696.069	0.0151335
696.147	0.0152393
696.225	0.0153938
696.303	0.0155827
696.381	0.0156441
696.459	0.0157955
696.538	0.0159508
696.616	0.0159645
696.694	0.0159923
696.772	0.0161164
696.850	0.0160966
696.928	0.0161617
697.006	0.0160643
697.084	0.0160014
697.163	0.0158657
697.241	0.0157143
697.319	0.0157308
697.397	0.0155198
697.475	0.0153227
697.553	0.0152323
697.631	0.0152293
697.709	0.0149432
697.788	0.0148087
697.866	0.0147213
697.944	0.0146568
698.022	0.0144395
698.100	0.0145844
698.178	0.0142542
698.256	0.0141383
698.334	0.0140462
698.413	0.0140488
698.491	0.0139964
698.569	0.0138499
698.647	0.0138561
698.725	0.0139995
698.803	0.0140301
698.881	0.0140649
698.959	0.0142275
699.038	0.0145051
699.116	0.0146961
699.194	0.0147197
699.272	0.0150315
699.350	0.0153185
699.428	0.0155798
699.506	0.0158640
699.584	0.0160998
699.663	0.0163924
699.741	0.0164437
699.819	0.0166157
699.897	0.0167490
699.975	0.0169666
700.053	0.0168946
700.131	0.0171297
700.209	0.0168964
700.288	0.0168108
700.366	0.0166869
700.444	0.0165842
700.522	0.0164364
700.600	0.0162861
700.678	0.0159579
700.756	0.0158621
700.834	0.0156956
700.913	0.0155077
700.991	0.0150925
701.069	0.0150069
701.147	0.0147200
701.225	0.0142694
701.303	0.0139761
701.381	0.0138276
701.459	0.0136301
701.538	0.0133752
701.616	0.0133379
701.694	0.0132131
701.772	0.0131518
701.850	0.0130520
701.928	0.0128844
702.006	0.0130443
702.084	0.0130980
702.163	0.0132079
702.241	0.0134058
702.319	0.0135770
702.397	0.0137459
702.475	0.0140772
702.553	0.0141033
702.631	0.0142899
702.709	0.0143895
702.788	0.0145793
702.866	0.0148546
702.944	0.0151707
703.022	0.0152721
703.100	0.0154365
703.178	0.0156007
703.256	0.0157282
703.334	0.0160114
703.413	0.0161555
703.491	0.0162753
703.569	0.0164524
703.647	0.0164748
703.725	0.0164367
703.803	0.0165277
703.881	0.0166605
703.959	0.0165655
704.038	0.0167305
704.116	0.0165894
704.194	0.0166528
704.272	0.0164778
704.350	0.0164419
704.428	0.0164114
704.506	0.0163525
704.584	0.0161073
704.663	0.0159889
704.741	0.0158524
704.819	0.0155624
704.897	0.0153241
704.975	0.0152277
705.053	0.0149397
705.131	0.0145844
705.209	0.0143258
705.288	0.0141395
705.366	0.0138208
705.444	0.0138728
705.522	0.0135567
705.600	0.0133331
705.678	0.0133833
705.756	0.0134275
705.834	0.0133607
705.913	0.0133508
705.991	0.0133671
706.069	0.0135979
706.147	0.0136707
706.225	0.0139344
706.303	0.0139935
706.381	0.0142853
706.459	0.0145181
706.538	0.0148727
706.616	0.0151355
706.694	0.0152541
706.772	0.0154478
706.850	0.0158733
706.928	0.0160582
707.006	0.0162949
707.084	0.0164388
707.163	0.0165935
707.241	0.0166765
707.319	0.0169661
707.397	0.0170815
707.475	0.0171533
707.553	0.0170638
707.631	0.0170385
707.709	0.0171434
707.788	0.0170600
707.866	0.0168097
707.944	0.0167299
708.022	0.0165656
708.100	0.0164867
708.178	0.0162722
708.256	0.0160545
708.334	0.0157097
708.413	0.0153538
708.491	0.0149404
708.569	0.0147489
708.647	0.0144665
708.725	0.0141910
708.803	0.0138734
708.881	0.0137151
708.959	0.0136117
709.038	0.0133301
709.116	0.0132011
709.194	0.0132391
709.272	0.0130470
709.350	0.0132040
709.428	0.0131887
709.506	0.0132231
709.584	0.0132864
709.663	0.0133539
709.741	0.0135516
709.819	0.0135783
709.897	0.0136845
709.975	0.0138796
710.053	0.0140047
710.131	0.0142863
710.209	0.0144065
710.288	0.0146326
710.366	0.0147012
710.444	0.0149163
710.522	0.0149562
710.600	0.0152361
710.678	0.0154999
710.756	0.0155961
710.834	0.0157642
710.913	0.0160165
710.991	0.0161666
711.069	0.0162683
711.147	0.0164426
711.225	0.0168349
711.303	0.0168273
711.381	0.0168942
711.459	0.0169280
711.538	0.0169141
711.616	0.0168501
711.694	0.0169233
711.772	0.0167525
711.850	0.0167287
711.928	0.0168169
712.006	0.0166460
712.084	0.0164951
712.163	0.0164495
712.241	0.0164131
712.319	0.0161161
712.397	0.0160126
712.475	0.0158134
712.553	0.0157128
712.631	0.0154873
712.709	0.0155059
712.788	0.0153233
712.866	0.0152040
712.944	0.0150583
713.022	0.0149192
713.100	0.0147898
713.178	0.0147186
713.256	0.0146160
713.334	0.0144919
713.413	0.0144328
713.491	0.0144025
713.569	0.0143221
713.647	0.0143044
713.725	0.0142226
713.803	0.0143881
713.881	0.0141492
713.959	0.0140701
714.038	0.0142200
714.116	0.0142194
714.194	0.0140141
714.272	0.0140955
714.350	0.0141843
714.428	0.0140968
714.506	0.0142309
714.584	0.0140350
714.663	0.0141022
714.741	0.0140887
714.819	0.0139651
714.897	0.0141323
714.975	0.0140325
715.053	0.0141461
715.131	0.0142207
715.209	0.0140582
715.288	0.0141643
715.366	0.0142250
715.444	0.0143001
715.522	0.0145448
715.600	0.0146938
715.678	0.0147895
715.756	0.0150632
715.834	0.0151283
715.913	0.0153655
715.991	0.0154307
716.069	0.0154377
716.147	0.0155930
716.225	0.0156548
716.303	0.0156973
716.381	0.0158246
716.459	0.0160444
716.538	0.0159638
716.616	0.0161129
716.694	0.0161517
716.772	0.0163324
716.850	0.0163663
716.928	0.0164465
717.006	0.0165390
717.084	0.0165437
717.163	0.0166113
717.241	0.0167515
717.319	0.0166605
717.397	0.0165934
717.475	0.0167036
717.553	0.0164863
717.631	0.0168102
717.709	0.0166573
717.788	0.0166059
717.866	0.0164465
717.944	0.0164260
718.022	0.0162409
718.100	0.0162012
718.178	0.0159636
718.256	0.0159837
718.334	0.0157307
718.413	0.0156322
718.491	0.0154134
718.569	0.0152820
718.647	0.0151988
718.725	0.0150384
718.803	0.0148209
718.881	0.0145957
718.959	0.0144811
719.038	0.0141476
719.116	0.0138609
719.194	0.0138862
719.272	0.0136351
719.350	0.0133071
719.428	0.0133215
719.506	0.0133968
719.584	0.0133277
719.663	0.0133183
719.741	0.0134166
719.819	0.0137524
719.897	0.0140179
719.975	0.0140834
720.053	0.0144669
720.131	0.0147340
720.209	0.0149820
720.288	0.0150931
720.366	0.0152924
720.444	0.0155622
720.522	0.0156778
720.600	0.0157360
720.678	0.0158186
720.756	0.0158195
720.834	0.0156747
720.913	0.0155414
720.991	0.0154938
721.069	0.0154872
721.147	0.0153883
721.225	0.0152703
721.303	0.0151545
721.381	0.0149767
721.459	0.0149149
721.538	0.0149155
721.616	0.0148417
721.694	0.0147048
721.772	0.0146806
721.850	0.0146527
721.928	0.0146620
722.006	0.0145164
722.084	0.0147278
722.163	0.0147980
722.241	0.0149497
722.319	0.0150518
722.397	0.0150581
722.475	0.0153667
722.553	0.0153279
722.631	0.0155450
722.709	0.0156029
722.788	0.0156966
722.866	0.0158781
722.944	0.0159865
723.022	0.0161436
723.100	0.0161575
723.178	0.0161619
723.256	0.0162693
723.334	0.0163760
723.413	0.0163602
723.491	0.0161970
723.569	0.0161176
723.647	0.0159108
723.725	0.0158475
723.803	0.0157532
723.881	0.0154795
723.959	0.0153705
724.038	0.0150800
724.116	0.0148367
724.194	0.0145512
724.272	0.0144254
724.350	0.0142679
724.428	0.0140082
724.506	0.0139574
724.584	0.0138597
724.663	0.0138107
724.741	0.0136058
724.819	0.0135546
724.897	0.0134518
724.975	0.0135054
725.053	0.0134340
725.131	0.0134730
725.209	0.0135430
725.288	0.0136141
725.366	0.0138348
725.444	0.0139342
725.522	0.0139952
725.600	0.0141602
725.678	0.0143646
725.756	0.0145126
725.834	0.0148724
725.913	0.0150575
725.991	0.0153100
726.069	0.0156396
726.147	0.0158879
726.225	0.0162643
726.303	0.0162304
726.381	0.0164445
726.459	0.0165605
726.538	0.0166728
726.616	0.0167094
726.694	0.0167186
726.772	0.0167212
726.850	0.0165687
726.928	0.0166273
727.006	0.0166505
727.084	0.0165851
727.163	0.0165275
727.241	0.0163403
727.319	0.0163295
727.397	0.0161585
727.475	0.0159377
727.553	0.0157650
727.631	0.0157164
727.709	0.0156289
727.788	0.0153921
727.866	0.0153752
727.944	0.0150285
728.022	0.0150920
728.100	0.0147195
728.178	0.0146694
728.256	0.0146643
728.334	0.0145804
728.413	0.0145746
728.491	0.0146674
728.569	0.0146941
728.647	0.0147408
728.725	0.0146016
728.803	0.0146495
728.881	0.0146446
728.959	0.0145128
729.038	0.0146780
729.116	0.0147698
729.194	0.0147984
729.272	0.0148653
729.350	0.0147784
729.428	0.0148744
729.506	0.0148395
729.584	0.0150394
729.663	0.0149642
729.741	0.0150459
729.819	0.0150414
729.897	0.0150223
729.975	0.0150801
730.053	0.0151637
730.131	0.0150552
730.209	0.0149824
730.288	0.0147558
730.366	0.0147296
730.444	0.0146041
730.522	0.0145688
730.600	0.0145215
730.678	0.0144360
730.756	0.0145258
730.834	0.0144062
730.913	0.0144736
730.991	0.0143193
731.069	0.0144386
731.147	0.0143000
731.225	0.0143423
731.303	0.0143605
731.381	0.0144357
731.459	0.0144173
731.538	0.0144964
731.616	0.0146396
731.694	0.0147836
731.772	0.0146837
731.850	0.0150155
731.928	0.0150649
732.006	0.0152261
732.084	0.0153911
732.163	0.0157114
732.241	0.0159996
732.319	0.0159209
732.397	0.0162386
732.475	0.0162215
732.553	0.0164552
732.631	0.0164967
732.709	0.0165968
732.788	0.0167093
732.866	0.0168085
732.944	0.0168502
733.022	0.0168021
733.100	0.0167268
733.178	0.0166531
733.256	0.0167171
733.334	0.0165511
733.413	0.0164232
733.491	0.0164550
733.569	0.0163113
733.647	0.0161967
733.725	0.0161334
733.803	0.0158263
733.881	0.0156815
733.959	0.0156125
734.038	0.0154539
734.116	0.0153560
734.194	0.0151433
734.272	0.0151867
734.350	0.0149603
734.428	0.0148566
734.506	0.0147395
734.584	0.0145473
734.663	0.0146257
734.741	0.0144676
734.819	0.0142146
734.897	0.0143171
734.975	0.0141331
735.053	0.0141469
735.131	0.0139425
735.209	0.0139540
735.288	0.0140050
735.366	0.0141687
735.444	0.0139621
735.522	0.0140057
735.600	0.0140752
735.678	0.0140578
735.756	0.0141763
735.834	0.0142084
735.913	0.0142208
735.991	0.0143480
736.069	0.0144028
736.147	0.0144025
736.225	0.0146062
736.303	0.0147102
736.381	0.0147650
736.459	0.0148066
736.538	0.0150191
736.616	0.0151221
736.694	0.0149674
736.772	0.0151411
736.850	0.0151967
736.928	0.0151355
737.006	0.0152605
737.084	0.0152848
737.163	0.0153820
737.241	0.0154839
737.319	0.0153201
737.397	0.0153325
737.475	0.0152370
737.553	0.0153536
737.631	0.0153658
737.709	0.0153328
737.788	0.0154153
737.866	0.0153155
737.944	0.0152155
738.022	0.0151199
738.100	0.0151215
738.178	0.0152094
738.256	0.0152638
738.334	0.0154694
738.413	0.0154057
738.491	0.0154140
738.569	0.0154975
738.647	0.0156590
738.725	0.0156487
738.803	0.0157951
738.881	0.0158355
738.959	0.0158762
739.038	0.0160497
739.116	0.0160758
739.194	0.0160110
739.272	0.0159349
739.350	0.0159995
739.428	0.0160815
739.506	0.0161510
739.584	0.0160526
739.663	0.0160924
739.741	0.0161514
739.819	0.0160281
739.897	0.0160803
739.975	0.0160391
740.053	0.0158950
740.131	0.0157543
740.209	0.0157430
740.288	0.0156273
740.366	0.0153773
740.444	0.0152338
740.522	0.0152529
740.600	0.0150412
740.678	0.0148274
740.756	0.0148140
740.834	0.0148084
740.913	0.0145996
740.991	0.0144830
741.069	0.0142915
741.147	0.0145120
741.225	0.0144210
741.303	0.0142784
741.381	0.0144443
741.459	0.0145569
741.538	0.0145340
741.616	0.0144106
741.694	0.0145683
741.772	0.0147182
741.850	0.0146051
741.928	0.0149270
742.006	0.0149049
742.084	0.0147403
742.163	0.0148721
742.241	0.0148371
742.319	0.0150621
742.397	0.0149870
742.475	0.0150808
742.553	0.0152176
742.631	0.0154058
742.709	0.0154132
742.788	0.0153004
742.866	0.0154585
742.944	0.0156274
743.022	0.0154855
743.100	0.0157146
743.178	0.0156695
743.256	0.0155796
743.334	0.0156489
743.413	0.0155788
743.491	0.0157432
743.569	0.0157653
743.647	0.0157489
743.725	0.0159551
743.803	0.0157465
743.881	0.0157258
743.959	0.0157397
744.038	0.0158040
744.116	0.0158108
744.194	0.0157874
744.272	0.0156161
744.350	0.0156686
744.428	0.0155815
744.506	0.0156504
744.584	0.0155580
744.663	0.0152843
744.741	0.0152168
744.819	0.0151670
744.897	0.0150867
744.975	0.0147862
745.053	0.0146918
745.131	0.0147067
745.209	0.0144536
745.288	0.0143340
745.366	0.0143624
745.444	0.0141775
745.522	0.0141797
745.600	0.0142993
745.678	0.0142898
745.756	0.0142709
745.834	0.0143795
745.913	0.0143762
745.991	0.0145179
746.069	0.0148588
746.147	0.0148470
746.225	0.0149223
746.303	0.0150737
746.381	0.0152680
746.459	0.0152769
746.538	0.0154212
746.616	0.0153963
746.694	0.0154869
746.772	0.0156098
746.850	0.0156722
746.928	0.0157748
747.006	0.0157531
747.084	0.0156487
747.163	0.0157060
747.241	0.0157746
747.319	0.0158251
747.397	0.0157092
747.475	0.0156196
747.553	0.0156132
747.631	0.0157305
747.709	0.0156113
747.788	0.0156306
747.866	0.0154556
747.944	0.0154257
748.022	0.0154964
748.100	0.0154085
748.178	0.0152757
748.256	0.0153677
748.334	0.0152087
748.413	0.0150947
748.491	0.0151972
748.569	0.0152556
748.647	0.0153085
748.725	0.0150617
748.803	0.0148427
748.881	0.0149986
748.959	0.0150040
749.038	0.0150039
749.116	0.0150996
749.194	0.0149781
749.272	0.0151980
749.350	0.0152106
749.428	0.0151642
749.506	0.0151293
749.584	0.0152995
749.663	0.0153033
749.741	0.0152865
749.819	0.0154262
749.897	0.0153922
749.975	0.0154716
750.053	0.0154343
750.131	0.0155470
750.209	0.0154556
750.288	0.0154404
750.366	0.0154568
750.444	0.0153951
750.522	0.0153599
750.600	0.0151670
750.678	0.0150630
750.756	0.0149803
750.834	0.0149622
750.913	0.0150363
750.991	0.0148834
751.069	0.0148470
751.147	0.0151048
751.225	0.0147703
751.303	0.0148970
751.381	0.0149456
751.459	0.0149394
751.538	0.0149834
751.616	0.0151147
751.694	0.0150646
751.772	0.0152628
751.850	0.0150763
751.928	0.0152426
752.006	0.0152844
752.084	0.0151993
752.163	0.0153231
752.241	0.0152470
752.319	0.0151753
752.397	0.0151141
752.475	0.0151105
752.553	0.0150558
752.631	0.0150847
752.709	0.0151100
752.788	0.0150634
752.866	0.0150249
752.944	0.0148888
753.022	0.0149552
753.100	0.0151274
753.178	0.0150025
753.256	0.0151617
753.334	0.0154138
753.413	0.0152956
753.491	0.0151888
753.569	0.0154864
753.647	0.0154137
753.725	0.0154830
753.803	0.0155040
753.881	0.0155062
753.959	0.0154780
754.038	0.0156285
754.116	0.0155196
754.194	0.0153791
754.272	0.0154069
754.350	0.0153696
754.428	0.0152102
754.506	0.0153321
754.584	0.0153397
754.663	0.0153518
754.741	0.0153000
754.819	0.0151698
754.897	0.0152544
754.975	0.0152724
755.053	0.0153487
755.131	0.0152116
755.209	0.0151344
755.288	0.0151682
755.366	0.0152555
755.444	0.0152035
755.522	0.0150864
755.600	0.0150807
755.678	0.0150096
755.756	0.0150714
755.834	0.0149525
755.913	0.0151174
755.991	0.0150736
756.069	0.0150650
756.147	0.0150434
756.225	0.0150503
756.303	0.0150597
756.381	0.0151682
756.459	0.0152710
756.538	0.0152343
756.616	0.0154716
756.694	0.0152872
756.772	0.0154707
756.850	0.0156035
756.928	0.0156598
757.006	0.0157769
757.084	0.0158614
757.163	0.0158552
757.241	0.0158640
757.319	0.0158688
757.397	0.0156740
757.475	0.0158190
757.553	0.0157993
757.631	0.0158987
757.709	0.0159675
757.788	0.0159487
757.866	0.0156645
757.944	0.0155821
758.022	0.0155965
758.100	0.0154971
758.178	0.0154010
758.256	0.0153236
758.334	0.0150774
758.413	0.0149514
758.491	0.0149611
758.569	0.0147725
758.647	0.0147157
758.725	0.0146957
758.803	0.0145151
758.881	0.0143449
758.959	0.0144381
759.038	0.0142948
759.116	0.0142902
759.194	0.0143747
759.272	0.0143261
759.350	0.0143503
759.428	0.0142702
759.506	0.0143899
759.584	0.0145301
759.663	0.0146141
759.741	0.0147787
759.819	0.0147370
759.897	0.0148270
759.975	0.0148527
760.053	0.0151350
760.131	0.0150588
760.209	0.0151597
760.288	0.0152433
760.366	0.0151057
760.444	0.0153021
760.522	0.0153235
760.600	0.0151701
760.678	0.0153862
760.756	0.0152752
760.834	0.0154765
760.913	0.0154076
760.991	0.0153801
761.069	0.0154101
761.147	0.0154739
761.225	0.0155595
761.303	0.0155682
761.381	0.0154835
761.459	0.0157986
761.538	0.0157196
761.616	0.0156650
761.694	0.0154724
761.772	0.0156157
761.850	0.0156550
761.928	0.0157374
762.006	0.0156248
762.084	0.0155270
762.163	0.0157345
762.241	0.0157163
762.319	0.0155526
762.397	0.0157870
762.475	0.0157664
762.553	0.0158646
762.631	0.0158799
762.709	0.0159290
762.788	0.0157856
762.866	0.0159289
762.944	0.0158411
763.022	0.0157897
763.100	0.0158761
763.178	0.0157581
763.256	0.0157079
763.334	0.0157862
763.413	0.0157352
763.491	0.0156136
763.569	0.0155846
763.647	0.0154344
763.725	0.0154794
763.803	0.0153549
763.881	0.0150962
763.959	0.0149772
764.038	0.0149155
764.116	0.0149124
764.194	0.0146819
764.272	0.0145489
764.350	0.0145636
764.428	0.0143240
764.506	0.0143047
764.584	0.0142928
764.663	0.0141820
764.741	0.0141647
764.819	0.0141363
764.897	0.0142107
764.975	0.0144708
765.053	0.0144117
765.131	0.0144105
765.209	0.0146109
765.288	0.0146478
765.366	0.0147697
765.444	0.0148297
765.522	0.0149529
765.600	0.0148857
765.678	0.0149358
765.756	0.0150311
765.834	0.0149485
765.913	0.0151264
765.991	0.0150916
766.069	0.0151018
766.147	0.0152567
766.225	0.0153019
766.303	0.0153586
766.381	0.0152744
766.459	0.0152731
766.538	0.0152721
766.616	0.0153020
766.694	0.0152831
766.772	0.0153173
766.850	0.0150470
766.928	0.0151128
767.006	0.0151538
767.084	0.0150996
767.163	0.0149365
767.241	0.0150935
767.319	0.0149741
767.397	0.0148453
767.475	0.0149328
767.553	0.0150111
767.631	0.0149994
767.709	0.0151678
767.788	0.0151209
767.866	0.0152454
767.944	0.0153481
768.022	0.0152670
768.100	0.0155405
768.178	0.0155144
768.256	0.0156229
768.334	0.0156443
768.413	0.0157195
768.491	0.0157047
768.569	0.0159380
768.647	0.0159071
768.725	0.0156683
768.803	0.0157670
768.881	0.0156757
768.959	0.0157861
769.038	0.0157178
769.116	0.0155963
769.194	0.0154085
769.272	0.0153427
769.350	0.0152450
769.428	0.0152341
769.506	0.0150206
769.584	0.0150388
769.663	0.0148354
769.741	0.0149612
769.819	0.0146991
769.897	0.0146248
769.975	0.0145969
770.053	0.0145087
770.131	0.0145315
770.209	0.0147460
770.288	0.0144505
770.366	0.0144890
770.444	0.0144923
770.522	0.0144736
770.600	0.0143254
770.678	0.0143338
770.756	0.0146126
770.834	0.0145931
770.913	0.0145782
770.991	0.0147024
771.069	0.0148068
771.147	0.0146886
771.225	0.0149401
771.303	0.0150148
771.381	0.0150397
771.459	0.0151037
771.538	0.0151511
771.616	0.0152797
771.694	0.0153651
771.772	0.0153728
771.850	0.0154466
771.928	0.0154997
772.006	0.0156838
772.084	0.0157419
772.163	0.0157967
772.241	0.0158237
772.319	0.0158905
772.397	0.0158952
772.475	0.0161816
772.553	0.0161562
772.631	0.0163514
772.709	0.0163268
772.788	0.0162914
772.866	0.0163531
772.944	0.0165446
773.022	0.0164207
773.100	0.0164104
773.178	0.0162720
773.256	0.0163229
773.334	0.0162414
773.413	0.0160859
773.491	0.0159076
773.569	0.0159415
773.647	0.0158418
773.725	0.0157559
773.803	0.0157003
773.881	0.0155389
773.959	0.0153796
774.038	0.0152518
774.116	0.0153394
774.194	0.0151241
774.272	0.0149823
774.350	0.0148345
774.428	0.0147101
774.506	0.0146762
774.584	0.0144279
774.663	0.0142892
774.741	0.0144575
774.819	0.0143389
774.897	0.0141006
774.975	0.0143136
775.053	0.0142643
775.131	0.0142942
775.209	0.0142902
775.288	0.0141855
775.366	0.0141734
775.444	0.0143664
775.522	0.0142869
775.600	0.0144515
775.678	0.0146636
775.756	0.0146828
775.834	0.0148118
775.913	0.0148547
775.991	0.0151963
776.069	0.0150719
776.147	0.0151575
776.225	0.0153549
776.303	0.0155140
776.381	0.0156047
776.459	0.0157051
776.538	0.0158828
776.616	0.0157933
776.694	0.0157705
776.772	0.0158221
776.850	0.0158209
776.928	0.0156832
777.006	0.0157772
777.084	0.0158269
777.163	0.0157873
777.241	0.0157558
777.319	0.0155895
777.397	0.0156413
777.475	0.0156403
777.553	0.0156599
777.631	0.0155363
777.709	0.0154529
777.788	0.0156044
777.866	0.0155074
777.944	0.0153813
778.022	0.0154459
778.100	0.0153238
778.178	0.0155353
778.256	0.0152664
778.334	0.0152895
778.413	0.0152395
778.491	0.0150613
778.569	0.0153130
778.647	0.0153441
778.725	0.0151172
778.803	0.0152052
778.881	0.0152369
778.959	0.0153481
779.038	0.0153278
779.116	0.0151459
779.194	0.0152109
779.272	0.0152328
779.350	0.0152820
779.428	0.0153083
779.506	0.0152065
779.584	0.0150766
779.663	0.0151547
779.741	0.0149766
779.819	0.0148927
779.897	0.0149647
779.975	0.0148502
780.053	0.0148716
780.131	0.0148471
780.209	0.0147900
780.288	0.0147513
780.366	0.0147970
780.444	0.0149290
780.522	0.0147651
780.600	0.0149693
780.678	0.0148278
780.756	0.0148208
780.834	0.0149007
780.913	0.0149600
780.991	0.0150468
781.069	0.0150746
781.147	0.0151630
781.225	0.0151154
781.303	0.0151947
781.381	0.0153532
781.459	0.0152098
781.538	0.0152147
781.616	0.0152270
781.694	0.0152958
781.772	0.0152186
781.850	0.0151121
781.928	0.0153108
782.006	0.0151319
782.084	0.0150169
782.163	0.0151281
782.241	0.0151566
782.319	0.0151085
782.397	0.0150521
782.475	0.0151218
782.553	0.0150341
782.631	0.0149854
782.709	0.0148247
782.788	0.0149225
782.866	0.0150385
782.944	0.0149681
783.022	0.0149827
783.100	0.0150083
783.178	0.0149408
783.256	0.0150391
783.334	0.0150724
783.413	0.0149879
783.491	0.0151054
783.569	0.0151515
783.647	0.0151384
783.725	0.0150810
783.803	0.0151933
783.881	0.0152321
783.959	0.0152124
784.038	0.0151837
784.116	0.0151955
784.194	0.0152255
784.272	0.0153187
784.350	0.0151399
784.428	0.0151440
784.506	0.0152995
784.584	0.0151639
784.663	0.0151524
784.741	0.0151194
784.819	0.0151756
784.897	0.0151290
784.975	0.0150803
785.053	0.0150741
785.131	0.0150526
785.209	0.0149323
785.288	0.0151321
785.366	0.0150465
785.444	0.0150387
785.522	0.0152016
785.600	0.0151612
785.678	0.0150079
785.756	0.0150606
785.834	0.0151949
785.913	0.0151353
785.991	0.0151374
786.069	0.0151876
786.147	0.0151389
786.225	0.0151093
786.303	0.0150314
786.381	0.0151308
786.459	0.0151094
786.538	0.0150240
786.616	0.0148911
786.694	0.0148658
786.772	0.0147822
786.850	0.0148595
786.928	0.0147638
787.006	0.0146121
787.084	0.0145605
787.163	0.0147857
787.241	0.0146626
787.319	0.0147428
787.397	0.0149538
787.475	0.0148819
787.553	0.0147611
787.631	0.0148760
787.709	0.0148615
787.788	0.0150072
787.866	0.0148701
787.944	0.0148805
788.022	0.0150210
788.100	0.0148353
788.178	0.0150569
788.256	0.0150634
788.334	0.0150655
788.413	0.0151252
788.491	0.0151797
788.569	0.0154183
788.647	0.0153281
788.725	0.0153561
788.803	0.0154910
788.881	0.0153857
788.959	0.0154260
789.038	0.0155930
789.116	0.0154900
789.194	0.0154362
789.272	0.0154571
789.350	0.0154582
789.428	0.0155215
789.506	0.0154340
789.584	0.0155400
789.663	0.0154024
789.741	0.0154245
789.819	0.0153764
789.897	0.0152503
789.975	0.0153503
790.053	0.0153168
790.131	0.0152728
790.209	0.0153548
790.288	0.0151888
790.366	0.0151704
790.444	0.0151179
790.522	0.0149917
790.600	0.0151695
790.678	0.0152600
790.756	0.0150560
790.834	0.0150609
790.913	0.0150134
790.991	0.0148784
791.069	0.0149562
791.147	0.0148729
791.225	0.0148959
791.303	0.0149477
791.381	0.0148418
791.459	0.0150159
791.538	0.0150369
791.616	0.0149090
791.694	0.0149162
791.772	0.0148626
791.850	0.0148625
791.928	0.0150523
792.006	0.0150675
792.084	0.0150053
792.163	0.0148798
792.241	0.0150191
792.319	0.0150669
792.397	0.0151537
792.475	0.0150829
792.553	0.0151485
792.631	0.0151233
792.709	0.0151645
792.788	0.0152303
792.866	0.0152884
792.944	0.0152051
793.022	0.0152274
793.100	0.0152895
793.178	0.0153521
793.256	0.0153523
793.334	0.0153716
793.413	0.0154714
793.491	0.0154658
793.569	0.0153548
793.647	0.0154096
793.725	0.0154642
793.803	0.0153938
793.881	0.0154321
793.959	0.0154724
794.038	0.0154775
794.116	0.0155117
794.194	0.0156229
794.272	0.0155110
794.350	0.0155102
794.428	0.0155548
794.506	0.0155038
794.584	0.0156438
794.663	0.0154922
794.741	0.0155570
794.819	0.0154612
794.897	0.0154190
794.975	0.0154847
795.053	0.0155225
795.131	0.0154597
795.209	0.0153471
795.288	0.0154890
795.366	0.0153448
795.444	0.0152788
795.522	0.0152943
795.600	0.0155186
795.678	0.0153813
795.756	0.0153413
795.834	0.0155486
795.913	0.0154404
795.991	0.0153974
796.069	0.0155562
796.147	0.0155804
796.225	0.0154987
796.303	0.0153690
796.381	0.0154384
796.459	0.0156477
796.538	0.0157111
796.616	0.0154223
796.694	0.0155818
796.772	0.0155693
796.850	0.0153624
796.928	0.0153518
797.006	0.0153487
797.084	0.0153915
797.163	0.0153056
797.241	0.0151670
797.319	0.0150803
797.397	0.0151093
797.475	0.0149981
797.553	0.0149847
797.631	0.0149039
797.709	0.0147691
797.788	0.0147761
797.866	0.0146447
797.944	0.0145674
798.022	0.0146024
798.100	0.0145693
798.178	0.0146751
798.256	0.0144441
798.334	0.0144571
798.413	0.0144541
798.491	0.0144147
798.569	0.0144148
798.647	0.0144823
798.725	0.0145215
798.803	0.0143737
798.881	0.0144658
798.959	0.0146206
799.038	0.0146277
799.116	0.0146716
799.194	0.0147713
799.272	0.0148912
799.350	0.0150079
799.428	0.0152321
799.506	0.0151946
799.584	0.0153399
799.663	0.0153054
799.741	0.0154572
799.819	0.0155016
799.897	0.0155392
799.975	0.0154405
800.053	0.0155798
800.131	0.0155928
800.209	0.0155743
800.288	0.0156762
800.366	0.0156505
800.444	0.0155354
800.522	0.0156548
800.600	0.0156535
800.678	0.0155401
800.756	0.0154866
800.834	0.0154034
800.913	0.0155032
800.991	0.0154363
801.069	0.0152935
801.147	0.0149837
801.225	0.0152400
801.303	0.0151101
801.381	0.0150605
801.459	0.0149700
801.538	0.0149369
801.616	0.0149121
801.694	0.0148690
801.772	0.0149302
801.850	0.0149516
801.928	0.0148563
802.006	0.0149403
802.084	0.0149277
802.163	0.0148466
802.241	0.0150482
802.319	0.0148510
802.397	0.0150063
802.475	0.0147905
802.553	0.0148656
802.631	0.0150031
802.709	0.0149766
802.788	0.0149094
802.866	0.0150213
802.944	0.0151265
803.022	0.0150971
803.100	0.0151136
803.178	0.0151327
803.256	0.0151170
803.334	0.0152515
803.413	0.0153510
803.491	0.0152867
803.569	0.0154881
803.647	0.0153504
803.725	0.0154160
803.803	0.0154744
803.881	0.0154675
803.959	0.0155007
804.038	0.0153356
804.116	0.0154152
804.194	0.0156558
804.272	0.0154858
804.350	0.0153407
804.428	0.0153109
804.506	0.0154936
804.584	0.0154641
804.663	0.0153178
804.741	0.0153273
804.819	0.0152930
804.897	0.0153051
804.975	0.0153957
805.053	0.0154253
805.131	0.0152529
805.209	0.0151881
805.288	0.0152227
805.366	0.0151546
805.444	0.0151401
805.522	0.0151850
805.600	0.0149825
805.678	0.0148813
805.756	0.0149465
805.834	0.0147940
805.913	0.0149381
805.991	0.0147417
806.069	0.0147036
806.147	0.0148317
806.225	0.0148264
806.303	0.0148432
806.381	0.0148998
806.459	0.0148029
806.538	0.0148412
806.616	0.0147769
806.694	0.0147176
806.772	0.0146214
806.850	0.0147674
806.928	0.0148556
807.006	0.0146764
807.084	0.0147211
807.163	0.0149522
807.241	0.0148341
807.319	0.0149254
807.397	0.0149503
807.475	0.0150621
807.553	0.0151804
807.631	0.0154065
807.709	0.0153931
807.788	0.0155299
807.866	0.0155242
807.944	0.0153331
808.022	0.0155837
808.100	0.0156088
808.178	0.0156712
808.256	0.0157118
808.334	0.0156217
808.413	0.0155487
808.491	0.0158358
808.569	0.0156116
808.647	0.0156010
808.725	0.0156120
808.803	0.0154883
808.881	0.0155336
808.959	0.0154041
809.038	0.0152493
809.116	0.0152718
809.194	0.0152722
809.272	0.0152083
809.350	0.0150429
809.428	0.0149811
809.506	0.0149638
809.584	0.0149729
809.663	0.0149753
809.741	0.0148904
809.819	0.0147850
809.897	0.0146967
809.975	0.0148399
810.053	0.0147270
810.131	0.0148170
810.209	0.0148402
810.288	0.0147192
810.366	0.0147500
810.444	0.0148700
810.522	0.0149297
810.600	0.0148691
810.678	0.0147533
810.756	0.0148879
810.834	0.0147939
810.913	0.0149408
810.991	0.0148557
811.069	0.0147376
811.147	0.0148811
811.225	0.0147351
811.303	0.0149310
811.381	0.0149474
811.459	0.0148905
811.538	0.0149215
811.616	0.0149673
811.694	0.0149490
811.772	0.0148203
811.850	0.0149723
811.928	0.0148729
812.006	0.0148787
812.084	0.0150995
812.163	0.0150830
812.241	0.0151170
812.319	0.0150311
812.397	0.0151377
812.475	0.0153315
812.553	0.0153477
812.631	0.0152084
812.709	0.0153500
812.788	0.0155458
812.866	0.0155693
812.944	0.0157705
813.022	0.0157498
813.100	0.0157716
813.178	0.0156300
813.256	0.0156630
813.334	0.0156030
813.413	0.0158298
813.491	0.0155725
813.569	0.0156519
813.647	0.0156427
813.725	0.0156331
813.803	0.0155032
813.881	0.0155104
813.959	0.0155212
814.038	0.0154061
814.116	0.0154777
814.194	0.0153303
814.272	0.0152869
814.350	0.0152765
814.428	0.0152812
814.506	0.0153096
814.584	0.0152259
814.663	0.0150654
814.741	0.0152264
814.819	0.0150631
814.897	0.0151521
814.975	0.0150937
815.053	0.0149399
815.131	0.0150609
815.209	0.0149633
815.288	0.0149046
815.366	0.0148513
815.444	0.0149545
815.522	0.0149577
815.600	0.0150153
815.678	0.0150018
815.756	0.0150278
815.834	0.0149840
815.913	0.0149507
815.991	0.0148949
816.069	0.0149664
816.147	0.0150208
816.225	0.0149845
816.303	0.0150119
816.381	0.0151761
816.459	0.0149654
816.538	0.0150997
816.616	0.0152332
816.694	0.0153854
816.772	0.0152062
816.850	0.0150953
816.928	0.0151373
817.006	0.0152397
817.084	0.0152310
817.163	0.0152750
817.241	0.0151724
817.319	0.0152187
817.397	0.0152187
817.475	0.0152323
817.553	0.0153099
817.631	0.0152325
817.709	0.0150630
817.788	0.0149577
817.866	0.0150817
817.944	0.0151188
818.022	0.0151646
818.100	0.0150452
818.178	0.0150963
818.256	0.0151617
818.334	0.0150351
818.413	0.0150549
818.491	0.0151153
818.569	0.0152092
818.647	0.0151965
818.725	0.0153387
818.803	0.0153475
818.881	0.0152836
818.959	0.0153230
819.038	0.0152667
819.116	0.0152935
819.194	0.0152792
819.272	0.0154144
819.350	0.0153863
819.428	0.0153696
819.506	0.0155293
819.584	0.0153372
819.663	0.0154400
819.741	0.0154576
819.819	0.0155279
819.897	0.0154243
819.975	0.0154383
820.053	0.0154809
820.131	0.0153438
820.209	0.0153265
820.288	0.0151788
820.366	0.0152706
820.444	0.0152885
820.522	0.0151272
820.600	0.0149682
820.678	0.0150981
820.756	0.0150131
820.834	0.0150285
820.913	0.0150878
820.991	0.0150493
821.069	0.0149366
821.147	0.0149744
821.225	0.0150201
821.303	0.0148914
821.381	0.0147787
821.459	0.0148921
821.538	0.0148219
821.616	0.0148486
821.694	0.0149519
821.772	0.0148441
821.850	0.0149594
821.928	0.0149139
822.006	0.0149384
822.084	0.0148631
822.163	0.0149609
822.241	0.0149398
822.319	0.0149913
822.397	0.0149736
822.475	0.0148686
822.553	0.0149436
822.631	0.0150188
822.709	0.0148954
822.788	0.0150175
822.866	0.0149972
822.944	0.0151079
823.022	0.0150985
823.100	0.0152254
823.178	0.0151176
823.256	0.0150544
823.334	0.0152014
823.413	0.0152802
823.491	0.0153270
823.569	0.0153699
823.647	0.0154311
823.725	0.0153519
823.803	0.0155008
823.881	0.0155226
823.959	0.0154704
824.038	0.0154578
824.116	0.0155390
824.194	0.0154972
824.272	0.0153950
824.350	0.0155103
824.428	0.0154502
824.506	0.0154659
824.584	0.0154913
824.663	0.0153783
824.741	0.0153311
824.819	0.0154601
824.897	0.0154610
824.975	0.0152873
825.053	0.0153400
825.131	0.0153886
825.209	0.0153271
825.288	0.0152779
825.366	0.0152026
825.444	0.0151875
825.522	0.0151589
825.600	0.0152123
825.678	0.0152253
825.756	0.0152486
825.834	0.0151820
825.913	0.0151902
825.991	0.0152374
826.069	0.0153545
826.147	0.0153278
826.225	0.0152165
826.303	0.0153014
826.381	0.0153207
826.459	0.0153027
826.538	0.0154127
826.616	0.0152265
826.694	0.0151994
826.772	0.0153523
826.850	0.0153265
826.928	0.0152232
827.006	0.0152713
827.084	0.0152713
827.163	0.0151605
827.241	0.0151301
827.319	0.0151659
827.397	0.0151104
827.475	0.0150516
827.553	0.0150037
827.631	0.0150871
827.709	0.0150333
827.788	0.0150145
827.866	0.0149929
827.944	0.0150340
828.022	0.0151116
828.100	0.0149014
828.178	0.0151640
828.256	0.0150645
828.334	0.0150178
828.413	0.0150698
828.491	0.0150955
828.569	0.0152111
828.647	0.0149172
828.725	0.0151759
828.803	0.0151334
828.881	0.0151837
828.959	0.0153371
829.038	0.0151990
829.116	0.0152331
829.194	0.0153165
829.272	0.0155237
829.350	0.0155700
829.428	0.0154169
829.506	0.0153705
829.584	0.0155657
829.663	0.0154712
829.741	0.0154591
829.819	0.0154784
829.897	0.0155200
829.975	0.0155878
830.053	0.0154438
830.131	0.0154795
830.209	0.0155131
830.288	0.0155209
830.366	0.0153702
830.444	0.0153159
830.522	0.0154237
830.600	0.0153764
830.678	0.0154585
830.756	0.0154246
830.834	0.0152662
830.913	0.0152725
830.991	0.0153141
831.069	0.0153410
831.147	0.0151938
831.225	0.0152139
831.303	0.0153405
831.381	0.0154053
831.459	0.0152695
831.538	0.0151631
831.616	0.0151692
831.694	0.0152688
831.772	0.0151366
831.850	0.0152221
831.928	0.0153003
832.006	0.0151250
832.084	0.0151020
832.163	0.0151897
832.241	0.0152103
832.319	0.0152384
832.397	0.0150797
832.475	0.0151579
832.553	0.0152381
832.631	0.0151939
832.709	0.0152320
832.788	0.0150494
832.866	0.0151337
832.944	0.0151247
833.022	0.0152306
833.100	0.0152239
833.178	0.0151162
833.256	0.0152376
833.334	0.0150058
833.413	0.0150430
833.491	0.0153349
833.569	0.0151416
833.647	0.0152679
833.725	0.0151620
833.803	0.0151113
833.881	0.0153202
833.959	0.0152300
834.038	0.0152964
834.116	0.0154446
834.194	0.0153876
834.272	0.0153536
834.350	0.0153313
834.428	0.0153143
834.506	0.0153728
834.584	0.0153972
834.663	0.0154424
834.741	0.0154153
834.819	0.0155634
834.897	0.0154808
834.975	0.0155491
835.053	0.0156850
835.131	0.0156438
835.209	0.0155779
835.288	0.0156313
835.366	0.0157224
835.444	0.0157253
835.522	0.0157095
835.600	0.0155320
835.678	0.0156613
835.756	0.0156171
835.834	0.0155704
835.913	0.0154692
835.991	0.0155936
836.069	0.0153872
836.147	0.0154812
836.225	0.0155102
836.303	0.0151794
836.381	0.0151387
836.459	0.0152298
836.538	0.0150803
836.616	0.0151789
836.694	0.0150730
836.772	0.0151423
836.850	0.0150877
836.928	0.0150910
837.006	0.0149798
837.084	0.0149055
837.163	0.0149399
837.241	0.0149500
837.319	0.0149637
837.397	0.0149513
837.475	0.0151055
837.553	0.0149807
837.631	0.0147436
837.709	0.0149857
837.788	0.0149835
837.866	0.0149493
837.944	0.0150524
838.022	0.0149208
838.100	0.0150009
838.178	0.0152081
838.256	0.0150506
838.334	0.0150378
838.413	0.0151823
838.491	0.0149899
838.569	0.0149934
838.647	0.0152212
838.725	0.0150894
838.803	0.0150632
838.881	0.0151668
838.959	0.0151739
839.038	0.0151938
839.116	0.0151335
839.194	0.0151823
839.272	0.0153436
839.350	0.0152498
839.428	0.0152309
839.506	0.0152048
839.584	0.0150873
839.663	0.0152912
839.741	0.0152653
839.819	0.0153249
839.897	0.0151443
839.975	0.0151562
840.053	0.0152300
840.131	0.0152248
840.209	0.0152020
840.288	0.0151771
840.366	0.0151820
840.444	0.0151745
840.522	0.0151426
840.600	0.0150997
840.678	0.0150240
840.756	0.0149797
840.834	0.0150784
840.913	0.0151002
840.991	0.0150206
841.069	0.0149668
841.147	0.0149429
841.225	0.0150117
841.303	0.0149982
841.381	0.0151075
841.459	0.0149953
841.538	0.0150527
841.616	0.0149931
841.694	0.0151163
841.772	0.0150948
841.850	0.0150254
841.928	0.0151422
842.006	0.0150384
842.084	0.0150224
842.163	0.0152461
842.241	0.0151902
842.319	0.0150275
842.397	0.0150436
842.475	0.0150593
842.553	0.0151208
842.631	0.0150481
842.709	0.0151085
842.788	0.0149965
842.866	0.0151245
842.944	0.0151608
843.022	0.0152062
843.100	0.0152271
843.178	0.0151301
843.256	0.0151530
843.334	0.0150347
843.413	0.0152163
843.491	0.0151193
843.569	0.0151713
843.647	0.0151947
843.725	0.0151910
843.803	0.0152425
843.881	0.0152555
843.959	0.0151720
844.038	0.0151894
844.116	0.0152306
844.194	0.0151013
844.272	0.0153541
844.350	0.0152455
844.428	0.0152182
844.506	0.0152535
844.584	0.0153015
844.663	0.0152364
844.741	0.0152309
844.819	0.0151608
844.897	0.0151321
844.975	0.0153122
845.053	0.0152148
845.131	0.0152849
845.209	0.0153247
845.288	0.0152617
845.366	0.0151794
845.444	0.0152441
845.522	0.0151669
845.600	0.0153270
845.678	0.0153027
845.756	0.0154293
845.834	0.0152452
845.913	0.0151373
845.991	0.0152313
846.069	0.0153755
846.147	0.0151978
846.225	0.0152850
846.303	0.0151843
846.381	0.0152052
846.459	0.0151605
846.538	0.0153275
846.616	0.0152347
846.694	0.0152040
846.772	0.0151430
846.850	0.0151440
846.928	0.0150997
847.006	0.0149979
847.084	0.0151431
847.163	0.0150977
847.241	0.0151157
847.319	0.0150444
847.397	0.0151910
847.475	0.0151706
847.553	0.0150549
847.631	0.0151740
847.709	0.0150852
847.788	0.0151749
847.866	0.0151069
847.944	0.0151550
848.022	0.0151409
848.100	0.0151431
848.178	0.0151841
848.256	0.0153418
848.334	0.0152090
848.413	0.0151954
848.491	0.0151859
848.569	0.0152186
848.647	0.0152567
848.725	0.0151625
848.803	0.0151254
848.881	0.0151527
848.959	0.0153390
849.038	0.0151344
849.116	0.0152544
849.194	0.0150839
849.272	0.0150910
849.350	0.0152529
849.428	0.0151642
849.506	0.0152089
849.584	0.0151160
849.663	0.0151794
849.741	0.0151704
849.819	0.0151614
849.897	0.0152151
849.975	0.0152090
850.053	0.0151143
850.131	0.0152100
850.209	0.0151115
850.288	0.0152241
850.366	0.0152834
850.444	0.0152827
850.522	0.0153808
850.600	0.0153046
850.678	0.0151915
850.756	0.0152265
850.834	0.0153882
850.913	0.0151875
850.991	0.0152657
851.069	0.0154410
851.147	0.0153744
851.225	0.0152635
851.303	0.0152863
851.381	0.0153078
851.459	0.0153290
851.538	0.0151836
851.616	0.0153474
851.694	0.0153247
851.772	0.0152843
851.850	0.0151398
851.928	0.0153499
852.006	0.0152621
852.084	0.0153251
852.163	0.0152536
852.241	0.0152360
852.319	0.0152173
852.397	0.0151463
852.475	0.0152840
852.553	0.0151539
852.631	0.0153091
852.709	0.0153480
852.788	0.0153153
852.866	0.0154398
852.944	0.0152974
853.022	0.0153969
853.100	0.0153824
853.178	0.0153902
853.256	0.0154783
853.334	0.0154357
853.413	0.0155135
853.491	0.0154211
853.569	0.0153689
853.647	0.0155998
853.725	0.0155251
853.803	0.0153854
853.881	0.0154815
853.959	0.0155379
854.038	0.0153707
854.116	0.0152847
854.194	0.0153138
854.272	0.0154354
854.350	0.0153223
854.428	0.0153790
854.506	0.0152821
854.584	0.0151601
854.663	0.0153429
854.741	0.0152873
854.819	0.0152896
854.897	0.0151771
854.975	0.0151357
855.053	0.0153294
855.131	0.0151708
855.209	0.0153063
855.288	0.0151482
855.366	0.0151685
855.444	0.0152029
855.522	0.0151175
855.600	0.0151604
855.678	0.0152967
855.756	0.0153007
855.834	0.0151350
855.913	0.0153022
855.991	0.0151633
856.069	0.0151755
856.147	0.0150236
856.225	0.0152139
856.303	0.0152064
856.381	0.0152023
856.459	0.0152151
856.538	0.0151912
856.616	0.0153269
856.694	0.0151592
856.772	0.0152866
856.850	0.0152321
856.928	0.0151723
857.006	0.0152476
857.084	0.0152255
857.163	0.0151801
857.241	0.0151485
857.319	0.0151827
857.397	0.0151824
857.475	0.0153172
857.553	0.0152706
857.631	0.0153052
857.709	0.0153066
857.788	0.0152585
857.866	0.0152372
857.944	0.0152505
858.022	0.0152714
858.100	0.0152031
858.178	0.0153338
858.256	0.0153622
858.334	0.0153291
858.413	0.0154930
858.491	0.0154327
858.569	0.0153214
858.647	0.0152140
858.725	0.0151584
858.803	0.0153329
858.881	0.0154195
858.959	0.0152568
859.038	0.0154607
859.116	0.0153438
859.194	0.0155171
859.272	0.0154345
859.350	0.0152646
859.428	0.0155015
859.506	0.0154182
859.584	0.0154751
859.663	0.0155244
859.741	0.0156232
859.819	0.0154503
859.897	0.0153639
859.975	0.0153272
860.053	0.0154807
860.131	0.0154369
860.209	0.0154425
860.288	0.0152125
860.366	0.0151761
860.444	0.0152785
860.522	0.0153379
860.600	0.0151888
860.678	0.0151348
860.756	0.0150868
860.834	0.0151379
860.913	0.0151857
860.991	0.0151949
861.069	0.0150901
861.147	0.0149921
861.225	0.0151196
861.303	0.0149420
861.381	0.0149715
861.459	0.0149523
861.538	0.0148622
861.616	0.0149722
861.694	0.0150034
861.772	0.0149171
861.850	0.0148936
861.928	0.0148235
862.006	0.0149473
862.084	0.0148876
862.163	0.0149661
862.241	0.0149797
862.319	0.0149261
862.397	0.0149112
862.475	0.0149477
862.553	0.0149550
862.631	0.0149181
862.709	0.0149973
862.788	0.0150027
862.866	0.0148631
862.944	0.0148269
863.022	0.0149780
863.100	0.0149979
863.178	0.0150343
863.256	0.0150394
863.334	0.0149725
863.413	0.0150308
863.491	0.0150433
863.569	0.0150307
863.647	0.0149935
863.725	0.0150478
863.803	0.0150578
863.881	0.0150521
863.959	0.0150544
864.038	0.0149671
864.116	0.0151292
864.194	0.0151461
864.272	0.0151802
864.350	0.0149557
864.428	0.0150857
864.506	0.0152206
864.584	0.0151167
864.663	0.0150812
864.741	0.0151017
864.819	0.0151935
864.897	0.0151643
864.975	0.0151811
865.053	0.0151382
865.131	0.0151345
865.209	0.0152307
865.288	0.0150621
865.366	0.0152055
865.444	0.0151944
865.522	0.0150365
865.600	0.0151160
865.678	0.0150642
865.756	0.0150339
865.834	0.0152877
865.913	0.0152717
865.991	0.0152064
866.069	0.0150710
866.147	0.0150377
866.225	0.0151956
866.303	0.0150126
866.381	0.0148806
866.459	0.0149886
866.538	0.0150010
866.616	0.0148691
866.694	0.0150494
866.772	0.0150244
866.850	0.0149858
866.928	0.0150072
867.006	0.0149652
867.084	0.0150349
867.163	0.0149228
867.241	0.0150839
867.319	0.0152946
867.397	0.0151881
867.475	0.0149999
867.553	0.0151523
867.631	0.0150455
867.709	0.0149310
867.788	0.0150969
867.866	0.0151421
867.944	0.0150519
868.022	0.0150876
868.100	0.0151209
868.178	0.0152108
868.256	0.0151092
868.334	0.0151650
868.413	0.0151781
868.491	0.0152888
868.569	0.0151933
868.647	0.0151950
868.725	0.0151357
868.803	0.0152235
868.881	0.0153838
868.959	0.0153670
869.038	0.0152392
869.116	0.0153083
869.194	0.0153190
869.272	0.0152129
869.350	0.0152767
869.428	0.0152631
869.506	0.0151468
869.584	0.0151877
869.663	0.0153036
869.741	0.0152568
869.819	0.0151937
869.897	0.0152879
869.975	0.0151958
870.053	0.0152512
870.131	0.0150537
870.209	0.0153661
870.288	0.0152182
870.366	0.0151344
870.444	0.0152020
870.522	0.0152068
870.600	0.0150684
870.678	0.0152263
870.756	0.0152246
870.834	0.0150643
870.913	0.0151331
870.991	0.0151618
871.069	0.0152567
871.147	0.0150266
871.225	0.0151868
871.303	0.0151212
871.381	0.0150723
871.459	0.0151439
871.538	0.0149734
871.616	0.0150153
871.694	0.0149683
871.772	0.0151183
871.850	0.0149551
871.928	0.0149792
872.006	0.0149786
872.084	0.0149339
872.163	0.0149898
872.241	0.0148312
872.319	0.0149400
872.397	0.0149494
872.475	0.0149998
872.553	0.0151620
872.631	0.0149629
872.709	0.0150836
872.788	0.0150539
872.866	0.0150532
872.944	0.0151517
873.022	0.0152431
873.100	0.0152762
873.178	0.0152486
873.256	0.0152911
873.334	0.0153437
873.413	0.0152689
873.491	0.0152000
873.569	0.0152224
873.647	0.0153033
873.725	0.0153230
873.803	0.0153448
873.881	0.0152829
873.959	0.0153435
874.038	0.0151852
874.116	0.0152555
874.194	0.0151822
874.272	0.0152449
874.350	0.0153036
874.428	0.0153921
874.506	0.0155093
874.584	0.0153475
874.663	0.0152966
874.741	0.0152552
874.819	0.0152664
874.897	0.0152699
874.975	0.0153591
875.053	0.0153864
875.131	0.0154132
875.209	0.0153899
875.288	0.0153792
875.366	0.0152578
875.444	0.0153246
875.522	0.0153134
875.600	0.0153172
875.678	0.0152247
875.756	0.0152876
875.834	0.0153719
875.913	0.0152374
875.991	0.0152410
876.069	0.0152644
876.147	0.0152085
876.225	0.0152700
876.303	0.0152200
876.381	0.0151042
876.459	0.0151472
876.538	0.0150836
876.616	0.0151176
876.694	0.0151024
876.772	0.0151439
876.850	0.0152026
876.928	0.0149872
877.006	0.0150989
877.084	0.0150859
877.163	0.0151062
877.241	0.0152581
877.319	0.0152328
877.397	0.0152152
877.475	0.0151544
877.553	0.0151378
877.631	0.0151828
877.709	0.0151992
877.788	0.0151092
877.866	0.0152258
877.944	0.0151513
878.022	0.0152113
878.100	0.0152188
878.178	0.0152334
878.256	0.0151763
878.334	0.0150591
878.413	0.0152023
878.491	0.0152174
878.569	0.0151929
878.647	0.0151569
878.725	0.0151537
878.803	0.0152495
878.881	0.0152431
878.959	0.0150680
879.038	0.0151204
879.116	0.0150995
879.194	0.0151153
879.272	0.0151547
879.350	0.0152481
879.428	0.0152704
879.506	0.0152548
879.584	0.0152956
879.663	0.0152052
879.741	0.0152430
879.819	0.0151306
879.897	0.0152720
879.975	0.0153181
880.053	0.0152305
880.131	0.0153644
880.209	0.0153027
880.288	0.0153193
880.366	0.0152685
880.444	0.0153105
880.522	0.0154449
880.600	0.0153922
880.678	0.0152507
880.756	0.0153871
880.834	0.0152856
880.913	0.0154612
880.991	0.0152580
881.069	0.0153958
881.147	0.0153069
881.225	0.0152898
881.303	0.0152575
881.381	0.0151263
881.459	0.0152130
881.538	0.0152072
881.616	0.0151899
881.694	0.0152084
881.772	0.0150552
881.850	0.0151874
881.928	0.0151060
882.006	0.0152111
882.084	0.0151075
882.163	0.0151424
882.241	0.0151226
882.319	0.0151723
882.397	0.0150972
882.475	0.0153236
882.553	0.0150217
882.631	0.0150982
882.709	0.0151067
882.788	0.0151504
882.866	0.0150151
882.944	0.0150838
883.022	0.0150826
883.100	0.0150845
883.178	0.0152033
883.256	0.0150275
883.334	0.0151359
883.413	0.0151520
883.491	0.0151487
883.569	0.0151271
883.647	0.0152089
883.725	0.0152235
883.803	0.0153313
883.881	0.0152785
883.959	0.0153497
884.038	0.0152853
884.116	0.0151783
884.194	0.0153083
884.272	0.0152827
884.350	0.0152074
884.428	0.0153551
884.506	0.0152539
884.584	0.0153202
884.663	0.0152955
884.741	0.0152422
884.819	0.0153555
884.897	0.0152046
884.975	0.0151357
885.053	0.0152750
885.131	0.0152525
885.209	0.0151646
885.288	0.0151679
885.366	0.0151130
885.444	0.0152634
885.522	0.0151712
885.600	0.0152563
885.678	0.0150416
885.756	0.0150584
885.834	0.0152157
885.913	0.0152671
885.991	0.0151905
886.069	0.0150441
886.147	0.0150834
886.225	0.0152374
886.303	0.0152246
886.381	0.0150051
886.459	0.0151237
886.538	0.0150524
886.616	0.0152847
886.694	0.0151011
886.772	0.0151910
886.850	0.0150842
886.928	0.0152345
887.006	0.0152173
887.084	0.0150274
887.163	0.0150698
887.241	0.0150642
887.319	0.0151476
887.397	0.0152010
887.475	0.0151097
887.553	0.0151274
887.631	0.0150978
887.709	0.0151554
887.788	0.0150835
887.866	0.0150789
887.944	0.0150301
888.022	0.0151387
888.100	0.0151447
888.178	0.0151520
888.256	0.0152068
888.334	0.0150659
888.413	0.0151548
888.491	0.0150990
888.569	0.0151743
888.647	0.0152014
888.725	0.0151792
888.803	0.0153652
888.881	0.0152261
888.959	0.0152284
889.038	0.0152335
889.116	0.0153352
889.194	0.0152385
889.272	0.0150249
889.350	0.0151104
889.428	0.0151127
889.506	0.0149912
889.584	0.0151684
889.663	0.0151057
889.741	0.0150539
889.819	0.0149982
889.897	0.0150627
889.975	0.0151298
890.053	0.0150938
890.131	0.0151284
890.209	0.0150213
890.288	0.0150341
890.366	0.0150993
890.444	0.0149322
890.522	0.0150144
890.600	0.0151934
890.678	0.0151852
890.756	0.0151646
890.834	0.0151248
890.913	0.0152038
890.991	0.0154894
891.069	0.0151893
891.147	0.0151631
891.225	0.0154543
891.303	0.0153905
891.381	0.0155160
891.459	0.0153874
891.538	0.0153791
891.616	0.0153397
891.694	0.0152795
891.772	0.0153756
891.850	0.0153259
891.928	0.0153204
892.006	0.0153613
892.084	0.0153252
892.163	0.0152770
892.241	0.0152171
892.319	0.0152237
892.397	0.0151691
892.475	0.0151149
892.553	0.0152960
892.631	0.0151502
892.709	0.0151413
892.788	0.0150733
892.866	0.0150652
892.944	0.0150528
893.022	0.0150795
893.100	0.0151203
893.178	0.0150954
893.256	0.0151566
893.334	0.0151434
893.413	0.0151058
893.491	0.0152184
893.569	0.0151868
893.647	0.0152323
893.725	0.0151890
893.803	0.0151558
893.881	0.0152803
893.959	0.0152720
894.038	0.0152976
894.116	0.0153061
894.194	0.0153051
894.272	0.0153413
894.350	0.0153083
894.428	0.0152935
894.506	0.0153191
894.584	0.0153122
894.663	0.0152766
894.741	0.0154455
894.819	0.0152767
894.897	0.0153542
894.975	0.0154127
895.053	0.0151881
895.131	0.0150652
895.209	0.0152148
895.288	0.0153403
895.366	0.0152164
895.444	0.0151487
895.522	0.0151507
895.600	0.0152772
895.678	0.0151115
895.756	0.0151865
895.834	0.0151903
895.913	0.0150966
895.991	0.0151250
896.069	0.0152015
896.147	0.0153002
896.225	0.0152776
896.303	0.0152045
896.381	0.0151264
896.459	0.0151547
896.538	0.0151414
896.616	0.0151575
896.694	0.0151460
896.772	0.0149940
896.850	0.0150889
896.928	0.0151373
897.006	0.0150471
897.084	0.0149396
897.163	0.0150248
897.241	0.0150330
897.319	0.0148602
897.397	0.0150617
897.475	0.0151359
897.553	0.0150745
897.631	0.0151250
897.709	0.0150050
897.788	0.0150914
897.866	0.0150967
897.944	0.0150909
898.022	0.0151329
898.100	0.0153415
898.178	0.0153442
898.256	0.0153601
898.334	0.0151399
898.413	0.0152974
898.491	0.0153948
898.569	0.0153242
898.647	0.0152871
898.725	0.0151743
898.803	0.0154307
898.881	0.0153899
898.959	0.0152730
899.038	0.0152592
899.116	0.0152027
899.194	0.0152048
899.272	0.0152392
899.350	0.0151093
899.428	0.0152487
899.506	0.0151890
899.584	0.0152685
899.663	0.0150848
899.741	0.0150887
899.819	0.0151395
899.897	0.0151409
899.975	0.0150744
900.053	0.0150136
900.131	0.0150185
900.209	0.0151160
900.288	0.0149843
900.366	0.0150733
900.444	0.0150790
900.522	0.0151535
900.600	0.0150452
900.678	0.0150308
900.756	0.0150825
900.834	0.0150301
900.913	0.0150922
900.991	0.0150421
901.069	0.0149966
901.147	0.0150639
901.225	0.0151357
901.303	0.0150506
901.381	0.0151196
901.459	0.0152563
901.538	0.0151521
901.616	0.0150424
901.694	0.0151009
901.772	0.0151411
901.850	0.0151553
901.928	0.0151349
902.006	0.0150797
902.084	0.0151393
902.163	0.0151080
902.241	0.0150254
902.319	0.0150112
902.397	0.0150317
902.475	0.0151410
902.553	0.0151678
902.631	0.0150623
902.709	0.0150790
902.788	0.0150678
902.866	0.0152019
902.944	0.0151398
903.022	0.0151109
903.100	0.0152101
903.178	0.0151988
903.256	0.0151614
903.334	0.0152219
903.413	0.0153677
903.491	0.0151949
903.569	0.0152310
903.647	0.0153008
903.725	0.0151508
903.803	0.0151955
903.881	0.0152946
903.959	0.0152939
904.038	0.0152074
904.116	0.0152538
904.194	0.0152908
904.272	0.0154825
904.350	0.0154592
904.428	0.0152789
904.506	0.0153861
904.584	0.0153063
904.663	0.0153723
904.741	0.0153701
904.819	0.0154627
904.897	0.0153594
904.975	0.0154365
905.053	0.0155268
905.131	0.0153553
905.209	0.0153532
905.288	0.0154549
905.366	0.0154615
905.444	0.0153706
905.522	0.0152998
905.600	0.0153008
905.678	0.0153612
905.756	0.0153860
905.834	0.0153833
905.913	0.0152580
905.991	0.0153449
906.069	0.0153415
906.147	0.0154156
906.225	0.0153986
906.303	0.0153374
906.381	0.0152699
906.459	0.0151583
906.538	0.0153044
906.616	0.0152744
906.694	0.0152122
906.772	0.0153374
906.850	0.0152828
906.928	0.0151906
907.006	0.0152704
907.084	0.0152372
907.163	0.0152106
907.241	0.0151395
907.319	0.0151923
907.397	0.0153235
907.475	0.0153461
907.553	0.0151503
907.631	0.0150530
907.709	0.0151172
907.788	0.0151108
907.866	0.0151801
907.944	0.0152105
908.022	0.0151224
908.100	0.0150945
908.178	0.0151363
908.256	0.0150421
908.334	0.0150811
908.413	0.0150626
908.491	0.0150494
908.569	0.0151614
908.647	0.0150675
908.725	0.0151400
908.803	0.0152307
908.881	0.0151598
908.959	0.0151443
909.038	0.0150974
909.116	0.0151256
909.194	0.0152996
909.272	0.0153061
909.350	0.0153033
909.428	0.0152938
909.506	0.0153311
909.584	0.0152322
909.663	0.0152221
909.741	0.0152609
909.819	0.0152592
909.897	0.0153603
909.975	0.0152186
910.053	0.0152902
910.131	0.0152334
910.209	0.0153899
910.288	0.0153464
910.366	0.0152117
910.444	0.0151880
910.522	0.0152612
910.600	0.0152699
910.678	0.0152703
910.756	0.0152272
910.834	0.0151357
910.913	0.0153476
910.991	0.0150185
911.069	0.0151234
911.147	0.0153141
911.225	0.0151241
911.303	0.0151186
911.381	0.0153041
911.459	0.0153033
911.538	0.0151847
911.616	0.0152462
911.694	0.0152620
911.772	0.0151517
911.850	0.0152242
911.928	0.0153497
912.006	0.0152319
912.084	0.0152055
912.163	0.0154250
912.241	0.0154008
912.319	0.0154025
912.397	0.0153577
912.475	0.0152698
912.553	0.0153390
912.631	0.0152936
912.709	0.0153045
912.788	0.0152601
912.866	0.0151660
912.944	0.0152477
913.022	0.0151302
913.100	0.0152859
913.178	0.0150480
913.256	0.0151469
913.334	0.0152110
913.413	0.0149874
913.491	0.0151721
913.569	0.0151717
913.647	0.0151479
913.725	0.0151444
913.803	0.0150779
913.881	0.0150341
913.959	0.0150542
914.038	0.0151328
914.116	0.0151398
914.194	0.0150234
914.272	0.0152114
914.350	0.0150732
914.428	0.0152821
914.506	0.0151724
914.584	0.0152565
914.663	0.0152921
914.741	0.0152589
914.819	0.0151658
914.897	0.0152173
914.975	0.0153136
915.053	0.0151768
915.131	0.0152301
915.209	0.0152806
915.288	0.0152337
915.366	0.0152702
915.444	0.0151215
915.522	0.0151187
915.600	0.0152024
915.678	0.0151704
915.756	0.0152216
915.834	0.0150826
915.913	0.0151043
915.991	0.0151640
916.069	0.0151550
916.147	0.0151258
916.225	0.0151298
916.303	0.0151177
916.381	0.0151095
916.459	0.0150362
916.538	0.0152673
916.616	0.0152735
916.694	0.0152123
916.772	0.0153720
916.850	0.0152947
916.928	0.0152470
917.006	0.0152022
917.084	0.0152311
917.163	0.0153795
917.241	0.0152682
917.319	0.0153558
917.397	0.0152734
917.475	0.0151913
917.553	0.0152285
917.631	0.0153989
917.709	0.0153265
917.788	0.0152945
917.866	0.0154097
917.944	0.0153719
918.022	0.0153184
918.100	0.0153008
918.178	0.0152921
918.256	0.0153654
918.334	0.0153437
918.413	0.0153923
918.491	0.0153765
918.569	0.0153338
918.647	0.0153358
918.725	0.0152614
918.803	0.0152351
918.881	0.0152214
918.959	0.0152845
919.038	0.0152654
919.116	0.0151972
919.194	0.0152627
919.272	0.0152209
919.350	0.0151587
919.428	0.0152714
919.506	0.0152643
919.584	0.0151049
919.663	0.0151566
919.741	0.0152017
919.819	0.0149986
919.897	0.0149964
