05/20/2022	21:22:24	Ver.	4.1	UNKNOWN
Optical Delay	599.975067	Delta X		0.078125	Sweeps	1	Scan Rate	0/0
Coordinates	Axis 1	NaN	Axis 2	NaN	Axis 3	NaN	Axis 4	NaN	Axis 5	NaN	Axis 6	0.000000
TX Power	0.000000	RX Power	0.000000

599.975	0.0152349
600.053	0.0152878
600.131	0.0151219
600.209	0.0151946
600.288	0.0153105
600.366	0.0152448
600.444	0.0151699
600.522	0.0151807
600.600	0.0153072
600.678	0.0152625
600.756	0.0151893
600.834	0.0152412
600.913	0.0153159
600.991	0.0152253
601.069	0.0153327
601.147	0.0152970
601.225	0.0151560
601.303	0.0152635
601.381	0.0153372
601.459	0.0153024
601.538	0.0152646
601.616	0.0152796
601.694	0.0151897
601.772	0.0152252
601.850	0.0152136
601.928	0.0153086
602.006	0.0152602
602.084	0.0151870
602.163	0.0150946
602.241	0.0151640
602.319	0.0152872
602.397	0.0151205
602.475	0.0151938
602.553	0.0152439
602.631	0.0152322
602.709	0.0152001
602.788	0.0151958
602.866	0.0151612
602.944	0.0151851
603.022	0.0152805
603.100	0.0151734
603.178	0.0150527
603.256	0.0151779
603.334	0.0150821
603.413	0.0151257
603.491	0.0151122
603.569	0.0152189
603.647	0.0150370
603.725	0.0152125
603.803	0.0152279
603.881	0.0151861
603.959	0.0150917
604.038	0.0149532
604.116	0.0151350
604.194	0.0152030
604.272	0.0151189
604.350	0.0150813
604.428	0.0151758
604.506	0.0151392
604.584	0.0151208
604.663	0.0150939
604.741	0.0150352
604.819	0.0151382
604.897	0.0151772
604.975	0.0150246
605.053	0.0151510
605.131	0.0151714
605.209	0.0151132
605.288	0.0150850
605.366	0.0150683
605.444	0.0151351
605.522	0.0150497
605.600	0.0152481
605.678	0.0151103
605.756	0.0150607
605.834	0.0152120
605.913	0.0151034
605.991	0.0151501
606.069	0.0150586
606.147	0.0152187
606.225	0.0151890
606.303	0.0152766
606.381	0.0151792
606.459	0.0151472
606.538	0.0152792
606.616	0.0152592
606.694	0.0153112
606.772	0.0151802
606.850	0.0152358
606.928	0.0150141
607.006	0.0151679
607.084	0.0153306
607.163	0.0152120
607.241	0.0150877
607.319	0.0151218
607.397	0.0151928
607.475	0.0152715
607.553	0.0152518
607.631	0.0150722
607.709	0.0151180
607.788	0.0151818
607.866	0.0150953
607.944	0.0150466
608.022	0.0150805
608.100	0.0151369
608.178	0.0150667
608.256	0.0150891
608.334	0.0152292
608.413	0.0150356
608.491	0.0151299
608.569	0.0151044
608.647	0.0150613
608.725	0.0151048
608.803	0.0150825
608.881	0.0149877
608.959	0.0149995
609.038	0.0151848
609.116	0.0150863
609.194	0.0151745
609.272	0.0151369
609.350	0.0149834
609.428	0.0150027
609.506	0.0149736
609.584	0.0148995
609.663	0.0149098
609.741	0.0149699
609.819	0.0150716
609.897	0.0149236
609.975	0.0149591
610.053	0.0149375
610.131	0.0150115
610.209	0.0151134
610.288	0.0149275
610.366	0.0147203
610.444	0.0149178
610.522	0.0149512
610.600	0.0149723
610.678	0.0150570
610.756	0.0148952
610.834	0.0149256
610.913	0.0149352
610.991	0.0149755
611.069	0.0149516
611.147	0.0148609
611.225	0.0148405
611.303	0.0149604
611.381	0.0149037
611.459	0.0148611
611.538	0.0148954
611.616	0.0148198
611.694	0.0149153
611.772	0.0149933
611.850	0.0149519
611.928	0.0149821
612.006	0.0148834
612.084	0.0149477
612.163	0.0149229
612.241	0.0149248
612.319	0.0149905
612.397	0.0149368
612.475	0.0150329
612.553	0.0150150
612.631	0.0148534
612.709	0.0150937
612.788	0.0152009
612.866	0.0149960
612.944	0.0150069
613.022	0.0150520
613.100	0.0150042
613.178	0.0149847
613.256	0.0150525
613.334	0.0150664
613.413	0.0150922
613.491	0.0149912
613.569	0.0150720
613.647	0.0151028
613.725	0.0152231
613.803	0.0151572
613.881	0.0150346
613.959	0.0150452
614.038	0.0152064
614.116	0.0150700
614.194	0.0151863
614.272	0.0153434
614.350	0.0151796
614.428	0.0150711
614.506	0.0152360
614.584	0.0151753
614.663	0.0151456
614.741	0.0151807
614.819	0.0151634
614.897	0.0151622
614.975	0.0152147
615.053	0.0151289
615.131	0.0152066
615.209	0.0151241
615.288	0.0152029
615.366	0.0150961
615.444	0.0150461
615.522	0.0152412
615.600	0.0152649
615.678	0.0151214
615.756	0.0152274
615.834	0.0152396
615.913	0.0151397
615.991	0.0151504
616.069	0.0150452
616.147	0.0152098
616.225	0.0151471
616.303	0.0151038
616.381	0.0153077
616.459	0.0151522
616.538	0.0153163
616.616	0.0152786
616.694	0.0150632
616.772	0.0151212
616.850	0.0151855
616.928	0.0152248
617.006	0.0151965
617.084	0.0153139
617.163	0.0151920
617.241	0.0151401
617.319	0.0151379
617.397	0.0150618
617.475	0.0152004
617.553	0.0151727
617.631	0.0152796
617.709	0.0153059
617.788	0.0150631
617.866	0.0151927
617.944	0.0152081
618.022	0.0151733
618.100	0.0151913
618.178	0.0151455
618.256	0.0151687
618.334	0.0151878
618.413	0.0151830
618.491	0.0150896
618.569	0.0152557
618.647	0.0150092
618.725	0.0151446
618.803	0.0151810
618.881	0.0151136
618.959	0.0151993
619.038	0.0151143
619.116	0.0150867
619.194	0.0152145
619.272	0.0151191
619.350	0.0150002
619.428	0.0151855
619.506	0.0151964
619.584	0.0150852
619.663	0.0149698
619.741	0.0150980
619.819	0.0150214
619.897	0.0151359
619.975	0.0151669
620.053	0.0150159
620.131	0.0149963
620.209	0.0150095
620.288	0.0151180
620.366	0.0150780
620.444	0.0151402
620.522	0.0151601
620.600	0.0150819
620.678	0.0152048
620.756	0.0150528
620.834	0.0150117
620.913	0.0151441
620.991	0.0152065
621.069	0.0151033
621.147	0.0150066
621.225	0.0149817
621.303	0.0150724
621.381	0.0150761
621.459	0.0151212
621.538	0.0151597
621.616	0.0150717
621.694	0.0150082
621.772	0.0149570
621.850	0.0151717
621.928	0.0152673
622.006	0.0150431
622.084	0.0150372
622.163	0.0150349
622.241	0.0150843
622.319	0.0150622
622.397	0.0151226
622.475	0.0151774
622.553	0.0151656
622.631	0.0150747
622.709	0.0150853
622.788	0.0152966
622.866	0.0151713
622.944	0.0151278
623.022	0.0151404
623.100	0.0151459
623.178	0.0151492
623.256	0.0151889
623.334	0.0151532
623.413	0.0151308
623.491	0.0152313
623.569	0.0152429
623.647	0.0151421
623.725	0.0151216
623.803	0.0150513
623.881	0.0151404
623.959	0.0152265
624.038	0.0152503
624.116	0.0152175
624.194	0.0152984
624.272	0.0152789
624.350	0.0152344
624.428	0.0152896
624.506	0.0151779
624.584	0.0153691
624.663	0.0152116
624.741	0.0152599
624.819	0.0152267
624.897	0.0152534
624.975	0.0152908
625.053	0.0150787
625.131	0.0152067
625.209	0.0152555
625.288	0.0152467
625.366	0.0152782
625.444	0.0152944
625.522	0.0152303
625.600	0.0152188
625.678	0.0151220
625.756	0.0152186
625.834	0.0153471
625.913	0.0153017
625.991	0.0153831
626.069	0.0152131
626.147	0.0153089
626.225	0.0152319
626.303	0.0152595
626.381	0.0152600
626.459	0.0152442
626.538	0.0153109
626.616	0.0153237
626.694	0.0152266
626.772	0.0153137
626.850	0.0155112
626.928	0.0153486
627.006	0.0152377
627.084	0.0155048
627.163	0.0154265
627.241	0.0153969
627.319	0.0153922
627.397	0.0154920
627.475	0.0153908
627.553	0.0154839
627.631	0.0154810
627.709	0.0154144
627.788	0.0154785
627.866	0.0153005
627.944	0.0155158
628.022	0.0153160
628.100	0.0154918
628.178	0.0154588
628.256	0.0152396
628.334	0.0154107
628.413	0.0155167
628.491	0.0153560
628.569	0.0153348
628.647	0.0155414
628.725	0.0156553
628.803	0.0154162
628.881	0.0154479
628.959	0.0152576
629.038	0.0154256
629.116	0.0154795
629.194	0.0153276
629.272	0.0155801
629.350	0.0153844
629.428	0.0154649
629.506	0.0153897
629.584	0.0153168
629.663	0.0153318
629.741	0.0152464
629.819	0.0153426
629.897	0.0153185
629.975	0.0154041
630.053	0.0154116
630.131	0.0153885
630.209	0.0153898
630.288	0.0153204
630.366	0.0152672
630.444	0.0153165
630.522	0.0153371
630.600	0.0153926
630.678	0.0152561
630.756	0.0152088
630.834	0.0153903
630.913	0.0152075
630.991	0.0152435
631.069	0.0151849
631.147	0.0152829
631.225	0.0152461
631.303	0.0150846
631.381	0.0151988
631.459	0.0153255
631.538	0.0153313
631.616	0.0152762
631.694	0.0152980
631.772	0.0151752
631.850	0.0152403
631.928	0.0150966
632.006	0.0151892
632.084	0.0152500
632.163	0.0152692
632.241	0.0151626
632.319	0.0152805
632.397	0.0150636
632.475	0.0150667
632.553	0.0151610
632.631	0.0150884
632.709	0.0151676
632.788	0.0152652
632.866	0.0150878
632.944	0.0150836
633.022	0.0151641
633.100	0.0150043
633.178	0.0150867
633.256	0.0152090
633.334	0.0151836
633.413	0.0150548
633.491	0.0150541
633.569	0.0150979
633.647	0.0150695
633.725	0.0151797
633.803	0.0150935
633.881	0.0151201
633.959	0.0152560
634.038	0.0150413
634.116	0.0151646
634.194	0.0150475
634.272	0.0151699
634.350	0.0151054
634.428	0.0151550
634.506	0.0152192
634.584	0.0152550
634.663	0.0151688
634.741	0.0152301
634.819	0.0150878
634.897	0.0151994
634.975	0.0152636
635.053	0.0153296
635.131	0.0151770
635.209	0.0152000
635.288	0.0152625
635.366	0.0151199
635.444	0.0150261
635.522	0.0152129
635.600	0.0152049
635.678	0.0154028
635.756	0.0153056
635.834	0.0151295
635.913	0.0151652
635.991	0.0151453
636.069	0.0151449
636.147	0.0151744
636.225	0.0152596
636.303	0.0151880
636.381	0.0151622
636.459	0.0151051
636.538	0.0152505
636.616	0.0152284
636.694	0.0152895
636.772	0.0152768
636.850	0.0151878
636.928	0.0151820
637.006	0.0152279
637.084	0.0152007
637.163	0.0151968
637.241	0.0152309
637.319	0.0152722
637.397	0.0152165
637.475	0.0151791
637.553	0.0151936
637.631	0.0152531
637.709	0.0152347
637.788	0.0151886
637.866	0.0152023
637.944	0.0152772
638.022	0.0151377
638.100	0.0152553
638.178	0.0151387
638.256	0.0151202
638.334	0.0152429
638.413	0.0151755
638.491	0.0152985
638.569	0.0152618
638.647	0.0151414
638.725	0.0151344
638.803	0.0150928
638.881	0.0150898
638.959	0.0152602
639.038	0.0149483
639.116	0.0151115
639.194	0.0151844
639.272	0.0150432
639.350	0.0150519
639.428	0.0150422
639.506	0.0152445
639.584	0.0151185
639.663	0.0150621
639.741	0.0150101
639.819	0.0150861
639.897	0.0151121
639.975	0.0149595
640.053	0.0150276
640.131	0.0150107
640.209	0.0150245
640.288	0.0150422
640.366	0.0150224
640.444	0.0149459
640.522	0.0151191
640.600	0.0148795
640.678	0.0147517
640.756	0.0150653
640.834	0.0151680
640.913	0.0150329
640.991	0.0149978
641.069	0.0150452
641.147	0.0149519
641.225	0.0150458
641.303	0.0150957
641.381	0.0149836
641.459	0.0150134
641.538	0.0149692
641.616	0.0150047
641.694	0.0150875
641.772	0.0151144
641.850	0.0149465
641.928	0.0150370
642.006	0.0148129
642.084	0.0150067
642.163	0.0150488
642.241	0.0149824
642.319	0.0149609
642.397	0.0150567
642.475	0.0149867
642.553	0.0149849
642.631	0.0150481
642.709	0.0150803
642.788	0.0150348
642.866	0.0151350
642.944	0.0149478
643.022	0.0149888
643.100	0.0150234
643.178	0.0149847
643.256	0.0150119
643.334	0.0148705
643.413	0.0149838
643.491	0.0150334
643.569	0.0150893
643.647	0.0151368
643.725	0.0150380
643.803	0.0149434
643.881	0.0149860
643.959	0.0150981
644.038	0.0150966
644.116	0.0150047
644.194	0.0148923
644.272	0.0151902
644.350	0.0150133
644.428	0.0149854
644.506	0.0150182
644.584	0.0149938
644.663	0.0150672
644.741	0.0150967
644.819	0.0149034
644.897	0.0152388
644.975	0.0151879
645.053	0.0149950
645.131	0.0150139
645.209	0.0149585
645.288	0.0151550
645.366	0.0150912
645.444	0.0150829
645.522	0.0151191
645.600	0.0150659
645.678	0.0151493
645.756	0.0150307
645.834	0.0150858
645.913	0.0151260
645.991	0.0151621
646.069	0.0152003
646.147	0.0151151
646.225	0.0151202
646.303	0.0152422
646.381	0.0153127
646.459	0.0151366
646.538	0.0152092
646.616	0.0152079
646.694	0.0151924
646.772	0.0153678
646.850	0.0153047
646.928	0.0152084
647.006	0.0152482
647.084	0.0152813
647.163	0.0152966
647.241	0.0153699
647.319	0.0153625
647.397	0.0152171
647.475	0.0154204
647.553	0.0151182
647.631	0.0152023
647.709	0.0154211
647.788	0.0153050
647.866	0.0152387
647.944	0.0152436
648.022	0.0154146
648.100	0.0152029
648.178	0.0152432
648.256	0.0152840
648.334	0.0153476
648.413	0.0151819
648.491	0.0152052
648.569	0.0152634
648.647	0.0153159
648.725	0.0152122
648.803	0.0153123
648.881	0.0151729
648.959	0.0152229
649.038	0.0152034
649.116	0.0152020
649.194	0.0152255
649.272	0.0153187
649.350	0.0153012
649.428	0.0153315
649.506	0.0152342
649.584	0.0151279
649.663	0.0152430
649.741	0.0153482
649.819	0.0153150
649.897	0.0151765
649.975	0.0151486
650.053	0.0152203
650.131	0.0152175
650.209	0.0152862
650.288	0.0152447
650.366	0.0151955
650.444	0.0151839
650.522	0.0153065
650.600	0.0153696
650.678	0.0151894
650.756	0.0152178
650.834	0.0150771
650.913	0.0151714
650.991	0.0152182
651.069	0.0151980
651.147	0.0152595
651.225	0.0152515
651.303	0.0151754
651.381	0.0152550
651.459	0.0152013
651.538	0.0152329
651.616	0.0152371
651.694	0.0151801
651.772	0.0152569
651.850	0.0154223
651.928	0.0153003
652.006	0.0152203
652.084	0.0152382
652.163	0.0151846
652.241	0.0153473
652.319	0.0152005
652.397	0.0152503
652.475	0.0151453
652.553	0.0153107
652.631	0.0151781
652.709	0.0150647
652.788	0.0152535
652.866	0.0152236
652.944	0.0150297
653.022	0.0150889
653.100	0.0154680
653.178	0.0153071
653.256	0.0152779
653.334	0.0150990
653.413	0.0152668
653.491	0.0152052
653.569	0.0152609
653.647	0.0152328
653.725	0.0152628
653.803	0.0151682
653.881	0.0152220
653.959	0.0153590
654.038	0.0151935
654.116	0.0152815
654.194	0.0153185
654.272	0.0151942
654.350	0.0152268
654.428	0.0151385
654.506	0.0151863
654.584	0.0151683
654.663	0.0151859
654.741	0.0151918
654.819	0.0151240
654.897	0.0152255
654.975	0.0153603
655.053	0.0152417
655.131	0.0151025
655.209	0.0151706
655.288	0.0153718
655.366	0.0153046
655.444	0.0153843
655.522	0.0152301
655.600	0.0153250
655.678	0.0153433
655.756	0.0153721
655.834	0.0153981
655.913	0.0154411
655.991	0.0154742
656.069	0.0151425
656.147	0.0153117
656.225	0.0153747
656.303	0.0153922
656.381	0.0154037
656.459	0.0153659
656.538	0.0152798
656.616	0.0152511
656.694	0.0152301
656.772	0.0153462
656.850	0.0153639
656.928	0.0153596
657.006	0.0152295
657.084	0.0153500
657.163	0.0153563
657.241	0.0152956
657.319	0.0153497
657.397	0.0152283
657.475	0.0153655
657.553	0.0153912
657.631	0.0153944
657.709	0.0153616
657.788	0.0153682
657.866	0.0154361
657.944	0.0154751
658.022	0.0153230
658.100	0.0153087
658.178	0.0154094
658.256	0.0153024
658.334	0.0153026
658.413	0.0153024
658.491	0.0152885
658.569	0.0153139
658.647	0.0153611
658.725	0.0152387
658.803	0.0152788
658.881	0.0152633
658.959	0.0153146
659.038	0.0152236
659.116	0.0152214
659.194	0.0152949
659.272	0.0152903
659.350	0.0152805
659.428	0.0153853
659.506	0.0153035
659.584	0.0152457
659.663	0.0153240
659.741	0.0152368
659.819	0.0153209
659.897	0.0153981
659.975	0.0152641
660.053	0.0152142
660.131	0.0153786
660.209	0.0153506
660.288	0.0154411
660.366	0.0152736
660.444	0.0151811
660.522	0.0151886
660.600	0.0152287
660.678	0.0151510
660.756	0.0151170
660.834	0.0150320
660.913	0.0151192
660.991	0.0153326
661.069	0.0150141
661.147	0.0150391
661.225	0.0151352
661.303	0.0152068
661.381	0.0151379
661.459	0.0150726
661.538	0.0152332
661.616	0.0152518
661.694	0.0152197
661.772	0.0152740
661.850	0.0151228
661.928	0.0151698
662.006	0.0152132
662.084	0.0150818
662.163	0.0152710
662.241	0.0151426
662.319	0.0149750
662.397	0.0150041
662.475	0.0149410
662.553	0.0149063
662.631	0.0150040
662.709	0.0149017
662.788	0.0148382
662.866	0.0147771
662.944	0.0149527
663.022	0.0150004
663.100	0.0148042
663.178	0.0148310
663.256	0.0147878
663.334	0.0148162
663.413	0.0151523
663.491	0.0150592
663.569	0.0149157
663.647	0.0151715
663.725	0.0149599
663.803	0.0150273
663.881	0.0151465
663.959	0.0151552
664.038	0.0151794
664.116	0.0153957
664.194	0.0153767
664.272	0.0152680
664.350	0.0152808
664.428	0.0155578
664.506	0.0154436
664.584	0.0156898
664.663	0.0154203
664.741	0.0154622
664.819	0.0155680
664.897	0.0155088
664.975	0.0153624
665.053	0.0153000
665.131	0.0151018
665.209	0.0151978
665.288	0.0151212
665.366	0.0150958
665.444	0.0149326
665.522	0.0149562
665.600	0.0148602
665.678	0.0146532
665.756	0.0146736
665.834	0.0144014
665.913	0.0146773
665.991	0.0144595
666.069	0.0143797
666.147	0.0144798
666.225	0.0145580
666.303	0.0146548
666.381	0.0146297
666.459	0.0143932
666.538	0.0146808
666.616	0.0146906
666.694	0.0146734
666.772	0.0146874
666.850	0.0148969
666.928	0.0149207
667.006	0.0149622
667.084	0.0149631
667.163	0.0148902
667.241	0.0149829
667.319	0.0151347
667.397	0.0150499
667.475	0.0152332
667.553	0.0152577
667.631	0.0154301
667.709	0.0154974
667.788	0.0155109
667.866	0.0155302
667.944	0.0157455
668.022	0.0157794
668.100	0.0156573
668.178	0.0157716
668.256	0.0157496
668.334	0.0156947
668.413	0.0159405
668.491	0.0156096
668.569	0.0156415
668.647	0.0155827
668.725	0.0155780
668.803	0.0155044
668.881	0.0155129
668.959	0.0153898
669.038	0.0154241
669.116	0.0153195
669.194	0.0152968
669.272	0.0153020
669.350	0.0152677
669.428	0.0151986
669.506	0.0150946
669.584	0.0151048
669.663	0.0149620
669.741	0.0149752
669.819	0.0149089
669.897	0.0147556
669.975	0.0145702
670.053	0.0145261
670.131	0.0143932
670.209	0.0143419
670.288	0.0143756
670.366	0.0142632
670.444	0.0141009
670.522	0.0141076
670.600	0.0141038
670.678	0.0141858
670.756	0.0142570
670.834	0.0142802
670.913	0.0145200
670.991	0.0145811
671.069	0.0146704
671.147	0.0148598
671.225	0.0150622
671.303	0.0150719
671.381	0.0152083
671.459	0.0153653
671.538	0.0156389
671.616	0.0158724
671.694	0.0159729
671.772	0.0163357
671.850	0.0163548
671.928	0.0163511
672.006	0.0164999
672.084	0.0166732
672.163	0.0167965
672.241	0.0168548
672.319	0.0168251
672.397	0.0168723
672.475	0.0169646
672.553	0.0168767
672.631	0.0168599
672.709	0.0166004
672.788	0.0165015
672.866	0.0164379
672.944	0.0164264
673.022	0.0161369
673.100	0.0156602
673.178	0.0156187
673.256	0.0154883
673.334	0.0150794
673.413	0.0149914
673.491	0.0147572
673.569	0.0146261
673.647	0.0144620
673.725	0.0141984
673.803	0.0141456
673.881	0.0139474
673.959	0.0139108
674.038	0.0138297
674.116	0.0136428
674.194	0.0136160
674.272	0.0135513
674.350	0.0134274
674.428	0.0132837
674.506	0.0133179
674.584	0.0133781
674.663	0.0133664
674.741	0.0134078
674.819	0.0134971
674.897	0.0135339
674.975	0.0137135
675.053	0.0138648
675.131	0.0139923
675.209	0.0139644
675.288	0.0142707
675.366	0.0145393
675.444	0.0146904
675.522	0.0149100
675.600	0.0150950
675.678	0.0152877
675.756	0.0157101
675.834	0.0157555
675.913	0.0159716
675.991	0.0160574
676.069	0.0162061
676.147	0.0163310
676.225	0.0164065
676.303	0.0165546
676.381	0.0167455
676.459	0.0167508
676.538	0.0168677
676.616	0.0169310
676.694	0.0169582
676.772	0.0170802
676.850	0.0171593
676.928	0.0168658
677.006	0.0169871
677.084	0.0168784
677.163	0.0167538
677.241	0.0166611
677.319	0.0164403
677.397	0.0163557
677.475	0.0159919
677.553	0.0158279
677.631	0.0156866
677.709	0.0155126
677.788	0.0151722
677.866	0.0148754
677.944	0.0148112
678.022	0.0145370
678.100	0.0141409
678.178	0.0140604
678.256	0.0138853
678.334	0.0137335
678.413	0.0135466
678.491	0.0134301
678.569	0.0132191
678.647	0.0133562
678.725	0.0132400
678.803	0.0132180
678.881	0.0132988
678.959	0.0133192
679.038	0.0133051
679.116	0.0132316
679.194	0.0134693
679.272	0.0137967
679.350	0.0140150
679.428	0.0141544
679.506	0.0144324
679.584	0.0147506
679.663	0.0148392
679.741	0.0152327
679.819	0.0155180
679.897	0.0158532
679.975	0.0159939
680.053	0.0162450
680.131	0.0162357
680.209	0.0163589
680.288	0.0163699
680.366	0.0164611
680.444	0.0164868
680.522	0.0165406
680.600	0.0165381
680.678	0.0164219
680.756	0.0164529
680.834	0.0162915
680.913	0.0160859
680.991	0.0161406
681.069	0.0161584
681.147	0.0160264
681.225	0.0157755
681.303	0.0156622
681.381	0.0157409
681.459	0.0155146
681.538	0.0153520
681.616	0.0151810
681.694	0.0151378
681.772	0.0150728
681.850	0.0150828
681.928	0.0150245
682.006	0.0148292
682.084	0.0146331
682.163	0.0147804
682.241	0.0148049
682.319	0.0147777
682.397	0.0147322
682.475	0.0147609
682.553	0.0147128
682.631	0.0148967
682.709	0.0150922
682.788	0.0150689
682.866	0.0150500
682.944	0.0152036
683.022	0.0152990
683.100	0.0152970
683.178	0.0154587
683.256	0.0154704
683.334	0.0156610
683.413	0.0158038
683.491	0.0157762
683.569	0.0157941
683.647	0.0159176
683.725	0.0159337
683.803	0.0158580
683.881	0.0159499
683.959	0.0158316
684.038	0.0156432
684.116	0.0157736
684.194	0.0155563
684.272	0.0155855
684.350	0.0154733
684.428	0.0154460
684.506	0.0153568
684.584	0.0150459
684.663	0.0150959
684.741	0.0150362
684.819	0.0150353
684.897	0.0148412
684.975	0.0147348
685.053	0.0145962
685.131	0.0145768
685.209	0.0143651
685.288	0.0143063
685.366	0.0142705
685.444	0.0140731
685.522	0.0142047
685.600	0.0140017
685.678	0.0138244
685.756	0.0137644
685.834	0.0135650
685.913	0.0136395
685.991	0.0137548
686.069	0.0138694
686.147	0.0139679
686.225	0.0138753
686.303	0.0141296
686.381	0.0142110
686.459	0.0143778
686.538	0.0146712
686.616	0.0147837
686.694	0.0149805
686.772	0.0149817
686.850	0.0152104
686.928	0.0152424
687.006	0.0152969
687.084	0.0154465
687.163	0.0157037
687.241	0.0156739
687.319	0.0157529
687.397	0.0158826
687.475	0.0158933
687.553	0.0159738
687.631	0.0160710
687.709	0.0161446
687.788	0.0161987
687.866	0.0162994
687.944	0.0162955
688.022	0.0162649
688.100	0.0163017
688.178	0.0161574
688.256	0.0160716
688.334	0.0159354
688.413	0.0157662
688.491	0.0157835
688.569	0.0157439
688.647	0.0156229
688.725	0.0152529
688.803	0.0153226
688.881	0.0153708
688.959	0.0152448
689.038	0.0152670
689.116	0.0152816
689.194	0.0151791
689.272	0.0152099
689.350	0.0151833
689.428	0.0152418
689.506	0.0154298
689.584	0.0153262
689.663	0.0154498
689.741	0.0154487
689.819	0.0155106
689.897	0.0153609
689.975	0.0153812
690.053	0.0154376
690.131	0.0153265
690.209	0.0152290
690.288	0.0151931
690.366	0.0151697
690.444	0.0151971
690.522	0.0149252
690.600	0.0147889
690.678	0.0147356
690.756	0.0145576
690.834	0.0144158
690.913	0.0143375
690.991	0.0140878
691.069	0.0138754
691.147	0.0138618
691.225	0.0136560
691.303	0.0133759
691.381	0.0133783
691.459	0.0133308
691.538	0.0134067
691.616	0.0133484
691.694	0.0132351
691.772	0.0133378
691.850	0.0132104
691.928	0.0133385
692.006	0.0135088
692.084	0.0135931
692.163	0.0137746
692.241	0.0139150
692.319	0.0142383
692.397	0.0143624
692.475	0.0146581
692.553	0.0148647
692.631	0.0151261
692.709	0.0153719
692.788	0.0157735
692.866	0.0158900
692.944	0.0161687
693.022	0.0164342
693.100	0.0166801
693.178	0.0169423
693.256	0.0170415
693.334	0.0172495
693.413	0.0174175
693.491	0.0174814
693.569	0.0177655
693.647	0.0176887
693.725	0.0176693
693.803	0.0177380
693.881	0.0175876
693.959	0.0176508
694.038	0.0174803
694.116	0.0173540
694.194	0.0173586
694.272	0.0169721
694.350	0.0166418
694.428	0.0163779
694.506	0.0159351
694.584	0.0157217
694.663	0.0155732
694.741	0.0151724
694.819	0.0147968
694.897	0.0145053
694.975	0.0141542
695.053	0.0138451
695.131	0.0137222
695.209	0.0135360
695.288	0.0132723
695.366	0.0132531
695.444	0.0133006
695.522	0.0130656
695.600	0.0131178
695.678	0.0130119
695.756	0.0130856
695.834	0.0133334
695.913	0.0133344
695.991	0.0133723
696.069	0.0133810
696.147	0.0134947
696.225	0.0137513
696.303	0.0138406
696.381	0.0137975
696.459	0.0139368
696.538	0.0141122
696.616	0.0140131
696.694	0.0143053
696.772	0.0143744
696.850	0.0145346
696.928	0.0145978
697.006	0.0147250
697.084	0.0149807
697.163	0.0151318
697.241	0.0153161
697.319	0.0153278
697.397	0.0155038
697.475	0.0156126
697.553	0.0156720
697.631	0.0159400
697.709	0.0157899
697.788	0.0159435
697.866	0.0160001
697.944	0.0159659
698.022	0.0159269
698.100	0.0158264
698.178	0.0161279
698.256	0.0161954
698.334	0.0160236
698.413	0.0159532
698.491	0.0159594
698.569	0.0158046
698.647	0.0158322
698.725	0.0158257
698.803	0.0157423
698.881	0.0155806
698.959	0.0156940
699.038	0.0154776
699.116	0.0154916
699.194	0.0152788
699.272	0.0153103
699.350	0.0150772
699.428	0.0151514
699.506	0.0151150
699.584	0.0151082
699.663	0.0149280
699.741	0.0149655
699.819	0.0150309
699.897	0.0149371
699.975	0.0149345
700.053	0.0149707
700.131	0.0150037
700.209	0.0150491
700.288	0.0151061
700.366	0.0150813
700.444	0.0151398
700.522	0.0152803
700.600	0.0153883
700.678	0.0154646
700.756	0.0154035
700.834	0.0154376
700.913	0.0155367
700.991	0.0154847
701.069	0.0154348
701.147	0.0154150
701.225	0.0153549
701.303	0.0153837
701.381	0.0153603
701.459	0.0151929
701.538	0.0152044
701.616	0.0150313
701.694	0.0149364
701.772	0.0148582
701.850	0.0146406
701.928	0.0145094
702.006	0.0143066
702.084	0.0141910
702.163	0.0141399
702.241	0.0138860
702.319	0.0137463
702.397	0.0136294
702.475	0.0135917
702.553	0.0135326
702.631	0.0136394
702.709	0.0135476
702.788	0.0137147
702.866	0.0139596
702.944	0.0140717
703.022	0.0142697
703.100	0.0144415
703.178	0.0146973
703.256	0.0150353
703.334	0.0151891
703.413	0.0153802
703.491	0.0155097
703.569	0.0159007
703.647	0.0159690
703.725	0.0160690
703.803	0.0162894
703.881	0.0162594
703.959	0.0163746
704.038	0.0165859
704.116	0.0166045
704.194	0.0165060
704.272	0.0165240
704.350	0.0165973
704.428	0.0165067
704.506	0.0165402
704.584	0.0165322
704.663	0.0162807
704.741	0.0163208
704.819	0.0162091
704.897	0.0159544
704.975	0.0159309
705.053	0.0158876
705.131	0.0156915
705.209	0.0155468
705.288	0.0153572
705.366	0.0152946
705.444	0.0151343
705.522	0.0150425
705.600	0.0148518
705.678	0.0145251
705.756	0.0145155
705.834	0.0145506
705.913	0.0143204
705.991	0.0142593
706.069	0.0142625
706.147	0.0141473
706.225	0.0141691
706.303	0.0142029
706.381	0.0140765
706.459	0.0140506
706.538	0.0139732
706.616	0.0140377
706.694	0.0139961
706.772	0.0141895
706.850	0.0140759
706.928	0.0142186
707.006	0.0143530
707.084	0.0144714
707.163	0.0146044
707.241	0.0145211
707.319	0.0147480
707.397	0.0150587
707.475	0.0150766
707.553	0.0152689
707.631	0.0153130
707.709	0.0155818
707.788	0.0158215
707.866	0.0158973
707.944	0.0159995
708.022	0.0162679
708.100	0.0163119
708.178	0.0165030
708.256	0.0165619
708.334	0.0166079
708.413	0.0166933
708.491	0.0167122
708.569	0.0167142
708.647	0.0166476
708.725	0.0166330
708.803	0.0165742
708.881	0.0164664
708.959	0.0163691
709.038	0.0161567
709.116	0.0160946
709.194	0.0160507
709.272	0.0157295
709.350	0.0155505
709.428	0.0153800
709.506	0.0152290
709.584	0.0149885
709.663	0.0147322
709.741	0.0145687
709.819	0.0144702
709.897	0.0142908
709.975	0.0140665
710.053	0.0139346
710.131	0.0138647
710.209	0.0136515
710.288	0.0137173
710.366	0.0136747
710.444	0.0135608
710.522	0.0136248
710.600	0.0137377
710.678	0.0136261
710.756	0.0136523
710.834	0.0137650
710.913	0.0137624
710.991	0.0138779
711.069	0.0140829
711.147	0.0142834
711.225	0.0143608
711.303	0.0145192
711.381	0.0144197
711.459	0.0146104
711.538	0.0149781
711.616	0.0149387
711.694	0.0151562
711.772	0.0152509
711.850	0.0155275
711.928	0.0156844
712.006	0.0157600
712.084	0.0159901
712.163	0.0161288
712.241	0.0161829
712.319	0.0164539
712.397	0.0164017
712.475	0.0166237
712.553	0.0166367
712.631	0.0168224
712.709	0.0166800
712.788	0.0166917
712.866	0.0168027
712.944	0.0167036
713.022	0.0165714
713.100	0.0164287
713.178	0.0164803
713.256	0.0164648
713.334	0.0161577
713.413	0.0161075
713.491	0.0160582
713.569	0.0158669
713.647	0.0156200
713.725	0.0154144
713.803	0.0152101
713.881	0.0151291
713.959	0.0149919
714.038	0.0147819
714.116	0.0147063
714.194	0.0145960
714.272	0.0144904
714.350	0.0143877
714.428	0.0143652
714.506	0.0143559
714.584	0.0142466
714.663	0.0141161
714.741	0.0141880
714.819	0.0141646
714.897	0.0140539
714.975	0.0141019
715.053	0.0140394
715.131	0.0140436
715.209	0.0138882
715.288	0.0139810
715.366	0.0139589
715.444	0.0139083
715.522	0.0138784
715.600	0.0138233
715.678	0.0137663
715.756	0.0138826
715.834	0.0138637
715.913	0.0138100
715.991	0.0139661
716.069	0.0138842
716.147	0.0139559
716.225	0.0140571
716.303	0.0143298
716.381	0.0144740
716.459	0.0144182
716.538	0.0146051
716.616	0.0148863
716.694	0.0148862
716.772	0.0150588
716.850	0.0151962
716.928	0.0153775
717.006	0.0154718
717.084	0.0155894
717.163	0.0158466
717.241	0.0159091
717.319	0.0160966
717.397	0.0162188
717.475	0.0161744
717.553	0.0164452
717.631	0.0163748
717.709	0.0163868
717.788	0.0164018
717.866	0.0166109
717.944	0.0166267
718.022	0.0166327
718.100	0.0166196
718.178	0.0164980
718.256	0.0165481
718.334	0.0165795
718.413	0.0166354
718.491	0.0165160
718.569	0.0166129
718.647	0.0165220
718.725	0.0163393
718.803	0.0163766
718.881	0.0162356
718.959	0.0162129
719.038	0.0159836
719.116	0.0159425
719.194	0.0156385
719.272	0.0155671
719.350	0.0152875
719.428	0.0151788
719.506	0.0148914
719.584	0.0145852
719.663	0.0144466
719.741	0.0143671
719.819	0.0143143
719.897	0.0140179
719.975	0.0139412
720.053	0.0140785
720.131	0.0138789
720.209	0.0138176
720.288	0.0137058
720.366	0.0137361
720.444	0.0138153
720.522	0.0138232
720.600	0.0136118
720.678	0.0137435
720.756	0.0137263
720.834	0.0139823
720.913	0.0139172
720.991	0.0141251
721.069	0.0143124
721.147	0.0142650
721.225	0.0145379
721.303	0.0146770
721.381	0.0148206
721.459	0.0150424
721.538	0.0152161
721.616	0.0154202
721.694	0.0155369
721.772	0.0158216
721.850	0.0159301
721.928	0.0160828
722.006	0.0160614
722.084	0.0163837
722.163	0.0164378
722.241	0.0163923
722.319	0.0165123
722.397	0.0162720
722.475	0.0163165
722.553	0.0162656
722.631	0.0161545
722.709	0.0161930
722.788	0.0160104
722.866	0.0158701
722.944	0.0157421
723.022	0.0154578
723.100	0.0155181
723.178	0.0154411
723.256	0.0153127
723.334	0.0152174
723.413	0.0152571
723.491	0.0151556
723.569	0.0152219
723.647	0.0150878
723.725	0.0149778
723.803	0.0151656
723.881	0.0151852
723.959	0.0150277
724.038	0.0152061
724.116	0.0151057
724.194	0.0150830
724.272	0.0150602
724.350	0.0150958
724.428	0.0152122
724.506	0.0151656
724.584	0.0151382
724.663	0.0151453
724.741	0.0151491
724.819	0.0151028
724.897	0.0152573
724.975	0.0152175
725.053	0.0151608
725.131	0.0152367
725.209	0.0153171
725.288	0.0152920
725.366	0.0152441
725.444	0.0152660
725.522	0.0152744
725.600	0.0153215
725.678	0.0149445
725.756	0.0149851
725.834	0.0149365
725.913	0.0147858
725.991	0.0145956
726.069	0.0145648
726.147	0.0145931
726.225	0.0144836
726.303	0.0144791
726.381	0.0146203
726.459	0.0144634
726.538	0.0142146
726.616	0.0143919
726.694	0.0144619
726.772	0.0144300
726.850	0.0145393
726.928	0.0145290
727.006	0.0146394
727.084	0.0145833
727.163	0.0145982
727.241	0.0148460
727.319	0.0147968
727.397	0.0151128
727.475	0.0152181
727.553	0.0151859
727.631	0.0152832
727.709	0.0154242
727.788	0.0156329
727.866	0.0159084
727.944	0.0161399
728.022	0.0161849
728.100	0.0162792
728.178	0.0165125
728.256	0.0166650
728.334	0.0166283
728.413	0.0165278
728.491	0.0165755
728.569	0.0165978
728.647	0.0165891
728.725	0.0164322
728.803	0.0161948
728.881	0.0160329
728.959	0.0158727
729.038	0.0157114
729.116	0.0153928
729.194	0.0152007
729.272	0.0150605
729.350	0.0147514
729.428	0.0145961
729.506	0.0144668
729.584	0.0142445
729.663	0.0141107
729.741	0.0138274
729.819	0.0137946
729.897	0.0136557
729.975	0.0137907
730.053	0.0135513
730.131	0.0136563
730.209	0.0138038
730.288	0.0138667
730.366	0.0139658
730.444	0.0140435
730.522	0.0141081
730.600	0.0142612
730.678	0.0145937
730.756	0.0147814
730.834	0.0149807
730.913	0.0150414
730.991	0.0152187
731.069	0.0153686
731.147	0.0153752
731.225	0.0154510
731.303	0.0157590
731.381	0.0159711
731.459	0.0160033
731.538	0.0160191
731.616	0.0160839
731.694	0.0162004
731.772	0.0163859
731.850	0.0159978
731.928	0.0161369
732.006	0.0162103
732.084	0.0160657
732.163	0.0160344
732.241	0.0161757
732.319	0.0158206
732.397	0.0158021
732.475	0.0156851
732.553	0.0155351
732.631	0.0154771
732.709	0.0153152
732.788	0.0152401
732.866	0.0149358
732.944	0.0149992
733.022	0.0150431
733.100	0.0150166
733.178	0.0147981
733.256	0.0147976
733.334	0.0147949
733.413	0.0147019
733.491	0.0146087
733.569	0.0148064
733.647	0.0147679
733.725	0.0147224
733.803	0.0147706
733.881	0.0147977
733.959	0.0149757
734.038	0.0152237
734.116	0.0151313
734.194	0.0151894
734.272	0.0153986
734.350	0.0155187
734.428	0.0156156
734.506	0.0156543
734.584	0.0158925
734.663	0.0160144
734.741	0.0161368
734.819	0.0161781
734.897	0.0162840
734.975	0.0162941
735.053	0.0163763
735.131	0.0164149
735.209	0.0162829
735.288	0.0163831
735.366	0.0164021
735.444	0.0160787
735.522	0.0159486
735.600	0.0158881
735.678	0.0157708
735.756	0.0154557
735.834	0.0154633
735.913	0.0153273
735.991	0.0152492
736.069	0.0149742
736.147	0.0148598
736.225	0.0146398
736.303	0.0146524
736.381	0.0145301
736.459	0.0144731
736.538	0.0143620
736.616	0.0143054
736.694	0.0142153
736.772	0.0142882
736.850	0.0142386
736.928	0.0142051
737.006	0.0142461
737.084	0.0143009
737.163	0.0143202
737.241	0.0143556
737.319	0.0143050
737.397	0.0142799
737.475	0.0143496
737.553	0.0143071
737.631	0.0142028
737.709	0.0143952
737.788	0.0143281
737.866	0.0142773
737.944	0.0143862
738.022	0.0143131
738.100	0.0142599
738.178	0.0143587
738.256	0.0144389
738.334	0.0145093
738.413	0.0145293
738.491	0.0146969
738.569	0.0148286
738.647	0.0147849
738.725	0.0149492
738.803	0.0150035
738.881	0.0150962
738.959	0.0152939
739.038	0.0154987
739.116	0.0154894
739.194	0.0154976
739.272	0.0156030
739.350	0.0157597
739.428	0.0160145
739.506	0.0159856
739.584	0.0160944
739.663	0.0161862
739.741	0.0160262
739.819	0.0161263
739.897	0.0160784
739.975	0.0160947
740.053	0.0162855
740.131	0.0161961
740.209	0.0160167
740.288	0.0162213
740.366	0.0159954
740.444	0.0160370
740.522	0.0158979
740.600	0.0159395
740.678	0.0159561
740.756	0.0158909
740.834	0.0158150
740.913	0.0157202
740.991	0.0156953
741.069	0.0156556
741.147	0.0156916
741.225	0.0156755
741.303	0.0155722
741.381	0.0156666
741.459	0.0155040
741.538	0.0154999
741.616	0.0154931
741.694	0.0157321
741.772	0.0155630
741.850	0.0154794
741.928	0.0155603
742.006	0.0155455
742.084	0.0155228
742.163	0.0153776
742.241	0.0151956
742.319	0.0152383
742.397	0.0152835
742.475	0.0148319
742.553	0.0148221
742.631	0.0147597
742.709	0.0146503
742.788	0.0144342
742.866	0.0142931
742.944	0.0141110
743.022	0.0143353
743.100	0.0140048
743.178	0.0137780
743.256	0.0140553
743.334	0.0138956
743.413	0.0137978
743.491	0.0138062
743.569	0.0136053
743.647	0.0137463
743.725	0.0138056
743.803	0.0138290
743.881	0.0138222
743.959	0.0139732
744.038	0.0140958
744.116	0.0142136
744.194	0.0142760
744.272	0.0144499
744.350	0.0146288
744.428	0.0147682
744.506	0.0149822
744.584	0.0152596
744.663	0.0153902
744.741	0.0157163
744.819	0.0157475
744.897	0.0159219
744.975	0.0161532
745.053	0.0162136
745.131	0.0163312
745.209	0.0164253
745.288	0.0166978
745.366	0.0166830
745.444	0.0166485
745.522	0.0166197
745.600	0.0166763
745.678	0.0165417
745.756	0.0164423
745.834	0.0164761
745.913	0.0163441
745.991	0.0162874
746.069	0.0160161
746.147	0.0159793
746.225	0.0158619
746.303	0.0156792
746.381	0.0155379
746.459	0.0154037
746.538	0.0152792
746.616	0.0150720
746.694	0.0149283
746.772	0.0148639
746.850	0.0148508
746.928	0.0147511
747.006	0.0146387
747.084	0.0147121
747.163	0.0146339
747.241	0.0144237
747.319	0.0145387
747.397	0.0146062
747.475	0.0145068
747.553	0.0145636
747.631	0.0145358
747.709	0.0143064
747.788	0.0143842
747.866	0.0143438
747.944	0.0144126
748.022	0.0145306
748.100	0.0144820
748.178	0.0147927
748.256	0.0148441
748.334	0.0148450
748.413	0.0151844
748.491	0.0152525
748.569	0.0154598
748.647	0.0154720
748.725	0.0156301
748.803	0.0159198
748.881	0.0159084
748.959	0.0159363
749.038	0.0160642
749.116	0.0161930
749.194	0.0159870
749.272	0.0161045
749.350	0.0161517
749.428	0.0162025
749.506	0.0158569
749.584	0.0159752
749.663	0.0159260
749.741	0.0158839
749.819	0.0158559
749.897	0.0157076
749.975	0.0156551
750.053	0.0155035
750.131	0.0156087
750.209	0.0154361
750.288	0.0153605
750.366	0.0153421
750.444	0.0151959
750.522	0.0150169
750.600	0.0149901
750.678	0.0149629
750.756	0.0147792
750.834	0.0146709
750.913	0.0145174
750.991	0.0142916
751.069	0.0143499
751.147	0.0143942
751.225	0.0142786
751.303	0.0141635
751.381	0.0141193
751.459	0.0140496
751.538	0.0140904
751.616	0.0143472
751.694	0.0143241
751.772	0.0144021
751.850	0.0144243
751.928	0.0145077
752.006	0.0146461
752.084	0.0147791
752.163	0.0151167
752.241	0.0153013
752.319	0.0154568
752.397	0.0156862
752.475	0.0157091
752.553	0.0157493
752.631	0.0159728
752.709	0.0159453
752.788	0.0159193
752.866	0.0159503
752.944	0.0160540
753.022	0.0159116
753.100	0.0159747
753.178	0.0158366
753.256	0.0159593
753.334	0.0158113
753.413	0.0156366
753.491	0.0158663
753.569	0.0158105
753.647	0.0155618
753.725	0.0152658
753.803	0.0152612
753.881	0.0151984
753.959	0.0149282
754.038	0.0148810
754.116	0.0148544
754.194	0.0146208
754.272	0.0145609
754.350	0.0145014
754.428	0.0143595
754.506	0.0144662
754.584	0.0144267
754.663	0.0144311
754.741	0.0147250
754.819	0.0146611
754.897	0.0147150
754.975	0.0148185
755.053	0.0146952
755.131	0.0148227
755.209	0.0148718
755.288	0.0148693
755.366	0.0149138
755.444	0.0151449
755.522	0.0151243
755.600	0.0151942
755.678	0.0152874
755.756	0.0152847
755.834	0.0155246
755.913	0.0155251
755.991	0.0154672
756.069	0.0154142
756.147	0.0155414
756.225	0.0155109
756.303	0.0154652
756.381	0.0154766
756.459	0.0155371
756.538	0.0153753
756.616	0.0153566
756.694	0.0153840
756.772	0.0152857
756.850	0.0153992
756.928	0.0153671
757.006	0.0151595
757.084	0.0152505
757.163	0.0151664
757.241	0.0151873
757.319	0.0151170
757.397	0.0152218
757.475	0.0151401
757.553	0.0150114
757.631	0.0150465
757.709	0.0148842
757.788	0.0148270
757.866	0.0148090
757.944	0.0147688
758.022	0.0146604
758.100	0.0145286
758.178	0.0144976
758.256	0.0145110
758.334	0.0145027
758.413	0.0141824
758.491	0.0142354
758.569	0.0142396
758.647	0.0141824
758.725	0.0140875
758.803	0.0141875
758.881	0.0142513
758.959	0.0144778
759.038	0.0144326
759.116	0.0146033
759.194	0.0145907
759.272	0.0146690
759.350	0.0147544
759.428	0.0149468
759.506	0.0151285
759.584	0.0151920
759.663	0.0152359
759.741	0.0153359
759.819	0.0153432
759.897	0.0154523
759.975	0.0156811
760.053	0.0156837
760.131	0.0156364
760.209	0.0157921
760.288	0.0158007
760.366	0.0158160
760.444	0.0160159
760.522	0.0158331
760.600	0.0158051
760.678	0.0158768
760.756	0.0158403
760.834	0.0157413
760.913	0.0156812
760.991	0.0154787
761.069	0.0153844
761.147	0.0153864
761.225	0.0152728
761.303	0.0151400
761.381	0.0150589
761.459	0.0150193
761.538	0.0148643
761.616	0.0148289
761.694	0.0146763
761.772	0.0146924
761.850	0.0147108
761.928	0.0146307
762.006	0.0147333
762.084	0.0146755
762.163	0.0147133
762.241	0.0147327
762.319	0.0148857
762.397	0.0149533
762.475	0.0148732
762.553	0.0150443
762.631	0.0150099
762.709	0.0150098
762.788	0.0151244
762.866	0.0151849
762.944	0.0151569
763.022	0.0151983
763.100	0.0152383
763.178	0.0154034
763.256	0.0154750
763.334	0.0154104
763.413	0.0154140
763.491	0.0155624
763.569	0.0156700
763.647	0.0156499
763.725	0.0156823
763.803	0.0159038
763.881	0.0159653
763.959	0.0158833
764.038	0.0159813
764.116	0.0159290
764.194	0.0158977
764.272	0.0160110
764.350	0.0159025
764.428	0.0158621
764.506	0.0157715
764.584	0.0158241
764.663	0.0158253
764.741	0.0156792
764.819	0.0157166
764.897	0.0156889
764.975	0.0154912
765.053	0.0155233
765.131	0.0153650
765.209	0.0153870
765.288	0.0152117
765.366	0.0150446
765.444	0.0151515
765.522	0.0151717
765.600	0.0152126
765.678	0.0151901
765.756	0.0152248
765.834	0.0153333
765.913	0.0152555
765.991	0.0152016
766.069	0.0154485
766.147	0.0152331
766.225	0.0153867
766.303	0.0153323
766.381	0.0152325
766.459	0.0152635
766.538	0.0150976
766.616	0.0149864
766.694	0.0150977
766.772	0.0149884
766.850	0.0147939
766.928	0.0146798
767.006	0.0147147
767.084	0.0146052
767.163	0.0144648
767.241	0.0144794
767.319	0.0144334
767.397	0.0143979
767.475	0.0143961
767.553	0.0141962
767.631	0.0143620
767.709	0.0143661
767.788	0.0143204
767.866	0.0144398
767.944	0.0144830
768.022	0.0143572
768.100	0.0143903
768.178	0.0145414
768.256	0.0144801
768.334	0.0144862
768.413	0.0146519
768.491	0.0149362
768.569	0.0149794
768.647	0.0149273
768.725	0.0150812
768.803	0.0153616
768.881	0.0154717
768.959	0.0154942
769.038	0.0156051
769.116	0.0156840
769.194	0.0158077
769.272	0.0158887
769.350	0.0158937
769.428	0.0161057
769.506	0.0161099
769.584	0.0160617
769.663	0.0160610
769.741	0.0161619
769.819	0.0161697
769.897	0.0160631
769.975	0.0161330
770.053	0.0159499
770.131	0.0159956
770.209	0.0159377
770.288	0.0158106
770.366	0.0156358
770.444	0.0157016
770.522	0.0157355
770.600	0.0154552
770.678	0.0153469
770.756	0.0153249
770.834	0.0151681
770.913	0.0150768
770.991	0.0149849
771.069	0.0148737
771.147	0.0149009
771.225	0.0146660
771.303	0.0146277
771.381	0.0146608
771.459	0.0145591
771.538	0.0144366
771.616	0.0144771
771.694	0.0144012
771.772	0.0143414
771.850	0.0145152
771.928	0.0143324
772.006	0.0142630
772.084	0.0144346
772.163	0.0145193
772.241	0.0142727
772.319	0.0144651
772.397	0.0144693
772.475	0.0146940
772.553	0.0147150
772.631	0.0146441
772.709	0.0149409
772.788	0.0150166
772.866	0.0149656
772.944	0.0150433
773.022	0.0149186
773.100	0.0150691
773.178	0.0151588
773.256	0.0150320
773.334	0.0152636
773.413	0.0151496
773.491	0.0152188
773.569	0.0152500
773.647	0.0152265
773.725	0.0151436
773.803	0.0152785
773.881	0.0152562
773.959	0.0153201
774.038	0.0152724
774.116	0.0154182
774.194	0.0153665
774.272	0.0154144
774.350	0.0155826
774.428	0.0155235
774.506	0.0153757
774.584	0.0157545
774.663	0.0157651
774.741	0.0156561
774.819	0.0155133
774.897	0.0156642
774.975	0.0156427
775.053	0.0155301
775.131	0.0157586
775.209	0.0157463
775.288	0.0154949
775.366	0.0153844
775.444	0.0153783
775.522	0.0153761
775.600	0.0151909
775.678	0.0150771
775.756	0.0150432
775.834	0.0148377
775.913	0.0147261
775.991	0.0145852
776.069	0.0146134
776.147	0.0144307
776.225	0.0142876
776.303	0.0143911
776.381	0.0142085
776.459	0.0140386
776.538	0.0141028
776.616	0.0140540
776.694	0.0140514
776.772	0.0139883
776.850	0.0141446
776.928	0.0141611
777.006	0.0141331
777.084	0.0143790
777.163	0.0144366
777.241	0.0144846
777.319	0.0146628
777.397	0.0147485
777.475	0.0149142
777.553	0.0149640
777.631	0.0149675
777.709	0.0150431
777.788	0.0151962
777.866	0.0153242
777.944	0.0153387
778.022	0.0154408
778.100	0.0154662
778.178	0.0154982
778.256	0.0155896
778.334	0.0154609
778.413	0.0154366
778.491	0.0155234
778.569	0.0154102
778.647	0.0153014
778.725	0.0154488
778.803	0.0154585
778.881	0.0153586
778.959	0.0153653
779.038	0.0152337
779.116	0.0153078
779.194	0.0152608
779.272	0.0151836
779.350	0.0151575
779.428	0.0150410
779.506	0.0150058
779.584	0.0150456
779.663	0.0150297
779.741	0.0149329
779.819	0.0149698
779.897	0.0149464
779.975	0.0149110
780.053	0.0149581
780.131	0.0150364
780.209	0.0150642
780.288	0.0149306
780.366	0.0148706
780.444	0.0149081
780.522	0.0148708
780.600	0.0149393
780.678	0.0150127
780.756	0.0150324
780.834	0.0149162
780.913	0.0149324
780.991	0.0150958
781.069	0.0150091
781.147	0.0151166
781.225	0.0150999
781.303	0.0153356
781.381	0.0153931
781.459	0.0154414
781.538	0.0153414
781.616	0.0153362
781.694	0.0154337
781.772	0.0152093
781.850	0.0152982
781.928	0.0153772
782.006	0.0152248
782.084	0.0152049
782.163	0.0151629
782.241	0.0152755
782.319	0.0150581
782.397	0.0149233
782.475	0.0148637
782.553	0.0148200
782.631	0.0148801
782.709	0.0148478
782.788	0.0148053
782.866	0.0147523
782.944	0.0148514
783.022	0.0148431
783.100	0.0147781
783.178	0.0148388
783.256	0.0148163
783.334	0.0147488
783.413	0.0148502
783.491	0.0147926
783.569	0.0148643
783.647	0.0150723
783.725	0.0150371
783.803	0.0152139
783.881	0.0152254
783.959	0.0151958
784.038	0.0151682
784.116	0.0153897
784.194	0.0155381
784.272	0.0156391
784.350	0.0154958
784.428	0.0154332
784.506	0.0154205
784.584	0.0155053
784.663	0.0156113
784.741	0.0155659
784.819	0.0155000
784.897	0.0153651
784.975	0.0154623
785.053	0.0154324
785.131	0.0154296
785.209	0.0152911
785.288	0.0153838
785.366	0.0153152
785.444	0.0153687
785.522	0.0152699
785.600	0.0153409
785.678	0.0153259
785.756	0.0152192
785.834	0.0152178
785.913	0.0151965
785.991	0.0151060
786.069	0.0153436
786.147	0.0152850
786.225	0.0152940
786.303	0.0152915
786.381	0.0153614
786.459	0.0153563
786.538	0.0152303
786.616	0.0153021
786.694	0.0153704
786.772	0.0152975
786.850	0.0152045
786.928	0.0153186
787.006	0.0153732
787.084	0.0152187
787.163	0.0152981
787.241	0.0152187
787.319	0.0150091
787.397	0.0150572
787.475	0.0151283
787.553	0.0150243
787.631	0.0148305
787.709	0.0148683
787.788	0.0147793
787.866	0.0148689
787.944	0.0147955
788.022	0.0147636
788.100	0.0147610
788.178	0.0145964
788.256	0.0146425
788.334	0.0145602
788.413	0.0146243
788.491	0.0146265
788.569	0.0147224
788.647	0.0148945
788.725	0.0149471
788.803	0.0148164
788.881	0.0149697
788.959	0.0148924
789.038	0.0148194
789.116	0.0151798
789.194	0.0151190
789.272	0.0152052
789.350	0.0152402
789.428	0.0154230
789.506	0.0153065
789.584	0.0154330
789.663	0.0155459
789.741	0.0156810
789.819	0.0154755
789.897	0.0156785
789.975	0.0155847
790.053	0.0156017
790.131	0.0157265
790.209	0.0157948
790.288	0.0157144
790.366	0.0157439
790.444	0.0157387
790.522	0.0156864
790.600	0.0156900
790.678	0.0154667
790.756	0.0155056
790.834	0.0153621
790.913	0.0152499
790.991	0.0151031
791.069	0.0150449
791.147	0.0147177
791.225	0.0147952
791.303	0.0148061
791.381	0.0145182
791.459	0.0144064
791.538	0.0146463
791.616	0.0143777
791.694	0.0144850
791.772	0.0147058
791.850	0.0145637
791.928	0.0145385
792.006	0.0145274
792.084	0.0145613
792.163	0.0145841
792.241	0.0146371
792.319	0.0147300
792.397	0.0148217
792.475	0.0147599
792.553	0.0148363
792.631	0.0148304
792.709	0.0149923
792.788	0.0150874
792.866	0.0153113
792.944	0.0150941
793.022	0.0151255
793.100	0.0153168
793.178	0.0151456
793.256	0.0153165
793.334	0.0152625
793.413	0.0152991
793.491	0.0152718
793.569	0.0153284
793.647	0.0153492
793.725	0.0153804
793.803	0.0153192
793.881	0.0153001
793.959	0.0153499
794.038	0.0153531
794.116	0.0150820
794.194	0.0152322
794.272	0.0153147
794.350	0.0150802
794.428	0.0150732
794.506	0.0151697
794.584	0.0153913
794.663	0.0152304
794.741	0.0151585
794.819	0.0150918
794.897	0.0151514
794.975	0.0151329
795.053	0.0152868
795.131	0.0152457
795.209	0.0152158
795.288	0.0153043
795.366	0.0152555
795.444	0.0152108
795.522	0.0152028
795.600	0.0151767
795.678	0.0151273
795.756	0.0150729
795.834	0.0151180
795.913	0.0150817
795.991	0.0151994
796.069	0.0151623
796.147	0.0151849
796.225	0.0151099
796.303	0.0151753
796.381	0.0151225
796.459	0.0152160
796.538	0.0150723
796.616	0.0150081
796.694	0.0151413
796.772	0.0150269
796.850	0.0150058
796.928	0.0150927
797.006	0.0151109
797.084	0.0150094
797.163	0.0151057
797.241	0.0150658
797.319	0.0151243
797.397	0.0152264
797.475	0.0151064
797.553	0.0151090
797.631	0.0150621
797.709	0.0151626
797.788	0.0151463
797.866	0.0150988
797.944	0.0150684
798.022	0.0150964
798.100	0.0150129
798.178	0.0149442
798.256	0.0148914
798.334	0.0149902
798.413	0.0149210
798.491	0.0149260
798.569	0.0149160
798.647	0.0147814
798.725	0.0146728
798.803	0.0146727
798.881	0.0147952
798.959	0.0145563
799.038	0.0145474
799.116	0.0146055
799.194	0.0145783
799.272	0.0147134
799.350	0.0146948
799.428	0.0146495
799.506	0.0145528
799.584	0.0147133
799.663	0.0146914
799.741	0.0147941
799.819	0.0147074
799.897	0.0148441
799.975	0.0147394
800.053	0.0149420
800.131	0.0149657
800.209	0.0149419
800.288	0.0151396
800.366	0.0151150
800.444	0.0152248
800.522	0.0152266
800.600	0.0152277
800.678	0.0153278
800.756	0.0153172
800.834	0.0153738
800.913	0.0154234
800.991	0.0155622
801.069	0.0153873
801.147	0.0154669
801.225	0.0155920
801.303	0.0155400
801.381	0.0154918
801.459	0.0156263
801.538	0.0154810
801.616	0.0154206
801.694	0.0154078
801.772	0.0153791
801.850	0.0152020
801.928	0.0154358
802.006	0.0154748
802.084	0.0151955
802.163	0.0153373
802.241	0.0151348
802.319	0.0151394
802.397	0.0151843
802.475	0.0151440
802.553	0.0150157
802.631	0.0150478
802.709	0.0150753
802.788	0.0149531
802.866	0.0149798
802.944	0.0148531
803.022	0.0148602
803.100	0.0149554
803.178	0.0146664
803.256	0.0149133
803.334	0.0148326
803.413	0.0147874
803.491	0.0147556
803.569	0.0148019
803.647	0.0147650
803.725	0.0148455
803.803	0.0148667
803.881	0.0149751
803.959	0.0150009
804.038	0.0151517
804.116	0.0150581
804.194	0.0150782
804.272	0.0151989
804.350	0.0151747
804.428	0.0153885
804.506	0.0153082
804.584	0.0152451
804.663	0.0153996
804.741	0.0153508
804.819	0.0153191
804.897	0.0154932
804.975	0.0153022
805.053	0.0154155
805.131	0.0154088
805.209	0.0154642
805.288	0.0153790
805.366	0.0154580
805.444	0.0153724
805.522	0.0152177
805.600	0.0154198
805.678	0.0154517
805.756	0.0154369
805.834	0.0154204
805.913	0.0153403
805.991	0.0152985
806.069	0.0153819
806.147	0.0152578
806.225	0.0153806
806.303	0.0154595
806.381	0.0152074
806.459	0.0154165
806.538	0.0151566
806.616	0.0150268
806.694	0.0151116
806.772	0.0151761
806.850	0.0151064
806.928	0.0149187
807.006	0.0148360
807.084	0.0148328
807.163	0.0148601
807.241	0.0147707
807.319	0.0148193
807.397	0.0148219
807.475	0.0148512
807.553	0.0148149
807.631	0.0147348
807.709	0.0148013
807.788	0.0149572
807.866	0.0148423
807.944	0.0148579
808.022	0.0148248
808.100	0.0150174
808.178	0.0149266
808.256	0.0149879
808.334	0.0150439
808.413	0.0151082
808.491	0.0152761
808.569	0.0153471
808.647	0.0152983
808.725	0.0152681
808.803	0.0153840
808.881	0.0153958
808.959	0.0153871
809.038	0.0153934
809.116	0.0154400
809.194	0.0154026
809.272	0.0153425
809.350	0.0152766
809.428	0.0155634
809.506	0.0154676
809.584	0.0154038
809.663	0.0154647
809.741	0.0153481
809.819	0.0153151
809.897	0.0153655
809.975	0.0154929
810.053	0.0153172
810.131	0.0152238
810.209	0.0153295
810.288	0.0152455
810.366	0.0151751
810.444	0.0151048
810.522	0.0152420
810.600	0.0151479
810.678	0.0151742
810.756	0.0151974
810.834	0.0152054
810.913	0.0150769
810.991	0.0151082
811.069	0.0148889
811.147	0.0149784
811.225	0.0150872
811.303	0.0151439
811.381	0.0150375
811.459	0.0148083
811.538	0.0148153
811.616	0.0148456
811.694	0.0149289
811.772	0.0148314
811.850	0.0148029
811.928	0.0148173
812.006	0.0147986
812.084	0.0147657
812.163	0.0148196
812.241	0.0147652
812.319	0.0146413
812.397	0.0148019
812.475	0.0147741
812.553	0.0148921
812.631	0.0147696
812.709	0.0149226
812.788	0.0149335
812.866	0.0150436
812.944	0.0151096
813.022	0.0151470
813.100	0.0151296
813.178	0.0153012
813.256	0.0152492
813.334	0.0153251
813.413	0.0153786
813.491	0.0153825
813.569	0.0156274
813.647	0.0154823
813.725	0.0154360
813.803	0.0155700
813.881	0.0155756
813.959	0.0156595
814.038	0.0155089
814.116	0.0155781
814.194	0.0156044
814.272	0.0155185
814.350	0.0155402
814.428	0.0156544
814.506	0.0155042
814.584	0.0155167
814.663	0.0156042
814.741	0.0155645
814.819	0.0156119
814.897	0.0156177
814.975	0.0154156
815.053	0.0153860
815.131	0.0154755
815.209	0.0153184
815.288	0.0153860
815.366	0.0153648
815.444	0.0152288
815.522	0.0151907
815.600	0.0151247
815.678	0.0151317
815.756	0.0151814
815.834	0.0150745
815.913	0.0150121
815.991	0.0149738
816.069	0.0150938
816.147	0.0148492
816.225	0.0148967
816.303	0.0149585
816.381	0.0149487
816.459	0.0148386
816.538	0.0147509
816.616	0.0148099
816.694	0.0149763
816.772	0.0147235
816.850	0.0148293
816.928	0.0148662
817.006	0.0147745
817.084	0.0149067
817.163	0.0150249
817.241	0.0149718
817.319	0.0149807
817.397	0.0150433
817.475	0.0150266
817.553	0.0150926
817.631	0.0151968
817.709	0.0152448
817.788	0.0153023
817.866	0.0152959
817.944	0.0151975
818.022	0.0150972
818.100	0.0153351
818.178	0.0152082
818.256	0.0151811
818.334	0.0152891
818.413	0.0152735
818.491	0.0152201
818.569	0.0152187
818.647	0.0152169
818.725	0.0153364
818.803	0.0153471
818.881	0.0153364
818.959	0.0151991
819.038	0.0151890
819.116	0.0150698
819.194	0.0151266
819.272	0.0152686
819.350	0.0150572
819.428	0.0151254
819.506	0.0151905
819.584	0.0150844
819.663	0.0151471
819.741	0.0152305
819.819	0.0151478
819.897	0.0151817
819.975	0.0151524
820.053	0.0151493
820.131	0.0150697
820.209	0.0150893
820.288	0.0151324
820.366	0.0151701
820.444	0.0152026
820.522	0.0151934
820.600	0.0151859
820.678	0.0150247
820.756	0.0150946
820.834	0.0151524
820.913	0.0151409
820.991	0.0151668
821.069	0.0151018
821.147	0.0150873
821.225	0.0150582
821.303	0.0151284
821.381	0.0151125
821.459	0.0152322
821.538	0.0150819
821.616	0.0151758
821.694	0.0152525
821.772	0.0150616
821.850	0.0151816
821.928	0.0151096
822.006	0.0150723
822.084	0.0152801
822.163	0.0153120
822.241	0.0151747
822.319	0.0153442
822.397	0.0151028
822.475	0.0151572
822.553	0.0149371
822.631	0.0152230
822.709	0.0153131
822.788	0.0152320
822.866	0.0151781
822.944	0.0150996
823.022	0.0151202
823.100	0.0149882
823.178	0.0149319
823.256	0.0151152
823.334	0.0150253
823.413	0.0150477
823.491	0.0149973
823.569	0.0150101
823.647	0.0150585
823.725	0.0150484
823.803	0.0150639
823.881	0.0152023
823.959	0.0150140
824.038	0.0149937
824.116	0.0151267
824.194	0.0152098
824.272	0.0152091
824.350	0.0152101
824.428	0.0152148
824.506	0.0152881
824.584	0.0152325
824.663	0.0153529
824.741	0.0153368
824.819	0.0154577
824.897	0.0153487
824.975	0.0153547
825.053	0.0155212
825.131	0.0153487
825.209	0.0153693
825.288	0.0154271
825.366	0.0154768
825.444	0.0154906
825.522	0.0154341
825.600	0.0154613
825.678	0.0154462
825.756	0.0154440
825.834	0.0152803
825.913	0.0153039
825.991	0.0153909
826.069	0.0155563
826.147	0.0152471
826.225	0.0152144
826.303	0.0153249
826.381	0.0153246
826.459	0.0154167
826.538	0.0152502
826.616	0.0153183
826.694	0.0152211
826.772	0.0153162
826.850	0.0153033
826.928	0.0152079
827.006	0.0152528
827.084	0.0152047
827.163	0.0152770
827.241	0.0152395
827.319	0.0151942
827.397	0.0151244
827.475	0.0152441
827.553	0.0152550
827.631	0.0152008
827.709	0.0151733
827.788	0.0152327
827.866	0.0151331
827.944	0.0151102
828.022	0.0149671
828.100	0.0150403
828.178	0.0151249
828.256	0.0151776
828.334	0.0150934
828.413	0.0149601
828.491	0.0149908
828.569	0.0151053
828.647	0.0150305
828.725	0.0149873
828.803	0.0149483
828.881	0.0149776
828.959	0.0150019
829.038	0.0150480
829.116	0.0152470
829.194	0.0150167
829.272	0.0150655
829.350	0.0150356
829.428	0.0152694
829.506	0.0151102
829.584	0.0151696
829.663	0.0150981
829.741	0.0151091
829.819	0.0149638
829.897	0.0150382
829.975	0.0152119
830.053	0.0150797
830.131	0.0149713
830.209	0.0151949
830.288	0.0150924
830.366	0.0153062
830.444	0.0150912
830.522	0.0150851
830.600	0.0151781
830.678	0.0151372
830.756	0.0151809
830.834	0.0153740
830.913	0.0151381
830.991	0.0152499
831.069	0.0153278
831.147	0.0151975
831.225	0.0151303
831.303	0.0152402
831.381	0.0153467
831.459	0.0151674
831.538	0.0151717
831.616	0.0153114
831.694	0.0151148
831.772	0.0151345
831.850	0.0152106
831.928	0.0151388
832.006	0.0151272
832.084	0.0150602
832.163	0.0151115
832.241	0.0150294
832.319	0.0151274
832.397	0.0149512
832.475	0.0148917
832.553	0.0149989
832.631	0.0149509
832.709	0.0149104
832.788	0.0148883
832.866	0.0147497
832.944	0.0149325
833.022	0.0149097
833.100	0.0149405
833.178	0.0148891
833.256	0.0148206
833.334	0.0149624
833.413	0.0149591
833.491	0.0147775
833.569	0.0149398
833.647	0.0149376
833.725	0.0148495
833.803	0.0147879
833.881	0.0147651
833.959	0.0147029
834.038	0.0148434
834.116	0.0149062
834.194	0.0148415
834.272	0.0148563
834.350	0.0147783
834.428	0.0149068
834.506	0.0150202
834.584	0.0148916
834.663	0.0149974
834.741	0.0149727
834.819	0.0151141
834.897	0.0151865
834.975	0.0151768
835.053	0.0152785
835.131	0.0152417
835.209	0.0152866
835.288	0.0152841
835.366	0.0154708
835.444	0.0154115
835.522	0.0153841
835.600	0.0154344
835.678	0.0155072
835.756	0.0154568
835.834	0.0154860
835.913	0.0156068
835.991	0.0157012
836.069	0.0155258
836.147	0.0155437
836.225	0.0155648
836.303	0.0156213
836.381	0.0156120
836.459	0.0154195
836.538	0.0154807
836.616	0.0155133
836.694	0.0155737
836.772	0.0154366
836.850	0.0153773
836.928	0.0153766
837.006	0.0154205
837.084	0.0153307
837.163	0.0152644
837.241	0.0153389
837.319	0.0152698
837.397	0.0151608
837.475	0.0152487
837.553	0.0152042
837.631	0.0153160
837.709	0.0152346
837.788	0.0152202
837.866	0.0152061
837.944	0.0151529
838.022	0.0151463
838.100	0.0151904
838.178	0.0151100
838.256	0.0152652
838.334	0.0151663
838.413	0.0151982
838.491	0.0151857
838.569	0.0151057
838.647	0.0151897
838.725	0.0151651
838.803	0.0150764
838.881	0.0151347
838.959	0.0150470
839.038	0.0149213
839.116	0.0150289
839.194	0.0150216
839.272	0.0148982
839.350	0.0149156
839.428	0.0148932
839.506	0.0147647
839.584	0.0148244
839.663	0.0149081
839.741	0.0149179
839.819	0.0148969
839.897	0.0147829
839.975	0.0148954
840.053	0.0148911
840.131	0.0148637
840.209	0.0148957
840.288	0.0149104
840.366	0.0150301
840.444	0.0150169
840.522	0.0148691
840.600	0.0149729
840.678	0.0151425
840.756	0.0150594
840.834	0.0151932
840.913	0.0149712
840.991	0.0151943
841.069	0.0152412
841.147	0.0151767
841.225	0.0151941
841.303	0.0154413
841.381	0.0152212
841.459	0.0152467
841.538	0.0152013
841.616	0.0153431
841.694	0.0151853
841.772	0.0153000
841.850	0.0153336
841.928	0.0153024
842.006	0.0153421
842.084	0.0154317
842.163	0.0154093
842.241	0.0152947
842.319	0.0152419
842.397	0.0152675
842.475	0.0153792
842.553	0.0153125
842.631	0.0152954
842.709	0.0153025
842.788	0.0153232
842.866	0.0151569
842.944	0.0152380
843.022	0.0153068
843.100	0.0150320
843.178	0.0152238
843.256	0.0151724
843.334	0.0150845
843.413	0.0151845
843.491	0.0152182
843.569	0.0151730
843.647	0.0151425
843.725	0.0149743
843.803	0.0151258
843.881	0.0151497
843.959	0.0150809
844.038	0.0150654
844.116	0.0151676
844.194	0.0151601
844.272	0.0150964
844.350	0.0150039
844.428	0.0150607
844.506	0.0151870
844.584	0.0150728
844.663	0.0150356
844.741	0.0152065
844.819	0.0153915
844.897	0.0153371
844.975	0.0151504
845.053	0.0153529
845.131	0.0153471
845.209	0.0152589
845.288	0.0153897
845.366	0.0153372
845.444	0.0153805
845.522	0.0152807
845.600	0.0153886
845.678	0.0152644
845.756	0.0154460
845.834	0.0152403
845.913	0.0154069
845.991	0.0152934
846.069	0.0152490
846.147	0.0153127
846.225	0.0152755
846.303	0.0153098
846.381	0.0152475
846.459	0.0151946
846.538	0.0151805
846.616	0.0153132
846.694	0.0153661
846.772	0.0153320
846.850	0.0151453
846.928	0.0152620
847.006	0.0151962
847.084	0.0153957
847.163	0.0153618
847.241	0.0152061
847.319	0.0152646
847.397	0.0153750
847.475	0.0153765
847.553	0.0153130
847.631	0.0152158
847.709	0.0152205
847.788	0.0154501
847.866	0.0154085
847.944	0.0153590
848.022	0.0154009
848.100	0.0153062
848.178	0.0153374
848.256	0.0152157
848.334	0.0153897
848.413	0.0152406
848.491	0.0151752
848.569	0.0152483
848.647	0.0152662
848.725	0.0151850
848.803	0.0152113
848.881	0.0152919
848.959	0.0151492
849.038	0.0153164
849.116	0.0152052
849.194	0.0152438
849.272	0.0151825
849.350	0.0152594
849.428	0.0151286
849.506	0.0152419
849.584	0.0151728
849.663	0.0151438
849.741	0.0152464
849.819	0.0151192
849.897	0.0152904
849.975	0.0152281
850.053	0.0151478
850.131	0.0151230
850.209	0.0150244
850.288	0.0152178
850.366	0.0151076
850.444	0.0149876
850.522	0.0150720
850.600	0.0150394
850.678	0.0151379
850.756	0.0150484
850.834	0.0149602
850.913	0.0151328
850.991	0.0149578
851.069	0.0150851
851.147	0.0150656
851.225	0.0150759
851.303	0.0150883
851.381	0.0149318
851.459	0.0150475
851.538	0.0151642
851.616	0.0151924
851.694	0.0150803
851.772	0.0149604
851.850	0.0149747
851.928	0.0150869
852.006	0.0150780
852.084	0.0151235
852.163	0.0150282
852.241	0.0151464
852.319	0.0151275
852.397	0.0149697
852.475	0.0150808
852.553	0.0149638
852.631	0.0149516
852.709	0.0148924
852.788	0.0150091
852.866	0.0150761
852.944	0.0150470
853.022	0.0150996
853.100	0.0150921
853.178	0.0149985
853.256	0.0148948
853.334	0.0151070
853.413	0.0149963
853.491	0.0150658
853.569	0.0151440
853.647	0.0151460
853.725	0.0152170
853.803	0.0151134
853.881	0.0150920
853.959	0.0151047
854.038	0.0152318
854.116	0.0152692
854.194	0.0151209
854.272	0.0149743
854.350	0.0151507
854.428	0.0151442
854.506	0.0152309
854.584	0.0151376
854.663	0.0150527
854.741	0.0150883
854.819	0.0151421
854.897	0.0150871
854.975	0.0149891
855.053	0.0150039
855.131	0.0150803
855.209	0.0150549
855.288	0.0150484
855.366	0.0151051
855.444	0.0149926
855.522	0.0149665
855.600	0.0151367
855.678	0.0149661
855.756	0.0148869
855.834	0.0150826
855.913	0.0149749
855.991	0.0150572
856.069	0.0150614
856.147	0.0148895
856.225	0.0148458
856.303	0.0150370
856.381	0.0150713
856.459	0.0150109
856.538	0.0150698
856.616	0.0150114
856.694	0.0150974
856.772	0.0151065
856.850	0.0150857
856.928	0.0150523
857.006	0.0151067
857.084	0.0150211
857.163	0.0148791
857.241	0.0148569
857.319	0.0149934
857.397	0.0150734
857.475	0.0150629
857.553	0.0150063
857.631	0.0150089
857.709	0.0149740
857.788	0.0150341
857.866	0.0149078
857.944	0.0148759
858.022	0.0149507
858.100	0.0149033
858.178	0.0149705
858.256	0.0149665
858.334	0.0149957
858.413	0.0149415
858.491	0.0149581
858.569	0.0150619
858.647	0.0147976
858.725	0.0150003
858.803	0.0150192
858.881	0.0148873
858.959	0.0149500
859.038	0.0149924
859.116	0.0149805
859.194	0.0149371
859.272	0.0148456
859.350	0.0149580
859.428	0.0150471
859.506	0.0148746
859.584	0.0149598
859.663	0.0150916
859.741	0.0151199
859.819	0.0151183
859.897	0.0151021
859.975	0.0152171
860.053	0.0152014
860.131	0.0152571
860.209	0.0150643
860.288	0.0150791
860.366	0.0152359
860.444	0.0151879
860.522	0.0152261
860.600	0.0152657
860.678	0.0152959
860.756	0.0153107
860.834	0.0154942
860.913	0.0153705
860.991	0.0153107
861.069	0.0153630
861.147	0.0153639
861.225	0.0152943
861.303	0.0153074
861.381	0.0153434
861.459	0.0152341
861.538	0.0152749
861.616	0.0151850
861.694	0.0151154
861.772	0.0152332
861.850	0.0152489
861.928	0.0150141
862.006	0.0151372
862.084	0.0150375
862.163	0.0151302
862.241	0.0151463
862.319	0.0151549
862.397	0.0152032
862.475	0.0148554
862.553	0.0151038
862.631	0.0150224
862.709	0.0152956
862.788	0.0152033
862.866	0.0151054
862.944	0.0152599
863.022	0.0151520
863.100	0.0150374
863.178	0.0153014
863.256	0.0151920
863.334	0.0151228
863.413	0.0151245
863.491	0.0151532
863.569	0.0151762
863.647	0.0152129
863.725	0.0152104
863.803	0.0152734
863.881	0.0151065
863.959	0.0150787
864.038	0.0152364
864.116	0.0150938
864.194	0.0150401
864.272	0.0151257
864.350	0.0152287
864.428	0.0150396
864.506	0.0151343
864.584	0.0150819
864.663	0.0150980
864.741	0.0150923
864.819	0.0149889
864.897	0.0150175
864.975	0.0150842
865.053	0.0150435
865.131	0.0150618
865.209	0.0151374
865.288	0.0151224
865.366	0.0151322
865.444	0.0150870
865.522	0.0149967
865.600	0.0151107
865.678	0.0151823
865.756	0.0152501
865.834	0.0151852
865.913	0.0152744
865.991	0.0152053
866.069	0.0152120
866.147	0.0151642
866.225	0.0153371
866.303	0.0150785
866.381	0.0151602
866.459	0.0152386
866.538	0.0152927
866.616	0.0152058
866.694	0.0152605
866.772	0.0153584
866.850	0.0151818
866.928	0.0151796
867.006	0.0152117
867.084	0.0153116
867.163	0.0154137
867.241	0.0151949
867.319	0.0152263
867.397	0.0153339
867.475	0.0153561
867.553	0.0151960
867.631	0.0152788
867.709	0.0151481
867.788	0.0151437
867.866	0.0152042
867.944	0.0152549
868.022	0.0150867
868.100	0.0151604
868.178	0.0152715
868.256	0.0151293
868.334	0.0151366
868.413	0.0151578
868.491	0.0152283
868.569	0.0151795
868.647	0.0151488
868.725	0.0152475
868.803	0.0151786
868.881	0.0151165
868.959	0.0153184
869.038	0.0152146
869.116	0.0152515
869.194	0.0153984
869.272	0.0151474
869.350	0.0152702
869.428	0.0152586
869.506	0.0153658
869.584	0.0152976
869.663	0.0152951
869.741	0.0153632
869.819	0.0153846
869.897	0.0153088
869.975	0.0152641
870.053	0.0152946
870.131	0.0152272
870.209	0.0152177
870.288	0.0152526
870.366	0.0153197
870.444	0.0152253
870.522	0.0153677
870.600	0.0153551
870.678	0.0152116
870.756	0.0152724
870.834	0.0154128
870.913	0.0153436
870.991	0.0154452
871.069	0.0152629
871.147	0.0154285
871.225	0.0153618
871.303	0.0153931
871.381	0.0154006
871.459	0.0153001
871.538	0.0153157
871.616	0.0155450
871.694	0.0153989
871.772	0.0154759
871.850	0.0154829
871.928	0.0154508
872.006	0.0153889
872.084	0.0152847
872.163	0.0153088
872.241	0.0152879
872.319	0.0151922
872.397	0.0151699
872.475	0.0151529
872.553	0.0151530
872.631	0.0152115
872.709	0.0150847
872.788	0.0151369
872.866	0.0150426
872.944	0.0149934
873.022	0.0149662
873.100	0.0151286
873.178	0.0150524
873.256	0.0148441
873.334	0.0150020
873.413	0.0148174
873.491	0.0149556
873.569	0.0149316
873.647	0.0148184
873.725	0.0149645
873.803	0.0149690
873.881	0.0148639
873.959	0.0150777
874.038	0.0150701
874.116	0.0149672
874.194	0.0150217
874.272	0.0150169
874.350	0.0150591
874.428	0.0150225
874.506	0.0151398
874.584	0.0151492
874.663	0.0151608
874.741	0.0151991
874.819	0.0150766
874.897	0.0152381
874.975	0.0151365
875.053	0.0150332
875.131	0.0152176
875.209	0.0151481
875.288	0.0153125
875.366	0.0151966
875.444	0.0151279
875.522	0.0150084
875.600	0.0152219
875.678	0.0150455
875.756	0.0151755
875.834	0.0149976
875.913	0.0151390
875.991	0.0151700
876.069	0.0151584
876.147	0.0151425
876.225	0.0149968
876.303	0.0151469
876.381	0.0150716
876.459	0.0152438
876.538	0.0149830
876.616	0.0151630
876.694	0.0150191
876.772	0.0152496
876.850	0.0150978
876.928	0.0149679
877.006	0.0150700
877.084	0.0151193
877.163	0.0151756
877.241	0.0150814
877.319	0.0150764
877.397	0.0150190
877.475	0.0150819
877.553	0.0150983
877.631	0.0150510
877.709	0.0151035
877.788	0.0153317
877.866	0.0151190
877.944	0.0151163
878.022	0.0152515
878.100	0.0152641
878.178	0.0151223
878.256	0.0150530
878.334	0.0150500
878.413	0.0151257
878.491	0.0153320
878.569	0.0152923
878.647	0.0150951
878.725	0.0151813
878.803	0.0150745
878.881	0.0148837
878.959	0.0150349
879.038	0.0150761
879.116	0.0149992
879.194	0.0150527
879.272	0.0149963
879.350	0.0150180
879.428	0.0150760
879.506	0.0151305
879.584	0.0151728
879.663	0.0151048
879.741	0.0150583
879.819	0.0151809
879.897	0.0151981
879.975	0.0150695
880.053	0.0152492
880.131	0.0150681
880.209	0.0151003
880.288	0.0152052
880.366	0.0150756
880.444	0.0151340
880.522	0.0151673
880.600	0.0151357
880.678	0.0150811
880.756	0.0151711
880.834	0.0151935
880.913	0.0152625
880.991	0.0151740
881.069	0.0151073
881.147	0.0152144
881.225	0.0153041
881.303	0.0151274
881.381	0.0153264
881.459	0.0152258
881.538	0.0151427
881.616	0.0152309
881.694	0.0153370
881.772	0.0154004
881.850	0.0151971
881.928	0.0153294
882.006	0.0153690
882.084	0.0151466
882.163	0.0151930
882.241	0.0151300
882.319	0.0151115
882.397	0.0151430
882.475	0.0151562
882.553	0.0152260
882.631	0.0150162
882.709	0.0150618
882.788	0.0151440
882.866	0.0151183
882.944	0.0150626
883.022	0.0150240
883.100	0.0152077
883.178	0.0150893
883.256	0.0151379
883.334	0.0151532
883.413	0.0151574
883.491	0.0150149
883.569	0.0151000
883.647	0.0151472
883.725	0.0149904
883.803	0.0151840
883.881	0.0150714
883.959	0.0151328
884.038	0.0152745
884.116	0.0150709
884.194	0.0151868
884.272	0.0153110
884.350	0.0151817
884.428	0.0153044
884.506	0.0151347
884.584	0.0152145
884.663	0.0154117
884.741	0.0151975
884.819	0.0152409
884.897	0.0152948
884.975	0.0151855
885.053	0.0152160
885.131	0.0152552
885.209	0.0153796
885.288	0.0152454
885.366	0.0152287
885.444	0.0151440
885.522	0.0152557
885.600	0.0153745
885.678	0.0152662
885.756	0.0152602
885.834	0.0151634
885.913	0.0149789
885.991	0.0151395
886.069	0.0153712
886.147	0.0150932
886.225	0.0149774
886.303	0.0151839
886.381	0.0150945
886.459	0.0152917
886.538	0.0149525
886.616	0.0150120
886.694	0.0150587
886.772	0.0150858
886.850	0.0151393
886.928	0.0150232
887.006	0.0149578
887.084	0.0150219
887.163	0.0149180
887.241	0.0151047
887.319	0.0151162
887.397	0.0151971
887.475	0.0151512
887.553	0.0151062
887.631	0.0150888
887.709	0.0151105
887.788	0.0151773
887.866	0.0151464
887.944	0.0151335
888.022	0.0150465
888.100	0.0152380
888.178	0.0151107
888.256	0.0151242
888.334	0.0151077
888.413	0.0151279
888.491	0.0150194
888.569	0.0150098
888.647	0.0149942
888.725	0.0150969
888.803	0.0151559
888.881	0.0150394
888.959	0.0151271
889.038	0.0151546
889.116	0.0151946
889.194	0.0151242
889.272	0.0148932
889.350	0.0151292
889.428	0.0150103
889.506	0.0151291
889.584	0.0151505
889.663	0.0151280
889.741	0.0151279
889.819	0.0151114
889.897	0.0150860
889.975	0.0150753
890.053	0.0151051
890.131	0.0152476
890.209	0.0151867
890.288	0.0151637
890.366	0.0151321
890.444	0.0150201
890.522	0.0152661
890.600	0.0150691
890.678	0.0151248
890.756	0.0149901
890.834	0.0149796
890.913	0.0150297
890.991	0.0150230
891.069	0.0151913
891.147	0.0148958
891.225	0.0151602
891.303	0.0149920
891.381	0.0150503
891.459	0.0151114
891.538	0.0150793
891.616	0.0151420
891.694	0.0150342
891.772	0.0151113
891.850	0.0149636
891.928	0.0152839
892.006	0.0152748
892.084	0.0152867
892.163	0.0152026
892.241	0.0152917
892.319	0.0153529
892.397	0.0153489
892.475	0.0152035
892.553	0.0152940
892.631	0.0152721
892.709	0.0152433
892.788	0.0152825
892.866	0.0152704
892.944	0.0152848
893.022	0.0150471
893.100	0.0151844
893.178	0.0152151
893.256	0.0151685
893.334	0.0151285
893.413	0.0151020
893.491	0.0150804
893.569	0.0150296
893.647	0.0150219
893.725	0.0149625
893.803	0.0150168
893.881	0.0150420
893.959	0.0152221
894.038	0.0150681
894.116	0.0149628
894.194	0.0150095
894.272	0.0149193
894.350	0.0150063
894.428	0.0150465
894.506	0.0149947
894.584	0.0150767
894.663	0.0151602
894.741	0.0151752
894.819	0.0150523
894.897	0.0151038
894.975	0.0151007
895.053	0.0152357
895.131	0.0153706
895.209	0.0153487
895.288	0.0152431
895.366	0.0153017
895.444	0.0153133
895.522	0.0153454
895.600	0.0150653
895.678	0.0151984
895.756	0.0151551
895.834	0.0152540
895.913	0.0151000
895.991	0.0150092
896.069	0.0152362
896.147	0.0150876
896.225	0.0151369
896.303	0.0150286
896.381	0.0152144
896.459	0.0151659
896.538	0.0150845
896.616	0.0151229
896.694	0.0151667
896.772	0.0151755
896.850	0.0151838
896.928	0.0152338
897.006	0.0150716
897.084	0.0153740
897.163	0.0154124
897.241	0.0153409
897.319	0.0152109
897.397	0.0154289
897.475	0.0153918
897.553	0.0152833
897.631	0.0153362
897.709	0.0153168
897.788	0.0153943
897.866	0.0153852
897.944	0.0154306
898.022	0.0153530
898.100	0.0154617
898.178	0.0154109
898.256	0.0153551
898.334	0.0152711
898.413	0.0152857
898.491	0.0153676
898.569	0.0152604
898.647	0.0152566
898.725	0.0153773
898.803	0.0152423
898.881	0.0152496
898.959	0.0152934
899.038	0.0152531
899.116	0.0151712
899.194	0.0153284
899.272	0.0151663
899.350	0.0151084
899.428	0.0151511
899.506	0.0150974
899.584	0.0151527
899.663	0.0151887
899.741	0.0151139
899.819	0.0149609
899.897	0.0151176
899.975	0.0152016
900.053	0.0151582
900.131	0.0151290
900.209	0.0152077
900.288	0.0150008
900.366	0.0151942
900.444	0.0151691
900.522	0.0150795
900.600	0.0149892
900.678	0.0151147
900.756	0.0152327
900.834	0.0151852
900.913	0.0150998
900.991	0.0150825
901.069	0.0151888
901.147	0.0153165
901.225	0.0151357
901.303	0.0151367
901.381	0.0151356
901.459	0.0152103
901.538	0.0151085
901.616	0.0151790
901.694	0.0153139
901.772	0.0151713
901.850	0.0152087
901.928	0.0151672
902.006	0.0151407
902.084	0.0153573
902.163	0.0152943
902.241	0.0152399
902.319	0.0152784
902.397	0.0151854
902.475	0.0152861
902.553	0.0152937
902.631	0.0152775
902.709	0.0151767
902.788	0.0151218
902.866	0.0152803
902.944	0.0151876
903.022	0.0151309
903.100	0.0152158
903.178	0.0150861
903.256	0.0151257
903.334	0.0152374
903.413	0.0152068
903.491	0.0150479
903.569	0.0151530
903.647	0.0150665
903.725	0.0150034
903.803	0.0149694
903.881	0.0150484
903.959	0.0151556
904.038	0.0150372
904.116	0.0149995
904.194	0.0152047
904.272	0.0150478
904.350	0.0151926
904.428	0.0150391
904.506	0.0152087
904.584	0.0151105
904.663	0.0152448
904.741	0.0152404
904.819	0.0151495
904.897	0.0151320
904.975	0.0153088
905.053	0.0152845
905.131	0.0152287
905.209	0.0153897
905.288	0.0153569
905.366	0.0152831
905.444	0.0152449
905.522	0.0151707
905.600	0.0153111
905.678	0.0152011
905.756	0.0152118
905.834	0.0152823
905.913	0.0153574
905.991	0.0152388
906.069	0.0152421
906.147	0.0152641
906.225	0.0153001
906.303	0.0152533
906.381	0.0151804
906.459	0.0151986
906.538	0.0152743
906.616	0.0151937
906.694	0.0153174
906.772	0.0152039
906.850	0.0152174
906.928	0.0151257
907.006	0.0151665
907.084	0.0152169
907.163	0.0152057
907.241	0.0152403
907.319	0.0151362
907.397	0.0149921
907.475	0.0151398
907.553	0.0151143
907.631	0.0152368
907.709	0.0151176
907.788	0.0149854
907.866	0.0151668
907.944	0.0151826
908.022	0.0149988
908.100	0.0151627
908.178	0.0151066
908.256	0.0150377
908.334	0.0151482
908.413	0.0150809
908.491	0.0150748
908.569	0.0150806
908.647	0.0151322
908.725	0.0151688
908.803	0.0151328
908.881	0.0150410
908.959	0.0150976
909.038	0.0151027
909.116	0.0150380
909.194	0.0151021
909.272	0.0150885
909.350	0.0148786
909.428	0.0150494
909.506	0.0149956
909.584	0.0149265
909.663	0.0150594
909.741	0.0150224
909.819	0.0150902
909.897	0.0148689
909.975	0.0149845
910.053	0.0148946
910.131	0.0149060
910.209	0.0150634
910.288	0.0151229
910.366	0.0151549
910.444	0.0151065
910.522	0.0150363
910.600	0.0150656
910.678	0.0149505
910.756	0.0152006
910.834	0.0150788
910.913	0.0152760
910.991	0.0151927
911.069	0.0152625
911.147	0.0151421
911.225	0.0153602
911.303	0.0152811
911.381	0.0152752
911.459	0.0152779
911.538	0.0151697
911.616	0.0152250
911.694	0.0153179
911.772	0.0152603
911.850	0.0151495
911.928	0.0152727
912.006	0.0153187
912.084	0.0151926
912.163	0.0152794
912.241	0.0154187
912.319	0.0151516
912.397	0.0152767
912.475	0.0152341
912.553	0.0152879
912.631	0.0152425
912.709	0.0152121
912.788	0.0152081
912.866	0.0153087
912.944	0.0152619
913.022	0.0154139
913.100	0.0152678
913.178	0.0152547
913.256	0.0153146
913.334	0.0153922
913.413	0.0152226
913.491	0.0152596
913.569	0.0153795
913.647	0.0153971
913.725	0.0153376
913.803	0.0152947
913.881	0.0152275
913.959	0.0153059
914.038	0.0151343
914.116	0.0150269
914.194	0.0151030
914.272	0.0152022
914.350	0.0151112
914.428	0.0149654
914.506	0.0151096
914.584	0.0149393
914.663	0.0148717
914.741	0.0149623
914.819	0.0148872
914.897	0.0150171
914.975	0.0149642
915.053	0.0150189
915.131	0.0149575
915.209	0.0150137
915.288	0.0150148
915.366	0.0152235
915.444	0.0151256
915.522	0.0150836
915.600	0.0151567
915.678	0.0151161
915.756	0.0151347
915.834	0.0151195
915.913	0.0151168
915.991	0.0150755
916.069	0.0151241
916.147	0.0151455
916.225	0.0152091
916.303	0.0151243
916.381	0.0151476
916.459	0.0149812
916.538	0.0151628
916.616	0.0151717
916.694	0.0151690
916.772	0.0151622
916.850	0.0151224
916.928	0.0150401
917.006	0.0150607
917.084	0.0150501
917.163	0.0151019
917.241	0.0149284
917.319	0.0151623
917.397	0.0151329
917.475	0.0150839
917.553	0.0151323
917.631	0.0152139
917.709	0.0151125
917.788	0.0150697
917.866	0.0151778
917.944	0.0152144
918.022	0.0152308
918.100	0.0150917
918.178	0.0150893
918.256	0.0150916
918.334	0.0151809
918.413	0.0150732
918.491	0.0151241
918.569	0.0152146
918.647	0.0152074
918.725	0.0150736
918.803	0.0152934
918.881	0.0151790
918.959	0.0151026
919.038	0.0151933
919.116	0.0152165
919.194	0.0152261
919.272	0.0152691
919.350	0.0152407
919.428	0.0152750
919.506	0.0152754
919.584	0.0152663
919.663	0.0152920
919.741	0.0152359
919.819	0.0152134
919.897	0.0152838
