05/20/2022	20:37:12	Ver.	4.1	UNKNOWN
Optical Delay	599.981738	Delta X		0.078125	Sweeps	1	Scan Rate	0/0
Coordinates	Axis 1	NaN	Axis 2	NaN	Axis 3	NaN	Axis 4	NaN	Axis 5	NaN	Axis 6	0.000000
TX Power	0.000000	RX Power	0.000000

599.982	0.0153146
600.060	0.0152866
600.138	0.0152708
600.216	0.0152484
600.294	0.0153049
600.372	0.0153077
600.450	0.0153451
600.529	0.0153310
600.607	0.0153430
600.685	0.0152984
600.763	0.0153850
600.841	0.0153311
600.919	0.0153722
600.997	0.0152667
601.075	0.0152541
601.154	0.0153703
601.232	0.0154803
601.310	0.0153098
601.388	0.0153049
601.466	0.0153930
601.544	0.0153792
601.622	0.0152560
601.700	0.0152961
601.779	0.0155697
601.857	0.0153812
601.935	0.0153002
602.013	0.0152122
602.091	0.0152483
602.169	0.0152868
602.247	0.0153153
602.325	0.0153382
602.404	0.0153252
602.482	0.0153088
602.560	0.0152030
602.638	0.0154652
602.716	0.0153690
602.794	0.0153550
602.872	0.0154078
602.950	0.0153578
603.029	0.0152930
603.107	0.0153439
603.185	0.0153681
603.263	0.0153436
603.341	0.0153455
603.419	0.0153361
603.497	0.0152798
603.575	0.0154077
603.654	0.0152884
603.732	0.0151794
603.810	0.0153330
603.888	0.0152309
603.966	0.0154681
604.044	0.0153317
604.122	0.0152694
604.200	0.0153221
604.279	0.0153709
604.357	0.0153508
604.435	0.0153621
604.513	0.0152346
604.591	0.0152533
604.669	0.0154108
604.747	0.0153628
604.825	0.0152869
604.904	0.0152531
604.982	0.0153158
605.060	0.0152553
605.138	0.0153083
605.216	0.0153037
605.294	0.0152592
605.372	0.0153844
605.450	0.0153135
605.529	0.0153418
605.607	0.0153383
605.685	0.0155006
605.763	0.0154418
605.841	0.0153581
605.919	0.0153104
605.997	0.0152993
606.075	0.0154633
606.154	0.0152495
606.232	0.0153723
606.310	0.0154240
606.388	0.0154190
606.466	0.0153345
606.544	0.0152158
606.622	0.0153678
606.700	0.0152669
606.779	0.0153621
606.857	0.0154315
606.935	0.0153072
607.013	0.0152734
607.091	0.0154070
607.169	0.0152537
607.247	0.0153350
607.325	0.0153537
607.404	0.0154761
607.482	0.0153742
607.560	0.0152749
607.638	0.0152354
607.716	0.0153012
607.794	0.0154317
607.872	0.0152559
607.950	0.0152908
608.029	0.0153107
608.107	0.0154105
608.185	0.0154082
608.263	0.0151984
608.341	0.0153207
608.419	0.0153326
608.497	0.0153889
608.575	0.0153571
608.654	0.0153590
608.732	0.0153056
608.810	0.0153480
608.888	0.0153617
608.966	0.0153259
609.044	0.0153500
609.122	0.0153784
609.200	0.0153166
609.279	0.0152601
609.357	0.0154626
609.435	0.0152924
609.513	0.0152251
609.591	0.0153986
609.669	0.0153419
609.747	0.0153500
609.825	0.0154742
609.904	0.0152688
609.982	0.0153093
610.060	0.0153418
610.138	0.0153075
610.216	0.0152618
610.294	0.0152891
610.372	0.0153218
610.450	0.0151712
610.529	0.0152665
610.607	0.0153562
610.685	0.0154189
610.763	0.0152947
610.841	0.0152493
610.919	0.0153763
610.997	0.0152721
611.075	0.0153009
611.154	0.0153733
611.232	0.0153131
611.310	0.0153094
611.388	0.0153063
611.466	0.0152173
611.544	0.0152762
611.622	0.0153307
611.700	0.0152556
611.779	0.0153227
611.857	0.0153094
611.935	0.0153925
612.013	0.0153520
612.091	0.0152390
612.169	0.0153504
612.247	0.0153609
612.325	0.0153825
612.404	0.0154194
612.482	0.0154370
612.560	0.0152657
612.638	0.0151756
612.716	0.0153236
612.794	0.0152971
612.872	0.0154547
612.950	0.0152998
613.029	0.0153041
613.107	0.0151841
613.185	0.0153829
613.263	0.0153693
613.341	0.0152485
613.419	0.0152753
613.497	0.0151562
613.575	0.0151708
613.654	0.0153243
613.732	0.0152566
613.810	0.0151553
613.888	0.0153480
613.966	0.0154247
614.044	0.0152515
614.122	0.0152180
614.200	0.0152732
614.279	0.0154918
614.357	0.0154540
614.435	0.0152820
614.513	0.0151494
614.591	0.0153130
614.669	0.0152821
614.747	0.0153981
614.825	0.0152561
614.904	0.0153161
614.982	0.0154560
615.060	0.0152977
615.138	0.0152496
615.216	0.0153934
615.294	0.0152699
615.372	0.0153571
615.450	0.0152908
615.529	0.0153003
615.607	0.0153049
615.685	0.0152759
615.763	0.0153712
615.841	0.0151926
615.919	0.0154858
615.997	0.0153875
616.075	0.0153870
616.154	0.0152283
616.232	0.0151622
616.310	0.0152531
616.388	0.0154626
616.466	0.0154076
616.544	0.0153609
616.622	0.0151907
616.700	0.0153564
616.779	0.0152719
616.857	0.0153333
616.935	0.0153177
617.013	0.0151392
617.091	0.0152979
617.169	0.0154941
617.247	0.0152391
617.325	0.0152010
617.404	0.0153360
617.482	0.0153142
617.560	0.0152670
617.638	0.0154188
617.716	0.0153985
617.794	0.0152197
617.872	0.0152882
617.950	0.0153629
618.029	0.0153512
618.107	0.0154420
618.185	0.0154195
618.263	0.0152151
618.341	0.0154337
618.419	0.0154739
618.497	0.0154483
618.575	0.0153491
618.654	0.0153732
618.732	0.0152802
618.810	0.0153033
618.888	0.0152369
618.966	0.0153613
619.044	0.0152942
619.122	0.0152419
619.200	0.0152599
619.279	0.0152406
619.357	0.0152869
619.435	0.0153773
619.513	0.0152308
619.591	0.0152450
619.669	0.0153413
619.747	0.0152393
619.825	0.0152403
619.904	0.0153951
619.982	0.0152072
620.060	0.0151348
620.138	0.0152010
620.216	0.0153470
620.294	0.0152729
620.372	0.0153049
620.450	0.0152367
620.529	0.0152696
620.607	0.0153296
620.685	0.0153348
620.763	0.0152767
620.841	0.0153150
620.919	0.0152310
620.997	0.0153030
621.075	0.0153424
621.154	0.0152458
621.232	0.0152248
621.310	0.0152796
621.388	0.0152870
621.466	0.0152698
621.544	0.0152881
621.622	0.0151554
621.700	0.0153517
621.779	0.0152684
621.857	0.0153036
621.935	0.0153257
622.013	0.0153057
622.091	0.0152889
622.169	0.0153036
622.247	0.0153732
622.325	0.0152524
622.404	0.0153102
622.482	0.0153156
622.560	0.0152734
622.638	0.0151139
622.716	0.0152831
622.794	0.0154700
622.872	0.0154456
622.950	0.0153664
623.029	0.0152495
623.107	0.0152580
623.185	0.0152871
623.263	0.0152397
623.341	0.0153334
623.419	0.0152973
623.497	0.0152004
623.575	0.0152330
623.654	0.0153329
623.732	0.0152472
623.810	0.0153902
623.888	0.0153818
623.966	0.0151551
624.044	0.0152723
624.122	0.0152059
624.200	0.0154221
624.279	0.0152510
624.357	0.0152876
624.435	0.0153997
624.513	0.0152898
624.591	0.0153229
624.669	0.0152934
624.747	0.0152739
624.825	0.0153659
624.904	0.0152954
624.982	0.0151971
625.060	0.0153406
625.138	0.0154274
625.216	0.0152675
625.294	0.0153432
625.372	0.0154131
625.450	0.0153497
625.529	0.0152558
625.607	0.0153003
625.685	0.0152959
625.763	0.0153598
625.841	0.0153465
625.919	0.0153197
625.997	0.0153779
626.075	0.0153748
626.154	0.0151109
626.232	0.0151744
626.310	0.0153774
626.388	0.0153994
626.466	0.0152637
626.544	0.0153015
626.622	0.0154305
626.700	0.0154852
626.779	0.0152734
626.857	0.0153172
626.935	0.0153675
627.013	0.0152405
627.091	0.0152751
627.169	0.0153037
627.247	0.0153175
627.325	0.0152825
627.404	0.0153283
627.482	0.0152607
627.560	0.0152435
627.638	0.0152701
627.716	0.0153475
627.794	0.0153355
627.872	0.0152239
627.950	0.0153207
628.029	0.0152915
628.107	0.0154250
628.185	0.0151497
628.263	0.0151659
628.341	0.0152914
628.419	0.0152544
628.497	0.0152396
628.575	0.0151020
628.654	0.0152714
628.732	0.0152499
628.810	0.0152457
628.888	0.0152692
628.966	0.0152098
629.044	0.0153075
629.122	0.0153315
629.200	0.0152561
629.279	0.0151620
629.357	0.0153598
629.435	0.0153922
629.513	0.0153616
629.591	0.0151839
629.669	0.0152272
629.747	0.0154185
629.825	0.0153693
629.904	0.0153143
629.982	0.0153710
630.060	0.0153893
630.138	0.0155096
630.216	0.0154053
630.294	0.0153249
630.372	0.0152642
630.450	0.0153085
630.529	0.0152060
630.607	0.0153526
630.685	0.0153650
630.763	0.0152922
630.841	0.0152863
630.919	0.0152634
630.997	0.0153014
631.075	0.0153712
631.154	0.0154105
631.232	0.0153388
631.310	0.0152566
631.388	0.0154276
631.466	0.0153816
631.544	0.0153425
631.622	0.0153313
631.700	0.0153487
631.779	0.0153329
631.857	0.0153416
631.935	0.0152721
632.013	0.0153261
632.091	0.0153458
632.169	0.0151908
632.247	0.0153008
632.325	0.0152935
632.404	0.0153155
632.482	0.0152973
632.560	0.0153230
632.638	0.0153136
632.716	0.0152569
632.794	0.0152021
632.872	0.0152214
632.950	0.0151393
633.029	0.0152968
633.107	0.0153756
633.185	0.0151844
633.263	0.0152926
633.341	0.0152644
633.419	0.0153368
633.497	0.0152858
633.575	0.0151776
633.654	0.0153134
633.732	0.0153817
633.810	0.0152218
633.888	0.0152143
633.966	0.0152306
634.044	0.0152749
634.122	0.0152918
634.200	0.0153381
634.279	0.0155170
634.357	0.0154237
634.435	0.0151968
634.513	0.0153519
634.591	0.0153955
634.669	0.0153720
634.747	0.0152435
634.825	0.0153410
634.904	0.0153277
634.982	0.0152845
635.060	0.0152962
635.138	0.0154102
635.216	0.0153169
635.294	0.0152691
635.372	0.0152069
635.450	0.0153532
635.529	0.0153120
635.607	0.0153351
635.685	0.0154230
635.763	0.0152248
635.841	0.0153362
635.919	0.0153688
635.997	0.0152832
636.075	0.0153055
636.154	0.0152753
636.232	0.0153224
636.310	0.0153781
636.388	0.0154213
636.466	0.0152889
636.544	0.0152946
636.622	0.0153042
636.700	0.0151957
636.779	0.0152228
636.857	0.0153480
636.935	0.0152364
637.013	0.0153916
637.091	0.0152522
637.169	0.0153744
637.247	0.0151972
637.325	0.0152868
637.404	0.0152843
637.482	0.0153500
637.560	0.0152481
637.638	0.0152506
637.716	0.0153277
637.794	0.0152446
637.872	0.0153196
637.950	0.0153439
638.029	0.0154082
638.107	0.0152184
638.185	0.0153722
638.263	0.0152423
638.341	0.0152850
638.419	0.0151788
638.497	0.0152522
638.575	0.0154026
638.654	0.0152850
638.732	0.0153248
638.810	0.0153401
638.888	0.0153078
638.966	0.0152769
639.044	0.0152013
639.122	0.0153675
639.200	0.0152515
639.279	0.0153208
639.357	0.0153714
639.435	0.0153139
639.513	0.0152357
639.591	0.0153959
639.669	0.0154164
639.747	0.0153550
639.825	0.0153007
639.904	0.0151643
639.982	0.0153740
640.060	0.0152598
640.138	0.0152473
640.216	0.0153221
640.294	0.0152584
640.372	0.0153555
640.450	0.0153525
640.529	0.0151901
640.607	0.0153539
640.685	0.0153393
640.763	0.0152191
640.841	0.0153012
640.919	0.0151261
640.997	0.0152122
641.075	0.0152222
641.154	0.0153773
641.232	0.0152883
641.310	0.0153565
641.388	0.0152380
641.466	0.0152258
641.544	0.0152694
641.622	0.0151590
641.700	0.0153015
641.779	0.0152615
641.857	0.0153064
641.935	0.0152668
642.013	0.0152250
642.091	0.0152652
642.169	0.0151521
642.247	0.0153681
642.325	0.0152422
642.404	0.0152877
642.482	0.0153816
642.560	0.0153561
642.638	0.0153118
642.716	0.0154230
642.794	0.0153030
642.872	0.0152987
642.950	0.0152795
643.029	0.0151949
643.107	0.0152013
643.185	0.0154568
643.263	0.0152975
643.341	0.0153576
643.419	0.0152581
643.497	0.0153970
643.575	0.0152928
643.654	0.0153735
643.732	0.0153913
643.810	0.0152365
643.888	0.0152065
643.966	0.0152891
644.044	0.0154401
644.122	0.0153601
644.200	0.0152190
644.279	0.0153915
644.357	0.0154106
644.435	0.0152151
644.513	0.0153972
644.591	0.0153651
644.669	0.0152145
644.747	0.0152615
644.825	0.0153151
644.904	0.0153851
644.982	0.0153755
645.060	0.0152152
645.138	0.0153706
645.216	0.0153996
645.294	0.0154185
645.372	0.0154066
645.450	0.0152895
645.529	0.0154792
645.607	0.0153017
645.685	0.0153517
645.763	0.0151372
645.841	0.0152496
645.919	0.0153468
645.997	0.0154104
646.075	0.0153078
646.154	0.0153295
646.232	0.0153132
646.310	0.0151932
646.388	0.0153193
646.466	0.0153491
646.544	0.0153233
646.622	0.0151164
646.700	0.0154129
646.779	0.0152935
646.857	0.0153712
646.935	0.0152576
647.013	0.0152698
647.091	0.0153507
647.169	0.0152737
647.247	0.0153716
647.325	0.0153134
647.404	0.0151604
647.482	0.0153783
647.560	0.0153299
647.638	0.0152763
647.716	0.0152869
647.794	0.0153090
647.872	0.0152496
647.950	0.0152443
648.029	0.0153262
648.107	0.0152718
648.185	0.0153577
648.263	0.0151913
648.341	0.0152183
648.419	0.0153507
648.497	0.0152636
648.575	0.0152765
648.654	0.0152902
648.732	0.0152445
648.810	0.0151960
648.888	0.0152220
648.966	0.0152784
649.044	0.0152745
649.122	0.0152521
649.200	0.0152649
649.279	0.0153125
649.357	0.0152466
649.435	0.0152544
649.513	0.0154279
649.591	0.0153644
649.669	0.0152062
649.747	0.0151863
649.825	0.0152206
649.904	0.0152911
649.982	0.0153347
650.060	0.0153613
650.138	0.0152640
650.216	0.0152121
650.294	0.0152705
650.372	0.0153437
650.450	0.0152675
650.529	0.0152320
650.607	0.0153382
650.685	0.0153603
650.763	0.0153585
650.841	0.0153182
650.919	0.0153791
650.997	0.0153399
651.075	0.0153011
651.154	0.0151398
651.232	0.0152105
651.310	0.0153667
651.388	0.0152678
651.466	0.0152678
651.544	0.0153434
651.622	0.0153667
651.700	0.0152497
651.779	0.0152850
651.857	0.0152953
651.935	0.0152214
652.013	0.0154536
652.091	0.0153175
652.169	0.0152849
652.247	0.0152363
652.325	0.0153377
652.404	0.0151576
652.482	0.0152551
652.560	0.0152378
652.638	0.0154721
652.716	0.0154417
652.794	0.0152534
652.872	0.0151901
652.950	0.0152077
653.029	0.0154155
653.107	0.0154292
653.185	0.0152032
653.263	0.0152399
653.341	0.0152995
653.419	0.0152731
653.497	0.0151759
653.575	0.0152343
653.654	0.0151652
653.732	0.0151530
653.810	0.0153017
653.888	0.0152301
653.966	0.0153205
654.044	0.0152730
654.122	0.0153699
654.200	0.0153004
654.279	0.0152327
654.357	0.0153480
654.435	0.0152783
654.513	0.0153767
654.591	0.0154624
654.669	0.0152985
654.747	0.0153335
654.825	0.0152932
654.904	0.0153624
654.982	0.0151941
655.060	0.0153296
655.138	0.0151763
655.216	0.0152592
655.294	0.0153344
655.372	0.0152885
655.450	0.0152644
655.529	0.0152252
655.607	0.0154609
655.685	0.0151741
655.763	0.0152473
655.841	0.0152290
655.919	0.0151871
655.997	0.0153387
656.075	0.0153385
656.154	0.0154013
656.232	0.0153678
656.310	0.0153549
656.388	0.0152502
656.466	0.0151868
656.544	0.0152721
656.622	0.0153094
656.700	0.0154137
656.779	0.0153130
656.857	0.0151897
656.935	0.0152790
657.013	0.0151134
657.091	0.0153864
657.169	0.0152990
657.247	0.0153556
657.325	0.0153870
657.404	0.0153195
657.482	0.0152677
657.560	0.0151633
657.638	0.0153223
657.716	0.0152338
657.794	0.0151349
657.872	0.0152502
657.950	0.0151558
658.029	0.0151633
658.107	0.0152737
658.185	0.0153403
658.263	0.0151740
658.341	0.0152628
658.419	0.0152640
658.497	0.0152209
658.575	0.0153321
658.654	0.0152980
658.732	0.0153248
658.810	0.0153030
658.888	0.0153663
658.966	0.0153714
659.044	0.0152515
659.122	0.0153008
659.200	0.0154067
659.279	0.0153085
659.357	0.0152504
659.435	0.0154689
659.513	0.0154749
659.591	0.0151538
659.669	0.0152064
659.747	0.0153809
659.825	0.0152690
659.904	0.0152776
659.982	0.0152571
660.060	0.0153220
660.138	0.0154030
660.216	0.0153810
660.294	0.0153350
660.372	0.0153538
660.450	0.0153086
660.529	0.0153036
660.607	0.0152722
660.685	0.0152193
660.763	0.0153986
660.841	0.0152426
660.919	0.0153679
660.997	0.0152628
661.075	0.0153446
661.154	0.0151867
661.232	0.0153848
661.310	0.0154104
661.388	0.0152124
661.466	0.0152553
661.544	0.0152695
661.622	0.0154417
661.700	0.0152691
661.779	0.0151694
661.857	0.0153797
661.935	0.0152612
662.013	0.0153086
662.091	0.0151726
662.169	0.0152039
662.247	0.0153164
662.325	0.0153168
662.404	0.0152583
662.482	0.0152000
662.560	0.0153294
662.638	0.0153259
662.716	0.0153062
662.794	0.0152153
662.872	0.0152062
662.950	0.0153315
663.029	0.0152172
663.107	0.0152750
663.185	0.0151894
663.263	0.0153166
663.341	0.0153593
663.419	0.0153121
663.497	0.0153071
663.575	0.0153320
663.654	0.0153613
663.732	0.0153149
663.810	0.0153151
663.888	0.0152270
663.966	0.0151932
664.044	0.0152064
664.122	0.0153860
664.200	0.0153364
664.279	0.0152420
664.357	0.0154192
664.435	0.0152840
664.513	0.0153143
664.591	0.0151828
664.669	0.0153453
664.747	0.0153508
664.825	0.0152010
664.904	0.0152216
664.982	0.0152338
665.060	0.0152911
665.138	0.0152673
665.216	0.0153796
665.294	0.0152286
665.372	0.0153817
665.450	0.0153069
665.529	0.0152460
665.607	0.0153548
665.685	0.0154120
665.763	0.0152226
665.841	0.0152037
665.919	0.0152970
665.997	0.0153195
666.075	0.0153244
666.154	0.0152629
666.232	0.0153089
666.310	0.0152378
666.388	0.0153941
666.466	0.0152632
666.544	0.0152850
666.622	0.0151930
666.700	0.0152750
666.779	0.0152870
666.857	0.0152681
666.935	0.0153121
667.013	0.0152776
667.091	0.0152753
667.169	0.0153436
667.247	0.0151895
667.325	0.0151972
667.404	0.0153214
667.482	0.0153681
667.560	0.0153735
667.638	0.0151869
667.716	0.0152272
667.794	0.0154404
667.872	0.0151982
667.950	0.0152644
668.029	0.0152764
668.107	0.0152264
668.185	0.0150994
668.263	0.0151878
668.341	0.0152005
668.419	0.0153226
668.497	0.0152811
668.575	0.0151848
668.654	0.0151641
668.732	0.0153387
668.810	0.0153333
668.888	0.0152204
668.966	0.0151985
669.044	0.0152054
669.122	0.0151340
669.200	0.0151527
669.279	0.0151968
669.357	0.0153175
669.435	0.0152074
669.513	0.0151579
669.591	0.0152510
669.669	0.0152774
669.747	0.0152122
669.825	0.0152804
669.904	0.0151183
669.982	0.0153009
670.060	0.0152889
670.138	0.0151128
670.216	0.0151673
670.294	0.0152872
670.372	0.0150047
670.450	0.0151578
670.529	0.0152142
670.607	0.0151865
670.685	0.0151530
670.763	0.0151698
670.841	0.0151539
670.919	0.0151712
670.997	0.0152143
671.075	0.0152521
671.154	0.0151229
671.232	0.0152152
671.310	0.0152505
671.388	0.0151559
671.466	0.0153392
671.544	0.0152012
671.622	0.0151825
671.700	0.0150719
671.779	0.0151905
671.857	0.0151413
671.935	0.0151247
672.013	0.0152746
672.091	0.0150417
672.169	0.0151225
672.247	0.0153198
672.325	0.0151511
672.404	0.0152193
672.482	0.0152548
672.560	0.0151338
672.638	0.0153487
672.716	0.0151976
672.794	0.0151501
672.872	0.0152418
672.950	0.0152785
673.029	0.0153994
673.107	0.0152922
673.185	0.0153148
673.263	0.0152845
673.341	0.0153413
673.419	0.0153561
673.497	0.0153152
673.575	0.0153188
673.654	0.0152375
673.732	0.0152898
673.810	0.0153057
673.888	0.0153571
673.966	0.0153348
674.044	0.0153701
674.122	0.0152548
674.200	0.0152644
674.279	0.0154380
674.357	0.0153386
674.435	0.0153164
674.513	0.0155515
674.591	0.0154414
674.669	0.0152202
674.747	0.0153624
674.825	0.0153881
674.904	0.0154987
674.982	0.0154827
675.060	0.0153521
675.138	0.0153425
675.216	0.0154202
675.294	0.0152560
675.372	0.0154538
675.450	0.0153017
675.529	0.0154240
675.607	0.0153326
675.685	0.0153547
675.763	0.0154150
675.841	0.0153224
675.919	0.0154362
675.997	0.0154279
676.075	0.0153972
676.154	0.0154135
676.232	0.0154369
676.310	0.0154310
676.388	0.0154961
676.466	0.0153299
676.544	0.0154842
676.622	0.0154340
676.700	0.0155132
676.779	0.0155553
676.857	0.0154118
676.935	0.0154752
677.013	0.0155885
677.091	0.0153224
677.169	0.0153207
677.247	0.0154525
677.325	0.0155185
677.404	0.0154388
677.482	0.0154825
677.560	0.0154333
677.638	0.0153645
677.716	0.0154889
677.794	0.0152865
677.872	0.0154498
677.950	0.0154478
678.029	0.0153576
678.107	0.0154889
678.185	0.0155134
678.263	0.0154058
678.341	0.0153844
678.419	0.0153824
678.497	0.0154485
678.575	0.0154527
678.654	0.0153973
678.732	0.0152772
678.810	0.0153561
678.888	0.0152802
678.966	0.0153639
679.044	0.0153332
679.122	0.0152008
679.200	0.0152152
679.279	0.0152917
679.357	0.0153663
679.435	0.0152574
679.513	0.0152989
679.591	0.0153689
679.669	0.0152750
679.747	0.0153056
679.825	0.0152437
679.904	0.0152229
679.982	0.0153580
680.060	0.0154092
680.138	0.0152649
680.216	0.0151722
680.294	0.0151920
680.372	0.0152764
680.450	0.0152086
680.529	0.0152483
680.607	0.0153249
680.685	0.0152372
680.763	0.0152651
680.841	0.0151486
680.919	0.0151004
680.997	0.0152319
681.075	0.0152594
681.154	0.0150204
681.232	0.0151336
681.310	0.0153680
681.388	0.0152042
681.466	0.0152167
681.544	0.0152353
681.622	0.0152005
681.700	0.0150960
681.779	0.0151515
681.857	0.0151453
681.935	0.0150640
682.013	0.0151204
682.091	0.0152232
682.169	0.0151849
682.247	0.0151608
682.325	0.0153109
682.404	0.0151275
682.482	0.0151865
682.560	0.0151677
682.638	0.0152073
682.716	0.0152118
682.794	0.0153268
682.872	0.0151498
682.950	0.0152380
683.029	0.0152393
683.107	0.0151540
683.185	0.0152358
683.263	0.0152653
683.341	0.0151642
683.419	0.0152138
683.497	0.0152255
683.575	0.0152304
683.654	0.0151426
683.732	0.0151323
683.810	0.0152225
683.888	0.0151231
683.966	0.0151936
684.044	0.0151589
684.122	0.0151314
684.200	0.0152211
684.279	0.0152136
684.357	0.0153194
684.435	0.0152345
684.513	0.0151401
684.591	0.0152660
684.669	0.0153340
684.747	0.0152393
684.825	0.0152017
684.904	0.0151606
684.982	0.0153107
685.060	0.0152177
685.138	0.0152357
685.216	0.0154044
685.294	0.0151815
685.372	0.0151627
685.450	0.0151882
685.529	0.0154142
685.607	0.0153629
685.685	0.0152029
685.763	0.0154238
685.841	0.0152764
685.919	0.0151807
685.997	0.0151897
686.075	0.0151891
686.154	0.0152901
686.232	0.0152082
686.310	0.0152764
686.388	0.0151599
686.466	0.0152721
686.544	0.0153809
686.622	0.0152827
686.700	0.0154103
686.779	0.0152068
686.857	0.0152242
686.935	0.0152442
687.013	0.0152843
687.091	0.0153993
687.169	0.0152934
687.247	0.0151965
687.325	0.0152219
687.404	0.0152933
687.482	0.0152616
687.560	0.0152695
687.638	0.0153286
687.716	0.0152445
687.794	0.0153040
687.872	0.0152447
687.950	0.0152640
688.029	0.0152597
688.107	0.0153439
688.185	0.0152543
688.263	0.0154385
688.341	0.0153242
688.419	0.0154687
688.497	0.0155622
688.575	0.0155189
688.654	0.0155673
688.732	0.0154444
688.810	0.0152236
688.888	0.0150932
688.966	0.0149390
689.044	0.0146732
689.122	0.0144163
689.200	0.0143348
689.279	0.0142912
689.357	0.0144968
689.435	0.0147558
689.513	0.0149738
689.591	0.0155431
689.669	0.0161236
689.747	0.0165971
689.825	0.0172917
689.904	0.0175047
689.982	0.0179112
690.060	0.0178429
690.138	0.0178503
690.216	0.0175992
690.294	0.0169544
690.372	0.0159936
690.450	0.0149470
690.529	0.0137624
690.607	0.0126649
690.685	0.0115213
690.763	0.0105390
690.841	0.0100420
690.919	0.00968590
690.997	0.00970383
691.075	0.0102691
691.154	0.0112952
691.232	0.0126464
691.310	0.0142735
691.388	0.0162901
691.466	0.0180730
691.544	0.0196655
691.622	0.0211836
691.700	0.0224703
691.779	0.0231161
691.857	0.0234235
691.935	0.0232668
692.013	0.0226690
692.091	0.0216982
692.169	0.0201942
692.247	0.0185475
692.325	0.0167169
692.404	0.0147555
692.482	0.0127521
692.560	0.0111935
692.638	0.00951920
692.716	0.00842499
692.794	0.00748947
692.872	0.00685265
692.950	0.00661102
693.029	0.00665596
693.107	0.00724236
693.185	0.00800255
693.263	0.00901085
693.341	0.00995262
693.419	0.0114965
693.497	0.0130403
693.575	0.0146870
693.654	0.0161758
693.732	0.0177505
693.810	0.0193381
693.888	0.0207037
693.966	0.0217672
694.044	0.0226137
694.122	0.0234023
694.200	0.0236811
694.279	0.0237230
694.357	0.0233224
694.435	0.0226192
694.513	0.0221101
694.591	0.0212854
694.669	0.0200856
694.747	0.0188647
694.825	0.0175781
694.904	0.0161952
694.982	0.0148920
695.060	0.0135210
695.138	0.0124321
695.216	0.0112445
695.294	0.0102618
695.372	0.00946495
695.450	0.00883812
695.529	0.00838089
695.607	0.00818100
695.685	0.00803360
695.763	0.00833290
695.841	0.00876869
695.919	0.00929504
695.997	0.0100451
696.075	0.0109264
696.154	0.0118147
696.232	0.0126543
696.310	0.0134643
696.388	0.0143295
696.466	0.0152801
696.544	0.0160522
696.622	0.0167403
696.700	0.0174480
696.779	0.0178489
696.857	0.0183765
696.935	0.0190541
697.013	0.0193952
697.091	0.0197284
697.169	0.0200645
697.247	0.0201266
697.325	0.0202488
697.404	0.0200934
697.482	0.0199826
697.560	0.0196535
697.638	0.0194587
697.716	0.0189207
697.794	0.0185215
697.872	0.0181286
697.950	0.0175874
698.029	0.0167966
698.107	0.0166032
698.185	0.0159743
698.263	0.0153191
698.341	0.0148386
698.419	0.0141480
698.497	0.0136489
698.575	0.0131048
698.654	0.0124754
698.732	0.0118981
698.810	0.0114742
698.888	0.0110605
698.966	0.0106683
699.044	0.0104142
699.122	0.0104807
699.200	0.0102651
699.279	0.0105048
699.357	0.0108807
699.435	0.0110887
699.513	0.0117477
699.591	0.0123291
699.669	0.0132440
699.747	0.0140339
699.825	0.0147375
699.904	0.0154950
699.982	0.0162679
700.060	0.0167753
700.138	0.0174428
700.216	0.0179107
700.294	0.0180175
700.372	0.0181322
700.450	0.0181309
700.529	0.0181867
700.607	0.0179921
700.685	0.0176987
700.763	0.0174284
700.841	0.0173441
700.919	0.0170434
700.997	0.0166918
701.075	0.0166472
701.154	0.0162016
701.232	0.0160186
701.310	0.0160059
701.388	0.0156671
701.466	0.0154383
701.544	0.0152892
701.622	0.0153032
701.700	0.0152249
701.779	0.0150956
701.857	0.0151595
701.935	0.0151431
702.013	0.0151131
702.091	0.0152856
702.169	0.0152705
702.247	0.0154912
702.325	0.0156770
702.404	0.0158086
702.482	0.0159515
702.560	0.0159017
702.638	0.0160145
702.716	0.0161382
702.794	0.0160840
702.872	0.0158490
702.950	0.0155481
703.029	0.0154484
703.107	0.0150800
703.185	0.0147803
703.263	0.0143843
703.341	0.0142041
703.419	0.0139878
703.497	0.0135761
703.575	0.0135276
703.654	0.0133566
703.732	0.0133320
703.810	0.0133012
703.888	0.0132719
703.966	0.0134454
704.044	0.0134964
704.122	0.0136738
704.200	0.0138176
704.279	0.0139602
704.357	0.0141294
704.435	0.0144416
704.513	0.0148632
704.591	0.0151125
704.669	0.0155683
704.747	0.0157645
704.825	0.0160542
704.904	0.0165551
704.982	0.0167895
705.060	0.0168517
705.138	0.0170575
705.216	0.0171356
705.294	0.0172282
705.372	0.0170819
705.450	0.0170100
705.529	0.0168225
705.607	0.0165735
705.685	0.0161524
705.763	0.0159063
705.841	0.0154855
705.919	0.0151534
705.997	0.0147195
706.075	0.0145277
706.154	0.0143672
706.232	0.0140361
706.310	0.0140718
706.388	0.0142825
706.466	0.0143237
706.544	0.0144673
706.622	0.0148429
706.700	0.0151885
706.779	0.0155257
706.857	0.0156808
706.935	0.0160099
707.013	0.0161954
707.091	0.0165961
707.169	0.0167231
707.247	0.0168096
707.325	0.0168082
707.404	0.0169530
707.482	0.0167158
707.560	0.0165440
707.638	0.0163477
707.716	0.0161891
707.794	0.0158409
707.872	0.0156772
707.950	0.0153911
708.029	0.0148812
708.107	0.0146380
708.185	0.0143468
708.263	0.0140138
708.341	0.0137904
708.419	0.0135505
708.497	0.0133821
708.575	0.0134655
708.654	0.0133964
708.732	0.0132433
708.810	0.0135766
708.888	0.0136462
708.966	0.0137157
709.044	0.0139266
709.122	0.0140559
709.200	0.0141189
709.279	0.0145048
709.357	0.0146429
709.435	0.0148311
709.513	0.0150471
709.591	0.0153811
709.669	0.0154716
709.747	0.0157570
709.825	0.0159298
709.904	0.0162088
709.982	0.0165003
710.060	0.0166684
710.138	0.0167201
710.216	0.0169241
710.294	0.0169755
710.372	0.0168256
710.450	0.0167551
710.529	0.0166434
710.607	0.0165330
710.685	0.0163794
710.763	0.0161698
710.841	0.0158923
710.919	0.0156648
710.997	0.0153474
711.075	0.0152055
711.154	0.0150157
711.232	0.0148075
711.310	0.0146243
711.388	0.0146164
711.466	0.0146127
711.544	0.0146485
711.622	0.0146893
711.700	0.0148698
711.779	0.0147155
711.857	0.0146418
711.935	0.0148897
712.013	0.0149233
712.091	0.0149986
712.169	0.0150673
712.247	0.0151897
712.325	0.0151514
712.404	0.0153105
712.482	0.0153475
712.560	0.0152750
712.638	0.0152575
712.716	0.0153650
712.794	0.0154073
712.872	0.0152352
712.950	0.0152235
713.029	0.0153879
713.107	0.0154224
713.185	0.0155421
713.263	0.0155408
713.341	0.0155912
713.419	0.0155232
713.497	0.0154842
713.575	0.0157256
713.654	0.0156037
713.732	0.0154939
713.810	0.0154420
713.888	0.0152000
713.966	0.0152543
714.044	0.0151344
714.122	0.0150720
714.200	0.0151598
714.279	0.0152074
714.357	0.0150149
714.435	0.0152465
714.513	0.0152914
714.591	0.0152607
714.669	0.0154501
714.747	0.0154414
714.825	0.0152316
714.904	0.0154182
714.982	0.0154022
715.060	0.0152036
715.138	0.0151122
715.216	0.0148827
715.294	0.0149072
715.372	0.0149421
715.450	0.0148848
715.529	0.0149185
715.607	0.0149357
715.685	0.0151283
715.763	0.0153739
715.841	0.0154021
715.919	0.0156040
715.997	0.0156961
716.075	0.0157354
716.154	0.0159127
716.232	0.0158810
716.310	0.0156971
716.388	0.0156680
716.466	0.0154797
716.544	0.0152380
716.622	0.0150708
716.700	0.0148450
716.779	0.0145396
716.857	0.0142935
716.935	0.0143185
717.013	0.0140922
717.091	0.0141755
717.169	0.0142095
717.247	0.0144281
717.325	0.0144353
717.404	0.0148073
717.482	0.0150020
717.560	0.0151019
717.638	0.0154242
717.716	0.0156950
717.794	0.0159673
717.872	0.0160298
717.950	0.0161642
718.029	0.0162620
718.107	0.0163623
718.185	0.0162621
718.263	0.0163271
718.341	0.0162571
718.419	0.0162402
718.497	0.0161073
718.575	0.0159964
718.654	0.0158489
718.732	0.0157167
718.810	0.0157734
718.888	0.0155936
718.966	0.0154285
719.044	0.0153737
719.122	0.0152250
719.200	0.0151373
719.279	0.0150865
719.357	0.0147279
719.435	0.0147162
719.513	0.0147256
719.591	0.0148138
719.669	0.0147536
719.747	0.0147046
719.825	0.0147720
719.904	0.0148820
719.982	0.0149130
720.060	0.0151059
720.138	0.0151678
720.216	0.0150929
720.294	0.0153377
720.372	0.0153000
720.450	0.0155650
720.529	0.0155285
720.607	0.0155208
720.685	0.0156305
720.763	0.0157265
720.841	0.0156107
720.919	0.0156416
720.997	0.0155833
721.075	0.0156173
721.154	0.0154465
721.232	0.0155412
721.310	0.0154677
721.388	0.0154256
721.466	0.0155082
721.544	0.0155408
721.622	0.0154891
721.700	0.0152339
721.779	0.0152502
721.857	0.0151075
721.935	0.0151575
722.013	0.0150600
722.091	0.0148717
722.169	0.0148489
722.247	0.0147126
722.325	0.0145834
722.404	0.0145440
722.482	0.0143401
722.560	0.0142257
722.638	0.0142896
722.716	0.0140398
722.794	0.0140766
722.872	0.0142857
722.950	0.0142669
723.029	0.0142519
723.107	0.0143707
723.185	0.0143832
723.263	0.0146680
723.341	0.0147118
723.419	0.0147999
723.497	0.0151568
723.575	0.0152779
723.654	0.0154883
723.732	0.0157665
723.810	0.0158331
723.888	0.0158004
723.966	0.0160183
724.044	0.0159871
724.122	0.0159932
724.200	0.0160108
724.279	0.0158930
724.357	0.0158620
724.435	0.0159514
724.513	0.0159253
724.591	0.0158246
724.669	0.0157864
724.747	0.0156598
724.825	0.0159123
724.904	0.0160297
724.982	0.0159990
725.060	0.0159979
725.138	0.0161308
725.216	0.0161832
725.294	0.0161865
725.372	0.0162047
725.450	0.0161789
725.529	0.0159958
725.607	0.0160310
725.685	0.0159251
725.763	0.0155574
725.841	0.0157389
725.919	0.0156577
725.997	0.0155151
726.075	0.0154928
726.154	0.0154153
726.232	0.0152998
726.310	0.0152198
726.388	0.0150279
726.466	0.0149039
726.544	0.0147650
726.622	0.0148624
726.700	0.0146703
726.779	0.0146178
726.857	0.0145350
726.935	0.0146877
727.013	0.0146117
727.091	0.0146548
727.169	0.0146308
727.247	0.0145873
727.325	0.0146080
727.404	0.0148077
727.482	0.0148582
727.560	0.0148616
727.638	0.0148653
727.716	0.0147956
727.794	0.0149165
727.872	0.0149505
727.950	0.0147895
728.029	0.0151025
728.107	0.0149595
728.185	0.0151312
728.263	0.0151116
728.341	0.0151540
728.419	0.0152808
728.497	0.0153278
728.575	0.0151492
728.654	0.0152037
728.732	0.0150776
728.810	0.0150233
728.888	0.0150666
728.966	0.0149121
729.044	0.0149114
729.122	0.0147232
729.200	0.0146449
729.279	0.0147051
729.357	0.0146989
729.435	0.0147646
729.513	0.0145963
729.591	0.0147655
729.669	0.0150692
729.747	0.0151407
729.825	0.0153819
729.904	0.0155070
729.982	0.0156546
730.060	0.0157595
730.138	0.0158763
730.216	0.0160469
730.294	0.0160313
730.372	0.0161385
730.450	0.0161841
730.529	0.0163650
730.607	0.0163650
730.685	0.0162291
730.763	0.0163321
730.841	0.0160909
730.919	0.0161142
730.997	0.0160516
731.075	0.0159975
731.154	0.0158784
731.232	0.0156771
731.310	0.0156918
731.388	0.0154774
731.466	0.0153902
731.544	0.0155769
731.622	0.0153210
731.700	0.0154543
731.779	0.0154008
731.857	0.0154457
731.935	0.0153613
732.013	0.0153960
732.091	0.0152160
732.169	0.0152756
732.247	0.0151997
732.325	0.0152375
732.404	0.0150156
732.482	0.0150273
732.560	0.0148238
732.638	0.0147993
732.716	0.0148873
732.794	0.0148205
732.872	0.0147057
732.950	0.0146434
733.029	0.0147224
733.107	0.0146387
733.185	0.0145826
733.263	0.0146935
733.341	0.0147556
733.419	0.0147927
733.497	0.0148844
733.575	0.0149181
733.654	0.0149920
733.732	0.0150615
733.810	0.0150648
733.888	0.0150476
733.966	0.0149785
734.044	0.0150325
734.122	0.0148452
734.200	0.0149842
734.279	0.0150425
734.357	0.0148425
734.435	0.0149400
734.513	0.0149200
734.591	0.0147392
734.669	0.0147999
734.747	0.0147366
734.825	0.0149536
734.904	0.0148106
734.982	0.0148661
735.060	0.0150382
735.138	0.0150591
735.216	0.0152322
735.294	0.0154506
735.372	0.0155479
735.450	0.0157353
735.529	0.0157851
735.607	0.0161459
735.685	0.0161369
735.763	0.0161400
735.841	0.0162805
735.919	0.0163017
735.997	0.0162365
736.075	0.0160250
736.154	0.0160963
736.232	0.0159357
736.310	0.0158581
736.388	0.0156076
736.466	0.0155665
736.544	0.0152626
736.622	0.0151902
736.700	0.0150816
736.779	0.0150121
736.857	0.0147657
736.935	0.0146445
737.013	0.0147326
737.091	0.0147511
737.169	0.0147434
737.247	0.0148806
737.325	0.0149992
737.404	0.0151089
737.482	0.0151117
737.560	0.0151702
737.638	0.0150906
737.716	0.0153506
737.794	0.0155406
737.872	0.0156559
737.950	0.0158749
738.029	0.0156875
738.107	0.0157957
738.185	0.0156860
738.263	0.0157842
738.341	0.0158662
738.419	0.0158066
738.497	0.0158079
738.575	0.0155920
738.654	0.0156657
738.732	0.0155589
738.810	0.0154072
738.888	0.0153501
738.966	0.0152454
739.044	0.0151036
739.122	0.0150620
739.200	0.0150114
739.279	0.0150787
739.357	0.0150391
739.435	0.0149922
739.513	0.0150867
739.591	0.0150021
739.669	0.0150218
739.747	0.0150930
739.825	0.0151115
739.904	0.0150806
739.982	0.0151579
740.060	0.0150201
740.138	0.0153289
740.216	0.0152666
740.294	0.0151587
740.372	0.0150482
740.450	0.0152184
740.529	0.0152892
740.607	0.0153790
740.685	0.0153823
740.763	0.0152805
740.841	0.0153394
740.919	0.0153847
740.997	0.0153458
741.075	0.0155149
741.154	0.0154490
741.232	0.0154681
741.310	0.0155926
741.388	0.0154253
741.466	0.0154017
741.544	0.0153104
741.622	0.0151964
741.700	0.0150798
741.779	0.0149149
741.857	0.0150419
741.935	0.0148472
742.013	0.0149903
742.091	0.0147929
742.169	0.0147782
742.247	0.0148713
742.325	0.0149057
742.404	0.0149531
742.482	0.0151859
742.560	0.0149648
742.638	0.0151888
742.716	0.0152434
742.794	0.0151859
742.872	0.0152847
742.950	0.0152786
743.029	0.0155204
743.107	0.0154586
743.185	0.0154476
743.263	0.0155653
743.341	0.0154346
743.419	0.0154062
743.497	0.0155013
743.575	0.0154767
743.654	0.0155509
743.732	0.0157104
743.810	0.0156059
743.888	0.0155522
743.966	0.0154488
744.044	0.0156467
744.122	0.0155822
744.200	0.0156179
744.279	0.0154777
744.357	0.0154761
744.435	0.0154012
744.513	0.0153873
744.591	0.0154756
744.669	0.0153575
744.747	0.0152842
744.825	0.0152642
744.904	0.0152908
744.982	0.0152433
745.060	0.0153150
745.138	0.0149593
745.216	0.0150170
745.294	0.0150847
745.372	0.0148631
745.450	0.0150568
745.529	0.0151128
745.607	0.0150547
745.685	0.0150303
745.763	0.0151863
745.841	0.0152148
745.919	0.0153160
745.997	0.0152492
746.075	0.0154671
746.154	0.0155941
746.232	0.0156197
746.310	0.0156113
746.388	0.0157320
746.466	0.0157188
746.544	0.0157720
746.622	0.0156647
746.700	0.0155854
746.779	0.0157430
746.857	0.0155904
746.935	0.0153222
747.013	0.0155294
747.091	0.0154453
747.169	0.0152061
747.247	0.0152094
747.325	0.0153162
747.404	0.0152867
747.482	0.0150666
747.560	0.0149719
747.638	0.0149824
747.716	0.0149289
747.794	0.0151394
747.872	0.0150282
747.950	0.0150291
748.029	0.0150082
748.107	0.0149396
748.185	0.0150104
748.263	0.0149700
748.341	0.0150005
748.419	0.0149467
748.497	0.0147865
748.575	0.0148379
748.654	0.0150331
748.732	0.0150655
748.810	0.0150964
748.888	0.0152129
748.966	0.0152077
749.044	0.0153222
749.122	0.0153448
749.200	0.0153876
749.279	0.0155222
749.357	0.0153893
749.435	0.0153856
749.513	0.0154015
749.591	0.0154208
749.669	0.0154459
749.747	0.0155039
749.825	0.0153622
749.904	0.0151910
749.982	0.0153845
750.060	0.0153574
750.138	0.0153154
750.216	0.0153821
750.294	0.0153203
750.372	0.0152525
750.450	0.0153343
750.529	0.0152966
750.607	0.0152318
750.685	0.0152011
750.763	0.0154187
750.841	0.0151581
750.919	0.0151954
750.997	0.0152858
751.075	0.0153152
751.154	0.0153702
751.232	0.0152249
751.310	0.0153806
751.388	0.0154808
751.466	0.0155089
751.544	0.0155217
751.622	0.0155863
751.700	0.0157181
751.779	0.0155871
751.857	0.0156356
751.935	0.0156184
752.013	0.0156216
752.091	0.0155407
752.169	0.0154330
752.247	0.0154565
752.325	0.0154871
752.404	0.0153720
752.482	0.0151434
752.560	0.0151633
752.638	0.0152691
752.716	0.0151487
752.794	0.0150355
752.872	0.0150879
752.950	0.0151472
753.029	0.0150858
753.107	0.0150730
753.185	0.0151334
753.263	0.0151054
753.341	0.0152389
753.419	0.0152325
753.497	0.0152905
753.575	0.0153821
753.654	0.0154327
753.732	0.0155370
753.810	0.0155103
753.888	0.0156251
753.966	0.0157093
754.044	0.0157090
754.122	0.0158567
754.200	0.0157535
754.279	0.0155961
754.357	0.0156001
754.435	0.0156419
754.513	0.0155270
754.591	0.0154086
754.669	0.0155141
754.747	0.0154593
754.825	0.0154025
754.904	0.0154259
754.982	0.0152779
755.060	0.0152551
755.138	0.0151955
755.216	0.0151105
755.294	0.0152730
755.372	0.0151505
755.450	0.0150546
755.529	0.0150546
755.607	0.0150119
755.685	0.0150233
755.763	0.0148149
755.841	0.0148913
755.919	0.0147128
755.997	0.0147554
756.075	0.0146706
756.154	0.0146017
756.232	0.0146384
756.310	0.0147462
756.388	0.0146683
756.466	0.0147701
756.544	0.0147576
756.622	0.0150109
756.700	0.0149902
756.779	0.0150307
756.857	0.0150763
756.935	0.0151380
757.013	0.0153831
757.091	0.0154733
757.169	0.0156290
757.247	0.0155689
757.325	0.0155647
757.404	0.0156671
757.482	0.0156763
757.560	0.0156994
757.638	0.0156779
757.716	0.0155385
757.794	0.0155103
757.872	0.0154266
757.950	0.0152948
758.029	0.0153191
758.107	0.0153190
758.185	0.0151345
758.263	0.0150207
758.341	0.0149077
758.419	0.0148139
758.497	0.0148502
758.575	0.0148487
758.654	0.0148515
758.732	0.0149847
758.810	0.0150803
758.888	0.0153063
758.966	0.0151968
759.044	0.0151992
759.122	0.0153688
759.200	0.0156052
759.279	0.0155420
759.357	0.0154702
759.435	0.0155883
759.513	0.0156696
759.591	0.0157142
759.669	0.0158553
759.747	0.0157717
759.825	0.0158675
759.904	0.0156655
759.982	0.0156730
760.060	0.0156944
760.138	0.0157330
760.216	0.0156605
760.294	0.0158777
760.372	0.0159048
760.450	0.0158852
760.529	0.0157155
760.607	0.0156786
760.685	0.0156163
760.763	0.0156815
760.841	0.0155539
760.919	0.0155246
760.997	0.0154996
761.075	0.0153542
761.154	0.0153751
761.232	0.0153477
761.310	0.0153425
761.388	0.0152313
761.466	0.0150710
761.544	0.0150632
761.622	0.0150576
761.700	0.0149717
761.779	0.0149319
761.857	0.0147965
761.935	0.0148898
762.013	0.0150694
762.091	0.0149209
762.169	0.0148986
762.247	0.0149966
762.325	0.0149464
762.404	0.0149030
762.482	0.0148914
762.560	0.0148840
762.638	0.0148743
762.716	0.0149431
762.794	0.0150242
762.872	0.0149536
762.950	0.0150758
763.029	0.0149368
763.107	0.0150661
763.185	0.0151538
763.263	0.0152239
763.341	0.0152618
763.419	0.0152342
763.497	0.0152984
763.575	0.0152337
763.654	0.0153452
763.732	0.0155110
763.810	0.0154408
763.888	0.0154975
763.966	0.0154646
764.044	0.0154450
764.122	0.0154391
764.200	0.0156223
764.279	0.0155126
764.357	0.0155683
764.435	0.0155402
764.513	0.0156175
764.591	0.0155672
764.669	0.0156342
764.747	0.0155220
764.825	0.0156873
764.904	0.0155418
764.982	0.0154352
765.060	0.0155748
765.138	0.0155300
765.216	0.0154306
765.294	0.0154554
765.372	0.0154060
765.450	0.0153805
765.529	0.0153228
765.607	0.0152998
765.685	0.0153232
765.763	0.0152357
765.841	0.0150723
765.919	0.0150514
765.997	0.0150822
766.075	0.0151790
766.154	0.0152609
766.232	0.0151236
766.310	0.0150495
766.388	0.0151261
766.466	0.0149871
766.544	0.0150960
766.622	0.0151065
766.700	0.0152725
766.779	0.0152132
766.857	0.0151729
766.935	0.0152200
767.013	0.0152649
767.091	0.0153093
767.169	0.0151953
767.247	0.0153242
767.325	0.0153490
767.404	0.0151904
767.482	0.0153010
767.560	0.0152542
767.638	0.0153718
767.716	0.0154106
767.794	0.0152947
767.872	0.0153975
767.950	0.0154871
768.029	0.0154952
768.107	0.0155914
768.185	0.0155141
768.263	0.0153157
768.341	0.0154062
768.419	0.0153516
768.497	0.0152718
768.575	0.0151887
768.654	0.0151180
768.732	0.0152762
768.810	0.0152257
768.888	0.0150766
768.966	0.0151823
769.044	0.0150482
769.122	0.0151865
769.200	0.0151678
769.279	0.0152124
769.357	0.0153109
769.435	0.0153866
769.513	0.0153979
769.591	0.0153489
769.669	0.0153780
769.747	0.0153803
769.825	0.0153198
769.904	0.0153439
769.982	0.0153845
770.060	0.0154684
770.138	0.0154074
770.216	0.0152999
770.294	0.0154021
770.372	0.0154020
770.450	0.0154399
770.529	0.0153777
770.607	0.0155167
770.685	0.0154026
770.763	0.0154360
770.841	0.0154868
770.919	0.0154971
770.997	0.0155582
771.075	0.0154314
771.154	0.0154855
771.232	0.0153806
771.310	0.0153172
771.388	0.0152383
771.466	0.0152226
771.544	0.0151688
771.622	0.0150626
771.700	0.0150203
771.779	0.0150218
771.857	0.0148719
771.935	0.0148228
772.013	0.0149133
772.091	0.0149935
772.169	0.0150621
772.247	0.0149429
772.325	0.0150253
772.404	0.0150854
772.482	0.0149398
772.560	0.0148669
772.638	0.0151068
772.716	0.0150452
772.794	0.0150590
772.872	0.0150050
772.950	0.0151342
773.029	0.0152918
773.107	0.0152782
773.185	0.0153471
773.263	0.0154025
773.341	0.0154169
773.419	0.0155181
773.497	0.0155967
773.575	0.0156657
773.654	0.0155144
773.732	0.0156574
773.810	0.0157655
773.888	0.0157398
773.966	0.0156980
774.044	0.0158154
774.122	0.0157626
774.200	0.0157231
774.279	0.0158020
774.357	0.0156750
774.435	0.0156062
774.513	0.0157135
774.591	0.0156815
774.669	0.0155264
774.747	0.0154329
774.825	0.0154720
774.904	0.0154411
774.982	0.0153278
775.060	0.0153687
775.138	0.0153802
775.216	0.0152247
775.294	0.0152315
775.372	0.0151174
775.450	0.0153718
775.529	0.0152652
775.607	0.0151173
775.685	0.0150854
775.763	0.0152179
775.841	0.0152289
775.919	0.0152264
775.997	0.0152872
776.075	0.0154794
776.154	0.0155566
776.232	0.0154341
776.310	0.0154720
776.388	0.0155421
776.466	0.0154853
776.544	0.0154871
776.622	0.0156851
776.700	0.0155480
776.779	0.0154839
776.857	0.0154856
776.935	0.0154843
777.013	0.0152457
777.091	0.0153588
777.169	0.0153706
777.247	0.0152877
777.325	0.0151764
777.404	0.0152403
777.482	0.0152090
777.560	0.0151022
777.638	0.0150372
777.716	0.0150768
777.794	0.0151886
777.872	0.0151680
777.950	0.0151143
778.029	0.0149290
778.107	0.0149419
778.185	0.0150188
778.263	0.0149689
778.341	0.0149068
778.419	0.0150272
778.497	0.0150620
778.575	0.0152111
778.654	0.0152551
778.732	0.0151857
778.810	0.0154459
778.888	0.0153175
778.966	0.0152418
779.044	0.0154449
779.122	0.0154144
779.200	0.0154547
779.279	0.0153892
779.357	0.0154935
779.435	0.0155773
779.513	0.0153728
779.591	0.0153934
779.669	0.0155212
779.747	0.0153364
779.825	0.0152583
779.904	0.0153264
779.982	0.0151508
780.060	0.0153421
780.138	0.0151412
780.216	0.0151957
780.294	0.0151132
780.372	0.0150782
780.450	0.0151264
780.529	0.0150452
780.607	0.0150894
780.685	0.0151422
780.763	0.0152563
780.841	0.0153122
780.919	0.0152319
780.997	0.0151684
781.075	0.0153870
781.154	0.0153646
781.232	0.0153524
781.310	0.0153967
781.388	0.0153482
781.466	0.0153170
781.544	0.0153943
781.622	0.0153809
781.700	0.0155535
781.779	0.0154593
781.857	0.0154362
781.935	0.0154262
782.013	0.0154487
782.091	0.0155235
782.169	0.0154583
782.247	0.0154613
782.325	0.0155782
782.404	0.0156136
782.482	0.0155668
782.560	0.0155193
782.638	0.0154357
782.716	0.0155543
782.794	0.0154301
782.872	0.0154578
782.950	0.0154282
783.029	0.0153960
783.107	0.0152226
783.185	0.0150599
783.263	0.0151844
783.341	0.0151321
783.419	0.0150446
783.497	0.0150021
783.575	0.0152457
783.654	0.0150201
783.732	0.0148820
783.810	0.0149450
783.888	0.0150355
783.966	0.0150066
784.044	0.0151347
784.122	0.0152430
784.200	0.0153474
784.279	0.0152695
784.357	0.0153380
784.435	0.0153861
784.513	0.0154475
784.591	0.0155116
784.669	0.0155492
784.747	0.0154546
784.825	0.0154156
784.904	0.0155367
784.982	0.0154779
785.060	0.0155324
785.138	0.0155157
785.216	0.0152656
785.294	0.0152050
785.372	0.0153406
785.450	0.0153134
785.529	0.0153548
785.607	0.0152683
785.685	0.0151492
785.763	0.0151828
785.841	0.0152596
785.919	0.0152992
785.997	0.0153314
786.075	0.0153336
786.154	0.0154278
786.232	0.0154898
786.310	0.0154118
786.388	0.0154918
786.466	0.0154521
786.544	0.0155740
786.622	0.0153809
786.700	0.0153384
786.779	0.0153054
786.857	0.0154395
786.935	0.0154128
787.013	0.0151732
787.091	0.0150169
787.169	0.0150245
787.247	0.0151084
787.325	0.0151964
787.404	0.0153349
787.482	0.0153070
787.560	0.0152309
787.638	0.0152977
787.716	0.0153914
787.794	0.0155917
787.872	0.0156360
787.950	0.0156282
788.029	0.0157275
788.107	0.0157296
788.185	0.0158159
788.263	0.0158138
788.341	0.0157438
788.419	0.0155766
788.497	0.0154903
788.575	0.0152803
788.654	0.0153833
788.732	0.0152405
788.810	0.0149904
788.888	0.0151270
788.966	0.0148651
789.044	0.0147673
789.122	0.0147181
789.200	0.0145667
789.279	0.0144766
789.357	0.0146316
789.435	0.0145989
789.513	0.0143489
789.591	0.0144843
789.669	0.0146770
789.747	0.0146375
789.825	0.0147345
789.904	0.0148711
789.982	0.0150024
790.060	0.0151893
790.138	0.0152475
790.216	0.0153999
790.294	0.0155484
790.372	0.0157257
790.450	0.0158722
790.529	0.0159477
790.607	0.0159997
790.685	0.0162355
790.763	0.0161288
790.841	0.0162939
790.919	0.0162406
790.997	0.0162628
791.075	0.0162013
791.154	0.0160654
791.232	0.0159945
791.310	0.0160859
791.388	0.0160483
791.466	0.0157790
791.544	0.0156429
791.622	0.0156194
791.700	0.0154731
791.779	0.0151515
791.857	0.0150221
791.935	0.0150748
792.013	0.0147761
792.091	0.0147664
792.169	0.0146583
792.247	0.0146760
792.325	0.0144550
792.404	0.0145597
792.482	0.0145824
792.560	0.0146520
792.638	0.0146157
792.716	0.0146814
792.794	0.0148337
792.872	0.0150372
792.950	0.0150839
793.029	0.0152818
793.107	0.0154055
793.185	0.0153819
793.263	0.0153904
793.341	0.0155105
793.419	0.0157751
793.497	0.0158321
793.575	0.0156863
793.654	0.0156416
793.732	0.0155515
793.810	0.0156754
793.888	0.0156795
793.966	0.0155648
794.044	0.0155770
794.122	0.0155859
794.200	0.0156213
794.279	0.0153719
794.357	0.0153741
794.435	0.0154253
794.513	0.0154650
794.591	0.0154536
794.669	0.0153183
794.747	0.0155166
794.825	0.0152963
794.904	0.0154243
794.982	0.0154049
795.060	0.0152526
795.138	0.0151189
795.216	0.0150118
795.294	0.0151530
795.372	0.0151173
795.450	0.0149477
795.529	0.0149406
795.607	0.0148971
795.685	0.0149411
795.763	0.0149819
795.841	0.0147425
795.919	0.0147243
795.997	0.0146596
796.075	0.0147228
796.154	0.0147704
796.232	0.0148009
796.310	0.0149575
796.388	0.0150033
796.466	0.0149811
796.544	0.0149459
796.622	0.0153648
796.700	0.0154467
796.779	0.0153387
796.857	0.0153799
796.935	0.0154743
797.013	0.0157717
797.091	0.0157243
797.169	0.0158460
797.247	0.0158453
797.325	0.0158263
797.404	0.0158916
797.482	0.0158749
797.560	0.0159102
797.638	0.0159132
797.716	0.0158335
797.794	0.0159131
797.872	0.0159211
797.950	0.0158158
798.029	0.0157159
798.107	0.0157764
798.185	0.0156771
798.263	0.0156434
798.341	0.0154068
798.419	0.0154863
798.497	0.0155258
798.575	0.0152328
798.654	0.0152495
798.732	0.0153104
798.810	0.0154280
798.888	0.0151173
798.966	0.0152218
799.044	0.0151832
799.122	0.0151334
799.200	0.0150446
799.279	0.0151237
799.357	0.0150719
799.435	0.0148701
799.513	0.0149438
799.591	0.0151244
799.669	0.0151203
799.747	0.0150802
799.825	0.0151643
799.904	0.0151480
799.982	0.0152013
800.060	0.0151746
800.138	0.0151740
800.216	0.0152422
800.294	0.0152162
800.372	0.0152579
800.450	0.0152966
800.529	0.0152480
800.607	0.0151916
800.685	0.0153241
800.763	0.0151669
800.841	0.0151391
800.919	0.0151717
800.997	0.0150483
801.075	0.0152043
801.154	0.0153293
801.232	0.0151053
801.310	0.0151270
801.388	0.0151237
801.466	0.0152298
801.544	0.0152419
801.622	0.0152126
801.700	0.0152657
801.779	0.0154171
801.857	0.0153287
801.935	0.0152927
802.013	0.0152663
802.091	0.0153519
802.169	0.0153071
802.247	0.0154595
802.325	0.0152404
802.404	0.0154414
802.482	0.0153600
802.560	0.0154158
802.638	0.0153775
802.716	0.0154707
802.794	0.0152846
802.872	0.0153458
802.950	0.0153954
803.029	0.0153365
803.107	0.0154589
803.185	0.0153001
803.263	0.0154346
803.341	0.0154163
803.419	0.0154202
803.497	0.0154935
803.575	0.0154926
803.654	0.0154217
803.732	0.0156306
803.810	0.0155773
803.888	0.0155429
803.966	0.0154977
804.044	0.0154256
804.122	0.0155364
804.200	0.0155985
804.279	0.0154015
804.357	0.0153834
804.435	0.0155148
804.513	0.0153230
804.591	0.0152924
804.669	0.0152092
804.747	0.0152935
804.825	0.0150885
804.904	0.0150150
804.982	0.0150053
805.060	0.0149689
805.138	0.0150755
805.216	0.0150980
805.294	0.0149374
805.372	0.0149995
805.450	0.0148240
805.529	0.0149088
805.607	0.0150412
805.685	0.0151874
805.763	0.0151623
805.841	0.0150880
805.919	0.0150629
805.997	0.0151593
806.075	0.0152134
806.154	0.0152858
806.232	0.0153529
806.310	0.0153059
806.388	0.0154263
806.466	0.0154762
806.544	0.0154865
806.622	0.0157548
806.700	0.0155859
806.779	0.0156070
806.857	0.0156136
806.935	0.0156331
807.013	0.0155125
807.091	0.0154452
807.169	0.0153819
807.247	0.0155113
807.325	0.0152764
807.404	0.0151944
807.482	0.0151917
807.560	0.0150334
807.638	0.0149928
807.716	0.0150101
807.794	0.0149606
807.872	0.0147327
807.950	0.0149075
808.029	0.0149774
808.107	0.0149803
808.185	0.0150575
808.263	0.0150250
808.341	0.0151965
808.419	0.0153667
808.497	0.0155441
808.575	0.0154762
808.654	0.0155086
808.732	0.0157216
808.810	0.0158763
808.888	0.0157582
808.966	0.0158184
809.044	0.0158690
809.122	0.0159151
809.200	0.0157854
809.279	0.0158058
809.357	0.0156749
809.435	0.0156696
809.513	0.0156643
809.591	0.0154261
809.669	0.0151752
809.747	0.0152475
809.825	0.0152163
809.904	0.0148919
809.982	0.0151032
810.060	0.0149635
810.138	0.0149174
810.216	0.0147868
810.294	0.0148309
810.372	0.0148912
810.450	0.0148119
810.529	0.0148184
810.607	0.0149338
810.685	0.0148467
810.763	0.0149749
810.841	0.0150835
810.919	0.0153170
810.997	0.0153246
811.075	0.0151372
811.154	0.0153218
811.232	0.0153888
811.310	0.0154341
811.388	0.0154237
811.466	0.0153379
811.544	0.0154857
811.622	0.0155269
811.700	0.0153764
811.779	0.0155086
811.857	0.0156636
811.935	0.0155849
812.013	0.0155209
812.091	0.0154465
812.169	0.0153983
812.247	0.0153268
812.325	0.0152789
812.404	0.0152469
812.482	0.0153178
812.560	0.0152557
812.638	0.0150508
812.716	0.0149945
812.794	0.0150356
812.872	0.0149629
812.950	0.0148955
813.029	0.0150069
813.107	0.0148830
813.185	0.0149424
813.263	0.0149591
813.341	0.0150112
813.419	0.0150924
813.497	0.0151283
813.575	0.0150505
813.654	0.0151209
813.732	0.0152360
813.810	0.0153419
813.888	0.0152389
813.966	0.0154121
814.044	0.0154610
814.122	0.0155104
814.200	0.0155412
814.279	0.0155049
814.357	0.0155248
814.435	0.0156668
814.513	0.0158015
814.591	0.0158173
814.669	0.0158700
814.747	0.0156622
814.825	0.0157941
814.904	0.0158640
814.982	0.0156773
815.060	0.0156007
815.138	0.0156223
815.216	0.0155441
815.294	0.0154494
815.372	0.0152829
815.450	0.0153835
815.529	0.0153250
815.607	0.0151138
815.685	0.0149143
815.763	0.0149742
815.841	0.0150446
815.919	0.0149670
815.997	0.0149145
816.075	0.0149645
816.154	0.0150244
816.232	0.0149889
816.310	0.0148985
816.388	0.0149845
816.466	0.0149699
816.544	0.0150951
816.622	0.0151196
816.700	0.0150550
816.779	0.0150952
816.857	0.0151174
816.935	0.0150965
817.013	0.0151211
817.091	0.0151360
817.169	0.0150433
817.247	0.0151803
817.325	0.0152120
817.404	0.0152534
817.482	0.0152341
817.560	0.0151456
817.638	0.0152452
817.716	0.0150574
817.794	0.0151789
817.872	0.0152039
817.950	0.0152626
818.029	0.0151099
818.107	0.0151452
818.185	0.0150263
818.263	0.0149326
818.341	0.0149016
818.419	0.0150154
818.497	0.0149025
818.575	0.0148967
818.654	0.0149655
818.732	0.0151381
818.810	0.0150279
818.888	0.0150418
818.966	0.0150677
819.044	0.0152663
819.122	0.0151997
819.200	0.0153233
819.279	0.0153735
819.357	0.0155308
819.435	0.0154585
819.513	0.0154467
819.591	0.0155614
819.669	0.0155393
819.747	0.0156060
819.825	0.0158594
819.904	0.0157642
819.982	0.0156664
820.060	0.0158625
820.138	0.0158723
820.216	0.0158676
820.294	0.0158080
820.372	0.0159242
820.450	0.0156652
820.529	0.0156374
820.607	0.0155521
820.685	0.0154830
820.763	0.0154288
820.841	0.0154346
820.919	0.0152792
820.997	0.0153092
821.075	0.0151500
821.154	0.0150377
821.232	0.0150627
821.310	0.0150873
821.388	0.0150494
821.466	0.0151176
821.544	0.0150981
821.622	0.0150603
821.700	0.0151361
821.779	0.0149583
821.857	0.0150677
821.935	0.0150689
822.013	0.0151111
822.091	0.0150815
822.169	0.0151772
822.247	0.0150789
822.325	0.0151198
822.404	0.0150256
822.482	0.0150857
822.560	0.0150539
822.638	0.0150801
822.716	0.0150138
822.794	0.0149473
822.872	0.0149249
822.950	0.0149833
823.029	0.0149408
823.107	0.0149702
823.185	0.0149125
823.263	0.0148206
823.341	0.0149267
823.419	0.0148859
823.497	0.0148648
823.575	0.0150985
823.654	0.0150143
823.732	0.0150613
823.810	0.0152030
823.888	0.0153574
823.966	0.0153174
824.044	0.0152424
824.122	0.0154628
824.200	0.0155702
824.279	0.0155117
824.357	0.0155896
824.435	0.0155347
824.513	0.0157288
824.591	0.0156899
824.669	0.0158073
824.747	0.0157724
824.825	0.0158509
824.904	0.0157067
824.982	0.0157385
825.060	0.0156445
825.138	0.0159606
825.216	0.0157117
825.294	0.0157747
825.372	0.0156317
825.450	0.0155138
825.529	0.0154901
825.607	0.0154828
825.685	0.0153618
825.763	0.0152346
825.841	0.0153526
825.919	0.0152558
825.997	0.0151452
826.075	0.0151668
826.154	0.0153062
826.232	0.0150800
826.310	0.0151789
826.388	0.0152711
826.466	0.0151520
826.544	0.0150550
826.622	0.0151621
826.700	0.0151415
826.779	0.0151629
826.857	0.0151561
826.935	0.0152196
827.013	0.0152156
827.091	0.0152140
827.169	0.0151051
827.247	0.0150336
827.325	0.0151521
827.404	0.0152618
827.482	0.0151526
827.560	0.0153434
827.638	0.0150880
827.716	0.0149911
827.794	0.0151051
827.872	0.0151138
827.950	0.0150648
828.029	0.0152271
828.107	0.0150772
828.185	0.0151917
828.263	0.0149849
828.341	0.0149358
828.419	0.0150636
828.497	0.0150117
828.575	0.0150604
828.654	0.0149066
828.732	0.0149129
828.810	0.0150213
828.888	0.0149240
828.966	0.0150638
829.044	0.0148958
829.122	0.0150452
829.200	0.0150578
829.279	0.0149570
829.357	0.0150040
829.435	0.0152489
829.513	0.0153252
829.591	0.0152083
829.669	0.0152843
829.747	0.0154750
829.825	0.0155098
829.904	0.0154892
829.982	0.0155597
830.060	0.0156703
830.138	0.0156958
830.216	0.0155569
830.294	0.0157254
830.372	0.0156790
830.450	0.0159017
830.529	0.0158041
830.607	0.0156568
830.685	0.0156979
830.763	0.0157573
830.841	0.0158559
830.919	0.0157694
830.997	0.0157571
831.075	0.0157072
831.154	0.0155112
831.232	0.0153740
831.310	0.0153876
831.388	0.0154916
831.466	0.0153822
831.544	0.0153616
831.622	0.0152055
831.700	0.0152186
831.779	0.0151152
831.857	0.0151260
831.935	0.0151180
832.013	0.0149590
832.091	0.0149242
832.169	0.0150632
832.247	0.0151136
832.325	0.0152166
832.404	0.0150132
832.482	0.0149146
832.560	0.0150550
832.638	0.0149879
832.716	0.0149387
832.794	0.0149490
832.872	0.0149435
832.950	0.0150789
833.029	0.0149018
833.107	0.0148868
833.185	0.0149338
833.263	0.0149875
833.341	0.0149938
833.419	0.0148530
833.497	0.0149347
833.575	0.0150679
833.654	0.0149622
833.732	0.0148158
833.810	0.0149879
833.888	0.0151656
833.966	0.0149622
834.044	0.0150406
834.122	0.0151223
834.200	0.0152533
834.279	0.0151815
834.357	0.0152896
834.435	0.0152150
834.513	0.0154043
834.591	0.0154644
834.669	0.0153394
834.747	0.0154764
834.825	0.0156586
834.904	0.0156712
834.982	0.0156082
835.060	0.0157350
835.138	0.0156893
835.216	0.0157877
835.294	0.0157723
835.372	0.0157372
835.450	0.0159317
835.529	0.0157952
835.607	0.0157037
835.685	0.0158204
835.763	0.0158393
835.841	0.0157065
835.919	0.0155933
835.997	0.0156944
836.075	0.0156211
836.154	0.0154851
836.232	0.0153928
836.310	0.0152998
836.388	0.0153643
836.466	0.0151554
836.544	0.0152664
836.622	0.0152055
836.700	0.0151034
836.779	0.0149895
836.857	0.0148711
836.935	0.0149328
837.013	0.0150626
837.091	0.0150752
837.169	0.0148934
837.247	0.0150361
837.325	0.0149614
837.404	0.0149821
837.482	0.0150121
837.560	0.0150246
837.638	0.0150585
837.716	0.0151706
837.794	0.0151765
837.872	0.0150185
837.950	0.0151421
838.029	0.0154723
838.107	0.0153257
838.185	0.0152667
838.263	0.0153088
838.341	0.0153792
838.419	0.0151537
838.497	0.0154041
838.575	0.0155012
838.654	0.0153598
838.732	0.0152956
838.810	0.0153465
838.888	0.0153397
838.966	0.0153057
839.044	0.0153329
839.122	0.0153103
839.200	0.0152885
839.279	0.0152231
839.357	0.0152058
839.435	0.0153286
839.513	0.0152088
839.591	0.0152940
839.669	0.0153254
839.747	0.0153026
839.825	0.0154800
839.904	0.0153934
839.982	0.0154301
840.060	0.0153948
840.138	0.0153281
840.216	0.0154568
840.294	0.0155890
840.372	0.0155659
840.450	0.0156110
840.529	0.0156359
840.607	0.0156266
840.685	0.0156631
840.763	0.0156620
840.841	0.0155894
840.919	0.0157018
840.997	0.0156972
841.075	0.0155539
841.154	0.0156217
841.232	0.0155928
841.310	0.0153707
841.388	0.0152936
841.466	0.0153274
841.544	0.0152158
841.622	0.0152342
841.700	0.0151480
841.779	0.0150513
841.857	0.0150299
841.935	0.0150345
842.013	0.0148928
842.091	0.0150138
842.169	0.0149718
842.247	0.0148551
842.325	0.0148917
842.404	0.0149536
842.482	0.0149966
842.560	0.0152139
842.638	0.0150682
842.716	0.0150081
842.794	0.0151526
842.872	0.0151460
842.950	0.0152065
843.029	0.0152740
843.107	0.0151762
843.185	0.0154285
843.263	0.0153156
843.341	0.0154185
843.419	0.0154707
843.497	0.0153551
843.575	0.0154755
843.654	0.0154927
843.732	0.0153082
843.810	0.0151203
843.888	0.0152914
843.966	0.0152909
844.044	0.0153063
844.122	0.0152914
844.200	0.0153214
844.279	0.0151690
844.357	0.0152507
844.435	0.0151570
844.513	0.0152167
844.591	0.0151926
844.669	0.0151340
844.747	0.0151225
844.825	0.0151371
844.904	0.0151785
844.982	0.0151485
845.060	0.0151485
845.138	0.0152568
845.216	0.0151031
845.294	0.0151023
845.372	0.0150584
845.450	0.0150119
845.529	0.0151984
845.607	0.0153181
845.685	0.0152979
845.763	0.0152226
845.841	0.0154585
845.919	0.0153591
845.997	0.0154919
846.075	0.0154016
846.154	0.0153207
846.232	0.0153997
846.310	0.0156001
846.388	0.0155695
846.466	0.0155844
846.544	0.0156437
846.622	0.0156239
846.700	0.0156716
846.779	0.0156245
846.857	0.0156308
846.935	0.0156667
847.013	0.0157952
847.091	0.0156777
847.169	0.0155996
847.247	0.0156489
847.325	0.0157767
847.404	0.0156730
847.482	0.0155907
847.560	0.0156473
847.638	0.0155789
847.716	0.0155510
847.794	0.0155415
847.872	0.0155637
847.950	0.0154981
848.029	0.0155453
848.107	0.0155047
848.185	0.0153770
848.263	0.0153764
848.341	0.0154046
848.419	0.0152193
848.497	0.0151635
848.575	0.0153257
848.654	0.0152898
848.732	0.0150961
848.810	0.0150726
848.888	0.0150100
848.966	0.0149877
849.044	0.0149825
849.122	0.0148827
849.200	0.0148348
849.279	0.0148138
849.357	0.0149336
849.435	0.0148280
849.513	0.0147964
849.591	0.0148032
849.669	0.0147961
849.747	0.0147088
849.825	0.0147113
849.904	0.0148288
849.982	0.0148239
850.060	0.0148433
850.138	0.0148935
850.216	0.0149261
850.294	0.0151400
850.372	0.0149949
850.450	0.0150983
850.529	0.0151200
850.607	0.0152415
850.685	0.0151707
850.763	0.0152926
850.841	0.0153096
850.919	0.0153845
850.997	0.0152604
851.075	0.0154651
851.154	0.0156057
851.232	0.0156162
851.310	0.0156727
851.388	0.0157237
851.466	0.0157293
851.544	0.0157446
851.622	0.0157414
851.700	0.0157618
851.779	0.0157998
851.857	0.0158890
851.935	0.0158863
852.013	0.0156847
852.091	0.0158322
852.169	0.0158742
852.247	0.0157973
852.325	0.0159024
852.404	0.0158475
852.482	0.0156806
852.560	0.0158260
852.638	0.0158638
852.716	0.0157790
852.794	0.0157356
852.872	0.0158089
852.950	0.0156596
853.029	0.0157125
853.107	0.0157433
853.185	0.0159104
853.263	0.0158264
853.341	0.0156409
853.419	0.0156658
853.497	0.0156324
853.575	0.0156055
853.654	0.0154488
853.732	0.0153623
853.810	0.0152558
853.888	0.0152909
853.966	0.0152637
854.044	0.0151241
854.122	0.0150256
854.200	0.0149487
854.279	0.0148476
854.357	0.0148810
854.435	0.0148695
854.513	0.0146194
854.591	0.0146198
854.669	0.0146661
854.747	0.0145907
854.825	0.0146623
854.904	0.0146525
854.982	0.0146803
855.060	0.0146974
855.138	0.0146103
855.216	0.0145190
855.294	0.0146988
855.372	0.0146471
855.450	0.0146800
855.529	0.0147139
855.607	0.0146731
855.685	0.0147031
855.763	0.0147321
855.841	0.0148750
855.919	0.0150543
855.997	0.0149180
856.075	0.0150648
856.154	0.0151770
856.232	0.0150127
856.310	0.0152710
856.388	0.0153041
856.466	0.0153532
856.544	0.0155126
856.622	0.0155760
856.700	0.0156743
856.779	0.0157941
856.857	0.0158162
856.935	0.0157912
857.013	0.0157452
857.091	0.0160822
857.169	0.0160196
857.247	0.0159879
857.325	0.0159061
857.404	0.0159939
857.482	0.0161137
857.560	0.0161340
857.638	0.0160766
857.716	0.0161483
857.794	0.0159920
857.872	0.0160795
857.950	0.0160948
858.029	0.0159884
858.107	0.0160291
858.185	0.0159563
858.263	0.0159595
858.341	0.0159083
858.419	0.0156912
858.497	0.0157098
858.575	0.0156783
858.654	0.0156387
858.732	0.0154951
858.810	0.0154274
858.888	0.0153864
858.966	0.0154163
859.044	0.0153647
859.122	0.0151506
859.200	0.0152071
859.279	0.0151710
859.357	0.0152132
859.435	0.0151407
859.513	0.0150094
859.591	0.0150086
859.669	0.0149512
859.747	0.0147642
859.825	0.0149998
859.904	0.0149988
859.982	0.0148245
860.060	0.0149179
860.138	0.0148152
860.216	0.0147821
860.294	0.0147163
860.372	0.0146878
860.450	0.0146088
860.529	0.0147475
860.607	0.0147863
860.685	0.0146670
860.763	0.0145761
860.841	0.0146651
860.919	0.0146660
860.997	0.0146774
861.075	0.0146877
861.154	0.0146515
861.232	0.0147549
861.310	0.0148711
861.388	0.0151342
861.466	0.0151283
861.544	0.0151806
861.622	0.0152030
861.700	0.0155244
861.779	0.0155312
861.857	0.0156245
861.935	0.0157021
862.013	0.0157693
862.091	0.0157263
862.169	0.0158537
862.247	0.0159251
862.325	0.0158811
862.404	0.0157964
862.482	0.0158524
862.560	0.0157570
862.638	0.0157780
862.716	0.0156745
862.794	0.0156311
862.872	0.0157743
862.950	0.0156413
863.029	0.0156431
863.107	0.0156078
863.185	0.0156928
863.263	0.0156083
863.341	0.0155912
863.419	0.0155168
863.497	0.0154271
863.575	0.0155212
863.654	0.0154832
863.732	0.0154229
863.810	0.0153905
863.888	0.0154288
863.966	0.0154900
864.044	0.0153761
864.122	0.0152351
864.200	0.0153675
864.279	0.0154169
864.357	0.0153177
864.435	0.0152626
864.513	0.0153541
864.591	0.0155096
864.669	0.0154202
864.747	0.0153102
864.825	0.0154889
864.904	0.0153689
864.982	0.0155047
865.060	0.0154552
865.138	0.0154482
865.216	0.0153612
865.294	0.0153985
865.372	0.0153118
865.450	0.0153402
865.529	0.0152931
865.607	0.0152412
865.685	0.0153384
865.763	0.0150990
865.841	0.0150279
865.919	0.0150858
865.997	0.0149817
866.075	0.0150564
866.154	0.0149528
866.232	0.0150839
866.310	0.0150372
866.388	0.0150544
866.466	0.0149879
866.544	0.0150051
866.622	0.0149844
866.700	0.0151636
866.779	0.0152802
866.857	0.0151494
866.935	0.0152959
867.013	0.0152650
867.091	0.0152577
867.169	0.0151875
867.247	0.0153768
867.325	0.0154446
867.404	0.0155183
867.482	0.0153313
867.560	0.0154429
867.638	0.0154122
867.716	0.0153778
867.794	0.0154013
867.872	0.0154217
867.950	0.0155944
868.029	0.0154498
868.107	0.0154507
868.185	0.0154185
868.263	0.0153631
868.341	0.0154638
868.419	0.0153894
868.497	0.0152934
868.575	0.0153446
868.654	0.0153951
868.732	0.0153532
868.810	0.0153706
868.888	0.0153928
868.966	0.0152275
869.044	0.0151622
869.122	0.0152087
869.200	0.0152747
869.279	0.0152185
869.357	0.0152110
869.435	0.0151437
869.513	0.0151722
869.591	0.0153287
869.669	0.0152023
869.747	0.0152543
869.825	0.0152586
869.904	0.0154188
869.982	0.0153996
870.060	0.0153026
870.138	0.0152011
870.216	0.0154398
870.294	0.0155845
870.372	0.0154921
870.450	0.0154691
870.529	0.0155328
870.607	0.0154566
870.685	0.0154880
870.763	0.0154923
870.841	0.0154249
870.919	0.0153841
870.997	0.0153943
871.075	0.0153416
871.154	0.0154018
871.232	0.0153245
871.310	0.0153548
871.388	0.0151604
871.466	0.0153653
871.544	0.0153477
871.622	0.0153564
871.700	0.0153345
871.779	0.0153303
871.857	0.0152499
871.935	0.0152972
872.013	0.0152608
872.091	0.0153552
872.169	0.0153339
872.247	0.0152814
872.325	0.0153522
872.404	0.0154179
872.482	0.0154415
872.560	0.0154303
872.638	0.0154549
872.716	0.0154622
872.794	0.0155649
872.872	0.0156049
872.950	0.0155639
873.029	0.0155397
873.107	0.0157500
873.185	0.0157649
873.263	0.0155496
873.341	0.0155640
873.419	0.0155341
873.497	0.0154379
873.575	0.0154330
873.654	0.0154477
873.732	0.0154581
873.810	0.0153634
873.888	0.0154624
873.966	0.0152880
874.044	0.0151746
874.122	0.0152728
874.200	0.0151006
874.279	0.0151928
874.357	0.0151715
874.435	0.0150620
874.513	0.0150668
874.591	0.0149403
874.669	0.0151482
874.747	0.0151575
874.825	0.0151390
874.904	0.0149971
874.982	0.0149300
875.060	0.0150415
875.138	0.0150241
875.216	0.0150125
875.294	0.0149782
875.372	0.0149434
875.450	0.0151100
875.529	0.0148650
875.607	0.0148765
875.685	0.0150679
875.763	0.0150130
875.841	0.0149389
875.919	0.0151387
875.997	0.0151511
876.075	0.0153196
876.154	0.0152406
876.232	0.0152815
876.310	0.0152238
876.388	0.0153385
876.466	0.0153559
876.544	0.0154013
876.622	0.0153017
876.700	0.0152348
876.779	0.0153333
876.857	0.0152703
876.935	0.0155814
877.013	0.0156140
877.091	0.0154598
877.169	0.0155714
877.247	0.0155285
877.325	0.0155636
877.404	0.0155786
877.482	0.0156165
877.560	0.0156647
877.638	0.0157012
877.716	0.0157240
877.794	0.0156533
877.872	0.0156871
877.950	0.0156304
878.029	0.0157018
878.107	0.0157647
878.185	0.0155219
878.263	0.0155492
878.341	0.0155292
878.419	0.0156248
878.497	0.0156052
878.575	0.0155880
878.654	0.0155918
878.732	0.0154905
878.810	0.0154989
878.888	0.0154765
878.966	0.0154800
879.044	0.0155692
879.122	0.0154928
879.200	0.0154491
879.279	0.0153772
879.357	0.0153049
879.435	0.0152602
879.513	0.0152428
879.591	0.0151309
879.669	0.0150066
879.747	0.0150604
879.825	0.0151344
879.904	0.0150160
879.982	0.0149318
880.060	0.0148878
880.138	0.0149182
880.216	0.0149184
880.294	0.0147754
880.372	0.0149326
880.450	0.0148234
880.529	0.0149267
880.607	0.0148136
880.685	0.0148113
880.763	0.0147411
880.841	0.0148452
880.919	0.0148605
880.997	0.0147722
881.075	0.0149346
881.154	0.0151783
881.232	0.0150068
881.310	0.0151451
881.388	0.0151420
881.466	0.0152261
881.544	0.0153891
881.622	0.0152401
881.700	0.0155433
881.779	0.0156163
881.857	0.0155485
881.935	0.0154341
882.013	0.0154912
882.091	0.0154490
882.169	0.0152349
882.247	0.0151486
882.325	0.0151274
882.404	0.0150568
882.482	0.0147919
882.560	0.0149232
882.638	0.0149921
882.716	0.0149944
882.794	0.0150709
882.872	0.0151765
882.950	0.0153625
883.029	0.0156416
883.107	0.0158581
883.185	0.0159264
883.263	0.0161539
883.341	0.0162576
883.419	0.0163658
883.497	0.0164374
883.575	0.0164148
883.654	0.0162854
883.732	0.0161123
883.810	0.0160049
883.888	0.0157454
883.966	0.0156335
884.044	0.0152113
884.122	0.0150498
884.200	0.0147670
884.279	0.0147511
884.357	0.0145750
884.435	0.0142732
884.513	0.0142499
884.591	0.0145235
884.669	0.0144508
884.747	0.0144756
884.825	0.0145496
884.904	0.0145988
884.982	0.0148425
885.060	0.0148765
885.138	0.0151041
885.216	0.0152902
885.294	0.0154017
885.372	0.0154074
885.450	0.0156141
885.529	0.0157600
885.607	0.0159018
885.685	0.0158892
885.763	0.0159546
885.841	0.0158768
885.919	0.0158195
885.997	0.0156550
886.075	0.0156657
886.154	0.0153329
886.232	0.0152042
886.310	0.0150918
886.388	0.0148832
886.466	0.0146429
886.544	0.0145338
886.622	0.0144517
886.700	0.0144344
886.779	0.0142011
886.857	0.0143013
886.935	0.0144012
887.013	0.0143600
887.091	0.0144485
887.169	0.0145103
887.247	0.0145754
887.325	0.0146990
887.404	0.0147489
887.482	0.0149574
887.560	0.0150310
887.638	0.0151344
887.716	0.0153391
887.794	0.0155814
887.872	0.0156388
887.950	0.0157981
888.029	0.0159378
888.107	0.0158066
888.185	0.0160278
888.263	0.0161430
888.341	0.0157852
888.419	0.0159561
888.497	0.0159375
888.575	0.0157457
888.654	0.0158564
888.732	0.0158907
888.810	0.0156272
888.888	0.0155608
888.966	0.0156947
889.044	0.0154575
889.122	0.0154894
889.200	0.0154563
889.279	0.0153009
889.357	0.0155713
889.435	0.0153701
889.513	0.0152985
889.591	0.0154115
889.669	0.0155017
889.747	0.0153187
889.825	0.0152190
889.904	0.0153795
889.982	0.0154620
890.060	0.0153086
890.138	0.0152050
890.216	0.0152369
890.294	0.0150781
890.372	0.0151794
890.450	0.0152800
890.529	0.0152234
890.607	0.0151428
890.685	0.0149554
890.763	0.0150497
890.841	0.0149947
890.919	0.0148322
890.997	0.0150624
891.075	0.0150754
891.154	0.0150322
891.232	0.0149942
891.310	0.0150559
891.388	0.0151228
891.466	0.0149469
891.544	0.0150158
891.622	0.0151115
891.700	0.0150483
891.779	0.0149754
891.857	0.0150322
891.935	0.0150342
892.013	0.0149669
892.091	0.0149390
892.169	0.0150685
892.247	0.0149382
892.325	0.0150988
892.404	0.0152539
892.482	0.0151052
892.560	0.0150008
892.638	0.0152081
892.716	0.0152573
892.794	0.0151778
892.872	0.0153640
892.950	0.0154427
893.029	0.0153941
893.107	0.0155239
893.185	0.0155011
893.263	0.0155379
893.341	0.0154538
893.419	0.0156678
893.497	0.0156551
893.575	0.0155042
893.654	0.0154562
893.732	0.0154356
893.810	0.0154456
893.888	0.0154608
893.966	0.0154636
894.044	0.0154334
894.122	0.0153979
894.200	0.0155209
894.279	0.0153896
894.357	0.0156497
894.435	0.0154256
894.513	0.0153306
894.591	0.0154507
894.669	0.0153884
894.747	0.0153371
894.825	0.0154052
894.904	0.0152786
894.982	0.0152802
895.060	0.0152625
895.138	0.0150825
895.216	0.0153265
895.294	0.0153776
895.372	0.0151515
895.450	0.0151482
895.529	0.0151886
895.607	0.0151270
895.685	0.0152057
895.763	0.0152684
895.841	0.0151400
895.919	0.0152588
895.997	0.0151665
896.075	0.0151491
896.154	0.0153356
896.232	0.0152470
896.310	0.0153234
896.388	0.0153477
896.466	0.0153459
896.544	0.0152962
896.622	0.0152743
896.700	0.0153395
896.779	0.0152608
896.857	0.0151381
896.935	0.0150788
897.013	0.0152021
897.091	0.0151291
897.169	0.0151329
897.247	0.0151344
897.325	0.0151182
897.404	0.0149912
897.482	0.0150925
897.560	0.0151379
897.638	0.0150956
897.716	0.0149504
897.794	0.0150696
897.872	0.0150118
897.950	0.0150654
898.029	0.0150986
898.107	0.0152648
898.185	0.0151862
898.263	0.0153056
898.341	0.0154861
898.419	0.0153792
898.497	0.0153736
898.575	0.0156468
898.654	0.0157162
898.732	0.0157331
898.810	0.0158082
898.888	0.0156554
898.966	0.0156537
899.044	0.0156127
899.122	0.0155699
899.200	0.0154974
899.279	0.0154514
899.357	0.0153491
899.435	0.0153178
899.513	0.0152731
899.591	0.0151706
899.669	0.0152951
899.747	0.0151376
899.825	0.0149924
899.904	0.0149882
899.982	0.0149708
900.060	0.0150565
900.138	0.0150880
900.216	0.0150249
900.294	0.0150184
900.372	0.0149641
900.450	0.0149381
900.529	0.0150633
900.607	0.0150996
900.685	0.0150657
900.763	0.0151846
900.841	0.0151973
900.919	0.0151945
900.997	0.0153271
901.075	0.0154461
901.154	0.0152686
901.232	0.0151834
901.310	0.0154189
901.388	0.0153519
901.466	0.0154809
901.544	0.0153754
901.622	0.0152798
901.700	0.0153986
901.779	0.0153637
901.857	0.0154095
901.935	0.0153040
902.013	0.0152438
902.091	0.0152217
902.169	0.0152736
902.247	0.0152349
902.325	0.0152225
902.404	0.0152101
902.482	0.0151264
902.560	0.0149545
902.638	0.0150916
902.716	0.0151322
902.794	0.0150977
902.872	0.0149697
902.950	0.0149553
903.029	0.0149382
903.107	0.0150740
903.185	0.0151517
903.263	0.0151710
903.341	0.0150632
903.419	0.0151249
903.497	0.0152055
903.575	0.0151534
903.654	0.0153316
903.732	0.0151778
903.810	0.0153016
903.888	0.0153671
903.966	0.0154102
904.044	0.0154666
904.122	0.0154560
904.200	0.0154930
904.279	0.0155197
904.357	0.0154552
904.435	0.0154553
904.513	0.0156123
904.591	0.0155424
904.669	0.0155917
904.747	0.0155791
904.825	0.0156040
904.904	0.0155034
904.982	0.0153445
905.060	0.0154193
905.138	0.0154435
905.216	0.0153333
905.294	0.0153834
905.372	0.0153170
905.450	0.0152933
905.529	0.0153212
905.607	0.0153162
905.685	0.0151152
905.763	0.0151463
905.841	0.0152032
905.919	0.0152435
905.997	0.0151476
906.075	0.0151963
906.154	0.0151575
906.232	0.0153033
906.310	0.0152092
906.388	0.0152396
906.466	0.0152185
906.544	0.0152106
906.622	0.0151158
906.700	0.0151894
906.779	0.0152842
906.857	0.0153058
906.935	0.0151665
907.013	0.0151369
907.091	0.0152583
907.169	0.0152053
907.247	0.0151817
907.325	0.0151247
907.404	0.0149942
907.482	0.0151028
907.560	0.0152620
907.638	0.0150924
907.716	0.0152077
907.794	0.0150217
907.872	0.0152554
907.950	0.0152023
908.029	0.0151054
908.107	0.0150015
908.185	0.0151070
908.263	0.0149544
908.341	0.0149873
908.419	0.0151451
908.497	0.0153056
908.575	0.0152203
908.654	0.0150160
908.732	0.0151767
908.810	0.0152923
908.888	0.0152736
908.966	0.0152212
909.044	0.0153510
909.122	0.0152416
909.200	0.0154353
909.279	0.0153831
909.357	0.0155585
909.435	0.0154825
909.513	0.0154739
909.591	0.0154739
909.669	0.0153609
909.747	0.0155015
909.825	0.0153641
909.904	0.0154782
909.982	0.0155672
910.060	0.0153440
910.138	0.0154800
910.216	0.0151468
910.294	0.0152027
910.372	0.0152498
910.450	0.0152804
910.529	0.0151351
910.607	0.0150533
910.685	0.0151036
910.763	0.0151323
910.841	0.0151661
910.919	0.0150716
910.997	0.0152094
911.075	0.0151324
911.154	0.0150974
911.232	0.0151295
911.310	0.0150678
911.388	0.0150935
911.466	0.0150462
911.544	0.0151383
911.622	0.0151238
911.700	0.0152162
911.779	0.0151411
911.857	0.0151565
911.935	0.0152561
912.013	0.0151785
912.091	0.0154220
912.169	0.0153512
912.247	0.0153134
912.325	0.0154215
912.404	0.0152802
912.482	0.0153492
912.560	0.0153662
912.638	0.0154037
912.716	0.0155162
912.794	0.0155189
912.872	0.0154940
912.950	0.0154207
913.029	0.0154125
913.107	0.0152054
913.185	0.0153569
913.263	0.0153990
913.341	0.0152859
913.419	0.0152745
913.497	0.0152198
913.575	0.0153822
913.654	0.0151208
913.732	0.0151391
913.810	0.0152908
913.888	0.0150589
913.966	0.0152242
914.044	0.0151752
914.122	0.0151410
914.200	0.0150473
914.279	0.0151647
914.357	0.0151472
914.435	0.0151131
914.513	0.0150072
914.591	0.0150731
914.669	0.0151281
914.747	0.0149850
914.825	0.0152493
914.904	0.0152266
914.982	0.0152702
915.060	0.0151653
915.138	0.0152166
915.216	0.0153295
915.294	0.0153301
915.372	0.0150794
915.450	0.0152531
915.529	0.0152980
915.607	0.0153438
915.685	0.0153239
915.763	0.0152173
915.841	0.0152830
915.919	0.0152514
915.997	0.0152355
916.075	0.0153885
916.154	0.0151926
916.232	0.0151838
916.310	0.0152365
916.388	0.0151345
916.466	0.0152047
916.544	0.0151929
916.622	0.0152677
916.700	0.0154543
916.779	0.0153618
916.857	0.0153498
916.935	0.0154025
917.013	0.0154216
917.091	0.0153769
917.169	0.0152640
917.247	0.0155198
917.325	0.0154749
917.404	0.0153989
917.482	0.0154308
917.560	0.0154264
917.638	0.0154105
917.716	0.0155243
917.794	0.0153453
917.872	0.0153847
917.950	0.0154801
918.029	0.0154361
918.107	0.0153040
918.185	0.0152788
918.263	0.0153520
918.341	0.0153189
918.419	0.0153608
918.497	0.0153886
918.575	0.0154482
918.654	0.0153079
918.732	0.0151836
918.810	0.0154804
918.888	0.0154106
918.966	0.0152905
919.044	0.0154327
919.122	0.0153605
919.200	0.0152890
919.279	0.0153009
919.357	0.0151717
919.435	0.0151374
919.513	0.0151299
919.591	0.0151579
919.669	0.0152197
919.747	0.0152805
919.825	0.0150764
919.904	0.0150940
