05/20/2022	21:23:14	Ver.	4.1	UNKNOWN
Optical Delay	599.975067	Delta X		0.078125	Sweeps	1	Scan Rate	0/0
Coordinates	Axis 1	NaN	Axis 2	NaN	Axis 3	NaN	Axis 4	NaN	Axis 5	NaN	Axis 6	0.000000
TX Power	0.000000	RX Power	0.000000

599.975	0.0156424
600.053	0.0154492
600.131	0.0155578
600.209	0.0154490
600.288	0.0154522
600.366	0.0154616
600.444	0.0153609
600.522	0.0154501
600.600	0.0153548
600.678	0.0154720
600.756	0.0154384
600.834	0.0153127
600.913	0.0153877
600.991	0.0154515
601.069	0.0155560
601.147	0.0155915
601.225	0.0153901
601.303	0.0154180
601.381	0.0152829
601.459	0.0154517
601.538	0.0153787
601.616	0.0154243
601.694	0.0154592
601.772	0.0154636
601.850	0.0153665
601.928	0.0154614
602.006	0.0152642
602.084	0.0153707
602.163	0.0153028
602.241	0.0154004
602.319	0.0154986
602.397	0.0153876
602.475	0.0154213
602.553	0.0154742
602.631	0.0152803
602.709	0.0153706
602.788	0.0154478
602.866	0.0154196
602.944	0.0153797
603.022	0.0154428
603.100	0.0155254
603.178	0.0153602
603.256	0.0153456
603.334	0.0155022
603.413	0.0155730
603.491	0.0155035
603.569	0.0155289
603.647	0.0155254
603.725	0.0153471
603.803	0.0155489
603.881	0.0155500
603.959	0.0155202
604.038	0.0154994
604.116	0.0154192
604.194	0.0153779
604.272	0.0154633
604.350	0.0155486
604.428	0.0155834
604.506	0.0155296
604.584	0.0155431
604.663	0.0157606
604.741	0.0154655
604.819	0.0154824
604.897	0.0155739
604.975	0.0153950
605.053	0.0155908
605.131	0.0155827
605.209	0.0154989
605.288	0.0155564
605.366	0.0155314
605.444	0.0155679
605.522	0.0154640
605.600	0.0156546
605.678	0.0155644
605.756	0.0155498
605.834	0.0154571
605.913	0.0154623
605.991	0.0156177
606.069	0.0155872
606.147	0.0156378
606.225	0.0156027
606.303	0.0155705
606.381	0.0156035
606.459	0.0154203
606.538	0.0155070
606.616	0.0155655
606.694	0.0156120
606.772	0.0155621
606.850	0.0156295
606.928	0.0157343
607.006	0.0156399
607.084	0.0156633
607.163	0.0155842
607.241	0.0156406
607.319	0.0156203
607.397	0.0156895
607.475	0.0155422
607.553	0.0155806
607.631	0.0154739
607.709	0.0156384
607.788	0.0157055
607.866	0.0156019
607.944	0.0155524
608.022	0.0155667
608.100	0.0155066
608.178	0.0154015
608.256	0.0155785
608.334	0.0155913
608.413	0.0155535
608.491	0.0155022
608.569	0.0154891
608.647	0.0156390
608.725	0.0155341
608.803	0.0156239
608.881	0.0155785
608.959	0.0155438
609.038	0.0155007
609.116	0.0155512
609.194	0.0155479
609.272	0.0154979
609.350	0.0155032
609.428	0.0154595
609.506	0.0156088
609.584	0.0154538
609.663	0.0155212
609.741	0.0156223
609.819	0.0155028
609.897	0.0156197
609.975	0.0154897
610.053	0.0154814
610.131	0.0155039
610.209	0.0154783
610.288	0.0155932
610.366	0.0155805
610.444	0.0153181
610.522	0.0154983
610.600	0.0155691
610.678	0.0155456
610.756	0.0154945
610.834	0.0154547
610.913	0.0155132
610.991	0.0154494
611.069	0.0155222
611.147	0.0154531
611.225	0.0154601
611.303	0.0154553
611.381	0.0155235
611.459	0.0155642
611.538	0.0154801
611.616	0.0154008
611.694	0.0154925
611.772	0.0155296
611.850	0.0155096
611.928	0.0154390
612.006	0.0155125
612.084	0.0155023
612.163	0.0154403
612.241	0.0156094
612.319	0.0155772
612.397	0.0154940
612.475	0.0156331
612.553	0.0153860
612.631	0.0155447
612.709	0.0154684
612.788	0.0153674
612.866	0.0155277
612.944	0.0155585
613.022	0.0156219
613.100	0.0154409
613.178	0.0154718
613.256	0.0154890
613.334	0.0156359
613.413	0.0154446
613.491	0.0155901
613.569	0.0156441
613.647	0.0156145
613.725	0.0155542
613.803	0.0155273
613.881	0.0153555
613.959	0.0154961
614.038	0.0155790
614.116	0.0156627
614.194	0.0155443
614.272	0.0155376
614.350	0.0155238
614.428	0.0154227
614.506	0.0156422
614.584	0.0156357
614.663	0.0155750
614.741	0.0155090
614.819	0.0155393
614.897	0.0155215
614.975	0.0155528
615.053	0.0155621
615.131	0.0156232
615.209	0.0155701
615.288	0.0156030
615.366	0.0155103
615.444	0.0155199
615.522	0.0154162
615.600	0.0156207
615.678	0.0154570
615.756	0.0155885
615.834	0.0155459
615.913	0.0156149
615.991	0.0156149
616.069	0.0154827
616.147	0.0156272
616.225	0.0155582
616.303	0.0156595
616.381	0.0154969
616.459	0.0155331
616.538	0.0156928
616.616	0.0157191
616.694	0.0155587
616.772	0.0156551
616.850	0.0157310
616.928	0.0157167
617.006	0.0158335
617.084	0.0157742
617.163	0.0157963
617.241	0.0158764
617.319	0.0157147
617.397	0.0159003
617.475	0.0158394
617.553	0.0156621
617.631	0.0156609
617.709	0.0158389
617.788	0.0157760
617.866	0.0157250
617.944	0.0157413
618.022	0.0158076
618.100	0.0158773
618.178	0.0160266
618.256	0.0159132
618.334	0.0157951
618.413	0.0158482
618.491	0.0158723
618.569	0.0158882
618.647	0.0159348
618.725	0.0158748
618.803	0.0158874
618.881	0.0158544
618.959	0.0158539
619.038	0.0157962
619.116	0.0158788
619.194	0.0158099
619.272	0.0157742
619.350	0.0157711
619.428	0.0157807
619.506	0.0157887
619.584	0.0157442
619.663	0.0157693
619.741	0.0157308
619.819	0.0156944
619.897	0.0158738
619.975	0.0158152
620.053	0.0157092
620.131	0.0159265
620.209	0.0157219
620.288	0.0157258
620.366	0.0156889
620.444	0.0157734
620.522	0.0158091
620.600	0.0156844
620.678	0.0156986
620.756	0.0159123
620.834	0.0157884
620.913	0.0158682
620.991	0.0156790
621.069	0.0157515
621.147	0.0156864
621.225	0.0156404
621.303	0.0156338
621.381	0.0156609
621.459	0.0157059
621.538	0.0156268
621.616	0.0155638
621.694	0.0157668
621.772	0.0158169
621.850	0.0156997
621.928	0.0156134
622.006	0.0156033
622.084	0.0156932
622.163	0.0156628
622.241	0.0158932
622.319	0.0156138
622.397	0.0155743
622.475	0.0156403
622.553	0.0157547
622.631	0.0156876
622.709	0.0156937
622.788	0.0156715
622.866	0.0156493
622.944	0.0156734
623.022	0.0155956
623.100	0.0155578
623.178	0.0156379
623.256	0.0156899
623.334	0.0157465
623.413	0.0156030
623.491	0.0154942
623.569	0.0155685
623.647	0.0157138
623.725	0.0156239
623.803	0.0155128
623.881	0.0156546
623.959	0.0155768
624.038	0.0155238
624.116	0.0155550
624.194	0.0156921
624.272	0.0155193
624.350	0.0156799
624.428	0.0156215
624.506	0.0155568
624.584	0.0154241
624.663	0.0155389
624.741	0.0155197
624.819	0.0154987
624.897	0.0156933
624.975	0.0154572
625.053	0.0155801
625.131	0.0155693
625.209	0.0155579
625.288	0.0155340
625.366	0.0155193
625.444	0.0155874
625.522	0.0155871
625.600	0.0155236
625.678	0.0155744
625.756	0.0154686
625.834	0.0156150
625.913	0.0155827
625.991	0.0155725
626.069	0.0154490
626.147	0.0156097
626.225	0.0157595
626.303	0.0156224
626.381	0.0155590
626.459	0.0155810
626.538	0.0155138
626.616	0.0157583
626.694	0.0155813
626.772	0.0154807
626.850	0.0156541
626.928	0.0156257
627.006	0.0155552
627.084	0.0155286
627.163	0.0155751
627.241	0.0156835
627.319	0.0156971
627.397	0.0156559
627.475	0.0156700
627.553	0.0156172
627.631	0.0155800
627.709	0.0156924
627.788	0.0155717
627.866	0.0157058
627.944	0.0155654
628.022	0.0155431
628.100	0.0156271
628.178	0.0157057
628.256	0.0156509
628.334	0.0155799
628.413	0.0155365
628.491	0.0156611
628.569	0.0156521
628.647	0.0156231
628.725	0.0156697
628.803	0.0155797
628.881	0.0155629
628.959	0.0156127
629.038	0.0154942
629.116	0.0154865
629.194	0.0154194
629.272	0.0155530
629.350	0.0156262
629.428	0.0154964
629.506	0.0154581
629.584	0.0154361
629.663	0.0153931
629.741	0.0155122
629.819	0.0154946
629.897	0.0154611
629.975	0.0154919
630.053	0.0155854
630.131	0.0155249
630.209	0.0154772
630.288	0.0153345
630.366	0.0153823
630.444	0.0153428
630.522	0.0152950
630.600	0.0153728
630.678	0.0153930
630.756	0.0154183
630.834	0.0154424
630.913	0.0153655
630.991	0.0154351
631.069	0.0154762
631.147	0.0153228
631.225	0.0153521
631.303	0.0153516
631.381	0.0154941
631.459	0.0154649
631.538	0.0153329
631.616	0.0153408
631.694	0.0153354
631.772	0.0153951
631.850	0.0154126
631.928	0.0153323
632.006	0.0153629
632.084	0.0153438
632.163	0.0155177
632.241	0.0154176
632.319	0.0153037
632.397	0.0153095
632.475	0.0155768
632.553	0.0154142
632.631	0.0153943
632.709	0.0154656
632.788	0.0153521
632.866	0.0154712
632.944	0.0154179
633.022	0.0154317
633.100	0.0155146
633.178	0.0155025
633.256	0.0153716
633.334	0.0152414
633.413	0.0153221
633.491	0.0154785
633.569	0.0154762
633.647	0.0153754
633.725	0.0154044
633.803	0.0153726
633.881	0.0153612
633.959	0.0155176
634.038	0.0152801
634.116	0.0153885
634.194	0.0153696
634.272	0.0155246
634.350	0.0155375
634.428	0.0154652
634.506	0.0153146
634.584	0.0152963
634.663	0.0155331
634.741	0.0154873
634.819	0.0153782
634.897	0.0154765
634.975	0.0154404
635.053	0.0154836
635.131	0.0155454
635.209	0.0154784
635.288	0.0155441
635.366	0.0154433
635.444	0.0155438
635.522	0.0155745
635.600	0.0153693
635.678	0.0155025
635.756	0.0156416
635.834	0.0155623
635.913	0.0154654
635.991	0.0154634
636.069	0.0155150
636.147	0.0155774
636.225	0.0156278
636.303	0.0154813
636.381	0.0156339
636.459	0.0155109
636.538	0.0156264
636.616	0.0156335
636.694	0.0156447
636.772	0.0156593
636.850	0.0155518
636.928	0.0157119
637.006	0.0155656
637.084	0.0156167
637.163	0.0157203
637.241	0.0157430
637.319	0.0156212
637.397	0.0156588
637.475	0.0156454
637.553	0.0156886
637.631	0.0156594
637.709	0.0157024
637.788	0.0156939
637.866	0.0157101
637.944	0.0157123
638.022	0.0158439
638.100	0.0155434
638.178	0.0157206
638.256	0.0156112
638.334	0.0157663
638.413	0.0158092
638.491	0.0157018
638.569	0.0156406
638.647	0.0158197
638.725	0.0159019
638.803	0.0157060
638.881	0.0156850
638.959	0.0156641
639.038	0.0157241
639.116	0.0157263
639.194	0.0156052
639.272	0.0155972
639.350	0.0156456
639.428	0.0157999
639.506	0.0157192
639.584	0.0156768
639.663	0.0156502
639.741	0.0157294
639.819	0.0156253
639.897	0.0156805
639.975	0.0157738
640.053	0.0156427
640.131	0.0156512
640.209	0.0156838
640.288	0.0158498
640.366	0.0157291
640.444	0.0156499
640.522	0.0157844
640.600	0.0157514
640.678	0.0154767
640.756	0.0156304
640.834	0.0156453
640.913	0.0157966
640.991	0.0156693
641.069	0.0155789
641.147	0.0156913
641.225	0.0157579
641.303	0.0157041
641.381	0.0156536
641.459	0.0156202
641.538	0.0156039
641.616	0.0156306
641.694	0.0156016
641.772	0.0156766
641.850	0.0156301
641.928	0.0156386
642.006	0.0155750
642.084	0.0155108
642.163	0.0156477
642.241	0.0156223
642.319	0.0155974
642.397	0.0155878
642.475	0.0156679
642.553	0.0156016
642.631	0.0156557
642.709	0.0156600
642.788	0.0156149
642.866	0.0156364
642.944	0.0155534
643.022	0.0156534
643.100	0.0156612
643.178	0.0155910
643.256	0.0155096
643.334	0.0155987
643.413	0.0155001
643.491	0.0156857
643.569	0.0157021
643.647	0.0155938
643.725	0.0156403
643.803	0.0155618
643.881	0.0155582
643.959	0.0155928
644.038	0.0155898
644.116	0.0156399
644.194	0.0156252
644.272	0.0155688
644.350	0.0157148
644.428	0.0155862
644.506	0.0155893
644.584	0.0157219
644.663	0.0157672
644.741	0.0156528
644.819	0.0156637
644.897	0.0156558
644.975	0.0156219
645.053	0.0156239
645.131	0.0156705
645.209	0.0156982
645.288	0.0155209
645.366	0.0156548
645.444	0.0156667
645.522	0.0156323
645.600	0.0156071
645.678	0.0156995
645.756	0.0156235
645.834	0.0156185
645.913	0.0157251
645.991	0.0156734
646.069	0.0156372
646.147	0.0157303
646.225	0.0156302
646.303	0.0156757
646.381	0.0156432
646.459	0.0157687
646.538	0.0156390
646.616	0.0156902
646.694	0.0156615
646.772	0.0156892
646.850	0.0157251
646.928	0.0156529
647.006	0.0157563
647.084	0.0157581
647.163	0.0156922
647.241	0.0156105
647.319	0.0157676
647.397	0.0157615
647.475	0.0156174
647.553	0.0156599
647.631	0.0157390
647.709	0.0157558
647.788	0.0157600
647.866	0.0155981
647.944	0.0156664
648.022	0.0156113
648.100	0.0157964
648.178	0.0157755
648.256	0.0155791
648.334	0.0158147
648.413	0.0158920
648.491	0.0157001
648.569	0.0158854
648.647	0.0156920
648.725	0.0157558
648.803	0.0158881
648.881	0.0158356
648.959	0.0157121
649.038	0.0157168
649.116	0.0158241
649.194	0.0157694
649.272	0.0157069
649.350	0.0157841
649.428	0.0159640
649.506	0.0157722
649.584	0.0157341
649.663	0.0156307
649.741	0.0157467
649.819	0.0156670
649.897	0.0157489
649.975	0.0157533
650.053	0.0157096
650.131	0.0157969
650.209	0.0156979
650.288	0.0156792
650.366	0.0156194
650.444	0.0156182
650.522	0.0155943
650.600	0.0156125
650.678	0.0156982
650.756	0.0155903
650.834	0.0156186
650.913	0.0155562
650.991	0.0155728
651.069	0.0154853
651.147	0.0155913
651.225	0.0154559
651.303	0.0154401
651.381	0.0155492
651.459	0.0155813
651.538	0.0155512
651.616	0.0156561
651.694	0.0155747
651.772	0.0155608
651.850	0.0155246
651.928	0.0155592
652.006	0.0155338
652.084	0.0154803
652.163	0.0154350
652.241	0.0154744
652.319	0.0155174
652.397	0.0155044
652.475	0.0155627
652.553	0.0155664
652.631	0.0156106
652.709	0.0154610
652.788	0.0155524
652.866	0.0154720
652.944	0.0152760
653.022	0.0155178
653.100	0.0155566
653.178	0.0154057
653.256	0.0153276
653.334	0.0155295
653.413	0.0155553
653.491	0.0155647
653.569	0.0155793
653.647	0.0155218
653.725	0.0153920
653.803	0.0153522
653.881	0.0154254
653.959	0.0154805
654.038	0.0154589
654.116	0.0154855
654.194	0.0155324
654.272	0.0154528
654.350	0.0154310
654.428	0.0154192
654.506	0.0155019
654.584	0.0154454
654.663	0.0155090
654.741	0.0153796
654.819	0.0154114
654.897	0.0154249
654.975	0.0154069
655.053	0.0154082
655.131	0.0153093
655.209	0.0152632
655.288	0.0153425
655.366	0.0153600
655.444	0.0154040
655.522	0.0154832
655.600	0.0152802
655.678	0.0153179
655.756	0.0153940
655.834	0.0152800
655.913	0.0153765
655.991	0.0154478
656.069	0.0153664
656.147	0.0154890
656.225	0.0152269
656.303	0.0153274
656.381	0.0153913
656.459	0.0154025
656.538	0.0152905
656.616	0.0153679
656.694	0.0154642
656.772	0.0154829
656.850	0.0152929
656.928	0.0153819
657.006	0.0154145
657.084	0.0154779
657.163	0.0154333
657.241	0.0154961
657.319	0.0154252
657.397	0.0154296
657.475	0.0155512
657.553	0.0152706
657.631	0.0154565
657.709	0.0153525
657.788	0.0153638
657.866	0.0154561
657.944	0.0155271
658.022	0.0153432
658.100	0.0154305
658.178	0.0154833
658.256	0.0154311
658.334	0.0154542
658.413	0.0154460
658.491	0.0154430
658.569	0.0154090
658.647	0.0155928
658.725	0.0156252
658.803	0.0154787
658.881	0.0156081
658.959	0.0155057
659.038	0.0155946
659.116	0.0156040
659.194	0.0158031
659.272	0.0156091
659.350	0.0154400
659.428	0.0154567
659.506	0.0154786
659.584	0.0153474
659.663	0.0154602
659.741	0.0155464
659.819	0.0153168
659.897	0.0153168
659.975	0.0153642
660.053	0.0153873
660.131	0.0154166
660.209	0.0154478
660.288	0.0155471
660.366	0.0155967
660.444	0.0155899
660.522	0.0156956
660.600	0.0154553
660.678	0.0156668
660.756	0.0157333
660.834	0.0157991
660.913	0.0158424
660.991	0.0157526
661.069	0.0157729
661.147	0.0158020
661.225	0.0158328
661.303	0.0156836
661.381	0.0157484
661.459	0.0158138
661.538	0.0158986
661.616	0.0156268
661.694	0.0156194
661.772	0.0156348
661.850	0.0156787
661.928	0.0154831
662.006	0.0156622
662.084	0.0157397
662.163	0.0154895
662.241	0.0155067
662.319	0.0157633
662.397	0.0157301
662.475	0.0158028
662.553	0.0156659
662.631	0.0157285
662.709	0.0157845
662.788	0.0157586
662.866	0.0156994
662.944	0.0159301
663.022	0.0160178
663.100	0.0159144
663.178	0.0159424
663.256	0.0159235
663.334	0.0158370
663.413	0.0160098
663.491	0.0160551
663.569	0.0159838
663.647	0.0157310
663.725	0.0159131
663.803	0.0158954
663.881	0.0157774
663.959	0.0158748
664.038	0.0159260
664.116	0.0159137
664.194	0.0156424
664.272	0.0155654
664.350	0.0154396
664.428	0.0154057
664.506	0.0152184
664.584	0.0151141
664.663	0.0151558
664.741	0.0150554
664.819	0.0148958
664.897	0.0149152
664.975	0.0147780
665.053	0.0148380
665.131	0.0146622
665.209	0.0148168
665.288	0.0149761
665.366	0.0148460
665.444	0.0149936
665.522	0.0148406
665.600	0.0149996
665.678	0.0150227
665.756	0.0151511
665.834	0.0152015
665.913	0.0153641
665.991	0.0154178
666.069	0.0153918
666.147	0.0156017
666.225	0.0155475
666.303	0.0155510
666.381	0.0156094
666.459	0.0157052
666.538	0.0158777
666.616	0.0158016
666.694	0.0159731
666.772	0.0159479
666.850	0.0160381
666.928	0.0161785
667.006	0.0162481
667.084	0.0160622
667.163	0.0161317
667.241	0.0162618
667.319	0.0160807
667.397	0.0160993
667.475	0.0161152
667.553	0.0160839
667.631	0.0159718
667.709	0.0158630
667.788	0.0157636
667.866	0.0157895
667.944	0.0158139
668.022	0.0156955
668.100	0.0157045
668.178	0.0156356
668.256	0.0155100
668.334	0.0155405
668.413	0.0155954
668.491	0.0154964
668.569	0.0153840
668.647	0.0153542
668.725	0.0152769
668.803	0.0151149
668.881	0.0151958
668.959	0.0150513
669.038	0.0149155
669.116	0.0150658
669.194	0.0149751
669.272	0.0149429
669.350	0.0148147
669.428	0.0147704
669.506	0.0147636
669.584	0.0146964
669.663	0.0147543
669.741	0.0145656
669.819	0.0146256
669.897	0.0148251
669.975	0.0148138
670.053	0.0150996
670.131	0.0151463
670.209	0.0152341
670.288	0.0154990
670.366	0.0156288
670.444	0.0156894
670.522	0.0158635
670.600	0.0160086
670.678	0.0161172
670.756	0.0163038
670.834	0.0164926
670.913	0.0167803
670.991	0.0167262
671.069	0.0167550
671.147	0.0169405
671.225	0.0169823
671.303	0.0170339
671.381	0.0170853
671.459	0.0173132
671.538	0.0172906
671.616	0.0170492
671.694	0.0169917
671.772	0.0170467
671.850	0.0168010
671.928	0.0168365
672.006	0.0167134
672.084	0.0164651
672.163	0.0162617
672.241	0.0160558
672.319	0.0157494
672.397	0.0155466
672.475	0.0155168
672.553	0.0152164
672.631	0.0150721
672.709	0.0148999
672.788	0.0148657
672.866	0.0146301
672.944	0.0145463
673.022	0.0143256
673.100	0.0141797
673.178	0.0142343
673.256	0.0142030
673.334	0.0141210
673.413	0.0140084
673.491	0.0141095
673.569	0.0139881
673.647	0.0140685
673.725	0.0141991
673.803	0.0141649
673.881	0.0143224
673.959	0.0143713
674.038	0.0143650
674.116	0.0145576
674.194	0.0148382
674.272	0.0148730
674.350	0.0151415
674.428	0.0152354
674.506	0.0154947
674.584	0.0156122
674.663	0.0158094
674.741	0.0159925
674.819	0.0161814
674.897	0.0161450
674.975	0.0162995
675.053	0.0164065
675.131	0.0164108
675.209	0.0166764
675.288	0.0166311
675.366	0.0167604
675.444	0.0168481
675.522	0.0167356
675.600	0.0167725
675.678	0.0167487
675.756	0.0170008
675.834	0.0170683
675.913	0.0170313
675.991	0.0168390
676.069	0.0172239
676.147	0.0171100
676.225	0.0169830
676.303	0.0169784
676.381	0.0168954
676.459	0.0167194
676.538	0.0165910
676.616	0.0165061
676.694	0.0161629
676.772	0.0159766
676.850	0.0158983
676.928	0.0157569
677.006	0.0154551
677.084	0.0152149
677.163	0.0149558
677.241	0.0147750
677.319	0.0146923
677.397	0.0143385
677.475	0.0141793
677.553	0.0141057
677.631	0.0138194
677.709	0.0137455
677.788	0.0136988
677.866	0.0135350
677.944	0.0135752
678.022	0.0135824
678.100	0.0135432
678.178	0.0136295
678.256	0.0135864
678.334	0.0136443
678.413	0.0139386
678.491	0.0140104
678.569	0.0141359
678.647	0.0142564
678.725	0.0145823
678.803	0.0149136
678.881	0.0150071
678.959	0.0154339
679.038	0.0156522
679.116	0.0157819
679.194	0.0159837
679.272	0.0161411
679.350	0.0162983
679.428	0.0164958
679.506	0.0166811
679.584	0.0167010
679.663	0.0167509
679.741	0.0167652
679.819	0.0169205
679.897	0.0169312
679.975	0.0168910
680.053	0.0168999
680.131	0.0168353
680.209	0.0166353
680.288	0.0167036
680.366	0.0166845
680.444	0.0165292
680.522	0.0163444
680.600	0.0163535
680.678	0.0162282
680.756	0.0162093
680.834	0.0159834
680.913	0.0158755
680.991	0.0157056
681.069	0.0154104
681.147	0.0153247
681.225	0.0151399
681.303	0.0151639
681.381	0.0149773
681.459	0.0150464
681.538	0.0149052
681.616	0.0149797
681.694	0.0150034
681.772	0.0149850
681.850	0.0150992
681.928	0.0149873
682.006	0.0150714
682.084	0.0151754
682.163	0.0151857
682.241	0.0153063
682.319	0.0153615
682.397	0.0153952
682.475	0.0154475
682.553	0.0153467
682.631	0.0155832
682.709	0.0155488
682.788	0.0157005
682.866	0.0156410
682.944	0.0158788
683.022	0.0158114
683.100	0.0156828
683.178	0.0158215
683.256	0.0160532
683.334	0.0159597
683.413	0.0159097
683.491	0.0159509
683.569	0.0160385
683.647	0.0160122
683.725	0.0158859
683.803	0.0158047
683.881	0.0158527
683.959	0.0157291
684.038	0.0155434
684.116	0.0153377
684.194	0.0153136
684.272	0.0153606
684.350	0.0153846
684.428	0.0150792
684.506	0.0149084
684.584	0.0147974
684.663	0.0147173
684.741	0.0147466
684.819	0.0146394
684.897	0.0144663
684.975	0.0145174
685.053	0.0145693
685.131	0.0144717
685.209	0.0143101
685.288	0.0143195
685.366	0.0142953
685.444	0.0144094
685.522	0.0142990
685.600	0.0146902
685.678	0.0145653
685.756	0.0146661
685.834	0.0147924
685.913	0.0148685
685.991	0.0150178
686.069	0.0152000
686.147	0.0154039
686.225	0.0156668
686.303	0.0159443
686.381	0.0158880
686.459	0.0161534
686.538	0.0163510
686.616	0.0163924
686.694	0.0165099
686.772	0.0165691
686.850	0.0166962
686.928	0.0165749
687.006	0.0167591
687.084	0.0166877
687.163	0.0166709
687.241	0.0166024
687.319	0.0165144
687.397	0.0165228
687.475	0.0163432
687.553	0.0163165
687.631	0.0162991
687.709	0.0161651
687.788	0.0158676
687.866	0.0158372
687.944	0.0156608
688.022	0.0156077
688.100	0.0155769
688.178	0.0154070
688.256	0.0153110
688.334	0.0151921
688.413	0.0151832
688.491	0.0151241
688.569	0.0150531
688.647	0.0150237
688.725	0.0151260
688.803	0.0153477
688.881	0.0153290
688.959	0.0153472
689.038	0.0152592
689.116	0.0154003
689.194	0.0153818
689.272	0.0153463
689.350	0.0154353
689.428	0.0154181
689.506	0.0156129
689.584	0.0155064
689.663	0.0154261
689.741	0.0153856
689.819	0.0152290
689.897	0.0152299
689.975	0.0154530
690.053	0.0151289
690.131	0.0151295
690.209	0.0151006
690.288	0.0149691
690.366	0.0148749
690.444	0.0148395
690.522	0.0147889
690.600	0.0147078
690.678	0.0145146
690.756	0.0144583
690.834	0.0145347
690.913	0.0144277
690.991	0.0144441
691.069	0.0144672
691.147	0.0144637
691.225	0.0144354
691.303	0.0144193
691.381	0.0145561
691.459	0.0145293
691.538	0.0144114
691.616	0.0146771
691.694	0.0147207
691.772	0.0148643
691.850	0.0149926
691.928	0.0150615
692.006	0.0152346
692.084	0.0153254
692.163	0.0154563
692.241	0.0156343
692.319	0.0160070
692.397	0.0161658
692.475	0.0164220
692.553	0.0165862
692.631	0.0168520
692.709	0.0167646
692.788	0.0172134
692.866	0.0175562
692.944	0.0175670
693.022	0.0177260
693.100	0.0178555
693.178	0.0180215
693.256	0.0179375
693.334	0.0181647
693.413	0.0181577
693.491	0.0181636
693.569	0.0179755
693.647	0.0179301
693.725	0.0177629
693.803	0.0174085
693.881	0.0174854
693.959	0.0173619
694.038	0.0170052
694.116	0.0167767
694.194	0.0163586
694.272	0.0162976
694.350	0.0160215
694.428	0.0156590
694.506	0.0153341
694.584	0.0150377
694.663	0.0146900
694.741	0.0144534
694.819	0.0142596
694.897	0.0139828
694.975	0.0138934
695.053	0.0134321
695.131	0.0132793
695.209	0.0132352
695.288	0.0132702
695.366	0.0130469
695.444	0.0129900
695.522	0.0131111
695.600	0.0131340
695.678	0.0131427
695.756	0.0132945
695.834	0.0133234
695.913	0.0134457
695.991	0.0136163
696.069	0.0137531
696.147	0.0137926
696.225	0.0141138
696.303	0.0140643
696.381	0.0141885
696.459	0.0146625
696.538	0.0147507
696.616	0.0147289
696.694	0.0151080
696.772	0.0153468
696.850	0.0156355
696.928	0.0156478
697.006	0.0159673
697.084	0.0160981
697.163	0.0165118
697.241	0.0167206
697.319	0.0168153
697.397	0.0169074
697.475	0.0170287
697.553	0.0172785
697.631	0.0173929
697.709	0.0173308
697.788	0.0173679
697.866	0.0174506
697.944	0.0174870
698.022	0.0175501
698.100	0.0176143
698.178	0.0175420
698.256	0.0176395
698.334	0.0175698
698.413	0.0175117
698.491	0.0173975
698.569	0.0174310
698.647	0.0170761
698.725	0.0169751
698.803	0.0167422
698.881	0.0165965
698.959	0.0163048
699.038	0.0162849
699.116	0.0159935
699.194	0.0159172
699.272	0.0156247
699.350	0.0154297
699.428	0.0152236
699.506	0.0148725
699.584	0.0148633
699.663	0.0147106
699.741	0.0145769
699.819	0.0143077
699.897	0.0142466
699.975	0.0141026
700.053	0.0139565
700.131	0.0139783
700.209	0.0140649
700.288	0.0140916
700.366	0.0140773
700.444	0.0141763
700.522	0.0142608
700.600	0.0143718
700.678	0.0146085
700.756	0.0147490
700.834	0.0149191
700.913	0.0150837
700.991	0.0152862
701.069	0.0152779
701.147	0.0154299
701.225	0.0156905
701.303	0.0157030
701.381	0.0156164
701.459	0.0156656
701.538	0.0157659
701.616	0.0157584
701.694	0.0156384
701.772	0.0156127
701.850	0.0156206
701.928	0.0156519
702.006	0.0156803
702.084	0.0155121
702.163	0.0154306
702.241	0.0154364
702.319	0.0154813
702.397	0.0153661
702.475	0.0154090
702.553	0.0154063
702.631	0.0154614
702.709	0.0153865
702.788	0.0155689
702.866	0.0154727
702.944	0.0156313
703.022	0.0157203
703.100	0.0159441
703.178	0.0161330
703.256	0.0161861
703.334	0.0161943
703.413	0.0163960
703.491	0.0165235
703.569	0.0166425
703.647	0.0165537
703.725	0.0167715
703.803	0.0166607
703.881	0.0165005
703.959	0.0166565
704.038	0.0167720
704.116	0.0165533
704.194	0.0166326
704.272	0.0165661
704.350	0.0164093
704.428	0.0162759
704.506	0.0162352
704.584	0.0161282
704.663	0.0160917
704.741	0.0158362
704.819	0.0157406
704.897	0.0155420
704.975	0.0153522
705.053	0.0150925
705.131	0.0150864
705.209	0.0148769
705.288	0.0146509
705.366	0.0144816
705.444	0.0143626
705.522	0.0144180
705.600	0.0143835
705.678	0.0143526
705.756	0.0144557
705.834	0.0143495
705.913	0.0143612
705.991	0.0144462
706.069	0.0146352
706.147	0.0147024
706.225	0.0148223
706.303	0.0148778
706.381	0.0149387
706.459	0.0147524
706.538	0.0150508
706.616	0.0150045
706.694	0.0149489
706.772	0.0151935
706.850	0.0151644
706.928	0.0153273
707.006	0.0152592
707.084	0.0153407
707.163	0.0153538
707.241	0.0153923
707.319	0.0155382
707.397	0.0155933
707.475	0.0156922
707.553	0.0157861
707.631	0.0158296
707.709	0.0158719
707.788	0.0158631
707.866	0.0159189
707.944	0.0161710
708.022	0.0160957
708.100	0.0163528
708.178	0.0165065
708.256	0.0163683
708.334	0.0164812
708.413	0.0166264
708.491	0.0165051
708.569	0.0165053
708.647	0.0164377
708.725	0.0165644
708.803	0.0164596
708.881	0.0163049
708.959	0.0161617
709.038	0.0159984
709.116	0.0160309
709.194	0.0159891
709.272	0.0158875
709.350	0.0157316
709.428	0.0156208
709.506	0.0155332
709.584	0.0154291
709.663	0.0152659
709.741	0.0150243
709.819	0.0150843
709.897	0.0149535
709.975	0.0146857
710.053	0.0147372
710.131	0.0144315
710.209	0.0145075
710.288	0.0145110
710.366	0.0143540
710.444	0.0144968
710.522	0.0144131
710.600	0.0144396
710.678	0.0144116
710.756	0.0144691
710.834	0.0145871
710.913	0.0145981
710.991	0.0144897
711.069	0.0144720
711.147	0.0147056
711.225	0.0147260
711.303	0.0149158
711.381	0.0149902
711.459	0.0148996
711.538	0.0151457
711.616	0.0151575
711.694	0.0153711
711.772	0.0154336
711.850	0.0158079
711.928	0.0161754
712.006	0.0162280
712.084	0.0164497
712.163	0.0167870
712.241	0.0168558
712.319	0.0169705
712.397	0.0170466
712.475	0.0173257
712.553	0.0174190
712.631	0.0174331
712.709	0.0174871
712.788	0.0174969
712.866	0.0174424
712.944	0.0174290
713.022	0.0173796
713.100	0.0172862
713.178	0.0171087
713.256	0.0168106
713.334	0.0167721
713.413	0.0166567
713.491	0.0165788
713.569	0.0163031
713.647	0.0163163
713.725	0.0161042
713.803	0.0159042
713.881	0.0158651
713.959	0.0155309
714.038	0.0153525
714.116	0.0151189
714.194	0.0149352
714.272	0.0148231
714.350	0.0147224
714.428	0.0145733
714.506	0.0144686
714.584	0.0143721
714.663	0.0143966
714.741	0.0143061
714.819	0.0142017
714.897	0.0142217
714.975	0.0141406
715.053	0.0142274
715.131	0.0142066
715.209	0.0141136
715.288	0.0142311
715.366	0.0142764
715.444	0.0142392
715.522	0.0142079
715.600	0.0143588
715.678	0.0143635
715.756	0.0144271
715.834	0.0144740
715.913	0.0146460
715.991	0.0146819
716.069	0.0149482
716.147	0.0149593
716.225	0.0151698
716.303	0.0152833
716.381	0.0154005
716.459	0.0154330
716.538	0.0155804
716.616	0.0156039
716.694	0.0157741
716.772	0.0157719
716.850	0.0158701
716.928	0.0159714
717.006	0.0161437
717.084	0.0162459
717.163	0.0163080
717.241	0.0163923
717.319	0.0165425
717.397	0.0164544
717.475	0.0163597
717.553	0.0166240
717.631	0.0166725
717.709	0.0164831
717.788	0.0164642
717.866	0.0165058
717.944	0.0163968
718.022	0.0164175
718.100	0.0163639
718.178	0.0161622
718.256	0.0161839
718.334	0.0162557
718.413	0.0159836
718.491	0.0159441
718.569	0.0158961
718.647	0.0160391
718.725	0.0158747
718.803	0.0158186
718.881	0.0158297
718.959	0.0158495
719.038	0.0159898
719.116	0.0160295
719.194	0.0160458
719.272	0.0160297
719.350	0.0158631
719.428	0.0160405
719.506	0.0160476
719.584	0.0158908
719.663	0.0158909
719.741	0.0158488
719.819	0.0160126
719.897	0.0158692
719.975	0.0157520
720.053	0.0156213
720.131	0.0153934
720.209	0.0154601
720.288	0.0152524
720.366	0.0150787
720.444	0.0148116
720.522	0.0146835
720.600	0.0145323
720.678	0.0143652
720.756	0.0142693
720.834	0.0141478
720.913	0.0141214
720.991	0.0140124
721.069	0.0141114
721.147	0.0143211
721.225	0.0140881
721.303	0.0142979
721.381	0.0145581
721.459	0.0147659
721.538	0.0148180
721.616	0.0148795
721.694	0.0151559
721.772	0.0151281
721.850	0.0153350
721.928	0.0157040
722.006	0.0158440
722.084	0.0159048
722.163	0.0161242
722.241	0.0162328
722.319	0.0163903
722.397	0.0164359
722.475	0.0166908
722.553	0.0167252
722.631	0.0168211
722.709	0.0168000
722.788	0.0167834
722.866	0.0170200
722.944	0.0168610
723.022	0.0167891
723.100	0.0167591
723.178	0.0168458
723.256	0.0168278
723.334	0.0167435
723.413	0.0165501
723.491	0.0164141
723.569	0.0163498
723.647	0.0161711
723.725	0.0161491
723.803	0.0159894
723.881	0.0158082
723.959	0.0157465
724.038	0.0155148
724.116	0.0153651
724.194	0.0154655
724.272	0.0152982
724.350	0.0152691
724.428	0.0152434
724.506	0.0152753
724.584	0.0152797
724.663	0.0153159
724.741	0.0152698
724.819	0.0152773
724.897	0.0151967
724.975	0.0153686
725.053	0.0153970
725.131	0.0152489
725.209	0.0153555
725.288	0.0153452
725.366	0.0154012
725.444	0.0154948
725.522	0.0153740
725.600	0.0152759
725.678	0.0154851
725.756	0.0154239
725.834	0.0155653
725.913	0.0157635
725.991	0.0157594
726.069	0.0157947
726.147	0.0158083
726.225	0.0158597
726.303	0.0158344
726.381	0.0157594
726.459	0.0157693
726.538	0.0156419
726.616	0.0154256
726.694	0.0153976
726.772	0.0150470
726.850	0.0151267
726.928	0.0150162
727.006	0.0150081
727.084	0.0149960
727.163	0.0150475
727.241	0.0150635
727.319	0.0150258
727.397	0.0150653
727.475	0.0151708
727.553	0.0153229
727.631	0.0154034
727.709	0.0154975
727.788	0.0155723
727.866	0.0156738
727.944	0.0155833
728.022	0.0156150
728.100	0.0159400
728.178	0.0159579
728.256	0.0157918
728.334	0.0159705
728.413	0.0159315
728.491	0.0159256
728.569	0.0160102
728.647	0.0162491
728.725	0.0161834
728.803	0.0161269
728.881	0.0161267
728.959	0.0161625
729.038	0.0162226
729.116	0.0160837
729.194	0.0160913
729.272	0.0157884
729.350	0.0158192
729.428	0.0157339
729.506	0.0155741
729.584	0.0154137
729.663	0.0151937
729.741	0.0151500
729.819	0.0150491
729.897	0.0148634
729.975	0.0148982
730.053	0.0145792
730.131	0.0146184
730.209	0.0145686
730.288	0.0145886
730.366	0.0144763
730.444	0.0144075
730.522	0.0145650
730.600	0.0145759
730.678	0.0147124
730.756	0.0146109
730.834	0.0148158
730.913	0.0149638
730.991	0.0149823
731.069	0.0152906
731.147	0.0154063
731.225	0.0156445
731.303	0.0157276
731.381	0.0158997
731.459	0.0159816
731.538	0.0159540
731.616	0.0161790
731.694	0.0163272
731.772	0.0164447
731.850	0.0166313
731.928	0.0167347
732.006	0.0166462
732.084	0.0168307
732.163	0.0168906
732.241	0.0168395
732.319	0.0169780
732.397	0.0169063
732.475	0.0167583
732.553	0.0167525
732.631	0.0166421
732.709	0.0162535
732.788	0.0161816
732.866	0.0162086
732.944	0.0159976
733.022	0.0158225
733.100	0.0155740
733.178	0.0154954
733.256	0.0151722
733.334	0.0149140
733.413	0.0148946
733.491	0.0146915
733.569	0.0145834
733.647	0.0143831
733.725	0.0143970
733.803	0.0140871
733.881	0.0141335
733.959	0.0141852
734.038	0.0141422
734.116	0.0141915
734.194	0.0143982
734.272	0.0146017
734.350	0.0146007
734.428	0.0146786
734.506	0.0149622
734.584	0.0151105
734.663	0.0152368
734.741	0.0155514
734.819	0.0157511
734.897	0.0160284
734.975	0.0160019
735.053	0.0163545
735.131	0.0163771
735.209	0.0167073
735.288	0.0167215
735.366	0.0167021
735.444	0.0168677
735.522	0.0169780
735.600	0.0169757
735.678	0.0169990
735.756	0.0168767
735.834	0.0168779
735.913	0.0167653
735.991	0.0168082
736.069	0.0168374
736.147	0.0165730
736.225	0.0165007
736.303	0.0163329
736.381	0.0161932
736.459	0.0161982
736.538	0.0158637
736.616	0.0157978
736.694	0.0156045
736.772	0.0154391
736.850	0.0153333
736.928	0.0152295
737.006	0.0150903
737.084	0.0149155
737.163	0.0149174
737.241	0.0147510
737.319	0.0146117
737.397	0.0145741
737.475	0.0145271
737.553	0.0144999
737.631	0.0143958
737.709	0.0142892
737.788	0.0143296
737.866	0.0145346
737.944	0.0144959
738.022	0.0144068
738.100	0.0147461
738.178	0.0146712
738.256	0.0146934
738.334	0.0148866
738.413	0.0150705
738.491	0.0151511
738.569	0.0152396
738.647	0.0154050
738.725	0.0154858
738.803	0.0155373
738.881	0.0155569
738.959	0.0155098
739.038	0.0158016
739.116	0.0157683
739.194	0.0159102
739.272	0.0158556
739.350	0.0159216
739.428	0.0160020
739.506	0.0158595
739.584	0.0158855
739.663	0.0159678
739.741	0.0159129
739.819	0.0159530
739.897	0.0160598
739.975	0.0161458
740.053	0.0160123
740.131	0.0161317
740.209	0.0163281
740.288	0.0162691
740.366	0.0163077
740.444	0.0165308
740.522	0.0166547
740.600	0.0165966
740.678	0.0167489
740.756	0.0166901
740.834	0.0167867
740.913	0.0167154
740.991	0.0166489
741.069	0.0165668
741.147	0.0165716
741.225	0.0164469
741.303	0.0164346
741.381	0.0164069
741.459	0.0163445
741.538	0.0163586
741.616	0.0162521
741.694	0.0161102
741.772	0.0160230
741.850	0.0159824
741.928	0.0160062
742.006	0.0158584
742.084	0.0156590
742.163	0.0157275
742.241	0.0155330
742.319	0.0155118
742.397	0.0153748
742.475	0.0152391
742.553	0.0150060
742.631	0.0150179
742.709	0.0148839
742.788	0.0146722
742.866	0.0146182
742.944	0.0146220
743.022	0.0145511
743.100	0.0143473
743.178	0.0143645
743.256	0.0142040
743.334	0.0141817
743.413	0.0143938
743.491	0.0143850
743.569	0.0140707
743.647	0.0143121
743.725	0.0144450
743.803	0.0144897
743.881	0.0144606
743.959	0.0147728
744.038	0.0147390
744.116	0.0147955
744.194	0.0148946
744.272	0.0149936
744.350	0.0151900
744.428	0.0152856
744.506	0.0153046
744.584	0.0154762
744.663	0.0156564
744.741	0.0157080
744.819	0.0158375
744.897	0.0160246
744.975	0.0160879
745.053	0.0162012
745.131	0.0162114
745.209	0.0162533
745.288	0.0162440
745.366	0.0162331
745.444	0.0163006
745.522	0.0162779
745.600	0.0162620
745.678	0.0163792
745.756	0.0162276
745.834	0.0162778
745.913	0.0161443
745.991	0.0161167
746.069	0.0161227
746.147	0.0161368
746.225	0.0160151
746.303	0.0159492
746.381	0.0158933
746.459	0.0160337
746.538	0.0160554
746.616	0.0160220
746.694	0.0160789
746.772	0.0159295
746.850	0.0160152
746.928	0.0159824
747.006	0.0160661
747.084	0.0160249
747.163	0.0160627
747.241	0.0163574
747.319	0.0162207
747.397	0.0160130
747.475	0.0160097
747.553	0.0158916
747.631	0.0159009
747.709	0.0157041
747.788	0.0155278
747.866	0.0153610
747.944	0.0152674
748.022	0.0150743
748.100	0.0150659
748.178	0.0149146
748.256	0.0148293
748.334	0.0148593
748.413	0.0149158
748.491	0.0146282
748.569	0.0146690
748.647	0.0147616
748.725	0.0148647
748.803	0.0147728
748.881	0.0146385
748.959	0.0145405
749.038	0.0145982
749.116	0.0148224
749.194	0.0148887
749.272	0.0147456
749.350	0.0148554
749.428	0.0148965
749.506	0.0148721
749.584	0.0150198
749.663	0.0149821
749.741	0.0150019
749.819	0.0150965
749.897	0.0154434
749.975	0.0154122
750.053	0.0154117
750.131	0.0156714
750.209	0.0157256
750.288	0.0157914
750.366	0.0158508
750.444	0.0159186
750.522	0.0162205
750.600	0.0162155
750.678	0.0162174
750.756	0.0161951
750.834	0.0162206
750.913	0.0161497
750.991	0.0164073
751.069	0.0162591
751.147	0.0163398
751.225	0.0160413
751.303	0.0161589
751.381	0.0158925
751.459	0.0160419
751.538	0.0158324
751.616	0.0158309
751.694	0.0156670
751.772	0.0155546
751.850	0.0155069
751.928	0.0153869
752.006	0.0153783
752.084	0.0152650
752.163	0.0151880
752.241	0.0151424
752.319	0.0150983
752.397	0.0151000
752.475	0.0152661
752.553	0.0152185
752.631	0.0152029
752.709	0.0152265
752.788	0.0152677
752.866	0.0155056
752.944	0.0155280
753.022	0.0155509
753.100	0.0154770
753.178	0.0157323
753.256	0.0157841
753.334	0.0158389
753.413	0.0159113
753.491	0.0160230
753.569	0.0160551
753.647	0.0162638
753.725	0.0163342
753.803	0.0162675
753.881	0.0163011
753.959	0.0164506
754.038	0.0164628
754.116	0.0163998
754.194	0.0165614
754.272	0.0165356
754.350	0.0163342
754.428	0.0163171
754.506	0.0161966
754.584	0.0161491
754.663	0.0160369
754.741	0.0158804
754.819	0.0158414
754.897	0.0155869
754.975	0.0155762
755.053	0.0154658
755.131	0.0152348
755.209	0.0150313
755.288	0.0149928
755.366	0.0150910
755.444	0.0148972
755.522	0.0150047
755.600	0.0150078
755.678	0.0149049
755.756	0.0149271
755.834	0.0152499
755.913	0.0154223
755.991	0.0152743
756.069	0.0155301
756.147	0.0157450
756.225	0.0158884
756.303	0.0160796
756.381	0.0161582
756.459	0.0162018
756.538	0.0164408
756.616	0.0163301
756.694	0.0165694
756.772	0.0164851
756.850	0.0165961
756.928	0.0164496
757.006	0.0164960
757.084	0.0164251
757.163	0.0162712
757.241	0.0163367
757.319	0.0160468
757.397	0.0160700
757.475	0.0159283
757.553	0.0157211
757.631	0.0156746
757.709	0.0156492
757.788	0.0154615
757.866	0.0154169
757.944	0.0152321
758.022	0.0151820
758.100	0.0150392
758.178	0.0150153
758.256	0.0149500
758.334	0.0149425
758.413	0.0148717
758.491	0.0148355
758.569	0.0148928
758.647	0.0149221
758.725	0.0149857
758.803	0.0149563
758.881	0.0148891
758.959	0.0151709
759.038	0.0151300
759.116	0.0149162
759.194	0.0149581
759.272	0.0151205
759.350	0.0151550
759.428	0.0152824
759.506	0.0154903
759.584	0.0154772
759.663	0.0154846
759.741	0.0156222
759.819	0.0156319
759.897	0.0157542
759.975	0.0157174
760.053	0.0157966
760.131	0.0157417
760.209	0.0156479
760.288	0.0156975
760.366	0.0158580
760.444	0.0156094
760.522	0.0155740
760.600	0.0155865
760.678	0.0156026
760.756	0.0156690
760.834	0.0154704
760.913	0.0156705
760.991	0.0155148
761.069	0.0155320
761.147	0.0154027
761.225	0.0155115
761.303	0.0155193
761.381	0.0155453
761.459	0.0155520
761.538	0.0155806
761.616	0.0156178
761.694	0.0156454
761.772	0.0156669
761.850	0.0156359
761.928	0.0157435
762.006	0.0157381
762.084	0.0157582
762.163	0.0158250
762.241	0.0158154
762.319	0.0157381
762.397	0.0159388
762.475	0.0157877
762.553	0.0158999
762.631	0.0159683
762.709	0.0158749
762.788	0.0157468
762.866	0.0157790
762.944	0.0157664
763.022	0.0155860
763.100	0.0154963
763.178	0.0156814
763.256	0.0156516
763.334	0.0155314
763.413	0.0152943
763.491	0.0154570
763.569	0.0156082
763.647	0.0154122
763.725	0.0154250
763.803	0.0153674
763.881	0.0154382
763.959	0.0154855
764.038	0.0154651
764.116	0.0154443
764.194	0.0154837
764.272	0.0155022
764.350	0.0155420
764.428	0.0154939
764.506	0.0154485
764.584	0.0154536
764.663	0.0153689
764.741	0.0155373
764.819	0.0154749
764.897	0.0152817
764.975	0.0153029
765.053	0.0153278
765.131	0.0152241
765.209	0.0152816
765.288	0.0151653
765.366	0.0150910
765.444	0.0152063
765.522	0.0151965
765.600	0.0152675
765.678	0.0151065
765.756	0.0153320
765.834	0.0153535
765.913	0.0152464
765.991	0.0152344
766.069	0.0154930
766.147	0.0153490
766.225	0.0154315
766.303	0.0154610
766.381	0.0153954
766.459	0.0154720
766.538	0.0155283
766.616	0.0156179
766.694	0.0156953
766.772	0.0156606
766.850	0.0156642
766.928	0.0158549
767.006	0.0157041
767.084	0.0158380
767.163	0.0158978
767.241	0.0159778
767.319	0.0159139
767.397	0.0159614
767.475	0.0160410
767.553	0.0159921
767.631	0.0158603
767.709	0.0158585
767.788	0.0157855
767.866	0.0158057
767.944	0.0156908
768.022	0.0155261
768.100	0.0154659
768.178	0.0153482
768.256	0.0152188
768.334	0.0151336
768.413	0.0151376
768.491	0.0148362
768.569	0.0148455
768.647	0.0146297
768.725	0.0145948
768.803	0.0145488
768.881	0.0144584
768.959	0.0143858
769.038	0.0144007
769.116	0.0143165
769.194	0.0144242
769.272	0.0145738
769.350	0.0144834
769.428	0.0145461
769.506	0.0146951
769.584	0.0146658
769.663	0.0149648
769.741	0.0150729
769.819	0.0150282
769.897	0.0150707
769.975	0.0154681
770.053	0.0155137
770.131	0.0155229
770.209	0.0156356
770.288	0.0157197
770.366	0.0158598
770.444	0.0159254
770.522	0.0161263
770.600	0.0161362
770.678	0.0161972
770.756	0.0162162
770.834	0.0162619
770.913	0.0162978
770.991	0.0163225
771.069	0.0163337
771.147	0.0161331
771.225	0.0161658
771.303	0.0162548
771.381	0.0161398
771.459	0.0162252
771.538	0.0163917
771.616	0.0162170
771.694	0.0161798
771.772	0.0164055
771.850	0.0162163
771.928	0.0161745
772.006	0.0159435
772.084	0.0160265
772.163	0.0160035
772.241	0.0159570
772.319	0.0157701
772.397	0.0158175
772.475	0.0156591
772.553	0.0156509
772.631	0.0155938
772.709	0.0153857
772.788	0.0153221
772.866	0.0152867
772.944	0.0150883
773.022	0.0150075
773.100	0.0151032
773.178	0.0150152
773.256	0.0150369
773.334	0.0149091
773.413	0.0147803
773.491	0.0146400
773.569	0.0146566
773.647	0.0147593
773.725	0.0147116
773.803	0.0147154
773.881	0.0146993
773.959	0.0147735
774.038	0.0149380
774.116	0.0149335
774.194	0.0149297
774.272	0.0150146
774.350	0.0150925
774.428	0.0152122
774.506	0.0152302
774.584	0.0152580
774.663	0.0155732
774.741	0.0155673
774.819	0.0157124
774.897	0.0157159
774.975	0.0156626
775.053	0.0156930
775.131	0.0156263
775.209	0.0158402
775.288	0.0159987
775.366	0.0159150
775.444	0.0159277
775.522	0.0160670
775.600	0.0158686
775.678	0.0160417
775.756	0.0159647
775.834	0.0161233
775.913	0.0159718
775.991	0.0159028
776.069	0.0160123
776.147	0.0160726
776.225	0.0160691
776.303	0.0159910
776.381	0.0159459
776.459	0.0159561
776.538	0.0158611
776.616	0.0160756
776.694	0.0157902
776.772	0.0157063
776.850	0.0158247
776.928	0.0158729
777.006	0.0156580
777.084	0.0156107
777.163	0.0156316
777.241	0.0154602
777.319	0.0156167
777.397	0.0154970
777.475	0.0154962
777.553	0.0154802
777.631	0.0154710
777.709	0.0153806
777.788	0.0155751
777.866	0.0154652
777.944	0.0153324
778.022	0.0152709
778.100	0.0154546
778.178	0.0155125
778.256	0.0154385
778.334	0.0154073
778.413	0.0156446
778.491	0.0156232
778.569	0.0156193
778.647	0.0156506
778.725	0.0157642
778.803	0.0157074
778.881	0.0157578
778.959	0.0157504
779.038	0.0158168
779.116	0.0157170
779.194	0.0157276
779.272	0.0158326
779.350	0.0155745
779.428	0.0155437
779.506	0.0155360
779.584	0.0153030
779.663	0.0154094
779.741	0.0153413
779.819	0.0152887
779.897	0.0152009
779.975	0.0150677
780.053	0.0151438
780.131	0.0151358
780.209	0.0150445
780.288	0.0151453
780.366	0.0150986
780.444	0.0151786
780.522	0.0151125
780.600	0.0152145
780.678	0.0152676
780.756	0.0151923
780.834	0.0152177
780.913	0.0153065
780.991	0.0153085
781.069	0.0154739
781.147	0.0154959
781.225	0.0153680
781.303	0.0154943
781.381	0.0155872
781.459	0.0156637
781.538	0.0155996
781.616	0.0155304
781.694	0.0157227
781.772	0.0155976
781.850	0.0157542
781.928	0.0157577
782.006	0.0157614
782.084	0.0157857
782.163	0.0157980
782.241	0.0158498
782.319	0.0158608
782.397	0.0158450
782.475	0.0158449
782.553	0.0158665
782.631	0.0158768
782.709	0.0158419
782.788	0.0157577
782.866	0.0159499
782.944	0.0159047
783.022	0.0156744
783.100	0.0158672
783.178	0.0159199
783.256	0.0156487
783.334	0.0157547
783.413	0.0156316
783.491	0.0154671
783.569	0.0154578
783.647	0.0153819
783.725	0.0153844
783.803	0.0152821
783.881	0.0152912
783.959	0.0153573
784.038	0.0150960
784.116	0.0150874
784.194	0.0151868
784.272	0.0150986
784.350	0.0148946
784.428	0.0149212
784.506	0.0149874
784.584	0.0150895
784.663	0.0151446
784.741	0.0152164
784.819	0.0150810
784.897	0.0150568
784.975	0.0152904
785.053	0.0153503
785.131	0.0153928
785.209	0.0155322
785.288	0.0154845
785.366	0.0155167
785.444	0.0155206
785.522	0.0156932
785.600	0.0155655
785.678	0.0157300
785.756	0.0156514
785.834	0.0156750
785.913	0.0159553
785.991	0.0157287
786.069	0.0158541
786.147	0.0159280
786.225	0.0158753
786.303	0.0158622
786.381	0.0158347
786.459	0.0157185
786.538	0.0157317
786.616	0.0156661
786.694	0.0157051
786.772	0.0156780
786.850	0.0154767
786.928	0.0155274
787.006	0.0154566
787.084	0.0155197
787.163	0.0154768
787.241	0.0154321
787.319	0.0153506
787.397	0.0152816
787.475	0.0153695
787.553	0.0154488
787.631	0.0152798
787.709	0.0154313
787.788	0.0153258
787.866	0.0153063
787.944	0.0152338
788.022	0.0154694
788.100	0.0154649
788.178	0.0154328
788.256	0.0153904
788.334	0.0154193
788.413	0.0154932
788.491	0.0154335
788.569	0.0154417
788.647	0.0155488
788.725	0.0154682
788.803	0.0154970
788.881	0.0153797
788.959	0.0156159
789.038	0.0155837
789.116	0.0156009
789.194	0.0156459
789.272	0.0157087
789.350	0.0157365
789.428	0.0156047
789.506	0.0157307
789.584	0.0156473
789.663	0.0157766
789.741	0.0155929
789.819	0.0157146
789.897	0.0157082
789.975	0.0157507
790.053	0.0158702
790.131	0.0156429
790.209	0.0156522
790.288	0.0158000
790.366	0.0157484
790.444	0.0157708
790.522	0.0157383
790.600	0.0156131
790.678	0.0157027
790.756	0.0157281
790.834	0.0157765
790.913	0.0156120
790.991	0.0157659
791.069	0.0156402
791.147	0.0154801
791.225	0.0154881
791.303	0.0151924
791.381	0.0154233
791.459	0.0154738
791.538	0.0153667
791.616	0.0151794
791.694	0.0150864
791.772	0.0151958
791.850	0.0150727
791.928	0.0150103
792.006	0.0150196
792.084	0.0150271
792.163	0.0151706
792.241	0.0150863
792.319	0.0152139
792.397	0.0151668
792.475	0.0149741
792.553	0.0150800
792.631	0.0151153
792.709	0.0150990
792.788	0.0152641
792.866	0.0152680
792.944	0.0152748
793.022	0.0152851
793.100	0.0153180
793.178	0.0155105
793.256	0.0155542
793.334	0.0155733
793.413	0.0155079
793.491	0.0156174
793.569	0.0156797
793.647	0.0157533
793.725	0.0158584
793.803	0.0157842
793.881	0.0157738
793.959	0.0157631
794.038	0.0160092
794.116	0.0159754
794.194	0.0160307
794.272	0.0159968
794.350	0.0159889
794.428	0.0160606
794.506	0.0161401
794.584	0.0160978
794.663	0.0160516
794.741	0.0161184
794.819	0.0161332
794.897	0.0160869
794.975	0.0159332
795.053	0.0162299
795.131	0.0161353
795.209	0.0159498
795.288	0.0158952
795.366	0.0159972
795.444	0.0157564
795.522	0.0158793
795.600	0.0159382
795.678	0.0156165
795.756	0.0155344
795.834	0.0155341
795.913	0.0154460
795.991	0.0155173
796.069	0.0154948
796.147	0.0153078
796.225	0.0154916
796.303	0.0152248
796.381	0.0151858
796.459	0.0152497
796.538	0.0152027
796.616	0.0152156
796.694	0.0150932
796.772	0.0151405
796.850	0.0152399
796.928	0.0151956
797.006	0.0151829
797.084	0.0153004
797.163	0.0152223
797.241	0.0153207
797.319	0.0152832
797.397	0.0155019
797.475	0.0154615
797.553	0.0154717
797.631	0.0154551
797.709	0.0155166
797.788	0.0155188
797.866	0.0155367
797.944	0.0156830
798.022	0.0156315
798.100	0.0157212
798.178	0.0157301
798.256	0.0157076
798.334	0.0158179
798.413	0.0157684
798.491	0.0158368
798.569	0.0156475
798.647	0.0155519
798.725	0.0156534
798.803	0.0156707
798.881	0.0157067
798.959	0.0156200
799.038	0.0156532
799.116	0.0155667
799.194	0.0154696
799.272	0.0154230
799.350	0.0154049
799.428	0.0155091
799.506	0.0154053
799.584	0.0154189
799.663	0.0153696
799.741	0.0153913
799.819	0.0154146
799.897	0.0153057
799.975	0.0153416
800.053	0.0154380
800.131	0.0154394
800.209	0.0154743
800.288	0.0156304
800.366	0.0155347
800.444	0.0155923
800.522	0.0156046
800.600	0.0156168
800.678	0.0155511
800.756	0.0156754
800.834	0.0157816
800.913	0.0157414
800.991	0.0158414
801.069	0.0159429
801.147	0.0158391
801.225	0.0157818
801.303	0.0157937
801.381	0.0158669
801.459	0.0157932
801.538	0.0158022
801.616	0.0157024
801.694	0.0155835
801.772	0.0156124
801.850	0.0154996
801.928	0.0154825
802.006	0.0154918
802.084	0.0155151
802.163	0.0155007
802.241	0.0155151
802.319	0.0154810
802.397	0.0155125
802.475	0.0154626
802.553	0.0154029
802.631	0.0153634
802.709	0.0153870
802.788	0.0154407
802.866	0.0153191
802.944	0.0155170
803.022	0.0155563
803.100	0.0154562
803.178	0.0155014
803.256	0.0154636
803.334	0.0154222
803.413	0.0156001
803.491	0.0156225
803.569	0.0155825
803.647	0.0155820
803.725	0.0156047
803.803	0.0155499
803.881	0.0157265
803.959	0.0157430
804.038	0.0155392
804.116	0.0156701
804.194	0.0156036
804.272	0.0157750
804.350	0.0157008
804.428	0.0156767
804.506	0.0157396
804.584	0.0155633
804.663	0.0157046
804.741	0.0156402
804.819	0.0155279
804.897	0.0156318
804.975	0.0156528
805.053	0.0157014
805.131	0.0156451
805.209	0.0156805
805.288	0.0156348
805.366	0.0154799
805.444	0.0156551
805.522	0.0156950
805.600	0.0156567
805.678	0.0156487
805.756	0.0157343
805.834	0.0155413
805.913	0.0157429
805.991	0.0156034
806.069	0.0158266
806.147	0.0157734
806.225	0.0156210
806.303	0.0156951
806.381	0.0157343
806.459	0.0156644
806.538	0.0156709
806.616	0.0157896
806.694	0.0155532
806.772	0.0156411
806.850	0.0156281
806.928	0.0155305
807.006	0.0154720
807.084	0.0154469
807.163	0.0156786
807.241	0.0156711
807.319	0.0155979
807.397	0.0155222
807.475	0.0155662
807.553	0.0155687
807.631	0.0154247
807.709	0.0155775
807.788	0.0155754
807.866	0.0156119
807.944	0.0156217
808.022	0.0155877
808.100	0.0154619
808.178	0.0154490
808.256	0.0154461
808.334	0.0155773
808.413	0.0154462
808.491	0.0155382
808.569	0.0155293
808.647	0.0155929
808.725	0.0155323
808.803	0.0154907
808.881	0.0156500
808.959	0.0155759
809.038	0.0156019
809.116	0.0156384
809.194	0.0157510
809.272	0.0157407
809.350	0.0158086
809.428	0.0159039
809.506	0.0159776
809.584	0.0158607
809.663	0.0159774
809.741	0.0158939
809.819	0.0159250
809.897	0.0159886
809.975	0.0159338
810.053	0.0159527
810.131	0.0159335
810.209	0.0159824
810.288	0.0157957
810.366	0.0157771
810.444	0.0157404
810.522	0.0156419
810.600	0.0155746
810.678	0.0155933
810.756	0.0154818
810.834	0.0153539
810.913	0.0153790
810.991	0.0153942
811.069	0.0154591
811.147	0.0152639
811.225	0.0152742
811.303	0.0152510
811.381	0.0151742
811.459	0.0152488
811.538	0.0152602
811.616	0.0153667
811.694	0.0151377
811.772	0.0152187
811.850	0.0152602
811.928	0.0150925
812.006	0.0151939
812.084	0.0153142
812.163	0.0153596
812.241	0.0153027
812.319	0.0153265
812.397	0.0153880
812.475	0.0155316
812.553	0.0154514
812.631	0.0155990
812.709	0.0156447
812.788	0.0156209
812.866	0.0155631
812.944	0.0157790
813.022	0.0157403
813.100	0.0156025
813.178	0.0156459
813.256	0.0159553
813.334	0.0158216
813.413	0.0157289
813.491	0.0157293
813.569	0.0158743
813.647	0.0159196
813.725	0.0157427
813.803	0.0158202
813.881	0.0158391
813.959	0.0159796
814.038	0.0157636
814.116	0.0158910
814.194	0.0157360
814.272	0.0158655
814.350	0.0157431
814.428	0.0158184
814.506	0.0159071
814.584	0.0159288
814.663	0.0157909
814.741	0.0157778
814.819	0.0158106
814.897	0.0158802
814.975	0.0158702
815.053	0.0156685
815.131	0.0158270
815.209	0.0158273
815.288	0.0155984
815.366	0.0155366
815.444	0.0157054
815.522	0.0156377
815.600	0.0156259
815.678	0.0156937
815.756	0.0156947
815.834	0.0156081
815.913	0.0155704
815.991	0.0155717
816.069	0.0155866
816.147	0.0155934
816.225	0.0154467
816.303	0.0157001
816.381	0.0156339
816.459	0.0156594
816.538	0.0155606
816.616	0.0155918
816.694	0.0156052
816.772	0.0155944
816.850	0.0156088
816.928	0.0157419
817.006	0.0155792
817.084	0.0154803
817.163	0.0155320
817.241	0.0154824
817.319	0.0154988
817.397	0.0156351
817.475	0.0155279
817.553	0.0153928
817.631	0.0155029
817.709	0.0154448
817.788	0.0156060
817.866	0.0155785
817.944	0.0155874
818.022	0.0155865
818.100	0.0156190
818.178	0.0156966
818.256	0.0159077
818.334	0.0158127
818.413	0.0157941
818.491	0.0159016
818.569	0.0158485
818.647	0.0158395
818.725	0.0159609
818.803	0.0159834
818.881	0.0159321
818.959	0.0158529
819.038	0.0158717
819.116	0.0160166
819.194	0.0158630
819.272	0.0159151
819.350	0.0158928
819.428	0.0158343
819.506	0.0157726
819.584	0.0158137
819.663	0.0157762
819.741	0.0157894
819.819	0.0156609
819.897	0.0156248
819.975	0.0157173
820.053	0.0156298
820.131	0.0156813
820.209	0.0155093
820.288	0.0154476
820.366	0.0155646
820.444	0.0153362
820.522	0.0155004
820.600	0.0155082
820.678	0.0154992
820.756	0.0154324
820.834	0.0155341
820.913	0.0156649
820.991	0.0154153
821.069	0.0153199
821.147	0.0155076
821.225	0.0153506
821.303	0.0153610
821.381	0.0154893
821.459	0.0155483
821.538	0.0154847
821.616	0.0154436
821.694	0.0155543
821.772	0.0154942
821.850	0.0154144
821.928	0.0154512
822.006	0.0154836
822.084	0.0152673
822.163	0.0153977
822.241	0.0153444
822.319	0.0153226
822.397	0.0152394
822.475	0.0153265
822.553	0.0153304
822.631	0.0152712
822.709	0.0154044
822.788	0.0153611
822.866	0.0153860
822.944	0.0152552
823.022	0.0154311
823.100	0.0154015
823.178	0.0153880
823.256	0.0154857
823.334	0.0153584
823.413	0.0153395
823.491	0.0154784
823.569	0.0154078
823.647	0.0154077
823.725	0.0152737
823.803	0.0153178
823.881	0.0153712
823.959	0.0154579
824.038	0.0154565
824.116	0.0152841
824.194	0.0154621
824.272	0.0154534
824.350	0.0155026
824.428	0.0154891
824.506	0.0154700
824.584	0.0154664
824.663	0.0155365
824.741	0.0156379
824.819	0.0157196
824.897	0.0156701
824.975	0.0156870
825.053	0.0158189
825.131	0.0157387
825.209	0.0159096
825.288	0.0157990
825.366	0.0158336
825.444	0.0160757
825.522	0.0159103
825.600	0.0158544
825.678	0.0159890
825.756	0.0160236
825.834	0.0158672
825.913	0.0159656
825.991	0.0158897
826.069	0.0158133
826.147	0.0157423
826.225	0.0158426
826.303	0.0157320
826.381	0.0157417
826.459	0.0157707
826.538	0.0158926
826.616	0.0157809
826.694	0.0156894
826.772	0.0156692
826.850	0.0157759
826.928	0.0155969
827.006	0.0156676
827.084	0.0156393
827.163	0.0155147
827.241	0.0154330
827.319	0.0155510
827.397	0.0155315
827.475	0.0154356
827.553	0.0154572
827.631	0.0154565
827.709	0.0155114
827.788	0.0153883
827.866	0.0155241
827.944	0.0153644
828.022	0.0154437
828.100	0.0156226
828.178	0.0156123
828.256	0.0155231
828.334	0.0154372
828.413	0.0154607
828.491	0.0156358
828.569	0.0156047
828.647	0.0154917
828.725	0.0156082
828.803	0.0157146
828.881	0.0155029
828.959	0.0156004
829.038	0.0156742
829.116	0.0156612
829.194	0.0157286
829.272	0.0156406
829.350	0.0156210
829.428	0.0155906
829.506	0.0156129
829.584	0.0157933
829.663	0.0154971
829.741	0.0156199
829.819	0.0156562
829.897	0.0155364
829.975	0.0157748
830.053	0.0156300
830.131	0.0155737
830.209	0.0158433
830.288	0.0155872
830.366	0.0156497
830.444	0.0156939
830.522	0.0156983
830.600	0.0155917
830.678	0.0157248
830.756	0.0156526
830.834	0.0155165
830.913	0.0156853
830.991	0.0155924
831.069	0.0156969
831.147	0.0157774
831.225	0.0155594
831.303	0.0154947
831.381	0.0155251
831.459	0.0154913
831.538	0.0156394
831.616	0.0155705
831.694	0.0156298
831.772	0.0154031
831.850	0.0153590
831.928	0.0155239
832.006	0.0157054
832.084	0.0154879
832.163	0.0154450
832.241	0.0155291
832.319	0.0154760
832.397	0.0155852
832.475	0.0153590
832.553	0.0153359
832.631	0.0154581
832.709	0.0154836
832.788	0.0153818
832.866	0.0152834
832.944	0.0152247
833.022	0.0152101
833.100	0.0154649
833.178	0.0153891
833.256	0.0152615
833.334	0.0153473
833.413	0.0151733
833.491	0.0151610
833.569	0.0152406
833.647	0.0150970
833.725	0.0151654
833.803	0.0152206
833.881	0.0152983
833.959	0.0152760
834.038	0.0151431
834.116	0.0153523
834.194	0.0153391
834.272	0.0153963
834.350	0.0154424
834.428	0.0154430
834.506	0.0153893
834.584	0.0154612
834.663	0.0156123
834.741	0.0156180
834.819	0.0156426
834.897	0.0156263
834.975	0.0157707
835.053	0.0157202
835.131	0.0158768
835.209	0.0158543
835.288	0.0159964
835.366	0.0160032
835.444	0.0160059
835.522	0.0158538
835.600	0.0159799
835.678	0.0160607
835.756	0.0158609
835.834	0.0158778
835.913	0.0160455
835.991	0.0159432
836.069	0.0159004
836.147	0.0158665
836.225	0.0158923
836.303	0.0158800
836.381	0.0158471
836.459	0.0159009
836.538	0.0159096
836.616	0.0158940
836.694	0.0157085
836.772	0.0157533
836.850	0.0158877
836.928	0.0157328
837.006	0.0158098
837.084	0.0159005
837.163	0.0157986
837.241	0.0156996
837.319	0.0157170
837.397	0.0158269
837.475	0.0158235
837.553	0.0156755
837.631	0.0157412
837.709	0.0156487
837.788	0.0157790
837.866	0.0158181
837.944	0.0156979
838.022	0.0157278
838.100	0.0156693
838.178	0.0156461
838.256	0.0156983
838.334	0.0155803
838.413	0.0155169
838.491	0.0156087
838.569	0.0156792
838.647	0.0155818
838.725	0.0155434
838.803	0.0157161
838.881	0.0156065
838.959	0.0155182
839.038	0.0155254
839.116	0.0155492
839.194	0.0156031
839.272	0.0155563
839.350	0.0154410
839.428	0.0154807
839.506	0.0154177
839.584	0.0155343
839.663	0.0153368
839.741	0.0153738
839.819	0.0154742
839.897	0.0154076
839.975	0.0153323
840.053	0.0152484
840.131	0.0153578
840.209	0.0155193
840.288	0.0153302
840.366	0.0152354
840.444	0.0151844
840.522	0.0152840
840.600	0.0153475
840.678	0.0153306
840.756	0.0153838
840.834	0.0154070
840.913	0.0154395
840.991	0.0154900
841.069	0.0154442
841.147	0.0154689
841.225	0.0153400
841.303	0.0155783
841.381	0.0156062
841.459	0.0156301
841.538	0.0156544
841.616	0.0156277
841.694	0.0156535
841.772	0.0157460
841.850	0.0156831
841.928	0.0156229
842.006	0.0157314
842.084	0.0157201
842.163	0.0157756
842.241	0.0155737
842.319	0.0156041
842.397	0.0158933
842.475	0.0156265
842.553	0.0156998
842.631	0.0157111
842.709	0.0156137
842.788	0.0155835
842.866	0.0155688
842.944	0.0156109
843.022	0.0155822
843.100	0.0155714
843.178	0.0156498
843.256	0.0156064
843.334	0.0156701
843.413	0.0156507
843.491	0.0155441
843.569	0.0155283
843.647	0.0156466
843.725	0.0155958
843.803	0.0155266
843.881	0.0156461
843.959	0.0156670
844.038	0.0156675
844.116	0.0154424
844.194	0.0155828
844.272	0.0154959
844.350	0.0154241
844.428	0.0155331
844.506	0.0156173
844.584	0.0153755
844.663	0.0154626
844.741	0.0154919
844.819	0.0153400
844.897	0.0155148
844.975	0.0154215
845.053	0.0154141
845.131	0.0151661
845.209	0.0154366
845.288	0.0153900
845.366	0.0154769
845.444	0.0155592
845.522	0.0154554
845.600	0.0152798
845.678	0.0154346
845.756	0.0154723
845.834	0.0153581
845.913	0.0155147
845.991	0.0155137
846.069	0.0153836
846.147	0.0154981
846.225	0.0155067
846.303	0.0155023
846.381	0.0154475
846.459	0.0155628
846.538	0.0155358
846.616	0.0154542
846.694	0.0154340
846.772	0.0154867
846.850	0.0156414
846.928	0.0155830
847.006	0.0156003
847.084	0.0155024
847.163	0.0154607
847.241	0.0156648
847.319	0.0155444
847.397	0.0156084
847.475	0.0154906
847.553	0.0154781
847.631	0.0155069
847.709	0.0153955
847.788	0.0154933
847.866	0.0154786
847.944	0.0154330
848.022	0.0156058
848.100	0.0154464
848.178	0.0154178
848.256	0.0153374
848.334	0.0154140
848.413	0.0156010
848.491	0.0153619
848.569	0.0154049
848.647	0.0155511
848.725	0.0153463
848.803	0.0154103
848.881	0.0154568
848.959	0.0154471
849.038	0.0154748
849.116	0.0155761
849.194	0.0154467
849.272	0.0154660
849.350	0.0154700
849.428	0.0155127
849.506	0.0157282
849.584	0.0156900
849.663	0.0155243
849.741	0.0154958
849.819	0.0156261
849.897	0.0155774
849.975	0.0156038
850.053	0.0155136
850.131	0.0154615
850.209	0.0157307
850.288	0.0157138
850.366	0.0155704
850.444	0.0156236
850.522	0.0156439
850.600	0.0156659
850.678	0.0156232
850.756	0.0156143
850.834	0.0156272
850.913	0.0156719
850.991	0.0156513
851.069	0.0156827
851.147	0.0155573
851.225	0.0155797
851.303	0.0154612
851.381	0.0154925
851.459	0.0154541
851.538	0.0155865
851.616	0.0154955
851.694	0.0154486
851.772	0.0156483
851.850	0.0154599
851.928	0.0155441
852.006	0.0155025
852.084	0.0155778
852.163	0.0155145
852.241	0.0156158
852.319	0.0156075
852.397	0.0155861
852.475	0.0155525
852.553	0.0156535
852.631	0.0156776
852.709	0.0156495
852.788	0.0157066
852.866	0.0157201
852.944	0.0157909
853.022	0.0156658
853.100	0.0156741
853.178	0.0157342
853.256	0.0156730
853.334	0.0157200
853.413	0.0156867
853.491	0.0155804
853.569	0.0155766
853.647	0.0156104
853.725	0.0157000
853.803	0.0155643
853.881	0.0156252
853.959	0.0155247
854.038	0.0155067
854.116	0.0154904
854.194	0.0154733
854.272	0.0154650
854.350	0.0155396
854.428	0.0155188
854.506	0.0155844
854.584	0.0155215
854.663	0.0153915
854.741	0.0154857
854.819	0.0154360
854.897	0.0154587
854.975	0.0154865
855.053	0.0154801
855.131	0.0156477
855.209	0.0154611
855.288	0.0156592
855.366	0.0154061
855.444	0.0153642
855.522	0.0155188
855.600	0.0155073
855.678	0.0154760
855.756	0.0155334
855.834	0.0155000
855.913	0.0155403
855.991	0.0156183
856.069	0.0155025
856.147	0.0155521
856.225	0.0155381
856.303	0.0154678
856.381	0.0156215
856.459	0.0154625
856.538	0.0154976
856.616	0.0153284
856.694	0.0153088
856.772	0.0155502
856.850	0.0154716
856.928	0.0153658
857.006	0.0153648
857.084	0.0152767
857.163	0.0154162
857.241	0.0152867
857.319	0.0153519
857.397	0.0154100
857.475	0.0153377
857.553	0.0153306
857.631	0.0154219
857.709	0.0152319
857.788	0.0153397
857.866	0.0154565
857.944	0.0154703
858.022	0.0154783
858.100	0.0154162
858.178	0.0153204
858.256	0.0156287
858.334	0.0154873
858.413	0.0155116
858.491	0.0156714
858.569	0.0157972
858.647	0.0156273
858.725	0.0156811
858.803	0.0155617
858.881	0.0157613
858.959	0.0154937
859.038	0.0155838
859.116	0.0156030
859.194	0.0156802
859.272	0.0156507
859.350	0.0157481
859.428	0.0156819
859.506	0.0156575
859.584	0.0154923
859.663	0.0157133
859.741	0.0155873
859.819	0.0156654
859.897	0.0157520
859.975	0.0156994
860.053	0.0156364
860.131	0.0156910
860.209	0.0157259
860.288	0.0156751
860.366	0.0157361
860.444	0.0157664
860.522	0.0158038
860.600	0.0157510
860.678	0.0157238
860.756	0.0157795
860.834	0.0157553
860.913	0.0157311
860.991	0.0157693
861.069	0.0155516
861.147	0.0156870
861.225	0.0155447
861.303	0.0157045
861.381	0.0155916
861.459	0.0155940
861.538	0.0156816
861.616	0.0156492
861.694	0.0157249
861.772	0.0156000
861.850	0.0156863
861.928	0.0155975
862.006	0.0155456
862.084	0.0157017
862.163	0.0156708
862.241	0.0155495
862.319	0.0157019
862.397	0.0156714
862.475	0.0156227
862.553	0.0156969
862.631	0.0156851
862.709	0.0156278
862.788	0.0157384
862.866	0.0157250
862.944	0.0156820
863.022	0.0156796
863.100	0.0156828
863.178	0.0157507
863.256	0.0155016
863.334	0.0155880
863.413	0.0157287
863.491	0.0155790
863.569	0.0156227
863.647	0.0155946
863.725	0.0155610
863.803	0.0155269
863.881	0.0155371
863.959	0.0154677
864.038	0.0154889
864.116	0.0156374
864.194	0.0155962
864.272	0.0155357
864.350	0.0155067
864.428	0.0155400
864.506	0.0156093
864.584	0.0154583
864.663	0.0155230
864.741	0.0154533
864.819	0.0155200
864.897	0.0155778
864.975	0.0154940
865.053	0.0154724
865.131	0.0156751
865.209	0.0153648
865.288	0.0153526
865.366	0.0154287
865.444	0.0155416
865.522	0.0154141
865.600	0.0153770
865.678	0.0154555
865.756	0.0154176
865.834	0.0152871
865.913	0.0154306
865.991	0.0154111
866.069	0.0154707
866.147	0.0153657
866.225	0.0155196
866.303	0.0155283
866.381	0.0153499
866.459	0.0153379
866.538	0.0153376
866.616	0.0153141
866.694	0.0155366
866.772	0.0153865
866.850	0.0154051
866.928	0.0156413
867.006	0.0155362
867.084	0.0155054
867.163	0.0154588
867.241	0.0154021
867.319	0.0153564
867.397	0.0155760
867.475	0.0155341
867.553	0.0155258
867.631	0.0156384
867.709	0.0156591
867.788	0.0155684
867.866	0.0156623
867.944	0.0157565
868.022	0.0157803
868.100	0.0155957
868.178	0.0154577
868.256	0.0156647
868.334	0.0156541
868.413	0.0156458
868.491	0.0155590
868.569	0.0156387
868.647	0.0156912
868.725	0.0154525
868.803	0.0155431
868.881	0.0155821
868.959	0.0154757
869.038	0.0154731
869.116	0.0155064
869.194	0.0156085
869.272	0.0155867
869.350	0.0154671
869.428	0.0154816
869.506	0.0154897
869.584	0.0154203
869.663	0.0153796
869.741	0.0153522
869.819	0.0154418
869.897	0.0155505
869.975	0.0154988
870.053	0.0153473
870.131	0.0152795
870.209	0.0153491
870.288	0.0156004
870.366	0.0154607
870.444	0.0153890
870.522	0.0153694
870.600	0.0154285
870.678	0.0154733
870.756	0.0155952
870.834	0.0155127
870.913	0.0156248
870.991	0.0156239
871.069	0.0154636
871.147	0.0156617
871.225	0.0156913
871.303	0.0156542
871.381	0.0157346
871.459	0.0156551
871.538	0.0157082
871.616	0.0156506
871.694	0.0156007
871.772	0.0156520
871.850	0.0157728
871.928	0.0155603
872.006	0.0156839
872.084	0.0157294
872.163	0.0157081
872.241	0.0157265
872.319	0.0156506
872.397	0.0156049
872.475	0.0155996
872.553	0.0156651
872.631	0.0156916
872.709	0.0155494
872.788	0.0156133
872.866	0.0154990
872.944	0.0154893
873.022	0.0154906
873.100	0.0155097
873.178	0.0155176
873.256	0.0155008
873.334	0.0155216
873.413	0.0156286
873.491	0.0155124
873.569	0.0154738
873.647	0.0155269
873.725	0.0155329
873.803	0.0155168
873.881	0.0156883
873.959	0.0156768
874.038	0.0156514
874.116	0.0154855
874.194	0.0156448
874.272	0.0155745
874.350	0.0156845
874.428	0.0155522
874.506	0.0156411
874.584	0.0156179
874.663	0.0155862
874.741	0.0156276
874.819	0.0156662
874.897	0.0155114
874.975	0.0155059
875.053	0.0154554
875.131	0.0156536
875.209	0.0155833
875.288	0.0155312
875.366	0.0153931
875.444	0.0155589
875.522	0.0155494
875.600	0.0155481
875.678	0.0154784
875.756	0.0154803
875.834	0.0155302
875.913	0.0155517
875.991	0.0155891
876.069	0.0155270
876.147	0.0155164
876.225	0.0154190
876.303	0.0154926
876.381	0.0155657
876.459	0.0155476
876.538	0.0155011
876.616	0.0155090
876.694	0.0156064
876.772	0.0154330
876.850	0.0154601
876.928	0.0155164
877.006	0.0154243
877.084	0.0156282
877.163	0.0157182
877.241	0.0156651
877.319	0.0155840
877.397	0.0154651
877.475	0.0154180
877.553	0.0155947
877.631	0.0155488
877.709	0.0156203
877.788	0.0157123
877.866	0.0154787
877.944	0.0155139
878.022	0.0156476
878.100	0.0154768
878.178	0.0156577
878.256	0.0157365
878.334	0.0155802
878.413	0.0155285
878.491	0.0156356
878.569	0.0157867
878.647	0.0156441
878.725	0.0156744
878.803	0.0156409
878.881	0.0155845
878.959	0.0158103
879.038	0.0155894
879.116	0.0155884
879.194	0.0156560
879.272	0.0157391
879.350	0.0157116
879.428	0.0157456
879.506	0.0155569
879.584	0.0155520
879.663	0.0157054
879.741	0.0156354
879.819	0.0155536
879.897	0.0156246
879.975	0.0156204
880.053	0.0154658
880.131	0.0156016
880.209	0.0156484
880.288	0.0154755
880.366	0.0156091
880.444	0.0157024
880.522	0.0157910
880.600	0.0158203
880.678	0.0156857
880.756	0.0158385
880.834	0.0157083
880.913	0.0156568
880.991	0.0156365
881.069	0.0157342
881.147	0.0157102
881.225	0.0156682
881.303	0.0156110
881.381	0.0157460
881.459	0.0155389
881.538	0.0154836
881.616	0.0155917
881.694	0.0155891
881.772	0.0155322
881.850	0.0156341
881.928	0.0155234
882.006	0.0155226
882.084	0.0156335
882.163	0.0154881
882.241	0.0155276
882.319	0.0154687
882.397	0.0153477
882.475	0.0154578
882.553	0.0153789
882.631	0.0156071
882.709	0.0156015
882.788	0.0155959
882.866	0.0155144
882.944	0.0156116
883.022	0.0155811
883.100	0.0154235
883.178	0.0156407
883.256	0.0156415
883.334	0.0156768
883.413	0.0155882
883.491	0.0156229
883.569	0.0157243
883.647	0.0156938
883.725	0.0156431
883.803	0.0156742
883.881	0.0155874
883.959	0.0156150
884.038	0.0158663
884.116	0.0156575
884.194	0.0155895
884.272	0.0155463
884.350	0.0155858
884.428	0.0157486
884.506	0.0157045
884.584	0.0155772
884.663	0.0155724
884.741	0.0156794
884.819	0.0156764
884.897	0.0156396
884.975	0.0154379
885.053	0.0155606
885.131	0.0155612
885.209	0.0154546
885.288	0.0154996
885.366	0.0154591
885.444	0.0155251
885.522	0.0154530
885.600	0.0153802
885.678	0.0154618
885.756	0.0153249
885.834	0.0154048
885.913	0.0155735
885.991	0.0154048
886.069	0.0151075
886.147	0.0153421
886.225	0.0153565
886.303	0.0154867
886.381	0.0154223
886.459	0.0153605
886.538	0.0153375
886.616	0.0154327
886.694	0.0154772
886.772	0.0153812
886.850	0.0154073
886.928	0.0154900
887.006	0.0153936
887.084	0.0154871
887.163	0.0154582
887.241	0.0154884
887.319	0.0156153
887.397	0.0155981
887.475	0.0156583
887.553	0.0156032
887.631	0.0156817
887.709	0.0157322
887.788	0.0156791
887.866	0.0156153
887.944	0.0156593
888.022	0.0158077
888.100	0.0158308
888.178	0.0157352
888.256	0.0157397
888.334	0.0157962
888.413	0.0157297
888.491	0.0158933
888.569	0.0159230
888.647	0.0159760
888.725	0.0158207
888.803	0.0157867
888.881	0.0159452
888.959	0.0158155
889.038	0.0157717
889.116	0.0157722
889.194	0.0158491
889.272	0.0159018
889.350	0.0158566
889.428	0.0158494
889.506	0.0157838
889.584	0.0158062
889.663	0.0157755
889.741	0.0158331
889.819	0.0156940
889.897	0.0156947
889.975	0.0158145
890.053	0.0156332
890.131	0.0157301
890.209	0.0157281
890.288	0.0157217
890.366	0.0157723
890.444	0.0156699
890.522	0.0157324
890.600	0.0157482
890.678	0.0156425
890.756	0.0155432
890.834	0.0157330
890.913	0.0156650
890.991	0.0156030
891.069	0.0156271
891.147	0.0155557
891.225	0.0155475
891.303	0.0156564
891.381	0.0156992
891.459	0.0155474
891.538	0.0157600
891.616	0.0157428
891.694	0.0156833
891.772	0.0155854
891.850	0.0156771
891.928	0.0155750
892.006	0.0155845
892.084	0.0156084
892.163	0.0156209
892.241	0.0156702
892.319	0.0157533
892.397	0.0157029
892.475	0.0156423
892.553	0.0156963
892.631	0.0156840
892.709	0.0156737
892.788	0.0156202
892.866	0.0157007
892.944	0.0156585
893.022	0.0154471
893.100	0.0155878
893.178	0.0156258
893.256	0.0154759
893.334	0.0154197
893.413	0.0154547
893.491	0.0154593
893.569	0.0154058
893.647	0.0155095
893.725	0.0154375
893.803	0.0153516
893.881	0.0155521
893.959	0.0154345
894.038	0.0155096
894.116	0.0154300
894.194	0.0155836
894.272	0.0155267
894.350	0.0156953
894.428	0.0155644
894.506	0.0154509
894.584	0.0155685
894.663	0.0155254
894.741	0.0156029
894.819	0.0157137
894.897	0.0156244
894.975	0.0156171
895.053	0.0157534
895.131	0.0157571
895.209	0.0158183
895.288	0.0156226
895.366	0.0157879
895.444	0.0157368
895.522	0.0157917
895.600	0.0156392
895.678	0.0156461
895.756	0.0156054
895.834	0.0158387
895.913	0.0156220
895.991	0.0157181
896.069	0.0156642
896.147	0.0155643
896.225	0.0156065
896.303	0.0156940
896.381	0.0157177
896.459	0.0156356
896.538	0.0154980
896.616	0.0155701
896.694	0.0155790
896.772	0.0156017
896.850	0.0157318
896.928	0.0156899
897.006	0.0156051
897.084	0.0155663
897.163	0.0156996
897.241	0.0156714
897.319	0.0156482
897.397	0.0156895
897.475	0.0157403
897.553	0.0156641
897.631	0.0157825
897.709	0.0157461
897.788	0.0156863
897.866	0.0154980
897.944	0.0155811
898.022	0.0156841
898.100	0.0156541
898.178	0.0157430
898.256	0.0156020
898.334	0.0155450
898.413	0.0154944
898.491	0.0154426
898.569	0.0155606
898.647	0.0155384
898.725	0.0153748
898.803	0.0154226
898.881	0.0154217
898.959	0.0153862
899.038	0.0153957
899.116	0.0154874
899.194	0.0155115
899.272	0.0154705
899.350	0.0154652
899.428	0.0155424
899.506	0.0154900
899.584	0.0155542
899.663	0.0154623
899.741	0.0155184
899.819	0.0154212
899.897	0.0154463
899.975	0.0154630
900.053	0.0155726
900.131	0.0154639
900.209	0.0155312
900.288	0.0154511
900.366	0.0154175
900.444	0.0155601
900.522	0.0154509
900.600	0.0154626
900.678	0.0154494
900.756	0.0155029
900.834	0.0154807
900.913	0.0154305
900.991	0.0155042
901.069	0.0154441
901.147	0.0154065
901.225	0.0155260
901.303	0.0155676
901.381	0.0154858
901.459	0.0155577
901.538	0.0154967
901.616	0.0154945
901.694	0.0156155
901.772	0.0155879
901.850	0.0155729
901.928	0.0157961
902.006	0.0155226
902.084	0.0156235
902.163	0.0156880
902.241	0.0156649
902.319	0.0156677
902.397	0.0156918
902.475	0.0157536
902.553	0.0156682
902.631	0.0157356
902.709	0.0156897
902.788	0.0157008
902.866	0.0156784
902.944	0.0156693
903.022	0.0155538
903.100	0.0155033
903.178	0.0155063
903.256	0.0156535
903.334	0.0155906
903.413	0.0155719
903.491	0.0156124
903.569	0.0157835
903.647	0.0156798
903.725	0.0156299
903.803	0.0156603
903.881	0.0156116
903.959	0.0157995
904.038	0.0157204
904.116	0.0155521
904.194	0.0157394
904.272	0.0158495
904.350	0.0156239
904.428	0.0158269
904.506	0.0157427
904.584	0.0156266
904.663	0.0156277
904.741	0.0157915
904.819	0.0158559
904.897	0.0157143
904.975	0.0155154
905.053	0.0155712
905.131	0.0156609
905.209	0.0157650
905.288	0.0155999
905.366	0.0155452
905.444	0.0156748
905.522	0.0156296
905.600	0.0153934
905.678	0.0154986
905.756	0.0156346
905.834	0.0155670
905.913	0.0153988
905.991	0.0152995
906.069	0.0154783
906.147	0.0154970
906.225	0.0153491
906.303	0.0153741
906.381	0.0153733
906.459	0.0154057
906.538	0.0154154
906.616	0.0154696
906.694	0.0153581
906.772	0.0154301
906.850	0.0154819
906.928	0.0153748
907.006	0.0154418
907.084	0.0153312
907.163	0.0154874
907.241	0.0154813
907.319	0.0154758
907.397	0.0154102
907.475	0.0153073
907.553	0.0153201
907.631	0.0154475
907.709	0.0156020
907.788	0.0155593
907.866	0.0154698
907.944	0.0154490
908.022	0.0155869
908.100	0.0154290
908.178	0.0154087
908.256	0.0154638
908.334	0.0154813
908.413	0.0154650
908.491	0.0155206
908.569	0.0155110
908.647	0.0154607
908.725	0.0156647
908.803	0.0155267
908.881	0.0156151
908.959	0.0155275
909.038	0.0156635
909.116	0.0156744
909.194	0.0156361
909.272	0.0155635
909.350	0.0156816
909.428	0.0155606
909.506	0.0155834
909.584	0.0156592
909.663	0.0156590
909.741	0.0155408
909.819	0.0154935
909.897	0.0155231
909.975	0.0155455
910.053	0.0155870
910.131	0.0155418
910.209	0.0156391
910.288	0.0154942
910.366	0.0153847
910.444	0.0154906
910.522	0.0156425
910.600	0.0156377
910.678	0.0156025
910.756	0.0155858
910.834	0.0155570
910.913	0.0156679
910.991	0.0157798
911.069	0.0158025
911.147	0.0156352
911.225	0.0157902
911.303	0.0157703
911.381	0.0158150
911.459	0.0156937
911.538	0.0156750
911.616	0.0157359
911.694	0.0157753
911.772	0.0158778
911.850	0.0156415
911.928	0.0155983
912.006	0.0157111
912.084	0.0156079
912.163	0.0155665
912.241	0.0156705
912.319	0.0155169
912.397	0.0155371
912.475	0.0155141
912.553	0.0156080
912.631	0.0155280
912.709	0.0155483
912.788	0.0156421
912.866	0.0154482
912.944	0.0156321
913.022	0.0155736
913.100	0.0158313
913.178	0.0157118
913.256	0.0155211
913.334	0.0156176
913.413	0.0155823
913.491	0.0157016
913.569	0.0157021
913.647	0.0156593
913.725	0.0156764
913.803	0.0157607
913.881	0.0155276
913.959	0.0156586
914.038	0.0156641
914.116	0.0156852
914.194	0.0156089
914.272	0.0156189
914.350	0.0154712
914.428	0.0155327
914.506	0.0156301
914.584	0.0153883
914.663	0.0155612
914.741	0.0154614
914.819	0.0154668
914.897	0.0154361
914.975	0.0154790
915.053	0.0155634
915.131	0.0153671
915.209	0.0153764
915.288	0.0153719
915.366	0.0153033
915.444	0.0153444
915.522	0.0153059
915.600	0.0154007
915.678	0.0155057
915.756	0.0153136
915.834	0.0153167
915.913	0.0153751
915.991	0.0153860
916.069	0.0154943
916.147	0.0154536
916.225	0.0153852
916.303	0.0154238
916.381	0.0155925
916.459	0.0155272
916.538	0.0154852
916.616	0.0153839
916.694	0.0154971
916.772	0.0155799
916.850	0.0154967
916.928	0.0154232
917.006	0.0156408
917.084	0.0155975
917.163	0.0155198
917.241	0.0153860
917.319	0.0156129
917.397	0.0156676
917.475	0.0155746
917.553	0.0156918
917.631	0.0154713
917.709	0.0156316
917.788	0.0155712
917.866	0.0157339
917.944	0.0156297
918.022	0.0156962
918.100	0.0156642
918.178	0.0155125
918.256	0.0154823
918.334	0.0157381
918.413	0.0154648
918.491	0.0156714
918.569	0.0155416
918.647	0.0154568
918.725	0.0155325
918.803	0.0155714
918.881	0.0156701
918.959	0.0155138
919.038	0.0155433
919.116	0.0155024
919.194	0.0156310
919.272	0.0155363
919.350	0.0155885
919.428	0.0156478
919.506	0.0155738
919.584	0.0155975
919.663	0.0155779
919.741	0.0156432
919.819	0.0156348
919.897	0.0155231
