05/20/2022	21:24:34	Ver.	4.1	UNKNOWN
Optical Delay	599.975067	Delta X		0.078125	Sweeps	1	Scan Rate	0/0
Coordinates	Axis 1	NaN	Axis 2	NaN	Axis 3	NaN	Axis 4	NaN	Axis 5	NaN	Axis 6	0.000000
TX Power	0.000000	RX Power	0.000000

599.975	0.0151888
600.053	0.0152211
600.131	0.0151453
600.209	0.0149942
600.288	0.0151424
600.366	0.0151144
600.444	0.0150919
600.522	0.0148983
600.600	0.0152122
600.678	0.0152004
600.756	0.0150409
600.834	0.0151537
600.913	0.0150368
600.991	0.0150158
601.069	0.0150032
601.147	0.0151801
601.225	0.0151022
601.303	0.0151125
601.381	0.0151189
601.459	0.0150054
601.538	0.0152058
601.616	0.0149745
601.694	0.0150278
601.772	0.0149809
601.850	0.0150325
601.928	0.0151028
602.006	0.0150687
602.084	0.0150649
602.163	0.0149445
602.241	0.0151876
602.319	0.0151322
602.397	0.0152010
602.475	0.0151937
602.553	0.0151382
602.631	0.0149998
602.709	0.0149133
602.788	0.0150710
602.866	0.0150765
602.944	0.0150947
603.022	0.0151966
603.100	0.0151998
603.178	0.0152957
603.256	0.0151913
603.334	0.0152684
603.413	0.0151031
603.491	0.0150512
603.569	0.0152669
603.647	0.0150536
603.725	0.0153049
603.803	0.0151477
603.881	0.0150961
603.959	0.0151637
604.038	0.0152096
604.116	0.0152519
604.194	0.0152450
604.272	0.0152216
604.350	0.0151971
604.428	0.0151168
604.506	0.0152206
604.584	0.0152539
604.663	0.0152317
604.741	0.0151464
604.819	0.0151421
604.897	0.0152123
604.975	0.0151942
605.053	0.0152395
605.131	0.0152120
605.209	0.0153129
605.288	0.0152887
605.366	0.0151962
605.444	0.0152168
605.522	0.0153651
605.600	0.0154031
605.678	0.0152243
605.756	0.0152386
605.834	0.0152335
605.913	0.0153892
605.991	0.0152560
606.069	0.0153651
606.147	0.0153748
606.225	0.0153632
606.303	0.0154162
606.381	0.0153985
606.459	0.0153432
606.538	0.0153908
606.616	0.0155775
606.694	0.0153455
606.772	0.0153541
606.850	0.0154836
606.928	0.0154351
607.006	0.0154970
607.084	0.0153302
607.163	0.0154768
607.241	0.0154809
607.319	0.0153142
607.397	0.0154911
607.475	0.0154523
607.553	0.0155154
607.631	0.0153345
607.709	0.0153559
607.788	0.0154272
607.866	0.0155283
607.944	0.0154224
608.022	0.0153339
608.100	0.0154530
608.178	0.0153833
608.256	0.0153905
608.334	0.0152425
608.413	0.0152791
608.491	0.0155330
608.569	0.0153529
608.647	0.0152854
608.725	0.0153462
608.803	0.0154186
608.881	0.0153313
608.959	0.0153054
609.038	0.0154002
609.116	0.0153165
609.194	0.0153136
609.272	0.0153757
609.350	0.0153652
609.428	0.0152454
609.506	0.0152453
609.584	0.0153088
609.663	0.0151794
609.741	0.0152216
609.819	0.0153493
609.897	0.0151730
609.975	0.0153304
610.053	0.0153384
610.131	0.0153571
610.209	0.0151846
610.288	0.0152692
610.366	0.0153123
610.444	0.0153490
610.522	0.0153062
610.600	0.0153468
610.678	0.0153593
610.756	0.0151781
610.834	0.0153078
610.913	0.0152125
610.991	0.0153347
611.069	0.0152798
611.147	0.0152467
611.225	0.0153618
611.303	0.0152052
611.381	0.0151472
611.459	0.0152520
611.538	0.0152701
611.616	0.0152551
611.694	0.0152680
611.772	0.0153271
611.850	0.0151650
611.928	0.0152579
612.006	0.0152098
612.084	0.0153178
612.163	0.0152185
612.241	0.0150643
612.319	0.0153283
612.397	0.0152868
612.475	0.0150777
612.553	0.0151854
612.631	0.0152155
612.709	0.0151586
612.788	0.0151057
612.866	0.0151752
612.944	0.0152950
613.022	0.0152640
613.100	0.0151292
613.178	0.0151369
613.256	0.0151901
613.334	0.0151418
613.413	0.0152018
613.491	0.0152061
613.569	0.0150788
613.647	0.0151532
613.725	0.0151501
613.803	0.0152008
613.881	0.0150674
613.959	0.0151379
614.038	0.0150778
614.116	0.0150910
614.194	0.0149905
614.272	0.0150587
614.350	0.0149939
614.428	0.0151624
614.506	0.0151788
614.584	0.0150908
614.663	0.0151250
614.741	0.0151077
614.819	0.0150755
614.897	0.0151324
614.975	0.0153163
615.053	0.0152755
615.131	0.0151476
615.209	0.0151646
615.288	0.0151662
615.366	0.0152110
615.444	0.0151446
615.522	0.0151941
615.600	0.0153578
615.678	0.0151634
615.756	0.0151650
615.834	0.0151135
615.913	0.0152851
615.991	0.0152163
616.069	0.0151924
616.147	0.0150892
616.225	0.0151319
616.303	0.0151530
616.381	0.0152097
616.459	0.0151790
616.538	0.0151525
616.616	0.0151539
616.694	0.0152672
616.772	0.0151746
616.850	0.0151690
616.928	0.0151886
617.006	0.0151392
617.084	0.0152328
617.163	0.0151060
617.241	0.0151344
617.319	0.0152079
617.397	0.0150661
617.475	0.0149895
617.553	0.0150618
617.631	0.0150893
617.709	0.0151237
617.788	0.0150877
617.866	0.0151928
617.944	0.0150461
618.022	0.0149409
618.100	0.0150380
618.178	0.0150519
618.256	0.0151824
618.334	0.0151408
618.413	0.0150793
618.491	0.0150623
618.569	0.0150452
618.647	0.0150903
618.725	0.0152427
618.803	0.0149590
618.881	0.0150175
618.959	0.0150328
619.038	0.0149536
619.116	0.0149171
619.194	0.0148918
619.272	0.0149757
619.350	0.0149724
619.428	0.0151156
619.506	0.0149431
619.584	0.0149115
619.663	0.0150935
619.741	0.0150240
619.819	0.0150723
619.897	0.0151083
619.975	0.0149541
620.053	0.0151030
620.131	0.0150831
620.209	0.0150781
620.288	0.0151379
620.366	0.0151450
620.444	0.0151360
620.522	0.0151735
620.600	0.0150999
620.678	0.0152379
620.756	0.0151625
620.834	0.0151160
620.913	0.0150874
620.991	0.0151025
621.069	0.0151642
621.147	0.0151505
621.225	0.0151245
621.303	0.0151051
621.381	0.0151307
621.459	0.0150819
621.538	0.0151660
621.616	0.0152338
621.694	0.0151287
621.772	0.0152268
621.850	0.0151573
621.928	0.0152316
622.006	0.0151247
622.084	0.0151942
622.163	0.0153514
622.241	0.0151820
622.319	0.0151636
622.397	0.0151328
622.475	0.0150716
622.553	0.0150897
622.631	0.0151297
622.709	0.0152572
622.788	0.0151884
622.866	0.0151838
622.944	0.0151842
623.022	0.0151743
623.100	0.0151904
623.178	0.0151944
623.256	0.0152241
623.334	0.0151260
623.413	0.0152486
623.491	0.0151319
623.569	0.0150357
623.647	0.0150855
623.725	0.0152757
623.803	0.0151760
623.881	0.0151115
623.959	0.0152523
624.038	0.0151046
624.116	0.0150234
624.194	0.0151461
624.272	0.0152171
624.350	0.0152252
624.428	0.0152572
624.506	0.0153682
624.584	0.0153303
624.663	0.0153287
624.741	0.0151580
624.819	0.0151891
624.897	0.0154093
624.975	0.0153476
625.053	0.0152190
625.131	0.0152459
625.209	0.0152779
625.288	0.0152355
625.366	0.0152350
625.444	0.0152421
625.522	0.0153512
625.600	0.0151952
625.678	0.0151696
625.756	0.0150901
625.834	0.0152801
625.913	0.0153158
625.991	0.0152896
626.069	0.0152718
626.147	0.0152675
626.225	0.0152119
626.303	0.0152970
626.381	0.0152679
626.459	0.0152457
626.538	0.0152521
626.616	0.0152789
626.694	0.0152830
626.772	0.0152470
626.850	0.0152064
626.928	0.0154300
627.006	0.0153936
627.084	0.0152010
627.163	0.0152218
627.241	0.0151579
627.319	0.0153698
627.397	0.0151944
627.475	0.0152065
627.553	0.0152676
627.631	0.0152660
627.709	0.0152429
627.788	0.0152166
627.866	0.0152174
627.944	0.0153478
628.022	0.0152130
628.100	0.0153623
628.178	0.0152477
628.256	0.0151512
628.334	0.0151355
628.413	0.0152694
628.491	0.0151940
628.569	0.0152400
628.647	0.0152555
628.725	0.0150878
628.803	0.0152612
628.881	0.0151764
628.959	0.0151399
629.038	0.0152484
629.116	0.0152801
629.194	0.0152258
629.272	0.0151442
629.350	0.0152401
629.428	0.0152595
629.506	0.0152452
629.584	0.0151252
629.663	0.0151739
629.741	0.0152336
629.819	0.0152724
629.897	0.0153098
629.975	0.0153919
630.053	0.0153426
630.131	0.0153331
630.209	0.0152415
630.288	0.0152324
630.366	0.0151788
630.444	0.0153109
630.522	0.0152683
630.600	0.0152669
630.678	0.0152119
630.756	0.0152703
630.834	0.0151963
630.913	0.0152689
630.991	0.0153544
631.069	0.0154776
631.147	0.0152773
631.225	0.0153416
631.303	0.0152163
631.381	0.0152940
631.459	0.0152573
631.538	0.0151979
631.616	0.0151592
631.694	0.0153669
631.772	0.0152985
631.850	0.0153712
631.928	0.0153683
632.006	0.0153593
632.084	0.0152145
632.163	0.0152718
632.241	0.0152515
632.319	0.0152337
632.397	0.0152413
632.475	0.0152806
632.553	0.0152328
632.631	0.0153532
632.709	0.0153867
632.788	0.0152507
632.866	0.0152408
632.944	0.0151473
633.022	0.0153350
633.100	0.0153126
633.178	0.0153613
633.256	0.0153570
633.334	0.0153083
633.413	0.0153919
633.491	0.0152984
633.569	0.0152962
633.647	0.0153451
633.725	0.0151562
633.803	0.0153125
633.881	0.0150892
633.959	0.0153133
634.038	0.0152145
634.116	0.0152284
634.194	0.0152985
634.272	0.0152440
634.350	0.0152468
634.428	0.0152503
634.506	0.0151527
634.584	0.0151806
634.663	0.0152431
634.741	0.0153320
634.819	0.0151184
634.897	0.0153220
634.975	0.0152287
635.053	0.0151590
635.131	0.0151664
635.209	0.0152960
635.288	0.0152046
635.366	0.0151218
635.444	0.0153219
635.522	0.0153934
635.600	0.0154048
635.678	0.0153092
635.756	0.0152751
635.834	0.0153770
635.913	0.0154026
635.991	0.0152594
636.069	0.0153445
636.147	0.0153320
636.225	0.0153292
636.303	0.0152849
636.381	0.0152979
636.459	0.0153975
636.538	0.0153774
636.616	0.0152796
636.694	0.0153632
636.772	0.0152553
636.850	0.0153457
636.928	0.0153665
637.006	0.0153988
637.084	0.0153927
637.163	0.0153728
637.241	0.0154467
637.319	0.0153072
637.397	0.0153002
637.475	0.0154409
637.553	0.0152506
637.631	0.0153578
637.709	0.0154394
637.788	0.0154936
637.866	0.0154317
637.944	0.0152718
638.022	0.0153304
638.100	0.0153631
638.178	0.0154301
638.256	0.0153497
638.334	0.0153400
638.413	0.0153249
638.491	0.0153302
638.569	0.0153335
638.647	0.0153082
638.725	0.0152933
638.803	0.0153318
638.881	0.0152812
638.959	0.0152905
639.038	0.0152689
639.116	0.0152127
639.194	0.0152864
639.272	0.0153397
639.350	0.0152399
639.428	0.0152505
639.506	0.0151672
639.584	0.0152411
639.663	0.0152475
639.741	0.0152010
639.819	0.0151988
639.897	0.0151755
639.975	0.0150897
640.053	0.0149583
640.131	0.0151646
640.209	0.0150908
640.288	0.0150587
640.366	0.0151067
640.444	0.0149934
640.522	0.0151722
640.600	0.0151520
640.678	0.0150175
640.756	0.0151619
640.834	0.0151166
640.913	0.0152186
640.991	0.0150926
641.069	0.0150349
641.147	0.0151662
641.225	0.0152606
641.303	0.0151443
641.381	0.0152669
641.459	0.0153515
641.538	0.0151096
641.616	0.0151583
641.694	0.0151866
641.772	0.0151830
641.850	0.0152287
641.928	0.0149578
642.006	0.0151169
642.084	0.0151232
642.163	0.0150496
642.241	0.0152456
642.319	0.0151609
642.397	0.0150823
642.475	0.0149976
642.553	0.0149850
642.631	0.0150838
642.709	0.0150485
642.788	0.0149166
642.866	0.0150153
642.944	0.0150118
643.022	0.0151701
643.100	0.0149836
643.178	0.0150549
643.256	0.0150034
643.334	0.0150285
643.413	0.0151646
643.491	0.0151886
643.569	0.0150401
643.647	0.0151620
643.725	0.0150780
643.803	0.0150721
643.881	0.0151576
643.959	0.0151449
644.038	0.0151537
644.116	0.0149309
644.194	0.0151672
644.272	0.0152400
644.350	0.0150243
644.428	0.0151626
644.506	0.0152032
644.584	0.0152045
644.663	0.0149844
644.741	0.0150560
644.819	0.0150700
644.897	0.0149881
644.975	0.0149673
645.053	0.0151222
645.131	0.0150173
645.209	0.0150496
645.288	0.0152104
645.366	0.0150707
645.444	0.0152084
645.522	0.0151131
645.600	0.0151715
645.678	0.0151991
645.756	0.0150058
645.834	0.0150576
645.913	0.0151555
645.991	0.0151715
646.069	0.0152497
646.147	0.0152396
646.225	0.0150934
646.303	0.0151050
646.381	0.0151536
646.459	0.0150972
646.538	0.0150316
646.616	0.0151827
646.694	0.0151113
646.772	0.0151800
646.850	0.0151036
646.928	0.0153780
647.006	0.0153232
647.084	0.0152804
647.163	0.0153117
647.241	0.0151917
647.319	0.0153013
647.397	0.0151173
647.475	0.0152596
647.553	0.0152979
647.631	0.0152680
647.709	0.0152345
647.788	0.0153196
647.866	0.0153565
647.944	0.0152553
648.022	0.0152762
648.100	0.0152123
648.178	0.0152994
648.256	0.0153159
648.334	0.0152409
648.413	0.0152249
648.491	0.0152020
648.569	0.0153510
648.647	0.0152850
648.725	0.0152969
648.803	0.0153018
648.881	0.0151431
648.959	0.0152954
649.038	0.0153943
649.116	0.0152483
649.194	0.0152522
649.272	0.0152543
649.350	0.0153027
649.428	0.0153175
649.506	0.0150561
649.584	0.0153377
649.663	0.0151748
649.741	0.0153967
649.819	0.0152316
649.897	0.0152121
649.975	0.0152669
650.053	0.0152708
650.131	0.0152908
650.209	0.0152829
650.288	0.0151913
650.366	0.0151911
650.444	0.0153352
650.522	0.0151573
650.600	0.0152332
650.678	0.0154033
650.756	0.0152605
650.834	0.0152073
650.913	0.0151912
650.991	0.0153327
651.069	0.0153466
651.147	0.0152989
651.225	0.0153757
651.303	0.0151752
651.381	0.0152402
651.459	0.0150517
651.538	0.0151768
651.616	0.0153834
651.694	0.0152948
651.772	0.0150697
651.850	0.0152599
651.928	0.0152732
652.006	0.0151620
652.084	0.0152180
652.163	0.0151962
652.241	0.0151974
652.319	0.0152363
652.397	0.0152745
652.475	0.0152415
652.553	0.0150496
652.631	0.0151494
652.709	0.0151934
652.788	0.0151601
652.866	0.0150368
652.944	0.0151791
653.022	0.0150697
653.100	0.0152100
653.178	0.0151726
653.256	0.0149886
653.334	0.0150449
653.413	0.0150697
653.491	0.0148795
653.569	0.0150359
653.647	0.0150205
653.725	0.0148528
653.803	0.0149079
653.881	0.0149294
653.959	0.0148122
654.038	0.0149090
654.116	0.0150489
654.194	0.0149984
654.272	0.0149607
654.350	0.0149244
654.428	0.0149905
654.506	0.0150264
654.584	0.0149265
654.663	0.0150435
654.741	0.0150871
654.819	0.0149480
654.897	0.0150537
654.975	0.0150774
655.053	0.0151645
655.131	0.0150982
655.209	0.0151071
655.288	0.0151353
655.366	0.0150612
655.444	0.0150475
655.522	0.0152322
655.600	0.0150827
655.678	0.0153261
655.756	0.0151579
655.834	0.0152779
655.913	0.0153075
655.991	0.0153580
656.069	0.0152831
656.147	0.0152525
656.225	0.0152855
656.303	0.0152798
656.381	0.0152857
656.459	0.0154128
656.538	0.0152882
656.616	0.0153085
656.694	0.0153577
656.772	0.0152449
656.850	0.0153078
656.928	0.0153330
657.006	0.0152114
657.084	0.0153385
657.163	0.0154015
657.241	0.0152804
657.319	0.0152704
657.397	0.0153793
657.475	0.0153636
657.553	0.0151936
657.631	0.0151940
657.709	0.0152081
657.788	0.0153695
657.866	0.0152701
657.944	0.0151983
658.022	0.0152164
658.100	0.0150637
658.178	0.0151823
658.256	0.0152073
658.334	0.0150913
658.413	0.0149822
658.491	0.0149543
658.569	0.0151218
658.647	0.0150287
658.725	0.0151459
658.803	0.0151413
658.881	0.0150355
658.959	0.0151202
659.038	0.0150047
659.116	0.0150870
659.194	0.0151698
659.272	0.0153542
659.350	0.0153115
659.428	0.0152534
659.506	0.0152795
659.584	0.0153495
659.663	0.0153621
659.741	0.0152189
659.819	0.0153161
659.897	0.0152779
659.975	0.0151228
660.053	0.0152098
660.131	0.0151761
660.209	0.0151753
660.288	0.0151376
660.366	0.0151790
660.444	0.0151883
660.522	0.0149911
660.600	0.0150021
660.678	0.0150232
660.756	0.0150378
660.834	0.0149697
660.913	0.0151623
660.991	0.0151962
661.069	0.0151450
661.147	0.0150380
661.225	0.0150745
661.303	0.0151854
661.381	0.0152729
661.459	0.0153553
661.538	0.0153260
661.616	0.0153149
661.694	0.0154002
661.772	0.0153668
661.850	0.0153599
661.928	0.0154409
662.006	0.0154865
662.084	0.0156055
662.163	0.0156351
662.241	0.0154610
662.319	0.0155000
662.397	0.0155386
662.475	0.0155162
662.553	0.0155344
662.631	0.0155956
662.709	0.0153829
662.788	0.0153668
662.866	0.0154274
662.944	0.0151773
663.022	0.0149899
663.100	0.0150755
663.178	0.0148817
663.256	0.0148399
663.334	0.0147438
663.413	0.0146053
663.491	0.0145643
663.569	0.0145855
663.647	0.0145263
663.725	0.0144384
663.803	0.0144849
663.881	0.0144674
663.959	0.0144989
664.038	0.0145282
664.116	0.0146130
664.194	0.0147018
664.272	0.0148933
664.350	0.0149396
664.428	0.0151177
664.506	0.0149952
664.584	0.0151318
664.663	0.0152340
664.741	0.0153709
664.819	0.0154723
664.897	0.0155045
664.975	0.0155001
665.053	0.0154884
665.131	0.0155970
665.209	0.0156660
665.288	0.0156763
665.366	0.0156656
665.444	0.0155513
665.522	0.0156561
665.600	0.0157986
665.678	0.0156757
665.756	0.0157544
665.834	0.0156364
665.913	0.0156984
665.991	0.0156268
666.069	0.0155505
666.147	0.0154309
666.225	0.0154259
666.303	0.0154670
666.381	0.0153496
666.459	0.0153459
666.538	0.0151836
666.616	0.0151418
666.694	0.0150550
666.772	0.0149630
666.850	0.0150447
666.928	0.0149940
667.006	0.0149924
667.084	0.0148991
667.163	0.0149085
667.241	0.0148345
667.319	0.0150180
667.397	0.0147667
667.475	0.0148151
667.553	0.0147859
667.631	0.0148083
667.709	0.0148529
667.788	0.0145657
667.866	0.0145040
667.944	0.0146001
668.022	0.0146845
668.100	0.0145186
668.178	0.0145272
668.256	0.0145628
668.334	0.0145995
668.413	0.0145940
668.491	0.0145977
668.569	0.0146464
668.647	0.0148327
668.725	0.0148949
668.803	0.0149147
668.881	0.0151984
668.959	0.0152592
669.038	0.0152534
669.116	0.0153398
669.194	0.0155001
669.272	0.0156898
669.350	0.0157835
669.428	0.0158861
669.506	0.0159560
669.584	0.0160480
669.663	0.0161885
669.741	0.0161301
669.819	0.0163209
669.897	0.0163077
669.975	0.0164398
670.053	0.0163396
670.131	0.0164262
670.209	0.0164277
670.288	0.0162399
670.366	0.0162468
670.444	0.0163390
670.522	0.0162570
670.600	0.0160669
670.678	0.0159467
670.756	0.0159991
670.834	0.0157710
670.913	0.0155448
670.991	0.0153145
671.069	0.0151236
671.147	0.0148767
671.225	0.0149358
671.303	0.0146204
671.381	0.0144224
671.459	0.0141678
671.538	0.0143903
671.616	0.0140397
671.694	0.0138576
671.772	0.0137981
671.850	0.0137665
671.928	0.0137636
672.006	0.0136602
672.084	0.0136690
672.163	0.0135555
672.241	0.0137221
672.319	0.0138251
672.397	0.0138661
672.475	0.0140907
672.553	0.0141933
672.631	0.0142439
672.709	0.0141985
672.788	0.0145387
672.866	0.0147608
672.944	0.0147260
673.022	0.0149762
673.100	0.0151154
673.178	0.0153525
673.256	0.0154660
673.334	0.0155712
673.413	0.0156680
673.491	0.0157372
673.569	0.0159180
673.647	0.0157642
673.725	0.0159712
673.803	0.0160536
673.881	0.0160287
673.959	0.0159635
674.038	0.0160311
674.116	0.0160279
674.194	0.0159197
674.272	0.0159572
674.350	0.0160726
674.428	0.0160056
674.506	0.0160236
674.584	0.0160367
674.663	0.0159882
674.741	0.0159073
674.819	0.0159113
674.897	0.0159184
674.975	0.0159345
675.053	0.0159694
675.131	0.0159251
675.209	0.0158627
675.288	0.0158229
675.366	0.0156960
675.444	0.0157487
675.522	0.0155885
675.600	0.0153138
675.678	0.0153985
675.756	0.0152605
675.834	0.0150256
675.913	0.0147771
675.991	0.0146872
676.069	0.0144807
676.147	0.0142509
676.225	0.0141229
676.303	0.0139785
676.381	0.0137957
676.459	0.0137685
676.538	0.0135296
676.616	0.0134085
676.694	0.0133055
676.772	0.0132739
676.850	0.0131672
676.928	0.0131125
677.006	0.0131276
677.084	0.0132465
677.163	0.0133248
677.241	0.0134869
677.319	0.0135301
677.397	0.0136298
677.475	0.0137376
677.553	0.0140527
677.631	0.0141800
677.709	0.0144906
677.788	0.0146876
677.866	0.0147060
677.944	0.0150362
678.022	0.0152719
678.100	0.0154623
678.178	0.0156653
678.256	0.0160380
678.334	0.0161588
678.413	0.0164246
678.491	0.0164723
678.569	0.0166443
678.647	0.0167933
678.725	0.0168723
678.803	0.0168753
678.881	0.0169822
678.959	0.0169099
679.038	0.0170734
679.116	0.0168947
679.194	0.0169427
679.272	0.0169016
679.350	0.0166953
679.428	0.0166888
679.506	0.0166343
679.584	0.0163896
679.663	0.0161995
679.741	0.0162488
679.819	0.0160449
679.897	0.0156725
679.975	0.0155703
680.053	0.0153371
680.131	0.0150490
680.209	0.0151276
680.288	0.0147979
680.366	0.0146842
680.444	0.0145685
680.522	0.0145389
680.600	0.0145530
680.678	0.0143232
680.756	0.0141859
680.834	0.0144968
680.913	0.0143056
680.991	0.0142235
681.069	0.0144302
681.147	0.0144615
681.225	0.0144143
681.303	0.0144803
681.381	0.0145378
681.459	0.0145948
681.538	0.0145332
681.616	0.0146626
681.694	0.0146925
681.772	0.0145197
681.850	0.0149205
681.928	0.0150003
682.006	0.0151369
682.084	0.0149785
682.163	0.0151051
682.241	0.0154739
682.319	0.0154192
682.397	0.0154248
682.475	0.0156882
682.553	0.0155245
682.631	0.0157392
682.709	0.0159408
682.788	0.0156625
682.866	0.0156477
682.944	0.0156483
683.022	0.0156794
683.100	0.0156221
683.178	0.0156990
683.256	0.0154651
683.334	0.0153075
683.413	0.0152028
683.491	0.0153816
683.569	0.0151065
683.647	0.0149671
683.725	0.0149715
683.803	0.0150972
683.881	0.0150298
683.959	0.0148669
684.038	0.0146502
684.116	0.0147487
684.194	0.0146294
684.272	0.0145979
684.350	0.0145531
684.428	0.0144886
684.506	0.0143897
684.584	0.0144704
684.663	0.0146163
684.741	0.0145468
684.819	0.0145084
684.897	0.0146105
684.975	0.0147619
685.053	0.0148476
685.131	0.0150400
685.209	0.0152274
685.288	0.0153870
685.366	0.0156054
685.444	0.0156393
685.522	0.0156696
685.600	0.0157540
685.678	0.0161240
685.756	0.0160767
685.834	0.0163115
685.913	0.0163197
685.991	0.0164147
686.069	0.0162898
686.147	0.0163835
686.225	0.0163904
686.303	0.0163003
686.381	0.0161652
686.459	0.0161354
686.538	0.0160750
686.616	0.0158653
686.694	0.0158836
686.772	0.0156583
686.850	0.0154911
686.928	0.0152536
687.006	0.0150874
687.084	0.0150445
687.163	0.0148656
687.241	0.0147318
687.319	0.0148045
687.397	0.0147237
687.475	0.0145488
687.553	0.0145206
687.631	0.0145249
687.709	0.0146020
687.788	0.0145020
687.866	0.0145760
687.944	0.0147015
688.022	0.0146735
688.100	0.0145406
688.178	0.0145985
688.256	0.0147818
688.334	0.0148013
688.413	0.0149172
688.491	0.0150027
688.569	0.0151133
688.647	0.0150433
688.725	0.0149641
688.803	0.0150307
688.881	0.0152131
688.959	0.0151666
689.038	0.0151065
689.116	0.0150901
689.194	0.0152194
689.272	0.0151701
689.350	0.0150732
689.428	0.0150564
689.506	0.0152002
689.584	0.0149861
689.663	0.0150274
689.741	0.0150372
689.819	0.0150600
689.897	0.0150590
689.975	0.0151226
690.053	0.0149956
690.131	0.0149866
690.209	0.0149823
690.288	0.0148893
690.366	0.0148792
690.444	0.0148166
690.522	0.0146817
690.600	0.0146246
690.678	0.0146090
690.756	0.0147387
690.834	0.0145889
690.913	0.0146615
690.991	0.0146480
691.069	0.0147340
691.147	0.0145705
691.225	0.0146370
691.303	0.0148679
691.381	0.0148064
691.459	0.0150974
691.538	0.0151295
691.616	0.0153632
691.694	0.0155197
691.772	0.0157568
691.850	0.0159286
691.928	0.0160344
692.006	0.0161518
692.084	0.0163578
692.163	0.0165682
692.241	0.0167345
692.319	0.0167426
692.397	0.0168187
692.475	0.0170010
692.553	0.0170976
692.631	0.0170638
692.709	0.0171027
692.788	0.0171671
692.866	0.0170290
692.944	0.0171362
693.022	0.0169230
693.100	0.0169231
693.178	0.0168336
693.256	0.0165408
693.334	0.0163589
693.413	0.0162773
693.491	0.0162405
693.569	0.0160358
693.647	0.0156847
693.725	0.0154568
693.803	0.0152853
693.881	0.0149070
693.959	0.0146113
694.038	0.0141669
694.116	0.0140247
694.194	0.0139316
694.272	0.0135934
694.350	0.0131623
694.428	0.0130379
694.506	0.0128439
694.584	0.0126920
694.663	0.0124667
694.741	0.0124252
694.819	0.0123886
694.897	0.0122758
694.975	0.0121053
695.053	0.0121410
695.131	0.0120612
695.209	0.0122221
695.288	0.0123399
695.366	0.0125822
695.444	0.0126852
695.522	0.0130954
695.600	0.0133527
695.678	0.0135484
695.756	0.0138181
695.834	0.0141600
695.913	0.0145383
695.991	0.0149352
696.069	0.0150465
696.147	0.0154264
696.225	0.0158363
696.303	0.0160549
696.381	0.0162888
696.459	0.0164806
696.538	0.0167620
696.616	0.0169855
696.694	0.0170810
696.772	0.0173011
696.850	0.0173013
696.928	0.0173902
697.006	0.0174667
697.084	0.0176031
697.163	0.0176806
697.241	0.0176595
697.319	0.0178442
697.397	0.0178943
697.475	0.0178854
697.553	0.0178434
697.631	0.0178374
697.709	0.0175406
697.788	0.0176272
697.866	0.0174065
697.944	0.0172234
698.022	0.0170631
698.100	0.0167323
698.178	0.0165125
698.256	0.0162717
698.334	0.0160002
698.413	0.0156160
698.491	0.0154390
698.569	0.0151129
698.647	0.0148313
698.725	0.0145364
698.803	0.0143698
698.881	0.0140498
698.959	0.0136671
699.038	0.0134559
699.116	0.0133115
699.194	0.0132589
699.272	0.0130032
699.350	0.0130034
699.428	0.0128930
699.506	0.0128519
699.584	0.0127829
699.663	0.0128200
699.741	0.0128528
699.819	0.0128135
699.897	0.0129949
699.975	0.0131598
700.053	0.0133195
700.131	0.0133791
700.209	0.0135950
700.288	0.0139112
700.366	0.0142073
700.444	0.0143595
700.522	0.0146101
700.600	0.0148878
700.678	0.0152332
700.756	0.0153754
700.834	0.0156689
700.913	0.0158006
700.991	0.0159917
701.069	0.0162503
701.147	0.0163783
701.225	0.0164648
701.303	0.0167004
701.381	0.0165743
701.459	0.0165878
701.538	0.0166257
701.616	0.0166331
701.694	0.0166743
701.772	0.0165683
701.850	0.0166076
701.928	0.0165186
702.006	0.0164201
702.084	0.0162160
702.163	0.0161057
702.241	0.0158587
702.319	0.0158813
702.397	0.0158057
702.475	0.0157265
702.553	0.0155561
702.631	0.0153790
702.709	0.0154665
702.788	0.0153790
702.866	0.0153813
702.944	0.0154378
703.022	0.0153281
703.100	0.0153431
703.178	0.0154507
703.256	0.0154684
703.334	0.0155233
703.413	0.0155898
703.491	0.0155466
703.569	0.0156530
703.647	0.0156026
703.725	0.0156062
703.803	0.0155005
703.881	0.0155133
703.959	0.0154034
704.038	0.0152749
704.116	0.0153485
704.194	0.0152401
704.272	0.0154558
704.350	0.0152193
704.428	0.0151514
704.506	0.0149487
704.584	0.0148820
704.663	0.0146971
704.741	0.0146252
704.819	0.0147072
704.897	0.0144981
704.975	0.0143884
705.053	0.0142194
705.131	0.0140387
705.209	0.0139850
705.288	0.0138927
705.366	0.0139056
705.444	0.0136823
705.522	0.0138944
705.600	0.0139375
705.678	0.0139268
705.756	0.0140105
705.834	0.0142568
705.913	0.0144256
705.991	0.0144365
706.069	0.0147202
706.147	0.0147980
706.225	0.0149528
706.303	0.0151749
706.381	0.0152925
706.459	0.0152670
706.538	0.0155052
706.616	0.0154829
706.694	0.0157041
706.772	0.0158740
706.850	0.0159528
706.928	0.0159960
707.006	0.0160524
707.084	0.0162333
707.163	0.0162505
707.241	0.0162115
707.319	0.0163894
707.397	0.0162978
707.475	0.0162862
707.553	0.0162009
707.631	0.0163422
707.709	0.0163356
707.788	0.0161987
707.866	0.0161106
707.944	0.0160509
708.022	0.0160812
708.100	0.0159402
708.178	0.0157462
708.256	0.0158400
708.334	0.0157478
708.413	0.0156373
708.491	0.0156316
708.569	0.0154841
708.647	0.0152626
708.725	0.0152259
708.803	0.0151398
708.881	0.0150482
708.959	0.0151112
709.038	0.0150601
709.116	0.0149245
709.194	0.0148325
709.272	0.0148048
709.350	0.0148743
709.428	0.0148149
709.506	0.0147490
709.584	0.0146944
709.663	0.0145971
709.741	0.0145843
709.819	0.0145962
709.897	0.0145995
709.975	0.0145957
710.053	0.0145940
710.131	0.0146642
710.209	0.0146887
710.288	0.0147182
710.366	0.0146198
710.444	0.0145843
710.522	0.0146315
710.600	0.0146174
710.678	0.0146249
710.756	0.0146117
710.834	0.0145689
710.913	0.0145242
710.991	0.0145166
711.069	0.0146007
711.147	0.0146420
711.225	0.0147468
711.303	0.0148720
711.381	0.0149098
711.459	0.0150066
711.538	0.0151483
711.616	0.0155030
711.694	0.0155855
711.772	0.0158518
711.850	0.0159047
711.928	0.0160011
712.006	0.0162125
712.084	0.0163557
712.163	0.0164383
712.241	0.0164813
712.319	0.0165959
712.397	0.0166879
712.475	0.0166197
712.553	0.0166398
712.631	0.0166418
712.709	0.0166978
712.788	0.0166214
712.866	0.0164068
712.944	0.0163841
713.022	0.0162314
713.100	0.0161742
713.178	0.0159127
713.256	0.0157018
713.334	0.0156866
713.413	0.0153221
713.491	0.0152774
713.569	0.0150320
713.647	0.0149617
713.725	0.0147667
713.803	0.0146902
713.881	0.0146144
713.959	0.0145378
714.038	0.0144538
714.116	0.0144649
714.194	0.0144600
714.272	0.0144531
714.350	0.0145611
714.428	0.0144795
714.506	0.0144989
714.584	0.0145113
714.663	0.0145461
714.741	0.0146823
714.819	0.0147409
714.897	0.0147860
714.975	0.0147588
715.053	0.0148396
715.131	0.0146272
715.209	0.0148020
715.288	0.0149023
715.366	0.0148956
715.444	0.0149033
715.522	0.0149760
715.600	0.0150117
715.678	0.0150233
715.756	0.0150653
715.834	0.0150993
715.913	0.0151356
715.991	0.0149957
716.069	0.0149642
716.147	0.0149223
716.225	0.0147829
716.303	0.0148257
716.381	0.0148473
716.459	0.0150256
716.538	0.0149116
716.616	0.0149433
716.694	0.0150280
716.772	0.0152270
716.850	0.0151254
716.928	0.0152190
717.006	0.0152991
717.084	0.0153252
717.163	0.0155352
717.241	0.0154718
717.319	0.0157018
717.397	0.0156100
717.475	0.0156269
717.553	0.0157210
717.631	0.0156744
717.709	0.0156980
717.788	0.0155953
717.866	0.0155070
717.944	0.0155863
718.022	0.0156364
718.100	0.0157165
718.178	0.0157888
718.256	0.0158276
718.334	0.0157861
718.413	0.0157945
718.491	0.0158679
718.569	0.0158836
718.647	0.0158863
718.725	0.0158884
718.803	0.0158686
718.881	0.0157748
718.959	0.0157275
719.038	0.0157999
719.116	0.0157076
719.194	0.0156122
719.272	0.0156479
719.350	0.0154150
719.428	0.0155478
719.506	0.0155428
719.584	0.0153723
719.663	0.0151218
719.741	0.0152177
719.819	0.0151214
719.897	0.0151172
719.975	0.0149218
720.053	0.0147482
720.131	0.0148513
720.209	0.0145942
720.288	0.0143967
720.366	0.0144238
720.444	0.0142200
720.522	0.0139812
720.600	0.0138808
720.678	0.0137069
720.756	0.0136565
720.834	0.0135508
720.913	0.0135596
720.991	0.0134325
721.069	0.0134523
721.147	0.0134968
721.225	0.0135985
721.303	0.0137032
721.381	0.0136878
721.459	0.0137103
721.538	0.0139050
721.616	0.0140728
721.694	0.0143943
721.772	0.0145750
721.850	0.0146583
721.928	0.0148394
722.006	0.0150784
722.084	0.0154765
722.163	0.0154179
722.241	0.0157613
722.319	0.0159772
722.397	0.0162483
722.475	0.0164452
722.553	0.0163808
722.631	0.0165759
722.709	0.0168762
722.788	0.0167352
722.866	0.0168336
722.944	0.0170014
723.022	0.0168707
723.100	0.0169275
723.178	0.0169041
723.256	0.0170030
723.334	0.0170194
723.413	0.0168362
723.491	0.0169254
723.569	0.0168189
723.647	0.0167095
723.725	0.0166232
723.803	0.0166486
723.881	0.0165159
723.959	0.0161989
724.038	0.0162023
724.116	0.0159198
724.194	0.0156511
724.272	0.0155741
724.350	0.0152364
724.428	0.0150366
724.506	0.0149530
724.584	0.0147523
724.663	0.0144308
724.741	0.0140641
724.819	0.0141182
724.897	0.0140691
724.975	0.0140367
725.053	0.0139886
725.131	0.0138691
725.209	0.0138676
725.288	0.0139619
725.366	0.0141586
725.444	0.0141278
725.522	0.0140199
725.600	0.0142223
725.678	0.0142239
725.756	0.0145310
725.834	0.0145563
725.913	0.0148064
725.991	0.0150416
726.069	0.0151389
726.147	0.0150594
726.225	0.0153271
726.303	0.0157271
726.381	0.0157669
726.459	0.0159969
726.538	0.0159917
726.616	0.0162901
726.694	0.0162869
726.772	0.0161687
726.850	0.0162672
726.928	0.0162855
727.006	0.0162699
727.084	0.0160696
727.163	0.0160025
727.241	0.0157689
727.319	0.0155367
727.397	0.0154515
727.475	0.0151746
727.553	0.0150442
727.631	0.0150628
727.709	0.0148304
727.788	0.0146600
727.866	0.0145858
727.944	0.0145258
728.022	0.0144796
728.100	0.0145108
728.178	0.0144994
728.256	0.0145822
728.334	0.0146658
728.413	0.0145542
728.491	0.0147057
728.569	0.0146898
728.647	0.0149784
728.725	0.0150573
728.803	0.0151460
728.881	0.0152734
728.959	0.0154181
729.038	0.0152376
729.116	0.0154021
729.194	0.0155950
729.272	0.0154893
729.350	0.0154728
729.428	0.0154488
729.506	0.0156030
729.584	0.0156477
729.663	0.0156174
729.741	0.0156258
729.819	0.0156657
729.897	0.0155177
729.975	0.0155928
730.053	0.0155462
730.131	0.0154296
730.209	0.0153513
730.288	0.0153166
730.366	0.0154956
730.444	0.0154531
730.522	0.0152296
730.600	0.0151408
730.678	0.0152014
730.756	0.0151282
730.834	0.0150712
730.913	0.0151612
730.991	0.0149841
731.069	0.0149108
731.147	0.0148679
731.225	0.0149036
731.303	0.0148065
731.381	0.0148515
731.459	0.0148563
731.538	0.0149807
731.616	0.0148528
731.694	0.0147762
731.772	0.0149043
731.850	0.0149960
731.928	0.0151496
732.006	0.0150718
732.084	0.0151764
732.163	0.0151157
732.241	0.0151187
732.319	0.0153349
732.397	0.0152840
732.475	0.0153921
732.553	0.0153718
732.631	0.0153754
732.709	0.0153576
732.788	0.0153896
732.866	0.0152836
732.944	0.0153712
733.022	0.0154937
733.100	0.0155251
733.178	0.0154024
733.256	0.0154399
733.334	0.0154451
733.413	0.0155976
733.491	0.0156059
733.569	0.0156271
733.647	0.0154262
733.725	0.0154282
733.803	0.0154613
733.881	0.0151455
733.959	0.0152847
734.038	0.0150736
734.116	0.0150386
734.194	0.0148974
734.272	0.0148618
734.350	0.0148523
734.428	0.0148036
734.506	0.0147588
734.584	0.0147169
734.663	0.0146800
734.741	0.0146947
734.819	0.0146694
734.897	0.0147930
734.975	0.0147051
735.053	0.0147645
735.131	0.0147541
735.209	0.0147823
735.288	0.0149435
735.366	0.0148716
735.444	0.0149277
735.522	0.0149363
735.600	0.0149478
735.678	0.0152647
735.756	0.0154085
735.834	0.0153562
735.913	0.0155374
735.991	0.0156532
736.069	0.0157398
736.147	0.0156126
736.225	0.0156762
736.303	0.0158105
736.381	0.0158174
736.459	0.0157671
736.538	0.0158342
736.616	0.0158040
736.694	0.0156379
736.772	0.0155521
736.850	0.0155103
736.928	0.0154988
737.006	0.0153724
737.084	0.0153597
737.163	0.0152115
737.241	0.0153078
737.319	0.0152805
737.397	0.0150787
737.475	0.0151337
737.553	0.0151035
737.631	0.0151704
737.709	0.0151492
737.788	0.0149313
737.866	0.0149864
737.944	0.0150133
738.022	0.0149045
738.100	0.0150233
738.178	0.0148731
738.256	0.0148358
738.334	0.0147569
738.413	0.0147292
738.491	0.0146569
738.569	0.0145959
738.647	0.0145560
738.725	0.0144933
738.803	0.0145248
738.881	0.0145575
738.959	0.0144550
739.038	0.0144880
739.116	0.0145329
739.194	0.0144843
739.272	0.0145666
739.350	0.0145071
739.428	0.0145831
739.506	0.0149548
739.584	0.0149500
739.663	0.0149733
739.741	0.0149952
739.819	0.0151735
739.897	0.0152732
739.975	0.0153979
740.053	0.0154172
740.131	0.0155430
740.209	0.0154639
740.288	0.0155605
740.366	0.0158086
740.444	0.0156912
740.522	0.0156301
740.600	0.0158009
740.678	0.0158344
740.756	0.0159214
740.834	0.0160018
740.913	0.0160325
740.991	0.0161459
741.069	0.0161584
741.147	0.0161948
741.225	0.0160334
741.303	0.0162090
741.381	0.0160848
741.459	0.0160793
741.538	0.0162331
741.616	0.0161156
741.694	0.0161610
741.772	0.0160885
741.850	0.0161517
741.928	0.0160625
742.006	0.0159646
742.084	0.0158395
742.163	0.0157831
742.241	0.0156593
742.319	0.0157429
742.397	0.0155985
742.475	0.0156493
742.553	0.0155862
742.631	0.0153604
742.709	0.0151826
742.788	0.0151477
742.866	0.0150201
742.944	0.0149835
743.022	0.0147478
743.100	0.0147150
743.178	0.0145673
743.256	0.0143454
743.334	0.0145109
743.413	0.0143968
743.491	0.0140411
743.569	0.0138281
743.647	0.0138732
743.725	0.0138740
743.803	0.0137498
743.881	0.0136326
743.959	0.0136751
744.038	0.0136814
744.116	0.0137142
744.194	0.0137971
744.272	0.0138261
744.350	0.0140017
744.428	0.0140647
744.506	0.0141682
744.584	0.0144417
744.663	0.0145278
744.741	0.0147820
744.819	0.0150680
744.897	0.0154665
744.975	0.0155872
745.053	0.0158957
745.131	0.0159323
745.209	0.0160208
745.288	0.0162521
745.366	0.0163992
745.444	0.0164769
745.522	0.0166068
745.600	0.0168452
745.678	0.0168022
745.756	0.0168716
745.834	0.0168744
745.913	0.0166872
745.991	0.0163267
746.069	0.0161890
746.147	0.0163876
746.225	0.0160243
746.303	0.0158842
746.381	0.0158641
746.459	0.0156190
746.538	0.0154907
746.616	0.0154043
746.694	0.0153894
746.772	0.0151390
746.850	0.0151304
746.928	0.0152151
747.006	0.0150356
747.084	0.0151279
747.163	0.0152499
747.241	0.0152557
747.319	0.0151541
747.397	0.0151369
747.475	0.0151431
747.553	0.0151327
747.631	0.0153101
747.709	0.0151316
747.788	0.0151505
747.866	0.0151299
747.944	0.0150704
748.022	0.0152239
748.100	0.0151045
748.178	0.0151738
748.256	0.0150152
748.334	0.0149895
748.413	0.0151118
748.491	0.0152179
748.569	0.0150483
748.647	0.0150304
748.725	0.0149866
748.803	0.0150272
748.881	0.0149800
748.959	0.0149532
749.038	0.0149632
749.116	0.0149271
749.194	0.0148856
749.272	0.0147761
749.350	0.0148284
749.428	0.0148096
749.506	0.0147472
749.584	0.0146804
749.663	0.0146837
749.741	0.0145918
749.819	0.0146278
749.897	0.0146819
749.975	0.0145047
750.053	0.0145171
750.131	0.0144104
750.209	0.0144225
750.288	0.0143489
750.366	0.0143626
750.444	0.0143574
750.522	0.0143435
750.600	0.0142508
750.678	0.0144076
750.756	0.0144402
750.834	0.0145931
750.913	0.0146208
750.991	0.0147484
751.069	0.0149104
751.147	0.0149944
751.225	0.0150958
751.303	0.0152704
751.381	0.0152836
751.459	0.0152790
751.538	0.0154980
751.616	0.0157142
751.694	0.0158162
751.772	0.0157298
751.850	0.0158530
751.928	0.0157940
752.006	0.0160327
752.084	0.0162550
752.163	0.0161706
752.241	0.0160749
752.319	0.0161148
752.397	0.0160056
752.475	0.0159991
752.553	0.0160353
752.631	0.0158707
752.709	0.0158903
752.788	0.0158822
752.866	0.0157871
752.944	0.0156273
753.022	0.0153742
753.100	0.0153878
753.178	0.0154320
753.256	0.0152157
753.334	0.0150968
753.413	0.0150049
753.491	0.0149788
753.569	0.0148734
753.647	0.0148895
753.725	0.0147953
753.803	0.0147327
753.881	0.0148222
753.959	0.0147544
754.038	0.0144298
754.116	0.0144928
754.194	0.0145766
754.272	0.0143688
754.350	0.0145318
754.428	0.0145956
754.506	0.0146963
754.584	0.0148128
754.663	0.0148700
754.741	0.0149152
754.819	0.0149835
754.897	0.0151334
754.975	0.0153030
755.053	0.0153429
755.131	0.0154304
755.209	0.0154769
755.288	0.0155923
755.366	0.0155968
755.444	0.0156776
755.522	0.0154780
755.600	0.0157074
755.678	0.0156024
755.756	0.0156228
755.834	0.0155524
755.913	0.0155885
755.991	0.0153989
756.069	0.0153113
756.147	0.0153632
756.225	0.0153636
756.303	0.0151216
756.381	0.0149371
756.459	0.0149944
756.538	0.0150603
756.616	0.0148914
756.694	0.0147636
756.772	0.0147222
756.850	0.0145612
756.928	0.0145820
757.006	0.0146458
757.084	0.0144664
757.163	0.0143729
757.241	0.0145448
757.319	0.0145055
757.397	0.0145790
757.475	0.0146970
757.553	0.0146300
757.631	0.0147669
757.709	0.0149297
757.788	0.0148548
757.866	0.0150066
757.944	0.0149303
758.022	0.0152426
758.100	0.0151666
758.178	0.0153087
758.256	0.0152160
758.334	0.0152668
758.413	0.0153291
758.491	0.0154316
758.569	0.0152867
758.647	0.0152377
758.725	0.0151661
758.803	0.0149704
758.881	0.0149956
758.959	0.0149598
759.038	0.0148859
759.116	0.0148954
759.194	0.0149293
759.272	0.0148489
759.350	0.0148097
759.428	0.0147514
759.506	0.0146645
759.584	0.0146124
759.663	0.0146572
759.741	0.0148634
759.819	0.0148974
759.897	0.0149232
759.975	0.0150024
760.053	0.0151740
760.131	0.0151016
760.209	0.0150739
760.288	0.0151466
760.366	0.0152718
760.444	0.0152752
760.522	0.0153475
760.600	0.0154543
760.678	0.0153546
760.756	0.0154362
760.834	0.0155153
760.913	0.0156106
760.991	0.0155556
761.069	0.0155445
761.147	0.0154585
761.225	0.0155679
761.303	0.0157278
761.381	0.0155457
761.459	0.0154771
761.538	0.0155358
761.616	0.0154952
761.694	0.0154755
761.772	0.0154305
761.850	0.0154533
761.928	0.0153098
762.006	0.0152024
762.084	0.0150875
762.163	0.0151942
762.241	0.0152837
762.319	0.0151151
762.397	0.0150581
762.475	0.0149368
762.553	0.0149133
762.631	0.0149457
762.709	0.0148580
762.788	0.0148933
762.866	0.0150332
762.944	0.0151083
763.022	0.0150425
763.100	0.0152536
763.178	0.0152139
763.256	0.0152711
763.334	0.0153346
763.413	0.0152998
763.491	0.0153807
763.569	0.0154247
763.647	0.0155006
763.725	0.0153937
763.803	0.0153946
763.881	0.0155179
763.959	0.0155349
764.038	0.0154469
764.116	0.0153841
764.194	0.0154552
764.272	0.0154304
764.350	0.0154050
764.428	0.0153570
764.506	0.0153045
764.584	0.0154202
764.663	0.0152964
764.741	0.0151825
764.819	0.0151668
764.897	0.0152426
764.975	0.0150310
765.053	0.0150342
765.131	0.0148631
765.209	0.0148323
765.288	0.0148976
765.366	0.0148444
765.444	0.0149249
765.522	0.0148943
765.600	0.0149203
765.678	0.0149023
765.756	0.0148136
765.834	0.0149746
765.913	0.0149344
765.991	0.0149722
766.069	0.0151327
766.147	0.0150556
766.225	0.0149562
766.303	0.0150613
766.381	0.0151545
766.459	0.0150130
766.538	0.0150613
766.616	0.0151212
766.694	0.0153024
766.772	0.0152240
766.850	0.0153166
766.928	0.0152897
767.006	0.0154280
767.084	0.0153475
767.163	0.0155157
767.241	0.0155293
767.319	0.0155294
767.397	0.0155879
767.475	0.0156969
767.553	0.0156546
767.631	0.0156889
767.709	0.0158151
767.788	0.0157478
767.866	0.0156721
767.944	0.0155873
768.022	0.0157054
768.100	0.0157030
768.178	0.0157016
768.256	0.0157608
768.334	0.0156715
768.413	0.0155324
768.491	0.0154527
768.569	0.0154855
768.647	0.0153902
768.725	0.0154652
768.803	0.0154059
768.881	0.0151376
768.959	0.0152508
769.038	0.0151250
769.116	0.0149575
769.194	0.0149089
769.272	0.0148414
769.350	0.0147208
769.428	0.0147070
769.506	0.0147384
769.584	0.0147431
769.663	0.0145944
769.741	0.0145387
769.819	0.0145447
769.897	0.0144405
769.975	0.0144370
770.053	0.0145889
770.131	0.0146206
770.209	0.0145051
770.288	0.0146361
770.366	0.0145866
770.444	0.0146306
770.522	0.0147558
770.600	0.0147265
770.678	0.0147585
770.756	0.0148972
770.834	0.0148346
770.913	0.0150503
770.991	0.0151291
771.069	0.0152392
771.147	0.0153438
771.225	0.0153862
771.303	0.0153819
771.381	0.0156657
771.459	0.0155405
771.538	0.0156102
771.616	0.0157739
771.694	0.0157061
771.772	0.0158792
771.850	0.0159196
771.928	0.0159938
772.006	0.0159154
772.084	0.0158907
772.163	0.0160345
772.241	0.0159626
772.319	0.0157455
772.397	0.0156329
772.475	0.0154681
772.553	0.0155163
772.631	0.0155791
772.709	0.0153931
772.788	0.0152593
772.866	0.0153909
772.944	0.0151885
773.022	0.0151682
773.100	0.0151619
773.178	0.0150390
773.256	0.0149129
773.334	0.0149667
773.413	0.0150996
773.491	0.0150560
773.569	0.0147939
773.647	0.0149249
773.725	0.0148489
773.803	0.0148526
773.881	0.0147772
773.959	0.0148077
774.038	0.0147146
774.116	0.0146584
774.194	0.0145686
774.272	0.0146398
774.350	0.0145148
774.428	0.0144148
774.506	0.0144241
774.584	0.0145141
774.663	0.0144156
774.741	0.0144951
774.819	0.0146213
774.897	0.0147015
774.975	0.0147716
775.053	0.0148407
775.131	0.0148853
775.209	0.0149612
775.288	0.0150381
775.366	0.0152549
775.444	0.0153086
775.522	0.0153107
775.600	0.0155733
775.678	0.0155248
775.756	0.0155160
775.834	0.0155675
775.913	0.0157140
775.991	0.0156519
776.069	0.0156052
776.147	0.0156136
776.225	0.0157552
776.303	0.0156162
776.381	0.0156084
776.459	0.0155196
776.538	0.0154723
776.616	0.0154604
776.694	0.0155122
776.772	0.0154301
776.850	0.0154263
776.928	0.0153728
777.006	0.0152061
777.084	0.0152134
777.163	0.0151113
777.241	0.0150912
777.319	0.0151398
777.397	0.0151578
777.475	0.0150655
777.553	0.0151739
777.631	0.0149720
777.709	0.0150019
777.788	0.0151287
777.866	0.0151492
777.944	0.0149982
778.022	0.0152231
778.100	0.0151487
778.178	0.0151556
778.256	0.0153105
778.334	0.0153362
778.413	0.0152898
778.491	0.0153625
778.569	0.0153432
778.647	0.0154710
778.725	0.0153364
778.803	0.0153932
778.881	0.0153802
778.959	0.0154202
779.038	0.0154405
779.116	0.0154733
779.194	0.0153039
779.272	0.0153555
779.350	0.0152837
779.428	0.0152916
779.506	0.0152508
779.584	0.0150001
779.663	0.0150819
779.741	0.0149487
779.819	0.0149015
779.897	0.0148727
779.975	0.0148082
780.053	0.0148356
780.131	0.0148611
780.209	0.0147568
780.288	0.0146338
780.366	0.0147492
780.444	0.0148746
780.522	0.0148283
780.600	0.0148463
780.678	0.0148650
780.756	0.0148241
780.834	0.0150440
780.913	0.0149504
780.991	0.0151332
781.069	0.0149879
781.147	0.0148814
781.225	0.0149417
781.303	0.0149178
781.381	0.0149553
781.459	0.0150420
781.538	0.0148990
781.616	0.0151016
781.694	0.0149846
781.772	0.0149408
781.850	0.0149755
781.928	0.0148212
782.006	0.0150463
782.084	0.0153954
782.163	0.0152709
782.241	0.0153257
782.319	0.0154667
782.397	0.0156142
782.475	0.0155393
782.553	0.0155118
782.631	0.0157245
782.709	0.0157050
782.788	0.0156537
782.866	0.0156477
782.944	0.0158021
783.022	0.0158954
783.100	0.0158273
783.178	0.0158124
783.256	0.0156009
783.334	0.0157696
783.413	0.0158072
783.491	0.0157271
783.569	0.0156380
783.647	0.0157522
783.725	0.0155458
783.803	0.0156236
783.881	0.0153924
783.959	0.0154582
784.038	0.0152736
784.116	0.0154069
784.194	0.0151248
784.272	0.0151053
784.350	0.0150000
784.428	0.0150002
784.506	0.0149866
784.584	0.0148185
784.663	0.0149754
784.741	0.0149387
784.819	0.0149680
784.897	0.0148074
784.975	0.0148741
785.053	0.0150185
785.131	0.0147343
785.209	0.0147327
785.288	0.0149178
785.366	0.0149619
785.444	0.0148910
785.522	0.0149858
785.600	0.0151470
785.678	0.0150810
785.756	0.0150019
785.834	0.0148889
785.913	0.0151184
785.991	0.0151469
786.069	0.0150187
786.147	0.0150948
786.225	0.0149712
786.303	0.0151135
786.381	0.0151129
786.459	0.0151070
786.538	0.0150011
786.616	0.0149899
786.694	0.0149498
786.772	0.0150633
786.850	0.0150732
786.928	0.0150559
787.006	0.0150415
787.084	0.0150156
787.163	0.0149785
787.241	0.0149152
787.319	0.0150540
787.397	0.0150182
787.475	0.0149909
787.553	0.0150281
787.631	0.0150774
787.709	0.0150868
787.788	0.0152499
787.866	0.0152473
787.944	0.0153265
788.022	0.0154169
788.100	0.0155331
788.178	0.0154761
788.256	0.0155869
788.334	0.0155488
788.413	0.0156141
788.491	0.0156886
788.569	0.0156651
788.647	0.0155536
788.725	0.0155948
788.803	0.0156501
788.881	0.0154328
788.959	0.0154836
789.038	0.0153681
789.116	0.0151944
789.194	0.0153208
789.272	0.0151982
789.350	0.0152422
789.428	0.0151163
789.506	0.0150452
789.584	0.0150295
789.663	0.0151817
789.741	0.0149214
789.819	0.0149030
789.897	0.0147893
789.975	0.0148419
790.053	0.0149582
790.131	0.0149937
790.209	0.0147934
790.288	0.0149110
790.366	0.0152444
790.444	0.0149402
790.522	0.0148485
790.600	0.0149348
790.678	0.0150616
790.756	0.0149426
790.834	0.0151283
790.913	0.0149980
790.991	0.0149891
791.069	0.0151389
791.147	0.0150591
791.225	0.0151697
791.303	0.0152283
791.381	0.0151019
791.459	0.0150171
791.538	0.0149152
791.616	0.0149017
791.694	0.0149788
791.772	0.0149979
791.850	0.0149436
791.928	0.0149868
792.006	0.0148360
792.084	0.0148595
792.163	0.0147779
792.241	0.0148605
792.319	0.0148926
792.397	0.0150734
792.475	0.0149503
792.553	0.0149268
792.631	0.0151617
792.709	0.0151738
792.788	0.0152660
792.866	0.0152724
792.944	0.0152562
793.022	0.0152789
793.100	0.0154037
793.178	0.0153716
793.256	0.0154241
793.334	0.0155715
793.413	0.0155326
793.491	0.0156737
793.569	0.0157491
793.647	0.0157835
793.725	0.0156911
793.803	0.0158465
793.881	0.0161166
793.959	0.0159047
794.038	0.0159010
794.116	0.0159674
794.194	0.0158721
794.272	0.0158830
794.350	0.0157484
794.428	0.0157313
794.506	0.0157364
794.584	0.0156960
794.663	0.0155959
794.741	0.0155164
794.819	0.0155840
794.897	0.0155602
794.975	0.0154451
795.053	0.0152801
795.131	0.0152803
795.209	0.0153813
795.288	0.0153217
795.366	0.0152984
795.444	0.0151366
795.522	0.0150430
795.600	0.0151717
795.678	0.0150087
795.756	0.0150340
795.834	0.0149189
795.913	0.0150824
795.991	0.0149330
796.069	0.0149547
796.147	0.0149365
796.225	0.0148853
796.303	0.0148663
796.381	0.0149039
796.459	0.0149827
796.538	0.0149609
796.616	0.0149941
796.694	0.0150885
796.772	0.0151512
796.850	0.0151521
796.928	0.0152526
797.006	0.0152074
797.084	0.0152337
797.163	0.0152470
797.241	0.0152667
797.319	0.0153157
797.397	0.0153458
797.475	0.0154262
797.553	0.0154222
797.631	0.0153895
797.709	0.0154519
797.788	0.0154104
797.866	0.0154337
797.944	0.0155324
798.022	0.0154095
798.100	0.0155326
798.178	0.0156228
798.256	0.0154046
798.334	0.0154536
798.413	0.0154867
798.491	0.0155471
798.569	0.0153577
798.647	0.0153528
798.725	0.0153889
798.803	0.0154182
798.881	0.0153346
798.959	0.0152023
799.038	0.0152989
799.116	0.0153105
799.194	0.0150524
799.272	0.0150706
799.350	0.0151789
799.428	0.0150517
799.506	0.0151424
799.584	0.0151254
799.663	0.0149828
799.741	0.0149223
799.819	0.0151665
799.897	0.0150937
799.975	0.0152218
800.053	0.0150714
800.131	0.0152505
800.209	0.0152219
800.288	0.0150932
800.366	0.0150596
800.444	0.0153345
800.522	0.0152476
800.600	0.0152110
800.678	0.0151102
800.756	0.0151597
800.834	0.0151982
800.913	0.0152060
800.991	0.0151011
801.069	0.0152067
801.147	0.0150494
801.225	0.0150825
801.303	0.0150894
801.381	0.0149993
801.459	0.0150434
801.538	0.0151158
801.616	0.0150746
801.694	0.0151616
801.772	0.0151342
801.850	0.0150858
801.928	0.0150736
802.006	0.0151260
802.084	0.0151606
802.163	0.0151549
802.241	0.0152679
802.319	0.0151167
802.397	0.0152055
802.475	0.0151743
802.553	0.0154973
802.631	0.0154114
802.709	0.0154590
802.788	0.0155409
802.866	0.0154546
802.944	0.0155038
803.022	0.0155589
803.100	0.0156423
803.178	0.0155003
803.256	0.0156490
803.334	0.0156005
803.413	0.0157037
803.491	0.0156179
803.569	0.0156359
803.647	0.0155769
803.725	0.0154914
803.803	0.0154403
803.881	0.0153799
803.959	0.0154387
804.038	0.0153669
804.116	0.0153934
804.194	0.0152871
804.272	0.0152113
804.350	0.0153654
804.428	0.0152637
804.506	0.0151855
804.584	0.0152594
804.663	0.0152248
804.741	0.0152479
804.819	0.0153054
804.897	0.0152544
804.975	0.0152100
805.053	0.0151918
805.131	0.0152499
805.209	0.0154488
805.288	0.0154122
805.366	0.0153330
805.444	0.0152576
805.522	0.0153824
805.600	0.0154543
805.678	0.0154243
805.756	0.0153415
805.834	0.0155180
805.913	0.0154034
805.991	0.0153607
806.069	0.0155065
806.147	0.0154027
806.225	0.0153735
806.303	0.0153635
806.381	0.0152863
806.459	0.0154597
806.538	0.0154829
806.616	0.0153017
806.694	0.0153722
806.772	0.0152893
806.850	0.0152980
806.928	0.0153410
807.006	0.0153060
807.084	0.0153000
807.163	0.0151731
807.241	0.0152303
807.319	0.0151982
807.397	0.0150682
807.475	0.0151123
807.553	0.0150871
807.631	0.0150005
807.709	0.0150571
807.788	0.0149095
807.866	0.0149412
807.944	0.0148312
808.022	0.0149887
808.100	0.0149632
808.178	0.0151612
808.256	0.0150400
808.334	0.0149483
808.413	0.0150856
808.491	0.0150743
808.569	0.0152029
808.647	0.0151049
808.725	0.0151530
808.803	0.0151992
808.881	0.0152624
808.959	0.0152717
809.038	0.0151930
809.116	0.0153992
809.194	0.0153948
809.272	0.0153515
809.350	0.0153699
809.428	0.0153638
809.506	0.0154626
809.584	0.0153155
809.663	0.0153613
809.741	0.0155060
809.819	0.0153841
809.897	0.0152223
809.975	0.0152696
810.053	0.0150688
810.131	0.0150690
810.209	0.0151937
810.288	0.0150584
810.366	0.0150008
810.444	0.0150127
810.522	0.0149466
810.600	0.0147995
810.678	0.0149148
810.756	0.0149505
810.834	0.0149724
810.913	0.0147610
810.991	0.0147587
811.069	0.0149396
811.147	0.0149133
811.225	0.0148686
811.303	0.0148218
811.381	0.0148746
811.459	0.0149889
811.538	0.0150474
811.616	0.0150172
811.694	0.0152036
811.772	0.0150412
811.850	0.0150220
811.928	0.0150926
812.006	0.0153078
812.084	0.0151791
812.163	0.0151894
812.241	0.0152842
812.319	0.0152139
812.397	0.0152090
812.475	0.0152871
812.553	0.0153065
812.631	0.0152720
812.709	0.0152658
812.788	0.0153192
812.866	0.0151354
812.944	0.0152222
813.022	0.0151608
813.100	0.0153434
813.178	0.0153034
813.256	0.0151938
813.334	0.0151981
813.413	0.0153840
813.491	0.0152708
813.569	0.0151115
813.647	0.0153527
813.725	0.0153219
813.803	0.0152209
813.881	0.0152214
813.959	0.0154121
814.038	0.0154251
814.116	0.0152522
814.194	0.0154634
814.272	0.0154939
814.350	0.0154193
814.428	0.0155079
814.506	0.0154506
814.584	0.0154412
814.663	0.0154283
814.741	0.0154749
814.819	0.0154555
814.897	0.0154447
814.975	0.0154711
815.053	0.0155219
815.131	0.0153280
815.209	0.0153728
815.288	0.0153382
815.366	0.0154743
815.444	0.0154258
815.522	0.0153996
815.600	0.0154039
815.678	0.0152346
815.756	0.0152993
815.834	0.0152914
815.913	0.0152888
815.991	0.0152749
816.069	0.0152231
816.147	0.0152277
816.225	0.0151347
816.303	0.0150879
816.381	0.0149690
816.459	0.0149371
816.538	0.0150350
816.616	0.0148759
816.694	0.0148429
816.772	0.0149139
816.850	0.0149234
816.928	0.0149566
817.006	0.0147447
817.084	0.0147857
817.163	0.0147578
817.241	0.0148402
817.319	0.0147311
817.397	0.0148093
817.475	0.0147346
817.553	0.0148438
817.631	0.0147583
817.709	0.0149719
817.788	0.0148763
817.866	0.0149072
817.944	0.0149589
818.022	0.0150500
818.100	0.0149816
818.178	0.0150639
818.256	0.0149393
818.334	0.0149791
818.413	0.0151881
818.491	0.0151685
818.569	0.0152011
818.647	0.0151475
818.725	0.0151849
818.803	0.0152369
818.881	0.0151324
818.959	0.0151620
819.038	0.0152341
819.116	0.0152326
819.194	0.0153270
819.272	0.0153638
819.350	0.0151755
819.428	0.0154366
819.506	0.0153779
819.584	0.0153973
819.663	0.0154147
819.741	0.0153297
819.819	0.0153166
819.897	0.0154169
819.975	0.0152924
820.053	0.0153394
820.131	0.0153908
820.209	0.0155517
820.288	0.0154752
820.366	0.0153844
820.444	0.0153019
820.522	0.0152950
820.600	0.0153994
820.678	0.0153513
820.756	0.0152567
820.834	0.0152066
820.913	0.0152882
820.991	0.0151573
821.069	0.0150243
821.147	0.0151411
821.225	0.0152392
821.303	0.0151891
821.381	0.0152351
821.459	0.0151931
821.538	0.0150268
821.616	0.0151083
821.694	0.0150927
821.772	0.0151524
821.850	0.0151172
821.928	0.0150685
822.006	0.0150789
822.084	0.0150942
822.163	0.0150991
822.241	0.0149973
822.319	0.0151511
822.397	0.0152391
822.475	0.0151767
822.553	0.0152127
822.631	0.0152280
822.709	0.0151371
822.788	0.0152557
822.866	0.0153504
822.944	0.0153880
823.022	0.0153017
823.100	0.0154475
823.178	0.0154206
823.256	0.0152808
823.334	0.0155147
823.413	0.0153726
823.491	0.0153354
823.569	0.0152902
823.647	0.0152961
823.725	0.0154310
823.803	0.0154356
823.881	0.0152269
823.959	0.0153548
824.038	0.0155095
824.116	0.0154072
824.194	0.0154913
824.272	0.0154449
824.350	0.0154996
824.428	0.0155392
824.506	0.0156634
824.584	0.0155180
824.663	0.0153757
824.741	0.0155054
824.819	0.0153929
824.897	0.0153920
824.975	0.0154340
825.053	0.0154144
825.131	0.0153043
825.209	0.0154518
825.288	0.0154494
825.366	0.0153512
825.444	0.0152918
825.522	0.0152860
825.600	0.0153414
825.678	0.0153043
825.756	0.0153986
825.834	0.0153015
825.913	0.0152758
825.991	0.0151587
826.069	0.0151518
826.147	0.0152057
826.225	0.0151731
826.303	0.0151311
826.381	0.0150003
826.459	0.0150710
826.538	0.0151017
826.616	0.0152174
826.694	0.0150784
826.772	0.0150284
826.850	0.0150726
826.928	0.0152579
827.006	0.0151400
827.084	0.0152449
827.163	0.0151737
827.241	0.0151941
827.319	0.0152197
827.397	0.0150012
827.475	0.0152263
827.553	0.0153152
827.631	0.0152544
827.709	0.0149742
827.788	0.0151502
827.866	0.0150493
827.944	0.0150980
828.022	0.0150233
828.100	0.0150340
828.178	0.0149699
828.256	0.0150167
828.334	0.0150852
828.413	0.0150808
828.491	0.0149301
828.569	0.0151206
828.647	0.0150776
828.725	0.0150898
828.803	0.0152326
828.881	0.0151427
828.959	0.0150507
829.038	0.0151506
829.116	0.0151366
829.194	0.0152468
829.272	0.0153808
829.350	0.0152213
829.428	0.0154384
829.506	0.0152093
829.584	0.0151392
829.663	0.0153036
829.741	0.0154105
829.819	0.0153219
829.897	0.0153848
829.975	0.0154724
830.053	0.0153910
830.131	0.0152757
830.209	0.0152187
830.288	0.0153071
830.366	0.0153902
830.444	0.0153688
830.522	0.0151282
830.600	0.0152090
830.678	0.0153065
830.756	0.0152187
830.834	0.0150951
830.913	0.0151401
830.991	0.0150845
831.069	0.0151333
831.147	0.0150117
831.225	0.0151031
831.303	0.0150643
831.381	0.0150194
831.459	0.0149068
831.538	0.0149941
831.616	0.0148902
831.694	0.0148399
831.772	0.0149392
831.850	0.0149807
831.928	0.0148186
832.006	0.0149555
832.084	0.0149133
832.163	0.0149568
832.241	0.0149803
832.319	0.0150964
832.397	0.0149935
832.475	0.0150417
832.553	0.0151089
832.631	0.0152298
832.709	0.0151254
832.788	0.0150906
832.866	0.0150382
832.944	0.0152665
833.022	0.0150616
833.100	0.0151993
833.178	0.0151848
833.256	0.0150304
833.334	0.0151080
833.413	0.0152876
833.491	0.0152306
833.569	0.0152867
833.647	0.0151577
833.725	0.0153043
833.803	0.0150072
833.881	0.0151266
833.959	0.0151576
834.038	0.0151840
834.116	0.0152883
834.194	0.0150443
834.272	0.0152922
834.350	0.0151017
834.428	0.0149934
834.506	0.0152486
834.584	0.0151212
834.663	0.0150568
834.741	0.0150227
834.819	0.0150130
834.897	0.0152382
834.975	0.0150327
835.053	0.0150436
835.131	0.0150545
835.209	0.0151287
835.288	0.0150814
835.366	0.0151486
835.444	0.0151142
835.522	0.0150750
835.600	0.0150609
835.678	0.0151818
835.756	0.0150636
835.834	0.0150905
835.913	0.0151572
835.991	0.0151287
836.069	0.0152315
836.147	0.0150939
836.225	0.0150491
836.303	0.0151648
836.381	0.0151601
836.459	0.0152508
836.538	0.0150765
836.616	0.0152544
836.694	0.0152877
836.772	0.0152254
836.850	0.0151562
836.928	0.0151507
837.006	0.0153010
837.084	0.0152468
837.163	0.0151260
837.241	0.0151337
837.319	0.0152290
837.397	0.0153296
837.475	0.0152229
837.553	0.0151769
837.631	0.0151778
837.709	0.0151517
837.788	0.0152811
837.866	0.0151973
837.944	0.0151818
838.022	0.0152120
838.100	0.0151366
838.178	0.0152161
838.256	0.0153233
838.334	0.0152789
838.413	0.0153810
838.491	0.0152309
838.569	0.0152960
838.647	0.0153777
838.725	0.0153841
838.803	0.0155018
838.881	0.0154141
838.959	0.0153216
839.038	0.0152593
839.116	0.0152734
839.194	0.0153033
839.272	0.0154945
839.350	0.0153747
839.428	0.0152534
839.506	0.0152579
839.584	0.0150877
839.663	0.0152753
839.741	0.0151775
839.819	0.0151426
839.897	0.0150860
839.975	0.0152036
840.053	0.0149919
840.131	0.0149609
840.209	0.0150145
840.288	0.0151913
840.366	0.0150593
840.444	0.0150333
840.522	0.0149384
840.600	0.0151168
840.678	0.0150896
840.756	0.0150222
840.834	0.0149489
840.913	0.0150683
840.991	0.0151526
841.069	0.0150549
841.147	0.0150175
841.225	0.0151508
841.303	0.0152094
841.381	0.0153026
841.459	0.0151184
841.538	0.0150898
841.616	0.0151442
841.694	0.0153030
841.772	0.0151784
841.850	0.0151183
841.928	0.0152557
842.006	0.0151883
842.084	0.0152064
842.163	0.0151186
842.241	0.0151466
842.319	0.0153137
842.397	0.0154291
842.475	0.0153084
842.553	0.0152208
842.631	0.0153072
842.709	0.0152081
842.788	0.0153036
842.866	0.0153224
842.944	0.0152326
843.022	0.0152859
843.100	0.0152735
843.178	0.0150729
843.256	0.0153161
843.334	0.0152441
843.413	0.0150911
843.491	0.0151363
843.569	0.0151109
843.647	0.0152143
843.725	0.0152643
843.803	0.0150539
843.881	0.0152233
843.959	0.0151543
844.038	0.0152088
844.116	0.0151653
844.194	0.0151910
844.272	0.0151592
844.350	0.0153077
844.428	0.0151935
844.506	0.0153253
844.584	0.0151414
844.663	0.0150468
844.741	0.0152630
844.819	0.0153981
844.897	0.0151909
844.975	0.0152071
845.053	0.0152309
845.131	0.0151452
845.209	0.0152772
845.288	0.0152334
845.366	0.0150942
845.444	0.0151633
845.522	0.0151035
845.600	0.0152084
845.678	0.0153036
845.756	0.0151982
845.834	0.0151296
845.913	0.0152679
845.991	0.0152317
846.069	0.0152027
846.147	0.0151666
846.225	0.0151244
846.303	0.0151971
846.381	0.0149448
846.459	0.0150813
846.538	0.0150835
846.616	0.0151609
846.694	0.0150949
846.772	0.0150462
846.850	0.0151896
846.928	0.0151640
847.006	0.0149676
847.084	0.0152134
847.163	0.0151492
847.241	0.0151533
847.319	0.0151689
847.397	0.0152152
847.475	0.0151819
847.553	0.0152157
847.631	0.0151199
847.709	0.0152181
847.788	0.0151585
847.866	0.0152848
847.944	0.0152178
848.022	0.0153519
848.100	0.0154379
848.178	0.0152496
848.256	0.0152300
848.334	0.0154296
848.413	0.0154934
848.491	0.0154317
848.569	0.0152450
848.647	0.0154218
848.725	0.0153726
848.803	0.0154491
848.881	0.0154992
848.959	0.0154984
849.038	0.0154266
849.116	0.0153894
849.194	0.0154434
849.272	0.0154190
849.350	0.0152957
849.428	0.0152660
849.506	0.0153549
849.584	0.0152437
849.663	0.0153098
849.741	0.0153169
849.819	0.0153002
849.897	0.0152956
849.975	0.0152550
850.053	0.0152515
850.131	0.0152213
850.209	0.0152426
850.288	0.0153118
850.366	0.0153103
850.444	0.0153008
850.522	0.0153259
850.600	0.0151942
850.678	0.0151486
850.756	0.0152618
850.834	0.0153285
850.913	0.0152919
850.991	0.0153356
851.069	0.0154097
851.147	0.0152366
851.225	0.0152588
851.303	0.0151855
851.381	0.0153226
851.459	0.0153100
851.538	0.0152418
851.616	0.0151541
851.694	0.0151984
851.772	0.0152796
851.850	0.0153274
851.928	0.0153369
852.006	0.0150756
852.084	0.0151943
852.163	0.0153838
852.241	0.0152806
852.319	0.0151632
852.397	0.0152291
852.475	0.0152216
852.553	0.0152578
852.631	0.0153345
852.709	0.0153048
852.788	0.0153120
852.866	0.0151788
852.944	0.0152320
853.022	0.0151493
853.100	0.0151917
853.178	0.0152112
853.256	0.0151705
853.334	0.0150758
853.413	0.0150146
853.491	0.0152029
853.569	0.0151912
853.647	0.0151318
853.725	0.0151300
853.803	0.0150061
853.881	0.0151349
853.959	0.0152155
854.038	0.0151400
854.116	0.0150150
854.194	0.0151122
854.272	0.0151855
854.350	0.0152498
854.428	0.0151158
854.506	0.0151676
854.584	0.0151549
854.663	0.0151828
854.741	0.0151669
854.819	0.0151286
854.897	0.0150394
854.975	0.0151743
855.053	0.0150648
855.131	0.0150343
855.209	0.0150769
855.288	0.0150130
855.366	0.0150539
855.444	0.0151965
855.522	0.0151724
855.600	0.0152666
855.678	0.0150390
855.756	0.0151638
855.834	0.0150890
855.913	0.0150587
855.991	0.0152294
856.069	0.0151611
856.147	0.0151286
856.225	0.0153226
856.303	0.0151965
856.381	0.0152157
856.459	0.0151819
856.538	0.0152284
856.616	0.0152782
856.694	0.0152625
856.772	0.0152911
856.850	0.0150970
856.928	0.0150896
857.006	0.0152335
857.084	0.0151346
857.163	0.0151420
857.241	0.0152756
857.319	0.0151807
857.397	0.0150887
857.475	0.0150620
857.553	0.0151938
857.631	0.0152583
857.709	0.0152161
857.788	0.0151812
857.866	0.0153932
857.944	0.0152816
858.022	0.0150989
858.100	0.0153157
858.178	0.0151209
858.256	0.0151350
858.334	0.0152038
858.413	0.0151663
858.491	0.0151906
858.569	0.0151984
858.647	0.0152509
858.725	0.0151398
858.803	0.0150249
858.881	0.0152573
858.959	0.0151957
859.038	0.0152304
859.116	0.0152986
859.194	0.0152151
859.272	0.0152126
859.350	0.0152372
859.428	0.0152735
859.506	0.0153524
859.584	0.0152207
859.663	0.0151816
859.741	0.0152815
859.819	0.0153443
859.897	0.0154251
859.975	0.0153575
860.053	0.0153526
860.131	0.0153278
860.209	0.0152315
860.288	0.0152895
860.366	0.0152885
860.444	0.0154295
860.522	0.0152861
860.600	0.0153922
860.678	0.0153384
860.756	0.0151497
860.834	0.0152367
860.913	0.0152918
860.991	0.0153062
861.069	0.0153043
861.147	0.0153963
861.225	0.0152429
861.303	0.0153253
861.381	0.0153240
861.459	0.0151138
861.538	0.0151553
861.616	0.0152539
861.694	0.0152335
861.772	0.0152068
861.850	0.0152290
861.928	0.0152025
862.006	0.0150104
862.084	0.0150688
862.163	0.0151076
862.241	0.0150804
862.319	0.0151602
862.397	0.0150372
862.475	0.0151405
862.553	0.0150999
862.631	0.0151811
862.709	0.0151060
862.788	0.0150718
862.866	0.0149268
862.944	0.0149583
863.022	0.0150491
863.100	0.0151221
863.178	0.0149773
863.256	0.0150126
863.334	0.0149895
863.413	0.0150862
863.491	0.0150845
863.569	0.0150516
863.647	0.0150934
863.725	0.0152934
863.803	0.0151780
863.881	0.0151273
863.959	0.0151655
864.038	0.0151463
864.116	0.0152145
864.194	0.0153193
864.272	0.0152844
864.350	0.0153015
864.428	0.0152084
864.506	0.0152646
864.584	0.0152507
864.663	0.0150607
864.741	0.0150558
864.819	0.0151685
864.897	0.0153152
864.975	0.0153435
865.053	0.0153608
865.131	0.0151457
865.209	0.0152913
865.288	0.0151102
865.366	0.0151735
865.444	0.0150992
865.522	0.0151070
865.600	0.0151843
865.678	0.0152747
865.756	0.0151307
865.834	0.0150417
865.913	0.0151695
865.991	0.0151752
866.069	0.0151159
866.147	0.0151584
866.225	0.0151849
866.303	0.0151306
866.381	0.0152419
866.459	0.0152512
866.538	0.0151597
866.616	0.0151961
866.694	0.0152274
866.772	0.0153566
866.850	0.0151942
866.928	0.0151952
867.006	0.0153514
867.084	0.0151709
867.163	0.0153076
867.241	0.0154144
867.319	0.0152969
867.397	0.0152204
867.475	0.0153061
867.553	0.0152396
867.631	0.0153003
867.709	0.0151974
867.788	0.0152744
867.866	0.0153008
867.944	0.0153088
868.022	0.0152386
868.100	0.0151837
868.178	0.0152336
868.256	0.0152943
868.334	0.0152963
868.413	0.0152621
868.491	0.0153365
868.569	0.0152605
868.647	0.0152777
868.725	0.0153347
868.803	0.0151686
868.881	0.0153040
868.959	0.0154813
869.038	0.0153275
869.116	0.0152835
869.194	0.0152722
869.272	0.0152927
869.350	0.0154774
869.428	0.0152602
869.506	0.0152877
869.584	0.0152586
869.663	0.0153240
869.741	0.0154259
869.819	0.0153943
869.897	0.0152863
869.975	0.0153970
870.053	0.0153578
870.131	0.0152753
870.209	0.0153038
870.288	0.0152532
870.366	0.0155836
870.444	0.0153786
870.522	0.0152207
870.600	0.0152543
870.678	0.0152391
870.756	0.0151351
870.834	0.0151207
870.913	0.0150901
870.991	0.0150842
871.069	0.0150837
871.147	0.0150690
871.225	0.0151113
871.303	0.0150037
871.381	0.0150714
871.459	0.0150702
871.538	0.0150890
871.616	0.0150994
871.694	0.0150921
871.772	0.0150035
871.850	0.0151671
871.928	0.0150632
872.006	0.0152367
872.084	0.0150663
872.163	0.0151414
872.241	0.0151257
872.319	0.0151278
872.397	0.0150756
872.475	0.0152019
872.553	0.0151400
872.631	0.0150562
872.709	0.0150912
872.788	0.0151100
872.866	0.0150999
872.944	0.0153715
873.022	0.0153259
873.100	0.0153824
873.178	0.0152732
873.256	0.0151762
873.334	0.0151814
873.413	0.0152168
873.491	0.0152454
873.569	0.0150874
873.647	0.0151947
873.725	0.0151788
873.803	0.0151892
873.881	0.0152554
873.959	0.0151680
874.038	0.0150940
874.116	0.0151947
874.194	0.0152744
874.272	0.0153167
874.350	0.0152104
874.428	0.0153336
874.506	0.0152718
874.584	0.0151828
874.663	0.0153672
874.741	0.0155227
874.819	0.0152888
874.897	0.0152133
874.975	0.0153573
875.053	0.0154142
875.131	0.0152842
875.209	0.0152862
875.288	0.0153362
875.366	0.0152992
875.444	0.0150961
875.522	0.0151482
875.600	0.0152945
875.678	0.0152923
875.756	0.0151145
875.834	0.0153202
875.913	0.0151289
875.991	0.0151276
876.069	0.0152030
876.147	0.0151823
876.225	0.0152206
876.303	0.0151649
876.381	0.0151820
876.459	0.0152022
876.538	0.0152303
876.616	0.0152554
876.694	0.0151772
876.772	0.0151034
876.850	0.0153142
876.928	0.0152354
877.006	0.0150858
877.084	0.0153211
877.163	0.0153343
877.241	0.0151628
877.319	0.0151284
877.397	0.0151523
877.475	0.0152896
877.553	0.0151162
877.631	0.0152203
877.709	0.0151520
877.788	0.0150852
877.866	0.0150808
877.944	0.0152979
878.022	0.0152743
878.100	0.0151998
878.178	0.0150565
878.256	0.0151094
878.334	0.0151973
878.413	0.0152836
878.491	0.0151898
878.569	0.0151800
878.647	0.0151572
878.725	0.0151000
878.803	0.0153320
878.881	0.0155636
878.959	0.0152825
879.038	0.0154345
879.116	0.0155086
879.194	0.0153239
879.272	0.0155297
879.350	0.0155692
879.428	0.0154165
879.506	0.0156276
879.584	0.0156393
879.663	0.0155244
879.741	0.0157098
879.819	0.0156144
879.897	0.0155813
879.975	0.0155290
880.053	0.0155644
880.131	0.0156639
880.209	0.0154306
880.288	0.0155801
880.366	0.0153846
880.444	0.0154452
880.522	0.0154008
880.600	0.0152636
880.678	0.0154878
880.756	0.0152814
880.834	0.0153301
880.913	0.0151678
880.991	0.0151309
881.069	0.0152029
881.147	0.0152367
881.225	0.0151161
881.303	0.0149442
881.381	0.0150425
881.459	0.0150401
881.538	0.0149466
881.616	0.0150124
881.694	0.0150851
881.772	0.0152254
881.850	0.0149785
881.928	0.0149315
882.006	0.0150066
882.084	0.0150175
882.163	0.0151325
882.241	0.0151901
882.319	0.0151055
882.397	0.0151716
882.475	0.0152448
882.553	0.0152051
882.631	0.0152921
882.709	0.0153299
882.788	0.0153456
882.866	0.0152023
882.944	0.0152103
883.022	0.0152612
883.100	0.0151366
883.178	0.0153530
883.256	0.0154638
883.334	0.0154376
883.413	0.0153622
883.491	0.0153659
883.569	0.0153325
883.647	0.0154068
883.725	0.0154674
883.803	0.0153965
883.881	0.0152657
883.959	0.0152080
884.038	0.0153610
884.116	0.0154512
884.194	0.0153507
884.272	0.0153913
884.350	0.0154484
884.428	0.0152038
884.506	0.0152942
884.584	0.0152947
884.663	0.0152698
884.741	0.0151836
884.819	0.0153109
884.897	0.0152943
884.975	0.0152985
885.053	0.0151749
885.131	0.0150842
885.209	0.0152390
885.288	0.0152021
885.366	0.0150617
885.444	0.0151648
885.522	0.0151630
885.600	0.0150745
885.678	0.0151254
885.756	0.0150594
885.834	0.0150466
885.913	0.0150414
885.991	0.0150970
886.069	0.0150495
886.147	0.0150820
886.225	0.0151340
886.303	0.0150735
886.381	0.0150060
886.459	0.0150686
886.538	0.0151967
886.616	0.0150687
886.694	0.0150665
886.772	0.0150459
886.850	0.0151824
886.928	0.0151903
887.006	0.0153127
887.084	0.0152905
887.163	0.0152200
887.241	0.0152393
887.319	0.0152376
887.397	0.0153848
887.475	0.0155934
887.553	0.0153946
887.631	0.0152328
887.709	0.0153661
887.788	0.0155785
887.866	0.0154905
887.944	0.0154680
888.022	0.0154195
888.100	0.0154248
888.178	0.0154439
888.256	0.0153693
888.334	0.0153353
888.413	0.0153299
888.491	0.0152977
888.569	0.0153486
888.647	0.0152837
888.725	0.0152136
888.803	0.0150716
888.881	0.0152003
888.959	0.0150685
889.038	0.0152074
889.116	0.0151620
889.194	0.0150813
889.272	0.0152078
889.350	0.0152134
889.428	0.0151239
889.506	0.0151376
889.584	0.0150880
889.663	0.0150694
889.741	0.0151012
889.819	0.0150365
889.897	0.0150735
889.975	0.0150307
890.053	0.0151987
890.131	0.0148357
890.209	0.0150342
890.288	0.0150097
890.366	0.0150265
890.444	0.0149845
890.522	0.0150500
890.600	0.0150732
890.678	0.0151443
890.756	0.0151000
890.834	0.0152068
890.913	0.0151178
890.991	0.0151240
891.069	0.0152815
891.147	0.0150990
891.225	0.0153039
891.303	0.0154283
891.381	0.0153590
891.459	0.0153075
891.538	0.0153721
891.616	0.0152482
891.694	0.0154295
891.772	0.0154101
891.850	0.0152479
891.928	0.0153568
892.006	0.0153611
892.084	0.0154603
892.163	0.0154454
892.241	0.0154935
892.319	0.0153844
892.397	0.0153894
892.475	0.0153008
892.553	0.0152451
892.631	0.0153450
892.709	0.0152515
892.788	0.0153716
892.866	0.0153556
892.944	0.0152418
893.022	0.0152389
893.100	0.0152184
893.178	0.0152960
893.256	0.0151179
893.334	0.0151680
893.413	0.0153253
893.491	0.0151630
893.569	0.0151495
893.647	0.0152524
893.725	0.0150515
893.803	0.0151517
893.881	0.0153616
893.959	0.0152638
894.038	0.0151810
894.116	0.0149488
894.194	0.0153046
894.272	0.0152602
894.350	0.0152416
894.428	0.0152346
894.506	0.0152238
894.584	0.0153488
894.663	0.0151651
894.741	0.0151567
894.819	0.0152924
894.897	0.0153238
894.975	0.0154444
895.053	0.0152094
895.131	0.0151405
895.209	0.0152785
895.288	0.0153894
895.366	0.0153707
895.444	0.0152917
895.522	0.0152300
895.600	0.0153419
895.678	0.0152878
895.756	0.0152535
895.834	0.0153117
895.913	0.0153169
895.991	0.0151379
896.069	0.0152010
896.147	0.0151715
896.225	0.0151080
896.303	0.0153725
896.381	0.0151697
896.459	0.0151475
896.538	0.0149762
896.616	0.0151945
896.694	0.0151817
896.772	0.0150840
896.850	0.0151163
896.928	0.0151014
897.006	0.0149496
897.084	0.0150648
897.163	0.0151264
897.241	0.0151247
897.319	0.0152095
897.397	0.0152893
897.475	0.0151360
897.553	0.0151417
897.631	0.0152148
897.709	0.0151084
897.788	0.0152015
897.866	0.0151671
897.944	0.0151931
898.022	0.0152908
898.100	0.0152892
898.178	0.0153304
898.256	0.0151511
898.334	0.0151427
898.413	0.0151086
898.491	0.0151340
898.569	0.0152148
898.647	0.0152507
898.725	0.0153246
898.803	0.0153476
898.881	0.0152875
898.959	0.0154826
899.038	0.0153738
899.116	0.0153364
899.194	0.0152901
899.272	0.0153275
899.350	0.0153985
899.428	0.0153056
899.506	0.0153863
899.584	0.0152985
899.663	0.0154258
899.741	0.0155289
899.819	0.0154198
899.897	0.0154768
899.975	0.0154273
900.053	0.0153854
900.131	0.0153963
900.209	0.0154090
900.288	0.0155715
900.366	0.0154950
900.444	0.0153838
900.522	0.0153689
900.600	0.0155048
900.678	0.0153922
900.756	0.0154668
900.834	0.0152782
900.913	0.0153925
900.991	0.0153286
901.069	0.0151396
901.147	0.0153415
901.225	0.0153738
901.303	0.0153687
901.381	0.0154109
901.459	0.0153916
901.538	0.0152811
901.616	0.0152333
901.694	0.0151853
901.772	0.0152813
901.850	0.0151082
901.928	0.0153004
902.006	0.0152003
902.084	0.0151521
902.163	0.0151446
902.241	0.0152573
902.319	0.0151119
902.397	0.0150849
902.475	0.0151561
902.553	0.0151257
902.631	0.0150835
902.709	0.0150787
902.788	0.0152131
902.866	0.0150405
902.944	0.0152128
903.022	0.0150000
903.100	0.0153196
903.178	0.0151608
903.256	0.0150822
903.334	0.0151844
903.413	0.0152473
903.491	0.0152206
903.569	0.0151699
903.647	0.0152343
903.725	0.0153594
903.803	0.0151638
903.881	0.0152721
903.959	0.0153820
904.038	0.0153084
904.116	0.0152052
904.194	0.0150299
904.272	0.0151365
904.350	0.0152477
904.428	0.0152613
904.506	0.0151615
904.584	0.0152197
904.663	0.0151106
904.741	0.0149990
904.819	0.0150671
904.897	0.0150613
904.975	0.0150696
905.053	0.0148849
905.131	0.0150179
905.209	0.0149872
905.288	0.0149676
905.366	0.0149310
905.444	0.0149747
905.522	0.0149398
905.600	0.0149799
905.678	0.0151356
905.756	0.0151427
905.834	0.0150510
905.913	0.0151852
905.991	0.0152154
906.069	0.0151224
906.147	0.0151836
906.225	0.0151284
906.303	0.0152059
906.381	0.0151097
906.459	0.0152086
906.538	0.0153352
906.616	0.0152563
906.694	0.0152341
906.772	0.0151804
906.850	0.0152570
906.928	0.0152982
907.006	0.0151778
907.084	0.0152813
907.163	0.0153380
907.241	0.0151836
907.319	0.0152921
907.397	0.0153526
907.475	0.0152003
907.553	0.0153891
907.631	0.0152626
907.709	0.0152918
907.788	0.0153026
907.866	0.0153836
907.944	0.0153275
908.022	0.0152341
908.100	0.0153183
908.178	0.0153610
908.256	0.0153410
908.334	0.0153381
908.413	0.0152840
908.491	0.0153129
908.569	0.0152275
908.647	0.0152676
908.725	0.0153237
908.803	0.0152000
908.881	0.0154115
908.959	0.0152533
909.038	0.0153130
909.116	0.0152853
909.194	0.0153153
909.272	0.0153537
909.350	0.0152610
909.428	0.0152163
909.506	0.0151321
909.584	0.0153857
909.663	0.0150816
909.741	0.0151012
909.819	0.0152087
909.897	0.0153697
909.975	0.0152625
910.053	0.0152437
910.131	0.0151935
910.209	0.0152378
910.288	0.0151957
910.366	0.0151843
910.444	0.0152872
910.522	0.0152339
910.600	0.0152689
910.678	0.0153572
910.756	0.0153536
910.834	0.0152023
910.913	0.0152180
910.991	0.0152319
911.069	0.0153315
911.147	0.0154081
911.225	0.0153561
911.303	0.0153233
911.381	0.0152641
911.459	0.0153310
911.538	0.0152229
911.616	0.0152630
911.694	0.0151389
911.772	0.0152097
911.850	0.0152866
911.928	0.0151344
912.006	0.0151369
912.084	0.0151315
912.163	0.0151984
912.241	0.0151237
912.319	0.0151073
912.397	0.0150957
912.475	0.0149668
912.553	0.0152241
912.631	0.0150211
912.709	0.0150863
912.788	0.0153615
912.866	0.0151306
912.944	0.0152311
913.022	0.0152220
913.100	0.0153197
913.178	0.0153046
913.256	0.0153025
913.334	0.0153897
913.413	0.0154108
913.491	0.0153677
913.569	0.0153523
913.647	0.0153024
913.725	0.0153602
913.803	0.0154095
913.881	0.0155949
913.959	0.0155978
914.038	0.0152646
914.116	0.0151584
914.194	0.0153062
914.272	0.0154363
914.350	0.0153897
914.428	0.0153064
914.506	0.0152272
914.584	0.0152787
914.663	0.0152296
914.741	0.0152280
914.819	0.0152979
914.897	0.0152983
914.975	0.0151306
915.053	0.0152566
915.131	0.0151663
915.209	0.0152392
915.288	0.0152444
915.366	0.0153712
915.444	0.0151545
915.522	0.0152751
915.600	0.0152236
915.678	0.0152974
915.756	0.0153098
915.834	0.0152709
915.913	0.0151692
915.991	0.0153014
916.069	0.0152706
916.147	0.0153504
916.225	0.0153178
916.303	0.0152712
916.381	0.0152593
916.459	0.0151920
916.538	0.0152608
916.616	0.0153308
916.694	0.0150958
916.772	0.0151347
916.850	0.0152296
916.928	0.0152188
917.006	0.0151362
917.084	0.0151276
917.163	0.0152351
917.241	0.0152174
917.319	0.0152317
917.397	0.0151811
917.475	0.0152249
917.553	0.0152280
917.631	0.0152337
917.709	0.0152017
917.788	0.0152966
917.866	0.0152486
917.944	0.0151794
918.022	0.0151752
918.100	0.0152446
918.178	0.0152264
918.256	0.0152633
918.334	0.0152743
918.413	0.0152360
918.491	0.0152241
918.569	0.0152423
918.647	0.0152236
918.725	0.0151698
918.803	0.0152268
918.881	0.0154234
918.959	0.0153627
919.038	0.0151656
919.116	0.0151573
919.194	0.0150805
919.272	0.0151466
919.350	0.0152584
919.428	0.0151170
919.506	0.0150808
919.584	0.0151778
919.663	0.0151545
919.741	0.0152125
919.819	0.0152316
919.897	0.0150541
