05/20/2022	21:26:29	Ver.	4.1	UNKNOWN
Optical Delay	599.975067	Delta X		0.078125	Sweeps	1	Scan Rate	0/0
Coordinates	Axis 1	NaN	Axis 2	NaN	Axis 3	NaN	Axis 4	NaN	Axis 5	NaN	Axis 6	0.000000
TX Power	0.000000	RX Power	0.000000

599.975	0.0153066
600.053	0.0153339
600.131	0.0152877
600.209	0.0153564
600.288	0.0153029
600.366	0.0152996
600.444	0.0153364
600.522	0.0151624
600.600	0.0151343
600.678	0.0151306
600.756	0.0152746
600.834	0.0152283
600.913	0.0151963
600.991	0.0153127
601.069	0.0152928
601.147	0.0151584
601.225	0.0152393
601.303	0.0152370
601.381	0.0153539
601.459	0.0150628
601.538	0.0151878
601.616	0.0152892
601.694	0.0151487
601.772	0.0152135
601.850	0.0152203
601.928	0.0151593
602.006	0.0153446
602.084	0.0150902
602.163	0.0151577
602.241	0.0151846
602.319	0.0151553
602.397	0.0152235
602.475	0.0151707
602.553	0.0153262
602.631	0.0152034
602.709	0.0151687
602.788	0.0152386
602.866	0.0151756
602.944	0.0152381
603.022	0.0152374
603.100	0.0152757
603.178	0.0152740
603.256	0.0152534
603.334	0.0151786
603.413	0.0151712
603.491	0.0152314
603.569	0.0153802
603.647	0.0152292
603.725	0.0152553
603.803	0.0151780
603.881	0.0152937
603.959	0.0153092
604.038	0.0152770
604.116	0.0153362
604.194	0.0153497
604.272	0.0153770
604.350	0.0152202
604.428	0.0152338
604.506	0.0153210
604.584	0.0152553
604.663	0.0153204
604.741	0.0153683
604.819	0.0153137
604.897	0.0154196
604.975	0.0152938
605.053	0.0154778
605.131	0.0153820
605.209	0.0152989
605.288	0.0154651
605.366	0.0153865
605.444	0.0154058
605.522	0.0153308
605.600	0.0155098
605.678	0.0153775
605.756	0.0154128
605.834	0.0154191
605.913	0.0154167
605.991	0.0154434
606.069	0.0153242
606.147	0.0153450
606.225	0.0155618
606.303	0.0153365
606.381	0.0153806
606.459	0.0154652
606.538	0.0154876
606.616	0.0153672
606.694	0.0154987
606.772	0.0155537
606.850	0.0154488
606.928	0.0153742
607.006	0.0152324
607.084	0.0155085
607.163	0.0154158
607.241	0.0153796
607.319	0.0154324
607.397	0.0153613
607.475	0.0153959
607.553	0.0155190
607.631	0.0153098
607.709	0.0154903
607.788	0.0154127
607.866	0.0154288
607.944	0.0154303
608.022	0.0154344
608.100	0.0153946
608.178	0.0153537
608.256	0.0154414
608.334	0.0152974
608.413	0.0153563
608.491	0.0153173
608.569	0.0154517
608.647	0.0154151
608.725	0.0154695
608.803	0.0153963
608.881	0.0153558
608.959	0.0153488
609.038	0.0154068
609.116	0.0154865
609.194	0.0154315
609.272	0.0153244
609.350	0.0153104
609.428	0.0151630
609.506	0.0152402
609.584	0.0153438
609.663	0.0152892
609.741	0.0153056
609.819	0.0153284
609.897	0.0153001
609.975	0.0152373
610.053	0.0152060
610.131	0.0153579
610.209	0.0152740
610.288	0.0152696
610.366	0.0153639
610.444	0.0152622
610.522	0.0152549
610.600	0.0152146
610.678	0.0151592
610.756	0.0152059
610.834	0.0152554
610.913	0.0152161
610.991	0.0150982
611.069	0.0151158
611.147	0.0151780
611.225	0.0152321
611.303	0.0152736
611.381	0.0154074
611.459	0.0153199
611.538	0.0152675
611.616	0.0152075
611.694	0.0153355
611.772	0.0152790
611.850	0.0152716
611.928	0.0153264
612.006	0.0152528
612.084	0.0153083
612.163	0.0153773
612.241	0.0154338
612.319	0.0154077
612.397	0.0152622
612.475	0.0152353
612.553	0.0154786
612.631	0.0154303
612.709	0.0153817
612.788	0.0152962
612.866	0.0153181
612.944	0.0153141
613.022	0.0153220
613.100	0.0154572
613.178	0.0153867
613.256	0.0155314
613.334	0.0153328
613.413	0.0152898
613.491	0.0154060
613.569	0.0152357
613.647	0.0153873
613.725	0.0154843
613.803	0.0153147
613.881	0.0153102
613.959	0.0154188
614.038	0.0153581
614.116	0.0153774
614.194	0.0153400
614.272	0.0154682
614.350	0.0153727
614.428	0.0153232
614.506	0.0155209
614.584	0.0154394
614.663	0.0152881
614.741	0.0153955
614.819	0.0155161
614.897	0.0155109
614.975	0.0154282
615.053	0.0153791
615.131	0.0154918
615.209	0.0153388
615.288	0.0153411
615.366	0.0153852
615.444	0.0154094
615.522	0.0153363
615.600	0.0152790
615.678	0.0153996
615.756	0.0154665
615.834	0.0154338
615.913	0.0153349
615.991	0.0152858
616.069	0.0153429
616.147	0.0153822
616.225	0.0153632
616.303	0.0152949
616.381	0.0153450
616.459	0.0152891
616.538	0.0155331
616.616	0.0152993
616.694	0.0152916
616.772	0.0153722
616.850	0.0154486
616.928	0.0153225
617.006	0.0151965
617.084	0.0152913
617.163	0.0152960
617.241	0.0152138
617.319	0.0152499
617.397	0.0153707
617.475	0.0154240
617.553	0.0153107
617.631	0.0152864
617.709	0.0154552
617.788	0.0153309
617.866	0.0152371
617.944	0.0154285
618.022	0.0155140
618.100	0.0153596
618.178	0.0152770
618.256	0.0151151
618.334	0.0152621
618.413	0.0153130
618.491	0.0153868
618.569	0.0154121
618.647	0.0153109
618.725	0.0152885
618.803	0.0152924
618.881	0.0153478
618.959	0.0154138
619.038	0.0153939
619.116	0.0154668
619.194	0.0154399
619.272	0.0153316
619.350	0.0153792
619.428	0.0154988
619.506	0.0155696
619.584	0.0155132
619.663	0.0154973
619.741	0.0154933
619.819	0.0154678
619.897	0.0155116
619.975	0.0153424
620.053	0.0154504
620.131	0.0154765
620.209	0.0153976
620.288	0.0154560
620.366	0.0154745
620.444	0.0154058
620.522	0.0154744
620.600	0.0153816
620.678	0.0154131
620.756	0.0155258
620.834	0.0154681
620.913	0.0154897
620.991	0.0153301
621.069	0.0153217
621.147	0.0154284
621.225	0.0152809
621.303	0.0153682
621.381	0.0153288
621.459	0.0154460
621.538	0.0153915
621.616	0.0153638
621.694	0.0154132
621.772	0.0154400
621.850	0.0153385
621.928	0.0152164
622.006	0.0154202
622.084	0.0154193
622.163	0.0153679
622.241	0.0153612
622.319	0.0152429
622.397	0.0152431
622.475	0.0154480
622.553	0.0155093
622.631	0.0152651
622.709	0.0154579
622.788	0.0153288
622.866	0.0152336
622.944	0.0152974
623.022	0.0151886
623.100	0.0153215
623.178	0.0152184
623.256	0.0151658
623.334	0.0152454
623.413	0.0152914
623.491	0.0153478
623.569	0.0151521
623.647	0.0153279
623.725	0.0152159
623.803	0.0151839
623.881	0.0152910
623.959	0.0152789
624.038	0.0151710
624.116	0.0152496
624.194	0.0150511
624.272	0.0152694
624.350	0.0151046
624.428	0.0151984
624.506	0.0150404
624.584	0.0152262
624.663	0.0150949
624.741	0.0151878
624.819	0.0150542
624.897	0.0151900
624.975	0.0153960
625.053	0.0152898
625.131	0.0152283
625.209	0.0151500
625.288	0.0152016
625.366	0.0151970
625.444	0.0153381
625.522	0.0152116
625.600	0.0151920
625.678	0.0152930
625.756	0.0151787
625.834	0.0151752
625.913	0.0152796
625.991	0.0152051
626.069	0.0153133
626.147	0.0153339
626.225	0.0152365
626.303	0.0152607
626.381	0.0153248
626.459	0.0153165
626.538	0.0152849
626.616	0.0152271
626.694	0.0152918
626.772	0.0152789
626.850	0.0152925
626.928	0.0151949
627.006	0.0152479
627.084	0.0153896
627.163	0.0153442
627.241	0.0152650
627.319	0.0152497
627.397	0.0152866
627.475	0.0153423
627.553	0.0152410
627.631	0.0153349
627.709	0.0152409
627.788	0.0153042
627.866	0.0153389
627.944	0.0153468
628.022	0.0153656
628.100	0.0152151
628.178	0.0154584
628.256	0.0154105
628.334	0.0153033
628.413	0.0152177
628.491	0.0153605
628.569	0.0152695
628.647	0.0153562
628.725	0.0153710
628.803	0.0152644
628.881	0.0152935
628.959	0.0154237
629.038	0.0154692
629.116	0.0155615
629.194	0.0154528
629.272	0.0153422
629.350	0.0153021
629.428	0.0153656
629.506	0.0152163
629.584	0.0154341
629.663	0.0154163
629.741	0.0154133
629.819	0.0152927
629.897	0.0152927
629.975	0.0153674
630.053	0.0152928
630.131	0.0152482
630.209	0.0151956
630.288	0.0152244
630.366	0.0152805
630.444	0.0152269
630.522	0.0152831
630.600	0.0152695
630.678	0.0151385
630.756	0.0152376
630.834	0.0153029
630.913	0.0152563
630.991	0.0152849
631.069	0.0152946
631.147	0.0153671
631.225	0.0152566
631.303	0.0153345
631.381	0.0152709
631.459	0.0152482
631.538	0.0153664
631.616	0.0152705
631.694	0.0151974
631.772	0.0154808
631.850	0.0153091
631.928	0.0152286
632.006	0.0152502
632.084	0.0153603
632.163	0.0153192
632.241	0.0152870
632.319	0.0152597
632.397	0.0154210
632.475	0.0154435
632.553	0.0153585
632.631	0.0153651
632.709	0.0153660
632.788	0.0152940
632.866	0.0153207
632.944	0.0154985
633.022	0.0154751
633.100	0.0153934
633.178	0.0154691
633.256	0.0154138
633.334	0.0153028
633.413	0.0155412
633.491	0.0153576
633.569	0.0153082
633.647	0.0154199
633.725	0.0154921
633.803	0.0154737
633.881	0.0154402
633.959	0.0154277
634.038	0.0154308
634.116	0.0154095
634.194	0.0154629
634.272	0.0155579
634.350	0.0154591
634.428	0.0153468
634.506	0.0154538
634.584	0.0153653
634.663	0.0153728
634.741	0.0153799
634.819	0.0153920
634.897	0.0154463
634.975	0.0153716
635.053	0.0152878
635.131	0.0153209
635.209	0.0156020
635.288	0.0155115
635.366	0.0152837
635.444	0.0153080
635.522	0.0154470
635.600	0.0153473
635.678	0.0154233
635.756	0.0153277
635.834	0.0152780
635.913	0.0154206
635.991	0.0154765
636.069	0.0152570
636.147	0.0151963
636.225	0.0153535
636.303	0.0153886
636.381	0.0151608
636.459	0.0152818
636.538	0.0152904
636.616	0.0152258
636.694	0.0152063
636.772	0.0152167
636.850	0.0151894
636.928	0.0151134
637.006	0.0153021
637.084	0.0151572
637.163	0.0152416
637.241	0.0152535
637.319	0.0153296
637.397	0.0154091
637.475	0.0152026
637.553	0.0153383
637.631	0.0153175
637.709	0.0152614
637.788	0.0152820
637.866	0.0154337
637.944	0.0152891
638.022	0.0154281
638.100	0.0153326
638.178	0.0153232
638.256	0.0153355
638.334	0.0153703
638.413	0.0153413
638.491	0.0153909
638.569	0.0153209
638.647	0.0152717
638.725	0.0153499
638.803	0.0153673
638.881	0.0154206
638.959	0.0153492
639.038	0.0153181
639.116	0.0153447
639.194	0.0154526
639.272	0.0154385
639.350	0.0154318
639.428	0.0153698
639.506	0.0153043
639.584	0.0154006
639.663	0.0153799
639.741	0.0154956
639.819	0.0153335
639.897	0.0153334
639.975	0.0153933
640.053	0.0153796
640.131	0.0153581
640.209	0.0152337
640.288	0.0153477
640.366	0.0153498
640.444	0.0153257
640.522	0.0153066
640.600	0.0153442
640.678	0.0153220
640.756	0.0152364
640.834	0.0152346
640.913	0.0152380
640.991	0.0153803
641.069	0.0153288
641.147	0.0152080
641.225	0.0152343
641.303	0.0152023
641.381	0.0151723
641.459	0.0152644
641.538	0.0153261
641.616	0.0153062
641.694	0.0152288
641.772	0.0154044
641.850	0.0152837
641.928	0.0152105
642.006	0.0153232
642.084	0.0152480
642.163	0.0153278
642.241	0.0152155
642.319	0.0152656
642.397	0.0152769
642.475	0.0153854
642.553	0.0152034
642.631	0.0151919
642.709	0.0154227
642.788	0.0153738
642.866	0.0152045
642.944	0.0152942
643.022	0.0153442
643.100	0.0154493
643.178	0.0155364
643.256	0.0153595
643.334	0.0152844
643.413	0.0153929
643.491	0.0154059
643.569	0.0152898
643.647	0.0152935
643.725	0.0153690
643.803	0.0153716
643.881	0.0153912
643.959	0.0152806
644.038	0.0153403
644.116	0.0152988
644.194	0.0152622
644.272	0.0153959
644.350	0.0154239
644.428	0.0154189
644.506	0.0152928
644.584	0.0153532
644.663	0.0154647
644.741	0.0152465
644.819	0.0152509
644.897	0.0154083
644.975	0.0154101
645.053	0.0153337
645.131	0.0154605
645.209	0.0154476
645.288	0.0153857
645.366	0.0153333
645.444	0.0152926
645.522	0.0153226
645.600	0.0154166
645.678	0.0154104
645.756	0.0153046
645.834	0.0153671
645.913	0.0154844
645.991	0.0152932
646.069	0.0153519
646.147	0.0154115
646.225	0.0153766
646.303	0.0153237
646.381	0.0155060
646.459	0.0153910
646.538	0.0153402
646.616	0.0152734
646.694	0.0152901
646.772	0.0151833
646.850	0.0152360
646.928	0.0153037
647.006	0.0151921
647.084	0.0153368
647.163	0.0152830
647.241	0.0151559
647.319	0.0152866
647.397	0.0153864
647.475	0.0152501
647.553	0.0153175
647.631	0.0153094
647.709	0.0151971
647.788	0.0153611
647.866	0.0153870
647.944	0.0153360
648.022	0.0153892
648.100	0.0153751
648.178	0.0152217
648.256	0.0152837
648.334	0.0152828
648.413	0.0152139
648.491	0.0152412
648.569	0.0152174
648.647	0.0154280
648.725	0.0151937
648.803	0.0153320
648.881	0.0153483
648.959	0.0153407
649.038	0.0153095
649.116	0.0152519
649.194	0.0153653
649.272	0.0154441
649.350	0.0152966
649.428	0.0153039
649.506	0.0153217
649.584	0.0153289
649.663	0.0153705
649.741	0.0154424
649.819	0.0153214
649.897	0.0151938
649.975	0.0153045
650.053	0.0153890
650.131	0.0154270
650.209	0.0153074
650.288	0.0153812
650.366	0.0153676
650.444	0.0154121
650.522	0.0152574
650.600	0.0152374
650.678	0.0153943
650.756	0.0154325
650.834	0.0153521
650.913	0.0152653
650.991	0.0152602
651.069	0.0153915
651.147	0.0154736
651.225	0.0153304
651.303	0.0151474
651.381	0.0152789
651.459	0.0152191
651.538	0.0153053
651.616	0.0153986
651.694	0.0153655
651.772	0.0153249
651.850	0.0152263
651.928	0.0151714
652.006	0.0152840
652.084	0.0153352
652.163	0.0152456
652.241	0.0153279
652.319	0.0153596
652.397	0.0153134
652.475	0.0153582
652.553	0.0153129
652.631	0.0151125
652.709	0.0153312
652.788	0.0153465
652.866	0.0153928
652.944	0.0152313
653.022	0.0153237
653.100	0.0154776
653.178	0.0153833
653.256	0.0154256
653.334	0.0153902
653.413	0.0153493
653.491	0.0154473
653.569	0.0156124
653.647	0.0153465
653.725	0.0153780
653.803	0.0155147
653.881	0.0154749
653.959	0.0154343
654.038	0.0154616
654.116	0.0155627
654.194	0.0154817
654.272	0.0153087
654.350	0.0153230
654.428	0.0153197
654.506	0.0153205
654.584	0.0151855
654.663	0.0154259
654.741	0.0153738
654.819	0.0152732
654.897	0.0154961
654.975	0.0153986
655.053	0.0153097
655.131	0.0153528
655.209	0.0153729
655.288	0.0153790
655.366	0.0154916
655.444	0.0153426
655.522	0.0152834
655.600	0.0155310
655.678	0.0153955
655.756	0.0153508
655.834	0.0154028
655.913	0.0152851
655.991	0.0152509
656.069	0.0152876
656.147	0.0153456
656.225	0.0151902
656.303	0.0150983
656.381	0.0150809
656.459	0.0150769
656.538	0.0151108
656.616	0.0151096
656.694	0.0151628
656.772	0.0149989
656.850	0.0151176
656.928	0.0151784
657.006	0.0152443
657.084	0.0152603
657.163	0.0152518
657.241	0.0152431
657.319	0.0153627
657.397	0.0153747
657.475	0.0152676
657.553	0.0153633
657.631	0.0153802
657.709	0.0153970
657.788	0.0154930
657.866	0.0152794
657.944	0.0153252
658.022	0.0152442
658.100	0.0153230
658.178	0.0152350
658.256	0.0152235
658.334	0.0149239
658.413	0.0150638
658.491	0.0151886
658.569	0.0151853
658.647	0.0148928
658.725	0.0150742
658.803	0.0150508
658.881	0.0149809
658.959	0.0150999
659.038	0.0150983
659.116	0.0151571
659.194	0.0151594
659.272	0.0151286
659.350	0.0150873
659.428	0.0150637
659.506	0.0152890
659.584	0.0151784
659.663	0.0151016
659.741	0.0152026
659.819	0.0153584
659.897	0.0153254
659.975	0.0153255
660.053	0.0153735
660.131	0.0154130
660.209	0.0154140
660.288	0.0155316
660.366	0.0154596
660.444	0.0154432
660.522	0.0154253
660.600	0.0153111
660.678	0.0154096
660.756	0.0154373
660.834	0.0152439
660.913	0.0153727
660.991	0.0152502
661.069	0.0151929
661.147	0.0151503
661.225	0.0149279
661.303	0.0148377
661.381	0.0148631
661.459	0.0148770
661.538	0.0147123
661.616	0.0146152
661.694	0.0147131
661.772	0.0146607
661.850	0.0146536
661.928	0.0145794
662.006	0.0146653
662.084	0.0148250
662.163	0.0149055
662.241	0.0148972
662.319	0.0152345
662.397	0.0153811
662.475	0.0154939
662.553	0.0155252
662.631	0.0155656
662.709	0.0157766
662.788	0.0158968
662.866	0.0159328
662.944	0.0160421
663.022	0.0161240
663.100	0.0162110
663.178	0.0161275
663.256	0.0163172
663.334	0.0161674
663.413	0.0161546
663.491	0.0163330
663.569	0.0162387
663.647	0.0161222
663.725	0.0160890
663.803	0.0159716
663.881	0.0160069
663.959	0.0160895
664.038	0.0158352
664.116	0.0158150
664.194	0.0156823
664.272	0.0156180
664.350	0.0153786
664.428	0.0153114
664.506	0.0153980
664.584	0.0151892
664.663	0.0151176
664.741	0.0150906
664.819	0.0151062
664.897	0.0151032
664.975	0.0151311
665.053	0.0150216
665.131	0.0150294
665.209	0.0150158
665.288	0.0149460
665.366	0.0149525
665.444	0.0149336
665.522	0.0150652
665.600	0.0150391
665.678	0.0149207
665.756	0.0149519
665.834	0.0149856
665.913	0.0151589
665.991	0.0150374
666.069	0.0149358
666.147	0.0150079
666.225	0.0150728
666.303	0.0150899
666.381	0.0149335
666.459	0.0150865
666.538	0.0151489
666.616	0.0150727
666.694	0.0150898
666.772	0.0152016
666.850	0.0151326
666.928	0.0152666
667.006	0.0153839
667.084	0.0155257
667.163	0.0154975
667.241	0.0155552
667.319	0.0155640
667.397	0.0156435
667.475	0.0157819
667.553	0.0156725
667.631	0.0159038
667.709	0.0158956
667.788	0.0159583
667.866	0.0159586
667.944	0.0161196
668.022	0.0160058
668.100	0.0160809
668.178	0.0162418
668.256	0.0159724
668.334	0.0162061
668.413	0.0161611
668.491	0.0160862
668.569	0.0161314
668.647	0.0161072
668.725	0.0158972
668.803	0.0158395
668.881	0.0158329
668.959	0.0157587
669.038	0.0155204
669.116	0.0155685
669.194	0.0152917
669.272	0.0150704
669.350	0.0150966
669.428	0.0148933
669.506	0.0147552
669.584	0.0146968
669.663	0.0144956
669.741	0.0143607
669.819	0.0142369
669.897	0.0141459
669.975	0.0142329
670.053	0.0140288
670.131	0.0139641
670.209	0.0138197
670.288	0.0138544
670.366	0.0139303
670.444	0.0141355
670.522	0.0142153
670.600	0.0143240
670.678	0.0144857
670.756	0.0146802
670.834	0.0147489
670.913	0.0148527
670.991	0.0150520
671.069	0.0153677
671.147	0.0153696
671.225	0.0155469
671.303	0.0157065
671.381	0.0157067
671.459	0.0158127
671.538	0.0160436
671.616	0.0159880
671.694	0.0160426
671.772	0.0160849
671.850	0.0160632
671.928	0.0163089
672.006	0.0162326
672.084	0.0161564
672.163	0.0160180
672.241	0.0161440
672.319	0.0161021
672.397	0.0161107
672.475	0.0161336
672.553	0.0160356
672.631	0.0162701
672.709	0.0160163
672.788	0.0160181
672.866	0.0158581
672.944	0.0158681
673.022	0.0160746
673.100	0.0159441
673.178	0.0158593
673.256	0.0158139
673.334	0.0157468
673.413	0.0158633
673.491	0.0158602
673.569	0.0156850
673.647	0.0156680
673.725	0.0157717
673.803	0.0156254
673.881	0.0154895
673.959	0.0155118
674.038	0.0153829
674.116	0.0154202
674.194	0.0153333
674.272	0.0151303
674.350	0.0150220
674.428	0.0149425
674.506	0.0150146
674.584	0.0148868
674.663	0.0145563
674.741	0.0143809
674.819	0.0142688
674.897	0.0141602
674.975	0.0140841
675.053	0.0137835
675.131	0.0138231
675.209	0.0137383
675.288	0.0137663
675.366	0.0137059
675.444	0.0136902
675.522	0.0136341
675.600	0.0137518
675.678	0.0138046
675.756	0.0138840
675.834	0.0139767
675.913	0.0139970
675.991	0.0142812
676.069	0.0144018
676.147	0.0144878
676.225	0.0146040
676.303	0.0149512
676.381	0.0153060
676.459	0.0152245
676.538	0.0153644
676.616	0.0156309
676.694	0.0158580
676.772	0.0160557
676.850	0.0162435
676.928	0.0163354
677.006	0.0165609
677.084	0.0168105
677.163	0.0169522
677.241	0.0170618
677.319	0.0171402
677.397	0.0171626
677.475	0.0173318
677.553	0.0171818
677.631	0.0172212
677.709	0.0172021
677.788	0.0172482
677.866	0.0171006
677.944	0.0168485
678.022	0.0166798
678.100	0.0164907
678.178	0.0163458
678.256	0.0160717
678.334	0.0160815
678.413	0.0157852
678.491	0.0155362
678.569	0.0153908
678.647	0.0150581
678.725	0.0149677
678.803	0.0147679
678.881	0.0145184
678.959	0.0142886
679.038	0.0141785
679.116	0.0139631
679.194	0.0138945
679.272	0.0138397
679.350	0.0136954
679.428	0.0137175
679.506	0.0135557
679.584	0.0136193
679.663	0.0136117
679.741	0.0136645
679.819	0.0136876
679.897	0.0138794
679.975	0.0139280
680.053	0.0140399
680.131	0.0143102
680.209	0.0143203
680.288	0.0144882
680.366	0.0145779
680.444	0.0147792
680.522	0.0150444
680.600	0.0151199
680.678	0.0153281
680.756	0.0154721
680.834	0.0156649
680.913	0.0157275
680.991	0.0156783
681.069	0.0159226
681.147	0.0161089
681.225	0.0161862
681.303	0.0161784
681.381	0.0164016
681.459	0.0164355
681.538	0.0164540
681.616	0.0164225
681.694	0.0165208
681.772	0.0163359
681.850	0.0163367
681.928	0.0162719
682.006	0.0162335
682.084	0.0162629
682.163	0.0161808
682.241	0.0159037
682.319	0.0158218
682.397	0.0156445
682.475	0.0156077
682.553	0.0153255
682.631	0.0152165
682.709	0.0151602
682.788	0.0150518
682.866	0.0148923
682.944	0.0148381
683.022	0.0147974
683.100	0.0147392
683.178	0.0147973
683.256	0.0147143
683.334	0.0146870
683.413	0.0149488
683.491	0.0149425
683.569	0.0148981
683.647	0.0150257
683.725	0.0151473
683.803	0.0151430
683.881	0.0152339
683.959	0.0151832
684.038	0.0151478
684.116	0.0151498
684.194	0.0154819
684.272	0.0152555
684.350	0.0154417
684.428	0.0156108
684.506	0.0154940
684.584	0.0157216
684.663	0.0156808
684.741	0.0157423
684.819	0.0156667
684.897	0.0158669
684.975	0.0158436
685.053	0.0159428
685.131	0.0159480
685.209	0.0158887
685.288	0.0159135
685.366	0.0157816
685.444	0.0156567
685.522	0.0155972
685.600	0.0157993
685.678	0.0155927
685.756	0.0156712
685.834	0.0154730
685.913	0.0151474
685.991	0.0151716
686.069	0.0152363
686.147	0.0149196
686.225	0.0148191
686.303	0.0148190
686.381	0.0148117
686.459	0.0147446
686.538	0.0146717
686.616	0.0145284
686.694	0.0145864
686.772	0.0146606
686.850	0.0146538
686.928	0.0146551
687.006	0.0146581
687.084	0.0147005
687.163	0.0146590
687.241	0.0148335
687.319	0.0148467
687.397	0.0148566
687.475	0.0148789
687.553	0.0148653
687.631	0.0148779
687.709	0.0150536
687.788	0.0150832
687.866	0.0150854
687.944	0.0150941
688.022	0.0152522
688.100	0.0150535
688.178	0.0151364
688.256	0.0152648
688.334	0.0152645
688.413	0.0151363
688.491	0.0152111
688.569	0.0152664
688.647	0.0151646
688.725	0.0151934
688.803	0.0151376
688.881	0.0151024
688.959	0.0151806
689.038	0.0151710
689.116	0.0152183
689.194	0.0153498
689.272	0.0153689
689.350	0.0153576
689.428	0.0153329
689.506	0.0154803
689.584	0.0155962
689.663	0.0156339
689.741	0.0157318
689.819	0.0157652
689.897	0.0158754
689.975	0.0159994
690.053	0.0160757
690.131	0.0160871
690.209	0.0160679
690.288	0.0159952
690.366	0.0160883
690.444	0.0161100
690.522	0.0160318
690.600	0.0160482
690.678	0.0161069
690.756	0.0159531
690.834	0.0159728
690.913	0.0159730
690.991	0.0158146
691.069	0.0159836
691.147	0.0160418
691.225	0.0158273
691.303	0.0157795
691.381	0.0160024
691.459	0.0161733
691.538	0.0160073
691.616	0.0160181
691.694	0.0161004
691.772	0.0160304
691.850	0.0159866
691.928	0.0160534
692.006	0.0159736
692.084	0.0158972
692.163	0.0158142
692.241	0.0156996
692.319	0.0156776
692.397	0.0155732
692.475	0.0155299
692.553	0.0154463
692.631	0.0153426
692.709	0.0150067
692.788	0.0150526
692.866	0.0148203
692.944	0.0147446
693.022	0.0144626
693.100	0.0144826
693.178	0.0142079
693.256	0.0139996
693.334	0.0139048
693.413	0.0139191
693.491	0.0137183
693.569	0.0136262
693.647	0.0136211
693.725	0.0134951
693.803	0.0132904
693.881	0.0134315
693.959	0.0134180
694.038	0.0132891
694.116	0.0134915
694.194	0.0134966
694.272	0.0136166
694.350	0.0137175
694.428	0.0137299
694.506	0.0136517
694.584	0.0139828
694.663	0.0141318
694.741	0.0142278
694.819	0.0144644
694.897	0.0146040
694.975	0.0148959
695.053	0.0150386
695.131	0.0153356
695.209	0.0156328
695.288	0.0160387
695.366	0.0164441
695.444	0.0166499
695.522	0.0169312
695.600	0.0172428
695.678	0.0176285
695.756	0.0178005
695.834	0.0178288
695.913	0.0180342
695.991	0.0183035
696.069	0.0182877
696.147	0.0184093
696.225	0.0182598
696.303	0.0183743
696.381	0.0183803
696.459	0.0180995
696.538	0.0180069
696.616	0.0179264
696.694	0.0177487
696.772	0.0174995
696.850	0.0172703
696.928	0.0172359
697.006	0.0168582
697.084	0.0166542
697.163	0.0162592
697.241	0.0160872
697.319	0.0159556
697.397	0.0157348
697.475	0.0154180
697.553	0.0151588
697.631	0.0148815
697.709	0.0147271
697.788	0.0142926
697.866	0.0140610
697.944	0.0140236
698.022	0.0137299
698.100	0.0132900
698.178	0.0134361
698.256	0.0131715
698.334	0.0130008
698.413	0.0128967
698.491	0.0130061
698.569	0.0129452
698.647	0.0129540
698.725	0.0128225
698.803	0.0127838
698.881	0.0128846
698.959	0.0129718
699.038	0.0128738
699.116	0.0130202
699.194	0.0131161
699.272	0.0131182
699.350	0.0132207
699.428	0.0133421
699.506	0.0134485
699.584	0.0134980
699.663	0.0136932
699.741	0.0139593
699.819	0.0141090
699.897	0.0143635
699.975	0.0147440
700.053	0.0151768
700.131	0.0153029
700.209	0.0155386
700.288	0.0158946
700.366	0.0161961
700.444	0.0165480
700.522	0.0166945
700.600	0.0169473
700.678	0.0172642
700.756	0.0172464
700.834	0.0175141
700.913	0.0177683
700.991	0.0178722
701.069	0.0179224
701.147	0.0180849
701.225	0.0180008
701.303	0.0181759
701.381	0.0180203
701.459	0.0179578
701.538	0.0178258
701.616	0.0178307
701.694	0.0174216
701.772	0.0171420
701.850	0.0168747
701.928	0.0165305
702.006	0.0162227
702.084	0.0158897
702.163	0.0156243
702.241	0.0153153
702.319	0.0150769
702.397	0.0147494
702.475	0.0145940
702.553	0.0142727
702.631	0.0141236
702.709	0.0139853
702.788	0.0137987
702.866	0.0138893
702.944	0.0137718
703.022	0.0137128
703.100	0.0137180
703.178	0.0137800
703.256	0.0139476
703.334	0.0139487
703.413	0.0141339
703.491	0.0141719
703.569	0.0142431
703.647	0.0143092
703.725	0.0144341
703.803	0.0144968
703.881	0.0147058
703.959	0.0147335
704.038	0.0147926
704.116	0.0148890
704.194	0.0147266
704.272	0.0147948
704.350	0.0149222
704.428	0.0149162
704.506	0.0149310
704.584	0.0148723
704.663	0.0148228
704.741	0.0147646
704.819	0.0148235
704.897	0.0147731
704.975	0.0147685
705.053	0.0147720
705.131	0.0149062
705.209	0.0150488
705.288	0.0150980
705.366	0.0152180
705.444	0.0154298
705.522	0.0154748
705.600	0.0156992
705.678	0.0158730
705.756	0.0159978
705.834	0.0161318
705.913	0.0161979
705.991	0.0163715
706.069	0.0165938
706.147	0.0167381
706.225	0.0167988
706.303	0.0166824
706.381	0.0168344
706.459	0.0168831
706.538	0.0169720
706.616	0.0169569
706.694	0.0167607
706.772	0.0169283
706.850	0.0168021
706.928	0.0165044
707.006	0.0164813
707.084	0.0162704
707.163	0.0162520
707.241	0.0159769
707.319	0.0158320
707.397	0.0157098
707.475	0.0155093
707.553	0.0149639
707.631	0.0148567
707.709	0.0145150
707.788	0.0145962
707.866	0.0142532
707.944	0.0140958
708.022	0.0141125
708.100	0.0139338
708.178	0.0139037
708.256	0.0138150
708.334	0.0139738
708.413	0.0138934
708.491	0.0138347
708.569	0.0141525
708.647	0.0141026
708.725	0.0140801
708.803	0.0143634
708.881	0.0144556
708.959	0.0146059
709.038	0.0147415
709.116	0.0149494
709.194	0.0151501
709.272	0.0153266
709.350	0.0154807
709.428	0.0157362
709.506	0.0159746
709.584	0.0159987
709.663	0.0161773
709.741	0.0163007
709.819	0.0162937
709.897	0.0163601
709.975	0.0163189
710.053	0.0162020
710.131	0.0162012
710.209	0.0161346
710.288	0.0160416
710.366	0.0158876
710.444	0.0156543
710.522	0.0156194
710.600	0.0154950
710.678	0.0152376
710.756	0.0149973
710.834	0.0149420
710.913	0.0148367
710.991	0.0147240
711.069	0.0146504
711.147	0.0147191
711.225	0.0148246
711.303	0.0146599
711.381	0.0148782
711.459	0.0147938
711.538	0.0149538
711.616	0.0149718
711.694	0.0151133
711.772	0.0152002
711.850	0.0153159
711.928	0.0153029
712.006	0.0153523
712.084	0.0155007
712.163	0.0155226
712.241	0.0157004
712.319	0.0156268
712.397	0.0156718
712.475	0.0158220
712.553	0.0159109
712.631	0.0158708
712.709	0.0157253
712.788	0.0156536
712.866	0.0157469
712.944	0.0157430
713.022	0.0157423
713.100	0.0156685
713.178	0.0155038
713.256	0.0155183
713.334	0.0154093
713.413	0.0154452
713.491	0.0154924
713.569	0.0152209
713.647	0.0153110
713.725	0.0152278
713.803	0.0152120
713.881	0.0149593
713.959	0.0151508
714.038	0.0151795
714.116	0.0149991
714.194	0.0151965
714.272	0.0153245
714.350	0.0153168
714.428	0.0151134
714.506	0.0152518
714.584	0.0151797
714.663	0.0151318
714.741	0.0149836
714.819	0.0150710
714.897	0.0151541
714.975	0.0150343
715.053	0.0149826
715.131	0.0149848
715.209	0.0148232
715.288	0.0149486
715.366	0.0147902
715.444	0.0147758
715.522	0.0147515
715.600	0.0147300
715.678	0.0147752
715.756	0.0146729
715.834	0.0145448
715.913	0.0146190
715.991	0.0145657
716.069	0.0147381
716.147	0.0146950
716.225	0.0147567
716.303	0.0146526
716.381	0.0147543
716.459	0.0147985
716.538	0.0149568
716.616	0.0150067
716.694	0.0150541
716.772	0.0152637
716.850	0.0155110
716.928	0.0154504
717.006	0.0157705
717.084	0.0159178
717.163	0.0159525
717.241	0.0163103
717.319	0.0164268
717.397	0.0165001
717.475	0.0166367
717.553	0.0167643
717.631	0.0167060
717.709	0.0168919
717.788	0.0167393
717.866	0.0167086
717.944	0.0169432
718.022	0.0166515
718.100	0.0165567
718.178	0.0162625
718.256	0.0162214
718.334	0.0159624
718.413	0.0157819
718.491	0.0155918
718.569	0.0154884
718.647	0.0153806
718.725	0.0152579
718.803	0.0151708
718.881	0.0149583
718.959	0.0149627
719.038	0.0148600
719.116	0.0148109
719.194	0.0147101
719.272	0.0145768
719.350	0.0145534
719.428	0.0145084
719.506	0.0145296
719.584	0.0144180
719.663	0.0143529
719.741	0.0145606
719.819	0.0145006
719.897	0.0143122
719.975	0.0143803
720.053	0.0144542
720.131	0.0145418
720.209	0.0146324
720.288	0.0145440
720.366	0.0146025
720.444	0.0146478
720.522	0.0145654
720.600	0.0144897
720.678	0.0146104
720.756	0.0146528
720.834	0.0146217
720.913	0.0145853
720.991	0.0148331
721.069	0.0149576
721.147	0.0149541
721.225	0.0150233
721.303	0.0151805
721.381	0.0152125
721.459	0.0152053
721.538	0.0153258
721.616	0.0154990
721.694	0.0155915
721.772	0.0157570
721.850	0.0158484
721.928	0.0156963
722.006	0.0158477
722.084	0.0160044
722.163	0.0159343
722.241	0.0158228
722.319	0.0159421
722.397	0.0159606
722.475	0.0159227
722.553	0.0158378
722.631	0.0158610
722.709	0.0155901
722.788	0.0157923
722.866	0.0158219
722.944	0.0157159
723.022	0.0157050
723.100	0.0158090
723.178	0.0159990
723.256	0.0158972
723.334	0.0159042
723.413	0.0160572
723.491	0.0161868
723.569	0.0161823
723.647	0.0161478
723.725	0.0162013
723.803	0.0163135
723.881	0.0164240
723.959	0.0162884
724.038	0.0161259
724.116	0.0163240
724.194	0.0162124
724.272	0.0160513
724.350	0.0160693
724.428	0.0159579
724.506	0.0157961
724.584	0.0159783
724.663	0.0158406
724.741	0.0157666
724.819	0.0156211
724.897	0.0155369
724.975	0.0155164
725.053	0.0155537
725.131	0.0154633
725.209	0.0152811
725.288	0.0151887
725.366	0.0150488
725.444	0.0150201
725.522	0.0149165
725.600	0.0148827
725.678	0.0148797
725.756	0.0146316
725.834	0.0146008
725.913	0.0145757
725.991	0.0144741
726.069	0.0144420
726.147	0.0144946
726.225	0.0143591
726.303	0.0142636
726.381	0.0143611
726.459	0.0143362
726.538	0.0143482
726.616	0.0144402
726.694	0.0143644
726.772	0.0143634
726.850	0.0146801
726.928	0.0146697
727.006	0.0147603
727.084	0.0147517
727.163	0.0148615
727.241	0.0148347
727.319	0.0150935
727.397	0.0151789
727.475	0.0153210
727.553	0.0156877
727.631	0.0157999
727.709	0.0159692
727.788	0.0161786
727.866	0.0162666
727.944	0.0163593
728.022	0.0164375
728.100	0.0164834
728.178	0.0164674
728.256	0.0166902
728.334	0.0165192
728.413	0.0164613
728.491	0.0164375
728.569	0.0163218
728.647	0.0160876
728.725	0.0159946
728.803	0.0160115
728.881	0.0157471
728.959	0.0154911
729.038	0.0154942
729.116	0.0154047
729.194	0.0152428
729.272	0.0150697
729.350	0.0150177
729.428	0.0149306
729.506	0.0148456
729.584	0.0147582
729.663	0.0147948
729.741	0.0147401
729.819	0.0147790
729.897	0.0147626
729.975	0.0148762
730.053	0.0150603
730.131	0.0150204
730.209	0.0150576
730.288	0.0151839
730.366	0.0151955
730.444	0.0153901
730.522	0.0154515
730.600	0.0153362
730.678	0.0152771
730.756	0.0152666
730.834	0.0152096
730.913	0.0154568
730.991	0.0154649
731.069	0.0151700
731.147	0.0150827
731.225	0.0150016
731.303	0.0152065
731.381	0.0150874
731.459	0.0150522
731.538	0.0149715
731.616	0.0148071
731.694	0.0147653
731.772	0.0147723
731.850	0.0147543
731.928	0.0146589
732.006	0.0147027
732.084	0.0146365
732.163	0.0146693
732.241	0.0146159
732.319	0.0147331
732.397	0.0147672
732.475	0.0147660
732.553	0.0147778
732.631	0.0148535
732.709	0.0149454
732.788	0.0150201
732.866	0.0152738
732.944	0.0152296
733.022	0.0154009
733.100	0.0155619
733.178	0.0156769
733.256	0.0157669
733.334	0.0158570
733.413	0.0160953
733.491	0.0160925
733.569	0.0162256
733.647	0.0162307
733.725	0.0163484
733.803	0.0162376
733.881	0.0162463
733.959	0.0163528
734.038	0.0162420
734.116	0.0163739
734.194	0.0162793
734.272	0.0161900
734.350	0.0160830
734.428	0.0159664
734.506	0.0158855
734.584	0.0157923
734.663	0.0156828
734.741	0.0154003
734.819	0.0153551
734.897	0.0151381
734.975	0.0148545
735.053	0.0147495
735.131	0.0146391
735.209	0.0145813
735.288	0.0145003
735.366	0.0144746
735.444	0.0143973
735.522	0.0143932
735.600	0.0142914
735.678	0.0143609
735.756	0.0144241
735.834	0.0143378
735.913	0.0144126
735.991	0.0146319
736.069	0.0147559
736.147	0.0147961
736.225	0.0147433
736.303	0.0148544
736.381	0.0148913
736.459	0.0150504
736.538	0.0150543
736.616	0.0151282
736.694	0.0152841
736.772	0.0153461
736.850	0.0153101
736.928	0.0154125
737.006	0.0154987
737.084	0.0156067
737.163	0.0156897
737.241	0.0158133
737.319	0.0158336
737.397	0.0159592
737.475	0.0159963
737.553	0.0159764
737.631	0.0160667
737.709	0.0161171
737.788	0.0161806
737.866	0.0162328
737.944	0.0161090
738.022	0.0159963
738.100	0.0160304
738.178	0.0160410
738.256	0.0158538
738.334	0.0158369
738.413	0.0157777
738.491	0.0155132
738.569	0.0154608
738.647	0.0153741
738.725	0.0152493
738.803	0.0150444
738.881	0.0150063
738.959	0.0150551
739.038	0.0148473
739.116	0.0148142
739.194	0.0147636
739.272	0.0146993
739.350	0.0145528
739.428	0.0146030
739.506	0.0144800
739.584	0.0145481
739.663	0.0144955
739.741	0.0145695
739.819	0.0147147
739.897	0.0146224
739.975	0.0145856
740.053	0.0146883
740.131	0.0147357
740.209	0.0147812
740.288	0.0149287
740.366	0.0148133
740.444	0.0149330
740.522	0.0149615
740.600	0.0147656
740.678	0.0148975
740.756	0.0150051
740.834	0.0150297
740.913	0.0150417
740.991	0.0148215
741.069	0.0149194
741.147	0.0150544
741.225	0.0151772
741.303	0.0151459
741.381	0.0153309
741.459	0.0154051
741.538	0.0153653
741.616	0.0155811
741.694	0.0157591
741.772	0.0158364
741.850	0.0159441
741.928	0.0160168
742.006	0.0160968
742.084	0.0161933
742.163	0.0160456
742.241	0.0161171
742.319	0.0161713
742.397	0.0160342
742.475	0.0162627
742.553	0.0161190
742.631	0.0161023
742.709	0.0160361
742.788	0.0160056
742.866	0.0157279
742.944	0.0157932
743.022	0.0157156
743.100	0.0155534
743.178	0.0152792
743.256	0.0153252
743.334	0.0151286
743.413	0.0151402
743.491	0.0148925
743.569	0.0147701
743.647	0.0146857
743.725	0.0145308
743.803	0.0144773
743.881	0.0145885
743.959	0.0143284
744.038	0.0142640
744.116	0.0143179
744.194	0.0143066
744.272	0.0145054
744.350	0.0142823
744.428	0.0143877
744.506	0.0145425
744.584	0.0145229
744.663	0.0146061
744.741	0.0146420
744.819	0.0146731
744.897	0.0148055
744.975	0.0147565
745.053	0.0148377
745.131	0.0149277
745.209	0.0149300
745.288	0.0150592
745.366	0.0151003
745.444	0.0151295
745.522	0.0152634
745.600	0.0153969
745.678	0.0154755
745.756	0.0154669
745.834	0.0154541
745.913	0.0154544
745.991	0.0156585
746.069	0.0158471
746.147	0.0159297
746.225	0.0159567
746.303	0.0159971
746.381	0.0160763
746.459	0.0160487
746.538	0.0161851
746.616	0.0163180
746.694	0.0163535
746.772	0.0162621
746.850	0.0162666
746.928	0.0163175
747.006	0.0165460
747.084	0.0164326
747.163	0.0164143
747.241	0.0165025
747.319	0.0163900
747.397	0.0163414
747.475	0.0163531
747.553	0.0163133
747.631	0.0161086
747.709	0.0160170
747.788	0.0160329
747.866	0.0159526
747.944	0.0156694
748.022	0.0154280
748.100	0.0152908
748.178	0.0152547
748.256	0.0150528
748.334	0.0148694
748.413	0.0146821
748.491	0.0144733
748.569	0.0143140
748.647	0.0143082
748.725	0.0141731
748.803	0.0141594
748.881	0.0140616
748.959	0.0141712
749.038	0.0142985
749.116	0.0143462
749.194	0.0144150
749.272	0.0144897
749.350	0.0147491
749.428	0.0148888
749.506	0.0150572
749.584	0.0154148
749.663	0.0154762
749.741	0.0156379
749.819	0.0157433
749.897	0.0158621
749.975	0.0159005
750.053	0.0160743
750.131	0.0160905
750.209	0.0160471
750.288	0.0161259
750.366	0.0160799
750.444	0.0159133
750.522	0.0159414
750.600	0.0159490
750.678	0.0156761
750.756	0.0156743
750.834	0.0155902
750.913	0.0155019
750.991	0.0152956
751.069	0.0151986
751.147	0.0150127
751.225	0.0149134
751.303	0.0147961
751.381	0.0147009
751.459	0.0144998
751.538	0.0144843
751.616	0.0144389
751.694	0.0144218
751.772	0.0143503
751.850	0.0142590
751.928	0.0143829
752.006	0.0143831
752.084	0.0144659
752.163	0.0144854
752.241	0.0147382
752.319	0.0148610
752.397	0.0148953
752.475	0.0149348
752.553	0.0152114
752.631	0.0153107
752.709	0.0154461
752.788	0.0155952
752.866	0.0157321
752.944	0.0158595
753.022	0.0159907
753.100	0.0160264
753.178	0.0161516
753.256	0.0161430
753.334	0.0162925
753.413	0.0162495
753.491	0.0162835
753.569	0.0164249
753.647	0.0162624
753.725	0.0160772
753.803	0.0162400
753.881	0.0163532
753.959	0.0161178
754.038	0.0160234
754.116	0.0159933
754.194	0.0157540
754.272	0.0156849
754.350	0.0155289
754.428	0.0155936
754.506	0.0154881
754.584	0.0153406
754.663	0.0152918
754.741	0.0153291
754.819	0.0152853
754.897	0.0153040
754.975	0.0152915
755.053	0.0154925
755.131	0.0153507
755.209	0.0154121
755.288	0.0152838
755.366	0.0152937
755.444	0.0153677
755.522	0.0151994
755.600	0.0151274
755.678	0.0151938
755.756	0.0151870
755.834	0.0151217
755.913	0.0148898
755.991	0.0147826
756.069	0.0148118
756.147	0.0147418
756.225	0.0145053
756.303	0.0145955
756.381	0.0146401
756.459	0.0145654
756.538	0.0145514
756.616	0.0144576
756.694	0.0144968
756.772	0.0145206
756.850	0.0145205
756.928	0.0145279
757.006	0.0146674
757.084	0.0147578
757.163	0.0147344
757.241	0.0149888
757.319	0.0151601
757.397	0.0152879
757.475	0.0153746
757.553	0.0153500
757.631	0.0155347
757.709	0.0156185
757.788	0.0157657
757.866	0.0159313
757.944	0.0158370
758.022	0.0159166
758.100	0.0162119
758.178	0.0161685
758.256	0.0162078
758.334	0.0162492
758.413	0.0161051
758.491	0.0161133
758.569	0.0160662
758.647	0.0159623
758.725	0.0159943
758.803	0.0159283
758.881	0.0157482
758.959	0.0154781
759.038	0.0154002
759.116	0.0153606
759.194	0.0153075
759.272	0.0150359
759.350	0.0150745
759.428	0.0149822
759.506	0.0148034
759.584	0.0148184
759.663	0.0148529
759.741	0.0147509
759.819	0.0147845
759.897	0.0147900
759.975	0.0148293
760.053	0.0148675
760.131	0.0150539
760.209	0.0149733
760.288	0.0150581
760.366	0.0152209
760.444	0.0151691
760.522	0.0151271
760.600	0.0151965
760.678	0.0152839
760.756	0.0154570
760.834	0.0155203
760.913	0.0154750
760.991	0.0155505
761.069	0.0155600
761.147	0.0155209
761.225	0.0155084
761.303	0.0153692
761.381	0.0154848
761.459	0.0154773
761.538	0.0152857
761.616	0.0152737
761.694	0.0152246
761.772	0.0152021
761.850	0.0152695
761.928	0.0151378
762.006	0.0151209
762.084	0.0151262
762.163	0.0150887
762.241	0.0150494
762.319	0.0150864
762.397	0.0150901
762.475	0.0150703
762.553	0.0150496
762.631	0.0151381
762.709	0.0150526
762.788	0.0150740
762.866	0.0150132
762.944	0.0151012
763.022	0.0151066
763.100	0.0149907
763.178	0.0150601
763.256	0.0150973
763.334	0.0151618
763.413	0.0152159
763.491	0.0153703
763.569	0.0152593
763.647	0.0152523
763.725	0.0152903
763.803	0.0154250
763.881	0.0154814
763.959	0.0153739
764.038	0.0156056
764.116	0.0155157
764.194	0.0154712
764.272	0.0152596
764.350	0.0152603
764.428	0.0153662
764.506	0.0153433
764.584	0.0151794
764.663	0.0152840
764.741	0.0153213
764.819	0.0151900
764.897	0.0151896
764.975	0.0152039
765.053	0.0152007
765.131	0.0153685
765.209	0.0153069
765.288	0.0152498
765.366	0.0153275
765.444	0.0152808
765.522	0.0154218
765.600	0.0154099
765.678	0.0153635
765.756	0.0155151
765.834	0.0154471
765.913	0.0153426
765.991	0.0153014
766.069	0.0153340
766.147	0.0151821
766.225	0.0151418
766.303	0.0150756
766.381	0.0150903
766.459	0.0150687
766.538	0.0151913
766.616	0.0151780
766.694	0.0150916
766.772	0.0151373
766.850	0.0150607
766.928	0.0152117
767.006	0.0153773
767.084	0.0151790
767.163	0.0153259
767.241	0.0152601
767.319	0.0154168
767.397	0.0153934
767.475	0.0152585
767.553	0.0154605
767.631	0.0153961
767.709	0.0154926
767.788	0.0154596
767.866	0.0154871
767.944	0.0155853
768.022	0.0153746
768.100	0.0155852
768.178	0.0156178
768.256	0.0155526
768.334	0.0154784
768.413	0.0156453
768.491	0.0156205
768.569	0.0155891
768.647	0.0155524
768.725	0.0156296
768.803	0.0155904
768.881	0.0155946
768.959	0.0155797
769.038	0.0155624
769.116	0.0154827
769.194	0.0154041
769.272	0.0154774
769.350	0.0155236
769.428	0.0154695
769.506	0.0155617
769.584	0.0155627
769.663	0.0153358
769.741	0.0155551
769.819	0.0154417
769.897	0.0153520
769.975	0.0154451
770.053	0.0155199
770.131	0.0152198
770.209	0.0152011
770.288	0.0152269
770.366	0.0151041
770.444	0.0149870
770.522	0.0149066
770.600	0.0150340
770.678	0.0148021
770.756	0.0147472
770.834	0.0148161
770.913	0.0146911
770.991	0.0147741
771.069	0.0148672
771.147	0.0147856
771.225	0.0148621
771.303	0.0148387
771.381	0.0148568
771.459	0.0149469
771.538	0.0150706
771.616	0.0150168
771.694	0.0150656
771.772	0.0150591
771.850	0.0152521
771.928	0.0152833
772.006	0.0151924
772.084	0.0151983
772.163	0.0151329
772.241	0.0151313
772.319	0.0153320
772.397	0.0152187
772.475	0.0151946
772.553	0.0150230
772.631	0.0152111
772.709	0.0152099
772.788	0.0151551
772.866	0.0153608
772.944	0.0154034
773.022	0.0151572
773.100	0.0154327
773.178	0.0154412
773.256	0.0151715
773.334	0.0152280
773.413	0.0154392
773.491	0.0153070
773.569	0.0154348
773.647	0.0153910
773.725	0.0154834
773.803	0.0156039
773.881	0.0154422
773.959	0.0155591
774.038	0.0155079
774.116	0.0154354
774.194	0.0154878
774.272	0.0155521
774.350	0.0154996
774.428	0.0153910
774.506	0.0154121
774.584	0.0152711
774.663	0.0153217
774.741	0.0152329
774.819	0.0150569
774.897	0.0150548
774.975	0.0151538
775.053	0.0151445
775.131	0.0151854
775.209	0.0151314
775.288	0.0151865
775.366	0.0151447
775.444	0.0154032
775.522	0.0154300
775.600	0.0153768
775.678	0.0156085
775.756	0.0156649
775.834	0.0157615
775.913	0.0157941
775.991	0.0157034
776.069	0.0158640
776.147	0.0157774
776.225	0.0157281
776.303	0.0158002
776.381	0.0157936
776.459	0.0157760
776.538	0.0157550
776.616	0.0157926
776.694	0.0158068
776.772	0.0157411
776.850	0.0156842
776.928	0.0155921
777.006	0.0154904
777.084	0.0156125
777.163	0.0155232
777.241	0.0154846
777.319	0.0153876
777.397	0.0154333
777.475	0.0153533
777.553	0.0152744
777.631	0.0150922
777.709	0.0150305
777.788	0.0151813
777.866	0.0150268
777.944	0.0149400
778.022	0.0150080
778.100	0.0149180
778.178	0.0149851
778.256	0.0149334
778.334	0.0150382
778.413	0.0151041
778.491	0.0149114
778.569	0.0152149
778.647	0.0152814
778.725	0.0152768
778.803	0.0153825
778.881	0.0155607
778.959	0.0156717
779.038	0.0156676
779.116	0.0157767
779.194	0.0157706
779.272	0.0159790
779.350	0.0158396
779.428	0.0157945
779.506	0.0159441
779.584	0.0158750
779.663	0.0159287
779.741	0.0160416
779.819	0.0159219
779.897	0.0156811
779.975	0.0157520
780.053	0.0156763
780.131	0.0155070
780.209	0.0154834
780.288	0.0153709
780.366	0.0151940
780.444	0.0153184
780.522	0.0150587
780.600	0.0150810
780.678	0.0149852
780.756	0.0149775
780.834	0.0149131
780.913	0.0148040
780.991	0.0147313
781.069	0.0147645
781.147	0.0147005
781.225	0.0148856
781.303	0.0148595
781.381	0.0148705
781.459	0.0148457
781.538	0.0149524
781.616	0.0149489
781.694	0.0150581
781.772	0.0149947
781.850	0.0150409
781.928	0.0150581
782.006	0.0150505
782.084	0.0150574
782.163	0.0151177
782.241	0.0151670
782.319	0.0150668
782.397	0.0151047
782.475	0.0152136
782.553	0.0152428
782.631	0.0151392
782.709	0.0152914
782.788	0.0151923
782.866	0.0152431
782.944	0.0152921
783.022	0.0154115
783.100	0.0154479
783.178	0.0154330
783.256	0.0152370
783.334	0.0153341
783.413	0.0152363
783.491	0.0153192
783.569	0.0152546
783.647	0.0151258
783.725	0.0151228
783.803	0.0151204
783.881	0.0151186
783.959	0.0149854
784.038	0.0151097
784.116	0.0150533
784.194	0.0151043
784.272	0.0150034
784.350	0.0150047
784.428	0.0151226
784.506	0.0151143
784.584	0.0152068
784.663	0.0152458
784.741	0.0151614
784.819	0.0154148
784.897	0.0153932
784.975	0.0154581
785.053	0.0154523
785.131	0.0155222
785.209	0.0155243
785.288	0.0155597
785.366	0.0154935
785.444	0.0156108
785.522	0.0156596
785.600	0.0158306
785.678	0.0158164
785.756	0.0157178
785.834	0.0158492
785.913	0.0159512
785.991	0.0160260
786.069	0.0159606
786.147	0.0160348
786.225	0.0158701
786.303	0.0159614
786.381	0.0160125
786.459	0.0158203
786.538	0.0157936
786.616	0.0157302
786.694	0.0156415
786.772	0.0157323
786.850	0.0156235
786.928	0.0155347
787.006	0.0155461
787.084	0.0154011
787.163	0.0154150
787.241	0.0152898
787.319	0.0152980
787.397	0.0152493
787.475	0.0150486
787.553	0.0150159
787.631	0.0151327
787.709	0.0149414
787.788	0.0149378
787.866	0.0151447
787.944	0.0149892
788.022	0.0149780
788.100	0.0150008
788.178	0.0151779
788.256	0.0152205
788.334	0.0152139
788.413	0.0152076
788.491	0.0152193
788.569	0.0152937
788.647	0.0153716
788.725	0.0152410
788.803	0.0152472
788.881	0.0151900
788.959	0.0149964
789.038	0.0152526
789.116	0.0152094
789.194	0.0152049
789.272	0.0150783
789.350	0.0148875
789.428	0.0149953
789.506	0.0149825
789.584	0.0148405
789.663	0.0149395
789.741	0.0149023
789.819	0.0149952
789.897	0.0150636
789.975	0.0148592
790.053	0.0149237
790.131	0.0149334
790.209	0.0150826
790.288	0.0152103
790.366	0.0150780
790.444	0.0150655
790.522	0.0150433
790.600	0.0152126
790.678	0.0152391
790.756	0.0153677
790.834	0.0153535
790.913	0.0152335
790.991	0.0153931
791.069	0.0155289
791.147	0.0154249
791.225	0.0154641
791.303	0.0153993
791.381	0.0155074
791.459	0.0155048
791.538	0.0154952
791.616	0.0155917
791.694	0.0155950
791.772	0.0156705
791.850	0.0154343
791.928	0.0156710
792.006	0.0155862
792.084	0.0155636
792.163	0.0155618
792.241	0.0156001
792.319	0.0155982
792.397	0.0154997
792.475	0.0155063
792.553	0.0156052
792.631	0.0154977
792.709	0.0156139
792.788	0.0155658
792.866	0.0155006
792.944	0.0155412
793.022	0.0156700
793.100	0.0155185
793.178	0.0155952
793.256	0.0155358
793.334	0.0153168
793.413	0.0154613
793.491	0.0154742
793.569	0.0154047
793.647	0.0153741
793.725	0.0153657
793.803	0.0153091
793.881	0.0152589
793.959	0.0153755
794.038	0.0152410
794.116	0.0153555
794.194	0.0151238
794.272	0.0152843
794.350	0.0152490
794.428	0.0152133
794.506	0.0151199
794.584	0.0150880
794.663	0.0151965
794.741	0.0151145
794.819	0.0152500
794.897	0.0150584
794.975	0.0151743
795.053	0.0153102
795.131	0.0151764
795.209	0.0151626
795.288	0.0150399
795.366	0.0151112
795.444	0.0152517
795.522	0.0153004
795.600	0.0152738
795.678	0.0152690
795.756	0.0151185
795.834	0.0152126
795.913	0.0151558
795.991	0.0151521
796.069	0.0153638
796.147	0.0152790
796.225	0.0152132
796.303	0.0151405
796.381	0.0152439
796.459	0.0153220
796.538	0.0153148
796.616	0.0152784
796.694	0.0153991
796.772	0.0154296
796.850	0.0154385
796.928	0.0154546
797.006	0.0155463
797.084	0.0155653
797.163	0.0157146
797.241	0.0157706
797.319	0.0157195
797.397	0.0157801
797.475	0.0157840
797.553	0.0159394
797.631	0.0159573
797.709	0.0158568
797.788	0.0158366
797.866	0.0158014
797.944	0.0159417
798.022	0.0156907
798.100	0.0157507
798.178	0.0157565
798.256	0.0156174
798.334	0.0156680
798.413	0.0155966
798.491	0.0155291
798.569	0.0154993
798.647	0.0154599
798.725	0.0152746
798.803	0.0151728
798.881	0.0150670
798.959	0.0152792
799.038	0.0150083
799.116	0.0150014
799.194	0.0150307
799.272	0.0148682
799.350	0.0149502
799.428	0.0148521
799.506	0.0149671
799.584	0.0148775
799.663	0.0148955
799.741	0.0149423
799.819	0.0149446
799.897	0.0149837
799.975	0.0148289
800.053	0.0150887
800.131	0.0151031
800.209	0.0149075
800.288	0.0149523
800.366	0.0150496
800.444	0.0151424
800.522	0.0150300
800.600	0.0150254
800.678	0.0150887
800.756	0.0150235
800.834	0.0152319
800.913	0.0151973
800.991	0.0152882
801.069	0.0152450
801.147	0.0152087
801.225	0.0150534
801.303	0.0151957
801.381	0.0153582
801.459	0.0151321
801.538	0.0152264
801.616	0.0151860
801.694	0.0152438
801.772	0.0151439
801.850	0.0152612
801.928	0.0151273
802.006	0.0151996
802.084	0.0152937
802.163	0.0152972
802.241	0.0152267
802.319	0.0154390
802.397	0.0153377
802.475	0.0155540
802.553	0.0155197
802.631	0.0155844
802.709	0.0155424
802.788	0.0157269
802.866	0.0155183
802.944	0.0155065
803.022	0.0157204
803.100	0.0158212
803.178	0.0157190
803.256	0.0156335
803.334	0.0158486
803.413	0.0156827
803.491	0.0156493
803.569	0.0157360
803.647	0.0157703
803.725	0.0156402
803.803	0.0157009
803.881	0.0155710
803.959	0.0154717
804.038	0.0156152
804.116	0.0154160
804.194	0.0154468
804.272	0.0154203
804.350	0.0152789
804.428	0.0152562
804.506	0.0154050
804.584	0.0151246
804.663	0.0150699
804.741	0.0151778
804.819	0.0151362
804.897	0.0150272
804.975	0.0151005
805.053	0.0150778
805.131	0.0151340
805.209	0.0151400
805.288	0.0151263
805.366	0.0152672
805.444	0.0152815
805.522	0.0153078
805.600	0.0153131
805.678	0.0153112
805.756	0.0153573
805.834	0.0154299
805.913	0.0153322
805.991	0.0152618
806.069	0.0154336
806.147	0.0155369
806.225	0.0154645
806.303	0.0155531
806.381	0.0153621
806.459	0.0153822
806.538	0.0154992
806.616	0.0154116
806.694	0.0153956
806.772	0.0154005
806.850	0.0155115
806.928	0.0154072
807.006	0.0153400
807.084	0.0153058
807.163	0.0154501
807.241	0.0154341
807.319	0.0154605
807.397	0.0153636
807.475	0.0154393
807.553	0.0153152
807.631	0.0152195
807.709	0.0154017
807.788	0.0152718
807.866	0.0152933
807.944	0.0153230
808.022	0.0152569
808.100	0.0151468
808.178	0.0151888
808.256	0.0150786
808.334	0.0151575
808.413	0.0151962
808.491	0.0151588
808.569	0.0150199
808.647	0.0152201
808.725	0.0151727
808.803	0.0151689
808.881	0.0152600
808.959	0.0151941
809.038	0.0153603
809.116	0.0153180
809.194	0.0153187
809.272	0.0154179
809.350	0.0152966
809.428	0.0153806
809.506	0.0154541
809.584	0.0154729
809.663	0.0154235
809.741	0.0154933
809.819	0.0153851
809.897	0.0154816
809.975	0.0156111
810.053	0.0153958
810.131	0.0154125
810.209	0.0153954
810.288	0.0154704
810.366	0.0154753
810.444	0.0153204
810.522	0.0153460
810.600	0.0152948
810.678	0.0153616
810.756	0.0152313
810.834	0.0153802
810.913	0.0152261
810.991	0.0151665
811.069	0.0151157
811.147	0.0149673
811.225	0.0152183
811.303	0.0149919
811.381	0.0150302
811.459	0.0151739
811.538	0.0149895
811.616	0.0149868
811.694	0.0150420
811.772	0.0148730
811.850	0.0150437
811.928	0.0150398
812.006	0.0149789
812.084	0.0150128
812.163	0.0148705
812.241	0.0150699
812.319	0.0152001
812.397	0.0150993
812.475	0.0150220
812.553	0.0150342
812.631	0.0150562
812.709	0.0151023
812.788	0.0151501
812.866	0.0151277
812.944	0.0152125
813.022	0.0154014
813.100	0.0153401
813.178	0.0153928
813.256	0.0153368
813.334	0.0154156
813.413	0.0154920
813.491	0.0154993
813.569	0.0154702
813.647	0.0154247
813.725	0.0155476
813.803	0.0155447
813.881	0.0153288
813.959	0.0154952
814.038	0.0155141
814.116	0.0155344
814.194	0.0155953
814.272	0.0155311
814.350	0.0155116
814.428	0.0156163
814.506	0.0156660
814.584	0.0156134
814.663	0.0155308
814.741	0.0154099
814.819	0.0155454
814.897	0.0157243
814.975	0.0154214
815.053	0.0156140
815.131	0.0156673
815.209	0.0155800
815.288	0.0154903
815.366	0.0155041
815.444	0.0154348
815.522	0.0154752
815.600	0.0154266
815.678	0.0153057
815.756	0.0153523
815.834	0.0153853
815.913	0.0152847
815.991	0.0153822
816.069	0.0152339
816.147	0.0152201
816.225	0.0152182
816.303	0.0152020
816.381	0.0150488
816.459	0.0151820
816.538	0.0151719
816.616	0.0150545
816.694	0.0151935
816.772	0.0149586
816.850	0.0149461
816.928	0.0150414
817.006	0.0150706
817.084	0.0148939
817.163	0.0149353
817.241	0.0149545
817.319	0.0150484
817.397	0.0149144
817.475	0.0149483
817.553	0.0150373
817.631	0.0148473
817.709	0.0150764
817.788	0.0151192
817.866	0.0151365
817.944	0.0149521
818.022	0.0150672
818.100	0.0152424
818.178	0.0151896
818.256	0.0154543
818.334	0.0154024
818.413	0.0153206
818.491	0.0152908
818.569	0.0152382
818.647	0.0154704
818.725	0.0153555
818.803	0.0153069
818.881	0.0153851
818.959	0.0154490
819.038	0.0154172
819.116	0.0153251
819.194	0.0153665
819.272	0.0154784
819.350	0.0154118
819.428	0.0153156
819.506	0.0155638
819.584	0.0155347
819.663	0.0153972
819.741	0.0155571
819.819	0.0155537
819.897	0.0154588
819.975	0.0155282
820.053	0.0154227
820.131	0.0154568
820.209	0.0153197
820.288	0.0154065
820.366	0.0154433
820.444	0.0153943
820.522	0.0155251
820.600	0.0154587
820.678	0.0153512
820.756	0.0153769
820.834	0.0154572
820.913	0.0153792
820.991	0.0154907
821.069	0.0153477
821.147	0.0153601
821.225	0.0153484
821.303	0.0154849
821.381	0.0154371
821.459	0.0154838
821.538	0.0152274
821.616	0.0153590
821.694	0.0154021
821.772	0.0154584
821.850	0.0153484
821.928	0.0154566
822.006	0.0153747
822.084	0.0153909
822.163	0.0153127
822.241	0.0153696
822.319	0.0153666
822.397	0.0153992
822.475	0.0153880
822.553	0.0154034
822.631	0.0153809
822.709	0.0153248
822.788	0.0152882
822.866	0.0153997
822.944	0.0153084
823.022	0.0153561
823.100	0.0152447
823.178	0.0153748
823.256	0.0152594
823.334	0.0152945
823.413	0.0152065
823.491	0.0152402
823.569	0.0152174
823.647	0.0153065
823.725	0.0152171
823.803	0.0154618
823.881	0.0153364
823.959	0.0152425
824.038	0.0152213
824.116	0.0154335
824.194	0.0152510
824.272	0.0152625
824.350	0.0154005
824.428	0.0152642
824.506	0.0153996
824.584	0.0153225
824.663	0.0153122
824.741	0.0152958
824.819	0.0154344
824.897	0.0153071
824.975	0.0154807
825.053	0.0154490
825.131	0.0153502
825.209	0.0152618
825.288	0.0153812
825.366	0.0153593
825.444	0.0152570
825.522	0.0152882
825.600	0.0153757
825.678	0.0153635
825.756	0.0151393
825.834	0.0152820
825.913	0.0153149
825.991	0.0152765
826.069	0.0153242
826.147	0.0151697
826.225	0.0152103
826.303	0.0152318
826.381	0.0152359
826.459	0.0151183
826.538	0.0152049
826.616	0.0151314
826.694	0.0151404
826.772	0.0152267
826.850	0.0152702
826.928	0.0152430
827.006	0.0153283
827.084	0.0152807
827.163	0.0153124
827.241	0.0152703
827.319	0.0151962
827.397	0.0153689
827.475	0.0152985
827.553	0.0153222
827.631	0.0152958
827.709	0.0153521
827.788	0.0153616
827.866	0.0153590
827.944	0.0152999
828.022	0.0152798
828.100	0.0153763
828.178	0.0154109
828.256	0.0154146
828.334	0.0154337
828.413	0.0154892
828.491	0.0154210
828.569	0.0154936
828.647	0.0155347
828.725	0.0154329
828.803	0.0154087
828.881	0.0155208
828.959	0.0154856
829.038	0.0154566
829.116	0.0154356
829.194	0.0154861
829.272	0.0154335
829.350	0.0154676
829.428	0.0153754
829.506	0.0153592
829.584	0.0152763
829.663	0.0154317
829.741	0.0154330
829.819	0.0153543
829.897	0.0152409
829.975	0.0152697
830.053	0.0153240
830.131	0.0153244
830.209	0.0153182
830.288	0.0153613
830.366	0.0152349
830.444	0.0152824
830.522	0.0153141
830.600	0.0153664
830.678	0.0152480
830.756	0.0152919
830.834	0.0152978
830.913	0.0153757
830.991	0.0153805
831.069	0.0153336
831.147	0.0152735
831.225	0.0152477
831.303	0.0153104
831.381	0.0153324
831.459	0.0152185
831.538	0.0151807
831.616	0.0152180
831.694	0.0152226
831.772	0.0153502
831.850	0.0151720
831.928	0.0152447
832.006	0.0152906
832.084	0.0151853
832.163	0.0151543
832.241	0.0150764
832.319	0.0150321
832.397	0.0152436
832.475	0.0151600
832.553	0.0150950
832.631	0.0152000
832.709	0.0152116
832.788	0.0153144
832.866	0.0152078
832.944	0.0151559
833.022	0.0152443
833.100	0.0151159
833.178	0.0152365
833.256	0.0153166
833.334	0.0152983
833.413	0.0152563
833.491	0.0153819
833.569	0.0153172
833.647	0.0154536
833.725	0.0153647
833.803	0.0153339
833.881	0.0155732
833.959	0.0156483
834.038	0.0156136
834.116	0.0156685
834.194	0.0155176
834.272	0.0155608
834.350	0.0155191
834.428	0.0155878
834.506	0.0156367
834.584	0.0156519
834.663	0.0155768
834.741	0.0154877
834.819	0.0154762
834.897	0.0154991
834.975	0.0155145
835.053	0.0155901
835.131	0.0154867
835.209	0.0154481
835.288	0.0152314
835.366	0.0153976
835.444	0.0153294
835.522	0.0153052
835.600	0.0151638
835.678	0.0152728
835.756	0.0151882
835.834	0.0151665
835.913	0.0152554
835.991	0.0152610
836.069	0.0152132
836.147	0.0152146
836.225	0.0153855
836.303	0.0153276
836.381	0.0151255
836.459	0.0152570
836.538	0.0152287
836.616	0.0152805
836.694	0.0153812
836.772	0.0151591
836.850	0.0151801
836.928	0.0152550
837.006	0.0154313
837.084	0.0154254
837.163	0.0152917
837.241	0.0154531
837.319	0.0152788
837.397	0.0153532
837.475	0.0152340
837.553	0.0153349
837.631	0.0154395
837.709	0.0153137
837.788	0.0153137
837.866	0.0153771
837.944	0.0153832
838.022	0.0153796
838.100	0.0153070
838.178	0.0153966
838.256	0.0154496
838.334	0.0152891
838.413	0.0153825
838.491	0.0154196
838.569	0.0153706
838.647	0.0154551
838.725	0.0154083
838.803	0.0154016
838.881	0.0156076
838.959	0.0154258
839.038	0.0153809
839.116	0.0154059
839.194	0.0154724
839.272	0.0153848
839.350	0.0154340
839.428	0.0153050
839.506	0.0153446
839.584	0.0151566
839.663	0.0153056
839.741	0.0152462
839.819	0.0152230
839.897	0.0152588
839.975	0.0150690
840.053	0.0151282
840.131	0.0152069
840.209	0.0151054
840.288	0.0151675
840.366	0.0150993
840.444	0.0148900
840.522	0.0149939
840.600	0.0150772
840.678	0.0150187
840.756	0.0150708
840.834	0.0150890
840.913	0.0150735
840.991	0.0150626
841.069	0.0150368
841.147	0.0150409
841.225	0.0149386
841.303	0.0151578
841.381	0.0151050
841.459	0.0151353
841.538	0.0150180
841.616	0.0151498
841.694	0.0150867
841.772	0.0151532
841.850	0.0151938
841.928	0.0151212
842.006	0.0150380
842.084	0.0152357
842.163	0.0150980
842.241	0.0152861
842.319	0.0151936
842.397	0.0154111
842.475	0.0153197
842.553	0.0153810
842.631	0.0153331
842.709	0.0153637
842.788	0.0153885
842.866	0.0154921
842.944	0.0155550
843.022	0.0154207
843.100	0.0155171
843.178	0.0154046
843.256	0.0152274
843.334	0.0155992
843.413	0.0156289
843.491	0.0154763
843.569	0.0155520
843.647	0.0155442
843.725	0.0156432
843.803	0.0155699
843.881	0.0155956
843.959	0.0156601
844.038	0.0156455
844.116	0.0157235
844.194	0.0155376
844.272	0.0155240
844.350	0.0155631
844.428	0.0156757
844.506	0.0154984
844.584	0.0155209
844.663	0.0156274
844.741	0.0154241
844.819	0.0154629
844.897	0.0155669
844.975	0.0154424
845.053	0.0154900
845.131	0.0154174
845.209	0.0155131
845.288	0.0152708
845.366	0.0154015
845.444	0.0153137
845.522	0.0152502
845.600	0.0153030
845.678	0.0152776
845.756	0.0152200
845.834	0.0153057
845.913	0.0152631
845.991	0.0151978
846.069	0.0152544
846.147	0.0152566
846.225	0.0151857
846.303	0.0151073
846.381	0.0152827
846.459	0.0153078
846.538	0.0152589
846.616	0.0151897
846.694	0.0153300
846.772	0.0154020
846.850	0.0153444
846.928	0.0152793
847.006	0.0153204
847.084	0.0153691
847.163	0.0154196
847.241	0.0153713
847.319	0.0152415
847.397	0.0153767
847.475	0.0152225
847.553	0.0152431
847.631	0.0152183
847.709	0.0152620
847.788	0.0153225
847.866	0.0153997
847.944	0.0152003
848.022	0.0151282
848.100	0.0151821
848.178	0.0152402
848.256	0.0152198
848.334	0.0151282
848.413	0.0152480
848.491	0.0152782
848.569	0.0151357
848.647	0.0152457
848.725	0.0152547
848.803	0.0152666
848.881	0.0153393
848.959	0.0151264
849.038	0.0154090
849.116	0.0154305
849.194	0.0153672
849.272	0.0154114
849.350	0.0155222
849.428	0.0154644
849.506	0.0154725
849.584	0.0155638
849.663	0.0156152
849.741	0.0154698
849.819	0.0155142
849.897	0.0154742
849.975	0.0155553
850.053	0.0154893
850.131	0.0156125
850.209	0.0156165
850.288	0.0154541
850.366	0.0154387
850.444	0.0156013
850.522	0.0154526
850.600	0.0154368
850.678	0.0154848
850.756	0.0153398
850.834	0.0153778
850.913	0.0154439
850.991	0.0154584
851.069	0.0153764
851.147	0.0152498
851.225	0.0154733
851.303	0.0154559
851.381	0.0154194
851.459	0.0152789
851.538	0.0152347
851.616	0.0153534
851.694	0.0152810
851.772	0.0152983
851.850	0.0152010
851.928	0.0152665
852.006	0.0151900
852.084	0.0152444
852.163	0.0153118
852.241	0.0152116
852.319	0.0150951
852.397	0.0152784
852.475	0.0152090
852.553	0.0152668
852.631	0.0152834
852.709	0.0152100
852.788	0.0153039
852.866	0.0152578
852.944	0.0153044
853.022	0.0153468
853.100	0.0152608
853.178	0.0152852
853.256	0.0152319
853.334	0.0153385
853.413	0.0153236
853.491	0.0153632
853.569	0.0154789
853.647	0.0153754
853.725	0.0153588
853.803	0.0154957
853.881	0.0154263
853.959	0.0155515
854.038	0.0154897
854.116	0.0154742
854.194	0.0154563
854.272	0.0155775
854.350	0.0155112
854.428	0.0156432
854.506	0.0155862
854.584	0.0155128
854.663	0.0154807
854.741	0.0154358
854.819	0.0155132
854.897	0.0154527
854.975	0.0154576
855.053	0.0155996
855.131	0.0155487
855.209	0.0154219
855.288	0.0154682
855.366	0.0153546
855.444	0.0154638
855.522	0.0154346
855.600	0.0155103
855.678	0.0152691
855.756	0.0152970
855.834	0.0153016
855.913	0.0152843
855.991	0.0153147
856.069	0.0152988
856.147	0.0153186
856.225	0.0153352
856.303	0.0153783
856.381	0.0153996
856.459	0.0153915
856.538	0.0152556
856.616	0.0152724
856.694	0.0152252
856.772	0.0152666
856.850	0.0152799
856.928	0.0153378
857.006	0.0151170
857.084	0.0150199
857.163	0.0151955
857.241	0.0152020
857.319	0.0151257
857.397	0.0152921
857.475	0.0151118
857.553	0.0150507
857.631	0.0151920
857.709	0.0151321
857.788	0.0151830
857.866	0.0150823
857.944	0.0151494
858.022	0.0151669
858.100	0.0151344
858.178	0.0150416
858.256	0.0149936
858.334	0.0152529
858.413	0.0152330
858.491	0.0152435
858.569	0.0152366
858.647	0.0152511
858.725	0.0152866
858.803	0.0153127
858.881	0.0153561
858.959	0.0153286
859.038	0.0153607
859.116	0.0153435
859.194	0.0153044
859.272	0.0153548
859.350	0.0153602
859.428	0.0154143
859.506	0.0153597
859.584	0.0153562
859.663	0.0154915
859.741	0.0153928
859.819	0.0154294
859.897	0.0154828
859.975	0.0155048
860.053	0.0153209
860.131	0.0154396
860.209	0.0153999
860.288	0.0154824
860.366	0.0154947
860.444	0.0153654
860.522	0.0153993
860.600	0.0153959
860.678	0.0154247
860.756	0.0154372
860.834	0.0153471
860.913	0.0153046
860.991	0.0153017
861.069	0.0153770
861.147	0.0153712
861.225	0.0153507
861.303	0.0152409
861.381	0.0152169
861.459	0.0152332
861.538	0.0151973
861.616	0.0152780
861.694	0.0153456
861.772	0.0153006
861.850	0.0154290
861.928	0.0154053
862.006	0.0154511
862.084	0.0152726
862.163	0.0153219
862.241	0.0153256
862.319	0.0153388
862.397	0.0154092
862.475	0.0154001
862.553	0.0153127
862.631	0.0153498
862.709	0.0154237
862.788	0.0154093
862.866	0.0153384
862.944	0.0153318
863.022	0.0154282
863.100	0.0152766
863.178	0.0153142
863.256	0.0154245
863.334	0.0152946
863.413	0.0151974
863.491	0.0154739
863.569	0.0152847
863.647	0.0151640
863.725	0.0152186
863.803	0.0152464
863.881	0.0154408
863.959	0.0152480
864.038	0.0151896
864.116	0.0152441
864.194	0.0153353
864.272	0.0152646
864.350	0.0153959
864.428	0.0153669
864.506	0.0151796
864.584	0.0154192
864.663	0.0152890
864.741	0.0152087
864.819	0.0153452
864.897	0.0153164
864.975	0.0152604
865.053	0.0153683
865.131	0.0154741
865.209	0.0153136
865.288	0.0152417
865.366	0.0154514
865.444	0.0155257
865.522	0.0156271
865.600	0.0154939
865.678	0.0155749
865.756	0.0154567
865.834	0.0155374
865.913	0.0154635
865.991	0.0153063
866.069	0.0154606
866.147	0.0155082
866.225	0.0153183
866.303	0.0152197
866.381	0.0154157
866.459	0.0153364
866.538	0.0152322
866.616	0.0152947
866.694	0.0153777
866.772	0.0152148
866.850	0.0153013
866.928	0.0152255
867.006	0.0152090
867.084	0.0151917
867.163	0.0152507
867.241	0.0152746
867.319	0.0151569
867.397	0.0153014
867.475	0.0153226
867.553	0.0152489
867.631	0.0153481
867.709	0.0152451
867.788	0.0153822
867.866	0.0153721
867.944	0.0154028
868.022	0.0153530
868.100	0.0152499
868.178	0.0154922
868.256	0.0154536
868.334	0.0154062
868.413	0.0155209
868.491	0.0154296
868.569	0.0154696
868.647	0.0155194
868.725	0.0155375
868.803	0.0155634
868.881	0.0155305
868.959	0.0155241
869.038	0.0155208
869.116	0.0155891
869.194	0.0154250
869.272	0.0153216
869.350	0.0152937
869.428	0.0154449
869.506	0.0154713
869.584	0.0151968
869.663	0.0152248
869.741	0.0152410
869.819	0.0153883
869.897	0.0152678
869.975	0.0151237
870.053	0.0152354
870.131	0.0152341
870.209	0.0152325
870.288	0.0151483
870.366	0.0153580
870.444	0.0153413
870.522	0.0152573
870.600	0.0151771
870.678	0.0153333
870.756	0.0152416
870.834	0.0154050
870.913	0.0153123
870.991	0.0154247
871.069	0.0154193
871.147	0.0154221
871.225	0.0154142
871.303	0.0153881
871.381	0.0154434
871.459	0.0156770
871.538	0.0154493
871.616	0.0155981
871.694	0.0156705
871.772	0.0156286
871.850	0.0154301
871.928	0.0155913
872.006	0.0156964
872.084	0.0155811
872.163	0.0154987
872.241	0.0156403
872.319	0.0155896
872.397	0.0156603
872.475	0.0155386
872.553	0.0155206
872.631	0.0155222
872.709	0.0155570
872.788	0.0155807
872.866	0.0154520
872.944	0.0154095
873.022	0.0155194
873.100	0.0153882
873.178	0.0152946
873.256	0.0152147
873.334	0.0154353
873.413	0.0152929
873.491	0.0152236
873.569	0.0151529
873.647	0.0153123
873.725	0.0152717
873.803	0.0152095
873.881	0.0152534
873.959	0.0152126
874.038	0.0150713
874.116	0.0152384
874.194	0.0151926
874.272	0.0151063
874.350	0.0150075
874.428	0.0149738
874.506	0.0150655
874.584	0.0150330
874.663	0.0150320
874.741	0.0150468
874.819	0.0149525
874.897	0.0151138
874.975	0.0151362
875.053	0.0150150
875.131	0.0150249
875.209	0.0151667
875.288	0.0151310
875.366	0.0151308
875.444	0.0150919
875.522	0.0151398
875.600	0.0151893
875.678	0.0152240
875.756	0.0152447
875.834	0.0153389
875.913	0.0153399
875.991	0.0153681
876.069	0.0154681
876.147	0.0153792
876.225	0.0154436
876.303	0.0153632
876.381	0.0154951
876.459	0.0153563
876.538	0.0155367
876.616	0.0155107
876.694	0.0154652
876.772	0.0154415
876.850	0.0154334
876.928	0.0154771
877.006	0.0154053
877.084	0.0155470
877.163	0.0154758
877.241	0.0156407
877.319	0.0154234
877.397	0.0154427
877.475	0.0152431
877.553	0.0153255
877.631	0.0152322
877.709	0.0154686
877.788	0.0153378
877.866	0.0152905
877.944	0.0153040
878.022	0.0152309
878.100	0.0152595
878.178	0.0152563
878.256	0.0150310
878.334	0.0152505
878.413	0.0152199
878.491	0.0152338
878.569	0.0151708
878.647	0.0150420
878.725	0.0150962
878.803	0.0152809
878.881	0.0151102
878.959	0.0150274
879.038	0.0151498
879.116	0.0151807
879.194	0.0151425
879.272	0.0151945
879.350	0.0151036
879.428	0.0151961
879.506	0.0152332
879.584	0.0150397
879.663	0.0151827
879.741	0.0152612
879.819	0.0152254
879.897	0.0152396
879.975	0.0151743
880.053	0.0151359
880.131	0.0152472
880.209	0.0153004
880.288	0.0151634
880.366	0.0152367
880.444	0.0152813
880.522	0.0153682
880.600	0.0152241
880.678	0.0153656
880.756	0.0154725
880.834	0.0153657
880.913	0.0153223
880.991	0.0153298
881.069	0.0153880
881.147	0.0154724
881.225	0.0153767
881.303	0.0155418
881.381	0.0153870
881.459	0.0154031
881.538	0.0155300
881.616	0.0155645
881.694	0.0155186
881.772	0.0155135
881.850	0.0153433
881.928	0.0155939
882.006	0.0155241
882.084	0.0154903
882.163	0.0155817
882.241	0.0155909
882.319	0.0154184
882.397	0.0153764
882.475	0.0154546
882.553	0.0155368
882.631	0.0155674
882.709	0.0155982
882.788	0.0153792
882.866	0.0153871
882.944	0.0154697
883.022	0.0154388
883.100	0.0155080
883.178	0.0153848
883.256	0.0154848
883.334	0.0155679
883.413	0.0155315
883.491	0.0154940
883.569	0.0155920
883.647	0.0154002
883.725	0.0154468
883.803	0.0154311
883.881	0.0153414
883.959	0.0154877
884.038	0.0153407
884.116	0.0154188
884.194	0.0153814
884.272	0.0153955
884.350	0.0153912
884.428	0.0154360
884.506	0.0153851
884.584	0.0154099
884.663	0.0154213
884.741	0.0153362
884.819	0.0153267
884.897	0.0153193
884.975	0.0153989
885.053	0.0153606
885.131	0.0154453
885.209	0.0153055
885.288	0.0152003
885.366	0.0152832
885.444	0.0154913
885.522	0.0153415
885.600	0.0152589
885.678	0.0152268
885.756	0.0152496
885.834	0.0152766
885.913	0.0152132
885.991	0.0152359
886.069	0.0152193
886.147	0.0150655
886.225	0.0152518
886.303	0.0152087
886.381	0.0150838
886.459	0.0153307
886.538	0.0152782
886.616	0.0151213
886.694	0.0152515
886.772	0.0152242
886.850	0.0151446
886.928	0.0153580
887.006	0.0152922
887.084	0.0152380
887.163	0.0154038
887.241	0.0154016
887.319	0.0152703
887.397	0.0153523
887.475	0.0154821
887.553	0.0153758
887.631	0.0153561
887.709	0.0153695
887.788	0.0153857
887.866	0.0152995
887.944	0.0153332
888.022	0.0154738
888.100	0.0153248
888.178	0.0152067
888.256	0.0153180
888.334	0.0151391
888.413	0.0151442
888.491	0.0152907
888.569	0.0151624
888.647	0.0152371
888.725	0.0151965
888.803	0.0152259
888.881	0.0151905
888.959	0.0152804
889.038	0.0153242
889.116	0.0152334
889.194	0.0153753
889.272	0.0153217
889.350	0.0152736
889.428	0.0152515
889.506	0.0152818
889.584	0.0154443
889.663	0.0154159
889.741	0.0153905
889.819	0.0153748
889.897	0.0152967
889.975	0.0153774
890.053	0.0153372
890.131	0.0153635
890.209	0.0153408
890.288	0.0154824
890.366	0.0154644
890.444	0.0155504
890.522	0.0155322
890.600	0.0153373
890.678	0.0153904
890.756	0.0153777
890.834	0.0153684
890.913	0.0154285
890.991	0.0153944
891.069	0.0154238
891.147	0.0153105
891.225	0.0152010
891.303	0.0153023
891.381	0.0152642
891.459	0.0154895
891.538	0.0152540
891.616	0.0152281
891.694	0.0152402
891.772	0.0153771
891.850	0.0153670
891.928	0.0153560
892.006	0.0154984
892.084	0.0153178
892.163	0.0154728
892.241	0.0155703
892.319	0.0153544
892.397	0.0154167
892.475	0.0154074
892.553	0.0155007
892.631	0.0155398
892.709	0.0152817
892.788	0.0155607
892.866	0.0154974
892.944	0.0152799
893.022	0.0152866
893.100	0.0154914
893.178	0.0154049
893.256	0.0154012
893.334	0.0153648
893.413	0.0155165
893.491	0.0152809
893.569	0.0151926
893.647	0.0153346
893.725	0.0152918
893.803	0.0151301
893.881	0.0151588
893.959	0.0151781
894.038	0.0152493
894.116	0.0152820
894.194	0.0152065
894.272	0.0150842
894.350	0.0152319
894.428	0.0153043
894.506	0.0152560
894.584	0.0150773
894.663	0.0149844
894.741	0.0152234
894.819	0.0152050
894.897	0.0152000
894.975	0.0151827
895.053	0.0152970
895.131	0.0152704
895.209	0.0154471
895.288	0.0153675
895.366	0.0153756
895.444	0.0154010
895.522	0.0151929
895.600	0.0154359
895.678	0.0155550
895.756	0.0154746
895.834	0.0154144
895.913	0.0155627
895.991	0.0154468
896.069	0.0155363
896.147	0.0155101
896.225	0.0153606
896.303	0.0153458
896.381	0.0154021
896.459	0.0153193
896.538	0.0155193
896.616	0.0155424
896.694	0.0155270
896.772	0.0154489
896.850	0.0154117
896.928	0.0153496
897.006	0.0155099
897.084	0.0156165
897.163	0.0155056
897.241	0.0154330
897.319	0.0154904
897.397	0.0156268
897.475	0.0155140
897.553	0.0153880
897.631	0.0154019
897.709	0.0154389
897.788	0.0154885
897.866	0.0154069
897.944	0.0154669
898.022	0.0155060
898.100	0.0154521
898.178	0.0154409
898.256	0.0152986
898.334	0.0152453
898.413	0.0153211
898.491	0.0153967
898.569	0.0154033
898.647	0.0154052
898.725	0.0151883
898.803	0.0151700
898.881	0.0152525
898.959	0.0151651
899.038	0.0151962
899.116	0.0151200
899.194	0.0151589
899.272	0.0151792
899.350	0.0150717
899.428	0.0150827
899.506	0.0148917
899.584	0.0149007
899.663	0.0151755
899.741	0.0149870
899.819	0.0149956
899.897	0.0151128
899.975	0.0149090
900.053	0.0151359
900.131	0.0150430
900.209	0.0150299
900.288	0.0150713
900.366	0.0150876
900.444	0.0150581
900.522	0.0151696
900.600	0.0152478
900.678	0.0152300
900.756	0.0152687
900.834	0.0151901
900.913	0.0152510
900.991	0.0152738
901.069	0.0152055
901.147	0.0153461
901.225	0.0154186
901.303	0.0153181
901.381	0.0152869
901.459	0.0153754
901.538	0.0154764
901.616	0.0154383
901.694	0.0152440
901.772	0.0155089
901.850	0.0154176
901.928	0.0153204
902.006	0.0153920
902.084	0.0154860
902.163	0.0152606
902.241	0.0152362
902.319	0.0153006
902.397	0.0154326
902.475	0.0153348
902.553	0.0153395
902.631	0.0153917
902.709	0.0151878
902.788	0.0152624
902.866	0.0153436
902.944	0.0153549
903.022	0.0153004
903.100	0.0153448
903.178	0.0153429
903.256	0.0153235
903.334	0.0153476
903.413	0.0154431
903.491	0.0152758
903.569	0.0153740
903.647	0.0153548
903.725	0.0153394
903.803	0.0154205
903.881	0.0154010
903.959	0.0154351
904.038	0.0153073
904.116	0.0152036
904.194	0.0152594
904.272	0.0152619
904.350	0.0151400
904.428	0.0152606
904.506	0.0152550
904.584	0.0152126
904.663	0.0152151
904.741	0.0152517
904.819	0.0152524
904.897	0.0151591
904.975	0.0151251
905.053	0.0152351
905.131	0.0150817
905.209	0.0151106
905.288	0.0150887
905.366	0.0151748
905.444	0.0151752
905.522	0.0153277
905.600	0.0153224
905.678	0.0151898
905.756	0.0151445
905.834	0.0152041
905.913	0.0151955
905.991	0.0152706
906.069	0.0152156
906.147	0.0154245
906.225	0.0153278
906.303	0.0152851
906.381	0.0153204
906.459	0.0153767
906.538	0.0153362
906.616	0.0152370
906.694	0.0152862
906.772	0.0154160
906.850	0.0151888
906.928	0.0152721
907.006	0.0150774
907.084	0.0152361
907.163	0.0152676
907.241	0.0150790
907.319	0.0152347
907.397	0.0151897
907.475	0.0151939
907.553	0.0150114
907.631	0.0151690
907.709	0.0151487
907.788	0.0151551
907.866	0.0151787
907.944	0.0152651
908.022	0.0151644
908.100	0.0151617
908.178	0.0153495
908.256	0.0152316
908.334	0.0153794
908.413	0.0152563
908.491	0.0152938
908.569	0.0153233
908.647	0.0153912
908.725	0.0153315
908.803	0.0154188
908.881	0.0154857
908.959	0.0155180
909.038	0.0153883
909.116	0.0153193
909.194	0.0154874
909.272	0.0155393
909.350	0.0156170
909.428	0.0154228
909.506	0.0155284
909.584	0.0153755
909.663	0.0154076
909.741	0.0154948
909.819	0.0154094
909.897	0.0153257
909.975	0.0154860
910.053	0.0154959
910.131	0.0156120
910.209	0.0153736
910.288	0.0153122
910.366	0.0154348
910.444	0.0155723
910.522	0.0153226
910.600	0.0154713
910.678	0.0154344
910.756	0.0154930
910.834	0.0155110
910.913	0.0155028
910.991	0.0154827
911.069	0.0154482
911.147	0.0154411
911.225	0.0154126
911.303	0.0154288
911.381	0.0154123
911.459	0.0153683
911.538	0.0153148
911.616	0.0153958
911.694	0.0152950
911.772	0.0153245
911.850	0.0153333
911.928	0.0153439
912.006	0.0153030
912.084	0.0152206
912.163	0.0153149
912.241	0.0152900
912.319	0.0153111
912.397	0.0153814
912.475	0.0152325
912.553	0.0153012
912.631	0.0154520
912.709	0.0152412
912.788	0.0152174
912.866	0.0151488
912.944	0.0152235
913.022	0.0152306
913.100	0.0152815
913.178	0.0152744
913.256	0.0152706
913.334	0.0152622
913.413	0.0153765
913.491	0.0153166
913.569	0.0153138
913.647	0.0152485
913.725	0.0152304
913.803	0.0152050
913.881	0.0151794
913.959	0.0152724
914.038	0.0152228
914.116	0.0151278
914.194	0.0151871
914.272	0.0151287
914.350	0.0150804
914.428	0.0150720
914.506	0.0149685
914.584	0.0150532
914.663	0.0153304
914.741	0.0150121
914.819	0.0150136
914.897	0.0152166
914.975	0.0151664
915.053	0.0152087
915.131	0.0150256
915.209	0.0151344
915.288	0.0150271
915.366	0.0150123
915.444	0.0152517
915.522	0.0152290
915.600	0.0152003
915.678	0.0152077
915.756	0.0153391
915.834	0.0153368
915.913	0.0152248
915.991	0.0152165
916.069	0.0153782
916.147	0.0153238
916.225	0.0154212
916.303	0.0153846
916.381	0.0152604
916.459	0.0152948
916.538	0.0153812
916.616	0.0153239
916.694	0.0153777
916.772	0.0154068
916.850	0.0153636
916.928	0.0154068
917.006	0.0153495
917.084	0.0154137
917.163	0.0154571
917.241	0.0151891
917.319	0.0153651
917.397	0.0153603
917.475	0.0151424
917.553	0.0153504
917.631	0.0153167
917.709	0.0152979
917.788	0.0153270
917.866	0.0153310
917.944	0.0152312
918.022	0.0151837
918.100	0.0152083
918.178	0.0152237
918.256	0.0152740
918.334	0.0152296
918.413	0.0151942
918.491	0.0151898
918.569	0.0153233
918.647	0.0154274
918.725	0.0152830
918.803	0.0152589
918.881	0.0151891
918.959	0.0153434
919.038	0.0152780
919.116	0.0153326
919.194	0.0154025
919.272	0.0153346
919.350	0.0154918
919.428	0.0154738
919.506	0.0153327
919.584	0.0153843
919.663	0.0154351
919.741	0.0153902
919.819	0.0152155
919.897	0.0153122
