05/20/2022	21:26:59	Ver.	4.1	UNKNOWN
Optical Delay	599.975067	Delta X		0.078125	Sweeps	1	Scan Rate	0/0
Coordinates	Axis 1	NaN	Axis 2	NaN	Axis 3	NaN	Axis 4	NaN	Axis 5	NaN	Axis 6	0.000000
TX Power	0.000000	RX Power	0.000000

599.975	0.0155046
600.053	0.0155117
600.131	0.0155541
600.209	0.0155702
600.288	0.0156728
600.366	0.0155076
600.444	0.0154829
600.522	0.0154369
600.600	0.0156659
600.678	0.0157258
600.756	0.0155751
600.834	0.0156486
600.913	0.0156267
600.991	0.0156596
601.069	0.0156109
601.147	0.0155609
601.225	0.0156139
601.303	0.0155563
601.381	0.0154772
601.459	0.0155361
601.538	0.0155098
601.616	0.0156145
601.694	0.0156902
601.772	0.0156327
601.850	0.0156979
601.928	0.0155647
602.006	0.0156025
602.084	0.0156645
602.163	0.0156375
602.241	0.0155493
602.319	0.0154950
602.397	0.0157312
602.475	0.0156813
602.553	0.0154992
602.631	0.0156826
602.709	0.0156023
602.788	0.0156281
602.866	0.0156776
602.944	0.0155429
603.022	0.0156009
603.100	0.0156026
603.178	0.0155997
603.256	0.0155875
603.334	0.0156342
603.413	0.0156784
603.491	0.0155690
603.569	0.0155935
603.647	0.0156123
603.725	0.0155408
603.803	0.0156893
603.881	0.0156384
603.959	0.0155624
604.038	0.0155952
604.116	0.0156052
604.194	0.0155854
604.272	0.0156273
604.350	0.0153950
604.428	0.0155318
604.506	0.0156053
604.584	0.0156890
604.663	0.0154840
604.741	0.0154970
604.819	0.0156516
604.897	0.0155672
604.975	0.0154888
605.053	0.0155335
605.131	0.0155395
605.209	0.0155402
605.288	0.0156719
605.366	0.0154926
605.444	0.0155174
605.522	0.0154592
605.600	0.0154188
605.678	0.0155584
605.756	0.0155895
605.834	0.0155689
605.913	0.0155061
605.991	0.0155153
606.069	0.0155438
606.147	0.0155058
606.225	0.0153777
606.303	0.0153947
606.381	0.0156296
606.459	0.0155573
606.538	0.0155619
606.616	0.0155735
606.694	0.0155013
606.772	0.0155402
606.850	0.0154870
606.928	0.0156253
607.006	0.0154964
607.084	0.0155523
607.163	0.0155673
607.241	0.0156819
607.319	0.0156667
607.397	0.0156008
607.475	0.0154910
607.553	0.0156017
607.631	0.0156192
607.709	0.0156221
607.788	0.0156300
607.866	0.0155922
607.944	0.0157304
608.022	0.0156535
608.100	0.0156657
608.178	0.0156066
608.256	0.0155238
608.334	0.0157143
608.413	0.0155951
608.491	0.0156197
608.569	0.0157020
608.647	0.0156236
608.725	0.0155412
608.803	0.0155994
608.881	0.0156811
608.959	0.0155432
609.038	0.0154772
609.116	0.0155067
609.194	0.0156300
609.272	0.0155602
609.350	0.0156245
609.428	0.0155403
609.506	0.0156308
609.584	0.0157616
609.663	0.0156858
609.741	0.0155892
609.819	0.0156252
609.897	0.0156727
609.975	0.0157322
610.053	0.0155784
610.131	0.0157687
610.209	0.0155824
610.288	0.0154769
610.366	0.0157436
610.444	0.0156048
610.522	0.0155958
610.600	0.0155478
610.678	0.0156512
610.756	0.0155511
610.834	0.0155346
610.913	0.0154785
610.991	0.0154984
611.069	0.0156123
611.147	0.0155474
611.225	0.0155956
611.303	0.0155198
611.381	0.0155978
611.459	0.0156099
611.538	0.0154787
611.616	0.0155220
611.694	0.0156171
611.772	0.0157120
611.850	0.0155384
611.928	0.0154909
612.006	0.0156075
612.084	0.0156531
612.163	0.0155657
612.241	0.0154883
612.319	0.0155784
612.397	0.0155653
612.475	0.0156809
612.553	0.0156105
612.631	0.0155407
612.709	0.0158630
612.788	0.0156239
612.866	0.0156285
612.944	0.0155715
613.022	0.0154605
613.100	0.0155379
613.178	0.0156926
613.256	0.0155337
613.334	0.0156257
613.413	0.0158204
613.491	0.0156982
613.569	0.0157146
613.647	0.0156131
613.725	0.0156781
613.803	0.0157907
613.881	0.0156174
613.959	0.0156178
614.038	0.0157021
614.116	0.0157510
614.194	0.0156538
614.272	0.0156341
614.350	0.0156825
614.428	0.0156184
614.506	0.0157034
614.584	0.0157539
614.663	0.0156385
614.741	0.0157273
614.819	0.0158060
614.897	0.0157856
614.975	0.0156928
615.053	0.0156377
615.131	0.0155921
615.209	0.0157367
615.288	0.0157132
615.366	0.0157098
615.444	0.0156615
615.522	0.0156143
615.600	0.0155086
615.678	0.0158098
615.756	0.0158179
615.834	0.0156779
615.913	0.0157883
615.991	0.0156442
616.069	0.0155828
616.147	0.0156257
616.225	0.0155814
616.303	0.0156718
616.381	0.0155817
616.459	0.0155811
616.538	0.0156339
616.616	0.0156279
616.694	0.0156481
616.772	0.0155360
616.850	0.0157373
616.928	0.0156303
617.006	0.0156689
617.084	0.0156084
617.163	0.0155935
617.241	0.0156328
617.319	0.0155245
617.397	0.0156299
617.475	0.0156139
617.553	0.0155129
617.631	0.0155226
617.709	0.0157068
617.788	0.0155735
617.866	0.0155482
617.944	0.0156534
618.022	0.0155212
618.100	0.0155314
618.178	0.0155830
618.256	0.0154636
618.334	0.0155250
618.413	0.0155889
618.491	0.0155616
618.569	0.0154371
618.647	0.0156150
618.725	0.0154691
618.803	0.0155768
618.881	0.0153921
618.959	0.0154008
619.038	0.0155508
619.116	0.0154230
619.194	0.0153516
619.272	0.0154686
619.350	0.0153864
619.428	0.0153755
619.506	0.0154512
619.584	0.0153780
619.663	0.0154855
619.741	0.0154270
619.819	0.0154759
619.897	0.0154439
619.975	0.0152810
620.053	0.0154746
620.131	0.0155638
620.209	0.0154299
620.288	0.0156606
620.366	0.0155781
620.444	0.0155701
620.522	0.0156911
620.600	0.0155947
620.678	0.0154869
620.756	0.0155492
620.834	0.0157410
620.913	0.0154858
620.991	0.0155333
621.069	0.0155639
621.147	0.0155078
621.225	0.0155460
621.303	0.0155984
621.381	0.0154556
621.459	0.0154889
621.538	0.0155647
621.616	0.0155563
621.694	0.0156433
621.772	0.0156059
621.850	0.0156106
621.928	0.0155354
622.006	0.0155656
622.084	0.0156068
622.163	0.0156541
622.241	0.0155617
622.319	0.0155690
622.397	0.0156951
622.475	0.0156049
622.553	0.0156445
622.631	0.0155493
622.709	0.0156591
622.788	0.0157024
622.866	0.0155890
622.944	0.0157294
623.022	0.0155540
623.100	0.0156345
623.178	0.0155231
623.256	0.0156567
623.334	0.0155927
623.413	0.0156265
623.491	0.0157647
623.569	0.0155396
623.647	0.0155596
623.725	0.0156223
623.803	0.0156629
623.881	0.0154458
623.959	0.0156266
624.038	0.0157439
624.116	0.0156551
624.194	0.0156347
624.272	0.0156495
624.350	0.0157278
624.428	0.0156529
624.506	0.0154639
624.584	0.0156308
624.663	0.0156993
624.741	0.0155291
624.819	0.0156324
624.897	0.0155418
624.975	0.0156171
625.053	0.0156213
625.131	0.0155238
625.209	0.0156526
625.288	0.0156162
625.366	0.0154758
625.444	0.0155239
625.522	0.0154670
625.600	0.0155637
625.678	0.0156048
625.756	0.0155987
625.834	0.0156426
625.913	0.0155812
625.991	0.0155890
626.069	0.0156225
626.147	0.0156821
626.225	0.0154853
626.303	0.0156270
626.381	0.0155036
626.459	0.0155448
626.538	0.0156962
626.616	0.0155687
626.694	0.0156445
626.772	0.0154819
626.850	0.0157761
626.928	0.0155605
627.006	0.0155895
627.084	0.0156028
627.163	0.0155984
627.241	0.0155939
627.319	0.0156136
627.397	0.0154960
627.475	0.0156734
627.553	0.0155587
627.631	0.0155142
627.709	0.0155279
627.788	0.0157352
627.866	0.0154916
627.944	0.0154871
628.022	0.0155423
628.100	0.0156187
628.178	0.0155678
628.256	0.0155128
628.334	0.0154571
628.413	0.0155162
628.491	0.0155759
628.569	0.0155733
628.647	0.0155791
628.725	0.0156384
628.803	0.0155972
628.881	0.0155484
628.959	0.0156213
629.038	0.0156473
629.116	0.0156179
629.194	0.0155782
629.272	0.0155370
629.350	0.0156422
629.428	0.0156660
629.506	0.0157073
629.584	0.0156571
629.663	0.0156877
629.741	0.0155972
629.819	0.0156928
629.897	0.0155055
629.975	0.0155109
630.053	0.0156749
630.131	0.0155061
630.209	0.0154743
630.288	0.0155430
630.366	0.0155396
630.444	0.0156866
630.522	0.0156445
630.600	0.0155459
630.678	0.0155006
630.756	0.0156304
630.834	0.0155626
630.913	0.0154408
630.991	0.0156131
631.069	0.0155427
631.147	0.0156059
631.225	0.0155581
631.303	0.0155717
631.381	0.0154314
631.459	0.0154105
631.538	0.0155840
631.616	0.0154110
631.694	0.0154644
631.772	0.0154926
631.850	0.0154192
631.928	0.0155609
632.006	0.0156380
632.084	0.0155108
632.163	0.0154590
632.241	0.0154659
632.319	0.0155560
632.397	0.0154837
632.475	0.0155898
632.553	0.0156003
632.631	0.0156419
632.709	0.0156063
632.788	0.0156711
632.866	0.0158520
632.944	0.0156292
633.022	0.0157074
633.100	0.0157231
633.178	0.0157822
633.256	0.0156248
633.334	0.0157014
633.413	0.0156897
633.491	0.0156927
633.569	0.0156718
633.647	0.0157070
633.725	0.0156248
633.803	0.0156261
633.881	0.0157153
633.959	0.0156432
634.038	0.0156011
634.116	0.0156321
634.194	0.0157012
634.272	0.0156224
634.350	0.0155913
634.428	0.0157356
634.506	0.0157138
634.584	0.0155830
634.663	0.0157225
634.741	0.0156921
634.819	0.0155298
634.897	0.0156329
634.975	0.0156230
635.053	0.0157361
635.131	0.0156454
635.209	0.0156216
635.288	0.0156388
635.366	0.0156925
635.444	0.0155316
635.522	0.0154465
635.600	0.0155988
635.678	0.0155827
635.756	0.0155667
635.834	0.0155728
635.913	0.0156194
635.991	0.0155225
636.069	0.0154285
636.147	0.0154946
636.225	0.0154860
636.303	0.0155646
636.381	0.0156065
636.459	0.0155254
636.538	0.0156458
636.616	0.0156178
636.694	0.0156010
636.772	0.0154941
636.850	0.0154252
636.928	0.0155126
637.006	0.0155209
637.084	0.0156368
637.163	0.0154550
637.241	0.0155322
637.319	0.0156514
637.397	0.0156264
637.475	0.0154684
637.553	0.0155468
637.631	0.0157241
637.709	0.0156709
637.788	0.0155444
637.866	0.0155882
637.944	0.0155701
638.022	0.0155965
638.100	0.0154571
638.178	0.0155305
638.256	0.0154482
638.334	0.0155531
638.413	0.0156631
638.491	0.0155637
638.569	0.0154769
638.647	0.0157204
638.725	0.0157168
638.803	0.0155683
638.881	0.0156386
638.959	0.0155730
639.038	0.0156556
639.116	0.0154822
639.194	0.0156693
639.272	0.0155679
639.350	0.0156398
639.428	0.0156322
639.506	0.0155125
639.584	0.0156962
639.663	0.0156971
639.741	0.0155789
639.819	0.0156613
639.897	0.0157539
639.975	0.0155054
640.053	0.0156112
640.131	0.0156284
640.209	0.0155042
640.288	0.0156214
640.366	0.0155949
640.444	0.0157097
640.522	0.0156433
640.600	0.0156466
640.678	0.0156142
640.756	0.0155695
640.834	0.0156979
640.913	0.0156470
640.991	0.0156536
641.069	0.0155388
641.147	0.0155474
641.225	0.0156928
641.303	0.0155363
641.381	0.0156161
641.459	0.0156147
641.538	0.0155369
641.616	0.0155472
641.694	0.0156099
641.772	0.0155824
641.850	0.0155762
641.928	0.0155370
642.006	0.0156980
642.084	0.0155697
642.163	0.0157938
642.241	0.0156061
642.319	0.0158308
642.397	0.0156399
642.475	0.0155969
642.553	0.0155888
642.631	0.0156127
642.709	0.0156001
642.788	0.0156296
642.866	0.0156783
642.944	0.0155703
643.022	0.0156880
643.100	0.0156500
643.178	0.0156701
643.256	0.0154269
643.334	0.0156488
643.413	0.0156964
643.491	0.0153994
643.569	0.0154890
643.647	0.0155471
643.725	0.0155989
643.803	0.0155501
643.881	0.0155394
643.959	0.0155360
644.038	0.0154097
644.116	0.0156330
644.194	0.0156095
644.272	0.0155407
644.350	0.0155914
644.428	0.0155724
644.506	0.0157114
644.584	0.0154359
644.663	0.0157549
644.741	0.0156670
644.819	0.0155450
644.897	0.0157014
644.975	0.0157363
645.053	0.0156105
645.131	0.0156161
645.209	0.0156219
645.288	0.0155539
645.366	0.0154874
645.444	0.0156564
645.522	0.0156786
645.600	0.0155388
645.678	0.0155143
645.756	0.0155914
645.834	0.0155576
645.913	0.0154890
645.991	0.0156229
646.069	0.0156162
646.147	0.0155634
646.225	0.0156594
646.303	0.0155104
646.381	0.0155060
646.459	0.0155020
646.538	0.0156324
646.616	0.0155824
646.694	0.0155668
646.772	0.0155760
646.850	0.0156256
646.928	0.0156077
647.006	0.0157381
647.084	0.0156121
647.163	0.0154874
647.241	0.0156601
647.319	0.0155803
647.397	0.0155949
647.475	0.0156242
647.553	0.0156268
647.631	0.0157095
647.709	0.0156366
647.788	0.0156798
647.866	0.0157478
647.944	0.0157235
648.022	0.0156717
648.100	0.0156297
648.178	0.0156311
648.256	0.0158433
648.334	0.0157147
648.413	0.0156015
648.491	0.0155801
648.569	0.0157101
648.647	0.0157237
648.725	0.0156529
648.803	0.0156745
648.881	0.0156508
648.959	0.0157063
649.038	0.0156403
649.116	0.0156490
649.194	0.0155493
649.272	0.0155960
649.350	0.0155399
649.428	0.0156000
649.506	0.0157201
649.584	0.0157215
649.663	0.0156392
649.741	0.0156528
649.819	0.0157088
649.897	0.0155490
649.975	0.0155794
650.053	0.0156701
650.131	0.0157234
650.209	0.0155896
650.288	0.0155293
650.366	0.0155323
650.444	0.0155330
650.522	0.0154494
650.600	0.0155815
650.678	0.0156025
650.756	0.0156458
650.834	0.0155309
650.913	0.0155089
650.991	0.0154200
651.069	0.0153872
651.147	0.0155356
651.225	0.0156258
651.303	0.0154665
651.381	0.0156059
651.459	0.0155280
651.538	0.0155469
651.616	0.0154396
651.694	0.0153370
651.772	0.0154501
651.850	0.0154925
651.928	0.0154851
652.006	0.0155640
652.084	0.0155576
652.163	0.0155368
652.241	0.0154469
652.319	0.0155708
652.397	0.0155472
652.475	0.0154175
652.553	0.0153682
652.631	0.0154322
652.709	0.0155460
652.788	0.0154761
652.866	0.0155757
652.944	0.0154398
653.022	0.0155203
653.100	0.0155498
653.178	0.0154894
653.256	0.0156095
653.334	0.0154493
653.413	0.0155141
653.491	0.0155240
653.569	0.0155008
653.647	0.0155093
653.725	0.0155077
653.803	0.0153392
653.881	0.0153436
653.959	0.0155633
654.038	0.0155069
654.116	0.0153436
654.194	0.0153997
654.272	0.0154990
654.350	0.0153196
654.428	0.0153255
654.506	0.0154702
654.584	0.0153988
654.663	0.0152695
654.741	0.0153574
654.819	0.0153421
654.897	0.0154811
654.975	0.0155376
655.053	0.0155425
655.131	0.0155566
655.209	0.0155263
655.288	0.0155058
655.366	0.0155692
655.444	0.0156499
655.522	0.0154802
655.600	0.0153517
655.678	0.0155100
655.756	0.0156223
655.834	0.0154949
655.913	0.0154662
655.991	0.0156010
656.069	0.0154168
656.147	0.0155534
656.225	0.0154491
656.303	0.0154782
656.381	0.0155134
656.459	0.0157786
656.538	0.0156603
656.616	0.0154639
656.694	0.0155547
656.772	0.0157394
656.850	0.0157242
656.928	0.0156680
657.006	0.0158120
657.084	0.0157561
657.163	0.0156446
657.241	0.0157881
657.319	0.0158515
657.397	0.0159382
657.475	0.0158653
657.553	0.0157231
657.631	0.0158177
657.709	0.0157498
657.788	0.0156924
657.866	0.0157191
657.944	0.0158275
658.022	0.0157439
658.100	0.0156812
658.178	0.0157333
658.256	0.0154963
658.334	0.0154809
658.413	0.0155123
658.491	0.0154335
658.569	0.0154643
658.647	0.0155495
658.725	0.0156557
658.803	0.0155071
658.881	0.0155005
658.959	0.0155676
659.038	0.0156604
659.116	0.0156116
659.194	0.0156035
659.272	0.0157615
659.350	0.0157729
659.428	0.0156775
659.506	0.0158310
659.584	0.0158201
659.663	0.0159702
659.741	0.0158360
659.819	0.0158543
659.897	0.0160396
659.975	0.0160358
660.053	0.0159251
660.131	0.0159414
660.209	0.0158519
660.288	0.0159505
660.366	0.0161194
660.444	0.0159229
660.522	0.0157914
660.600	0.0157374
660.678	0.0157479
660.756	0.0155259
660.834	0.0154745
660.913	0.0154965
660.991	0.0152667
661.069	0.0153649
661.147	0.0152379
661.225	0.0151121
661.303	0.0150829
661.381	0.0149295
661.459	0.0149432
661.538	0.0150334
661.616	0.0149683
661.694	0.0150021
661.772	0.0150018
661.850	0.0150922
661.928	0.0150026
662.006	0.0151430
662.084	0.0153357
662.163	0.0154482
662.241	0.0155482
662.319	0.0155630
662.397	0.0158105
662.475	0.0158231
662.553	0.0159115
662.631	0.0161151
662.709	0.0160239
662.788	0.0161277
662.866	0.0163107
662.944	0.0162646
663.022	0.0163441
663.100	0.0163908
663.178	0.0163256
663.256	0.0163297
663.334	0.0163345
663.413	0.0163503
663.491	0.0162630
663.569	0.0160748
663.647	0.0161053
663.725	0.0160236
663.803	0.0158247
663.881	0.0158640
663.959	0.0158689
664.038	0.0155061
664.116	0.0155289
664.194	0.0154485
664.272	0.0154968
664.350	0.0153039
664.428	0.0152301
664.506	0.0152180
664.584	0.0151685
664.663	0.0149316
664.741	0.0150720
664.819	0.0151557
664.897	0.0150983
664.975	0.0150366
665.053	0.0149976
665.131	0.0150145
665.209	0.0149818
665.288	0.0150172
665.366	0.0150493
665.444	0.0150435
665.522	0.0151161
665.600	0.0152552
665.678	0.0152058
665.756	0.0152362
665.834	0.0152950
665.913	0.0154696
665.991	0.0153670
666.069	0.0153183
666.147	0.0153728
666.225	0.0154860
666.303	0.0155979
666.381	0.0154411
666.459	0.0155932
666.538	0.0156236
666.616	0.0156023
666.694	0.0156751
666.772	0.0158356
666.850	0.0157249
666.928	0.0157789
667.006	0.0159607
667.084	0.0159770
667.163	0.0159865
667.241	0.0160749
667.319	0.0161018
667.397	0.0161370
667.475	0.0162357
667.553	0.0163157
667.631	0.0162387
667.709	0.0162336
667.788	0.0162384
667.866	0.0163301
667.944	0.0162834
668.022	0.0163281
668.100	0.0163301
668.178	0.0163619
668.256	0.0162234
668.334	0.0161423
668.413	0.0161275
668.491	0.0161810
668.569	0.0161075
668.647	0.0160049
668.725	0.0158834
668.803	0.0159689
668.881	0.0156867
668.959	0.0156681
669.038	0.0155856
669.116	0.0155084
669.194	0.0153398
669.272	0.0151864
669.350	0.0151160
669.428	0.0148432
669.506	0.0148147
669.584	0.0147450
669.663	0.0146087
669.741	0.0144135
669.819	0.0142975
669.897	0.0141991
669.975	0.0142345
670.053	0.0141515
670.131	0.0142123
670.209	0.0142387
670.288	0.0143682
670.366	0.0145397
670.444	0.0145714
670.522	0.0146283
670.600	0.0146499
670.678	0.0149870
670.756	0.0151757
670.834	0.0152589
670.913	0.0155247
670.991	0.0156710
671.069	0.0157693
671.147	0.0156959
671.225	0.0159392
671.303	0.0159550
671.381	0.0160853
671.459	0.0161282
671.538	0.0162097
671.616	0.0163012
671.694	0.0163116
671.772	0.0162619
671.850	0.0162846
671.928	0.0164158
672.006	0.0164814
672.084	0.0164264
672.163	0.0163089
672.241	0.0163881
672.319	0.0163091
672.397	0.0163241
672.475	0.0162740
672.553	0.0161819
672.631	0.0162511
672.709	0.0162247
672.788	0.0162894
672.866	0.0162835
672.944	0.0160593
673.022	0.0158876
673.100	0.0158885
673.178	0.0160845
673.256	0.0159386
673.334	0.0158608
673.413	0.0157612
673.491	0.0156183
673.569	0.0157127
673.647	0.0156647
673.725	0.0155710
673.803	0.0156713
673.881	0.0155602
673.959	0.0154909
674.038	0.0152607
674.116	0.0154082
674.194	0.0152491
674.272	0.0152162
674.350	0.0150960
674.428	0.0149410
674.506	0.0148865
674.584	0.0148537
674.663	0.0145652
674.741	0.0145808
674.819	0.0143552
674.897	0.0142632
674.975	0.0142747
675.053	0.0142963
675.131	0.0141026
675.209	0.0140150
675.288	0.0141843
675.366	0.0142012
675.444	0.0142170
675.522	0.0143221
675.600	0.0144211
675.678	0.0142223
675.756	0.0146120
675.834	0.0146152
675.913	0.0146529
675.991	0.0150365
676.069	0.0151522
676.147	0.0152534
676.225	0.0154444
676.303	0.0154751
676.381	0.0156244
676.459	0.0160326
676.538	0.0161386
676.616	0.0162089
676.694	0.0164259
676.772	0.0167086
676.850	0.0168054
676.928	0.0169361
677.006	0.0172057
677.084	0.0172839
677.163	0.0173791
677.241	0.0175520
677.319	0.0175652
677.397	0.0177541
677.475	0.0175916
677.553	0.0176687
677.631	0.0175509
677.709	0.0173653
677.788	0.0174010
677.866	0.0172709
677.944	0.0170642
678.022	0.0169231
678.100	0.0166216
678.178	0.0164768
678.256	0.0162531
678.334	0.0160151
678.413	0.0158221
678.491	0.0155589
678.569	0.0153842
678.647	0.0152385
678.725	0.0150024
678.803	0.0147325
678.881	0.0145470
678.959	0.0142563
679.038	0.0141721
679.116	0.0140781
679.194	0.0139794
679.272	0.0136214
679.350	0.0137148
679.428	0.0136324
679.506	0.0137522
679.584	0.0135641
679.663	0.0138100
679.741	0.0136983
679.819	0.0138475
679.897	0.0141414
679.975	0.0140875
680.053	0.0141319
680.131	0.0143671
680.209	0.0144836
680.288	0.0146958
680.366	0.0148816
680.444	0.0148969
680.522	0.0151443
680.600	0.0153673
680.678	0.0155211
680.756	0.0157208
680.834	0.0158473
680.913	0.0158709
680.991	0.0162343
681.069	0.0163547
681.147	0.0163340
681.225	0.0163285
681.303	0.0164339
681.381	0.0165594
681.459	0.0166626
681.538	0.0166962
681.616	0.0167067
681.694	0.0166495
681.772	0.0167015
681.850	0.0166434
681.928	0.0167267
682.006	0.0164561
682.084	0.0163928
682.163	0.0164023
682.241	0.0162058
682.319	0.0161525
682.397	0.0159912
682.475	0.0158747
682.553	0.0156100
682.631	0.0156277
682.709	0.0155513
682.788	0.0154794
682.866	0.0152724
682.944	0.0151305
683.022	0.0151581
683.100	0.0150668
683.178	0.0149694
683.256	0.0151602
683.334	0.0152252
683.413	0.0151588
683.491	0.0151314
683.569	0.0152459
683.647	0.0152944
683.725	0.0151831
683.803	0.0154115
683.881	0.0153983
683.959	0.0154046
684.038	0.0155525
684.116	0.0156420
684.194	0.0155685
684.272	0.0154863
684.350	0.0156522
684.428	0.0156239
684.506	0.0156314
684.584	0.0156517
684.663	0.0157095
684.741	0.0158076
684.819	0.0159681
684.897	0.0160485
684.975	0.0161251
685.053	0.0160583
685.131	0.0160210
685.209	0.0160639
685.288	0.0160112
685.366	0.0161456
685.444	0.0161086
685.522	0.0160521
685.600	0.0158961
685.678	0.0159655
685.756	0.0159100
685.834	0.0157687
685.913	0.0156725
685.991	0.0155762
686.069	0.0155610
686.147	0.0152960
686.225	0.0153020
686.303	0.0153697
686.381	0.0151530
686.459	0.0151318
686.538	0.0150476
686.616	0.0149281
686.694	0.0149200
686.772	0.0149586
686.850	0.0148146
686.928	0.0148927
687.006	0.0148202
687.084	0.0149483
687.163	0.0148307
687.241	0.0148660
687.319	0.0150066
687.397	0.0152245
687.475	0.0150145
687.553	0.0151871
687.631	0.0152450
687.709	0.0152000
687.788	0.0152695
687.866	0.0153895
687.944	0.0153278
688.022	0.0153465
688.100	0.0154005
688.178	0.0154865
688.256	0.0154021
688.334	0.0154327
688.413	0.0154507
688.491	0.0155520
688.569	0.0156047
688.647	0.0155029
688.725	0.0155256
688.803	0.0155682
688.881	0.0154983
688.959	0.0155833
689.038	0.0155987
689.116	0.0156405
689.194	0.0157628
689.272	0.0159259
689.350	0.0158082
689.428	0.0160583
689.506	0.0158472
689.584	0.0160502
689.663	0.0162679
689.741	0.0162407
689.819	0.0162606
689.897	0.0163822
689.975	0.0163508
690.053	0.0163309
690.131	0.0164130
690.209	0.0163431
690.288	0.0164137
690.366	0.0164552
690.444	0.0163240
690.522	0.0163801
690.600	0.0160597
690.678	0.0160554
690.756	0.0159972
690.834	0.0161729
690.913	0.0159297
690.991	0.0160810
691.069	0.0160728
691.147	0.0159249
691.225	0.0158631
691.303	0.0160145
691.381	0.0159895
691.459	0.0158527
691.538	0.0158512
691.616	0.0159291
691.694	0.0158775
691.772	0.0158410
691.850	0.0158917
691.928	0.0158466
692.006	0.0157986
692.084	0.0157755
692.163	0.0157887
692.241	0.0158380
692.319	0.0157832
692.397	0.0158486
692.475	0.0156779
692.553	0.0154517
692.631	0.0154942
692.709	0.0155392
692.788	0.0153191
692.866	0.0153722
692.944	0.0153231
693.022	0.0152071
693.100	0.0150637
693.178	0.0148357
693.256	0.0148360
693.334	0.0146780
693.413	0.0145652
693.491	0.0145240
693.569	0.0145097
693.647	0.0145159
693.725	0.0144682
693.803	0.0142272
693.881	0.0142091
693.959	0.0139944
694.038	0.0141739
694.116	0.0140766
694.194	0.0141635
694.272	0.0140436
694.350	0.0141745
694.428	0.0141317
694.506	0.0140540
694.584	0.0142268
694.663	0.0141604
694.741	0.0142893
694.819	0.0145759
694.897	0.0145003
694.975	0.0147667
695.053	0.0149129
695.131	0.0151609
695.209	0.0154179
695.288	0.0157156
695.366	0.0159231
695.444	0.0161691
695.522	0.0166290
695.600	0.0167084
695.678	0.0169814
695.756	0.0172685
695.834	0.0173217
695.913	0.0176418
695.991	0.0178124
696.069	0.0179230
696.147	0.0179900
696.225	0.0180252
696.303	0.0182037
696.381	0.0181437
696.459	0.0180836
696.538	0.0180563
696.616	0.0181186
696.694	0.0178449
696.772	0.0179564
696.850	0.0174653
696.928	0.0173188
697.006	0.0172462
697.084	0.0168243
697.163	0.0166347
697.241	0.0163908
697.319	0.0161320
697.397	0.0157599
697.475	0.0155447
697.553	0.0153495
697.631	0.0150611
697.709	0.0148927
697.788	0.0147694
697.866	0.0143508
697.944	0.0142152
698.022	0.0141084
698.100	0.0138710
698.178	0.0138414
698.256	0.0137951
698.334	0.0136172
698.413	0.0136244
698.491	0.0134632
698.569	0.0134289
698.647	0.0134041
698.725	0.0133566
698.803	0.0133788
698.881	0.0134425
698.959	0.0135588
699.038	0.0134702
699.116	0.0134430
699.194	0.0135813
699.272	0.0134180
699.350	0.0134892
699.428	0.0136370
699.506	0.0138147
699.584	0.0139161
699.663	0.0142406
699.741	0.0141572
699.819	0.0142834
699.897	0.0146487
699.975	0.0148251
700.053	0.0151315
700.131	0.0153527
700.209	0.0156402
700.288	0.0158619
700.366	0.0160699
700.444	0.0165394
700.522	0.0169200
700.600	0.0169421
700.678	0.0171590
700.756	0.0174265
700.834	0.0176740
700.913	0.0178694
700.991	0.0181505
701.069	0.0183279
701.147	0.0183816
701.225	0.0184963
701.303	0.0185003
701.381	0.0186258
701.459	0.0187243
701.538	0.0186338
701.616	0.0184992
701.694	0.0183444
701.772	0.0182784
701.850	0.0180402
701.928	0.0178640
702.006	0.0176069
702.084	0.0173946
702.163	0.0169608
702.241	0.0167022
702.319	0.0162685
702.397	0.0160369
702.475	0.0155929
702.553	0.0153310
702.631	0.0149593
702.709	0.0146124
702.788	0.0143511
702.866	0.0141492
702.944	0.0138627
703.022	0.0138986
703.100	0.0135730
703.178	0.0134830
703.256	0.0135033
703.334	0.0133130
703.413	0.0133625
703.491	0.0134952
703.569	0.0136484
703.647	0.0137148
703.725	0.0138438
703.803	0.0140533
703.881	0.0142015
703.959	0.0144257
704.038	0.0145750
704.116	0.0146066
704.194	0.0147356
704.272	0.0149010
704.350	0.0150869
704.428	0.0150141
704.506	0.0151369
704.584	0.0152686
704.663	0.0153934
704.741	0.0155322
704.819	0.0154765
704.897	0.0154079
704.975	0.0156077
705.053	0.0156991
705.131	0.0157484
705.209	0.0157245
705.288	0.0156864
705.366	0.0157634
705.444	0.0158768
705.522	0.0157747
705.600	0.0158041
705.678	0.0157212
705.756	0.0160167
705.834	0.0160161
705.913	0.0160712
705.991	0.0159912
706.069	0.0160558
706.147	0.0160896
706.225	0.0161873
706.303	0.0163353
706.381	0.0165125
706.459	0.0164716
706.538	0.0165598
706.616	0.0166410
706.694	0.0166963
706.772	0.0165137
706.850	0.0165626
706.928	0.0164409
707.006	0.0164929
707.084	0.0164647
707.163	0.0162051
707.241	0.0161270
707.319	0.0160077
707.397	0.0159398
707.475	0.0156261
707.553	0.0156470
707.631	0.0154269
707.709	0.0153342
707.788	0.0152370
707.866	0.0148724
707.944	0.0150075
708.022	0.0147605
708.100	0.0145935
708.178	0.0144777
708.256	0.0144370
708.334	0.0142369
708.413	0.0140919
708.491	0.0141965
708.569	0.0142199
708.647	0.0143039
708.725	0.0143153
708.803	0.0143983
708.881	0.0145231
708.959	0.0146215
709.038	0.0148670
709.116	0.0149258
709.194	0.0150922
709.272	0.0152383
709.350	0.0155276
709.428	0.0157377
709.506	0.0161121
709.584	0.0161733
709.663	0.0163455
709.741	0.0165597
709.819	0.0167193
709.897	0.0168062
709.975	0.0170213
710.053	0.0170667
710.131	0.0169180
710.209	0.0169041
710.288	0.0168896
710.366	0.0167157
710.444	0.0165862
710.522	0.0164787
710.600	0.0162610
710.678	0.0160505
710.756	0.0158325
710.834	0.0158163
710.913	0.0155280
710.991	0.0152718
711.069	0.0151025
711.147	0.0149279
711.225	0.0149934
711.303	0.0148895
711.381	0.0148071
711.459	0.0147340
711.538	0.0148231
711.616	0.0148212
711.694	0.0147015
711.772	0.0147906
711.850	0.0150084
711.928	0.0150892
712.006	0.0150552
712.084	0.0151614
712.163	0.0153236
712.241	0.0154635
712.319	0.0154848
712.397	0.0156435
712.475	0.0156853
712.553	0.0159047
712.631	0.0157938
712.709	0.0158401
712.788	0.0159586
712.866	0.0158762
712.944	0.0160792
713.022	0.0160223
713.100	0.0159815
713.178	0.0160133
713.256	0.0159167
713.334	0.0159776
713.413	0.0158042
713.491	0.0158043
713.569	0.0158182
713.647	0.0156960
713.725	0.0154660
713.803	0.0155036
713.881	0.0156165
713.959	0.0154797
714.038	0.0154327
714.116	0.0152828
714.194	0.0152247
714.272	0.0152825
714.350	0.0152590
714.428	0.0153304
714.506	0.0151404
714.584	0.0151778
714.663	0.0152495
714.741	0.0152035
714.819	0.0152002
714.897	0.0151997
714.975	0.0150928
715.053	0.0152602
715.131	0.0153210
715.209	0.0154117
715.288	0.0153828
715.366	0.0152048
715.444	0.0154099
715.522	0.0153776
715.600	0.0153190
715.678	0.0153267
715.756	0.0153307
715.834	0.0155183
715.913	0.0154340
715.991	0.0154756
716.069	0.0155177
716.147	0.0155380
716.225	0.0153435
716.303	0.0152973
716.381	0.0152731
716.459	0.0153539
716.538	0.0152209
716.616	0.0151601
716.694	0.0152059
716.772	0.0152829
716.850	0.0154366
716.928	0.0153668
717.006	0.0154324
717.084	0.0156438
717.163	0.0157538
717.241	0.0159609
717.319	0.0161257
717.397	0.0162682
717.475	0.0165125
717.553	0.0166788
717.631	0.0166908
717.709	0.0168343
717.788	0.0170345
717.866	0.0169911
717.944	0.0169770
718.022	0.0170711
718.100	0.0170072
718.178	0.0169463
718.256	0.0169166
718.334	0.0168412
718.413	0.0165781
718.491	0.0163346
718.569	0.0162857
718.647	0.0160495
718.725	0.0158058
718.803	0.0157920
718.881	0.0157427
718.959	0.0155215
719.038	0.0153337
719.116	0.0152786
719.194	0.0151820
719.272	0.0150978
719.350	0.0150477
719.428	0.0150036
719.506	0.0150038
719.584	0.0150507
719.663	0.0151338
719.741	0.0150362
719.819	0.0150605
719.897	0.0150132
719.975	0.0150691
720.053	0.0150718
720.131	0.0151947
720.209	0.0152758
720.288	0.0151019
720.366	0.0152415
720.444	0.0152521
720.522	0.0151633
720.600	0.0153094
720.678	0.0151080
720.756	0.0152275
720.834	0.0151859
720.913	0.0153619
720.991	0.0152276
721.069	0.0151379
721.147	0.0152576
721.225	0.0152682
721.303	0.0152472
721.381	0.0151349
721.459	0.0152454
721.538	0.0154621
721.616	0.0154306
721.694	0.0155193
721.772	0.0154655
721.850	0.0155310
721.928	0.0155795
722.006	0.0155348
722.084	0.0157784
722.163	0.0158031
722.241	0.0157193
722.319	0.0157484
722.397	0.0158411
722.475	0.0157659
722.553	0.0157462
722.631	0.0156639
722.709	0.0156875
722.788	0.0157042
722.866	0.0156028
722.944	0.0157111
723.022	0.0155891
723.100	0.0155674
723.178	0.0153963
723.256	0.0155820
723.334	0.0156822
723.413	0.0156483
723.491	0.0158028
723.569	0.0158351
723.647	0.0158259
723.725	0.0159527
723.803	0.0160052
723.881	0.0161890
723.959	0.0162978
724.038	0.0163789
724.116	0.0164779
724.194	0.0164746
724.272	0.0164553
724.350	0.0163529
724.428	0.0164848
724.506	0.0163843
724.584	0.0163458
724.663	0.0163439
724.741	0.0161761
724.819	0.0162669
724.897	0.0162203
724.975	0.0158557
725.053	0.0159660
725.131	0.0158268
725.209	0.0159082
725.288	0.0157705
725.366	0.0157643
725.444	0.0157018
725.522	0.0155471
725.600	0.0153893
725.678	0.0153454
725.756	0.0151838
725.834	0.0151932
725.913	0.0149989
725.991	0.0147661
726.069	0.0148329
726.147	0.0146844
726.225	0.0145484
726.303	0.0143799
726.381	0.0143076
726.459	0.0143707
726.538	0.0140915
726.616	0.0140791
726.694	0.0141048
726.772	0.0140212
726.850	0.0139816
726.928	0.0138873
727.006	0.0139763
727.084	0.0140108
727.163	0.0141517
727.241	0.0141216
727.319	0.0143232
727.397	0.0144220
727.475	0.0146448
727.553	0.0146622
727.631	0.0147174
727.709	0.0150263
727.788	0.0151974
727.866	0.0156033
727.944	0.0158500
728.022	0.0158804
728.100	0.0161967
728.178	0.0164578
728.256	0.0165912
728.334	0.0166651
728.413	0.0167837
728.491	0.0169399
728.569	0.0170640
728.647	0.0171546
728.725	0.0172353
728.803	0.0172908
728.881	0.0171075
728.959	0.0172520
729.038	0.0168984
729.116	0.0168819
729.194	0.0167534
729.272	0.0167727
729.350	0.0165691
729.428	0.0166011
729.506	0.0163316
729.584	0.0161395
729.663	0.0161263
729.741	0.0159274
729.819	0.0157446
729.897	0.0155836
729.975	0.0154933
730.053	0.0154044
730.131	0.0153144
730.209	0.0152252
730.288	0.0152189
730.366	0.0152194
730.444	0.0150180
730.522	0.0150352
730.600	0.0150066
730.678	0.0150946
730.756	0.0151910
730.834	0.0151721
730.913	0.0151244
730.991	0.0152492
731.069	0.0153703
731.147	0.0154351
731.225	0.0154716
731.303	0.0155009
731.381	0.0155412
731.459	0.0155833
731.538	0.0156103
731.616	0.0155196
731.694	0.0156049
731.772	0.0156408
731.850	0.0156512
731.928	0.0155709
732.006	0.0153969
732.084	0.0153660
732.163	0.0153748
732.241	0.0152628
732.319	0.0152483
732.397	0.0153293
732.475	0.0152927
732.553	0.0152810
732.631	0.0152433
732.709	0.0151936
732.788	0.0151759
732.866	0.0151392
732.944	0.0154039
733.022	0.0151685
733.100	0.0152885
733.178	0.0154351
733.256	0.0152647
733.334	0.0154233
733.413	0.0155588
733.491	0.0155905
733.569	0.0156087
733.647	0.0156742
733.725	0.0157597
733.803	0.0158953
733.881	0.0160007
733.959	0.0160297
734.038	0.0160794
734.116	0.0161684
734.194	0.0161132
734.272	0.0162464
734.350	0.0162172
734.428	0.0160641
734.506	0.0160606
734.584	0.0160631
734.663	0.0160149
734.741	0.0157642
734.819	0.0157246
734.897	0.0157728
734.975	0.0156185
735.053	0.0156055
735.131	0.0155988
735.209	0.0155320
735.288	0.0153313
735.366	0.0153496
735.444	0.0152625
735.522	0.0151847
735.600	0.0153251
735.678	0.0151881
735.756	0.0152554
735.834	0.0151595
735.913	0.0152640
735.991	0.0150333
736.069	0.0150298
736.147	0.0151079
736.225	0.0150142
736.303	0.0150028
736.381	0.0149787
736.459	0.0150236
736.538	0.0149300
736.616	0.0149496
736.694	0.0148942
736.772	0.0148814
736.850	0.0148907
736.928	0.0149393
737.006	0.0150700
737.084	0.0148657
737.163	0.0150832
737.241	0.0151585
737.319	0.0152133
737.397	0.0152654
737.475	0.0152167
737.553	0.0154240
737.631	0.0154726
737.709	0.0157526
737.788	0.0157822
737.866	0.0159406
737.944	0.0159888
738.022	0.0161546
738.100	0.0162389
738.178	0.0164555
738.256	0.0163998
738.334	0.0165983
738.413	0.0165023
738.491	0.0165954
738.569	0.0166131
738.647	0.0165882
738.725	0.0166241
738.803	0.0165804
738.881	0.0164658
738.959	0.0164258
739.038	0.0164568
739.116	0.0162473
739.194	0.0161563
739.272	0.0162464
739.350	0.0160099
739.428	0.0159036
739.506	0.0156605
739.584	0.0158044
739.663	0.0154192
739.741	0.0153806
739.819	0.0152386
739.897	0.0151531
739.975	0.0151839
740.053	0.0150071
740.131	0.0150032
740.209	0.0149977
740.288	0.0148011
740.366	0.0149583
740.444	0.0150584
740.522	0.0150675
740.600	0.0149076
740.678	0.0149850
740.756	0.0150470
740.834	0.0149879
740.913	0.0151919
740.991	0.0152141
741.069	0.0151800
741.147	0.0153827
741.225	0.0154124
741.303	0.0154510
741.381	0.0154050
741.459	0.0153510
741.538	0.0152699
741.616	0.0153261
741.694	0.0153611
741.772	0.0154169
741.850	0.0153506
741.928	0.0154183
742.006	0.0153633
742.084	0.0156697
742.163	0.0155582
742.241	0.0157596
742.319	0.0159918
742.397	0.0159737
742.475	0.0161100
742.553	0.0162412
742.631	0.0164347
742.709	0.0166212
742.788	0.0166637
742.866	0.0167126
742.944	0.0167849
743.022	0.0167608
743.100	0.0169864
743.178	0.0169458
743.256	0.0168398
743.334	0.0169214
743.413	0.0167608
743.491	0.0167264
743.569	0.0168089
743.647	0.0165863
743.725	0.0162088
743.803	0.0161842
743.881	0.0157908
743.959	0.0156517
744.038	0.0155135
744.116	0.0153005
744.194	0.0151311
744.272	0.0149493
744.350	0.0148112
744.428	0.0146493
744.506	0.0144827
744.584	0.0144604
744.663	0.0143581
744.741	0.0144822
744.819	0.0144540
744.897	0.0145366
744.975	0.0145827
745.053	0.0145927
745.131	0.0148495
745.209	0.0151677
745.288	0.0149932
745.366	0.0152898
745.444	0.0153916
745.522	0.0156224
745.600	0.0157155
745.678	0.0155725
745.756	0.0156631
745.834	0.0158051
745.913	0.0158279
745.991	0.0159013
746.069	0.0157970
746.147	0.0158703
746.225	0.0157381
746.303	0.0158170
746.381	0.0157086
746.459	0.0155424
746.538	0.0155396
746.616	0.0156010
746.694	0.0155605
746.772	0.0153976
746.850	0.0155811
746.928	0.0157079
747.006	0.0155692
747.084	0.0157253
747.163	0.0157594
747.241	0.0158981
747.319	0.0160461
747.397	0.0160463
747.475	0.0160123
747.553	0.0161437
747.631	0.0162620
747.709	0.0162313
747.788	0.0164317
747.866	0.0164011
747.944	0.0164808
748.022	0.0164872
748.100	0.0163390
748.178	0.0165371
748.256	0.0164077
748.334	0.0162404
748.413	0.0161230
748.491	0.0159554
748.569	0.0157903
748.647	0.0156969
748.725	0.0157685
748.803	0.0153426
748.881	0.0153185
748.959	0.0153667
749.038	0.0150468
749.116	0.0148917
749.194	0.0147826
749.272	0.0148792
749.350	0.0145505
749.428	0.0145921
749.506	0.0146246
749.584	0.0145597
749.663	0.0146356
749.741	0.0146079
749.819	0.0144777
749.897	0.0145024
749.975	0.0146791
750.053	0.0148646
750.131	0.0148846
750.209	0.0150829
750.288	0.0151174
750.366	0.0152530
750.444	0.0155154
750.522	0.0155312
750.600	0.0155609
750.678	0.0157971
750.756	0.0159839
750.834	0.0160628
750.913	0.0160562
750.991	0.0162037
751.069	0.0161769
751.147	0.0162666
751.225	0.0162386
751.303	0.0162127
751.381	0.0160699
751.459	0.0162418
751.538	0.0162535
751.616	0.0160141
751.694	0.0159230
751.772	0.0157540
751.850	0.0157009
751.928	0.0157088
752.006	0.0154017
752.084	0.0153316
752.163	0.0153335
752.241	0.0153189
752.319	0.0152467
752.397	0.0150373
752.475	0.0150814
752.553	0.0151353
752.631	0.0152139
752.709	0.0152957
752.788	0.0152132
752.866	0.0155167
752.944	0.0153614
753.022	0.0154891
753.100	0.0156925
753.178	0.0155111
753.256	0.0157990
753.334	0.0157668
753.413	0.0158192
753.491	0.0159782
753.569	0.0159531
753.647	0.0158686
753.725	0.0158876
753.803	0.0160294
753.881	0.0159814
753.959	0.0160909
754.038	0.0160287
754.116	0.0160618
754.194	0.0159828
754.272	0.0159610
754.350	0.0160308
754.428	0.0158803
754.506	0.0157911
754.584	0.0159311
754.663	0.0159179
754.741	0.0158361
754.819	0.0157643
754.897	0.0156522
754.975	0.0157973
755.053	0.0155946
755.131	0.0156782
755.209	0.0157516
755.288	0.0155170
755.366	0.0155283
755.444	0.0155714
755.522	0.0156409
755.600	0.0156572
755.678	0.0155832
755.756	0.0157081
755.834	0.0157188
755.913	0.0157031
755.991	0.0158821
756.069	0.0158030
756.147	0.0159415
756.225	0.0159406
756.303	0.0159035
756.381	0.0158089
756.459	0.0156419
756.538	0.0157598
756.616	0.0157080
756.694	0.0154903
756.772	0.0153532
756.850	0.0154109
756.928	0.0152738
757.006	0.0149603
757.084	0.0147309
757.163	0.0147105
757.241	0.0146261
757.319	0.0144990
757.397	0.0143788
757.475	0.0142376
757.553	0.0142535
757.631	0.0141245
757.709	0.0142569
757.788	0.0141152
757.866	0.0141881
757.944	0.0142847
758.022	0.0144353
758.100	0.0145862
758.178	0.0147579
758.256	0.0147569
758.334	0.0148666
758.413	0.0150835
758.491	0.0153253
758.569	0.0154376
758.647	0.0158002
758.725	0.0160268
758.803	0.0162645
758.881	0.0163622
758.959	0.0164886
759.038	0.0166518
759.116	0.0168275
759.194	0.0167726
759.272	0.0168465
759.350	0.0169315
759.428	0.0168356
759.506	0.0168562
759.584	0.0168536
759.663	0.0166968
759.741	0.0166962
759.819	0.0164721
759.897	0.0163478
759.975	0.0162323
760.053	0.0159555
760.131	0.0159030
760.209	0.0157941
760.288	0.0155984
760.366	0.0155785
760.444	0.0153053
760.522	0.0152705
760.600	0.0152644
760.678	0.0151212
760.756	0.0149574
760.834	0.0152085
760.913	0.0150647
760.991	0.0151376
761.069	0.0152168
761.147	0.0152863
761.225	0.0153249
761.303	0.0153673
761.381	0.0153087
761.459	0.0153943
761.538	0.0155386
761.616	0.0157016
761.694	0.0156696
761.772	0.0155312
761.850	0.0157384
761.928	0.0158598
762.006	0.0158216
762.084	0.0157108
762.163	0.0158263
762.241	0.0159320
762.319	0.0157997
762.397	0.0158286
762.475	0.0159955
762.553	0.0159439
762.631	0.0158354
762.709	0.0158803
762.788	0.0159249
762.866	0.0159594
762.944	0.0160087
763.022	0.0158592
763.100	0.0159176
763.178	0.0159962
763.256	0.0158167
763.334	0.0159035
763.413	0.0160072
763.491	0.0159515
763.569	0.0158863
763.647	0.0157921
763.725	0.0159203
763.803	0.0158549
763.881	0.0159092
763.959	0.0158890
764.038	0.0157378
764.116	0.0157579
764.194	0.0157349
764.272	0.0157006
764.350	0.0156911
764.428	0.0156347
764.506	0.0153752
764.584	0.0153131
764.663	0.0154884
764.741	0.0153142
764.819	0.0154082
764.897	0.0153557
764.975	0.0153525
765.053	0.0154054
765.131	0.0153009
765.209	0.0152133
765.288	0.0152532
765.366	0.0151458
765.444	0.0152366
765.522	0.0152660
765.600	0.0149376
765.678	0.0149805
765.756	0.0150191
765.834	0.0149130
765.913	0.0150684
765.991	0.0151466
766.069	0.0150392
766.147	0.0150776
766.225	0.0150730
766.303	0.0151849
766.381	0.0150586
766.459	0.0151685
766.538	0.0151376
766.616	0.0149923
766.694	0.0151571
766.772	0.0151542
766.850	0.0151153
766.928	0.0152911
767.006	0.0152879
767.084	0.0152630
767.163	0.0153872
767.241	0.0154198
767.319	0.0154181
767.397	0.0155067
767.475	0.0154617
767.553	0.0154416
767.631	0.0154856
767.709	0.0156756
767.788	0.0157588
767.866	0.0156906
767.944	0.0158820
768.022	0.0157983
768.100	0.0160072
768.178	0.0160486
768.256	0.0160684
768.334	0.0162020
768.413	0.0162148
768.491	0.0160725
768.569	0.0161161
768.647	0.0160498
768.725	0.0162286
768.803	0.0162236
768.881	0.0163950
768.959	0.0161333
769.038	0.0161872
769.116	0.0161964
769.194	0.0160239
769.272	0.0160378
769.350	0.0160194
769.428	0.0159564
769.506	0.0158308
769.584	0.0157896
769.663	0.0156998
769.741	0.0156794
769.819	0.0155665
769.897	0.0155811
769.975	0.0156525
770.053	0.0154720
770.131	0.0154475
770.209	0.0154359
770.288	0.0153628
770.366	0.0153493
770.444	0.0153512
770.522	0.0156047
770.600	0.0153857
770.678	0.0155137
770.756	0.0155824
770.834	0.0155376
770.913	0.0154988
770.991	0.0156522
771.069	0.0156234
771.147	0.0158362
771.225	0.0156903
771.303	0.0157047
771.381	0.0156839
771.459	0.0157208
771.538	0.0158115
771.616	0.0157633
771.694	0.0158544
771.772	0.0157171
771.850	0.0157661
771.928	0.0157069
772.006	0.0155826
772.084	0.0155200
772.163	0.0155777
772.241	0.0155203
772.319	0.0156427
772.397	0.0155476
772.475	0.0155127
772.553	0.0155324
772.631	0.0156590
772.709	0.0155367
772.788	0.0157662
772.866	0.0155920
772.944	0.0156067
773.022	0.0157219
773.100	0.0157804
773.178	0.0157611
773.256	0.0158456
773.334	0.0159037
773.413	0.0158633
773.491	0.0157928
773.569	0.0157958
773.647	0.0158926
773.725	0.0159767
773.803	0.0158504
773.881	0.0157909
773.959	0.0159671
774.038	0.0158629
774.116	0.0157049
774.194	0.0157919
774.272	0.0157520
774.350	0.0157235
774.428	0.0155757
774.506	0.0155081
774.584	0.0154847
774.663	0.0153665
774.741	0.0153521
774.819	0.0154510
774.897	0.0152007
774.975	0.0152913
775.053	0.0152238
775.131	0.0151891
775.209	0.0151199
775.288	0.0152019
775.366	0.0151764
775.444	0.0151666
775.522	0.0150940
775.600	0.0152390
775.678	0.0150755
775.756	0.0151342
775.834	0.0153951
775.913	0.0154539
775.991	0.0151573
776.069	0.0153840
776.147	0.0155438
776.225	0.0154099
776.303	0.0154846
776.381	0.0155900
776.459	0.0156898
776.538	0.0155863
776.616	0.0159328
776.694	0.0158380
776.772	0.0159632
776.850	0.0159293
776.928	0.0160099
777.006	0.0158698
777.084	0.0159807
777.163	0.0159584
777.241	0.0159769
777.319	0.0158031
777.397	0.0159000
777.475	0.0158212
777.553	0.0156576
777.631	0.0156451
777.709	0.0155454
777.788	0.0154989
777.866	0.0153535
777.944	0.0155016
778.022	0.0155072
778.100	0.0153295
778.178	0.0152055
778.256	0.0151123
778.334	0.0151761
778.413	0.0151190
778.491	0.0152515
778.569	0.0151910
778.647	0.0151575
778.725	0.0153193
778.803	0.0153265
778.881	0.0152489
778.959	0.0152685
779.038	0.0153226
779.116	0.0154707
779.194	0.0154937
779.272	0.0155405
779.350	0.0156579
779.428	0.0157129
779.506	0.0159103
779.584	0.0157961
779.663	0.0159156
779.741	0.0158841
779.819	0.0158702
779.897	0.0160860
779.975	0.0160733
780.053	0.0159492
780.131	0.0159676
780.209	0.0159975
780.288	0.0159299
780.366	0.0157917
780.444	0.0157052
780.522	0.0158701
780.600	0.0157299
780.678	0.0156255
780.756	0.0155100
780.834	0.0154850
780.913	0.0153902
780.991	0.0153775
781.069	0.0153933
781.147	0.0153384
781.225	0.0153298
781.303	0.0153790
781.381	0.0154454
781.459	0.0154006
781.538	0.0154243
781.616	0.0154263
781.694	0.0154335
781.772	0.0154512
781.850	0.0154873
781.928	0.0155653
782.006	0.0154848
782.084	0.0155686
782.163	0.0157132
782.241	0.0155714
782.319	0.0157143
782.397	0.0157128
782.475	0.0157479
782.553	0.0158369
782.631	0.0158117
782.709	0.0159123
782.788	0.0159554
782.866	0.0159127
782.944	0.0159689
783.022	0.0158327
783.100	0.0157887
783.178	0.0159091
783.256	0.0159282
783.334	0.0157864
783.413	0.0158349
783.491	0.0158356
783.569	0.0157638
783.647	0.0156573
783.725	0.0156836
783.803	0.0156667
783.881	0.0156569
783.959	0.0156030
784.038	0.0155769
784.116	0.0156382
784.194	0.0154393
784.272	0.0153805
784.350	0.0153287
784.428	0.0154592
784.506	0.0153781
784.584	0.0152879
784.663	0.0153117
784.741	0.0152399
784.819	0.0152949
784.897	0.0151730
784.975	0.0152460
785.053	0.0152377
785.131	0.0152983
785.209	0.0152443
785.288	0.0152324
785.366	0.0152659
785.444	0.0154161
785.522	0.0153867
785.600	0.0153517
785.678	0.0152881
785.756	0.0154752
785.834	0.0155770
785.913	0.0153931
785.991	0.0157480
786.069	0.0156803
786.147	0.0158341
786.225	0.0159235
786.303	0.0159605
786.381	0.0159527
786.459	0.0160429
786.538	0.0161557
786.616	0.0161024
786.694	0.0162715
786.772	0.0161264
786.850	0.0160950
786.928	0.0161878
787.006	0.0161145
787.084	0.0160245
787.163	0.0161188
787.241	0.0159515
787.319	0.0158610
787.397	0.0158720
787.475	0.0158089
787.553	0.0157722
787.631	0.0157932
787.709	0.0157987
787.788	0.0156717
787.866	0.0155744
787.944	0.0155233
788.022	0.0154131
788.100	0.0154359
788.178	0.0152652
788.256	0.0153300
788.334	0.0152852
788.413	0.0153244
788.491	0.0152785
788.569	0.0152666
788.647	0.0153059
788.725	0.0153036
788.803	0.0152616
788.881	0.0153963
788.959	0.0154543
789.038	0.0154062
789.116	0.0154364
789.194	0.0154341
789.272	0.0155278
789.350	0.0154044
789.428	0.0154700
789.506	0.0154990
789.584	0.0155286
789.663	0.0155059
789.741	0.0153195
789.819	0.0153572
789.897	0.0152888
789.975	0.0153609
790.053	0.0152566
790.131	0.0151820
790.209	0.0154128
790.288	0.0154455
790.366	0.0152759
790.444	0.0152661
790.522	0.0153786
790.600	0.0154199
790.678	0.0154189
790.756	0.0153968
790.834	0.0154253
790.913	0.0154413
790.991	0.0154706
791.069	0.0156693
791.147	0.0156495
791.225	0.0156029
791.303	0.0157252
791.381	0.0157268
791.459	0.0157950
791.538	0.0159014
791.616	0.0159328
791.694	0.0160525
791.772	0.0160526
791.850	0.0161356
791.928	0.0161420
792.006	0.0161066
792.084	0.0163183
792.163	0.0163221
792.241	0.0163537
792.319	0.0163331
792.397	0.0161785
792.475	0.0162135
792.553	0.0162550
792.631	0.0161450
792.709	0.0161043
792.788	0.0161008
792.866	0.0160004
792.944	0.0158421
793.022	0.0158845
793.100	0.0158165
793.178	0.0157095
793.256	0.0157782
793.334	0.0156062
793.413	0.0155710
793.491	0.0154805
793.569	0.0153688
793.647	0.0153295
793.725	0.0152662
793.803	0.0152068
793.881	0.0151555
793.959	0.0151620
794.038	0.0150761
794.116	0.0151492
794.194	0.0150549
794.272	0.0150635
794.350	0.0150461
794.428	0.0150906
794.506	0.0151501
794.584	0.0149493
794.663	0.0151077
794.741	0.0149585
794.819	0.0151311
794.897	0.0152313
794.975	0.0150415
795.053	0.0151129
795.131	0.0152106
795.209	0.0152168
795.288	0.0152940
795.366	0.0152213
795.444	0.0152499
795.522	0.0154649
795.600	0.0152883
795.678	0.0154333
795.756	0.0154050
795.834	0.0153924
795.913	0.0152498
795.991	0.0153188
796.069	0.0154000
796.147	0.0155040
796.225	0.0155914
796.303	0.0154935
796.381	0.0156016
796.459	0.0155927
796.538	0.0156115
796.616	0.0156837
796.694	0.0155216
796.772	0.0157037
796.850	0.0156343
796.928	0.0156332
797.006	0.0157298
797.084	0.0159172
797.163	0.0159240
797.241	0.0157166
797.319	0.0159287
797.397	0.0159612
797.475	0.0159145
797.553	0.0159917
797.631	0.0159845
797.709	0.0159068
797.788	0.0160445
797.866	0.0160231
797.944	0.0161023
798.022	0.0160196
798.100	0.0161304
798.178	0.0159906
798.256	0.0159645
798.334	0.0160465
798.413	0.0159366
798.491	0.0158673
798.569	0.0157976
798.647	0.0158631
798.725	0.0157712
798.803	0.0158356
798.881	0.0157221
798.959	0.0156638
799.038	0.0155737
799.116	0.0156346
799.194	0.0155099
799.272	0.0153632
799.350	0.0154314
799.428	0.0153524
799.506	0.0153825
799.584	0.0153125
799.663	0.0153622
799.741	0.0153005
799.819	0.0154102
799.897	0.0154350
799.975	0.0153423
800.053	0.0153927
800.131	0.0153873
800.209	0.0153798
800.288	0.0155969
800.366	0.0156418
800.444	0.0155665
800.522	0.0156985
800.600	0.0156087
800.678	0.0156067
800.756	0.0155260
800.834	0.0157462
800.913	0.0156009
800.991	0.0155012
801.069	0.0156205
801.147	0.0155989
801.225	0.0155549
801.303	0.0155449
801.381	0.0154827
801.459	0.0154026
801.538	0.0153339
801.616	0.0153741
801.694	0.0153988
801.772	0.0153150
801.850	0.0153760
801.928	0.0153893
802.006	0.0153110
802.084	0.0152902
802.163	0.0153338
802.241	0.0154173
802.319	0.0153206
802.397	0.0155413
802.475	0.0156132
802.553	0.0156601
802.631	0.0155696
802.709	0.0156448
802.788	0.0156676
802.866	0.0154453
802.944	0.0157079
803.022	0.0157294
803.100	0.0157216
803.178	0.0157782
803.256	0.0159966
803.334	0.0156824
803.413	0.0157519
803.491	0.0157764
803.569	0.0158141
803.647	0.0158762
803.725	0.0157566
803.803	0.0157648
803.881	0.0156882
803.959	0.0157647
804.038	0.0158392
804.116	0.0157204
804.194	0.0156091
804.272	0.0156867
804.350	0.0157903
804.428	0.0156959
804.506	0.0156009
804.584	0.0154903
804.663	0.0156036
804.741	0.0155477
804.819	0.0154131
804.897	0.0154693
804.975	0.0153738
805.053	0.0152632
805.131	0.0153060
805.209	0.0153431
805.288	0.0153613
805.366	0.0153258
805.444	0.0152271
805.522	0.0151728
805.600	0.0152369
805.678	0.0152177
805.756	0.0153407
805.834	0.0152601
805.913	0.0151551
805.991	0.0152700
806.069	0.0152826
806.147	0.0154015
806.225	0.0154581
806.303	0.0153376
806.381	0.0154328
806.459	0.0153915
806.538	0.0153786
806.616	0.0154446
806.694	0.0154520
806.772	0.0155855
806.850	0.0154314
806.928	0.0154285
807.006	0.0155602
807.084	0.0156138
807.163	0.0155712
807.241	0.0154732
807.319	0.0156332
807.397	0.0156037
807.475	0.0156871
807.553	0.0156136
807.631	0.0156100
807.709	0.0154337
807.788	0.0156484
807.866	0.0156987
807.944	0.0156171
808.022	0.0155565
808.100	0.0157207
808.178	0.0156053
808.256	0.0156626
808.334	0.0155924
808.413	0.0155769
808.491	0.0156573
808.569	0.0157378
808.647	0.0157466
808.725	0.0157533
808.803	0.0156473
808.881	0.0158096
808.959	0.0157832
809.038	0.0157052
809.116	0.0157744
809.194	0.0158414
809.272	0.0157562
809.350	0.0156845
809.428	0.0159116
809.506	0.0157010
809.584	0.0158652
809.663	0.0158004
809.741	0.0157578
809.819	0.0158214
809.897	0.0157159
809.975	0.0157602
810.053	0.0157145
810.131	0.0157227
810.209	0.0157795
810.288	0.0157718
810.366	0.0157880
810.444	0.0156619
810.522	0.0157285
810.600	0.0157520
810.678	0.0157376
810.756	0.0155286
810.834	0.0155542
810.913	0.0155627
810.991	0.0154501
811.069	0.0154514
811.147	0.0155519
811.225	0.0154836
811.303	0.0154733
811.381	0.0153899
811.459	0.0153671
811.538	0.0153912
811.616	0.0154281
811.694	0.0151743
811.772	0.0152958
811.850	0.0153201
811.928	0.0152718
812.006	0.0154047
812.084	0.0153057
812.163	0.0152646
812.241	0.0152696
812.319	0.0152445
812.397	0.0152010
812.475	0.0152886
812.553	0.0153538
812.631	0.0153577
812.709	0.0155277
812.788	0.0153097
812.866	0.0153743
812.944	0.0154811
813.022	0.0156389
813.100	0.0155080
813.178	0.0156277
813.256	0.0154871
813.334	0.0155691
813.413	0.0156425
813.491	0.0158624
813.569	0.0157593
813.647	0.0156161
813.725	0.0156686
813.803	0.0155013
813.881	0.0155843
813.959	0.0157496
814.038	0.0157932
814.116	0.0157687
814.194	0.0157600
814.272	0.0157791
814.350	0.0156922
814.428	0.0158617
814.506	0.0157733
814.584	0.0156598
814.663	0.0157999
814.741	0.0156071
814.819	0.0157959
814.897	0.0157457
814.975	0.0157525
815.053	0.0156887
815.131	0.0157094
815.209	0.0157069
815.288	0.0156798
815.366	0.0156259
815.444	0.0156234
815.522	0.0157684
815.600	0.0157330
815.678	0.0155849
815.756	0.0155864
815.834	0.0155056
815.913	0.0155805
815.991	0.0155196
816.069	0.0155748
816.147	0.0156735
816.225	0.0155517
816.303	0.0156999
816.381	0.0154667
816.459	0.0155690
816.538	0.0155168
816.616	0.0155392
816.694	0.0154986
816.772	0.0155487
816.850	0.0155615
816.928	0.0156244
817.006	0.0154536
817.084	0.0155114
817.163	0.0154907
817.241	0.0155423
817.319	0.0153952
817.397	0.0154665
817.475	0.0155541
817.553	0.0154716
817.631	0.0154356
817.709	0.0155225
817.788	0.0154622
817.866	0.0154974
817.944	0.0156787
818.022	0.0156155
818.100	0.0156710
818.178	0.0156342
818.256	0.0155975
818.334	0.0155491
818.413	0.0156750
818.491	0.0156254
818.569	0.0157830
818.647	0.0155489
818.725	0.0155772
818.803	0.0157197
818.881	0.0155656
818.959	0.0156775
819.038	0.0158413
819.116	0.0156291
819.194	0.0156728
819.272	0.0157139
819.350	0.0157775
819.428	0.0156367
819.506	0.0157567
819.584	0.0157250
819.663	0.0156741
819.741	0.0154944
819.819	0.0156327
819.897	0.0157016
819.975	0.0157023
820.053	0.0157003
820.131	0.0155654
820.209	0.0156414
820.288	0.0156188
820.366	0.0156779
820.444	0.0156528
820.522	0.0156005
820.600	0.0155727
820.678	0.0154047
820.756	0.0153828
820.834	0.0155630
820.913	0.0155992
820.991	0.0155092
821.069	0.0155594
821.147	0.0154715
821.225	0.0155136
821.303	0.0156840
821.381	0.0157241
821.459	0.0156029
821.538	0.0155853
821.616	0.0155711
821.694	0.0155988
821.772	0.0156550
821.850	0.0155307
821.928	0.0155546
822.006	0.0156401
822.084	0.0156464
822.163	0.0157354
822.241	0.0155567
822.319	0.0156151
822.397	0.0155635
822.475	0.0156065
822.553	0.0156535
822.631	0.0156467
822.709	0.0155474
822.788	0.0155447
822.866	0.0156139
822.944	0.0156199
823.022	0.0154671
823.100	0.0155302
823.178	0.0154604
823.256	0.0155340
823.334	0.0155750
823.413	0.0155641
823.491	0.0154055
823.569	0.0154443
823.647	0.0154188
823.725	0.0155754
823.803	0.0155058
823.881	0.0154290
823.959	0.0154942
824.038	0.0156121
824.116	0.0154667
824.194	0.0155298
824.272	0.0155312
824.350	0.0156746
824.428	0.0156232
824.506	0.0156989
824.584	0.0157188
824.663	0.0158186
824.741	0.0157427
824.819	0.0156125
824.897	0.0155688
824.975	0.0157343
825.053	0.0156977
825.131	0.0156846
825.209	0.0156039
825.288	0.0157386
825.366	0.0156784
825.444	0.0155167
825.522	0.0155685
825.600	0.0156461
825.678	0.0155849
825.756	0.0154829
825.834	0.0154794
825.913	0.0155541
825.991	0.0154704
826.069	0.0154443
826.147	0.0153991
826.225	0.0155869
826.303	0.0154345
826.381	0.0153796
826.459	0.0155273
826.538	0.0154417
826.616	0.0154816
826.694	0.0153903
826.772	0.0152738
826.850	0.0153662
826.928	0.0153947
827.006	0.0154989
827.084	0.0154224
827.163	0.0154084
827.241	0.0154172
827.319	0.0154984
827.397	0.0153811
827.475	0.0154135
827.553	0.0154492
827.631	0.0152916
827.709	0.0153864
827.788	0.0155297
827.866	0.0156050
827.944	0.0155067
828.022	0.0154794
828.100	0.0154674
828.178	0.0154810
828.256	0.0156844
828.334	0.0156241
828.413	0.0155468
828.491	0.0155746
828.569	0.0154446
828.647	0.0155444
828.725	0.0154760
828.803	0.0154986
828.881	0.0155424
828.959	0.0155150
829.038	0.0155807
829.116	0.0155652
829.194	0.0155915
829.272	0.0155310
829.350	0.0156749
829.428	0.0154998
829.506	0.0156286
829.584	0.0156281
829.663	0.0154646
829.741	0.0155920
829.819	0.0156425
829.897	0.0156905
829.975	0.0156462
830.053	0.0156791
830.131	0.0156627
830.209	0.0156094
830.288	0.0157373
830.366	0.0156557
830.444	0.0156628
830.522	0.0158183
830.600	0.0158241
830.678	0.0158117
830.756	0.0157431
830.834	0.0159295
830.913	0.0157163
830.991	0.0156860
831.069	0.0157504
831.147	0.0157026
831.225	0.0157922
831.303	0.0157762
831.381	0.0157130
831.459	0.0156806
831.538	0.0157626
831.616	0.0157817
831.694	0.0157736
831.772	0.0156323
831.850	0.0156774
831.928	0.0156291
832.006	0.0156325
832.084	0.0156165
832.163	0.0154596
832.241	0.0156770
832.319	0.0156012
832.397	0.0153864
832.475	0.0156219
832.553	0.0155373
832.631	0.0156065
832.709	0.0155403
832.788	0.0155190
832.866	0.0154736
832.944	0.0156020
833.022	0.0154457
833.100	0.0154411
833.178	0.0155434
833.256	0.0154279
833.334	0.0154932
833.413	0.0155508
833.491	0.0156331
833.569	0.0156282
833.647	0.0155962
833.725	0.0155173
833.803	0.0155602
833.881	0.0155129
833.959	0.0155794
834.038	0.0155390
834.116	0.0155811
834.194	0.0155443
834.272	0.0156180
834.350	0.0155939
834.428	0.0155019
834.506	0.0155241
834.584	0.0157042
834.663	0.0154852
834.741	0.0156674
834.819	0.0156184
834.897	0.0155807
834.975	0.0154518
835.053	0.0156174
835.131	0.0157118
835.209	0.0155965
835.288	0.0155466
835.366	0.0155181
835.444	0.0156310
835.522	0.0156505
835.600	0.0155431
835.678	0.0155110
835.756	0.0155801
835.834	0.0156104
835.913	0.0155802
835.991	0.0154799
836.069	0.0155127
836.147	0.0154104
836.225	0.0153525
836.303	0.0153040
836.381	0.0154459
836.459	0.0155094
836.538	0.0153454
836.616	0.0153724
836.694	0.0155135
836.772	0.0154338
836.850	0.0154742
836.928	0.0153664
837.006	0.0153665
837.084	0.0153956
837.163	0.0155112
837.241	0.0153943
837.319	0.0154464
837.397	0.0154300
837.475	0.0154641
837.553	0.0155323
837.631	0.0153021
837.709	0.0155752
837.788	0.0154995
837.866	0.0153777
837.944	0.0155145
838.022	0.0154583
838.100	0.0153842
838.178	0.0154829
838.256	0.0155943
838.334	0.0155029
838.413	0.0156411
838.491	0.0157391
838.569	0.0155602
838.647	0.0156550
838.725	0.0157786
838.803	0.0156724
838.881	0.0157076
838.959	0.0157941
839.038	0.0158337
839.116	0.0159281
839.194	0.0158541
839.272	0.0158042
839.350	0.0157990
839.428	0.0158379
839.506	0.0158437
839.584	0.0158619
839.663	0.0159328
839.741	0.0160271
839.819	0.0158314
839.897	0.0158208
839.975	0.0158810
840.053	0.0157603
840.131	0.0157462
840.209	0.0158385
840.288	0.0157553
840.366	0.0156627
840.444	0.0157182
840.522	0.0156426
840.600	0.0156185
840.678	0.0155302
840.756	0.0155858
840.834	0.0156253
840.913	0.0156252
840.991	0.0156019
841.069	0.0155030
841.147	0.0153731
841.225	0.0154613
841.303	0.0154054
841.381	0.0154436
841.459	0.0154614
841.538	0.0154958
841.616	0.0154414
841.694	0.0154712
841.772	0.0154845
841.850	0.0154527
841.928	0.0154625
842.006	0.0154509
842.084	0.0154803
842.163	0.0155626
842.241	0.0155276
842.319	0.0155650
842.397	0.0156191
842.475	0.0156067
842.553	0.0155996
842.631	0.0155974
842.709	0.0155819
842.788	0.0156766
842.866	0.0156006
842.944	0.0155173
843.022	0.0156497
843.100	0.0157817
843.178	0.0158198
843.256	0.0157047
843.334	0.0156796
843.413	0.0155733
843.491	0.0156731
843.569	0.0157392
843.647	0.0157577
843.725	0.0157764
843.803	0.0157746
843.881	0.0157176
843.959	0.0158120
844.038	0.0157311
844.116	0.0158127
844.194	0.0158038
844.272	0.0157585
844.350	0.0157516
844.428	0.0157086
844.506	0.0156832
844.584	0.0156881
844.663	0.0157497
844.741	0.0157248
844.819	0.0157655
844.897	0.0157957
844.975	0.0156824
845.053	0.0156259
845.131	0.0156441
845.209	0.0157481
845.288	0.0157349
845.366	0.0155597
845.444	0.0154996
845.522	0.0154586
845.600	0.0155261
845.678	0.0154847
845.756	0.0155463
845.834	0.0155418
845.913	0.0155296
845.991	0.0153964
846.069	0.0155579
846.147	0.0154815
846.225	0.0155026
846.303	0.0154711
846.381	0.0153222
846.459	0.0155228
846.538	0.0155280
846.616	0.0155223
846.694	0.0155575
846.772	0.0155737
846.850	0.0155647
846.928	0.0155586
847.006	0.0156187
847.084	0.0156062
847.163	0.0156247
847.241	0.0155621
847.319	0.0156423
847.397	0.0156075
847.475	0.0155913
847.553	0.0155331
847.631	0.0156334
847.709	0.0155580
847.788	0.0155375
847.866	0.0155775
847.944	0.0155991
848.022	0.0154023
848.100	0.0155472
848.178	0.0155580
848.256	0.0155640
848.334	0.0155997
848.413	0.0155535
848.491	0.0156012
848.569	0.0157166
848.647	0.0155684
848.725	0.0155556
848.803	0.0155741
848.881	0.0156042
848.959	0.0157057
849.038	0.0156426
849.116	0.0156699
849.194	0.0156717
849.272	0.0156662
849.350	0.0157475
849.428	0.0157227
849.506	0.0157666
849.584	0.0157330
849.663	0.0155871
849.741	0.0157288
849.819	0.0156757
849.897	0.0157595
849.975	0.0156374
850.053	0.0155997
850.131	0.0156297
850.209	0.0157364
850.288	0.0155824
850.366	0.0156548
850.444	0.0156616
850.522	0.0154884
850.600	0.0154736
850.678	0.0155667
850.756	0.0155402
850.834	0.0156483
850.913	0.0156039
850.991	0.0154918
851.069	0.0156522
851.147	0.0154340
851.225	0.0155807
851.303	0.0156385
851.381	0.0156085
851.459	0.0154353
851.538	0.0155008
851.616	0.0154763
851.694	0.0155158
851.772	0.0154527
851.850	0.0154374
851.928	0.0154099
852.006	0.0155185
852.084	0.0153749
852.163	0.0153774
852.241	0.0155299
852.319	0.0155667
852.397	0.0154238
852.475	0.0155972
852.553	0.0154194
852.631	0.0155035
852.709	0.0154743
852.788	0.0155417
852.866	0.0153171
852.944	0.0153391
853.022	0.0154487
853.100	0.0154355
853.178	0.0153204
853.256	0.0152720
853.334	0.0153349
853.413	0.0153425
853.491	0.0154800
853.569	0.0155127
853.647	0.0154842
853.725	0.0156013
853.803	0.0155402
853.881	0.0155064
853.959	0.0153999
854.038	0.0156103
854.116	0.0155951
854.194	0.0154121
854.272	0.0156435
854.350	0.0155444
854.428	0.0156143
854.506	0.0156262
854.584	0.0155817
854.663	0.0155598
854.741	0.0156548
854.819	0.0157079
854.897	0.0155319
854.975	0.0156795
855.053	0.0156758
855.131	0.0155920
855.209	0.0157404
855.288	0.0156427
855.366	0.0156100
855.444	0.0156917
855.522	0.0158639
855.600	0.0158499
855.678	0.0157785
855.756	0.0159473
855.834	0.0159135
855.913	0.0157616
855.991	0.0158601
856.069	0.0158501
856.147	0.0156915
856.225	0.0158072
856.303	0.0158004
856.381	0.0158424
856.459	0.0158220
856.538	0.0157847
856.616	0.0156435
856.694	0.0156506
856.772	0.0156117
856.850	0.0157255
856.928	0.0157224
857.006	0.0157831
857.084	0.0156487
857.163	0.0155681
857.241	0.0156998
857.319	0.0155825
857.397	0.0155273
857.475	0.0155003
857.553	0.0155033
857.631	0.0155672
857.709	0.0155451
857.788	0.0155526
857.866	0.0155654
857.944	0.0156091
858.022	0.0155150
858.100	0.0155965
858.178	0.0155335
858.256	0.0155620
858.334	0.0153946
858.413	0.0156631
858.491	0.0156378
858.569	0.0156899
858.647	0.0155647
858.725	0.0155870
858.803	0.0156727
858.881	0.0155815
858.959	0.0156222
859.038	0.0156994
859.116	0.0156989
859.194	0.0156859
859.272	0.0157685
859.350	0.0155933
859.428	0.0155354
859.506	0.0155674
859.584	0.0156650
859.663	0.0157005
859.741	0.0156850
859.819	0.0156360
859.897	0.0156187
859.975	0.0156901
860.053	0.0155148
860.131	0.0155608
860.209	0.0156641
860.288	0.0156236
860.366	0.0155884
860.444	0.0156791
860.522	0.0157465
860.600	0.0156471
860.678	0.0156809
860.756	0.0156924
860.834	0.0155005
860.913	0.0155323
860.991	0.0155711
861.069	0.0156179
861.147	0.0156349
861.225	0.0154530
861.303	0.0154932
861.381	0.0154716
861.459	0.0154418
861.538	0.0153739
861.616	0.0154859
861.694	0.0153454
861.772	0.0155949
861.850	0.0153969
861.928	0.0155066
862.006	0.0155066
862.084	0.0154079
862.163	0.0155979
862.241	0.0154368
862.319	0.0154147
862.397	0.0154585
862.475	0.0153883
862.553	0.0155112
862.631	0.0154250
862.709	0.0156221
862.788	0.0155960
862.866	0.0154184
862.944	0.0154803
863.022	0.0154202
863.100	0.0153636
863.178	0.0154607
863.256	0.0154285
863.334	0.0155168
863.413	0.0154379
863.491	0.0155687
863.569	0.0156998
863.647	0.0155473
863.725	0.0155392
863.803	0.0154685
863.881	0.0156226
863.959	0.0155317
864.038	0.0154484
864.116	0.0156009
864.194	0.0155692
864.272	0.0155668
864.350	0.0156740
864.428	0.0155417
864.506	0.0156460
864.584	0.0156994
864.663	0.0156300
864.741	0.0157098
864.819	0.0155724
864.897	0.0157216
864.975	0.0157561
865.053	0.0157089
865.131	0.0155954
865.209	0.0157431
865.288	0.0158395
865.366	0.0158787
865.444	0.0158701
865.522	0.0157971
865.600	0.0156682
865.678	0.0158801
865.756	0.0158141
865.834	0.0159044
865.913	0.0157719
865.991	0.0156526
866.069	0.0156727
866.147	0.0158080
866.225	0.0157413
866.303	0.0156065
866.381	0.0156318
866.459	0.0156696
866.538	0.0156198
866.616	0.0157916
866.694	0.0156344
866.772	0.0155543
866.850	0.0155489
866.928	0.0155877
867.006	0.0157261
867.084	0.0155495
867.163	0.0156239
867.241	0.0157658
867.319	0.0156676
867.397	0.0155631
867.475	0.0155373
867.553	0.0156612
867.631	0.0156848
867.709	0.0155954
867.788	0.0157274
867.866	0.0156438
867.944	0.0155595
868.022	0.0156327
868.100	0.0157502
868.178	0.0158698
868.256	0.0156246
868.334	0.0156909
868.413	0.0155950
868.491	0.0156592
868.569	0.0156801
868.647	0.0157768
868.725	0.0156625
868.803	0.0155437
868.881	0.0153214
868.959	0.0154373
869.038	0.0155816
869.116	0.0153068
869.194	0.0154683
869.272	0.0153947
869.350	0.0152898
869.428	0.0153093
869.506	0.0153117
869.584	0.0152219
869.663	0.0152509
869.741	0.0153894
869.819	0.0152989
869.897	0.0152015
869.975	0.0152619
870.053	0.0151363
870.131	0.0152779
870.209	0.0152637
870.288	0.0152677
870.366	0.0153111
870.444	0.0152558
870.522	0.0151910
870.600	0.0153399
870.678	0.0154906
870.756	0.0155561
870.834	0.0153654
870.913	0.0153397
870.991	0.0155419
871.069	0.0155750
871.147	0.0155394
871.225	0.0158127
871.303	0.0156662
871.381	0.0156525
871.459	0.0156775
871.538	0.0157713
871.616	0.0157571
871.694	0.0158576
871.772	0.0156601
871.850	0.0156741
871.928	0.0157909
872.006	0.0158369
872.084	0.0158832
872.163	0.0160411
872.241	0.0157062
872.319	0.0158527
872.397	0.0160106
872.475	0.0159725
872.553	0.0160056
872.631	0.0160300
872.709	0.0159843
872.788	0.0158963
872.866	0.0160266
872.944	0.0159492
873.022	0.0158096
873.100	0.0158419
873.178	0.0157499
873.256	0.0157890
873.334	0.0157774
873.413	0.0156667
873.491	0.0155753
873.569	0.0157192
873.647	0.0156797
873.725	0.0155534
873.803	0.0156208
873.881	0.0156255
873.959	0.0155127
874.038	0.0154041
874.116	0.0154244
874.194	0.0155378
874.272	0.0154948
874.350	0.0154894
874.428	0.0154580
874.506	0.0152901
874.584	0.0153913
874.663	0.0154498
874.741	0.0155328
874.819	0.0154716
874.897	0.0153933
874.975	0.0154491
875.053	0.0154849
875.131	0.0153609
875.209	0.0155112
875.288	0.0154634
875.366	0.0154535
875.444	0.0154218
875.522	0.0155388
875.600	0.0154401
875.678	0.0153958
875.756	0.0154962
875.834	0.0154671
875.913	0.0155188
875.991	0.0154956
876.069	0.0155098
876.147	0.0155920
876.225	0.0155273
876.303	0.0156542
876.381	0.0155103
876.459	0.0155925
876.538	0.0156357
876.616	0.0156854
876.694	0.0156694
876.772	0.0158435
876.850	0.0157964
876.928	0.0157594
877.006	0.0156100
877.084	0.0156400
877.163	0.0156847
877.241	0.0158665
877.319	0.0158029
877.397	0.0157420
877.475	0.0157221
877.553	0.0156529
877.631	0.0158020
877.709	0.0157834
877.788	0.0158485
877.866	0.0156274
877.944	0.0155514
878.022	0.0155920
878.100	0.0155939
878.178	0.0154459
878.256	0.0154489
878.334	0.0154133
878.413	0.0154427
878.491	0.0155674
878.569	0.0154919
878.647	0.0156121
878.725	0.0154970
878.803	0.0153455
878.881	0.0155286
878.959	0.0154120
879.038	0.0155137
879.116	0.0154925
879.194	0.0153941
879.272	0.0154914
879.350	0.0155062
879.428	0.0155225
879.506	0.0155511
879.584	0.0156690
879.663	0.0155901
879.741	0.0155603
879.819	0.0156744
879.897	0.0155102
879.975	0.0157750
880.053	0.0156309
880.131	0.0155821
880.209	0.0156133
880.288	0.0156541
880.366	0.0156349
880.444	0.0157111
880.522	0.0158380
880.600	0.0156049
880.678	0.0156367
880.756	0.0156475
880.834	0.0156938
880.913	0.0155942
880.991	0.0155994
881.069	0.0158153
881.147	0.0157097
881.225	0.0154213
881.303	0.0155432
881.381	0.0156985
881.459	0.0156252
881.538	0.0155283
881.616	0.0155093
881.694	0.0154532
881.772	0.0153512
881.850	0.0155680
881.928	0.0154917
882.006	0.0155236
882.084	0.0154350
882.163	0.0154396
882.241	0.0153474
882.319	0.0154781
882.397	0.0155058
882.475	0.0154427
882.553	0.0153643
882.631	0.0156056
882.709	0.0154994
882.788	0.0153859
882.866	0.0156010
882.944	0.0155437
883.022	0.0154849
883.100	0.0155895
883.178	0.0156534
883.256	0.0156866
883.334	0.0156531
883.413	0.0156831
883.491	0.0155943
883.569	0.0156242
883.647	0.0156062
883.725	0.0156072
883.803	0.0155344
883.881	0.0154764
883.959	0.0155312
884.038	0.0156450
884.116	0.0155817
884.194	0.0155279
884.272	0.0156436
884.350	0.0155804
884.428	0.0155244
884.506	0.0155450
884.584	0.0154052
884.663	0.0154834
884.741	0.0156554
884.819	0.0156158
884.897	0.0156025
884.975	0.0155884
885.053	0.0155888
885.131	0.0155535
885.209	0.0154809
885.288	0.0156166
885.366	0.0156748
885.444	0.0155241
885.522	0.0156812
885.600	0.0155173
885.678	0.0156386
885.756	0.0156695
885.834	0.0155479
885.913	0.0156294
885.991	0.0156123
886.069	0.0157058
886.147	0.0156174
886.225	0.0156400
886.303	0.0156165
886.381	0.0157712
886.459	0.0157178
886.538	0.0157154
886.616	0.0154926
886.694	0.0155338
886.772	0.0157503
886.850	0.0156934
886.928	0.0156074
887.006	0.0156657
887.084	0.0156252
887.163	0.0157079
887.241	0.0158218
887.319	0.0157037
887.397	0.0156808
887.475	0.0157345
887.553	0.0157452
887.631	0.0157179
887.709	0.0156918
887.788	0.0156723
887.866	0.0155934
887.944	0.0156097
888.022	0.0156424
888.100	0.0156367
888.178	0.0156679
888.256	0.0156031
888.334	0.0154705
888.413	0.0155981
888.491	0.0156117
888.569	0.0156048
888.647	0.0155770
888.725	0.0154856
888.803	0.0156721
888.881	0.0156913
888.959	0.0156130
889.038	0.0155961
889.116	0.0157224
889.194	0.0155985
889.272	0.0156044
889.350	0.0156373
889.428	0.0156323
889.506	0.0157235
889.584	0.0157247
889.663	0.0157941
889.741	0.0157893
889.819	0.0157663
889.897	0.0157039
889.975	0.0157240
890.053	0.0159258
890.131	0.0157733
890.209	0.0157785
890.288	0.0156937
890.366	0.0156834
890.444	0.0156718
890.522	0.0156153
890.600	0.0155543
890.678	0.0157082
890.756	0.0155320
890.834	0.0155357
890.913	0.0155775
890.991	0.0155735
891.069	0.0155446
891.147	0.0155328
891.225	0.0155289
891.303	0.0155042
891.381	0.0154541
891.459	0.0154868
891.538	0.0155874
891.616	0.0155144
891.694	0.0155915
891.772	0.0156625
891.850	0.0156786
891.928	0.0157933
892.006	0.0159016
892.084	0.0157546
892.163	0.0156879
892.241	0.0156923
892.319	0.0157166
892.397	0.0157470
892.475	0.0158677
892.553	0.0157302
892.631	0.0158523
892.709	0.0158712
892.788	0.0159550
892.866	0.0158108
892.944	0.0157278
893.022	0.0158808
893.100	0.0157871
893.178	0.0157578
893.256	0.0156788
893.334	0.0156565
893.413	0.0156665
893.491	0.0156589
893.569	0.0155950
893.647	0.0155045
893.725	0.0155352
893.803	0.0155780
893.881	0.0154982
893.959	0.0152708
894.038	0.0151522
894.116	0.0153177
894.194	0.0153741
894.272	0.0154185
894.350	0.0152768
894.428	0.0151197
894.506	0.0153928
894.584	0.0153363
894.663	0.0153140
894.741	0.0153152
894.819	0.0153223
894.897	0.0152946
894.975	0.0152956
895.053	0.0153410
895.131	0.0154422
895.209	0.0154473
895.288	0.0154243
895.366	0.0154772
895.444	0.0155791
895.522	0.0155548
895.600	0.0155106
895.678	0.0156765
895.756	0.0156471
895.834	0.0157299
895.913	0.0156951
895.991	0.0157323
896.069	0.0157114
896.147	0.0156635
896.225	0.0156815
896.303	0.0156413
896.381	0.0155843
896.459	0.0155988
896.538	0.0157869
896.616	0.0158028
896.694	0.0155867
896.772	0.0156282
896.850	0.0155928
896.928	0.0156331
897.006	0.0157646
897.084	0.0156831
897.163	0.0156207
897.241	0.0156624
897.319	0.0157456
897.397	0.0155968
897.475	0.0156527
897.553	0.0156543
897.631	0.0156412
897.709	0.0156173
897.788	0.0156281
897.866	0.0157046
897.944	0.0158127
898.022	0.0157049
898.100	0.0155628
898.178	0.0157100
898.256	0.0156820
898.334	0.0157046
898.413	0.0156711
898.491	0.0157531
898.569	0.0157140
898.647	0.0156248
898.725	0.0156133
898.803	0.0155793
898.881	0.0155204
898.959	0.0155974
899.038	0.0154430
899.116	0.0155263
899.194	0.0155439
899.272	0.0154385
899.350	0.0153655
899.428	0.0154126
899.506	0.0154848
899.584	0.0155307
899.663	0.0155409
899.741	0.0155053
899.819	0.0154982
899.897	0.0154301
899.975	0.0155121
900.053	0.0154835
900.131	0.0155025
900.209	0.0156204
900.288	0.0155997
900.366	0.0157169
900.444	0.0154241
900.522	0.0154329
900.600	0.0157096
900.678	0.0156239
900.756	0.0155289
900.834	0.0157053
900.913	0.0156171
900.991	0.0155267
901.069	0.0157603
901.147	0.0156873
901.225	0.0157603
901.303	0.0156406
901.381	0.0156881
901.459	0.0156135
901.538	0.0155888
901.616	0.0155271
901.694	0.0156422
901.772	0.0156057
901.850	0.0155033
901.928	0.0155052
902.006	0.0155778
902.084	0.0156045
902.163	0.0155083
902.241	0.0154236
902.319	0.0154045
902.397	0.0154192
902.475	0.0154459
902.553	0.0154618
902.631	0.0154564
902.709	0.0154522
902.788	0.0154263
902.866	0.0153632
902.944	0.0151980
903.022	0.0152742
903.100	0.0153709
903.178	0.0153899
903.256	0.0153550
903.334	0.0153923
903.413	0.0154737
903.491	0.0155051
903.569	0.0153101
903.647	0.0155150
903.725	0.0155836
903.803	0.0155396
903.881	0.0156106
903.959	0.0155109
904.038	0.0156779
904.116	0.0155956
904.194	0.0155870
904.272	0.0157626
904.350	0.0155910
904.428	0.0156790
904.506	0.0158150
904.584	0.0156518
904.663	0.0158530
904.741	0.0158366
904.819	0.0157716
904.897	0.0158122
904.975	0.0157583
905.053	0.0157462
905.131	0.0156924
905.209	0.0156918
905.288	0.0157431
905.366	0.0155042
905.444	0.0156844
905.522	0.0155862
905.600	0.0156734
905.678	0.0158414
905.756	0.0157893
905.834	0.0156154
905.913	0.0156235
905.991	0.0157144
906.069	0.0157373
906.147	0.0156732
906.225	0.0156747
906.303	0.0156851
906.381	0.0157225
906.459	0.0157256
906.538	0.0156168
906.616	0.0156987
906.694	0.0157552
906.772	0.0157526
906.850	0.0156025
906.928	0.0156021
907.006	0.0156832
907.084	0.0156742
907.163	0.0156745
907.241	0.0156180
907.319	0.0155765
907.397	0.0155881
907.475	0.0156445
907.553	0.0155116
907.631	0.0155171
907.709	0.0156715
907.788	0.0154888
907.866	0.0155755
907.944	0.0153743
908.022	0.0154158
908.100	0.0154824
908.178	0.0153449
908.256	0.0154435
908.334	0.0154377
908.413	0.0155148
908.491	0.0155125
908.569	0.0153661
908.647	0.0154242
908.725	0.0153609
908.803	0.0155433
908.881	0.0153622
908.959	0.0154406
909.038	0.0154740
909.116	0.0156200
909.194	0.0155815
909.272	0.0155694
909.350	0.0155566
909.428	0.0154929
909.506	0.0156255
909.584	0.0155036
909.663	0.0155154
909.741	0.0156589
909.819	0.0156005
909.897	0.0156041
909.975	0.0156136
910.053	0.0155711
910.131	0.0155347
910.209	0.0156971
910.288	0.0154547
910.366	0.0156345
910.444	0.0156111
910.522	0.0155984
910.600	0.0155345
910.678	0.0155980
910.756	0.0156655
910.834	0.0155788
910.913	0.0155274
910.991	0.0155769
911.069	0.0155236
911.147	0.0156236
911.225	0.0155531
911.303	0.0156194
911.381	0.0156453
911.459	0.0155808
911.538	0.0154498
911.616	0.0155296
911.694	0.0154933
911.772	0.0154904
911.850	0.0156142
911.928	0.0154071
912.006	0.0154782
912.084	0.0155499
912.163	0.0154972
912.241	0.0155035
912.319	0.0154770
912.397	0.0154987
912.475	0.0153704
912.553	0.0154549
912.631	0.0153737
912.709	0.0154280
912.788	0.0154045
912.866	0.0153128
912.944	0.0154407
913.022	0.0155235
913.100	0.0155115
913.178	0.0155501
913.256	0.0154490
913.334	0.0153793
913.413	0.0155637
913.491	0.0155458
913.569	0.0156451
913.647	0.0155115
913.725	0.0155579
913.803	0.0155962
913.881	0.0155764
913.959	0.0155637
914.038	0.0155267
914.116	0.0156932
914.194	0.0157401
914.272	0.0156551
914.350	0.0155455
914.428	0.0156583
914.506	0.0154060
914.584	0.0155840
914.663	0.0157616
914.741	0.0156289
914.819	0.0155504
914.897	0.0156605
914.975	0.0154556
915.053	0.0156445
915.131	0.0155441
915.209	0.0156077
915.288	0.0157420
915.366	0.0156953
915.444	0.0155743
915.522	0.0156529
915.600	0.0155870
915.678	0.0156394
915.756	0.0158600
915.834	0.0157589
915.913	0.0157172
915.991	0.0156526
916.069	0.0157294
916.147	0.0158387
916.225	0.0156248
916.303	0.0157139
916.381	0.0157295
916.459	0.0158193
916.538	0.0157755
916.616	0.0157277
916.694	0.0156988
916.772	0.0158356
916.850	0.0158655
916.928	0.0157310
917.006	0.0158155
917.084	0.0158742
917.163	0.0156800
917.241	0.0158719
917.319	0.0158295
917.397	0.0157732
917.475	0.0158340
917.553	0.0159057
917.631	0.0158173
917.709	0.0157037
917.788	0.0157388
917.866	0.0157391
917.944	0.0157058
918.022	0.0158067
918.100	0.0157077
918.178	0.0155500
918.256	0.0157188
918.334	0.0156713
918.413	0.0156841
918.491	0.0156081
918.569	0.0155970
918.647	0.0156289
918.725	0.0156375
918.803	0.0156145
918.881	0.0155409
918.959	0.0156492
919.038	0.0155087
919.116	0.0156601
919.194	0.0156510
919.272	0.0156366
919.350	0.0156151
919.428	0.0155688
919.506	0.0155988
919.584	0.0155715
919.663	0.0155672
919.741	0.0156213
919.819	0.0156863
919.897	0.0155721
