05/20/2022	21:27:19	Ver.	4.1	UNKNOWN
Optical Delay	599.975067	Delta X		0.078125	Sweeps	1	Scan Rate	0/0
Coordinates	Axis 1	NaN	Axis 2	NaN	Axis 3	NaN	Axis 4	NaN	Axis 5	NaN	Axis 6	0.000000
TX Power	0.000000	RX Power	0.000000

599.975	0.0155387
600.053	0.0155222
600.131	0.0154459
600.209	0.0155093
600.288	0.0155347
600.366	0.0155405
600.444	0.0155206
600.522	0.0153178
600.600	0.0155283
600.678	0.0156779
600.756	0.0156670
600.834	0.0155211
600.913	0.0155524
600.991	0.0154764
601.069	0.0153706
601.147	0.0155369
601.225	0.0154900
601.303	0.0155163
601.381	0.0153923
601.459	0.0154142
601.538	0.0154494
601.616	0.0155341
601.694	0.0155874
601.772	0.0154438
601.850	0.0154754
601.928	0.0156329
602.006	0.0154135
602.084	0.0155176
602.163	0.0156621
602.241	0.0154537
602.319	0.0154759
602.397	0.0156094
602.475	0.0156016
602.553	0.0154625
602.631	0.0154591
602.709	0.0155264
602.788	0.0155559
602.866	0.0153915
602.944	0.0154260
603.022	0.0155035
603.100	0.0155629
603.178	0.0156837
603.256	0.0155162
603.334	0.0156132
603.413	0.0154070
603.491	0.0155239
603.569	0.0153975
603.647	0.0155201
603.725	0.0156113
603.803	0.0155210
603.881	0.0155988
603.959	0.0156712
604.038	0.0156200
604.116	0.0155396
604.194	0.0154682
604.272	0.0156781
604.350	0.0157069
604.428	0.0155759
604.506	0.0156440
604.584	0.0155557
604.663	0.0155499
604.741	0.0155336
604.819	0.0155447
604.897	0.0154103
604.975	0.0154488
605.053	0.0155727
605.131	0.0157300
605.209	0.0156332
605.288	0.0155927
605.366	0.0156072
605.444	0.0156544
605.522	0.0155795
605.600	0.0155703
605.678	0.0155360
605.756	0.0156211
605.834	0.0157399
605.913	0.0155790
605.991	0.0154689
606.069	0.0156026
606.147	0.0156129
606.225	0.0155873
606.303	0.0157519
606.381	0.0156013
606.459	0.0156644
606.538	0.0156091
606.616	0.0156178
606.694	0.0155820
606.772	0.0156174
606.850	0.0156688
606.928	0.0156406
607.006	0.0155613
607.084	0.0156081
607.163	0.0157081
607.241	0.0156495
607.319	0.0155379
607.397	0.0156359
607.475	0.0155691
607.553	0.0155818
607.631	0.0155223
607.709	0.0156308
607.788	0.0157100
607.866	0.0157263
607.944	0.0156859
608.022	0.0155961
608.100	0.0155440
608.178	0.0154581
608.256	0.0155783
608.334	0.0155783
608.413	0.0155772
608.491	0.0154817
608.569	0.0156087
608.647	0.0155585
608.725	0.0154610
608.803	0.0155772
608.881	0.0155627
608.959	0.0155241
609.038	0.0155482
609.116	0.0155056
609.194	0.0156033
609.272	0.0155370
609.350	0.0154982
609.428	0.0155835
609.506	0.0154959
609.584	0.0155185
609.663	0.0155890
609.741	0.0154939
609.819	0.0155368
609.897	0.0155568
609.975	0.0154438
610.053	0.0155840
610.131	0.0155286
610.209	0.0155654
610.288	0.0156105
610.366	0.0154863
610.444	0.0154560
610.522	0.0155868
610.600	0.0154282
610.678	0.0155142
610.756	0.0155985
610.834	0.0155282
610.913	0.0156587
610.991	0.0156618
611.069	0.0155666
611.147	0.0155492
611.225	0.0156253
611.303	0.0156464
611.381	0.0156155
611.459	0.0156985
611.538	0.0155847
611.616	0.0155741
611.694	0.0156849
611.772	0.0154066
611.850	0.0154998
611.928	0.0156222
612.006	0.0155600
612.084	0.0155508
612.163	0.0156167
612.241	0.0156740
612.319	0.0156469
612.397	0.0156911
612.475	0.0156479
612.553	0.0156436
612.631	0.0156319
612.709	0.0157327
612.788	0.0156390
612.866	0.0156431
612.944	0.0155201
613.022	0.0155929
613.100	0.0157561
613.178	0.0157073
613.256	0.0157001
613.334	0.0155621
613.413	0.0155654
613.491	0.0155857
613.569	0.0155675
613.647	0.0156536
613.725	0.0155788
613.803	0.0155680
613.881	0.0155578
613.959	0.0156335
614.038	0.0156021
614.116	0.0155850
614.194	0.0155997
614.272	0.0155562
614.350	0.0154622
614.428	0.0155625
614.506	0.0155003
614.584	0.0157122
614.663	0.0154507
614.741	0.0154330
614.819	0.0155685
614.897	0.0155460
614.975	0.0154769
615.053	0.0155624
615.131	0.0155853
615.209	0.0156589
615.288	0.0155322
615.366	0.0155685
615.444	0.0154476
615.522	0.0153700
615.600	0.0155528
615.678	0.0154302
615.756	0.0154824
615.834	0.0156385
615.913	0.0156047
615.991	0.0154011
616.069	0.0153802
616.147	0.0155296
616.225	0.0154293
616.303	0.0155916
616.381	0.0154778
616.459	0.0153127
616.538	0.0154984
616.616	0.0153159
616.694	0.0154449
616.772	0.0154404
616.850	0.0155103
616.928	0.0155280
617.006	0.0153637
617.084	0.0153606
617.163	0.0155319
617.241	0.0154311
617.319	0.0154191
617.397	0.0154034
617.475	0.0154795
617.553	0.0154391
617.631	0.0153636
617.709	0.0154223
617.788	0.0152943
617.866	0.0153249
617.944	0.0154483
618.022	0.0154272
618.100	0.0153738
618.178	0.0153552
618.256	0.0153419
618.334	0.0153911
618.413	0.0155711
618.491	0.0155144
618.569	0.0154227
618.647	0.0154916
618.725	0.0155216
618.803	0.0152238
618.881	0.0154607
618.959	0.0155870
619.038	0.0154899
619.116	0.0156329
619.194	0.0156432
619.272	0.0155925
619.350	0.0154982
619.428	0.0154276
619.506	0.0154192
619.584	0.0153669
619.663	0.0154227
619.741	0.0155489
619.819	0.0154488
619.897	0.0155033
619.975	0.0155574
620.053	0.0153224
620.131	0.0154759
620.209	0.0154018
620.288	0.0153785
620.366	0.0155230
620.444	0.0156081
620.522	0.0155067
620.600	0.0154316
620.678	0.0154289
620.756	0.0155068
620.834	0.0155257
620.913	0.0153870
620.991	0.0156982
621.069	0.0155090
621.147	0.0155679
621.225	0.0156299
621.303	0.0154830
621.381	0.0155919
621.459	0.0155641
621.538	0.0154775
621.616	0.0155949
621.694	0.0155697
621.772	0.0154747
621.850	0.0155973
621.928	0.0156778
622.006	0.0155073
622.084	0.0155171
622.163	0.0156046
622.241	0.0155347
622.319	0.0155415
622.397	0.0155186
622.475	0.0155625
622.553	0.0155475
622.631	0.0155518
622.709	0.0156254
622.788	0.0154649
622.866	0.0154696
622.944	0.0156151
623.022	0.0157294
623.100	0.0155543
623.178	0.0154161
623.256	0.0152941
623.334	0.0153623
623.413	0.0156046
623.491	0.0155403
623.569	0.0153728
623.647	0.0155247
623.725	0.0154853
623.803	0.0153646
623.881	0.0154614
623.959	0.0155157
624.038	0.0153500
624.116	0.0153247
624.194	0.0155846
624.272	0.0154718
624.350	0.0155407
624.428	0.0155371
624.506	0.0153899
624.584	0.0154478
624.663	0.0154281
624.741	0.0153462
624.819	0.0155853
624.897	0.0155898
624.975	0.0154921
625.053	0.0155478
625.131	0.0154900
625.209	0.0155000
625.288	0.0154727
625.366	0.0154687
625.444	0.0154652
625.522	0.0155898
625.600	0.0155178
625.678	0.0155992
625.756	0.0156094
625.834	0.0154664
625.913	0.0154983
625.991	0.0154121
626.069	0.0156101
626.147	0.0154685
626.225	0.0155309
626.303	0.0155665
626.381	0.0154285
626.459	0.0155212
626.538	0.0155540
626.616	0.0155871
626.694	0.0156210
626.772	0.0155800
626.850	0.0155038
626.928	0.0154345
627.006	0.0155815
627.084	0.0156725
627.163	0.0156245
627.241	0.0155824
627.319	0.0156197
627.397	0.0156039
627.475	0.0155138
627.553	0.0154132
627.631	0.0155851
627.709	0.0156337
627.788	0.0154228
627.866	0.0154691
627.944	0.0156931
628.022	0.0155917
628.100	0.0156949
628.178	0.0154269
628.256	0.0155265
628.334	0.0154888
628.413	0.0154836
628.491	0.0155179
628.569	0.0155823
628.647	0.0156333
628.725	0.0155620
628.803	0.0155547
628.881	0.0155072
628.959	0.0155058
629.038	0.0155895
629.116	0.0154832
629.194	0.0156282
629.272	0.0154711
629.350	0.0154340
629.428	0.0153723
629.506	0.0153188
629.584	0.0155447
629.663	0.0153888
629.741	0.0153591
629.819	0.0154361
629.897	0.0153430
629.975	0.0155685
630.053	0.0155038
630.131	0.0154923
630.209	0.0155900
630.288	0.0154829
630.366	0.0154103
630.444	0.0154740
630.522	0.0154586
630.600	0.0155753
630.678	0.0155517
630.756	0.0155028
630.834	0.0155300
630.913	0.0156136
630.991	0.0155976
631.069	0.0157207
631.147	0.0154977
631.225	0.0154676
631.303	0.0156103
631.381	0.0156705
631.459	0.0155077
631.538	0.0156550
631.616	0.0154915
631.694	0.0156062
631.772	0.0156933
631.850	0.0154813
631.928	0.0155979
632.006	0.0156726
632.084	0.0155627
632.163	0.0156651
632.241	0.0156009
632.319	0.0156087
632.397	0.0156942
632.475	0.0155635
632.553	0.0156763
632.631	0.0157030
632.709	0.0156310
632.788	0.0155927
632.866	0.0156618
632.944	0.0156136
633.022	0.0155525
633.100	0.0155461
633.178	0.0155630
633.256	0.0156425
633.334	0.0154903
633.413	0.0154601
633.491	0.0156602
633.569	0.0156405
633.647	0.0155531
633.725	0.0154648
633.803	0.0156166
633.881	0.0154680
633.959	0.0154802
634.038	0.0155628
634.116	0.0155016
634.194	0.0155740
634.272	0.0154951
634.350	0.0154461
634.428	0.0155782
634.506	0.0154720
634.584	0.0155460
634.663	0.0156007
634.741	0.0153520
634.819	0.0154732
634.897	0.0155622
634.975	0.0155536
635.053	0.0154901
635.131	0.0155613
635.209	0.0154992
635.288	0.0155681
635.366	0.0156242
635.444	0.0155209
635.522	0.0156143
635.600	0.0156199
635.678	0.0154935
635.756	0.0155672
635.834	0.0154348
635.913	0.0154446
635.991	0.0155522
636.069	0.0155488
636.147	0.0156065
636.225	0.0154932
636.303	0.0155726
636.381	0.0154556
636.459	0.0154136
636.538	0.0154651
636.616	0.0155592
636.694	0.0156008
636.772	0.0154773
636.850	0.0155591
636.928	0.0154772
637.006	0.0156020
637.084	0.0156460
637.163	0.0155623
637.241	0.0155885
637.319	0.0156450
637.397	0.0157011
637.475	0.0156313
637.553	0.0155838
637.631	0.0156989
637.709	0.0157561
637.788	0.0157864
637.866	0.0156509
637.944	0.0156446
638.022	0.0156800
638.100	0.0156316
638.178	0.0154927
638.256	0.0155885
638.334	0.0155992
638.413	0.0156667
638.491	0.0155870
638.569	0.0154082
638.647	0.0157026
638.725	0.0156564
638.803	0.0155826
638.881	0.0157772
638.959	0.0156171
639.038	0.0155545
639.116	0.0155554
639.194	0.0155595
639.272	0.0155415
639.350	0.0153821
639.428	0.0155544
639.506	0.0155624
639.584	0.0153909
639.663	0.0154636
639.741	0.0155525
639.819	0.0154736
639.897	0.0155131
639.975	0.0156638
640.053	0.0156949
640.131	0.0156058
640.209	0.0155186
640.288	0.0157614
640.366	0.0155999
640.444	0.0156873
640.522	0.0156147
640.600	0.0156646
640.678	0.0155953
640.756	0.0154292
640.834	0.0155753
640.913	0.0156807
640.991	0.0155225
641.069	0.0154687
641.147	0.0155329
641.225	0.0156683
641.303	0.0154906
641.381	0.0155101
641.459	0.0154365
641.538	0.0157051
641.616	0.0154831
641.694	0.0155318
641.772	0.0155080
641.850	0.0155985
641.928	0.0155164
642.006	0.0154317
642.084	0.0155151
642.163	0.0154816
642.241	0.0157101
642.319	0.0156413
642.397	0.0156417
642.475	0.0155054
642.553	0.0155958
642.631	0.0155583
642.709	0.0156846
642.788	0.0155530
642.866	0.0155242
642.944	0.0155182
643.022	0.0156441
643.100	0.0156010
643.178	0.0155420
643.256	0.0156382
643.334	0.0156267
643.413	0.0156653
643.491	0.0155714
643.569	0.0155676
643.647	0.0154198
643.725	0.0156076
643.803	0.0156208
643.881	0.0155304
643.959	0.0155445
644.038	0.0154185
644.116	0.0156250
644.194	0.0155883
644.272	0.0155247
644.350	0.0155254
644.428	0.0155711
644.506	0.0153960
644.584	0.0156810
644.663	0.0155387
644.741	0.0155293
644.819	0.0155417
644.897	0.0155807
644.975	0.0156796
645.053	0.0155759
645.131	0.0155880
645.209	0.0156876
645.288	0.0155275
645.366	0.0156812
645.444	0.0157047
645.522	0.0155373
645.600	0.0155379
645.678	0.0158308
645.756	0.0156410
645.834	0.0156644
645.913	0.0154810
645.991	0.0155605
646.069	0.0155230
646.147	0.0155002
646.225	0.0156762
646.303	0.0155679
646.381	0.0156382
646.459	0.0156142
646.538	0.0155596
646.616	0.0155009
646.694	0.0157051
646.772	0.0156140
646.850	0.0154742
646.928	0.0154370
647.006	0.0155161
647.084	0.0154565
647.163	0.0155891
647.241	0.0155771
647.319	0.0155069
647.397	0.0155832
647.475	0.0155640
647.553	0.0156443
647.631	0.0155547
647.709	0.0155275
647.788	0.0156382
647.866	0.0156236
647.944	0.0155109
648.022	0.0155640
648.100	0.0155975
648.178	0.0155276
648.256	0.0155253
648.334	0.0154610
648.413	0.0156302
648.491	0.0156383
648.569	0.0155814
648.647	0.0154987
648.725	0.0155264
648.803	0.0154552
648.881	0.0155157
648.959	0.0157021
649.038	0.0155520
649.116	0.0157461
649.194	0.0155904
649.272	0.0154713
649.350	0.0154191
649.428	0.0154301
649.506	0.0154545
649.584	0.0154862
649.663	0.0155756
649.741	0.0155675
649.819	0.0154017
649.897	0.0155450
649.975	0.0155264
650.053	0.0154138
650.131	0.0154718
650.209	0.0154379
650.288	0.0153937
650.366	0.0154959
650.444	0.0153953
650.522	0.0155156
650.600	0.0154868
650.678	0.0154082
650.756	0.0154095
650.834	0.0154402
650.913	0.0154736
650.991	0.0154527
651.069	0.0153046
651.147	0.0153251
651.225	0.0152200
651.303	0.0152490
651.381	0.0152322
651.459	0.0153123
651.538	0.0154127
651.616	0.0153988
651.694	0.0152623
651.772	0.0151180
651.850	0.0153165
651.928	0.0153756
652.006	0.0153622
652.084	0.0152638
652.163	0.0153389
652.241	0.0153616
652.319	0.0153618
652.397	0.0153011
652.475	0.0152340
652.553	0.0153943
652.631	0.0154282
652.709	0.0154684
652.788	0.0155019
652.866	0.0154288
652.944	0.0154874
653.022	0.0153945
653.100	0.0155420
653.178	0.0155692
653.256	0.0155341
653.334	0.0154910
653.413	0.0155296
653.491	0.0155698
653.569	0.0154730
653.647	0.0154262
653.725	0.0154115
653.803	0.0155810
653.881	0.0156007
653.959	0.0155715
654.038	0.0154808
654.116	0.0155486
654.194	0.0155760
654.272	0.0155473
654.350	0.0155904
654.428	0.0156234
654.506	0.0155870
654.584	0.0154475
654.663	0.0154829
654.741	0.0156805
654.819	0.0155195
654.897	0.0155974
654.975	0.0155585
655.053	0.0154786
655.131	0.0155647
655.209	0.0156948
655.288	0.0157231
655.366	0.0156512
655.444	0.0155654
655.522	0.0157077
655.600	0.0158192
655.678	0.0157164
655.756	0.0155952
655.834	0.0155261
655.913	0.0156501
655.991	0.0155853
656.069	0.0155328
656.147	0.0155594
656.225	0.0155608
656.303	0.0155131
656.381	0.0155859
656.459	0.0155202
656.538	0.0154588
656.616	0.0155784
656.694	0.0155775
656.772	0.0154348
656.850	0.0155816
656.928	0.0156872
657.006	0.0156669
657.084	0.0157303
657.163	0.0157242
657.241	0.0157923
657.319	0.0156966
657.397	0.0158591
657.475	0.0158520
657.553	0.0157696
657.631	0.0157618
657.709	0.0158212
657.788	0.0159425
657.866	0.0157798
657.944	0.0157912
658.022	0.0158829
658.100	0.0157477
658.178	0.0156400
658.256	0.0156189
658.334	0.0156246
658.413	0.0155511
658.491	0.0155340
658.569	0.0153696
658.647	0.0152755
658.725	0.0154773
658.803	0.0154884
658.881	0.0153785
658.959	0.0154210
659.038	0.0153359
659.116	0.0155424
659.194	0.0154788
659.272	0.0154994
659.350	0.0155110
659.428	0.0155475
659.506	0.0155823
659.584	0.0158092
659.663	0.0155966
659.741	0.0156341
659.819	0.0156949
659.897	0.0158193
659.975	0.0158234
660.053	0.0157404
660.131	0.0158220
660.209	0.0159176
660.288	0.0157504
660.366	0.0157298
660.444	0.0157872
660.522	0.0157723
660.600	0.0156809
660.678	0.0156504
660.756	0.0156823
660.834	0.0155762
660.913	0.0155832
660.991	0.0155488
661.069	0.0154058
661.147	0.0153013
661.225	0.0152347
661.303	0.0150694
661.381	0.0151429
661.459	0.0150957
661.538	0.0150309
661.616	0.0148660
661.694	0.0148746
661.772	0.0149286
661.850	0.0149010
661.928	0.0149569
662.006	0.0149092
662.084	0.0151112
662.163	0.0151161
662.241	0.0153498
662.319	0.0153267
662.397	0.0151834
662.475	0.0154851
662.553	0.0154548
662.631	0.0157845
662.709	0.0157636
662.788	0.0159490
662.866	0.0160777
662.944	0.0161409
663.022	0.0162251
663.100	0.0162246
663.178	0.0163496
663.256	0.0164183
663.334	0.0163712
663.413	0.0161696
663.491	0.0163013
663.569	0.0163047
663.647	0.0161890
663.725	0.0161615
663.803	0.0162722
663.881	0.0159910
663.959	0.0158634
664.038	0.0157486
664.116	0.0156232
664.194	0.0156138
664.272	0.0156364
664.350	0.0154931
664.428	0.0153445
664.506	0.0154151
664.584	0.0152693
664.663	0.0152451
664.741	0.0151174
664.819	0.0150829
664.897	0.0150923
664.975	0.0150545
665.053	0.0149604
665.131	0.0150072
665.209	0.0149561
665.288	0.0150076
665.366	0.0150111
665.444	0.0150327
665.522	0.0150460
665.600	0.0149776
665.678	0.0151726
665.756	0.0153011
665.834	0.0152790
665.913	0.0154495
665.991	0.0153537
666.069	0.0153413
666.147	0.0154184
666.225	0.0154977
666.303	0.0154737
666.381	0.0155006
666.459	0.0155634
666.538	0.0154573
666.616	0.0154823
666.694	0.0155415
666.772	0.0155700
666.850	0.0155887
666.928	0.0156563
667.006	0.0156508
667.084	0.0158398
667.163	0.0157926
667.241	0.0158243
667.319	0.0158361
667.397	0.0158871
667.475	0.0159789
667.553	0.0160190
667.631	0.0160233
667.709	0.0161108
667.788	0.0162247
667.866	0.0161013
667.944	0.0160678
668.022	0.0161330
668.100	0.0161525
668.178	0.0161303
668.256	0.0162715
668.334	0.0162268
668.413	0.0160616
668.491	0.0161388
668.569	0.0159983
668.647	0.0159002
668.725	0.0159563
668.803	0.0158291
668.881	0.0158437
668.959	0.0157211
669.038	0.0156668
669.116	0.0156696
669.194	0.0155148
669.272	0.0155065
669.350	0.0153043
669.428	0.0151266
669.506	0.0151123
669.584	0.0150990
669.663	0.0148496
669.741	0.0146530
669.819	0.0145987
669.897	0.0144750
669.975	0.0145470
670.053	0.0143235
670.131	0.0144077
670.209	0.0142484
670.288	0.0141562
670.366	0.0141676
670.444	0.0143771
670.522	0.0145271
670.600	0.0144669
670.678	0.0145687
670.756	0.0148479
670.834	0.0148510
670.913	0.0150835
670.991	0.0153174
671.069	0.0153146
671.147	0.0154449
671.225	0.0157304
671.303	0.0156961
671.381	0.0158465
671.459	0.0160439
671.538	0.0160168
671.616	0.0160081
671.694	0.0161712
671.772	0.0162098
671.850	0.0161897
671.928	0.0161945
672.006	0.0163390
672.084	0.0162798
672.163	0.0161259
672.241	0.0164116
672.319	0.0162874
672.397	0.0161823
672.475	0.0162525
672.553	0.0162189
672.631	0.0161495
672.709	0.0161525
672.788	0.0161490
672.866	0.0160799
672.944	0.0161076
673.022	0.0160618
673.100	0.0160906
673.178	0.0160692
673.256	0.0158608
673.334	0.0159727
673.413	0.0158858
673.491	0.0158038
673.569	0.0158040
673.647	0.0158521
673.725	0.0158486
673.803	0.0158283
673.881	0.0158150
673.959	0.0156524
674.038	0.0157852
674.116	0.0156652
674.194	0.0156713
674.272	0.0157041
674.350	0.0155978
674.428	0.0154615
674.506	0.0153585
674.584	0.0151963
674.663	0.0150809
674.741	0.0149989
674.819	0.0149542
674.897	0.0147217
674.975	0.0145482
675.053	0.0144804
675.131	0.0142737
675.209	0.0142969
675.288	0.0143443
675.366	0.0143366
675.444	0.0140633
675.522	0.0140409
675.600	0.0142341
675.678	0.0141080
675.756	0.0142812
675.834	0.0143854
675.913	0.0143738
675.991	0.0144795
676.069	0.0146089
676.147	0.0147260
676.225	0.0147740
676.303	0.0148808
676.381	0.0151352
676.459	0.0152698
676.538	0.0152861
676.616	0.0156283
676.694	0.0155956
676.772	0.0159238
676.850	0.0161195
676.928	0.0163787
677.006	0.0166795
677.084	0.0168173
677.163	0.0169123
677.241	0.0170369
677.319	0.0173055
677.397	0.0172614
677.475	0.0173256
677.553	0.0173743
677.631	0.0176006
677.709	0.0175363
677.788	0.0174968
677.866	0.0174087
677.944	0.0173328
678.022	0.0171255
678.100	0.0171307
678.178	0.0170171
678.256	0.0167981
678.334	0.0166640
678.413	0.0163693
678.491	0.0160907
678.569	0.0160338
678.647	0.0158871
678.725	0.0154851
678.803	0.0153658
678.881	0.0151479
678.959	0.0148734
679.038	0.0147897
679.116	0.0145752
679.194	0.0143987
679.272	0.0140474
679.350	0.0139752
679.428	0.0139569
679.506	0.0137461
679.584	0.0138113
679.663	0.0136757
679.741	0.0137637
679.819	0.0136720
679.897	0.0137624
679.975	0.0137994
680.053	0.0138728
680.131	0.0140310
680.209	0.0140569
680.288	0.0143089
680.366	0.0144392
680.444	0.0144894
680.522	0.0147093
680.600	0.0149464
680.678	0.0149356
680.756	0.0152934
680.834	0.0154031
680.913	0.0154000
680.991	0.0156602
681.069	0.0157397
681.147	0.0159400
681.225	0.0161183
681.303	0.0163378
681.381	0.0164259
681.459	0.0164258
681.538	0.0166836
681.616	0.0166383
681.694	0.0167748
681.772	0.0168338
681.850	0.0168837
681.928	0.0167787
682.006	0.0168122
682.084	0.0168834
682.163	0.0168123
682.241	0.0167612
682.319	0.0165162
682.397	0.0166428
682.475	0.0163264
682.553	0.0162830
682.631	0.0159911
682.709	0.0161353
682.788	0.0158541
682.866	0.0155604
682.944	0.0155499
683.022	0.0154739
683.100	0.0152003
683.178	0.0153333
683.256	0.0153564
683.334	0.0151125
683.413	0.0152229
683.491	0.0151411
683.569	0.0151611
683.647	0.0150366
683.725	0.0151191
683.803	0.0151114
683.881	0.0152103
683.959	0.0151350
684.038	0.0152472
684.116	0.0152206
684.194	0.0153265
684.272	0.0152641
684.350	0.0154462
684.428	0.0154561
684.506	0.0154771
684.584	0.0156306
684.663	0.0155279
684.741	0.0154815
684.819	0.0155714
684.897	0.0156729
684.975	0.0156734
685.053	0.0155750
685.131	0.0159571
685.209	0.0160473
685.288	0.0159678
685.366	0.0158810
685.444	0.0159037
685.522	0.0160825
685.600	0.0160962
685.678	0.0159631
685.756	0.0160195
685.834	0.0158701
685.913	0.0157689
685.991	0.0157678
686.069	0.0157549
686.147	0.0157927
686.225	0.0155386
686.303	0.0154427
686.381	0.0154914
686.459	0.0151488
686.538	0.0153229
686.616	0.0152699
686.694	0.0152679
686.772	0.0150858
686.850	0.0150053
686.928	0.0151945
687.006	0.0150726
687.084	0.0149818
687.163	0.0148856
687.241	0.0148862
687.319	0.0148833
687.397	0.0149667
687.475	0.0150185
687.553	0.0149779
687.631	0.0150085
687.709	0.0149437
687.788	0.0151556
687.866	0.0151707
687.944	0.0151805
688.022	0.0152518
688.100	0.0153358
688.178	0.0154045
688.256	0.0153076
688.334	0.0152919
688.413	0.0155151
688.491	0.0157111
688.569	0.0154015
688.647	0.0154992
688.725	0.0155257
688.803	0.0155796
688.881	0.0155809
688.959	0.0155383
689.038	0.0156578
689.116	0.0155943
689.194	0.0156523
689.272	0.0157011
689.350	0.0157925
689.428	0.0159026
689.506	0.0159295
689.584	0.0160177
689.663	0.0159676
689.741	0.0160113
689.819	0.0162866
689.897	0.0162377
689.975	0.0162432
690.053	0.0162650
690.131	0.0162113
690.209	0.0162428
690.288	0.0162955
690.366	0.0162953
690.444	0.0161945
690.522	0.0162264
690.600	0.0160854
690.678	0.0160266
690.756	0.0161778
690.834	0.0159191
690.913	0.0158816
690.991	0.0157036
691.069	0.0157885
691.147	0.0157533
691.225	0.0156627
691.303	0.0156269
691.381	0.0156124
691.459	0.0154774
691.538	0.0155342
691.616	0.0155931
691.694	0.0153213
691.772	0.0153081
691.850	0.0154528
691.928	0.0153083
692.006	0.0153629
692.084	0.0154441
692.163	0.0153915
692.241	0.0154220
692.319	0.0154101
692.397	0.0153220
692.475	0.0154179
692.553	0.0154150
692.631	0.0154854
692.709	0.0153560
692.788	0.0152909
692.866	0.0153241
692.944	0.0154012
693.022	0.0153888
693.100	0.0154749
693.178	0.0152441
693.256	0.0153418
693.334	0.0153812
693.413	0.0151488
693.491	0.0149959
693.569	0.0150919
693.647	0.0149081
693.725	0.0148754
693.803	0.0149231
693.881	0.0148135
693.959	0.0147321
694.038	0.0146355
694.116	0.0145737
694.194	0.0145128
694.272	0.0144302
694.350	0.0143008
694.428	0.0143747
694.506	0.0143006
694.584	0.0142075
694.663	0.0142262
694.741	0.0141273
694.819	0.0141015
694.897	0.0141756
694.975	0.0143229
695.053	0.0141853
695.131	0.0144947
695.209	0.0146989
695.288	0.0147440
695.366	0.0149767
695.444	0.0151862
695.522	0.0154123
695.600	0.0155400
695.678	0.0158407
695.756	0.0160886
695.834	0.0163808
695.913	0.0166026
695.991	0.0167948
696.069	0.0169903
696.147	0.0170979
696.225	0.0175056
696.303	0.0175462
696.381	0.0175999
696.459	0.0178053
696.538	0.0178647
696.616	0.0180283
696.694	0.0180933
696.772	0.0181555
696.850	0.0179475
696.928	0.0180031
697.006	0.0179058
697.084	0.0177031
697.163	0.0176366
697.241	0.0174596
697.319	0.0172371
697.397	0.0169949
697.475	0.0166996
697.553	0.0165316
697.631	0.0162659
697.709	0.0159917
697.788	0.0158036
697.866	0.0154056
697.944	0.0152097
698.022	0.0150563
698.100	0.0147847
698.178	0.0145329
698.256	0.0143452
698.334	0.0143233
698.413	0.0141184
698.491	0.0141322
698.569	0.0139738
698.647	0.0138299
698.725	0.0136679
698.803	0.0137928
698.881	0.0135147
698.959	0.0136239
699.038	0.0133893
699.116	0.0134383
699.194	0.0134715
699.272	0.0135529
699.350	0.0135071
699.428	0.0133625
699.506	0.0136452
699.584	0.0136424
699.663	0.0136063
699.741	0.0136829
699.819	0.0138444
699.897	0.0139087
699.975	0.0139340
700.053	0.0140951
700.131	0.0144006
700.209	0.0145522
700.288	0.0145569
700.366	0.0147907
700.444	0.0151411
700.522	0.0152669
700.600	0.0155340
700.678	0.0158326
700.756	0.0160777
700.834	0.0164550
700.913	0.0165251
700.991	0.0167146
701.069	0.0169961
701.147	0.0172499
701.225	0.0174673
701.303	0.0177612
701.381	0.0177612
701.459	0.0178772
701.538	0.0181339
701.616	0.0182536
701.694	0.0183291
701.772	0.0183176
701.850	0.0183215
701.928	0.0182340
702.006	0.0181549
702.084	0.0180631
702.163	0.0178447
702.241	0.0176892
702.319	0.0174612
702.397	0.0173105
702.475	0.0168312
702.553	0.0165390
702.631	0.0162828
702.709	0.0159632
702.788	0.0154786
702.866	0.0150056
702.944	0.0147952
703.022	0.0145384
703.100	0.0142757
703.178	0.0138934
703.256	0.0136440
703.334	0.0135176
703.413	0.0133949
703.491	0.0132795
703.569	0.0132893
703.647	0.0130580
703.725	0.0131607
703.803	0.0133759
703.881	0.0134340
703.959	0.0134484
704.038	0.0135190
704.116	0.0138738
704.194	0.0140600
704.272	0.0141104
704.350	0.0142395
704.428	0.0145989
704.506	0.0146551
704.584	0.0148732
704.663	0.0151154
704.741	0.0150947
704.819	0.0150942
704.897	0.0153262
704.975	0.0155243
705.053	0.0155192
705.131	0.0158700
705.209	0.0158697
705.288	0.0157394
705.366	0.0158529
705.444	0.0160304
705.522	0.0160796
705.600	0.0159872
705.678	0.0160394
705.756	0.0160978
705.834	0.0161391
705.913	0.0160687
705.991	0.0159332
706.069	0.0159702
706.147	0.0160405
706.225	0.0161194
706.303	0.0160208
706.381	0.0159530
706.459	0.0160819
706.538	0.0160291
706.616	0.0160719
706.694	0.0160440
706.772	0.0163649
706.850	0.0164112
706.928	0.0163419
707.006	0.0162288
707.084	0.0163504
707.163	0.0161436
707.241	0.0162520
707.319	0.0163660
707.397	0.0161277
707.475	0.0161761
707.553	0.0160606
707.631	0.0159486
707.709	0.0157443
707.788	0.0157792
707.866	0.0155127
707.944	0.0153914
708.022	0.0153249
708.100	0.0152289
708.178	0.0150868
708.256	0.0148025
708.334	0.0148306
708.413	0.0148010
708.491	0.0146016
708.569	0.0144440
708.647	0.0142852
708.725	0.0143813
708.803	0.0144552
708.881	0.0144025
708.959	0.0143610
709.038	0.0142848
709.116	0.0142426
709.194	0.0144328
709.272	0.0146391
709.350	0.0147131
709.428	0.0148695
709.506	0.0150179
709.584	0.0152827
709.663	0.0154594
709.741	0.0155124
709.819	0.0156607
709.897	0.0161201
709.975	0.0162515
710.053	0.0162346
710.131	0.0164999
710.209	0.0165644
710.288	0.0169830
710.366	0.0168314
710.444	0.0167355
710.522	0.0168677
710.600	0.0169292
710.678	0.0167840
710.756	0.0166750
710.834	0.0167173
710.913	0.0162968
710.991	0.0160945
711.069	0.0159777
711.147	0.0157227
711.225	0.0156313
711.303	0.0154020
711.381	0.0152506
711.459	0.0150007
711.538	0.0149004
711.616	0.0147640
711.694	0.0146127
711.772	0.0146951
711.850	0.0145176
711.928	0.0147160
712.006	0.0146420
712.084	0.0145235
712.163	0.0146061
712.241	0.0149077
712.319	0.0147059
712.397	0.0148901
712.475	0.0151897
712.553	0.0151622
712.631	0.0151830
712.709	0.0154263
712.788	0.0156629
712.866	0.0155470
712.944	0.0157741
713.022	0.0158879
713.100	0.0157050
713.178	0.0159605
713.256	0.0159838
713.334	0.0159194
713.413	0.0159135
713.491	0.0158092
713.569	0.0158461
713.647	0.0159172
713.725	0.0159720
713.803	0.0159194
713.881	0.0156027
713.959	0.0155196
714.038	0.0155379
714.116	0.0154636
714.194	0.0155385
714.272	0.0154562
714.350	0.0154916
714.428	0.0152825
714.506	0.0152064
714.584	0.0153703
714.663	0.0153113
714.741	0.0152543
714.819	0.0153034
714.897	0.0152112
714.975	0.0152862
715.053	0.0153385
715.131	0.0153792
715.209	0.0153671
715.288	0.0155036
715.366	0.0155324
715.444	0.0155765
715.522	0.0155495
715.600	0.0155368
715.678	0.0156053
715.756	0.0156470
715.834	0.0157132
715.913	0.0156922
715.991	0.0156884
716.069	0.0156715
716.147	0.0157381
716.225	0.0156233
716.303	0.0157314
716.381	0.0157056
716.459	0.0156949
716.538	0.0153658
716.616	0.0154924
716.694	0.0154455
716.772	0.0152855
716.850	0.0152634
716.928	0.0153571
717.006	0.0151681
717.084	0.0152338
717.163	0.0151432
717.241	0.0153367
717.319	0.0153180
717.397	0.0154059
717.475	0.0155657
717.553	0.0158266
717.631	0.0159451
717.709	0.0160417
717.788	0.0161786
717.866	0.0163091
717.944	0.0165320
718.022	0.0164914
718.100	0.0166253
718.178	0.0167564
718.256	0.0167849
718.334	0.0167777
718.413	0.0167181
718.491	0.0166177
718.569	0.0165088
718.647	0.0164392
718.725	0.0163993
718.803	0.0163400
718.881	0.0160648
718.959	0.0158998
719.038	0.0158265
719.116	0.0156548
719.194	0.0154986
719.272	0.0154510
719.350	0.0153317
719.428	0.0150588
719.506	0.0150620
719.584	0.0150069
719.663	0.0149944
719.741	0.0148382
719.819	0.0148524
719.897	0.0149055
719.975	0.0149410
720.053	0.0149801
720.131	0.0148895
720.209	0.0150047
720.288	0.0152026
720.366	0.0150436
720.444	0.0152115
720.522	0.0153399
720.600	0.0152897
720.678	0.0153022
720.756	0.0154217
720.834	0.0153963
720.913	0.0153241
720.991	0.0154304
721.069	0.0153236
721.147	0.0153291
721.225	0.0153652
721.303	0.0152547
721.381	0.0152330
721.459	0.0152702
721.538	0.0151664
721.616	0.0152286
721.694	0.0153307
721.772	0.0152485
721.850	0.0152908
721.928	0.0152496
722.006	0.0151472
722.084	0.0153085
722.163	0.0154046
722.241	0.0154333
722.319	0.0153248
722.397	0.0154493
722.475	0.0154362
722.553	0.0155054
722.631	0.0155888
722.709	0.0154393
722.788	0.0155056
722.866	0.0154169
722.944	0.0154504
723.022	0.0154993
723.100	0.0153869
723.178	0.0153768
723.256	0.0153511
723.334	0.0153434
723.413	0.0153113
723.491	0.0153434
723.569	0.0153656
723.647	0.0153849
723.725	0.0154440
723.803	0.0155555
723.881	0.0154495
723.959	0.0156723
724.038	0.0156266
724.116	0.0157466
724.194	0.0158813
724.272	0.0159303
724.350	0.0160898
724.428	0.0162563
724.506	0.0162055
724.584	0.0162962
724.663	0.0162288
724.741	0.0163438
724.819	0.0163563
724.897	0.0162281
724.975	0.0161739
725.053	0.0163148
725.131	0.0165183
725.209	0.0163053
725.288	0.0161750
725.366	0.0160867
725.444	0.0160989
725.522	0.0161996
725.600	0.0159502
725.678	0.0159265
725.756	0.0159190
725.834	0.0158137
725.913	0.0157639
725.991	0.0156978
726.069	0.0155006
726.147	0.0153230
726.225	0.0153460
726.303	0.0151871
726.381	0.0151225
726.459	0.0149531
726.538	0.0149123
726.616	0.0147883
726.694	0.0146105
726.772	0.0144720
726.850	0.0143139
726.928	0.0143401
727.006	0.0142899
727.084	0.0141558
727.163	0.0140888
727.241	0.0141252
727.319	0.0140636
727.397	0.0140415
727.475	0.0142217
727.553	0.0142908
727.631	0.0141533
727.709	0.0143275
727.788	0.0143882
727.866	0.0144655
727.944	0.0147556
728.022	0.0149067
728.100	0.0152631
728.178	0.0151944
728.256	0.0152997
728.334	0.0155282
728.413	0.0157487
728.491	0.0158295
728.569	0.0162300
728.647	0.0163892
728.725	0.0165961
728.803	0.0167181
728.881	0.0168562
728.959	0.0168874
729.038	0.0169303
729.116	0.0169506
729.194	0.0170824
729.272	0.0169220
729.350	0.0170254
729.428	0.0169888
729.506	0.0168819
729.584	0.0167247
729.663	0.0166281
729.741	0.0163106
729.819	0.0163997
729.897	0.0162998
729.975	0.0160687
730.053	0.0159363
730.131	0.0157621
730.209	0.0157381
730.288	0.0155726
730.366	0.0152923
730.444	0.0150404
730.522	0.0150641
730.600	0.0150241
730.678	0.0148422
730.756	0.0146597
730.834	0.0146408
730.913	0.0146561
730.991	0.0144666
731.069	0.0144572
731.147	0.0145148
731.225	0.0148121
731.303	0.0145618
731.381	0.0147587
731.459	0.0149212
731.538	0.0149503
731.616	0.0152277
731.694	0.0152580
731.772	0.0153333
731.850	0.0154326
731.928	0.0155733
732.006	0.0155386
732.084	0.0155035
732.163	0.0157369
732.241	0.0157780
732.319	0.0157932
732.397	0.0157371
732.475	0.0154556
732.553	0.0156684
732.631	0.0157241
732.709	0.0156426
732.788	0.0155025
732.866	0.0156110
732.944	0.0154442
733.022	0.0154080
733.100	0.0153125
733.178	0.0153800
733.256	0.0154094
733.334	0.0153629
733.413	0.0154692
733.491	0.0155120
733.569	0.0153399
733.647	0.0154882
733.725	0.0155305
733.803	0.0154751
733.881	0.0155798
733.959	0.0155299
734.038	0.0156590
734.116	0.0156065
734.194	0.0157323
734.272	0.0157307
734.350	0.0159021
734.428	0.0157735
734.506	0.0158610
734.584	0.0158636
734.663	0.0159993
734.741	0.0159209
734.819	0.0159122
734.897	0.0158805
734.975	0.0157665
735.053	0.0157310
735.131	0.0157586
735.209	0.0157468
735.288	0.0155324
735.366	0.0155071
735.444	0.0155528
735.522	0.0154011
735.600	0.0154131
735.678	0.0153234
735.756	0.0153188
735.834	0.0153641
735.913	0.0153168
735.991	0.0153415
736.069	0.0152634
736.147	0.0153004
736.225	0.0153262
736.303	0.0153512
736.381	0.0151937
736.459	0.0151414
736.538	0.0152800
736.616	0.0151751
736.694	0.0150082
736.772	0.0151297
736.850	0.0152401
736.928	0.0151883
737.006	0.0151474
737.084	0.0150410
737.163	0.0151013
737.241	0.0152443
737.319	0.0151182
737.397	0.0149578
737.475	0.0149656
737.553	0.0149192
737.631	0.0149152
737.709	0.0150101
737.788	0.0150347
737.866	0.0150569
737.944	0.0150983
738.022	0.0152637
738.100	0.0153541
738.178	0.0154970
738.256	0.0157310
738.334	0.0157758
738.413	0.0158724
738.491	0.0159194
738.569	0.0161953
738.647	0.0161981
738.725	0.0163871
738.803	0.0165763
738.881	0.0164987
738.959	0.0166237
739.038	0.0166275
739.116	0.0168029
739.194	0.0167354
739.272	0.0167158
739.350	0.0167571
739.428	0.0167843
739.506	0.0166472
739.584	0.0165367
739.663	0.0163800
739.741	0.0163949
739.819	0.0163934
739.897	0.0160641
739.975	0.0159234
740.053	0.0159817
740.131	0.0157151
740.209	0.0155341
740.288	0.0155118
740.366	0.0153494
740.444	0.0153048
740.522	0.0151895
740.600	0.0150858
740.678	0.0148605
740.756	0.0148504
740.834	0.0147697
740.913	0.0147987
740.991	0.0147544
741.069	0.0146651
741.147	0.0146793
741.225	0.0147541
741.303	0.0148843
741.381	0.0149375
741.459	0.0149792
741.538	0.0150159
741.616	0.0150047
741.694	0.0150630
741.772	0.0152440
741.850	0.0150861
741.928	0.0151720
742.006	0.0149832
742.084	0.0151999
742.163	0.0151685
742.241	0.0152177
742.319	0.0152127
742.397	0.0151661
742.475	0.0152335
742.553	0.0154256
742.631	0.0152055
742.709	0.0154940
742.788	0.0156611
742.866	0.0156499
742.944	0.0159060
743.022	0.0159588
743.100	0.0160751
743.178	0.0161600
743.256	0.0163316
743.334	0.0165162
743.413	0.0166908
743.491	0.0167019
743.569	0.0167072
743.647	0.0167374
743.725	0.0169889
743.803	0.0169185
743.881	0.0168929
743.959	0.0169254
744.038	0.0167815
744.116	0.0166023
744.194	0.0166730
744.272	0.0164721
744.350	0.0159937
744.428	0.0158870
744.506	0.0156774
744.584	0.0155110
744.663	0.0151476
744.741	0.0150097
744.819	0.0149430
744.897	0.0145544
744.975	0.0144684
745.053	0.0143482
745.131	0.0142354
745.209	0.0142946
745.288	0.0142505
745.366	0.0142742
745.444	0.0143438
745.522	0.0144022
745.600	0.0146350
745.678	0.0145827
745.756	0.0149656
745.834	0.0149458
745.913	0.0151501
745.991	0.0152737
746.069	0.0153593
746.147	0.0155079
746.225	0.0155360
746.303	0.0156319
746.381	0.0157324
746.459	0.0158070
746.538	0.0157867
746.616	0.0157564
746.694	0.0158237
746.772	0.0158125
746.850	0.0159039
746.928	0.0156599
747.006	0.0155896
747.084	0.0158131
747.163	0.0157177
747.241	0.0155041
747.319	0.0155455
747.397	0.0155754
747.475	0.0154881
747.553	0.0157024
747.631	0.0156650
747.709	0.0158978
747.788	0.0158457
747.866	0.0157977
747.944	0.0158240
748.022	0.0159317
748.100	0.0160397
748.178	0.0160538
748.256	0.0161487
748.334	0.0162892
748.413	0.0161469
748.491	0.0162770
748.569	0.0164701
748.647	0.0164698
748.725	0.0163701
748.803	0.0161353
748.881	0.0162393
748.959	0.0162135
749.038	0.0160829
749.116	0.0159785
749.194	0.0159029
749.272	0.0156312
749.350	0.0155959
749.428	0.0153984
749.506	0.0152969
749.584	0.0153091
749.663	0.0151830
749.741	0.0148709
749.819	0.0150306
749.897	0.0148287
749.975	0.0148531
750.053	0.0146296
750.131	0.0147594
750.209	0.0146674
750.288	0.0145213
750.366	0.0146326
750.444	0.0145843
750.522	0.0146146
750.600	0.0146725
750.678	0.0147680
750.756	0.0149101
750.834	0.0148990
750.913	0.0151018
750.991	0.0151228
751.069	0.0153306
751.147	0.0153746
751.225	0.0155201
751.303	0.0155768
751.381	0.0157191
751.459	0.0157256
751.538	0.0159372
751.616	0.0159884
751.694	0.0160558
751.772	0.0161792
751.850	0.0159637
751.928	0.0160905
752.006	0.0160616
752.084	0.0160760
752.163	0.0159702
752.241	0.0158609
752.319	0.0157193
752.397	0.0157809
752.475	0.0155892
752.553	0.0154858
752.631	0.0155022
752.709	0.0154716
752.788	0.0153610
752.866	0.0153651
752.944	0.0155641
753.022	0.0152872
753.100	0.0153530
753.178	0.0154438
753.256	0.0153200
753.334	0.0153139
753.413	0.0153022
753.491	0.0153060
753.569	0.0153888
753.647	0.0154106
753.725	0.0154607
753.803	0.0153619
753.881	0.0153939
753.959	0.0154445
754.038	0.0154490
754.116	0.0155689
754.194	0.0153508
754.272	0.0155307
754.350	0.0155142
754.428	0.0155052
754.506	0.0156610
754.584	0.0156093
754.663	0.0154932
754.741	0.0157334
754.819	0.0156486
754.897	0.0154946
754.975	0.0156789
755.053	0.0157242
755.131	0.0157453
755.209	0.0157974
755.288	0.0157672
755.366	0.0158817
755.444	0.0159475
755.522	0.0159599
755.600	0.0159061
755.678	0.0158649
755.756	0.0158087
755.834	0.0158904
755.913	0.0157723
755.991	0.0158006
756.069	0.0158915
756.147	0.0157346
756.225	0.0156388
756.303	0.0157940
756.381	0.0158480
756.459	0.0157519
756.538	0.0156173
756.616	0.0157602
756.694	0.0158327
756.772	0.0157317
756.850	0.0157849
756.928	0.0157175
757.006	0.0157714
757.084	0.0159423
757.163	0.0156573
757.241	0.0154819
757.319	0.0154932
757.397	0.0154196
757.475	0.0154402
757.553	0.0152761
757.631	0.0152171
757.709	0.0150161
757.788	0.0148759
757.866	0.0147215
757.944	0.0145875
758.022	0.0144688
758.100	0.0144889
758.178	0.0143697
758.256	0.0142592
758.334	0.0142226
758.413	0.0140129
758.491	0.0141673
758.569	0.0142339
758.647	0.0143674
758.725	0.0144965
758.803	0.0146725
758.881	0.0147876
758.959	0.0149196
759.038	0.0151801
759.116	0.0154635
759.194	0.0156379
759.272	0.0158660
759.350	0.0162117
759.428	0.0163619
759.506	0.0164052
759.584	0.0168866
759.663	0.0168771
759.741	0.0171104
759.819	0.0171826
759.897	0.0172963
759.975	0.0173830
760.053	0.0174894
760.131	0.0173405
760.209	0.0172449
760.288	0.0170073
760.366	0.0169916
760.444	0.0170856
760.522	0.0166837
760.600	0.0165075
760.678	0.0163219
760.756	0.0161521
760.834	0.0158129
760.913	0.0156828
760.991	0.0156434
761.069	0.0154778
761.147	0.0152052
761.225	0.0151412
761.303	0.0148771
761.381	0.0149654
761.459	0.0148347
761.538	0.0146931
761.616	0.0146104
761.694	0.0146725
761.772	0.0148689
761.850	0.0147066
761.928	0.0147243
762.006	0.0146376
762.084	0.0148226
762.163	0.0147360
762.241	0.0147974
762.319	0.0150524
762.397	0.0150729
762.475	0.0150401
762.553	0.0153454
762.631	0.0152045
762.709	0.0155198
762.788	0.0154344
762.866	0.0154789
762.944	0.0155451
763.022	0.0155337
763.100	0.0154854
763.178	0.0155461
763.256	0.0156588
763.334	0.0158454
763.413	0.0157880
763.491	0.0158441
763.569	0.0157261
763.647	0.0157530
763.725	0.0156457
763.803	0.0157433
763.881	0.0156424
763.959	0.0158371
764.038	0.0156153
764.116	0.0157110
764.194	0.0156388
764.272	0.0157983
764.350	0.0155087
764.428	0.0157742
764.506	0.0155975
764.584	0.0155811
764.663	0.0156720
764.741	0.0154111
764.819	0.0155878
764.897	0.0155209
764.975	0.0154655
765.053	0.0154448
765.131	0.0153510
765.209	0.0154031
765.288	0.0154150
765.366	0.0153642
765.444	0.0152597
765.522	0.0153172
765.600	0.0153809
765.678	0.0153543
765.756	0.0154026
765.834	0.0152798
765.913	0.0152319
765.991	0.0152746
766.069	0.0153464
766.147	0.0152608
766.225	0.0151939
766.303	0.0153677
766.381	0.0153322
766.459	0.0153175
766.538	0.0153393
766.616	0.0153696
766.694	0.0153455
766.772	0.0152630
766.850	0.0153834
766.928	0.0154100
767.006	0.0152564
767.084	0.0152229
767.163	0.0154033
767.241	0.0153385
767.319	0.0151839
767.397	0.0155740
767.475	0.0153442
767.553	0.0154363
767.631	0.0154700
767.709	0.0155376
767.788	0.0154734
767.866	0.0157443
767.944	0.0157254
768.022	0.0155719
768.100	0.0156313
768.178	0.0157504
768.256	0.0158192
768.334	0.0157378
768.413	0.0156798
768.491	0.0156696
768.569	0.0158891
768.647	0.0159043
768.725	0.0160698
768.803	0.0161530
768.881	0.0160434
768.959	0.0160400
769.038	0.0160142
769.116	0.0162898
769.194	0.0161372
769.272	0.0161553
769.350	0.0163223
769.428	0.0163510
769.506	0.0162365
769.584	0.0161751
769.663	0.0162042
769.741	0.0161400
769.819	0.0160683
769.897	0.0160024
769.975	0.0160926
770.053	0.0159889
770.131	0.0158530
770.209	0.0158627
770.288	0.0158140
770.366	0.0156118
770.444	0.0155311
770.522	0.0155270
770.600	0.0154671
770.678	0.0155070
770.756	0.0154633
770.834	0.0154504
770.913	0.0153475
770.991	0.0153710
771.069	0.0153927
771.147	0.0151961
771.225	0.0154042
771.303	0.0153254
771.381	0.0153187
771.459	0.0154195
771.538	0.0155753
771.616	0.0155652
771.694	0.0156197
771.772	0.0157123
771.850	0.0155779
771.928	0.0155206
772.006	0.0157203
772.084	0.0154915
772.163	0.0155119
772.241	0.0154926
772.319	0.0156004
772.397	0.0154382
772.475	0.0154401
772.553	0.0155957
772.631	0.0155062
772.709	0.0155090
772.788	0.0153026
772.866	0.0154864
772.944	0.0153944
773.022	0.0155501
773.100	0.0154391
773.178	0.0154355
773.256	0.0155014
773.334	0.0154749
773.413	0.0155180
773.491	0.0155199
773.569	0.0155064
773.647	0.0155242
773.725	0.0156062
773.803	0.0156587
773.881	0.0156455
773.959	0.0156033
774.038	0.0156391
774.116	0.0156162
774.194	0.0156169
774.272	0.0155878
774.350	0.0153841
774.428	0.0154770
774.506	0.0155150
774.584	0.0155057
774.663	0.0153938
774.741	0.0154427
774.819	0.0154798
774.897	0.0154728
774.975	0.0154858
775.053	0.0154009
775.131	0.0154420
775.209	0.0153497
775.288	0.0153462
775.366	0.0151709
775.444	0.0152187
775.522	0.0152344
775.600	0.0152175
775.678	0.0151952
775.756	0.0152118
775.834	0.0150326
775.913	0.0150595
775.991	0.0151456
776.069	0.0150715
776.147	0.0151079
776.225	0.0150921
776.303	0.0151769
776.381	0.0152364
776.459	0.0153336
776.538	0.0151979
776.616	0.0155145
776.694	0.0155232
776.772	0.0154871
776.850	0.0157006
776.928	0.0157974
777.006	0.0157924
777.084	0.0159214
777.163	0.0160701
777.241	0.0159483
777.319	0.0158405
777.397	0.0161818
777.475	0.0161383
777.553	0.0161662
777.631	0.0162888
777.709	0.0162054
777.788	0.0161534
777.866	0.0162468
777.944	0.0160960
778.022	0.0161366
778.100	0.0160527
778.178	0.0159553
778.256	0.0157430
778.334	0.0158937
778.413	0.0156641
778.491	0.0156048
778.569	0.0155451
778.647	0.0155843
778.725	0.0154744
778.803	0.0153333
778.881	0.0153030
778.959	0.0152361
779.038	0.0153616
779.116	0.0155278
779.194	0.0153374
779.272	0.0152655
779.350	0.0153204
779.428	0.0153776
779.506	0.0154562
779.584	0.0154081
779.663	0.0153361
779.741	0.0156218
779.819	0.0157079
779.897	0.0156688
779.975	0.0155688
780.053	0.0157149
780.131	0.0157011
780.209	0.0158114
780.288	0.0157590
780.366	0.0158356
780.444	0.0157714
780.522	0.0156690
780.600	0.0157137
780.678	0.0156481
780.756	0.0155694
780.834	0.0154618
780.913	0.0154677
780.991	0.0155112
781.069	0.0154920
781.147	0.0153403
781.225	0.0153867
781.303	0.0152453
781.381	0.0151949
781.459	0.0151807
781.538	0.0152431
781.616	0.0151217
781.694	0.0151591
781.772	0.0150402
781.850	0.0150385
781.928	0.0151500
782.006	0.0150694
782.084	0.0150822
782.163	0.0152847
782.241	0.0152148
782.319	0.0152856
782.397	0.0153158
782.475	0.0154358
782.553	0.0155028
782.631	0.0156332
782.709	0.0154147
782.788	0.0156250
782.866	0.0155636
782.944	0.0157583
783.022	0.0157835
783.100	0.0158121
783.178	0.0157091
783.256	0.0157829
783.334	0.0157323
783.413	0.0158377
783.491	0.0159002
783.569	0.0157564
783.647	0.0158421
783.725	0.0157580
783.803	0.0158410
783.881	0.0156874
783.959	0.0158596
784.038	0.0157634
784.116	0.0157145
784.194	0.0156496
784.272	0.0156829
784.350	0.0156365
784.428	0.0155547
784.506	0.0155806
784.584	0.0154073
784.663	0.0154311
784.741	0.0155286
784.819	0.0154579
784.897	0.0154420
784.975	0.0154112
785.053	0.0153320
785.131	0.0152017
785.209	0.0152335
785.288	0.0152956
785.366	0.0152393
785.444	0.0153403
785.522	0.0154514
785.600	0.0153714
785.678	0.0153210
785.756	0.0151915
785.834	0.0152602
785.913	0.0153423
785.991	0.0151604
786.069	0.0153681
786.147	0.0153607
786.225	0.0154201
786.303	0.0154491
786.381	0.0154539
786.459	0.0154752
786.538	0.0156023
786.616	0.0155756
786.694	0.0157389
786.772	0.0157113
786.850	0.0157339
786.928	0.0158663
787.006	0.0159326
787.084	0.0160456
787.163	0.0161488
787.241	0.0160694
787.319	0.0160643
787.397	0.0161689
787.475	0.0161781
787.553	0.0161647
787.631	0.0161407
787.709	0.0161353
787.788	0.0162665
787.866	0.0159586
787.944	0.0159658
788.022	0.0159586
788.100	0.0159796
788.178	0.0157706
788.256	0.0156613
788.334	0.0157623
788.413	0.0157282
788.491	0.0157641
788.569	0.0155466
788.647	0.0155932
788.725	0.0153938
788.803	0.0155222
788.881	0.0155608
788.959	0.0153951
789.038	0.0153474
789.116	0.0153010
789.194	0.0154506
789.272	0.0154385
789.350	0.0154327
789.428	0.0154809
789.506	0.0154993
789.584	0.0153876
789.663	0.0155025
789.741	0.0153623
789.819	0.0154872
789.897	0.0153918
789.975	0.0152819
790.053	0.0154458
790.131	0.0154134
790.209	0.0152037
790.288	0.0151555
790.366	0.0150932
790.444	0.0152304
790.522	0.0151540
790.600	0.0151682
790.678	0.0151405
790.756	0.0150181
790.834	0.0151786
790.913	0.0152264
790.991	0.0151122
791.069	0.0151719
791.147	0.0151379
791.225	0.0151150
791.303	0.0152383
791.381	0.0152442
791.459	0.0152991
791.538	0.0152648
791.616	0.0152994
791.694	0.0154457
791.772	0.0154694
791.850	0.0154848
791.928	0.0154505
792.006	0.0155854
792.084	0.0157323
792.163	0.0157503
792.241	0.0159019
792.319	0.0158993
792.397	0.0159200
792.475	0.0159621
792.553	0.0160037
792.631	0.0161662
792.709	0.0162183
792.788	0.0161922
792.866	0.0162374
792.944	0.0162271
793.022	0.0163481
793.100	0.0164238
793.178	0.0162640
793.256	0.0163712
793.334	0.0162711
793.413	0.0163509
793.491	0.0162203
793.569	0.0161936
793.647	0.0158153
793.725	0.0158437
793.803	0.0158118
793.881	0.0156789
793.959	0.0156483
794.038	0.0156544
794.116	0.0155889
794.194	0.0154543
794.272	0.0153479
794.350	0.0154030
794.428	0.0151981
794.506	0.0152981
794.584	0.0151781
794.663	0.0151727
794.741	0.0152026
794.819	0.0152305
794.897	0.0151772
794.975	0.0150307
795.053	0.0150959
795.131	0.0151271
795.209	0.0152935
795.288	0.0151475
795.366	0.0152351
795.444	0.0151968
795.522	0.0151082
795.600	0.0151142
795.678	0.0152896
795.756	0.0153206
795.834	0.0153109
795.913	0.0153525
795.991	0.0151756
796.069	0.0152581
796.147	0.0153112
796.225	0.0153971
796.303	0.0153873
796.381	0.0154626
796.459	0.0154271
796.538	0.0155133
796.616	0.0153884
796.694	0.0155737
796.772	0.0156411
796.850	0.0155328
796.928	0.0155991
797.006	0.0156064
797.084	0.0157330
797.163	0.0157159
797.241	0.0157779
797.319	0.0156787
797.397	0.0157375
797.475	0.0157095
797.553	0.0156554
797.631	0.0158820
797.709	0.0157072
797.788	0.0158347
797.866	0.0159376
797.944	0.0156413
798.022	0.0158477
798.100	0.0159046
798.178	0.0159496
798.256	0.0159058
798.334	0.0158040
798.413	0.0159817
798.491	0.0157180
798.569	0.0158934
798.647	0.0159187
798.725	0.0159046
798.803	0.0159103
798.881	0.0158715
798.959	0.0157110
799.038	0.0158875
799.116	0.0157491
799.194	0.0156991
799.272	0.0155924
799.350	0.0155750
799.428	0.0156789
799.506	0.0155475
799.584	0.0153098
799.663	0.0154987
799.741	0.0154014
799.819	0.0153144
799.897	0.0152605
799.975	0.0152566
800.053	0.0152163
800.131	0.0152828
800.209	0.0152433
800.288	0.0151908
800.366	0.0152301
800.444	0.0152014
800.522	0.0153436
800.600	0.0152764
800.678	0.0153088
800.756	0.0154160
800.834	0.0153310
800.913	0.0154409
800.991	0.0154485
801.069	0.0155627
801.147	0.0154903
801.225	0.0155402
801.303	0.0156470
801.381	0.0154877
801.459	0.0155267
801.538	0.0156000
801.616	0.0154789
801.694	0.0154853
801.772	0.0155232
801.850	0.0153001
801.928	0.0153381
802.006	0.0154353
802.084	0.0152514
802.163	0.0152777
802.241	0.0153921
802.319	0.0153693
802.397	0.0151978
802.475	0.0152254
802.553	0.0153684
802.631	0.0153404
802.709	0.0153569
802.788	0.0154391
802.866	0.0155890
802.944	0.0155025
803.022	0.0154868
803.100	0.0156078
803.178	0.0155937
803.256	0.0157934
803.334	0.0157857
803.413	0.0157041
803.491	0.0157629
803.569	0.0157549
803.647	0.0157679
803.725	0.0158612
803.803	0.0158558
803.881	0.0156628
803.959	0.0158062
804.038	0.0158929
804.116	0.0157543
804.194	0.0157136
804.272	0.0157409
804.350	0.0156303
804.428	0.0157303
804.506	0.0156770
804.584	0.0156587
804.663	0.0156742
804.741	0.0158081
804.819	0.0155389
804.897	0.0156087
804.975	0.0155559
805.053	0.0155669
805.131	0.0155102
805.209	0.0154032
805.288	0.0154973
805.366	0.0155276
805.444	0.0154336
805.522	0.0153759
805.600	0.0154620
805.678	0.0154845
805.756	0.0154266
805.834	0.0153553
805.913	0.0152602
805.991	0.0154166
806.069	0.0153069
806.147	0.0153938
806.225	0.0153762
806.303	0.0154236
806.381	0.0154144
806.459	0.0153819
806.538	0.0153314
806.616	0.0153001
806.694	0.0155140
806.772	0.0154501
806.850	0.0154290
806.928	0.0154171
807.006	0.0155653
807.084	0.0155701
807.163	0.0155947
807.241	0.0155078
807.319	0.0154043
807.397	0.0154955
807.475	0.0155276
807.553	0.0155093
807.631	0.0154533
807.709	0.0156926
807.788	0.0155738
807.866	0.0156728
807.944	0.0156502
808.022	0.0155585
808.100	0.0156238
808.178	0.0156341
808.256	0.0157118
808.334	0.0156066
808.413	0.0156626
808.491	0.0156392
808.569	0.0155938
808.647	0.0157293
808.725	0.0156166
808.803	0.0157066
808.881	0.0157861
808.959	0.0158620
809.038	0.0156773
809.116	0.0157464
809.194	0.0157205
809.272	0.0157026
809.350	0.0157001
809.428	0.0158343
809.506	0.0158407
809.584	0.0157053
809.663	0.0157535
809.741	0.0156392
809.819	0.0158115
809.897	0.0157161
809.975	0.0157167
810.053	0.0156931
810.131	0.0156920
810.209	0.0156728
810.288	0.0155978
810.366	0.0155851
810.444	0.0155465
810.522	0.0155582
810.600	0.0155003
810.678	0.0154408
810.756	0.0153278
810.834	0.0154409
810.913	0.0153663
810.991	0.0153954
811.069	0.0154252
811.147	0.0152969
811.225	0.0153555
811.303	0.0153849
811.381	0.0153973
811.459	0.0152837
811.538	0.0152338
811.616	0.0150445
811.694	0.0152158
811.772	0.0151830
811.850	0.0152539
811.928	0.0151734
812.006	0.0151900
812.084	0.0152470
812.163	0.0151100
812.241	0.0151891
812.319	0.0150941
812.397	0.0151326
812.475	0.0152126
812.553	0.0152796
812.631	0.0153086
812.709	0.0152744
812.788	0.0152866
812.866	0.0153146
812.944	0.0152966
813.022	0.0154783
813.100	0.0154696
813.178	0.0155065
813.256	0.0154237
813.334	0.0155402
813.413	0.0155399
813.491	0.0155015
813.569	0.0155831
813.647	0.0155770
813.725	0.0157655
813.803	0.0155608
813.881	0.0156475
813.959	0.0157232
814.038	0.0155653
814.116	0.0156670
814.194	0.0158618
814.272	0.0156720
814.350	0.0158691
814.428	0.0159353
814.506	0.0158299
814.584	0.0158768
814.663	0.0159458
814.741	0.0157724
814.819	0.0158587
814.897	0.0158742
814.975	0.0157767
815.053	0.0156595
815.131	0.0157914
815.209	0.0158499
815.288	0.0158449
815.366	0.0157047
815.444	0.0157242
815.522	0.0156777
815.600	0.0158192
815.678	0.0155888
815.756	0.0155770
815.834	0.0156582
815.913	0.0156704
815.991	0.0155724
816.069	0.0156170
816.147	0.0154849
816.225	0.0154681
816.303	0.0155714
816.381	0.0156799
816.459	0.0154978
816.538	0.0154330
816.616	0.0156089
816.694	0.0156013
816.772	0.0153603
816.850	0.0155106
816.928	0.0155435
817.006	0.0155759
817.084	0.0155630
817.163	0.0153960
817.241	0.0155631
817.319	0.0153978
817.397	0.0154244
817.475	0.0154542
817.553	0.0156327
817.631	0.0154162
817.709	0.0154218
817.788	0.0154823
817.866	0.0153313
817.944	0.0154194
818.022	0.0153052
818.100	0.0154388
818.178	0.0153097
818.256	0.0153513
818.334	0.0153687
818.413	0.0153632
818.491	0.0153568
818.569	0.0153176
818.647	0.0154685
818.725	0.0154603
818.803	0.0153358
818.881	0.0153089
818.959	0.0154896
819.038	0.0155555
819.116	0.0155109
819.194	0.0156215
819.272	0.0156020
819.350	0.0155384
819.428	0.0156986
819.506	0.0155978
819.584	0.0155328
819.663	0.0155642
819.741	0.0156287
819.819	0.0157504
819.897	0.0156569
819.975	0.0155458
820.053	0.0156155
820.131	0.0157967
820.209	0.0155836
820.288	0.0157175
820.366	0.0155721
820.444	0.0154812
820.522	0.0156828
820.600	0.0157373
820.678	0.0155202
820.756	0.0155791
820.834	0.0155357
820.913	0.0156509
820.991	0.0155584
821.069	0.0157225
821.147	0.0156419
821.225	0.0156631
821.303	0.0156210
821.381	0.0156461
821.459	0.0155491
821.538	0.0157538
821.616	0.0155743
821.694	0.0156493
821.772	0.0157422
821.850	0.0156716
821.928	0.0156967
822.006	0.0156724
822.084	0.0156868
822.163	0.0156611
822.241	0.0155661
822.319	0.0157083
822.397	0.0155789
822.475	0.0155917
822.553	0.0155415
822.631	0.0155626
822.709	0.0155929
822.788	0.0154488
822.866	0.0153952
822.944	0.0153522
823.022	0.0154491
823.100	0.0153272
823.178	0.0154198
823.256	0.0151035
823.334	0.0153710
823.413	0.0153254
823.491	0.0151960
823.569	0.0152225
823.647	0.0153185
823.725	0.0153259
823.803	0.0152939
823.881	0.0152679
823.959	0.0152312
824.038	0.0151792
824.116	0.0151916
824.194	0.0152462
824.272	0.0152940
824.350	0.0152453
824.428	0.0152296
824.506	0.0151813
824.584	0.0153413
824.663	0.0152409
824.741	0.0152611
824.819	0.0152981
824.897	0.0153711
824.975	0.0154120
825.053	0.0154806
825.131	0.0155579
825.209	0.0155001
825.288	0.0156232
825.366	0.0155879
825.444	0.0155743
825.522	0.0154937
825.600	0.0154931
825.678	0.0156715
825.756	0.0156026
825.834	0.0156165
825.913	0.0155441
825.991	0.0156039
826.069	0.0155722
826.147	0.0155202
826.225	0.0155534
826.303	0.0156041
826.381	0.0156178
826.459	0.0155826
826.538	0.0154797
826.616	0.0155025
826.694	0.0153914
826.772	0.0156682
826.850	0.0155773
826.928	0.0155152
827.006	0.0156803
827.084	0.0156077
827.163	0.0156901
827.241	0.0156179
827.319	0.0156242
827.397	0.0157065
827.475	0.0156966
827.553	0.0156285
827.631	0.0157315
827.709	0.0156851
827.788	0.0156956
827.866	0.0157947
827.944	0.0157736
828.022	0.0156427
828.100	0.0156562
828.178	0.0157404
828.256	0.0157504
828.334	0.0157129
828.413	0.0154957
828.491	0.0157083
828.569	0.0157190
828.647	0.0155972
828.725	0.0156301
828.803	0.0155908
828.881	0.0156981
828.959	0.0154589
829.038	0.0155709
829.116	0.0155720
829.194	0.0155846
829.272	0.0154830
829.350	0.0155033
829.428	0.0154784
829.506	0.0153814
829.584	0.0153962
829.663	0.0154576
829.741	0.0155656
829.819	0.0154978
829.897	0.0154098
829.975	0.0153537
830.053	0.0154204
830.131	0.0153867
830.209	0.0154987
830.288	0.0155427
830.366	0.0156494
830.444	0.0155514
830.522	0.0155102
830.600	0.0155049
830.678	0.0157787
830.756	0.0156426
830.834	0.0156044
830.913	0.0157864
830.991	0.0156855
831.069	0.0157883
831.147	0.0157935
831.225	0.0156776
831.303	0.0157136
831.381	0.0155472
831.459	0.0157725
831.538	0.0158199
831.616	0.0158086
831.694	0.0156768
831.772	0.0157784
831.850	0.0157600
831.928	0.0156226
832.006	0.0157598
832.084	0.0158064
832.163	0.0155162
832.241	0.0155378
832.319	0.0157689
832.397	0.0157630
832.475	0.0155132
832.553	0.0155593
832.631	0.0155099
832.709	0.0153511
832.788	0.0153978
832.866	0.0154237
832.944	0.0154681
833.022	0.0153561
833.100	0.0152464
833.178	0.0156212
833.256	0.0153640
833.334	0.0152547
833.413	0.0152291
833.491	0.0151904
833.569	0.0151252
833.647	0.0153266
833.725	0.0151801
833.803	0.0154518
833.881	0.0153513
833.959	0.0152513
834.038	0.0152751
834.116	0.0153783
834.194	0.0153133
834.272	0.0151511
834.350	0.0153740
834.428	0.0154052
834.506	0.0155216
834.584	0.0153681
834.663	0.0154458
834.741	0.0154668
834.819	0.0155666
834.897	0.0156049
834.975	0.0155372
835.053	0.0155196
835.131	0.0155795
835.209	0.0155770
835.288	0.0155617
835.366	0.0155781
835.444	0.0156441
835.522	0.0154660
835.600	0.0156548
835.678	0.0156786
835.756	0.0155597
835.834	0.0155087
835.913	0.0154737
835.991	0.0154945
836.069	0.0156026
836.147	0.0156082
836.225	0.0157108
836.303	0.0157106
836.381	0.0155540
836.459	0.0155992
836.538	0.0155319
836.616	0.0155463
836.694	0.0155944
836.772	0.0155975
836.850	0.0156555
836.928	0.0156464
837.006	0.0154536
837.084	0.0155061
837.163	0.0157342
837.241	0.0156442
837.319	0.0155344
837.397	0.0156136
837.475	0.0156863
837.553	0.0155955
837.631	0.0155505
837.709	0.0155775
837.788	0.0155253
837.866	0.0155899
837.944	0.0155469
838.022	0.0155858
838.100	0.0156053
838.178	0.0153660
838.256	0.0154447
838.334	0.0155714
838.413	0.0156006
838.491	0.0155107
838.569	0.0156181
838.647	0.0155504
838.725	0.0155145
838.803	0.0155486
838.881	0.0155546
838.959	0.0154913
839.038	0.0157047
839.116	0.0155936
839.194	0.0155440
839.272	0.0156268
839.350	0.0157063
839.428	0.0156451
839.506	0.0156293
839.584	0.0156205
839.663	0.0157367
839.741	0.0156797
839.819	0.0155017
839.897	0.0155950
839.975	0.0157932
840.053	0.0157957
840.131	0.0156322
840.209	0.0156884
840.288	0.0156689
840.366	0.0156706
840.444	0.0156975
840.522	0.0156133
840.600	0.0156738
840.678	0.0156008
840.756	0.0156271
840.834	0.0155975
840.913	0.0155772
840.991	0.0156355
841.069	0.0155888
841.147	0.0153997
841.225	0.0155405
841.303	0.0154136
841.381	0.0154205
841.459	0.0153436
841.538	0.0153389
841.616	0.0154327
841.694	0.0154028
841.772	0.0152370
841.850	0.0152797
841.928	0.0154086
842.006	0.0154507
842.084	0.0153209
842.163	0.0153036
842.241	0.0152981
842.319	0.0155394
842.397	0.0155377
842.475	0.0153799
842.553	0.0154997
842.631	0.0155745
842.709	0.0154062
842.788	0.0155645
842.866	0.0157391
842.944	0.0155712
843.022	0.0157215
843.100	0.0156688
843.178	0.0155409
843.256	0.0155843
843.334	0.0157026
843.413	0.0155744
843.491	0.0157381
843.569	0.0156506
843.647	0.0154576
843.725	0.0154027
843.803	0.0155689
843.881	0.0156119
843.959	0.0155791
844.038	0.0155849
844.116	0.0155820
844.194	0.0157347
844.272	0.0155051
844.350	0.0155009
844.428	0.0155262
844.506	0.0156150
844.584	0.0154992
844.663	0.0155143
844.741	0.0155707
844.819	0.0155281
844.897	0.0155502
844.975	0.0156125
845.053	0.0156741
845.131	0.0154719
845.209	0.0156239
845.288	0.0156110
845.366	0.0156414
845.444	0.0155334
845.522	0.0156329
845.600	0.0155449
845.678	0.0156045
845.756	0.0155734
845.834	0.0156186
845.913	0.0154555
845.991	0.0156200
846.069	0.0155796
846.147	0.0154929
846.225	0.0154094
846.303	0.0154193
846.381	0.0155665
846.459	0.0154939
846.538	0.0153542
846.616	0.0154493
846.694	0.0155095
846.772	0.0154733
846.850	0.0154767
846.928	0.0154791
847.006	0.0155285
847.084	0.0153239
847.163	0.0155303
847.241	0.0155027
847.319	0.0154220
847.397	0.0155851
847.475	0.0157367
847.553	0.0155344
847.631	0.0155344
847.709	0.0155058
847.788	0.0155275
847.866	0.0156709
847.944	0.0155056
848.022	0.0155739
848.100	0.0157067
848.178	0.0155389
848.256	0.0155187
848.334	0.0154868
848.413	0.0156487
848.491	0.0156181
848.569	0.0155668
848.647	0.0155539
848.725	0.0156308
848.803	0.0156379
848.881	0.0156834
848.959	0.0155793
849.038	0.0155651
849.116	0.0154523
849.194	0.0154623
849.272	0.0154751
849.350	0.0155777
849.428	0.0155646
849.506	0.0154942
849.584	0.0155094
849.663	0.0154867
849.741	0.0155944
849.819	0.0154977
849.897	0.0155553
849.975	0.0154617
850.053	0.0155698
850.131	0.0155441
850.209	0.0154627
850.288	0.0156277
850.366	0.0155769
850.444	0.0155016
850.522	0.0155373
850.600	0.0154312
850.678	0.0156291
850.756	0.0154332
850.834	0.0154547
850.913	0.0153560
850.991	0.0154885
851.069	0.0154573
851.147	0.0156818
851.225	0.0157243
851.303	0.0154494
851.381	0.0156881
851.459	0.0156269
851.538	0.0156309
851.616	0.0155907
851.694	0.0156077
851.772	0.0155905
851.850	0.0155540
851.928	0.0155190
852.006	0.0156065
852.084	0.0156247
852.163	0.0156242
852.241	0.0156107
852.319	0.0155566
852.397	0.0154761
852.475	0.0156587
852.553	0.0154988
852.631	0.0156821
852.709	0.0157386
852.788	0.0157036
852.866	0.0158012
852.944	0.0157973
853.022	0.0155579
853.100	0.0157413
853.178	0.0157233
853.256	0.0156164
853.334	0.0157001
853.413	0.0156271
853.491	0.0156799
853.569	0.0157648
853.647	0.0155680
853.725	0.0157222
853.803	0.0156364
853.881	0.0155196
853.959	0.0155621
854.038	0.0157059
854.116	0.0156634
854.194	0.0154739
854.272	0.0155658
854.350	0.0154932
854.428	0.0155659
854.506	0.0154430
854.584	0.0155870
854.663	0.0155881
854.741	0.0155785
854.819	0.0156203
854.897	0.0155386
854.975	0.0155206
855.053	0.0155642
855.131	0.0155367
855.209	0.0154530
855.288	0.0154224
855.366	0.0156295
855.444	0.0155968
855.522	0.0154690
855.600	0.0156122
855.678	0.0156884
855.756	0.0156299
855.834	0.0156516
855.913	0.0154862
855.991	0.0156866
856.069	0.0156765
856.147	0.0157066
856.225	0.0156692
856.303	0.0157919
856.381	0.0159414
856.459	0.0157625
856.538	0.0157030
856.616	0.0157401
856.694	0.0156989
856.772	0.0157484
856.850	0.0157246
856.928	0.0157520
857.006	0.0155610
857.084	0.0156726
857.163	0.0156004
857.241	0.0156739
857.319	0.0156188
857.397	0.0153910
857.475	0.0154939
857.553	0.0153832
857.631	0.0153954
857.709	0.0155234
857.788	0.0154576
857.866	0.0153851
857.944	0.0152661
858.022	0.0153934
858.100	0.0154166
858.178	0.0154187
858.256	0.0153512
858.334	0.0153329
858.413	0.0152855
858.491	0.0153859
858.569	0.0152904
858.647	0.0152914
858.725	0.0153775
858.803	0.0154324
858.881	0.0153289
858.959	0.0151775
859.038	0.0153410
859.116	0.0154007
859.194	0.0153182
859.272	0.0154686
859.350	0.0154287
859.428	0.0155425
859.506	0.0155708
859.584	0.0154847
859.663	0.0153496
859.741	0.0154177
859.819	0.0153728
859.897	0.0154951
859.975	0.0154669
860.053	0.0154834
860.131	0.0154842
860.209	0.0153991
860.288	0.0154491
860.366	0.0154373
860.444	0.0155852
860.522	0.0155669
860.600	0.0154333
860.678	0.0156400
860.756	0.0155081
860.834	0.0155457
860.913	0.0155771
860.991	0.0158051
861.069	0.0155014
861.147	0.0153779
861.225	0.0155452
861.303	0.0155145
861.381	0.0155392
861.459	0.0156299
861.538	0.0155120
861.616	0.0155539
861.694	0.0153963
861.772	0.0154683
861.850	0.0156585
861.928	0.0156157
862.006	0.0155477
862.084	0.0155939
862.163	0.0155815
862.241	0.0156122
862.319	0.0156050
862.397	0.0156181
862.475	0.0156516
862.553	0.0155952
862.631	0.0155383
862.709	0.0156779
862.788	0.0155917
862.866	0.0155362
862.944	0.0156629
863.022	0.0156236
863.100	0.0155300
863.178	0.0155628
863.256	0.0156269
863.334	0.0156506
863.413	0.0156924
863.491	0.0156326
863.569	0.0156171
863.647	0.0156245
863.725	0.0155685
863.803	0.0154678
863.881	0.0156337
863.959	0.0156873
864.038	0.0154910
864.116	0.0156617
864.194	0.0156096
864.272	0.0157072
864.350	0.0157539
864.428	0.0155639
864.506	0.0155516
864.584	0.0156416
864.663	0.0155824
864.741	0.0157079
864.819	0.0156678
864.897	0.0157186
864.975	0.0157239
865.053	0.0155738
865.131	0.0157970
865.209	0.0158081
865.288	0.0158577
865.366	0.0157172
865.444	0.0158180
865.522	0.0157479
865.600	0.0157434
865.678	0.0157661
865.756	0.0158453
865.834	0.0157242
865.913	0.0158064
865.991	0.0157392
866.069	0.0156866
866.147	0.0156754
866.225	0.0158257
866.303	0.0157078
866.381	0.0156810
866.459	0.0155748
866.538	0.0155633
866.616	0.0156588
866.694	0.0154461
866.772	0.0154460
866.850	0.0154238
866.928	0.0154803
867.006	0.0153705
867.084	0.0154379
867.163	0.0153447
867.241	0.0153899
867.319	0.0154829
867.397	0.0152991
867.475	0.0154184
867.553	0.0154253
867.631	0.0152825
867.709	0.0152965
867.788	0.0152775
867.866	0.0152641
867.944	0.0152681
868.022	0.0152960
868.100	0.0154060
868.178	0.0152977
868.256	0.0154790
868.334	0.0155338
868.413	0.0154580
868.491	0.0153561
868.569	0.0155494
868.647	0.0155128
868.725	0.0155298
868.803	0.0156754
868.881	0.0156541
868.959	0.0156654
869.038	0.0156785
869.116	0.0156612
869.194	0.0156525
869.272	0.0155444
869.350	0.0157047
869.428	0.0156979
869.506	0.0154531
869.584	0.0156297
869.663	0.0155444
869.741	0.0155535
869.819	0.0155827
869.897	0.0154256
869.975	0.0155288
870.053	0.0155893
870.131	0.0154204
870.209	0.0155338
870.288	0.0155746
870.366	0.0155676
870.444	0.0155848
870.522	0.0154650
870.600	0.0155120
870.678	0.0154877
870.756	0.0156252
870.834	0.0155665
870.913	0.0156404
870.991	0.0157399
871.069	0.0156116
871.147	0.0157259
871.225	0.0157461
871.303	0.0156458
871.381	0.0156282
871.459	0.0157533
871.538	0.0156741
871.616	0.0156740
871.694	0.0157874
871.772	0.0156098
871.850	0.0156096
871.928	0.0157370
872.006	0.0157924
872.084	0.0156254
872.163	0.0156963
872.241	0.0156550
872.319	0.0156596
872.397	0.0155928
872.475	0.0156507
872.553	0.0155421
872.631	0.0156833
872.709	0.0155395
872.788	0.0155694
872.866	0.0155207
872.944	0.0154929
873.022	0.0156081
873.100	0.0157041
873.178	0.0157060
873.256	0.0156602
873.334	0.0155611
873.413	0.0154699
873.491	0.0155750
873.569	0.0154517
873.647	0.0156037
873.725	0.0156634
873.803	0.0154938
873.881	0.0155952
873.959	0.0154967
874.038	0.0155094
874.116	0.0155220
874.194	0.0155058
874.272	0.0155128
874.350	0.0154888
874.428	0.0153712
874.506	0.0155042
874.584	0.0154325
874.663	0.0153754
874.741	0.0155362
874.819	0.0154791
874.897	0.0154250
874.975	0.0154997
875.053	0.0156616
875.131	0.0156445
875.209	0.0154573
875.288	0.0156133
875.366	0.0156232
875.444	0.0156190
875.522	0.0155312
875.600	0.0155156
875.678	0.0155231
875.756	0.0155585
875.834	0.0155746
875.913	0.0154973
875.991	0.0156214
876.069	0.0154534
876.147	0.0155798
876.225	0.0155775
876.303	0.0155647
876.381	0.0154843
876.459	0.0155527
876.538	0.0156070
876.616	0.0155870
876.694	0.0155452
876.772	0.0153466
876.850	0.0155287
876.928	0.0156186
877.006	0.0156291
877.084	0.0157405
877.163	0.0156483
877.241	0.0157776
877.319	0.0156786
877.397	0.0156158
877.475	0.0156593
877.553	0.0156450
877.631	0.0156456
877.709	0.0156635
877.788	0.0156466
877.866	0.0157045
877.944	0.0156418
878.022	0.0157112
878.100	0.0156281
878.178	0.0157013
878.256	0.0157298
878.334	0.0156287
878.413	0.0155708
878.491	0.0155048
878.569	0.0155995
878.647	0.0155429
878.725	0.0154196
878.803	0.0154900
878.881	0.0154520
878.959	0.0154308
879.038	0.0155350
879.116	0.0154325
879.194	0.0155109
879.272	0.0153535
879.350	0.0153880
879.428	0.0154460
879.506	0.0154402
879.584	0.0153140
879.663	0.0153381
879.741	0.0153934
879.819	0.0154556
879.897	0.0154311
879.975	0.0153030
880.053	0.0153832
880.131	0.0153210
880.209	0.0154579
880.288	0.0153812
880.366	0.0155086
880.444	0.0155304
880.522	0.0156169
880.600	0.0155414
880.678	0.0154578
880.756	0.0155284
880.834	0.0156017
880.913	0.0156582
880.991	0.0156660
881.069	0.0155728
881.147	0.0156926
881.225	0.0158199
881.303	0.0155528
881.381	0.0155715
881.459	0.0155706
881.538	0.0156445
881.616	0.0155350
881.694	0.0155593
881.772	0.0156640
881.850	0.0156319
881.928	0.0157785
882.006	0.0155692
882.084	0.0156015
882.163	0.0154897
882.241	0.0154799
882.319	0.0155554
882.397	0.0154558
882.475	0.0154948
882.553	0.0154100
882.631	0.0155344
882.709	0.0154411
882.788	0.0154826
882.866	0.0154033
882.944	0.0154559
883.022	0.0155275
883.100	0.0155074
883.178	0.0155060
883.256	0.0156860
883.334	0.0155661
883.413	0.0156268
883.491	0.0156470
883.569	0.0156641
883.647	0.0156951
883.725	0.0155946
883.803	0.0156497
883.881	0.0157787
883.959	0.0158614
884.038	0.0158025
884.116	0.0158099
884.194	0.0156670
884.272	0.0157292
884.350	0.0156993
884.428	0.0157025
884.506	0.0158147
884.584	0.0155944
884.663	0.0156400
884.741	0.0157636
884.819	0.0156964
884.897	0.0156364
884.975	0.0155939
885.053	0.0155943
885.131	0.0156467
885.209	0.0156082
885.288	0.0155978
885.366	0.0155215
885.444	0.0154854
885.522	0.0154149
885.600	0.0155526
885.678	0.0154938
885.756	0.0155503
885.834	0.0155177
885.913	0.0155125
885.991	0.0155430
886.069	0.0155296
886.147	0.0155066
886.225	0.0156242
886.303	0.0155179
886.381	0.0154507
886.459	0.0157443
886.538	0.0154694
886.616	0.0155288
886.694	0.0155815
886.772	0.0154736
886.850	0.0156367
886.928	0.0155435
887.006	0.0156184
887.084	0.0156264
887.163	0.0156826
887.241	0.0154841
887.319	0.0155251
887.397	0.0155611
887.475	0.0155486
887.553	0.0155233
887.631	0.0156336
887.709	0.0156818
887.788	0.0156618
887.866	0.0156853
887.944	0.0156343
888.022	0.0154836
888.100	0.0155850
888.178	0.0156525
888.256	0.0154878
888.334	0.0156246
888.413	0.0155317
888.491	0.0156844
888.569	0.0157520
888.647	0.0157985
888.725	0.0156001
888.803	0.0157228
888.881	0.0156839
888.959	0.0156834
889.038	0.0156027
889.116	0.0155923
889.194	0.0156548
889.272	0.0156405
889.350	0.0157594
889.428	0.0157718
889.506	0.0156417
889.584	0.0156339
889.663	0.0156516
889.741	0.0157169
889.819	0.0158210
889.897	0.0157150
889.975	0.0158782
890.053	0.0158921
890.131	0.0157338
890.209	0.0158527
890.288	0.0158067
890.366	0.0157290
890.444	0.0158430
890.522	0.0157727
890.600	0.0157113
890.678	0.0158572
890.756	0.0156210
890.834	0.0156874
890.913	0.0157418
890.991	0.0156751
891.069	0.0156690
891.147	0.0155651
891.225	0.0155425
891.303	0.0154763
891.381	0.0153605
891.459	0.0154369
891.538	0.0153981
891.616	0.0153422
891.694	0.0154223
891.772	0.0153645
891.850	0.0152589
891.928	0.0152210
892.006	0.0153873
892.084	0.0154267
892.163	0.0153953
892.241	0.0153920
892.319	0.0154708
892.397	0.0153693
892.475	0.0153531
892.553	0.0153710
892.631	0.0154697
892.709	0.0154047
892.788	0.0153984
892.866	0.0154642
892.944	0.0154734
893.022	0.0155969
893.100	0.0155369
893.178	0.0156687
893.256	0.0156451
893.334	0.0155825
893.413	0.0155309
893.491	0.0155444
893.569	0.0155797
893.647	0.0155939
893.725	0.0156645
893.803	0.0155992
893.881	0.0156226
893.959	0.0156538
894.038	0.0155068
894.116	0.0155560
894.194	0.0155940
894.272	0.0154759
894.350	0.0154201
894.428	0.0152924
894.506	0.0153732
894.584	0.0153749
894.663	0.0154317
894.741	0.0154742
894.819	0.0154482
894.897	0.0155204
894.975	0.0154733
895.053	0.0153908
895.131	0.0153406
895.209	0.0154745
895.288	0.0155446
895.366	0.0153452
895.444	0.0154492
895.522	0.0156209
895.600	0.0155631
895.678	0.0156752
895.756	0.0156866
895.834	0.0155940
895.913	0.0156596
895.991	0.0157729
896.069	0.0157968
896.147	0.0156913
896.225	0.0155744
896.303	0.0159084
896.381	0.0157632
896.459	0.0157668
896.538	0.0158310
896.616	0.0156394
896.694	0.0157640
896.772	0.0155843
896.850	0.0157420
896.928	0.0157247
897.006	0.0155693
897.084	0.0156468
897.163	0.0156311
897.241	0.0156481
897.319	0.0155624
897.397	0.0155769
897.475	0.0155367
897.553	0.0154780
897.631	0.0154707
897.709	0.0154811
897.788	0.0155495
897.866	0.0155085
897.944	0.0153549
898.022	0.0154650
898.100	0.0155125
898.178	0.0154639
898.256	0.0155543
898.334	0.0155151
898.413	0.0155011
898.491	0.0156402
898.569	0.0155888
898.647	0.0155446
898.725	0.0154668
898.803	0.0156013
898.881	0.0154793
898.959	0.0155476
899.038	0.0155021
899.116	0.0155526
899.194	0.0156073
899.272	0.0154857
899.350	0.0152917
899.428	0.0154630
899.506	0.0153604
899.584	0.0155491
899.663	0.0152690
899.741	0.0154823
899.819	0.0153600
899.897	0.0154150
899.975	0.0153845
900.053	0.0153782
900.131	0.0154046
900.209	0.0154738
900.288	0.0154390
900.366	0.0153503
900.444	0.0153674
900.522	0.0152348
900.600	0.0156145
900.678	0.0155035
900.756	0.0153841
900.834	0.0154530
900.913	0.0153829
900.991	0.0156560
901.069	0.0155955
901.147	0.0154730
901.225	0.0155902
901.303	0.0154993
901.381	0.0154379
901.459	0.0155074
901.538	0.0154829
901.616	0.0156483
901.694	0.0156969
901.772	0.0155833
901.850	0.0156156
901.928	0.0157210
902.006	0.0155317
902.084	0.0155976
902.163	0.0156384
902.241	0.0155606
902.319	0.0155494
902.397	0.0156269
902.475	0.0156543
902.553	0.0155749
902.631	0.0156184
902.709	0.0155100
902.788	0.0155828
902.866	0.0155794
902.944	0.0154969
903.022	0.0155328
903.100	0.0154459
903.178	0.0156106
903.256	0.0156423
903.334	0.0156173
903.413	0.0155466
903.491	0.0155409
903.569	0.0154324
903.647	0.0156643
903.725	0.0155785
903.803	0.0154666
903.881	0.0155704
903.959	0.0155691
904.038	0.0155741
904.116	0.0154530
904.194	0.0155332
904.272	0.0156427
904.350	0.0155415
904.428	0.0155817
904.506	0.0156735
904.584	0.0157763
904.663	0.0155360
904.741	0.0156371
904.819	0.0156808
904.897	0.0157020
904.975	0.0157375
905.053	0.0157188
905.131	0.0156935
905.209	0.0156036
905.288	0.0155466
905.366	0.0157234
905.444	0.0156185
905.522	0.0155849
905.600	0.0155821
905.678	0.0155026
905.756	0.0154947
905.834	0.0155940
905.913	0.0155097
905.991	0.0155161
906.069	0.0155319
906.147	0.0153956
906.225	0.0154404
906.303	0.0155042
906.381	0.0155360
906.459	0.0154147
906.538	0.0153548
906.616	0.0154472
906.694	0.0154810
906.772	0.0155048
906.850	0.0154593
906.928	0.0154330
907.006	0.0156365
907.084	0.0154571
907.163	0.0155209
907.241	0.0153905
907.319	0.0153995
907.397	0.0153971
907.475	0.0154609
907.553	0.0154725
907.631	0.0156135
907.709	0.0155178
907.788	0.0154647
907.866	0.0155901
907.944	0.0156628
908.022	0.0154929
908.100	0.0156653
908.178	0.0156632
908.256	0.0155598
908.334	0.0153992
908.413	0.0154882
908.491	0.0154047
908.569	0.0154734
908.647	0.0155294
908.725	0.0155365
908.803	0.0154956
908.881	0.0155515
908.959	0.0155703
909.038	0.0154964
909.116	0.0154937
909.194	0.0154263
909.272	0.0154562
909.350	0.0156158
909.428	0.0155247
909.506	0.0154883
909.584	0.0154948
909.663	0.0155235
909.741	0.0154128
909.819	0.0155019
909.897	0.0155523
909.975	0.0156414
910.053	0.0154713
910.131	0.0154733
910.209	0.0155210
910.288	0.0156324
910.366	0.0152509
910.444	0.0153075
910.522	0.0154107
910.600	0.0153744
910.678	0.0154105
910.756	0.0154283
910.834	0.0153347
910.913	0.0152157
910.991	0.0152778
911.069	0.0154052
911.147	0.0154128
911.225	0.0153473
911.303	0.0153238
911.381	0.0154613
911.459	0.0154682
911.538	0.0153801
911.616	0.0154589
911.694	0.0154916
911.772	0.0155683
911.850	0.0156035
911.928	0.0155405
912.006	0.0156186
912.084	0.0156809
912.163	0.0155586
912.241	0.0155283
912.319	0.0154606
912.397	0.0156655
912.475	0.0155460
912.553	0.0155878
912.631	0.0156621
912.709	0.0155056
912.788	0.0155411
912.866	0.0155644
912.944	0.0154910
913.022	0.0156911
913.100	0.0155956
913.178	0.0156101
913.256	0.0155840
913.334	0.0156445
913.413	0.0154901
913.491	0.0154208
913.569	0.0155907
913.647	0.0156355
913.725	0.0156420
913.803	0.0156986
913.881	0.0155552
913.959	0.0155989
914.038	0.0155722
914.116	0.0157751
914.194	0.0155408
914.272	0.0157539
914.350	0.0157295
914.428	0.0156098
914.506	0.0157792
914.584	0.0157417
914.663	0.0157740
914.741	0.0156850
914.819	0.0157808
914.897	0.0156165
914.975	0.0157356
915.053	0.0157606
915.131	0.0158904
915.209	0.0158113
915.288	0.0156666
915.366	0.0155848
915.444	0.0156282
915.522	0.0154737
915.600	0.0156490
915.678	0.0156664
915.756	0.0156043
915.834	0.0156333
915.913	0.0156781
915.991	0.0155839
916.069	0.0156575
916.147	0.0156466
916.225	0.0157246
916.303	0.0156569
916.381	0.0156755
916.459	0.0157151
916.538	0.0156325
916.616	0.0156561
916.694	0.0158282
916.772	0.0154733
916.850	0.0156187
916.928	0.0157157
917.006	0.0157131
917.084	0.0157008
917.163	0.0157742
917.241	0.0156606
917.319	0.0156648
917.397	0.0156340
917.475	0.0157198
917.553	0.0156050
917.631	0.0158052
917.709	0.0157592
917.788	0.0156310
917.866	0.0156474
917.944	0.0156315
918.022	0.0155909
918.100	0.0156635
918.178	0.0156350
918.256	0.0156017
918.334	0.0156963
918.413	0.0157516
918.491	0.0154366
918.569	0.0154961
918.647	0.0154096
918.725	0.0155851
918.803	0.0154977
918.881	0.0155500
918.959	0.0154817
919.038	0.0154964
919.116	0.0155056
919.194	0.0154341
919.272	0.0155051
919.350	0.0154829
919.428	0.0154484
919.506	0.0154834
919.584	0.0153702
919.663	0.0153876
919.741	0.0155276
919.819	0.0155484
919.897	0.0154520
