05/20/2022	21:27:34	Ver.	4.1	UNKNOWN
Optical Delay	599.975067	Delta X		0.078125	Sweeps	1	Scan Rate	0/0
Coordinates	Axis 1	NaN	Axis 2	NaN	Axis 3	NaN	Axis 4	NaN	Axis 5	NaN	Axis 6	0.000000
TX Power	0.000000	RX Power	0.000000

599.975	0.0154996
600.053	0.0155502
600.131	0.0155779
600.209	0.0155814
600.288	0.0155872
600.366	0.0155372
600.444	0.0154125
600.522	0.0154970
600.600	0.0155726
600.678	0.0155237
600.756	0.0156145
600.834	0.0155306
600.913	0.0156114
600.991	0.0156895
601.069	0.0155183
601.147	0.0154809
601.225	0.0155363
601.303	0.0156264
601.381	0.0156284
601.459	0.0155195
601.538	0.0156554
601.616	0.0156005
601.694	0.0156599
601.772	0.0155378
601.850	0.0156054
601.928	0.0156694
602.006	0.0155006
602.084	0.0155373
602.163	0.0156036
602.241	0.0154990
602.319	0.0156930
602.397	0.0155887
602.475	0.0155981
602.553	0.0156149
602.631	0.0156566
602.709	0.0155759
602.788	0.0154565
602.866	0.0156226
602.944	0.0156306
603.022	0.0157064
603.100	0.0155822
603.178	0.0155008
603.256	0.0156039
603.334	0.0155811
603.413	0.0156297
603.491	0.0156847
603.569	0.0156343
603.647	0.0155298
603.725	0.0155788
603.803	0.0156892
603.881	0.0155956
603.959	0.0155277
604.038	0.0156377
604.116	0.0155041
604.194	0.0155772
604.272	0.0155875
604.350	0.0157034
604.428	0.0156490
604.506	0.0155170
604.584	0.0154044
604.663	0.0157066
604.741	0.0156071
604.819	0.0156178
604.897	0.0156532
604.975	0.0155692
605.053	0.0156997
605.131	0.0156806
605.209	0.0155045
605.288	0.0155640
605.366	0.0156124
605.444	0.0156546
605.522	0.0157508
605.600	0.0155537
605.678	0.0154780
605.756	0.0157095
605.834	0.0154761
605.913	0.0155833
605.991	0.0156920
606.069	0.0155902
606.147	0.0155031
606.225	0.0155846
606.303	0.0157085
606.381	0.0156913
606.459	0.0154860
606.538	0.0154578
606.616	0.0157371
606.694	0.0155048
606.772	0.0155070
606.850	0.0156849
606.928	0.0155358
607.006	0.0155419
607.084	0.0156082
607.163	0.0155725
607.241	0.0156229
607.319	0.0155946
607.397	0.0154768
607.475	0.0155663
607.553	0.0156999
607.631	0.0155316
607.709	0.0156418
607.788	0.0157803
607.866	0.0156023
607.944	0.0155457
608.022	0.0156223
608.100	0.0155907
608.178	0.0156142
608.256	0.0157086
608.334	0.0155524
608.413	0.0155346
608.491	0.0157194
608.569	0.0155740
608.647	0.0154861
608.725	0.0155884
608.803	0.0156384
608.881	0.0156737
608.959	0.0155934
609.038	0.0156746
609.116	0.0157962
609.194	0.0156216
609.272	0.0157466
609.350	0.0156931
609.428	0.0156573
609.506	0.0158237
609.584	0.0157436
609.663	0.0157217
609.741	0.0156258
609.819	0.0155396
609.897	0.0156786
609.975	0.0158512
610.053	0.0155601
610.131	0.0154337
610.209	0.0155016
610.288	0.0156925
610.366	0.0157854
610.444	0.0156557
610.522	0.0156753
610.600	0.0154411
610.678	0.0155822
610.756	0.0155836
610.834	0.0155506
610.913	0.0154984
610.991	0.0156183
611.069	0.0156406
611.147	0.0155801
611.225	0.0155541
611.303	0.0154112
611.381	0.0155789
611.459	0.0156030
611.538	0.0156045
611.616	0.0156013
611.694	0.0155588
611.772	0.0154973
611.850	0.0154835
611.928	0.0154722
612.006	0.0154485
612.084	0.0154494
612.163	0.0153730
612.241	0.0155621
612.319	0.0155951
612.397	0.0154581
612.475	0.0154391
612.553	0.0154085
612.631	0.0155193
612.709	0.0153899
612.788	0.0155370
612.866	0.0154418
612.944	0.0154491
613.022	0.0154549
613.100	0.0153609
613.178	0.0153629
613.256	0.0154456
613.334	0.0155844
613.413	0.0155322
613.491	0.0155217
613.569	0.0154103
613.647	0.0154256
613.725	0.0154291
613.803	0.0154709
613.881	0.0154849
613.959	0.0153840
614.038	0.0154990
614.116	0.0154787
614.194	0.0154321
614.272	0.0154239
614.350	0.0154102
614.428	0.0154823
614.506	0.0152776
614.584	0.0154478
614.663	0.0154202
614.741	0.0153968
614.819	0.0154600
614.897	0.0155472
614.975	0.0153895
615.053	0.0154951
615.131	0.0155064
615.209	0.0155062
615.288	0.0154591
615.366	0.0153275
615.444	0.0154071
615.522	0.0155743
615.600	0.0155592
615.678	0.0154456
615.756	0.0155999
615.834	0.0154739
615.913	0.0154994
615.991	0.0155141
616.069	0.0155598
616.147	0.0155911
616.225	0.0155589
616.303	0.0156399
616.381	0.0154745
616.459	0.0154366
616.538	0.0155804
616.616	0.0156598
616.694	0.0154863
616.772	0.0155141
616.850	0.0155461
616.928	0.0156152
617.006	0.0156921
617.084	0.0156355
617.163	0.0155457
617.241	0.0156161
617.319	0.0154775
617.397	0.0155685
617.475	0.0155544
617.553	0.0154475
617.631	0.0155165
617.709	0.0155381
617.788	0.0154713
617.866	0.0154920
617.944	0.0155549
618.022	0.0156009
618.100	0.0154148
618.178	0.0155005
618.256	0.0156335
618.334	0.0156258
618.413	0.0156190
618.491	0.0155538
618.569	0.0156058
618.647	0.0155470
618.725	0.0156725
618.803	0.0155662
618.881	0.0154329
618.959	0.0156287
619.038	0.0155305
619.116	0.0154832
619.194	0.0155260
619.272	0.0155707
619.350	0.0155939
619.428	0.0155867
619.506	0.0155305
619.584	0.0155076
619.663	0.0154492
619.741	0.0155692
619.819	0.0156287
619.897	0.0155471
619.975	0.0155063
620.053	0.0155571
620.131	0.0154867
620.209	0.0155991
620.288	0.0155978
620.366	0.0153697
620.444	0.0156364
620.522	0.0155414
620.600	0.0154958
620.678	0.0154839
620.756	0.0154176
620.834	0.0154240
620.913	0.0156003
620.991	0.0153892
621.069	0.0154303
621.147	0.0155029
621.225	0.0154630
621.303	0.0154087
621.381	0.0154546
621.459	0.0154428
621.538	0.0154675
621.616	0.0155386
621.694	0.0155169
621.772	0.0154538
621.850	0.0154988
621.928	0.0155084
622.006	0.0155974
622.084	0.0155211
622.163	0.0153922
622.241	0.0153037
622.319	0.0155722
622.397	0.0155025
622.475	0.0155161
622.553	0.0156119
622.631	0.0156187
622.709	0.0155519
622.788	0.0155885
622.866	0.0154048
622.944	0.0155447
623.022	0.0154716
623.100	0.0155056
623.178	0.0156095
623.256	0.0155047
623.334	0.0155551
623.413	0.0153629
623.491	0.0153621
623.569	0.0155179
623.647	0.0155669
623.725	0.0154768
623.803	0.0157300
623.881	0.0155426
623.959	0.0155702
624.038	0.0155763
624.116	0.0156212
624.194	0.0153925
624.272	0.0153618
624.350	0.0155842
624.428	0.0154793
624.506	0.0154397
624.584	0.0154601
624.663	0.0155678
624.741	0.0155208
624.819	0.0154771
624.897	0.0155087
624.975	0.0157124
625.053	0.0156247
625.131	0.0154691
625.209	0.0155860
625.288	0.0156356
625.366	0.0155970
625.444	0.0155864
625.522	0.0155731
625.600	0.0156184
625.678	0.0156049
625.756	0.0155087
625.834	0.0156117
625.913	0.0154654
625.991	0.0155350
626.069	0.0155924
626.147	0.0155258
626.225	0.0155028
626.303	0.0155045
626.381	0.0154781
626.459	0.0155482
626.538	0.0155040
626.616	0.0155795
626.694	0.0155090
626.772	0.0155017
626.850	0.0154460
626.928	0.0155200
627.006	0.0154245
627.084	0.0153642
627.163	0.0154131
627.241	0.0155931
627.319	0.0155083
627.397	0.0155087
627.475	0.0154829
627.553	0.0154492
627.631	0.0155530
627.709	0.0155718
627.788	0.0156154
627.866	0.0155277
627.944	0.0155940
628.022	0.0156177
628.100	0.0156526
628.178	0.0154675
628.256	0.0155199
628.334	0.0154424
628.413	0.0155796
628.491	0.0156326
628.569	0.0154852
628.647	0.0155282
628.725	0.0154619
628.803	0.0155905
628.881	0.0155326
628.959	0.0154071
629.038	0.0155285
629.116	0.0156038
629.194	0.0154446
629.272	0.0155276
629.350	0.0155582
629.428	0.0155849
629.506	0.0157065
629.584	0.0156898
629.663	0.0155608
629.741	0.0155763
629.819	0.0156954
629.897	0.0155649
629.975	0.0155365
630.053	0.0155960
630.131	0.0156564
630.209	0.0156181
630.288	0.0156636
630.366	0.0155431
630.444	0.0154991
630.522	0.0155797
630.600	0.0154541
630.678	0.0155534
630.756	0.0156992
630.834	0.0155169
630.913	0.0155370
630.991	0.0156532
631.069	0.0155816
631.147	0.0155298
631.225	0.0155345
631.303	0.0156116
631.381	0.0155990
631.459	0.0154865
631.538	0.0154194
631.616	0.0154731
631.694	0.0156184
631.772	0.0155297
631.850	0.0154318
631.928	0.0154578
632.006	0.0154726
632.084	0.0155737
632.163	0.0155101
632.241	0.0156057
632.319	0.0154679
632.397	0.0155062
632.475	0.0154931
632.553	0.0154610
632.631	0.0153889
632.709	0.0155094
632.788	0.0153899
632.866	0.0155842
632.944	0.0155833
633.022	0.0157016
633.100	0.0155122
633.178	0.0154253
633.256	0.0153432
633.334	0.0154943
633.413	0.0153829
633.491	0.0155281
633.569	0.0155020
633.647	0.0155191
633.725	0.0155698
633.803	0.0154836
633.881	0.0155371
633.959	0.0154489
634.038	0.0155081
634.116	0.0155474
634.194	0.0156386
634.272	0.0155804
634.350	0.0156542
634.428	0.0155669
634.506	0.0154821
634.584	0.0155567
634.663	0.0155532
634.741	0.0155898
634.819	0.0156667
634.897	0.0154974
634.975	0.0156403
635.053	0.0156557
635.131	0.0157096
635.209	0.0155472
635.288	0.0155734
635.366	0.0156221
635.444	0.0156134
635.522	0.0156229
635.600	0.0155270
635.678	0.0157171
635.756	0.0155315
635.834	0.0156659
635.913	0.0155672
635.991	0.0156044
636.069	0.0155606
636.147	0.0154589
636.225	0.0154363
636.303	0.0155534
636.381	0.0155251
636.459	0.0156405
636.538	0.0155384
636.616	0.0155475
636.694	0.0155347
636.772	0.0156223
636.850	0.0155383
636.928	0.0155518
637.006	0.0157390
637.084	0.0155884
637.163	0.0156042
637.241	0.0155939
637.319	0.0156963
637.397	0.0157288
637.475	0.0156451
637.553	0.0155997
637.631	0.0156223
637.709	0.0157117
637.788	0.0156223
637.866	0.0156117
637.944	0.0156157
638.022	0.0156649
638.100	0.0155315
638.178	0.0155449
638.256	0.0155622
638.334	0.0155997
638.413	0.0156639
638.491	0.0156623
638.569	0.0155881
638.647	0.0154506
638.725	0.0155814
638.803	0.0155719
638.881	0.0156078
638.959	0.0155579
639.038	0.0155278
639.116	0.0156767
639.194	0.0156625
639.272	0.0157905
639.350	0.0156206
639.428	0.0155425
639.506	0.0155740
639.584	0.0155324
639.663	0.0156247
639.741	0.0157510
639.819	0.0156754
639.897	0.0155503
639.975	0.0155444
640.053	0.0156736
640.131	0.0157082
640.209	0.0155800
640.288	0.0156762
640.366	0.0156031
640.444	0.0156982
640.522	0.0157710
640.600	0.0155836
640.678	0.0154994
640.756	0.0154536
640.834	0.0156142
640.913	0.0156509
640.991	0.0155785
641.069	0.0155285
641.147	0.0156754
641.225	0.0156042
641.303	0.0154697
641.381	0.0155902
641.459	0.0154728
641.538	0.0155596
641.616	0.0155983
641.694	0.0155458
641.772	0.0155022
641.850	0.0156313
641.928	0.0155733
642.006	0.0154005
642.084	0.0155680
642.163	0.0155961
642.241	0.0157484
642.319	0.0156426
642.397	0.0156325
642.475	0.0154712
642.553	0.0156653
642.631	0.0157635
642.709	0.0154563
642.788	0.0156087
642.866	0.0156367
642.944	0.0155422
643.022	0.0155803
643.100	0.0155996
643.178	0.0155620
643.256	0.0156397
643.334	0.0156034
643.413	0.0157477
643.491	0.0156234
643.569	0.0157214
643.647	0.0155898
643.725	0.0155762
643.803	0.0156316
643.881	0.0155654
643.959	0.0155595
644.038	0.0154716
644.116	0.0156313
644.194	0.0156031
644.272	0.0155971
644.350	0.0155633
644.428	0.0155907
644.506	0.0155428
644.584	0.0154752
644.663	0.0156683
644.741	0.0156308
644.819	0.0156673
644.897	0.0155978
644.975	0.0154650
645.053	0.0155765
645.131	0.0154607
645.209	0.0155082
645.288	0.0155841
645.366	0.0156265
645.444	0.0156529
645.522	0.0155911
645.600	0.0157058
645.678	0.0156419
645.756	0.0156382
645.834	0.0156937
645.913	0.0156312
645.991	0.0154774
646.069	0.0155460
646.147	0.0155203
646.225	0.0154617
646.303	0.0155180
646.381	0.0155875
646.459	0.0154879
646.538	0.0154807
646.616	0.0155447
646.694	0.0155396
646.772	0.0155260
646.850	0.0155629
646.928	0.0155003
647.006	0.0154704
647.084	0.0155232
647.163	0.0155400
647.241	0.0157054
647.319	0.0155214
647.397	0.0154900
647.475	0.0154712
647.553	0.0155342
647.631	0.0155440
647.709	0.0155280
647.788	0.0154994
647.866	0.0154126
647.944	0.0154052
648.022	0.0155508
648.100	0.0154902
648.178	0.0155129
648.256	0.0154896
648.334	0.0154357
648.413	0.0154912
648.491	0.0154598
648.569	0.0154416
648.647	0.0153313
648.725	0.0154435
648.803	0.0154160
648.881	0.0153318
648.959	0.0153665
649.038	0.0153532
649.116	0.0153469
649.194	0.0154175
649.272	0.0154135
649.350	0.0154068
649.428	0.0154500
649.506	0.0154072
649.584	0.0154287
649.663	0.0153555
649.741	0.0154343
649.819	0.0154418
649.897	0.0153056
649.975	0.0154366
650.053	0.0154884
650.131	0.0153914
650.209	0.0155312
650.288	0.0155153
650.366	0.0154102
650.444	0.0154132
650.522	0.0154558
650.600	0.0154300
650.678	0.0153945
650.756	0.0154559
650.834	0.0152674
650.913	0.0155322
650.991	0.0154959
651.069	0.0154821
651.147	0.0155614
651.225	0.0154954
651.303	0.0155550
651.381	0.0155224
651.459	0.0156060
651.538	0.0154329
651.616	0.0155496
651.694	0.0156199
651.772	0.0157496
651.850	0.0155267
651.928	0.0156754
652.006	0.0156644
652.084	0.0157584
652.163	0.0155876
652.241	0.0156479
652.319	0.0157892
652.397	0.0155373
652.475	0.0156589
652.553	0.0156993
652.631	0.0158949
652.709	0.0158722
652.788	0.0157498
652.866	0.0157243
652.944	0.0158197
653.022	0.0158130
653.100	0.0159297
653.178	0.0157911
653.256	0.0158364
653.334	0.0157658
653.413	0.0156438
653.491	0.0156448
653.569	0.0157436
653.647	0.0157125
653.725	0.0155964
653.803	0.0156152
653.881	0.0156940
653.959	0.0157382
654.038	0.0155785
654.116	0.0156116
654.194	0.0155400
654.272	0.0156383
654.350	0.0155502
654.428	0.0155293
654.506	0.0156242
654.584	0.0155940
654.663	0.0156798
654.741	0.0154734
654.819	0.0154218
654.897	0.0155917
654.975	0.0156969
655.053	0.0156217
655.131	0.0155394
655.209	0.0157675
655.288	0.0156900
655.366	0.0154960
655.444	0.0156042
655.522	0.0155978
655.600	0.0156119
655.678	0.0155736
655.756	0.0154183
655.834	0.0153599
655.913	0.0155368
655.991	0.0156190
656.069	0.0154218
656.147	0.0153306
656.225	0.0153720
656.303	0.0154842
656.381	0.0154837
656.459	0.0154470
656.538	0.0155079
656.616	0.0155237
656.694	0.0155011
656.772	0.0154919
656.850	0.0154638
656.928	0.0155755
657.006	0.0155914
657.084	0.0157542
657.163	0.0157577
657.241	0.0159040
657.319	0.0156419
657.397	0.0156959
657.475	0.0157173
657.553	0.0158507
657.631	0.0156642
657.709	0.0156375
657.788	0.0155996
657.866	0.0156437
657.944	0.0156606
658.022	0.0154868
658.100	0.0155485
658.178	0.0155034
658.256	0.0154417
658.334	0.0154524
658.413	0.0154890
658.491	0.0154145
658.569	0.0153110
658.647	0.0153351
658.725	0.0153883
658.803	0.0154936
658.881	0.0154331
658.959	0.0154470
659.038	0.0155755
659.116	0.0155608
659.194	0.0156978
659.272	0.0156607
659.350	0.0155885
659.428	0.0156902
659.506	0.0157502
659.584	0.0158218
659.663	0.0158408
659.741	0.0158140
659.819	0.0159288
659.897	0.0160604
659.975	0.0158614
660.053	0.0159812
660.131	0.0159576
660.209	0.0159457
660.288	0.0158208
660.366	0.0156298
660.444	0.0157202
660.522	0.0157896
660.600	0.0155381
660.678	0.0155444
660.756	0.0156318
660.834	0.0153946
660.913	0.0152622
660.991	0.0152903
661.069	0.0150851
661.147	0.0151247
661.225	0.0149920
661.303	0.0149111
661.381	0.0149879
661.459	0.0150024
661.538	0.0149556
661.616	0.0149757
661.694	0.0151099
661.772	0.0150420
661.850	0.0152459
661.928	0.0152919
662.006	0.0154444
662.084	0.0156873
662.163	0.0157022
662.241	0.0157254
662.319	0.0159165
662.397	0.0159492
662.475	0.0159892
662.553	0.0161512
662.631	0.0162924
662.709	0.0163673
662.788	0.0162740
662.866	0.0163370
662.944	0.0163608
663.022	0.0165034
663.100	0.0163304
663.178	0.0163071
663.256	0.0163570
663.334	0.0163103
663.413	0.0162521
663.491	0.0160770
663.569	0.0159438
663.647	0.0160261
663.725	0.0158345
663.803	0.0157990
663.881	0.0155330
663.959	0.0155288
664.038	0.0153551
664.116	0.0152113
664.194	0.0152933
664.272	0.0151205
664.350	0.0150995
664.428	0.0148037
664.506	0.0150045
664.584	0.0149992
664.663	0.0148872
664.741	0.0149064
664.819	0.0148521
664.897	0.0148675
664.975	0.0149632
665.053	0.0148441
665.131	0.0149254
665.209	0.0150369
665.288	0.0151614
665.366	0.0152191
665.444	0.0152405
665.522	0.0152802
665.600	0.0153031
665.678	0.0153788
665.756	0.0153832
665.834	0.0154117
665.913	0.0154158
665.991	0.0154736
666.069	0.0156201
666.147	0.0154562
666.225	0.0153323
666.303	0.0155035
666.381	0.0155898
666.459	0.0156541
666.538	0.0156644
666.616	0.0155960
666.694	0.0157030
666.772	0.0157747
666.850	0.0157104
666.928	0.0158050
667.006	0.0159331
667.084	0.0156644
667.163	0.0158923
667.241	0.0158889
667.319	0.0160009
667.397	0.0159865
667.475	0.0161011
667.553	0.0160224
667.631	0.0160981
667.709	0.0161317
667.788	0.0161289
667.866	0.0162174
667.944	0.0161149
668.022	0.0160587
668.100	0.0161604
668.178	0.0160114
668.256	0.0161084
668.334	0.0160034
668.413	0.0157988
668.491	0.0159350
668.569	0.0159703
668.647	0.0157993
668.725	0.0157243
668.803	0.0155011
668.881	0.0154496
668.959	0.0153094
669.038	0.0153641
669.116	0.0152956
669.194	0.0150311
669.272	0.0148350
669.350	0.0147602
669.428	0.0146392
669.506	0.0145256
669.584	0.0144264
669.663	0.0143291
669.741	0.0144093
669.819	0.0143034
669.897	0.0143666
669.975	0.0142166
670.053	0.0142484
670.131	0.0143602
670.209	0.0143562
670.288	0.0145001
670.366	0.0145863
670.444	0.0146862
670.522	0.0150014
670.600	0.0149818
670.678	0.0151509
670.756	0.0153481
670.834	0.0156112
670.913	0.0156819
670.991	0.0157482
671.069	0.0158221
671.147	0.0160622
671.225	0.0160213
671.303	0.0161291
671.381	0.0161414
671.459	0.0164561
671.538	0.0164226
671.616	0.0163951
671.694	0.0164991
671.772	0.0164702
671.850	0.0165332
671.928	0.0163900
672.006	0.0164748
672.084	0.0165002
672.163	0.0163419
672.241	0.0163260
672.319	0.0164738
672.397	0.0163364
672.475	0.0161116
672.553	0.0161755
672.631	0.0161922
672.709	0.0160445
672.788	0.0161800
672.866	0.0160555
672.944	0.0159599
673.022	0.0159361
673.100	0.0159047
673.178	0.0159509
673.256	0.0159069
673.334	0.0157256
673.413	0.0156456
673.491	0.0157163
673.569	0.0155010
673.647	0.0155710
673.725	0.0155294
673.803	0.0154011
673.881	0.0154311
673.959	0.0153655
674.038	0.0153241
674.116	0.0151300
674.194	0.0150611
674.272	0.0150418
674.350	0.0148431
674.428	0.0148051
674.506	0.0146919
674.584	0.0145137
674.663	0.0144374
674.741	0.0144109
674.819	0.0142218
674.897	0.0141593
674.975	0.0140989
675.053	0.0140563
675.131	0.0140104
675.209	0.0139935
675.288	0.0140441
675.366	0.0140771
675.444	0.0141009
675.522	0.0140634
675.600	0.0142986
675.678	0.0144330
675.756	0.0144711
675.834	0.0145561
675.913	0.0145947
675.991	0.0149105
676.069	0.0150632
676.147	0.0151524
676.225	0.0151648
676.303	0.0154962
676.381	0.0156430
676.459	0.0158150
676.538	0.0160655
676.616	0.0161799
676.694	0.0163853
676.772	0.0165639
676.850	0.0167380
676.928	0.0170306
677.006	0.0171408
677.084	0.0171810
677.163	0.0173174
677.241	0.0174084
677.319	0.0174110
677.397	0.0176437
677.475	0.0174862
677.553	0.0175305
677.631	0.0174406
677.709	0.0175111
677.788	0.0172879
677.866	0.0171276
677.944	0.0171166
678.022	0.0169087
678.100	0.0167254
678.178	0.0164207
678.256	0.0163184
678.334	0.0159756
678.413	0.0158771
678.491	0.0156541
678.569	0.0152571
678.647	0.0151613
678.725	0.0151291
678.803	0.0148051
678.881	0.0145876
678.959	0.0142744
679.038	0.0141344
679.116	0.0141373
679.194	0.0138701
679.272	0.0138799
679.350	0.0135374
679.428	0.0135806
679.506	0.0137210
679.584	0.0137246
679.663	0.0137010
679.741	0.0138237
679.819	0.0138728
679.897	0.0139353
679.975	0.0140084
680.053	0.0142213
680.131	0.0143624
680.209	0.0143974
680.288	0.0144827
680.366	0.0147402
680.444	0.0149840
680.522	0.0149439
680.600	0.0153111
680.678	0.0155530
680.756	0.0156512
680.834	0.0158353
680.913	0.0161058
680.991	0.0163469
681.069	0.0163582
681.147	0.0164788
681.225	0.0166455
681.303	0.0167456
681.381	0.0167658
681.459	0.0170851
681.538	0.0168616
681.616	0.0168630
681.694	0.0168960
681.772	0.0169981
681.850	0.0167766
681.928	0.0168591
682.006	0.0167107
682.084	0.0166130
682.163	0.0167084
682.241	0.0164301
682.319	0.0162135
682.397	0.0162336
682.475	0.0159942
682.553	0.0160058
682.631	0.0157958
682.709	0.0156835
682.788	0.0154910
682.866	0.0154311
682.944	0.0153104
683.022	0.0152413
683.100	0.0150888
683.178	0.0151081
683.256	0.0149374
683.334	0.0150185
683.413	0.0150692
683.491	0.0150549
683.569	0.0150220
683.647	0.0149107
683.725	0.0149593
683.803	0.0150810
683.881	0.0151627
683.959	0.0150546
684.038	0.0151964
684.116	0.0152605
684.194	0.0151974
684.272	0.0152506
684.350	0.0151849
684.428	0.0153036
684.506	0.0153917
684.584	0.0154124
684.663	0.0155321
684.741	0.0156335
684.819	0.0156500
684.897	0.0157169
684.975	0.0158727
685.053	0.0157715
685.131	0.0158604
685.209	0.0159826
685.288	0.0159540
685.366	0.0160369
685.444	0.0160800
685.522	0.0159396
685.600	0.0159393
685.678	0.0158801
685.756	0.0159380
685.834	0.0159019
685.913	0.0157645
685.991	0.0157301
686.069	0.0156777
686.147	0.0156326
686.225	0.0155151
686.303	0.0156289
686.381	0.0156606
686.459	0.0155135
686.538	0.0155836
686.616	0.0154768
686.694	0.0153392
686.772	0.0153477
686.850	0.0152416
686.928	0.0151939
687.006	0.0151915
687.084	0.0153368
687.163	0.0151167
687.241	0.0150172
687.319	0.0150846
687.397	0.0151015
687.475	0.0151402
687.553	0.0150724
687.631	0.0151072
687.709	0.0150395
687.788	0.0151539
687.866	0.0152844
687.944	0.0151859
688.022	0.0153510
688.100	0.0154348
688.178	0.0153268
688.256	0.0153210
688.334	0.0154824
688.413	0.0154045
688.491	0.0154945
688.569	0.0153764
688.647	0.0153458
688.725	0.0153328
688.803	0.0153600
688.881	0.0154483
688.959	0.0153829
689.038	0.0156527
689.116	0.0157113
689.194	0.0156303
689.272	0.0157684
689.350	0.0158280
689.428	0.0159383
689.506	0.0159416
689.584	0.0160149
689.663	0.0161002
689.741	0.0162595
689.819	0.0161870
689.897	0.0162788
689.975	0.0162383
690.053	0.0163177
690.131	0.0161483
690.209	0.0161626
690.288	0.0162555
690.366	0.0160892
690.444	0.0160211
690.522	0.0159698
690.600	0.0159782
690.678	0.0159135
690.756	0.0158764
690.834	0.0158897
690.913	0.0157674
690.991	0.0157298
691.069	0.0157864
691.147	0.0157459
691.225	0.0155877
691.303	0.0155846
691.381	0.0155854
691.459	0.0154626
691.538	0.0153845
691.616	0.0154759
691.694	0.0152948
691.772	0.0153323
691.850	0.0152209
691.928	0.0152602
692.006	0.0152373
692.084	0.0151349
692.163	0.0151518
692.241	0.0152915
692.319	0.0153595
692.397	0.0152682
692.475	0.0152897
692.553	0.0153001
692.631	0.0152581
692.709	0.0154082
692.788	0.0154194
692.866	0.0153873
692.944	0.0154839
693.022	0.0153275
693.100	0.0153928
693.178	0.0154728
693.256	0.0153681
693.334	0.0152737
693.413	0.0152675
693.491	0.0152686
693.569	0.0151276
693.647	0.0151653
693.725	0.0151376
693.803	0.0150885
693.881	0.0149300
693.959	0.0147677
694.038	0.0147414
694.116	0.0147364
694.194	0.0146057
694.272	0.0144886
694.350	0.0144908
694.428	0.0143244
694.506	0.0142906
694.584	0.0143433
694.663	0.0142944
694.741	0.0142362
694.819	0.0145448
694.897	0.0145383
694.975	0.0145474
695.053	0.0146271
695.131	0.0149926
695.209	0.0151539
695.288	0.0151917
695.366	0.0155389
695.444	0.0157946
695.522	0.0159835
695.600	0.0161764
695.678	0.0162940
695.756	0.0165452
695.834	0.0169024
695.913	0.0169381
695.991	0.0171353
696.069	0.0172366
696.147	0.0175256
696.225	0.0176791
696.303	0.0178003
696.381	0.0178987
696.459	0.0179133
696.538	0.0180261
696.616	0.0181447
696.694	0.0180059
696.772	0.0179964
696.850	0.0178471
696.928	0.0177195
697.006	0.0176020
697.084	0.0172215
697.163	0.0170809
697.241	0.0169810
697.319	0.0167219
697.397	0.0164185
697.475	0.0161031
697.553	0.0158470
697.631	0.0155569
697.709	0.0154087
697.788	0.0151291
697.866	0.0149983
697.944	0.0148048
698.022	0.0144781
698.100	0.0142542
698.178	0.0141445
698.256	0.0138926
698.334	0.0139167
698.413	0.0135746
698.491	0.0135023
698.569	0.0134774
698.647	0.0134330
698.725	0.0133134
698.803	0.0133535
698.881	0.0131645
698.959	0.0131227
699.038	0.0131418
699.116	0.0132056
699.194	0.0131812
699.272	0.0132710
699.350	0.0133346
699.428	0.0131481
699.506	0.0133677
699.584	0.0135338
699.663	0.0135952
699.741	0.0136018
699.819	0.0137590
699.897	0.0139709
699.975	0.0140234
700.053	0.0142616
700.131	0.0144762
700.209	0.0146886
700.288	0.0147794
700.366	0.0150848
700.444	0.0154266
700.522	0.0157034
700.600	0.0159447
700.678	0.0162732
700.756	0.0165640
700.834	0.0166862
700.913	0.0169557
700.991	0.0173791
701.069	0.0176373
701.147	0.0176834
701.225	0.0178780
701.303	0.0180408
701.381	0.0181538
701.459	0.0183321
701.538	0.0184088
701.616	0.0184211
701.694	0.0183790
701.772	0.0184084
701.850	0.0184836
701.928	0.0183109
702.006	0.0181709
702.084	0.0181865
702.163	0.0178765
702.241	0.0176115
702.319	0.0172842
702.397	0.0168893
702.475	0.0165443
702.553	0.0162098
702.631	0.0158945
702.709	0.0155668
702.788	0.0153414
702.866	0.0148506
702.944	0.0145211
703.022	0.0142943
703.100	0.0139642
703.178	0.0136846
703.256	0.0134059
703.334	0.0133709
703.413	0.0132239
703.491	0.0130933
703.569	0.0131323
703.647	0.0130524
703.725	0.0131893
703.803	0.0132680
703.881	0.0133095
703.959	0.0133748
704.038	0.0135883
704.116	0.0138876
704.194	0.0138044
704.272	0.0140865
704.350	0.0143071
704.428	0.0145132
704.506	0.0147385
704.584	0.0149607
704.663	0.0150556
704.741	0.0154235
704.819	0.0156225
704.897	0.0157630
704.975	0.0160534
705.053	0.0159438
705.131	0.0161687
705.209	0.0162694
705.288	0.0163863
705.366	0.0162428
705.444	0.0164341
705.522	0.0163571
705.600	0.0162401
705.678	0.0162746
705.756	0.0162218
705.834	0.0161866
705.913	0.0161189
705.991	0.0160202
706.069	0.0160178
706.147	0.0160471
706.225	0.0158759
706.303	0.0160181
706.381	0.0159425
706.459	0.0158269
706.538	0.0160263
706.616	0.0160730
706.694	0.0159589
706.772	0.0158939
706.850	0.0159274
706.928	0.0160560
707.006	0.0160401
707.084	0.0160201
707.163	0.0160072
707.241	0.0157685
707.319	0.0158800
707.397	0.0158014
707.475	0.0158125
707.553	0.0158414
707.631	0.0157532
707.709	0.0156801
707.788	0.0155341
707.866	0.0155673
707.944	0.0153279
708.022	0.0152032
708.100	0.0152600
708.178	0.0150581
708.256	0.0149760
708.334	0.0148791
708.413	0.0148547
708.491	0.0147750
708.569	0.0145347
708.647	0.0145412
708.725	0.0144884
708.803	0.0143945
708.881	0.0144957
708.959	0.0146607
709.038	0.0146303
709.116	0.0145964
709.194	0.0147594
709.272	0.0148819
709.350	0.0149791
709.428	0.0150990
709.506	0.0153436
709.584	0.0154971
709.663	0.0156748
709.741	0.0159489
709.819	0.0160501
709.897	0.0161100
709.975	0.0163765
710.053	0.0164957
710.131	0.0165565
710.209	0.0166597
710.288	0.0166177
710.366	0.0166990
710.444	0.0166377
710.522	0.0165067
710.600	0.0165054
710.678	0.0163893
710.756	0.0160657
710.834	0.0160073
710.913	0.0159173
710.991	0.0159585
711.069	0.0155866
711.147	0.0154699
711.225	0.0152672
711.303	0.0151306
711.381	0.0149003
711.459	0.0148035
711.538	0.0147064
711.616	0.0145280
711.694	0.0146458
711.772	0.0145567
711.850	0.0146690
711.928	0.0146906
712.006	0.0146611
712.084	0.0148035
712.163	0.0148331
712.241	0.0149362
712.319	0.0150798
712.397	0.0151137
712.475	0.0153825
712.553	0.0154755
712.631	0.0156141
712.709	0.0155830
712.788	0.0157858
712.866	0.0159090
712.944	0.0160342
713.022	0.0161732
713.100	0.0159714
713.178	0.0160380
713.256	0.0161145
713.334	0.0161738
713.413	0.0158906
713.491	0.0158899
713.569	0.0159933
713.647	0.0158522
713.725	0.0157246
713.803	0.0156940
713.881	0.0157534
713.959	0.0156988
714.038	0.0155721
714.116	0.0156310
714.194	0.0153899
714.272	0.0154721
714.350	0.0154247
714.428	0.0153815
714.506	0.0153333
714.584	0.0152984
714.663	0.0153343
714.741	0.0152926
714.819	0.0154832
714.897	0.0152333
714.975	0.0154332
715.053	0.0155470
715.131	0.0155519
715.209	0.0156078
715.288	0.0158250
715.366	0.0158894
715.444	0.0157349
715.522	0.0158943
715.600	0.0159647
715.678	0.0158904
715.756	0.0158669
715.834	0.0160446
715.913	0.0159109
715.991	0.0156557
716.069	0.0157866
716.147	0.0158819
716.225	0.0158449
716.303	0.0157584
716.381	0.0155949
716.459	0.0155829
716.538	0.0153936
716.616	0.0153130
716.694	0.0152986
716.772	0.0153467
716.850	0.0151692
716.928	0.0150423
717.006	0.0150188
717.084	0.0151031
717.163	0.0151359
717.241	0.0152438
717.319	0.0153349
717.397	0.0154430
717.475	0.0154742
717.553	0.0156009
717.631	0.0158279
717.709	0.0160297
717.788	0.0160495
717.866	0.0160591
717.944	0.0162094
718.022	0.0163612
718.100	0.0162001
718.178	0.0162670
718.256	0.0162448
718.334	0.0163261
718.413	0.0162516
718.491	0.0162404
718.569	0.0161301
718.647	0.0160194
718.725	0.0158517
718.803	0.0158714
718.881	0.0155724
718.959	0.0154486
719.038	0.0154205
719.116	0.0152845
719.194	0.0152865
719.272	0.0153233
719.350	0.0150800
719.428	0.0149139
719.506	0.0149938
719.584	0.0149432
719.663	0.0149015
719.741	0.0149036
719.819	0.0147927
719.897	0.0149249
719.975	0.0150373
720.053	0.0149459
720.131	0.0149641
720.209	0.0151286
720.288	0.0150957
720.366	0.0152011
720.444	0.0152741
720.522	0.0153204
720.600	0.0153623
720.678	0.0153389
720.756	0.0154436
720.834	0.0153440
720.913	0.0152632
720.991	0.0154871
721.069	0.0152690
721.147	0.0153531
721.225	0.0153530
721.303	0.0153631
721.381	0.0152737
721.459	0.0152174
721.538	0.0150519
721.616	0.0151731
721.694	0.0151958
721.772	0.0153013
721.850	0.0151730
721.928	0.0151880
722.006	0.0152912
722.084	0.0152164
722.163	0.0151144
722.241	0.0152441
722.319	0.0149738
722.397	0.0153979
722.475	0.0152480
722.553	0.0153400
722.631	0.0153368
722.709	0.0154239
722.788	0.0153845
722.866	0.0153991
722.944	0.0153687
723.022	0.0154828
723.100	0.0155968
723.178	0.0155603
723.256	0.0157076
723.334	0.0157345
723.413	0.0157470
723.491	0.0158651
723.569	0.0157987
723.647	0.0158964
723.725	0.0159179
723.803	0.0159202
723.881	0.0159283
723.959	0.0159147
724.038	0.0161286
724.116	0.0161604
724.194	0.0160608
724.272	0.0159788
724.350	0.0161339
724.428	0.0162672
724.506	0.0163076
724.584	0.0164143
724.663	0.0162824
724.741	0.0165310
724.819	0.0165038
724.897	0.0163902
724.975	0.0164196
725.053	0.0166338
725.131	0.0166140
725.209	0.0165678
725.288	0.0165082
725.366	0.0164635
725.444	0.0164942
725.522	0.0162347
725.600	0.0161935
725.678	0.0161178
725.756	0.0159249
725.834	0.0158172
725.913	0.0158092
725.991	0.0156968
726.069	0.0156286
726.147	0.0154872
726.225	0.0152740
726.303	0.0151971
726.381	0.0149825
726.459	0.0148994
726.538	0.0146982
726.616	0.0145840
726.694	0.0144905
726.772	0.0143301
726.850	0.0141488
726.928	0.0140516
727.006	0.0141360
727.084	0.0138602
727.163	0.0138451
727.241	0.0140175
727.319	0.0139753
727.397	0.0139970
727.475	0.0140032
727.553	0.0139653
727.631	0.0141773
727.709	0.0142578
727.788	0.0142467
727.866	0.0144815
727.944	0.0147411
728.022	0.0147849
728.100	0.0147596
728.178	0.0151410
728.256	0.0154404
728.334	0.0153409
728.413	0.0156216
728.491	0.0157399
728.569	0.0160094
728.647	0.0160931
728.725	0.0163946
728.803	0.0165067
728.881	0.0166326
728.959	0.0166442
729.038	0.0167808
729.116	0.0170348
729.194	0.0170890
729.272	0.0170322
729.350	0.0170737
729.428	0.0170743
729.506	0.0172110
729.584	0.0168757
729.663	0.0169601
729.741	0.0169838
729.819	0.0167255
729.897	0.0166043
729.975	0.0164717
730.053	0.0163403
730.131	0.0162640
730.209	0.0159090
730.288	0.0158465
730.366	0.0157314
730.444	0.0155775
730.522	0.0152786
730.600	0.0151072
730.678	0.0149017
730.756	0.0147632
730.834	0.0148740
730.913	0.0146000
730.991	0.0145735
731.069	0.0144792
731.147	0.0144039
731.225	0.0145928
731.303	0.0145238
731.381	0.0145873
731.459	0.0146503
731.538	0.0147305
731.616	0.0147375
731.694	0.0149647
731.772	0.0151086
731.850	0.0152116
731.928	0.0153487
732.006	0.0154317
732.084	0.0153915
732.163	0.0154773
732.241	0.0154923
732.319	0.0154369
732.397	0.0156908
732.475	0.0157656
732.553	0.0157743
732.631	0.0155906
732.709	0.0155611
732.788	0.0155876
732.866	0.0156620
732.944	0.0153780
733.022	0.0155212
733.100	0.0154434
733.178	0.0154185
733.256	0.0153755
733.334	0.0152479
733.413	0.0153226
733.491	0.0154546
733.569	0.0154080
733.647	0.0155206
733.725	0.0155291
733.803	0.0154462
733.881	0.0154977
733.959	0.0155293
734.038	0.0153439
734.116	0.0157674
734.194	0.0157358
734.272	0.0155690
734.350	0.0156611
734.428	0.0157312
734.506	0.0158157
734.584	0.0156927
734.663	0.0157568
734.741	0.0157789
734.819	0.0157204
734.897	0.0157268
734.975	0.0157793
735.053	0.0158442
735.131	0.0156216
735.209	0.0157079
735.288	0.0154978
735.366	0.0155064
735.444	0.0155927
735.522	0.0155202
735.600	0.0155502
735.678	0.0155188
735.756	0.0156951
735.834	0.0155843
735.913	0.0155671
735.991	0.0155141
736.069	0.0155314
736.147	0.0156941
736.225	0.0154699
736.303	0.0154508
736.381	0.0156364
736.459	0.0155991
736.538	0.0155352
736.616	0.0154141
736.694	0.0154815
736.772	0.0154753
736.850	0.0154893
736.928	0.0154048
737.006	0.0153977
737.084	0.0154282
737.163	0.0151310
737.241	0.0151136
737.319	0.0151014
737.397	0.0149356
737.475	0.0149812
737.553	0.0150330
737.631	0.0149211
737.709	0.0149754
737.788	0.0149723
737.866	0.0150114
737.944	0.0149600
738.022	0.0149697
738.100	0.0153088
738.178	0.0153270
738.256	0.0154399
738.334	0.0156483
738.413	0.0157332
738.491	0.0158879
738.569	0.0159248
738.647	0.0162259
738.725	0.0162636
738.803	0.0163761
738.881	0.0163899
738.959	0.0166389
739.038	0.0168482
739.116	0.0165366
739.194	0.0166977
739.272	0.0167366
739.350	0.0167529
739.428	0.0167724
739.506	0.0167958
739.584	0.0167889
739.663	0.0166965
739.741	0.0166476
739.819	0.0163599
739.897	0.0162716
739.975	0.0162168
740.053	0.0160929
740.131	0.0157996
740.209	0.0157235
740.288	0.0155828
740.366	0.0154876
740.444	0.0153397
740.522	0.0150615
740.600	0.0149518
740.678	0.0148669
740.756	0.0149776
740.834	0.0147054
740.913	0.0145116
740.991	0.0144649
741.069	0.0144578
741.147	0.0145590
741.225	0.0144684
741.303	0.0144337
741.381	0.0145650
741.459	0.0145455
741.538	0.0145698
741.616	0.0146199
741.694	0.0145057
741.772	0.0147229
741.850	0.0147269
741.928	0.0147330
742.006	0.0148117
742.084	0.0148219
742.163	0.0148811
742.241	0.0148098
742.319	0.0148383
742.397	0.0149459
742.475	0.0150664
742.553	0.0151800
742.631	0.0152085
742.709	0.0152589
742.788	0.0154278
742.866	0.0154807
742.944	0.0155477
743.022	0.0157141
743.100	0.0158799
743.178	0.0160963
743.256	0.0163233
743.334	0.0162206
743.413	0.0165169
743.491	0.0166362
743.569	0.0166038
743.647	0.0167861
743.725	0.0168768
743.803	0.0169157
743.881	0.0169772
743.959	0.0170820
744.038	0.0169681
744.116	0.0168120
744.194	0.0168128
744.272	0.0167280
744.350	0.0163571
744.428	0.0161089
744.506	0.0160486
744.584	0.0159583
744.663	0.0156191
744.741	0.0153387
744.819	0.0150600
744.897	0.0148409
744.975	0.0146070
745.053	0.0146893
745.131	0.0146671
745.209	0.0145411
745.288	0.0144985
745.366	0.0144724
745.444	0.0144212
745.522	0.0145178
745.600	0.0145801
745.678	0.0147839
745.756	0.0147593
745.834	0.0149797
745.913	0.0151207
745.991	0.0151250
746.069	0.0152100
746.147	0.0153570
746.225	0.0153211
746.303	0.0155410
746.381	0.0156364
746.459	0.0157874
746.538	0.0157019
746.616	0.0159304
746.694	0.0158881
746.772	0.0160101
746.850	0.0159971
746.928	0.0159849
747.006	0.0158813
747.084	0.0158173
747.163	0.0158160
747.241	0.0159229
747.319	0.0157215
747.397	0.0158109
747.475	0.0155846
747.553	0.0155272
747.631	0.0156033
747.709	0.0156409
747.788	0.0153360
747.866	0.0154756
747.944	0.0156027
748.022	0.0156313
748.100	0.0155925
748.178	0.0158308
748.256	0.0158229
748.334	0.0158582
748.413	0.0158683
748.491	0.0160071
748.569	0.0159708
748.647	0.0161227
748.725	0.0161427
748.803	0.0162357
748.881	0.0162023
748.959	0.0161510
749.038	0.0162107
749.116	0.0161441
749.194	0.0160048
749.272	0.0157861
749.350	0.0158917
749.428	0.0157409
749.506	0.0155718
749.584	0.0155801
749.663	0.0153273
749.741	0.0153452
749.819	0.0152035
749.897	0.0151320
749.975	0.0150076
750.053	0.0148628
750.131	0.0147290
750.209	0.0148637
750.288	0.0145965
750.366	0.0144574
750.444	0.0145202
750.522	0.0145311
750.600	0.0146287
750.678	0.0145466
750.756	0.0145876
750.834	0.0147093
750.913	0.0147248
750.991	0.0147648
751.069	0.0148684
751.147	0.0151070
751.225	0.0151068
751.303	0.0152279
751.381	0.0152161
751.459	0.0155828
751.538	0.0154351
751.616	0.0154198
751.694	0.0155138
751.772	0.0157552
751.850	0.0156833
751.928	0.0156097
752.006	0.0157511
752.084	0.0159301
752.163	0.0159036
752.241	0.0159238
752.319	0.0161068
752.397	0.0159423
752.475	0.0161134
752.553	0.0161759
752.631	0.0162181
752.709	0.0160751
752.788	0.0161469
752.866	0.0162066
752.944	0.0162772
753.022	0.0160444
753.100	0.0161783
753.178	0.0161349
753.256	0.0159813
753.334	0.0160049
753.413	0.0159039
753.491	0.0159188
753.569	0.0157777
753.647	0.0156668
753.725	0.0155759
753.803	0.0154474
753.881	0.0154758
753.959	0.0151762
754.038	0.0152353
754.116	0.0152934
754.194	0.0151332
754.272	0.0150272
754.350	0.0150640
754.428	0.0149582
754.506	0.0151315
754.584	0.0151932
754.663	0.0151821
754.741	0.0152272
754.819	0.0152769
754.897	0.0153638
754.975	0.0155242
755.053	0.0156623
755.131	0.0157510
755.209	0.0158497
755.288	0.0159918
755.366	0.0160806
755.444	0.0160418
755.522	0.0161701
755.600	0.0162429
755.678	0.0162445
755.756	0.0163386
755.834	0.0162493
755.913	0.0161614
755.991	0.0161984
756.069	0.0160912
756.147	0.0161931
756.225	0.0161911
756.303	0.0159204
756.381	0.0158794
756.459	0.0157909
756.538	0.0158209
756.616	0.0157526
756.694	0.0157053
756.772	0.0157332
756.850	0.0157392
756.928	0.0156378
757.006	0.0157782
757.084	0.0157773
757.163	0.0158083
757.241	0.0158348
757.319	0.0157465
757.397	0.0157745
757.475	0.0157552
757.553	0.0158401
757.631	0.0157738
757.709	0.0155072
757.788	0.0153595
757.866	0.0154449
757.944	0.0153683
758.022	0.0150199
758.100	0.0148745
758.178	0.0147779
758.256	0.0147444
758.334	0.0145503
758.413	0.0143396
758.491	0.0142659
758.569	0.0142540
758.647	0.0143726
758.725	0.0143886
758.803	0.0142690
758.881	0.0144890
758.959	0.0144430
759.038	0.0145455
759.116	0.0145824
759.194	0.0147875
759.272	0.0150861
759.350	0.0152714
759.428	0.0155229
759.506	0.0158249
759.584	0.0160139
759.663	0.0160822
759.741	0.0163441
759.819	0.0164143
759.897	0.0165446
759.975	0.0168019
760.053	0.0168027
760.131	0.0169174
760.209	0.0171505
760.288	0.0169846
760.366	0.0170879
760.444	0.0170184
760.522	0.0167514
760.600	0.0167502
760.678	0.0167303
760.756	0.0164843
760.834	0.0163100
760.913	0.0161288
760.991	0.0158925
761.069	0.0156603
761.147	0.0155975
761.225	0.0153706
761.303	0.0150685
761.381	0.0148029
761.459	0.0147648
761.538	0.0147218
761.616	0.0144444
761.694	0.0142197
761.772	0.0142933
761.850	0.0141730
761.928	0.0141109
762.006	0.0142582
762.084	0.0142499
762.163	0.0143475
762.241	0.0143935
762.319	0.0145580
762.397	0.0147540
762.475	0.0147525
762.553	0.0149229
762.631	0.0150101
762.709	0.0152496
762.788	0.0154130
762.866	0.0155417
762.944	0.0156207
763.022	0.0158241
763.100	0.0158656
763.178	0.0160837
763.256	0.0160418
763.334	0.0161511
763.413	0.0162619
763.491	0.0162910
763.569	0.0163528
763.647	0.0162849
763.725	0.0162862
763.803	0.0162299
763.881	0.0162317
763.959	0.0162164
764.038	0.0160975
764.116	0.0161662
764.194	0.0161900
764.272	0.0160901
764.350	0.0159718
764.428	0.0159705
764.506	0.0160055
764.584	0.0160147
764.663	0.0157785
764.741	0.0159447
764.819	0.0157973
764.897	0.0157268
764.975	0.0157868
765.053	0.0156979
765.131	0.0155602
765.209	0.0153712
765.288	0.0154801
765.366	0.0153991
765.444	0.0153107
765.522	0.0151155
765.600	0.0152706
765.678	0.0153323
765.756	0.0151871
765.834	0.0150496
765.913	0.0151772
765.991	0.0152073
766.069	0.0151393
766.147	0.0152564
766.225	0.0153206
766.303	0.0151667
766.381	0.0152560
766.459	0.0153009
766.538	0.0152061
766.616	0.0153487
766.694	0.0153574
766.772	0.0154609
766.850	0.0154999
766.928	0.0155459
767.006	0.0155186
767.084	0.0156551
767.163	0.0155676
767.241	0.0156254
767.319	0.0156452
767.397	0.0157365
767.475	0.0157136
767.553	0.0156991
767.631	0.0157846
767.709	0.0157095
767.788	0.0158817
767.866	0.0158514
767.944	0.0157214
768.022	0.0156853
768.100	0.0157201
768.178	0.0158116
768.256	0.0156531
768.334	0.0157845
768.413	0.0158445
768.491	0.0158340
768.569	0.0156199
768.647	0.0156621
768.725	0.0156297
768.803	0.0158329
768.881	0.0158743
768.959	0.0158801
769.038	0.0158784
769.116	0.0158225
769.194	0.0159438
769.272	0.0161344
769.350	0.0159860
769.428	0.0160360
769.506	0.0159298
769.584	0.0160582
769.663	0.0160501
769.741	0.0161066
769.819	0.0161121
769.897	0.0158867
769.975	0.0158176
770.053	0.0159568
770.131	0.0158900
770.209	0.0157565
770.288	0.0159127
770.366	0.0156131
770.444	0.0155225
770.522	0.0156023
770.600	0.0154073
770.678	0.0153894
770.756	0.0152178
770.834	0.0152077
770.913	0.0152032
770.991	0.0151810
771.069	0.0151902
771.147	0.0150936
771.225	0.0150544
771.303	0.0150774
771.381	0.0149770
771.459	0.0150804
771.538	0.0149850
771.616	0.0151994
771.694	0.0151479
771.772	0.0152039
771.850	0.0151977
771.928	0.0152047
772.006	0.0151375
772.084	0.0152398
772.163	0.0152316
772.241	0.0153966
772.319	0.0153521
772.397	0.0154220
772.475	0.0153316
772.553	0.0153806
772.631	0.0153625
772.709	0.0154750
772.788	0.0154897
772.866	0.0155658
772.944	0.0155901
773.022	0.0154599
773.100	0.0155770
773.178	0.0155985
773.256	0.0155206
773.334	0.0154895
773.413	0.0156258
773.491	0.0154982
773.569	0.0156561
773.647	0.0156644
773.725	0.0156436
773.803	0.0156390
773.881	0.0157384
773.959	0.0156394
774.038	0.0155690
774.116	0.0155983
774.194	0.0157533
774.272	0.0157736
774.350	0.0156625
774.428	0.0157096
774.506	0.0155741
774.584	0.0157155
774.663	0.0156286
774.741	0.0157779
774.819	0.0155878
774.897	0.0156725
774.975	0.0156528
775.053	0.0156819
775.131	0.0156873
775.209	0.0156702
775.288	0.0156931
775.366	0.0155591
775.444	0.0154638
775.522	0.0154897
775.600	0.0153725
775.678	0.0153154
775.756	0.0153120
775.834	0.0155448
775.913	0.0153808
775.991	0.0153251
776.069	0.0152151
776.147	0.0150906
776.225	0.0152976
776.303	0.0151889
776.381	0.0153255
776.459	0.0152478
776.538	0.0153542
776.616	0.0154782
776.694	0.0155606
776.772	0.0155998
776.850	0.0155306
776.928	0.0157682
777.006	0.0158075
777.084	0.0158727
777.163	0.0158579
777.241	0.0159733
777.319	0.0159565
777.397	0.0161227
777.475	0.0161916
777.553	0.0161574
777.631	0.0161951
777.709	0.0161667
777.788	0.0161604
777.866	0.0161198
777.944	0.0161014
778.022	0.0160430
778.100	0.0159414
778.178	0.0159155
778.256	0.0159626
778.334	0.0158450
778.413	0.0156683
778.491	0.0156129
778.569	0.0155533
778.647	0.0155347
778.725	0.0153146
778.803	0.0153468
778.881	0.0153609
778.959	0.0155467
779.038	0.0152409
779.116	0.0153564
779.194	0.0153439
779.272	0.0153201
779.350	0.0153143
779.428	0.0154066
779.506	0.0153938
779.584	0.0153726
779.663	0.0155399
779.741	0.0153840
779.819	0.0153522
779.897	0.0155399
779.975	0.0155180
780.053	0.0154581
780.131	0.0155116
780.209	0.0153915
780.288	0.0155474
780.366	0.0155087
780.444	0.0154913
780.522	0.0153733
780.600	0.0154065
780.678	0.0154256
780.756	0.0152575
780.834	0.0153020
780.913	0.0152361
780.991	0.0152161
781.069	0.0152495
781.147	0.0152684
781.225	0.0151474
781.303	0.0150918
781.381	0.0152967
781.459	0.0151716
781.538	0.0151615
781.616	0.0151889
781.694	0.0152815
781.772	0.0151766
781.850	0.0152069
781.928	0.0151847
782.006	0.0152117
782.084	0.0152238
782.163	0.0152351
782.241	0.0152646
782.319	0.0152955
782.397	0.0155220
782.475	0.0155053
782.553	0.0154961
782.631	0.0156836
782.709	0.0157420
782.788	0.0159293
782.866	0.0157863
782.944	0.0158315
783.022	0.0157991
783.100	0.0158582
783.178	0.0158294
783.256	0.0159468
783.334	0.0158711
783.413	0.0158685
783.491	0.0160168
783.569	0.0159990
783.647	0.0160923
783.725	0.0160966
783.803	0.0158853
783.881	0.0159416
783.959	0.0159633
784.038	0.0159373
784.116	0.0160325
784.194	0.0158186
784.272	0.0158839
784.350	0.0157538
784.428	0.0156900
784.506	0.0157063
784.584	0.0157002
784.663	0.0156332
784.741	0.0155076
784.819	0.0154729
784.897	0.0154902
784.975	0.0155066
785.053	0.0154491
785.131	0.0154858
785.209	0.0154890
785.288	0.0155519
785.366	0.0154353
785.444	0.0154102
785.522	0.0154852
785.600	0.0154910
785.678	0.0154804
785.756	0.0154047
785.834	0.0153355
785.913	0.0154788
785.991	0.0153458
786.069	0.0155389
786.147	0.0153672
786.225	0.0154729
786.303	0.0155029
786.381	0.0155603
786.459	0.0156051
786.538	0.0156384
786.616	0.0157042
786.694	0.0156774
786.772	0.0156256
786.850	0.0157749
786.928	0.0156682
787.006	0.0157143
787.084	0.0158717
787.163	0.0158921
787.241	0.0157809
787.319	0.0158266
787.397	0.0158549
787.475	0.0156473
787.553	0.0158073
787.631	0.0158916
787.709	0.0157118
787.788	0.0157833
787.866	0.0158156
787.944	0.0158129
788.022	0.0157015
788.100	0.0157022
788.178	0.0158010
788.256	0.0155606
788.334	0.0156888
788.413	0.0155161
788.491	0.0154748
788.569	0.0156566
788.647	0.0154485
788.725	0.0154427
788.803	0.0155165
788.881	0.0154809
788.959	0.0154399
789.038	0.0155122
789.116	0.0155035
789.194	0.0153635
789.272	0.0153893
789.350	0.0153584
789.428	0.0153799
789.506	0.0154208
789.584	0.0152607
789.663	0.0152911
789.741	0.0152423
789.819	0.0151967
789.897	0.0151965
789.975	0.0152601
790.053	0.0151969
790.131	0.0151984
790.209	0.0152969
790.288	0.0151959
790.366	0.0151095
790.444	0.0150092
790.522	0.0152519
790.600	0.0152702
790.678	0.0151553
790.756	0.0152619
790.834	0.0152277
790.913	0.0152616
790.991	0.0153124
791.069	0.0153751
791.147	0.0152817
791.225	0.0152605
791.303	0.0154748
791.381	0.0153764
791.459	0.0154411
791.538	0.0153844
791.616	0.0155550
791.694	0.0156586
791.772	0.0156085
791.850	0.0157071
791.928	0.0158017
792.006	0.0157426
792.084	0.0157334
792.163	0.0157969
792.241	0.0158818
792.319	0.0159044
792.397	0.0159121
792.475	0.0160078
792.553	0.0161169
792.631	0.0163745
792.709	0.0162092
792.788	0.0161826
792.866	0.0163180
792.944	0.0163747
793.022	0.0162700
793.100	0.0162816
793.178	0.0163056
793.256	0.0162212
793.334	0.0162592
793.413	0.0164241
793.491	0.0162488
793.569	0.0160403
793.647	0.0161615
793.725	0.0159743
793.803	0.0157737
793.881	0.0157652
793.959	0.0157738
794.038	0.0155784
794.116	0.0155254
794.194	0.0154996
794.272	0.0153896
794.350	0.0151522
794.428	0.0152063
794.506	0.0151710
794.584	0.0151224
794.663	0.0151273
794.741	0.0150187
794.819	0.0149204
794.897	0.0149199
794.975	0.0149137
795.053	0.0149987
795.131	0.0149786
795.209	0.0150468
795.288	0.0150874
795.366	0.0149722
795.444	0.0151289
795.522	0.0151138
795.600	0.0151258
795.678	0.0152126
795.756	0.0152455
795.834	0.0153688
795.913	0.0153029
795.991	0.0153022
796.069	0.0153220
796.147	0.0154135
796.225	0.0154418
796.303	0.0153934
796.381	0.0153827
796.459	0.0153780
796.538	0.0154296
796.616	0.0154279
796.694	0.0154499
796.772	0.0157059
796.850	0.0155514
796.928	0.0155020
797.006	0.0156768
797.084	0.0156750
797.163	0.0157558
797.241	0.0156877
797.319	0.0156629
797.397	0.0156947
797.475	0.0158548
797.553	0.0159984
797.631	0.0157422
797.709	0.0158360
797.788	0.0157932
797.866	0.0156905
797.944	0.0157922
798.022	0.0158049
798.100	0.0158621
798.178	0.0158443
798.256	0.0158195
798.334	0.0157279
798.413	0.0158558
798.491	0.0156738
798.569	0.0155758
798.647	0.0156389
798.725	0.0156642
798.803	0.0155397
798.881	0.0157410
798.959	0.0155008
799.038	0.0155320
799.116	0.0156606
799.194	0.0153676
799.272	0.0153496
799.350	0.0154226
799.428	0.0153861
799.506	0.0153288
799.584	0.0152490
799.663	0.0151870
799.741	0.0153119
799.819	0.0152212
799.897	0.0152576
799.975	0.0151583
800.053	0.0154382
800.131	0.0150825
800.209	0.0153637
800.288	0.0153369
800.366	0.0152146
800.444	0.0153346
800.522	0.0150690
800.600	0.0153115
800.678	0.0153481
800.756	0.0154043
800.834	0.0153647
800.913	0.0155385
800.991	0.0154650
801.069	0.0153780
801.147	0.0155695
801.225	0.0154258
801.303	0.0156091
801.381	0.0153674
801.459	0.0156919
801.538	0.0155462
801.616	0.0155304
801.694	0.0155539
801.772	0.0155795
801.850	0.0155307
801.928	0.0156415
802.006	0.0153979
802.084	0.0155358
802.163	0.0154607
802.241	0.0153346
802.319	0.0155190
802.397	0.0154753
802.475	0.0155644
802.553	0.0154659
802.631	0.0155025
802.709	0.0155827
802.788	0.0157439
802.866	0.0156502
802.944	0.0156823
803.022	0.0156852
803.100	0.0158295
803.178	0.0158247
803.256	0.0157328
803.334	0.0157533
803.413	0.0159175
803.491	0.0157863
803.569	0.0157607
803.647	0.0158741
803.725	0.0158836
803.803	0.0158894
803.881	0.0158603
803.959	0.0157310
804.038	0.0157191
804.116	0.0157375
804.194	0.0157420
804.272	0.0158978
804.350	0.0158015
804.428	0.0157742
804.506	0.0157063
804.584	0.0156010
804.663	0.0156189
804.741	0.0156484
804.819	0.0155692
804.897	0.0155603
804.975	0.0155870
805.053	0.0155647
805.131	0.0155206
805.209	0.0156754
805.288	0.0155596
805.366	0.0155056
805.444	0.0153720
805.522	0.0156257
805.600	0.0156029
805.678	0.0155761
805.756	0.0155159
805.834	0.0155787
805.913	0.0154411
805.991	0.0154252
806.069	0.0154890
806.147	0.0154830
806.225	0.0155174
806.303	0.0154352
806.381	0.0154868
806.459	0.0155671
806.538	0.0154676
806.616	0.0154679
806.694	0.0155310
806.772	0.0154284
806.850	0.0153743
806.928	0.0154015
807.006	0.0154607
807.084	0.0154258
807.163	0.0153783
807.241	0.0153509
807.319	0.0153929
807.397	0.0153072
807.475	0.0154280
807.553	0.0154418
807.631	0.0152377
807.709	0.0154234
807.788	0.0152889
807.866	0.0153690
807.944	0.0154340
808.022	0.0153182
808.100	0.0154068
808.178	0.0154161
808.256	0.0154276
808.334	0.0155260
808.413	0.0154604
808.491	0.0154867
808.569	0.0155293
808.647	0.0157091
808.725	0.0156014
808.803	0.0156699
808.881	0.0155340
808.959	0.0155913
809.038	0.0155600
809.116	0.0157165
809.194	0.0155715
809.272	0.0156052
809.350	0.0157372
809.428	0.0156310
809.506	0.0155949
809.584	0.0156671
809.663	0.0156549
809.741	0.0156889
809.819	0.0157494
809.897	0.0156556
809.975	0.0157446
810.053	0.0156593
810.131	0.0154830
810.209	0.0156207
810.288	0.0157537
810.366	0.0157566
810.444	0.0155980
810.522	0.0156317
810.600	0.0157155
810.678	0.0155363
810.756	0.0155752
810.834	0.0154897
810.913	0.0154051
810.991	0.0155301
811.069	0.0154047
811.147	0.0154144
811.225	0.0153581
811.303	0.0155176
811.381	0.0154061
811.459	0.0152607
811.538	0.0152463
811.616	0.0152371
811.694	0.0152785
811.772	0.0153288
811.850	0.0152789
811.928	0.0154063
812.006	0.0154080
812.084	0.0153658
812.163	0.0153500
812.241	0.0152589
812.319	0.0154941
812.397	0.0155610
812.475	0.0154619
812.553	0.0154247
812.631	0.0154855
812.709	0.0154826
812.788	0.0155212
812.866	0.0155196
812.944	0.0154924
813.022	0.0155875
813.100	0.0155942
813.178	0.0156802
813.256	0.0156952
813.334	0.0156657
813.413	0.0156554
813.491	0.0157032
813.569	0.0155512
813.647	0.0156035
813.725	0.0155530
813.803	0.0157078
813.881	0.0156746
813.959	0.0158003
814.038	0.0156824
814.116	0.0156736
814.194	0.0159012
814.272	0.0157516
814.350	0.0157862
814.428	0.0158966
814.506	0.0157856
814.584	0.0158780
814.663	0.0158424
814.741	0.0158640
814.819	0.0158680
814.897	0.0158582
814.975	0.0157875
815.053	0.0158365
815.131	0.0157489
815.209	0.0158478
815.288	0.0157513
815.366	0.0156722
815.444	0.0156171
815.522	0.0156423
815.600	0.0155206
815.678	0.0153741
815.756	0.0154401
815.834	0.0153985
815.913	0.0153747
815.991	0.0154101
816.069	0.0154121
816.147	0.0154359
816.225	0.0152698
816.303	0.0153755
816.381	0.0154744
816.459	0.0153398
816.538	0.0152901
816.616	0.0154154
816.694	0.0154360
816.772	0.0154809
816.850	0.0154346
816.928	0.0154762
817.006	0.0155454
817.084	0.0154926
817.163	0.0154986
817.241	0.0156876
817.319	0.0156014
817.397	0.0153795
817.475	0.0154523
817.553	0.0155219
817.631	0.0155977
817.709	0.0153867
817.788	0.0154784
817.866	0.0152999
817.944	0.0155415
818.022	0.0155783
818.100	0.0154000
818.178	0.0154960
818.256	0.0154494
818.334	0.0154646
818.413	0.0154415
818.491	0.0155743
818.569	0.0155057
818.647	0.0155100
818.725	0.0155071
818.803	0.0155540
818.881	0.0156909
818.959	0.0155086
819.038	0.0156851
819.116	0.0156351
819.194	0.0156501
819.272	0.0156613
819.350	0.0156911
819.428	0.0156832
819.506	0.0156311
819.584	0.0156764
819.663	0.0157401
819.741	0.0156244
819.819	0.0156841
819.897	0.0156962
819.975	0.0157571
820.053	0.0155312
820.131	0.0155851
820.209	0.0155881
820.288	0.0155502
820.366	0.0154450
820.444	0.0154057
820.522	0.0154834
820.600	0.0154988
820.678	0.0156139
820.756	0.0155206
820.834	0.0154340
820.913	0.0153732
820.991	0.0156181
821.069	0.0154872
821.147	0.0154665
821.225	0.0154877
821.303	0.0154996
821.381	0.0154732
821.459	0.0155069
821.538	0.0155956
821.616	0.0155778
821.694	0.0155659
821.772	0.0154996
821.850	0.0153796
821.928	0.0155220
822.006	0.0155079
822.084	0.0154002
822.163	0.0154717
822.241	0.0155214
822.319	0.0154682
822.397	0.0151283
822.475	0.0153729
822.553	0.0152599
822.631	0.0154509
822.709	0.0153220
822.788	0.0152448
822.866	0.0152836
822.944	0.0152472
823.022	0.0153769
823.100	0.0153535
823.178	0.0151259
823.256	0.0153908
823.334	0.0153436
823.413	0.0153384
823.491	0.0153387
823.569	0.0153787
823.647	0.0153532
823.725	0.0153510
823.803	0.0153252
823.881	0.0154245
823.959	0.0153653
824.038	0.0153536
824.116	0.0154696
824.194	0.0155824
824.272	0.0154128
824.350	0.0155532
824.428	0.0156320
824.506	0.0155446
824.584	0.0156882
824.663	0.0156098
824.741	0.0156835
824.819	0.0156989
824.897	0.0157343
824.975	0.0157195
825.053	0.0157748
825.131	0.0157191
825.209	0.0158297
825.288	0.0158793
825.366	0.0158252
825.444	0.0157961
825.522	0.0160201
825.600	0.0159754
825.678	0.0158777
825.756	0.0158241
825.834	0.0159060
825.913	0.0158324
825.991	0.0158276
826.069	0.0159189
826.147	0.0158566
826.225	0.0159177
826.303	0.0156651
826.381	0.0156644
826.459	0.0156432
826.538	0.0157001
826.616	0.0155991
826.694	0.0155830
826.772	0.0156594
826.850	0.0155332
826.928	0.0155185
827.006	0.0155418
827.084	0.0156879
827.163	0.0154991
827.241	0.0154133
827.319	0.0156667
827.397	0.0155321
827.475	0.0155687
827.553	0.0156478
827.631	0.0156825
827.709	0.0156035
827.788	0.0154740
827.866	0.0156020
827.944	0.0156494
828.022	0.0155784
828.100	0.0156031
828.178	0.0155689
828.256	0.0155380
828.334	0.0155632
828.413	0.0156134
828.491	0.0154533
828.569	0.0155388
828.647	0.0156586
828.725	0.0156626
828.803	0.0155251
828.881	0.0154982
828.959	0.0153262
829.038	0.0153953
829.116	0.0153596
829.194	0.0153465
829.272	0.0154799
829.350	0.0153377
829.428	0.0153374
829.506	0.0153468
829.584	0.0153384
829.663	0.0154218
829.741	0.0153663
829.819	0.0153188
829.897	0.0153236
829.975	0.0153737
830.053	0.0153583
830.131	0.0153690
830.209	0.0152245
830.288	0.0153310
830.366	0.0154469
830.444	0.0154187
830.522	0.0153736
830.600	0.0153580
830.678	0.0154516
830.756	0.0154444
830.834	0.0152935
830.913	0.0154594
830.991	0.0154422
831.069	0.0153249
831.147	0.0153841
831.225	0.0154128
831.303	0.0154702
831.381	0.0153666
831.459	0.0154092
831.538	0.0154943
831.616	0.0154688
831.694	0.0155625
831.772	0.0155730
831.850	0.0153853
831.928	0.0153593
832.006	0.0154900
832.084	0.0154878
832.163	0.0155314
832.241	0.0156286
832.319	0.0155422
832.397	0.0155661
832.475	0.0155382
832.553	0.0154519
832.631	0.0155462
832.709	0.0154605
832.788	0.0155234
832.866	0.0155984
832.944	0.0154623
833.022	0.0154594
833.100	0.0154384
833.178	0.0154062
833.256	0.0154757
833.334	0.0154938
833.413	0.0154888
833.491	0.0154712
833.569	0.0154021
833.647	0.0154797
833.725	0.0155214
833.803	0.0155260
833.881	0.0154134
833.959	0.0154762
834.038	0.0154650
834.116	0.0154874
834.194	0.0155849
834.272	0.0155493
834.350	0.0155235
834.428	0.0156874
834.506	0.0156211
834.584	0.0156098
834.663	0.0156592
834.741	0.0154884
834.819	0.0156522
834.897	0.0157860
834.975	0.0156664
835.053	0.0157675
835.131	0.0158431
835.209	0.0157982
835.288	0.0157273
835.366	0.0157481
835.444	0.0157711
835.522	0.0155977
835.600	0.0157719
835.678	0.0157852
835.756	0.0157644
835.834	0.0157673
835.913	0.0156313
835.991	0.0156236
836.069	0.0157555
836.147	0.0156794
836.225	0.0157337
836.303	0.0156622
836.381	0.0155499
836.459	0.0155974
836.538	0.0155087
836.616	0.0153945
836.694	0.0154830
836.772	0.0153635
836.850	0.0153662
836.928	0.0153802
837.006	0.0154939
837.084	0.0154050
837.163	0.0153816
837.241	0.0155616
837.319	0.0155347
837.397	0.0153617
837.475	0.0154709
837.553	0.0153863
837.631	0.0154097
837.709	0.0154446
837.788	0.0155304
837.866	0.0154831
837.944	0.0153919
838.022	0.0154076
838.100	0.0154515
838.178	0.0153402
838.256	0.0155016
838.334	0.0155304
838.413	0.0154593
838.491	0.0154964
838.569	0.0155799
838.647	0.0154196
838.725	0.0153303
838.803	0.0155103
838.881	0.0154846
838.959	0.0155009
839.038	0.0155555
839.116	0.0156052
839.194	0.0156485
839.272	0.0156470
839.350	0.0156771
839.428	0.0156371
839.506	0.0156143
839.584	0.0156983
839.663	0.0156536
839.741	0.0157364
839.819	0.0157234
839.897	0.0157682
839.975	0.0158942
840.053	0.0158462
840.131	0.0159036
840.209	0.0157082
840.288	0.0157793
840.366	0.0156813
840.444	0.0157449
840.522	0.0157864
840.600	0.0156039
840.678	0.0156319
840.756	0.0155836
840.834	0.0155985
840.913	0.0155501
840.991	0.0155588
841.069	0.0156035
841.147	0.0155533
841.225	0.0153993
841.303	0.0154905
841.381	0.0153610
841.459	0.0152352
841.538	0.0153114
841.616	0.0151799
841.694	0.0152555
841.772	0.0153848
841.850	0.0153755
841.928	0.0152722
842.006	0.0152418
842.084	0.0154130
842.163	0.0153819
842.241	0.0153217
842.319	0.0152613
842.397	0.0155685
842.475	0.0154758
842.553	0.0155015
842.631	0.0156760
842.709	0.0156462
842.788	0.0157139
842.866	0.0157932
842.944	0.0156590
843.022	0.0156225
843.100	0.0158515
843.178	0.0157339
843.256	0.0157170
843.334	0.0158234
843.413	0.0157561
843.491	0.0157032
843.569	0.0156330
843.647	0.0155386
843.725	0.0156970
843.803	0.0156747
843.881	0.0156010
843.959	0.0155894
844.038	0.0155881
844.116	0.0157379
844.194	0.0155781
844.272	0.0156209
844.350	0.0156782
844.428	0.0156214
844.506	0.0155421
844.584	0.0157620
844.663	0.0157294
844.741	0.0156364
844.819	0.0155340
844.897	0.0155325
844.975	0.0157405
845.053	0.0156813
845.131	0.0157784
845.209	0.0157732
845.288	0.0156969
845.366	0.0157085
845.444	0.0157489
845.522	0.0156944
845.600	0.0156073
845.678	0.0155175
845.756	0.0156815
845.834	0.0156250
845.913	0.0155783
845.991	0.0156590
846.069	0.0156988
846.147	0.0156274
846.225	0.0154597
846.303	0.0155367
846.381	0.0153977
846.459	0.0153266
846.538	0.0156022
846.616	0.0156029
846.694	0.0154215
846.772	0.0154955
846.850	0.0153316
846.928	0.0152985
847.006	0.0155576
847.084	0.0154210
847.163	0.0154219
847.241	0.0153391
847.319	0.0155221
847.397	0.0154452
847.475	0.0153194
847.553	0.0154081
847.631	0.0154288
847.709	0.0154671
847.788	0.0155144
847.866	0.0155412
847.944	0.0155244
848.022	0.0155103
848.100	0.0153606
848.178	0.0155434
848.256	0.0156580
848.334	0.0157370
848.413	0.0155746
848.491	0.0156647
848.569	0.0156710
848.647	0.0156841
848.725	0.0157735
848.803	0.0157664
848.881	0.0156180
848.959	0.0155824
849.038	0.0157188
849.116	0.0157151
849.194	0.0156992
849.272	0.0157269
849.350	0.0157491
849.428	0.0154594
849.506	0.0156640
849.584	0.0158088
849.663	0.0155801
849.741	0.0155207
849.819	0.0156784
849.897	0.0156917
849.975	0.0156668
850.053	0.0155270
850.131	0.0154760
850.209	0.0156319
850.288	0.0155292
850.366	0.0154637
850.444	0.0156773
850.522	0.0155733
850.600	0.0156094
850.678	0.0155731
850.756	0.0154788
850.834	0.0154408
850.913	0.0155336
850.991	0.0155238
851.069	0.0154581
851.147	0.0155640
851.225	0.0156232
851.303	0.0155873
851.381	0.0156197
851.459	0.0156149
851.538	0.0155589
851.616	0.0155482
851.694	0.0157941
851.772	0.0156422
851.850	0.0156766
851.928	0.0156703
852.006	0.0157099
852.084	0.0156284
852.163	0.0156927
852.241	0.0157655
852.319	0.0156439
852.397	0.0157249
852.475	0.0156815
852.553	0.0155990
852.631	0.0155357
852.709	0.0155734
852.788	0.0156123
852.866	0.0155529
852.944	0.0155309
853.022	0.0156117
853.100	0.0156781
853.178	0.0156039
853.256	0.0155599
853.334	0.0156034
853.413	0.0154339
853.491	0.0156602
853.569	0.0155627
853.647	0.0154324
853.725	0.0155270
853.803	0.0155659
853.881	0.0155922
853.959	0.0155048
854.038	0.0155769
854.116	0.0154239
854.194	0.0155656
854.272	0.0154564
854.350	0.0154027
854.428	0.0153665
854.506	0.0154925
854.584	0.0153448
854.663	0.0153433
854.741	0.0154812
854.819	0.0153587
854.897	0.0155219
854.975	0.0152196
855.053	0.0151860
855.131	0.0153101
855.209	0.0153764
855.288	0.0152930
855.366	0.0153051
855.444	0.0152856
855.522	0.0151228
855.600	0.0153103
855.678	0.0152820
855.756	0.0154236
855.834	0.0153898
855.913	0.0154211
855.991	0.0154021
856.069	0.0154276
856.147	0.0155126
856.225	0.0155828
856.303	0.0154724
856.381	0.0154325
856.459	0.0156755
856.538	0.0155791
856.616	0.0154960
856.694	0.0155646
856.772	0.0156372
856.850	0.0155532
856.928	0.0155740
857.006	0.0156184
857.084	0.0156122
857.163	0.0155724
857.241	0.0155667
857.319	0.0154436
857.397	0.0155945
857.475	0.0155408
857.553	0.0153971
857.631	0.0155479
857.709	0.0154572
857.788	0.0154634
857.866	0.0154821
857.944	0.0155427
858.022	0.0153040
858.100	0.0153309
858.178	0.0152908
858.256	0.0152456
858.334	0.0153994
858.413	0.0154607
858.491	0.0153869
858.569	0.0154488
858.647	0.0153712
858.725	0.0152692
858.803	0.0152877
858.881	0.0154417
858.959	0.0153488
859.038	0.0155481
859.116	0.0153999
859.194	0.0154510
859.272	0.0156238
859.350	0.0156195
859.428	0.0154091
859.506	0.0155327
859.584	0.0155556
859.663	0.0155923
859.741	0.0154654
859.819	0.0157295
859.897	0.0158068
859.975	0.0155795
860.053	0.0155998
860.131	0.0155695
860.209	0.0156067
860.288	0.0155946
860.366	0.0156732
860.444	0.0156897
860.522	0.0156828
860.600	0.0156474
860.678	0.0155968
860.756	0.0156640
860.834	0.0157255
860.913	0.0156178
860.991	0.0155403
861.069	0.0156394
861.147	0.0156036
861.225	0.0156644
861.303	0.0156853
861.381	0.0155933
861.459	0.0156980
861.538	0.0157408
861.616	0.0156100
861.694	0.0156563
861.772	0.0156187
861.850	0.0156747
861.928	0.0157285
862.006	0.0157742
862.084	0.0156543
862.163	0.0156750
862.241	0.0156685
862.319	0.0156770
862.397	0.0156515
862.475	0.0156744
862.553	0.0155518
862.631	0.0156302
862.709	0.0156390
862.788	0.0156165
862.866	0.0156998
862.944	0.0156414
863.022	0.0155030
863.100	0.0155141
863.178	0.0154944
863.256	0.0153838
863.334	0.0154430
863.413	0.0154430
863.491	0.0153642
863.569	0.0155725
863.647	0.0155491
863.725	0.0153549
863.803	0.0153320
863.881	0.0154067
863.959	0.0155855
864.038	0.0154620
864.116	0.0155143
864.194	0.0154369
864.272	0.0154046
864.350	0.0154163
864.428	0.0155540
864.506	0.0154653
864.584	0.0153454
864.663	0.0154204
864.741	0.0154295
864.819	0.0153183
864.897	0.0153432
864.975	0.0153763
865.053	0.0154848
865.131	0.0155557
865.209	0.0153261
865.288	0.0153757
865.366	0.0154553
865.444	0.0155268
865.522	0.0154274
865.600	0.0155107
865.678	0.0153989
865.756	0.0154919
865.834	0.0154750
865.913	0.0154668
865.991	0.0155720
866.069	0.0155313
866.147	0.0154632
866.225	0.0154488
866.303	0.0154803
866.381	0.0155064
866.459	0.0154704
866.538	0.0154868
866.616	0.0155582
866.694	0.0154939
866.772	0.0155660
866.850	0.0156388
866.928	0.0155165
867.006	0.0155024
867.084	0.0155340
867.163	0.0154993
867.241	0.0156153
867.319	0.0157333
867.397	0.0157497
867.475	0.0157979
867.553	0.0157919
867.631	0.0155875
867.709	0.0156107
867.788	0.0157127
867.866	0.0157351
867.944	0.0156642
868.022	0.0157742
868.100	0.0158031
868.178	0.0157387
868.256	0.0157925
868.334	0.0158572
868.413	0.0159484
868.491	0.0158794
868.569	0.0157146
868.647	0.0157402
868.725	0.0158514
868.803	0.0159795
868.881	0.0157367
868.959	0.0158267
869.038	0.0157020
869.116	0.0158324
869.194	0.0156725
869.272	0.0156036
869.350	0.0156209
869.428	0.0157156
869.506	0.0155788
869.584	0.0154669
869.663	0.0153453
869.741	0.0155190
869.819	0.0154434
869.897	0.0153491
869.975	0.0153733
870.053	0.0153244
870.131	0.0153914
870.209	0.0154085
870.288	0.0153773
870.366	0.0154357
870.444	0.0154008
870.522	0.0152828
870.600	0.0152322
870.678	0.0153442
870.756	0.0153406
870.834	0.0152907
870.913	0.0155144
870.991	0.0154047
871.069	0.0154399
871.147	0.0155545
871.225	0.0154428
871.303	0.0155047
871.381	0.0155212
871.459	0.0154601
871.538	0.0156200
871.616	0.0156018
871.694	0.0154768
871.772	0.0152647
871.850	0.0153481
871.928	0.0155437
872.006	0.0156153
872.084	0.0155910
872.163	0.0156071
872.241	0.0156116
872.319	0.0155791
872.397	0.0155489
872.475	0.0156008
872.553	0.0157797
872.631	0.0156783
872.709	0.0157964
872.788	0.0157146
872.866	0.0156039
872.944	0.0156156
873.022	0.0155404
873.100	0.0155675
873.178	0.0155424
873.256	0.0155859
873.334	0.0157560
873.413	0.0155981
873.491	0.0156001
873.569	0.0156321
873.647	0.0155395
873.725	0.0155291
873.803	0.0156326
873.881	0.0154729
873.959	0.0154755
874.038	0.0155399
874.116	0.0155257
874.194	0.0154566
874.272	0.0155281
874.350	0.0156116
874.428	0.0156082
874.506	0.0155919
874.584	0.0154913
874.663	0.0157219
874.741	0.0156588
874.819	0.0155687
874.897	0.0155936
874.975	0.0155562
875.053	0.0156281
875.131	0.0155782
875.209	0.0154972
875.288	0.0154629
875.366	0.0156801
875.444	0.0154705
875.522	0.0156007
875.600	0.0156171
875.678	0.0155787
875.756	0.0154704
875.834	0.0154882
875.913	0.0155114
875.991	0.0153870
876.069	0.0155042
876.147	0.0155685
876.225	0.0156416
876.303	0.0154034
876.381	0.0153688
876.459	0.0154745
876.538	0.0155636
876.616	0.0154915
876.694	0.0154410
876.772	0.0155581
876.850	0.0154539
876.928	0.0155390
877.006	0.0154256
877.084	0.0154530
877.163	0.0155654
877.241	0.0153991
877.319	0.0154257
877.397	0.0155246
877.475	0.0155640
877.553	0.0154934
877.631	0.0155502
877.709	0.0155294
877.788	0.0156146
877.866	0.0155381
877.944	0.0154671
878.022	0.0156214
878.100	0.0155653
878.178	0.0155608
878.256	0.0155982
878.334	0.0155936
878.413	0.0154917
878.491	0.0155923
878.569	0.0154291
878.647	0.0154762
878.725	0.0153770
878.803	0.0155986
878.881	0.0154343
878.959	0.0154358
879.038	0.0154418
879.116	0.0155933
879.194	0.0154434
879.272	0.0154082
879.350	0.0154239
879.428	0.0155990
879.506	0.0154922
879.584	0.0154792
879.663	0.0155142
879.741	0.0155576
879.819	0.0155975
879.897	0.0156088
879.975	0.0155526
880.053	0.0154965
880.131	0.0154972
880.209	0.0156182
880.288	0.0156224
880.366	0.0157334
880.444	0.0157057
880.522	0.0156554
880.600	0.0156332
880.678	0.0156433
880.756	0.0155927
880.834	0.0157059
880.913	0.0157460
880.991	0.0155896
881.069	0.0156923
881.147	0.0155997
881.225	0.0157268
881.303	0.0158719
881.381	0.0156482
881.459	0.0157681
881.538	0.0155766
881.616	0.0155753
881.694	0.0155758
881.772	0.0157256
881.850	0.0156635
881.928	0.0155309
882.006	0.0157407
882.084	0.0156544
882.163	0.0155750
882.241	0.0155702
882.319	0.0154964
882.397	0.0155588
882.475	0.0154524
882.553	0.0154211
882.631	0.0154413
882.709	0.0153954
882.788	0.0155189
882.866	0.0154910
882.944	0.0155660
883.022	0.0153748
883.100	0.0153684
883.178	0.0154639
883.256	0.0155762
883.334	0.0154764
883.413	0.0154829
883.491	0.0155606
883.569	0.0155591
883.647	0.0156673
883.725	0.0156095
883.803	0.0155885
883.881	0.0155812
883.959	0.0156516
884.038	0.0155321
884.116	0.0155112
884.194	0.0156232
884.272	0.0157021
884.350	0.0155569
884.428	0.0157229
884.506	0.0156892
884.584	0.0156870
884.663	0.0157124
884.741	0.0157255
884.819	0.0157332
884.897	0.0157308
884.975	0.0156345
885.053	0.0156199
885.131	0.0155669
885.209	0.0155134
885.288	0.0156117
885.366	0.0156174
885.444	0.0156765
885.522	0.0155216
885.600	0.0155357
885.678	0.0157770
885.756	0.0155879
885.834	0.0155138
885.913	0.0156376
885.991	0.0155669
886.069	0.0156343
886.147	0.0156389
886.225	0.0154736
886.303	0.0155996
886.381	0.0156840
886.459	0.0156293
886.538	0.0155807
886.616	0.0156480
886.694	0.0156786
886.772	0.0156768
886.850	0.0156453
886.928	0.0157807
887.006	0.0157388
887.084	0.0157379
887.163	0.0157346
887.241	0.0155951
887.319	0.0155197
887.397	0.0156459
887.475	0.0155694
887.553	0.0155655
887.631	0.0156027
887.709	0.0156379
887.788	0.0155128
887.866	0.0155437
887.944	0.0156734
888.022	0.0156949
888.100	0.0155974
888.178	0.0154213
888.256	0.0154635
888.334	0.0156033
888.413	0.0155330
888.491	0.0154746
888.569	0.0156769
888.647	0.0155015
888.725	0.0154915
888.803	0.0154544
888.881	0.0154840
888.959	0.0155512
889.038	0.0154461
889.116	0.0155340
889.194	0.0155740
889.272	0.0154913
889.350	0.0154732
889.428	0.0154484
889.506	0.0155281
889.584	0.0156229
889.663	0.0155627
889.741	0.0155787
889.819	0.0156371
889.897	0.0155181
889.975	0.0156350
890.053	0.0154516
890.131	0.0156034
890.209	0.0155689
890.288	0.0154578
890.366	0.0154327
890.444	0.0155145
890.522	0.0156195
890.600	0.0154507
890.678	0.0154835
890.756	0.0154490
890.834	0.0155192
890.913	0.0154988
890.991	0.0154220
891.069	0.0154812
891.147	0.0155094
891.225	0.0154402
891.303	0.0154142
891.381	0.0155344
891.459	0.0153404
891.538	0.0154720
891.616	0.0154941
891.694	0.0154099
891.772	0.0154493
891.850	0.0155232
891.928	0.0154506
892.006	0.0154008
892.084	0.0153903
892.163	0.0155363
892.241	0.0154951
892.319	0.0156305
892.397	0.0156497
892.475	0.0156399
892.553	0.0156583
892.631	0.0156203
892.709	0.0156221
892.788	0.0156972
892.866	0.0157502
892.944	0.0158760
893.022	0.0156940
893.100	0.0158063
893.178	0.0155476
893.256	0.0156266
893.334	0.0158167
893.413	0.0157192
893.491	0.0156927
893.569	0.0158253
893.647	0.0158388
893.725	0.0155800
893.803	0.0156353
893.881	0.0156831
893.959	0.0156440
894.038	0.0155081
894.116	0.0155259
894.194	0.0155195
894.272	0.0154725
894.350	0.0156046
894.428	0.0152464
894.506	0.0154666
894.584	0.0154107
894.663	0.0155228
894.741	0.0153836
894.819	0.0153248
894.897	0.0153570
894.975	0.0154592
895.053	0.0155103
895.131	0.0154565
895.209	0.0154007
895.288	0.0153905
895.366	0.0154404
895.444	0.0155521
895.522	0.0154929
895.600	0.0155356
895.678	0.0156014
895.756	0.0156216
895.834	0.0156884
895.913	0.0156065
895.991	0.0156032
896.069	0.0157329
896.147	0.0155500
896.225	0.0156291
896.303	0.0155822
896.381	0.0155968
896.459	0.0156788
896.538	0.0156210
896.616	0.0156212
896.694	0.0157236
896.772	0.0156779
896.850	0.0155521
896.928	0.0155486
897.006	0.0154668
897.084	0.0155738
897.163	0.0155373
897.241	0.0154408
897.319	0.0154924
897.397	0.0154960
897.475	0.0155482
897.553	0.0153526
897.631	0.0153793
897.709	0.0154739
897.788	0.0153655
897.866	0.0154419
897.944	0.0153392
898.022	0.0153200
898.100	0.0155022
898.178	0.0154256
898.256	0.0154697
898.334	0.0153828
898.413	0.0153081
898.491	0.0155635
898.569	0.0153856
898.647	0.0153645
898.725	0.0154163
898.803	0.0154993
898.881	0.0155444
898.959	0.0155894
899.038	0.0155486
899.116	0.0153909
899.194	0.0154813
899.272	0.0155245
899.350	0.0154036
899.428	0.0153986
899.506	0.0155665
899.584	0.0156344
899.663	0.0155801
899.741	0.0154686
899.819	0.0155572
899.897	0.0155244
899.975	0.0154582
900.053	0.0155018
900.131	0.0154954
900.209	0.0155008
900.288	0.0155618
900.366	0.0155981
900.444	0.0154685
900.522	0.0155491
900.600	0.0155987
900.678	0.0156184
900.756	0.0155683
900.834	0.0155347
900.913	0.0157444
900.991	0.0158405
901.069	0.0155423
901.147	0.0157506
901.225	0.0156155
901.303	0.0156050
901.381	0.0158202
901.459	0.0157092
901.538	0.0157578
901.616	0.0159226
901.694	0.0156476
901.772	0.0157687
901.850	0.0157519
901.928	0.0157561
902.006	0.0155676
902.084	0.0156844
902.163	0.0157818
902.241	0.0156738
902.319	0.0156485
902.397	0.0155976
902.475	0.0156873
902.553	0.0156843
902.631	0.0154532
902.709	0.0155288
902.788	0.0154021
902.866	0.0153262
902.944	0.0154195
903.022	0.0155141
903.100	0.0153699
903.178	0.0153622
903.256	0.0153305
903.334	0.0152900
903.413	0.0153810
903.491	0.0153820
903.569	0.0153408
903.647	0.0153246
903.725	0.0153795
903.803	0.0154236
903.881	0.0152189
903.959	0.0152831
904.038	0.0154041
904.116	0.0153329
904.194	0.0153063
904.272	0.0155119
904.350	0.0154198
904.428	0.0152444
904.506	0.0154156
904.584	0.0154736
904.663	0.0155458
904.741	0.0154744
904.819	0.0154395
904.897	0.0155377
904.975	0.0155060
905.053	0.0154575
905.131	0.0154074
905.209	0.0155308
905.288	0.0155681
905.366	0.0154996
905.444	0.0156191
905.522	0.0155191
905.600	0.0156054
905.678	0.0155706
905.756	0.0156572
905.834	0.0154752
905.913	0.0155915
905.991	0.0157008
906.069	0.0155664
906.147	0.0155582
906.225	0.0156062
906.303	0.0154782
906.381	0.0155367
906.459	0.0155710
906.538	0.0157585
906.616	0.0156012
906.694	0.0154489
906.772	0.0155547
906.850	0.0153697
906.928	0.0153856
907.006	0.0155492
907.084	0.0154505
907.163	0.0154943
907.241	0.0155013
907.319	0.0155343
907.397	0.0154580
907.475	0.0155601
907.553	0.0154002
907.631	0.0154118
907.709	0.0154459
907.788	0.0154962
907.866	0.0155009
907.944	0.0153122
908.022	0.0153550
908.100	0.0154025
908.178	0.0154359
908.256	0.0155300
908.334	0.0154237
908.413	0.0154360
908.491	0.0153087
908.569	0.0154601
908.647	0.0153836
908.725	0.0154670
908.803	0.0154066
908.881	0.0154863
908.959	0.0154100
909.038	0.0154465
909.116	0.0154643
909.194	0.0154961
909.272	0.0155778
909.350	0.0155450
909.428	0.0156396
909.506	0.0156271
909.584	0.0157555
909.663	0.0155070
909.741	0.0155125
909.819	0.0156252
909.897	0.0155862
909.975	0.0157987
910.053	0.0155048
910.131	0.0155475
910.209	0.0155962
910.288	0.0156048
910.366	0.0156628
910.444	0.0155784
910.522	0.0155823
910.600	0.0156046
910.678	0.0155982
910.756	0.0156242
910.834	0.0155049
910.913	0.0155606
910.991	0.0157209
911.069	0.0155447
911.147	0.0156361
911.225	0.0156602
911.303	0.0157096
911.381	0.0157848
911.459	0.0156641
911.538	0.0157822
911.616	0.0158117
911.694	0.0158251
911.772	0.0157558
911.850	0.0158885
911.928	0.0158398
912.006	0.0157993
912.084	0.0158980
912.163	0.0158038
912.241	0.0158289
912.319	0.0158323
912.397	0.0158137
912.475	0.0158566
912.553	0.0158031
912.631	0.0158310
912.709	0.0157390
912.788	0.0157440
912.866	0.0157883
912.944	0.0158405
913.022	0.0156950
913.100	0.0158229
913.178	0.0156966
913.256	0.0156334
913.334	0.0156331
913.413	0.0155891
913.491	0.0156152
913.569	0.0155376
913.647	0.0156025
913.725	0.0155997
913.803	0.0156213
913.881	0.0155362
913.959	0.0155701
914.038	0.0155460
914.116	0.0156803
914.194	0.0155801
914.272	0.0155466
914.350	0.0155692
914.428	0.0155750
914.506	0.0155264
914.584	0.0154782
914.663	0.0155836
914.741	0.0156203
914.819	0.0156065
914.897	0.0155791
914.975	0.0156323
915.053	0.0155006
915.131	0.0155892
915.209	0.0155649
915.288	0.0155789
915.366	0.0154945
915.444	0.0155853
915.522	0.0155893
915.600	0.0154841
915.678	0.0154750
915.756	0.0154888
915.834	0.0155960
915.913	0.0155898
915.991	0.0155928
916.069	0.0155107
916.147	0.0155243
916.225	0.0155365
916.303	0.0155027
916.381	0.0153339
916.459	0.0156026
916.538	0.0154494
916.616	0.0154874
916.694	0.0155840
916.772	0.0155691
916.850	0.0154546
916.928	0.0155388
917.006	0.0155827
917.084	0.0155977
917.163	0.0155859
917.241	0.0155798
917.319	0.0155130
917.397	0.0155411
917.475	0.0155716
917.553	0.0154456
917.631	0.0154977
917.709	0.0155036
917.788	0.0153725
917.866	0.0155489
917.944	0.0154612
918.022	0.0154714
918.100	0.0154684
918.178	0.0155093
918.256	0.0154325
918.334	0.0155848
918.413	0.0154569
918.491	0.0155448
918.569	0.0154529
918.647	0.0155727
918.725	0.0155884
918.803	0.0155247
918.881	0.0155369
918.959	0.0155521
919.038	0.0156528
919.116	0.0154689
919.194	0.0155869
919.272	0.0156579
919.350	0.0156242
919.428	0.0156004
919.506	0.0155820
919.584	0.0155125
919.663	0.0154200
919.741	0.0155553
919.819	0.0156483
919.897	0.0155358
