05/20/2022	21:28:44	Ver.	4.1	UNKNOWN
Optical Delay	599.975067	Delta X		0.078125	Sweeps	1	Scan Rate	0/0
Coordinates	Axis 1	NaN	Axis 2	NaN	Axis 3	NaN	Axis 4	NaN	Axis 5	NaN	Axis 6	0.000000
TX Power	0.000000	RX Power	0.000000

599.975	0.0156994
600.053	0.0157804
600.131	0.0157584
600.209	0.0157238
600.288	0.0156383
600.366	0.0157487
600.444	0.0156850
600.522	0.0155388
600.600	0.0155944
600.678	0.0156838
600.756	0.0156965
600.834	0.0156813
600.913	0.0155944
600.991	0.0156255
601.069	0.0156902
601.147	0.0158524
601.225	0.0158196
601.303	0.0156367
601.381	0.0156504
601.459	0.0157094
601.538	0.0155211
601.616	0.0157178
601.694	0.0156503
601.772	0.0157561
601.850	0.0156904
601.928	0.0155978
602.006	0.0156381
602.084	0.0155285
602.163	0.0156878
602.241	0.0157093
602.319	0.0155904
602.397	0.0156630
602.475	0.0156804
602.553	0.0156346
602.631	0.0156860
602.709	0.0156499
602.788	0.0156387
602.866	0.0156583
602.944	0.0156345
603.022	0.0156857
603.100	0.0155997
603.178	0.0157162
603.256	0.0155338
603.334	0.0155579
603.413	0.0157204
603.491	0.0156846
603.569	0.0155292
603.647	0.0155827
603.725	0.0155535
603.803	0.0154379
603.881	0.0154483
603.959	0.0155164
604.038	0.0155956
604.116	0.0155657
604.194	0.0155298
604.272	0.0154852
604.350	0.0153103
604.428	0.0155956
604.506	0.0156738
604.584	0.0157098
604.663	0.0154848
604.741	0.0154460
604.819	0.0155602
604.897	0.0155525
604.975	0.0155980
605.053	0.0156299
605.131	0.0154302
605.209	0.0155749
605.288	0.0155999
605.366	0.0155543
605.444	0.0155575
605.522	0.0155811
605.600	0.0156876
605.678	0.0156169
605.756	0.0156131
605.834	0.0156648
605.913	0.0158051
605.991	0.0155630
606.069	0.0156023
606.147	0.0156930
606.225	0.0157005
606.303	0.0156940
606.381	0.0156505
606.459	0.0157064
606.538	0.0155788
606.616	0.0156866
606.694	0.0155920
606.772	0.0156046
606.850	0.0157732
606.928	0.0157132
607.006	0.0157367
607.084	0.0156494
607.163	0.0155434
607.241	0.0155959
607.319	0.0156521
607.397	0.0154793
607.475	0.0156490
607.553	0.0156017
607.631	0.0154358
607.709	0.0156186
607.788	0.0154573
607.866	0.0155696
607.944	0.0155300
608.022	0.0157291
608.100	0.0154594
608.178	0.0156092
608.256	0.0156125
608.334	0.0156329
608.413	0.0155663
608.491	0.0155071
608.569	0.0155202
608.647	0.0156397
608.725	0.0156056
608.803	0.0154390
608.881	0.0155519
608.959	0.0155595
609.038	0.0156084
609.116	0.0155705
609.194	0.0157318
609.272	0.0156572
609.350	0.0155545
609.428	0.0154939
609.506	0.0155431
609.584	0.0156213
609.663	0.0155910
609.741	0.0155448
609.819	0.0154790
609.897	0.0156319
609.975	0.0156594
610.053	0.0156087
610.131	0.0155151
610.209	0.0156963
610.288	0.0156211
610.366	0.0156461
610.444	0.0156676
610.522	0.0155186
610.600	0.0153339
610.678	0.0155190
610.756	0.0155296
610.834	0.0156117
610.913	0.0155336
610.991	0.0156506
611.069	0.0156092
611.147	0.0155485
611.225	0.0154988
611.303	0.0156170
611.381	0.0155740
611.459	0.0154153
611.538	0.0155961
611.616	0.0156296
611.694	0.0155688
611.772	0.0155562
611.850	0.0155486
611.928	0.0156156
612.006	0.0155565
612.084	0.0155685
612.163	0.0155638
612.241	0.0154745
612.319	0.0155106
612.397	0.0155762
612.475	0.0156257
612.553	0.0155482
612.631	0.0155672
612.709	0.0154432
612.788	0.0156172
612.866	0.0156133
612.944	0.0156192
613.022	0.0156142
613.100	0.0155227
613.178	0.0155652
613.256	0.0155183
613.334	0.0155720
613.413	0.0156477
613.491	0.0155697
613.569	0.0156100
613.647	0.0155338
613.725	0.0155160
613.803	0.0156742
613.881	0.0156817
613.959	0.0155941
614.038	0.0154644
614.116	0.0156582
614.194	0.0157080
614.272	0.0156749
614.350	0.0155471
614.428	0.0156389
614.506	0.0156725
614.584	0.0157165
614.663	0.0157475
614.741	0.0157059
614.819	0.0157139
614.897	0.0156911
614.975	0.0156525
615.053	0.0156254
615.131	0.0156311
615.209	0.0155494
615.288	0.0156918
615.366	0.0156304
615.444	0.0156747
615.522	0.0157433
615.600	0.0157734
615.678	0.0156258
615.756	0.0155060
615.834	0.0155824
615.913	0.0156461
615.991	0.0155681
616.069	0.0156354
616.147	0.0155487
616.225	0.0155627
616.303	0.0156399
616.381	0.0156673
616.459	0.0157928
616.538	0.0156355
616.616	0.0155713
616.694	0.0155884
616.772	0.0156382
616.850	0.0156934
616.928	0.0155347
617.006	0.0156133
617.084	0.0155430
617.163	0.0156947
617.241	0.0157595
617.319	0.0157132
617.397	0.0154855
617.475	0.0156360
617.553	0.0156313
617.631	0.0156082
617.709	0.0156210
617.788	0.0156853
617.866	0.0157586
617.944	0.0155970
618.022	0.0154810
618.100	0.0157298
618.178	0.0157076
618.256	0.0154670
618.334	0.0157111
618.413	0.0157706
618.491	0.0157085
618.569	0.0155955
618.647	0.0155904
618.725	0.0155884
618.803	0.0156139
618.881	0.0154829
618.959	0.0155698
619.038	0.0158808
619.116	0.0156621
619.194	0.0156281
619.272	0.0157019
619.350	0.0156758
619.428	0.0156095
619.506	0.0156712
619.584	0.0156519
619.663	0.0156261
619.741	0.0155202
619.819	0.0156347
619.897	0.0157304
619.975	0.0157651
620.053	0.0156953
620.131	0.0156556
620.209	0.0156404
620.288	0.0157998
620.366	0.0158810
620.444	0.0155777
620.522	0.0157365
620.600	0.0156411
620.678	0.0157043
620.756	0.0156087
620.834	0.0157030
620.913	0.0157377
620.991	0.0156737
621.069	0.0157061
621.147	0.0156371
621.225	0.0155123
621.303	0.0156849
621.381	0.0157703
621.459	0.0156638
621.538	0.0156667
621.616	0.0155970
621.694	0.0155421
621.772	0.0156207
621.850	0.0156927
621.928	0.0157471
622.006	0.0155765
622.084	0.0156624
622.163	0.0157180
622.241	0.0156836
622.319	0.0157021
622.397	0.0157281
622.475	0.0156110
622.553	0.0156411
622.631	0.0157172
622.709	0.0157419
622.788	0.0156580
622.866	0.0157880
622.944	0.0155791
623.022	0.0155713
623.100	0.0157272
623.178	0.0157030
623.256	0.0157282
623.334	0.0156580
623.413	0.0156905
623.491	0.0157597
623.569	0.0156111
623.647	0.0157143
623.725	0.0157652
623.803	0.0156332
623.881	0.0156440
623.959	0.0155751
624.038	0.0157514
624.116	0.0157153
624.194	0.0156380
624.272	0.0157159
624.350	0.0157423
624.428	0.0157323
624.506	0.0157013
624.584	0.0156394
624.663	0.0157175
624.741	0.0158027
624.819	0.0156844
624.897	0.0158449
624.975	0.0156701
625.053	0.0156461
625.131	0.0156281
625.209	0.0156020
625.288	0.0156774
625.366	0.0157591
625.444	0.0156958
625.522	0.0156656
625.600	0.0156140
625.678	0.0156853
625.756	0.0156660
625.834	0.0156698
625.913	0.0156099
625.991	0.0156913
626.069	0.0156522
626.147	0.0157362
626.225	0.0157361
626.303	0.0155388
626.381	0.0157284
626.459	0.0157098
626.538	0.0156178
626.616	0.0158125
626.694	0.0156658
626.772	0.0157504
626.850	0.0156548
626.928	0.0155887
627.006	0.0157761
627.084	0.0158151
627.163	0.0156986
627.241	0.0156758
627.319	0.0156455
627.397	0.0157561
627.475	0.0157194
627.553	0.0156788
627.631	0.0157928
627.709	0.0156635
627.788	0.0157755
627.866	0.0158514
627.944	0.0157386
628.022	0.0157332
628.100	0.0155222
628.178	0.0156654
628.256	0.0157603
628.334	0.0157406
628.413	0.0157774
628.491	0.0158115
628.569	0.0157276
628.647	0.0156864
628.725	0.0156323
628.803	0.0157629
628.881	0.0157237
628.959	0.0156155
629.038	0.0157281
629.116	0.0156221
629.194	0.0156626
629.272	0.0156786
629.350	0.0157284
629.428	0.0155494
629.506	0.0158231
629.584	0.0158125
629.663	0.0156834
629.741	0.0156676
629.819	0.0156709
629.897	0.0156766
629.975	0.0155486
630.053	0.0156242
630.131	0.0156700
630.209	0.0156451
630.288	0.0156141
630.366	0.0156195
630.444	0.0156097
630.522	0.0155912
630.600	0.0156707
630.678	0.0156257
630.756	0.0157138
630.834	0.0157879
630.913	0.0156134
630.991	0.0156329
631.069	0.0156448
631.147	0.0157309
631.225	0.0155386
631.303	0.0156557
631.381	0.0156742
631.459	0.0156567
631.538	0.0156126
631.616	0.0156060
631.694	0.0156216
631.772	0.0155369
631.850	0.0157272
631.928	0.0155927
632.006	0.0155747
632.084	0.0156348
632.163	0.0155410
632.241	0.0157056
632.319	0.0156710
632.397	0.0156720
632.475	0.0156934
632.553	0.0156529
632.631	0.0156272
632.709	0.0156240
632.788	0.0155930
632.866	0.0156785
632.944	0.0156607
633.022	0.0157446
633.100	0.0156657
633.178	0.0155184
633.256	0.0155874
633.334	0.0156660
633.413	0.0156313
633.491	0.0155816
633.569	0.0156145
633.647	0.0155505
633.725	0.0156379
633.803	0.0156694
633.881	0.0155225
633.959	0.0156174
634.038	0.0156345
634.116	0.0155186
634.194	0.0156513
634.272	0.0156807
634.350	0.0155365
634.428	0.0154156
634.506	0.0154279
634.584	0.0154208
634.663	0.0156089
634.741	0.0156924
634.819	0.0155443
634.897	0.0156617
634.975	0.0156304
635.053	0.0155546
635.131	0.0156237
635.209	0.0156274
635.288	0.0155766
635.366	0.0156133
635.444	0.0156244
635.522	0.0156135
635.600	0.0156625
635.678	0.0156454
635.756	0.0156535
635.834	0.0155457
635.913	0.0155394
635.991	0.0156338
636.069	0.0156030
636.147	0.0155019
636.225	0.0155793
636.303	0.0156679
636.381	0.0156870
636.459	0.0155735
636.538	0.0155248
636.616	0.0156341
636.694	0.0155350
636.772	0.0156610
636.850	0.0155179
636.928	0.0154993
637.006	0.0155408
637.084	0.0157078
637.163	0.0156261
637.241	0.0154427
637.319	0.0155756
637.397	0.0156085
637.475	0.0155515
637.553	0.0155479
637.631	0.0155402
637.709	0.0154884
637.788	0.0155393
637.866	0.0157134
637.944	0.0155629
638.022	0.0154299
638.100	0.0155646
638.178	0.0155002
638.256	0.0156167
638.334	0.0155890
638.413	0.0154924
638.491	0.0154385
638.569	0.0155769
638.647	0.0155434
638.725	0.0155741
638.803	0.0154211
638.881	0.0155287
638.959	0.0156036
639.038	0.0155589
639.116	0.0155772
639.194	0.0157914
639.272	0.0156044
639.350	0.0155250
639.428	0.0156195
639.506	0.0155747
639.584	0.0155972
639.663	0.0156215
639.741	0.0156286
639.819	0.0156779
639.897	0.0156778
639.975	0.0156771
640.053	0.0157436
640.131	0.0156791
640.209	0.0156363
640.288	0.0155772
640.366	0.0157599
640.444	0.0156926
640.522	0.0157637
640.600	0.0156297
640.678	0.0156853
640.756	0.0156375
640.834	0.0156532
640.913	0.0156630
640.991	0.0157172
641.069	0.0158287
641.147	0.0156555
641.225	0.0157500
641.303	0.0156732
641.381	0.0157319
641.459	0.0156413
641.538	0.0157649
641.616	0.0157660
641.694	0.0157335
641.772	0.0158842
641.850	0.0157748
641.928	0.0157067
642.006	0.0157222
642.084	0.0158889
642.163	0.0156071
642.241	0.0158163
642.319	0.0157378
642.397	0.0158372
642.475	0.0157068
642.553	0.0158093
642.631	0.0158423
642.709	0.0155914
642.788	0.0156725
642.866	0.0157625
642.944	0.0157396
643.022	0.0157324
643.100	0.0156534
643.178	0.0157335
643.256	0.0156568
643.334	0.0154736
643.413	0.0156077
643.491	0.0158281
643.569	0.0156681
643.647	0.0156059
643.725	0.0157027
643.803	0.0157729
643.881	0.0156435
643.959	0.0155899
644.038	0.0157156
644.116	0.0157167
644.194	0.0157691
644.272	0.0156318
644.350	0.0156041
644.428	0.0156955
644.506	0.0155710
644.584	0.0156586
644.663	0.0155848
644.741	0.0155521
644.819	0.0156890
644.897	0.0156597
644.975	0.0156008
645.053	0.0156525
645.131	0.0154985
645.209	0.0156425
645.288	0.0156254
645.366	0.0155682
645.444	0.0154329
645.522	0.0156849
645.600	0.0156686
645.678	0.0155885
645.756	0.0155873
645.834	0.0157555
645.913	0.0154694
645.991	0.0154254
646.069	0.0156375
646.147	0.0156418
646.225	0.0157238
646.303	0.0154903
646.381	0.0155138
646.459	0.0155591
646.538	0.0156824
646.616	0.0157060
646.694	0.0155326
646.772	0.0155347
646.850	0.0154820
646.928	0.0156784
647.006	0.0156340
647.084	0.0156595
647.163	0.0157278
647.241	0.0155343
647.319	0.0156252
647.397	0.0156775
647.475	0.0155690
647.553	0.0155682
647.631	0.0156609
647.709	0.0156281
647.788	0.0155989
647.866	0.0156187
647.944	0.0155705
648.022	0.0155663
648.100	0.0157602
648.178	0.0156138
648.256	0.0155816
648.334	0.0157478
648.413	0.0156049
648.491	0.0156857
648.569	0.0156749
648.647	0.0156471
648.725	0.0156736
648.803	0.0155939
648.881	0.0157220
648.959	0.0156818
649.038	0.0156956
649.116	0.0156020
649.194	0.0157420
649.272	0.0157267
649.350	0.0157101
649.428	0.0157451
649.506	0.0157671
649.584	0.0156918
649.663	0.0155555
649.741	0.0156573
649.819	0.0155233
649.897	0.0157528
649.975	0.0157758
650.053	0.0157867
650.131	0.0157616
650.209	0.0156789
650.288	0.0156290
650.366	0.0158055
650.444	0.0156532
650.522	0.0157117
650.600	0.0158929
650.678	0.0158670
650.756	0.0156828
650.834	0.0157517
650.913	0.0158522
650.991	0.0157214
651.069	0.0156860
651.147	0.0158067
651.225	0.0156831
651.303	0.0156743
651.381	0.0157367
651.459	0.0157333
651.538	0.0157787
651.616	0.0155765
651.694	0.0155888
651.772	0.0157812
651.850	0.0156178
651.928	0.0155590
652.006	0.0156218
652.084	0.0155625
652.163	0.0157346
652.241	0.0156042
652.319	0.0154932
652.397	0.0154641
652.475	0.0156184
652.553	0.0157162
652.631	0.0155633
652.709	0.0156615
652.788	0.0158182
652.866	0.0158192
652.944	0.0156016
653.022	0.0156138
653.100	0.0157935
653.178	0.0156366
653.256	0.0157546
653.334	0.0157719
653.413	0.0156384
653.491	0.0156969
653.569	0.0156413
653.647	0.0156979
653.725	0.0155065
653.803	0.0155360
653.881	0.0154398
653.959	0.0155700
654.038	0.0156073
654.116	0.0155096
654.194	0.0154796
654.272	0.0155521
654.350	0.0155568
654.428	0.0154888
654.506	0.0156673
654.584	0.0155853
654.663	0.0154625
654.741	0.0155349
654.819	0.0157336
654.897	0.0156068
654.975	0.0157687
655.053	0.0157642
655.131	0.0157583
655.209	0.0157297
655.288	0.0157435
655.366	0.0157885
655.444	0.0158151
655.522	0.0158709
655.600	0.0154543
655.678	0.0155997
655.756	0.0155771
655.834	0.0156223
655.913	0.0155237
655.991	0.0154783
656.069	0.0153994
656.147	0.0154134
656.225	0.0153810
656.303	0.0152178
656.381	0.0153180
656.459	0.0153080
656.538	0.0153479
656.616	0.0152787
656.694	0.0154041
656.772	0.0154620
656.850	0.0152732
656.928	0.0153074
657.006	0.0154948
657.084	0.0156599
657.163	0.0155750
657.241	0.0157185
657.319	0.0157096
657.397	0.0157170
657.475	0.0158827
657.553	0.0158678
657.631	0.0158760
657.709	0.0158379
657.788	0.0159298
657.866	0.0158135
657.944	0.0159095
658.022	0.0157334
658.100	0.0158600
658.178	0.0157691
658.256	0.0157832
658.334	0.0157129
658.413	0.0156983
658.491	0.0156290
658.569	0.0155896
658.647	0.0154113
658.725	0.0154137
658.803	0.0152658
658.881	0.0154067
658.959	0.0152187
659.038	0.0151150
659.116	0.0150372
659.194	0.0148849
659.272	0.0149893
659.350	0.0151066
659.428	0.0151365
659.506	0.0150439
659.584	0.0149908
659.663	0.0151604
659.741	0.0152277
659.819	0.0153505
659.897	0.0153155
659.975	0.0155801
660.053	0.0157685
660.131	0.0157024
660.209	0.0159399
660.288	0.0159252
660.366	0.0159956
660.444	0.0161922
660.522	0.0161963
660.600	0.0162213
660.678	0.0165283
660.756	0.0165568
660.834	0.0164020
660.913	0.0164538
660.991	0.0164275
661.069	0.0163776
661.147	0.0164099
661.225	0.0163251
661.303	0.0161906
661.381	0.0162671
661.459	0.0162402
661.538	0.0161099
661.616	0.0159221
661.694	0.0157207
661.772	0.0156348
661.850	0.0156376
661.928	0.0153833
662.006	0.0153605
662.084	0.0152740
662.163	0.0152325
662.241	0.0149963
662.319	0.0149241
662.397	0.0148425
662.475	0.0150482
662.553	0.0148010
662.631	0.0147710
662.709	0.0148537
662.788	0.0149381
662.866	0.0149774
662.944	0.0150188
663.022	0.0151150
663.100	0.0150835
663.178	0.0152068
663.256	0.0153895
663.334	0.0152593
663.413	0.0153582
663.491	0.0155121
663.569	0.0155186
663.647	0.0156097
663.725	0.0157771
663.803	0.0156785
663.881	0.0156836
663.959	0.0158904
664.038	0.0158868
664.116	0.0158144
664.194	0.0159148
664.272	0.0159251
664.350	0.0159476
664.428	0.0158949
664.506	0.0159103
664.584	0.0157993
664.663	0.0157729
664.741	0.0157556
664.819	0.0159112
664.897	0.0157919
664.975	0.0158310
665.053	0.0158170
665.131	0.0157207
665.209	0.0158565
665.288	0.0158064
665.366	0.0158729
665.444	0.0158567
665.522	0.0159033
665.600	0.0158722
665.678	0.0158514
665.756	0.0159440
665.834	0.0158645
665.913	0.0158454
665.991	0.0158025
666.069	0.0157655
666.147	0.0158128
666.225	0.0159079
666.303	0.0159504
666.381	0.0157751
666.459	0.0157454
666.538	0.0158029
666.616	0.0156966
666.694	0.0156361
666.772	0.0156033
666.850	0.0156081
666.928	0.0154677
667.006	0.0153506
667.084	0.0152281
667.163	0.0151768
667.241	0.0151083
667.319	0.0151347
667.397	0.0149119
667.475	0.0148650
667.553	0.0148867
667.631	0.0147320
667.709	0.0147721
667.788	0.0147334
667.866	0.0147499
667.944	0.0146783
668.022	0.0147089
668.100	0.0148303
668.178	0.0148601
668.256	0.0150241
668.334	0.0150597
668.413	0.0151498
668.491	0.0153949
668.569	0.0153414
668.647	0.0155108
668.725	0.0156425
668.803	0.0157084
668.881	0.0158408
668.959	0.0159277
669.038	0.0159859
669.116	0.0161246
669.194	0.0162092
669.272	0.0161172
669.350	0.0162914
669.428	0.0163485
669.506	0.0163422
669.584	0.0162579
669.663	0.0163598
669.741	0.0164018
669.819	0.0163086
669.897	0.0163623
669.975	0.0163293
670.053	0.0162838
670.131	0.0162534
670.209	0.0162040
670.288	0.0161330
670.366	0.0162743
670.444	0.0161470
670.522	0.0161295
670.600	0.0161575
670.678	0.0161572
670.756	0.0162224
670.834	0.0160170
670.913	0.0159702
670.991	0.0159908
671.069	0.0158923
671.147	0.0159543
671.225	0.0159264
671.303	0.0158171
671.381	0.0158779
671.459	0.0155925
671.538	0.0155917
671.616	0.0154483
671.694	0.0154687
671.772	0.0154745
671.850	0.0154848
671.928	0.0153497
672.006	0.0152638
672.084	0.0150854
672.163	0.0150624
672.241	0.0150034
672.319	0.0150233
672.397	0.0151390
672.475	0.0148500
672.553	0.0147823
672.631	0.0148362
672.709	0.0146463
672.788	0.0147372
672.866	0.0146840
672.944	0.0146112
673.022	0.0145810
673.100	0.0147296
673.178	0.0147554
673.256	0.0146356
673.334	0.0147180
673.413	0.0146648
673.491	0.0147791
673.569	0.0148593
673.647	0.0149957
673.725	0.0149590
673.803	0.0149950
673.881	0.0151544
673.959	0.0152809
674.038	0.0152613
674.116	0.0154474
674.194	0.0157016
674.272	0.0156988
674.350	0.0157789
674.428	0.0159649
674.506	0.0160273
674.584	0.0160413
674.663	0.0163092
674.741	0.0165591
674.819	0.0166271
674.897	0.0166971
674.975	0.0167667
675.053	0.0168944
675.131	0.0170844
675.209	0.0171429
675.288	0.0171655
675.366	0.0171917
675.444	0.0172427
675.522	0.0174204
675.600	0.0173503
675.678	0.0172552
675.756	0.0172181
675.834	0.0172057
675.913	0.0170450
675.991	0.0171104
676.069	0.0170473
676.147	0.0168066
676.225	0.0166641
676.303	0.0164274
676.381	0.0163225
676.459	0.0160716
676.538	0.0158969
676.616	0.0158060
676.694	0.0153973
676.772	0.0152696
676.850	0.0150024
676.928	0.0146902
677.006	0.0145221
677.084	0.0144309
677.163	0.0141615
677.241	0.0138673
677.319	0.0137795
677.397	0.0135860
677.475	0.0136115
677.553	0.0136212
677.631	0.0134940
677.709	0.0134108
677.788	0.0132979
677.866	0.0134512
677.944	0.0134731
678.022	0.0135492
678.100	0.0136648
678.178	0.0137264
678.256	0.0138477
678.334	0.0141256
678.413	0.0143604
678.491	0.0144823
678.569	0.0145815
678.647	0.0149849
678.725	0.0152869
678.803	0.0154601
678.881	0.0156537
678.959	0.0159471
679.038	0.0161614
679.116	0.0162568
679.194	0.0165029
679.272	0.0167993
679.350	0.0170463
679.428	0.0171532
679.506	0.0173071
679.584	0.0174164
679.663	0.0173750
679.741	0.0174789
679.819	0.0175150
679.897	0.0172764
679.975	0.0172664
680.053	0.0173389
680.131	0.0171783
680.209	0.0169732
680.288	0.0168031
680.366	0.0166225
680.444	0.0164149
680.522	0.0163337
680.600	0.0161404
680.678	0.0160031
680.756	0.0157664
680.834	0.0156144
680.913	0.0155768
680.991	0.0154043
681.069	0.0153238
681.147	0.0152966
681.225	0.0150992
681.303	0.0149839
681.381	0.0149402
681.459	0.0149050
681.538	0.0148078
681.616	0.0146711
681.694	0.0145100
681.772	0.0144379
681.850	0.0146156
681.928	0.0145891
682.006	0.0146272
682.084	0.0146311
682.163	0.0145777
682.241	0.0145889
682.319	0.0146856
682.397	0.0147042
682.475	0.0146862
682.553	0.0148022
682.631	0.0149445
682.709	0.0148776
682.788	0.0151047
682.866	0.0151847
682.944	0.0153240
683.022	0.0152294
683.100	0.0154169
683.178	0.0155669
683.256	0.0157960
683.334	0.0156991
683.413	0.0157466
683.491	0.0157504
683.569	0.0158432
683.647	0.0159547
683.725	0.0159112
683.803	0.0159407
683.881	0.0159195
683.959	0.0160395
684.038	0.0160172
684.116	0.0159747
684.194	0.0160462
684.272	0.0159921
684.350	0.0158052
684.428	0.0159742
684.506	0.0160223
684.584	0.0159104
684.663	0.0160332
684.741	0.0159056
684.819	0.0159200
684.897	0.0159777
684.975	0.0159208
685.053	0.0158189
685.131	0.0156468
685.209	0.0158170
685.288	0.0154919
685.366	0.0154745
685.444	0.0155138
685.522	0.0153922
685.600	0.0152287
685.678	0.0154975
685.756	0.0152362
685.834	0.0151280
685.913	0.0150861
685.991	0.0152095
686.069	0.0152414
686.147	0.0152433
686.225	0.0150307
686.303	0.0149836
686.381	0.0150457
686.459	0.0150410
686.538	0.0151917
686.616	0.0153791
686.694	0.0150919
686.772	0.0152539
686.850	0.0151882
686.928	0.0153130
687.006	0.0154519
687.084	0.0152581
687.163	0.0154498
687.241	0.0155270
687.319	0.0157587
687.397	0.0158666
687.475	0.0159414
687.553	0.0160310
687.631	0.0161021
687.709	0.0162348
687.788	0.0163403
687.866	0.0164056
687.944	0.0162972
688.022	0.0163768
688.100	0.0165115
688.178	0.0164385
688.256	0.0164333
688.334	0.0164252
688.413	0.0163076
688.491	0.0162278
688.569	0.0161381
688.647	0.0162727
688.725	0.0160972
688.803	0.0160989
688.881	0.0158797
688.959	0.0160282
689.038	0.0160578
689.116	0.0160053
689.194	0.0159338
689.272	0.0158176
689.350	0.0156687
689.428	0.0156924
689.506	0.0156583
689.584	0.0153991
689.663	0.0153440
689.741	0.0153607
689.819	0.0153069
689.897	0.0149799
689.975	0.0150388
690.053	0.0148459
690.131	0.0146573
690.209	0.0148200
690.288	0.0147633
690.366	0.0147353
690.444	0.0146957
690.522	0.0146630
690.600	0.0146754
690.678	0.0148691
690.756	0.0149612
690.834	0.0150612
690.913	0.0151308
690.991	0.0153522
691.069	0.0152824
691.147	0.0154910
691.225	0.0155697
691.303	0.0155715
691.381	0.0156870
691.459	0.0157539
691.538	0.0160189
691.616	0.0160981
691.694	0.0160487
691.772	0.0161069
691.850	0.0160987
691.928	0.0161506
692.006	0.0161522
692.084	0.0159664
692.163	0.0158380
692.241	0.0158662
692.319	0.0157792
692.397	0.0155276
692.475	0.0154036
692.553	0.0151801
692.631	0.0152207
692.709	0.0150819
692.788	0.0148830
692.866	0.0148137
692.944	0.0145667
693.022	0.0146257
693.100	0.0145980
693.178	0.0145058
693.256	0.0144959
693.334	0.0144877
693.413	0.0145319
693.491	0.0147704
693.569	0.0147315
693.647	0.0148423
693.725	0.0149911
693.803	0.0152573
693.881	0.0152689
693.959	0.0155228
694.038	0.0156635
694.116	0.0158164
694.194	0.0160222
694.272	0.0161743
694.350	0.0163619
694.428	0.0165379
694.506	0.0164423
694.584	0.0168545
694.663	0.0168450
694.741	0.0169492
694.819	0.0170409
694.897	0.0170421
694.975	0.0171973
695.053	0.0172461
695.131	0.0171233
695.209	0.0171384
695.288	0.0172100
695.366	0.0169604
695.444	0.0171674
695.522	0.0172365
695.600	0.0171048
695.678	0.0169095
695.756	0.0168271
695.834	0.0166679
695.913	0.0166478
695.991	0.0163580
696.069	0.0163416
696.147	0.0160293
696.225	0.0158793
696.303	0.0156434
696.381	0.0154787
696.459	0.0152764
696.538	0.0149073
696.616	0.0147132
696.694	0.0144962
696.772	0.0143781
696.850	0.0140260
696.928	0.0138166
697.006	0.0137439
697.084	0.0136627
697.163	0.0135531
697.241	0.0134621
697.319	0.0132362
697.397	0.0130975
697.475	0.0130370
697.553	0.0132121
697.631	0.0132568
697.709	0.0131967
697.788	0.0134179
697.866	0.0135590
697.944	0.0135758
698.022	0.0138532
698.100	0.0140042
698.178	0.0142084
698.256	0.0145239
698.334	0.0144931
698.413	0.0147396
698.491	0.0148879
698.569	0.0151120
698.647	0.0152955
698.725	0.0154149
698.803	0.0155201
698.881	0.0157533
698.959	0.0159808
699.038	0.0161980
699.116	0.0163167
699.194	0.0165288
699.272	0.0166143
699.350	0.0168898
699.428	0.0171855
699.506	0.0172697
699.584	0.0173003
699.663	0.0175692
699.741	0.0178297
699.819	0.0179244
699.897	0.0179800
699.975	0.0180467
700.053	0.0181257
700.131	0.0181637
700.209	0.0182756
700.288	0.0182076
700.366	0.0182676
700.444	0.0180630
700.522	0.0180387
700.600	0.0178983
700.678	0.0179021
700.756	0.0177587
700.834	0.0175027
700.913	0.0171873
700.991	0.0169236
701.069	0.0167220
701.147	0.0163437
701.225	0.0160896
701.303	0.0158051
701.381	0.0154810
701.459	0.0153368
701.538	0.0150362
701.616	0.0146070
701.694	0.0143727
701.772	0.0139555
701.850	0.0138239
701.928	0.0133312
702.006	0.0132043
702.084	0.0130779
702.163	0.0128879
702.241	0.0128438
702.319	0.0128802
702.397	0.0127094
702.475	0.0126978
702.553	0.0128082
702.631	0.0129580
702.709	0.0131458
702.788	0.0131999
702.866	0.0135504
702.944	0.0139682
703.022	0.0141242
703.100	0.0144595
703.178	0.0148042
703.256	0.0149316
703.334	0.0154473
703.413	0.0158363
703.491	0.0158855
703.569	0.0161361
703.647	0.0164543
703.725	0.0167000
703.803	0.0169032
703.881	0.0168868
703.959	0.0170328
704.038	0.0170265
704.116	0.0169975
704.194	0.0170426
704.272	0.0170032
704.350	0.0170973
704.428	0.0168629
704.506	0.0168960
704.584	0.0167455
704.663	0.0164841
704.741	0.0165600
704.819	0.0163214
704.897	0.0161623
704.975	0.0161018
705.053	0.0158391
705.131	0.0159396
705.209	0.0159981
705.288	0.0156789
705.366	0.0156090
705.444	0.0158444
705.522	0.0158159
705.600	0.0157626
705.678	0.0157906
705.756	0.0158635
705.834	0.0159046
705.913	0.0159164
705.991	0.0159748
706.069	0.0159859
706.147	0.0160455
706.225	0.0159909
706.303	0.0159357
706.381	0.0158463
706.459	0.0158508
706.538	0.0159663
706.616	0.0159144
706.694	0.0157946
706.772	0.0158423
706.850	0.0158295
706.928	0.0157957
707.006	0.0157086
707.084	0.0158134
707.163	0.0157553
707.241	0.0155904
707.319	0.0155691
707.397	0.0156741
707.475	0.0156131
707.553	0.0154282
707.631	0.0155135
707.709	0.0153477
707.788	0.0152226
707.866	0.0151418
707.944	0.0151381
708.022	0.0153531
708.100	0.0151247
708.178	0.0152770
708.256	0.0152807
708.334	0.0153918
708.413	0.0152274
708.491	0.0154506
708.569	0.0154807
708.647	0.0155650
708.725	0.0155528
708.803	0.0156214
708.881	0.0157152
708.959	0.0156849
709.038	0.0158179
709.116	0.0158812
709.194	0.0157451
709.272	0.0157891
709.350	0.0159312
709.428	0.0157239
709.506	0.0157742
709.584	0.0155460
709.663	0.0155530
709.741	0.0156056
709.819	0.0155737
709.897	0.0155121
709.975	0.0153777
710.053	0.0154359
710.131	0.0153789
710.209	0.0152907
710.288	0.0152602
710.366	0.0151405
710.444	0.0151373
710.522	0.0152654
710.600	0.0152401
710.678	0.0153082
710.756	0.0153564
710.834	0.0153578
710.913	0.0154137
710.991	0.0155305
711.069	0.0156638
711.147	0.0157751
711.225	0.0156793
711.303	0.0158669
711.381	0.0159441
711.459	0.0159971
711.538	0.0158951
711.616	0.0158487
711.694	0.0159702
711.772	0.0158882
711.850	0.0158829
711.928	0.0158159
712.006	0.0156934
712.084	0.0157372
712.163	0.0157063
712.241	0.0154810
712.319	0.0154085
712.397	0.0153774
712.475	0.0154534
712.553	0.0154504
712.631	0.0152303
712.709	0.0150623
712.788	0.0152374
712.866	0.0152991
712.944	0.0152221
713.022	0.0152711
713.100	0.0152184
713.178	0.0152942
713.256	0.0154108
713.334	0.0155304
713.413	0.0155512
713.491	0.0155418
713.569	0.0156145
713.647	0.0156695
713.725	0.0157853
713.803	0.0158662
713.881	0.0159381
713.959	0.0161899
714.038	0.0161719
714.116	0.0162367
714.194	0.0162551
714.272	0.0162042
714.350	0.0163841
714.428	0.0162782
714.506	0.0162628
714.584	0.0163365
714.663	0.0161313
714.741	0.0162701
714.819	0.0160213
714.897	0.0159958
714.975	0.0159989
715.053	0.0158585
715.131	0.0156807
715.209	0.0155226
715.288	0.0154702
715.366	0.0154591
715.444	0.0153583
715.522	0.0152763
715.600	0.0151682
715.678	0.0150867
715.756	0.0150150
715.834	0.0150774
715.913	0.0151270
715.991	0.0151483
716.069	0.0152830
716.147	0.0151576
716.225	0.0153407
716.303	0.0150125
716.381	0.0152103
716.459	0.0152155
716.538	0.0153643
716.616	0.0154182
716.694	0.0155090
716.772	0.0155457
716.850	0.0154979
716.928	0.0154499
717.006	0.0155202
717.084	0.0155978
717.163	0.0154713
717.241	0.0155226
717.319	0.0153603
717.397	0.0155856
717.475	0.0155045
717.553	0.0155243
717.631	0.0157482
717.709	0.0156048
717.788	0.0156745
717.866	0.0154268
717.944	0.0154358
718.022	0.0156225
718.100	0.0154897
718.178	0.0155238
718.256	0.0155752
718.334	0.0156379
718.413	0.0156847
718.491	0.0157152
718.569	0.0156059
718.647	0.0157699
718.725	0.0158582
718.803	0.0158398
718.881	0.0158074
718.959	0.0160628
719.038	0.0159675
719.116	0.0160609
719.194	0.0160898
719.272	0.0160639
719.350	0.0159789
719.428	0.0161836
719.506	0.0162186
719.584	0.0161909
719.663	0.0160778
719.741	0.0159113
719.819	0.0159146
719.897	0.0158690
719.975	0.0157476
720.053	0.0157969
720.131	0.0157721
720.209	0.0156241
720.288	0.0154564
720.366	0.0153446
720.444	0.0153466
720.522	0.0152296
720.600	0.0151997
720.678	0.0152235
720.756	0.0149941
720.834	0.0149667
720.913	0.0151228
720.991	0.0149709
721.069	0.0150064
721.147	0.0148628
721.225	0.0148904
721.303	0.0150371
721.381	0.0150301
721.459	0.0150147
721.538	0.0151981
721.616	0.0151850
721.694	0.0151803
721.772	0.0153116
721.850	0.0152810
721.928	0.0153841
722.006	0.0153835
722.084	0.0155045
722.163	0.0156385
722.241	0.0157195
722.319	0.0156843
722.397	0.0158095
722.475	0.0159489
722.553	0.0160045
722.631	0.0162372
722.709	0.0162547
722.788	0.0163522
722.866	0.0163313
722.944	0.0162975
723.022	0.0164244
723.100	0.0164455
723.178	0.0165015
723.256	0.0164246
723.334	0.0165168
723.413	0.0166128
723.491	0.0164439
723.569	0.0163283
723.647	0.0162437
723.725	0.0161749
723.803	0.0162408
723.881	0.0160188
723.959	0.0160968
724.038	0.0162481
724.116	0.0159962
724.194	0.0158970
724.272	0.0157740
724.350	0.0158041
724.428	0.0157993
724.506	0.0158659
724.584	0.0156209
724.663	0.0156910
724.741	0.0156312
724.819	0.0155716
724.897	0.0154667
724.975	0.0152567
725.053	0.0151705
725.131	0.0151294
725.209	0.0152616
725.288	0.0152872
725.366	0.0149692
725.444	0.0150381
725.522	0.0150053
725.600	0.0151051
725.678	0.0149492
725.756	0.0150643
725.834	0.0149773
725.913	0.0149277
725.991	0.0149467
726.069	0.0150507
726.147	0.0150018
726.225	0.0149093
726.303	0.0150498
726.381	0.0149963
726.459	0.0151091
726.538	0.0149625
726.616	0.0151492
726.694	0.0150864
726.772	0.0151245
726.850	0.0152156
726.928	0.0152621
727.006	0.0151508
727.084	0.0152426
727.163	0.0153291
727.241	0.0154443
727.319	0.0155072
727.397	0.0156894
727.475	0.0155381
727.553	0.0157977
727.631	0.0159497
727.709	0.0159769
727.788	0.0161479
727.866	0.0162337
727.944	0.0162263
728.022	0.0163847
728.100	0.0165515
728.178	0.0166399
728.256	0.0165781
728.334	0.0167385
728.413	0.0167344
728.491	0.0167470
728.569	0.0166159
728.647	0.0168286
728.725	0.0166860
728.803	0.0165722
728.881	0.0164410
728.959	0.0165768
729.038	0.0165102
729.116	0.0166022
729.194	0.0163707
729.272	0.0163953
729.350	0.0163270
729.428	0.0161975
729.506	0.0162288
729.584	0.0161164
729.663	0.0160310
729.741	0.0159445
729.819	0.0157655
729.897	0.0157278
729.975	0.0156184
730.053	0.0153862
730.131	0.0154465
730.209	0.0153879
730.288	0.0151991
730.366	0.0153217
730.444	0.0151328
730.522	0.0150726
730.600	0.0150340
730.678	0.0150587
730.756	0.0150274
730.834	0.0149957
730.913	0.0149906
730.991	0.0149521
731.069	0.0148504
731.147	0.0149384
731.225	0.0150000
731.303	0.0151254
731.381	0.0151601
731.459	0.0151309
731.538	0.0151797
731.616	0.0151513
731.694	0.0151450
731.772	0.0153237
731.850	0.0153519
731.928	0.0152943
732.006	0.0154010
732.084	0.0154121
732.163	0.0155495
732.241	0.0155127
732.319	0.0154793
732.397	0.0155398
732.475	0.0156889
732.553	0.0157430
732.631	0.0157590
732.709	0.0157236
732.788	0.0159044
732.866	0.0159132
732.944	0.0159426
733.022	0.0159393
733.100	0.0159411
733.178	0.0159462
733.256	0.0160008
733.334	0.0160468
733.413	0.0159020
733.491	0.0158109
733.569	0.0158534
733.647	0.0156828
733.725	0.0157671
733.803	0.0157565
733.881	0.0157412
733.959	0.0157648
734.038	0.0156352
734.116	0.0154768
734.194	0.0155898
734.272	0.0154195
734.350	0.0155273
734.428	0.0156038
734.506	0.0155526
734.584	0.0155500
734.663	0.0154624
734.741	0.0154163
734.819	0.0154422
734.897	0.0155924
734.975	0.0155836
735.053	0.0154417
735.131	0.0154568
735.209	0.0156425
735.288	0.0155783
735.366	0.0157275
735.444	0.0158031
735.522	0.0157214
735.600	0.0157718
735.678	0.0156785
735.756	0.0158912
735.834	0.0158455
735.913	0.0158112
735.991	0.0157965
736.069	0.0158338
736.147	0.0157193
736.225	0.0156970
736.303	0.0156322
736.381	0.0154011
736.459	0.0156438
736.538	0.0156321
736.616	0.0154046
736.694	0.0154465
736.772	0.0152796
736.850	0.0152307
736.928	0.0153294
737.006	0.0153043
737.084	0.0152946
737.163	0.0154100
737.241	0.0152924
737.319	0.0152911
737.397	0.0154427
737.475	0.0154778
737.553	0.0157719
737.631	0.0157699
737.709	0.0157064
737.788	0.0159542
737.866	0.0161169
737.944	0.0160630
738.022	0.0161880
738.100	0.0162212
738.178	0.0164082
738.256	0.0164875
738.334	0.0164729
738.413	0.0165609
738.491	0.0166448
738.569	0.0165237
738.647	0.0165548
738.725	0.0165414
738.803	0.0164652
738.881	0.0165403
738.959	0.0164054
739.038	0.0163519
739.116	0.0161255
739.194	0.0161361
739.272	0.0159872
739.350	0.0157494
739.428	0.0157550
739.506	0.0154540
739.584	0.0153267
739.663	0.0152690
739.741	0.0151870
739.819	0.0149896
739.897	0.0149086
739.975	0.0148093
740.053	0.0147950
740.131	0.0146037
740.209	0.0144167
740.288	0.0143510
740.366	0.0143978
740.444	0.0144133
740.522	0.0143216
740.600	0.0143079
740.678	0.0142262
740.756	0.0141988
740.834	0.0142302
740.913	0.0144210
740.991	0.0145127
741.069	0.0145187
741.147	0.0144916
741.225	0.0146815
741.303	0.0148575
741.381	0.0148625
741.459	0.0150054
741.538	0.0152361
741.616	0.0153065
741.694	0.0153612
741.772	0.0154671
741.850	0.0156948
741.928	0.0160196
742.006	0.0160438
742.084	0.0161444
742.163	0.0161736
742.241	0.0163937
742.319	0.0164299
742.397	0.0168497
742.475	0.0167498
742.553	0.0166982
742.631	0.0167515
742.709	0.0169098
742.788	0.0169126
742.866	0.0168390
742.944	0.0167417
743.022	0.0166509
743.100	0.0166674
743.178	0.0165312
743.256	0.0165154
743.334	0.0164088
743.413	0.0163487
743.491	0.0162851
743.569	0.0160644
743.647	0.0159285
743.725	0.0159489
743.803	0.0158093
743.881	0.0157561
743.959	0.0156892
744.038	0.0157162
744.116	0.0154179
744.194	0.0154648
744.272	0.0155497
744.350	0.0154457
744.428	0.0152961
744.506	0.0153325
744.584	0.0152480
744.663	0.0152531
744.741	0.0152657
744.819	0.0151833
744.897	0.0151888
744.975	0.0151475
745.053	0.0150958
745.131	0.0151688
745.209	0.0149805
745.288	0.0149959
745.366	0.0149520
745.444	0.0149393
745.522	0.0148536
745.600	0.0149026
745.678	0.0149282
745.756	0.0149361
745.834	0.0149000
745.913	0.0149969
745.991	0.0150051
746.069	0.0151364
746.147	0.0152201
746.225	0.0154047
746.303	0.0153272
746.381	0.0154577
746.459	0.0156541
746.538	0.0158521
746.616	0.0157721
746.694	0.0159517
746.772	0.0161796
746.850	0.0161913
746.928	0.0162806
747.006	0.0162875
747.084	0.0163371
747.163	0.0162138
747.241	0.0163699
747.319	0.0163074
747.397	0.0160863
747.475	0.0162086
747.553	0.0163118
747.631	0.0160877
747.709	0.0159995
747.788	0.0160191
747.866	0.0159982
747.944	0.0158597
748.022	0.0158161
748.100	0.0157878
748.178	0.0157851
748.256	0.0156850
748.334	0.0156024
748.413	0.0156107
748.491	0.0156275
748.569	0.0156770
748.647	0.0157287
748.725	0.0157433
748.803	0.0154865
748.881	0.0157989
748.959	0.0157980
749.038	0.0157848
749.116	0.0156895
749.194	0.0157571
749.272	0.0158051
749.350	0.0157040
749.428	0.0156654
749.506	0.0155208
749.584	0.0155193
749.663	0.0154596
749.741	0.0153771
749.819	0.0153138
749.897	0.0151305
749.975	0.0149535
750.053	0.0149991
750.131	0.0151041
750.209	0.0149014
750.288	0.0149280
750.366	0.0149738
750.444	0.0148232
750.522	0.0149968
750.600	0.0148135
750.678	0.0149206
750.756	0.0149932
750.834	0.0149877
750.913	0.0152263
750.991	0.0151844
751.069	0.0153262
751.147	0.0153038
751.225	0.0153576
751.303	0.0153982
751.381	0.0154665
751.459	0.0156517
751.538	0.0156656
751.616	0.0158938
751.694	0.0161509
751.772	0.0161305
751.850	0.0162353
751.928	0.0162029
752.006	0.0164227
752.084	0.0164758
752.163	0.0165068
752.241	0.0166035
752.319	0.0166517
752.397	0.0164790
752.475	0.0163368
752.553	0.0163333
752.631	0.0162674
752.709	0.0162853
752.788	0.0161640
752.866	0.0158932
752.944	0.0157999
753.022	0.0157146
753.100	0.0154994
753.178	0.0154819
753.256	0.0151918
753.334	0.0150723
753.413	0.0150497
753.491	0.0148989
753.569	0.0147023
753.647	0.0147234
753.725	0.0147424
753.803	0.0145409
753.881	0.0145564
753.959	0.0146789
754.038	0.0145596
754.116	0.0146867
754.194	0.0148134
754.272	0.0149862
754.350	0.0150459
754.428	0.0151035
754.506	0.0152113
754.584	0.0153865
754.663	0.0154739
754.741	0.0155894
754.819	0.0157600
754.897	0.0157273
754.975	0.0156766
755.053	0.0158871
755.131	0.0159982
755.209	0.0160573
755.288	0.0160415
755.366	0.0160913
755.444	0.0161055
755.522	0.0160945
755.600	0.0161465
755.678	0.0160088
755.756	0.0160333
755.834	0.0159386
755.913	0.0159361
755.991	0.0158044
756.069	0.0156454
756.147	0.0158086
756.225	0.0157278
756.303	0.0157125
756.381	0.0156820
756.459	0.0157504
756.538	0.0157882
756.616	0.0155630
756.694	0.0157493
756.772	0.0157923
756.850	0.0159000
756.928	0.0158354
757.006	0.0157957
757.084	0.0160351
757.163	0.0160342
757.241	0.0159627
757.319	0.0158755
757.397	0.0160398
757.475	0.0158534
757.553	0.0156499
757.631	0.0156989
757.709	0.0156065
757.788	0.0155766
757.866	0.0153930
757.944	0.0153620
758.022	0.0151618
758.100	0.0150661
758.178	0.0150351
758.256	0.0149238
758.334	0.0149149
758.413	0.0149792
758.491	0.0148252
758.569	0.0149424
758.647	0.0148762
758.725	0.0147647
758.803	0.0150525
758.881	0.0150667
758.959	0.0149729
759.038	0.0151082
759.116	0.0153194
759.194	0.0154691
759.272	0.0155928
759.350	0.0156806
759.428	0.0159360
759.506	0.0158261
759.584	0.0158962
759.663	0.0160302
759.741	0.0162302
759.819	0.0161354
759.897	0.0162063
759.975	0.0163592
760.053	0.0163202
760.131	0.0162744
760.209	0.0163204
760.288	0.0164156
760.366	0.0162962
760.444	0.0162228
760.522	0.0162691
760.600	0.0161674
760.678	0.0161228
760.756	0.0160567
760.834	0.0160045
760.913	0.0160452
760.991	0.0160207
761.069	0.0159030
761.147	0.0158511
761.225	0.0157540
761.303	0.0156696
761.381	0.0156106
761.459	0.0154845
761.538	0.0155690
761.616	0.0154163
761.694	0.0153864
761.772	0.0153485
761.850	0.0152485
761.928	0.0150473
762.006	0.0151810
762.084	0.0151829
762.163	0.0150376
762.241	0.0148625
762.319	0.0148756
762.397	0.0148878
762.475	0.0149551
762.553	0.0149059
762.631	0.0149117
762.709	0.0148748
762.788	0.0150148
762.866	0.0150410
762.944	0.0152255
763.022	0.0152482
763.100	0.0152579
763.178	0.0153230
763.256	0.0154607
763.334	0.0155375
763.413	0.0157253
763.491	0.0157114
763.569	0.0157931
763.647	0.0158257
763.725	0.0158817
763.803	0.0160303
763.881	0.0158862
763.959	0.0160964
764.038	0.0160326
764.116	0.0161822
764.194	0.0161124
764.272	0.0159879
764.350	0.0160169
764.428	0.0159042
764.506	0.0157858
764.584	0.0157574
764.663	0.0156442
764.741	0.0156401
764.819	0.0156448
764.897	0.0154995
764.975	0.0153963
765.053	0.0152726
765.131	0.0151633
765.209	0.0152994
765.288	0.0152314
765.366	0.0152181
765.444	0.0151717
765.522	0.0150658
765.600	0.0152381
765.678	0.0151556
765.756	0.0149899
765.834	0.0152002
765.913	0.0152721
765.991	0.0152013
766.069	0.0153351
766.147	0.0152548
766.225	0.0154559
766.303	0.0155598
766.381	0.0157530
766.459	0.0157943
766.538	0.0157320
766.616	0.0159604
766.694	0.0160133
766.772	0.0160547
766.850	0.0162138
766.928	0.0162972
767.006	0.0161849
767.084	0.0163107
767.163	0.0163233
767.241	0.0162548
767.319	0.0162998
767.397	0.0162474
767.475	0.0161009
767.553	0.0160700
767.631	0.0159023
767.709	0.0158437
767.788	0.0158450
767.866	0.0157048
767.944	0.0155630
768.022	0.0153784
768.100	0.0153183
768.178	0.0151713
768.256	0.0151105
768.334	0.0151028
768.413	0.0149848
768.491	0.0149981
768.569	0.0149469
768.647	0.0150372
768.725	0.0150624
768.803	0.0152896
768.881	0.0151188
768.959	0.0152560
769.038	0.0153304
769.116	0.0154480
769.194	0.0154510
769.272	0.0156385
769.350	0.0157467
769.428	0.0157907
769.506	0.0159983
769.584	0.0160809
769.663	0.0160528
769.741	0.0162502
769.819	0.0160998
769.897	0.0162831
769.975	0.0164043
770.053	0.0163928
770.131	0.0161502
770.209	0.0162341
770.288	0.0162341
770.366	0.0161267
770.444	0.0160004
770.522	0.0159523
770.600	0.0159389
770.678	0.0158507
770.756	0.0160143
770.834	0.0158257
770.913	0.0156793
770.991	0.0155862
771.069	0.0155711
771.147	0.0154905
771.225	0.0153939
771.303	0.0154662
771.381	0.0153108
771.459	0.0152940
771.538	0.0152068
771.616	0.0152851
771.694	0.0151858
771.772	0.0151308
771.850	0.0150533
771.928	0.0151212
772.006	0.0150358
772.084	0.0152663
772.163	0.0151492
772.241	0.0151239
772.319	0.0151892
772.397	0.0152248
772.475	0.0151819
772.553	0.0152979
772.631	0.0153603
772.709	0.0154359
772.788	0.0153580
772.866	0.0156047
772.944	0.0156473
773.022	0.0154846
773.100	0.0156375
773.178	0.0157240
773.256	0.0158599
773.334	0.0158321
773.413	0.0158428
773.491	0.0158928
773.569	0.0158260
773.647	0.0158810
773.725	0.0158549
773.803	0.0158630
773.881	0.0158870
773.959	0.0159241
774.038	0.0159979
774.116	0.0157928
774.194	0.0157510
774.272	0.0157144
774.350	0.0157064
774.428	0.0155960
774.506	0.0156116
774.584	0.0157606
774.663	0.0155387
774.741	0.0155145
774.819	0.0155279
774.897	0.0154066
774.975	0.0154266
775.053	0.0153700
775.131	0.0154488
775.209	0.0155017
775.288	0.0155231
775.366	0.0153717
775.444	0.0153625
775.522	0.0154563
775.600	0.0155295
775.678	0.0155806
775.756	0.0156300
775.834	0.0156532
775.913	0.0157092
775.991	0.0157228
776.069	0.0157780
776.147	0.0157261
776.225	0.0156156
776.303	0.0156263
776.381	0.0155944
776.459	0.0156564
776.538	0.0157111
776.616	0.0156706
776.694	0.0155495
776.772	0.0156799
776.850	0.0155025
776.928	0.0155226
777.006	0.0155499
777.084	0.0154688
777.163	0.0155779
777.241	0.0157254
777.319	0.0157055
777.397	0.0155293
777.475	0.0155568
777.553	0.0157640
777.631	0.0156955
777.709	0.0155426
777.788	0.0156502
777.866	0.0156070
777.944	0.0155418
778.022	0.0155490
778.100	0.0156721
778.178	0.0156020
778.256	0.0154778
778.334	0.0155411
778.413	0.0155187
778.491	0.0154651
778.569	0.0154925
778.647	0.0155026
778.725	0.0154442
778.803	0.0152630
778.881	0.0155122
778.959	0.0155455
779.038	0.0153132
779.116	0.0155246
779.194	0.0155018
779.272	0.0155452
779.350	0.0156373
779.428	0.0156551
779.506	0.0156480
779.584	0.0156033
779.663	0.0156222
779.741	0.0156425
779.819	0.0156592
779.897	0.0156227
779.975	0.0156844
780.053	0.0155208
780.131	0.0154441
780.209	0.0154192
780.288	0.0153551
780.366	0.0153778
780.444	0.0153493
780.522	0.0153762
780.600	0.0153490
780.678	0.0154182
780.756	0.0150494
780.834	0.0151293
780.913	0.0151105
780.991	0.0151138
781.069	0.0152137
781.147	0.0151691
781.225	0.0151968
781.303	0.0152906
781.381	0.0152560
781.459	0.0152076
781.538	0.0152015
781.616	0.0153247
781.694	0.0154081
781.772	0.0155199
781.850	0.0154900
781.928	0.0155721
782.006	0.0156190
782.084	0.0156422
782.163	0.0157717
782.241	0.0158751
782.319	0.0158385
782.397	0.0159553
782.475	0.0158698
782.553	0.0160461
782.631	0.0159354
782.709	0.0161069
782.788	0.0160795
782.866	0.0159781
782.944	0.0161455
783.022	0.0161834
783.100	0.0161474
783.178	0.0162930
783.256	0.0160820
783.334	0.0160648
783.413	0.0160688
783.491	0.0160625
783.569	0.0159818
783.647	0.0159558
783.725	0.0158823
783.803	0.0159724
783.881	0.0159352
783.959	0.0157588
784.038	0.0157556
784.116	0.0157234
784.194	0.0157639
784.272	0.0157393
784.350	0.0157278
784.428	0.0157479
784.506	0.0156278
784.584	0.0157127
784.663	0.0157591
784.741	0.0156803
784.819	0.0158353
784.897	0.0157851
784.975	0.0157831
785.053	0.0157555
785.131	0.0156521
785.209	0.0157671
785.288	0.0156537
785.366	0.0157378
785.444	0.0156126
785.522	0.0156412
785.600	0.0156612
785.678	0.0156555
785.756	0.0154954
785.834	0.0155807
785.913	0.0154989
785.991	0.0154348
786.069	0.0152343
786.147	0.0153465
786.225	0.0153674
786.303	0.0152979
786.381	0.0152283
786.459	0.0151674
786.538	0.0149787
786.616	0.0151907
786.694	0.0152840
786.772	0.0151512
786.850	0.0152562
786.928	0.0150378
787.006	0.0151379
787.084	0.0152601
787.163	0.0152031
787.241	0.0151206
787.319	0.0153053
787.397	0.0153522
787.475	0.0154256
787.553	0.0155377
787.631	0.0155064
787.709	0.0155984
787.788	0.0157273
787.866	0.0157348
787.944	0.0158291
788.022	0.0159452
788.100	0.0160184
788.178	0.0160553
788.256	0.0160966
788.334	0.0161414
788.413	0.0162706
788.491	0.0162595
788.569	0.0161954
788.647	0.0162343
788.725	0.0160847
788.803	0.0161399
788.881	0.0160849
788.959	0.0160504
789.038	0.0159793
789.116	0.0158907
789.194	0.0159189
789.272	0.0157629
789.350	0.0157254
789.428	0.0156279
789.506	0.0155614
789.584	0.0156480
789.663	0.0154605
789.741	0.0154300
789.819	0.0153307
789.897	0.0153101
789.975	0.0152227
790.053	0.0153235
790.131	0.0151743
790.209	0.0152051
790.288	0.0151920
790.366	0.0151997
790.444	0.0153359
790.522	0.0153485
790.600	0.0153250
790.678	0.0153387
790.756	0.0153535
790.834	0.0154456
790.913	0.0154051
790.991	0.0155822
791.069	0.0155610
791.147	0.0157047
791.225	0.0157357
791.303	0.0158255
791.381	0.0157211
791.459	0.0158805
791.538	0.0159490
791.616	0.0160141
791.694	0.0160155
791.772	0.0160297
791.850	0.0160524
791.928	0.0160206
792.006	0.0162350
792.084	0.0159707
792.163	0.0160165
792.241	0.0161258
792.319	0.0159835
792.397	0.0160337
792.475	0.0160682
792.553	0.0159161
792.631	0.0158791
792.709	0.0158308
792.788	0.0156722
792.866	0.0156499
792.944	0.0155432
793.022	0.0156017
793.100	0.0153805
793.178	0.0153793
793.256	0.0153744
793.334	0.0152137
793.413	0.0153387
793.491	0.0152677
793.569	0.0151625
793.647	0.0152937
793.725	0.0151310
793.803	0.0151864
793.881	0.0152600
793.959	0.0151495
794.038	0.0151839
794.116	0.0151393
794.194	0.0150551
794.272	0.0152120
794.350	0.0150964
794.428	0.0151266
794.506	0.0152142
794.584	0.0151531
794.663	0.0152893
794.741	0.0151892
794.819	0.0151442
794.897	0.0152402
794.975	0.0152960
795.053	0.0152460
795.131	0.0152540
795.209	0.0152606
795.288	0.0153769
795.366	0.0153506
795.444	0.0155492
795.522	0.0155004
795.600	0.0155814
795.678	0.0155814
795.756	0.0156847
795.834	0.0157434
795.913	0.0158700
795.991	0.0158231
796.069	0.0159785
796.147	0.0159203
796.225	0.0160243
796.303	0.0159317
796.381	0.0160265
796.459	0.0159863
796.538	0.0162463
796.616	0.0161600
796.694	0.0161772
796.772	0.0162215
796.850	0.0161774
796.928	0.0162550
797.006	0.0162502
797.084	0.0161803
797.163	0.0163011
797.241	0.0161623
797.319	0.0162906
797.397	0.0160362
797.475	0.0159705
797.553	0.0160187
797.631	0.0160130
797.709	0.0157576
797.788	0.0158486
797.866	0.0157099
797.944	0.0156509
798.022	0.0155612
798.100	0.0154967
798.178	0.0155669
798.256	0.0153627
798.334	0.0152547
798.413	0.0152767
798.491	0.0151920
798.569	0.0151196
798.647	0.0151366
798.725	0.0150484
798.803	0.0149355
798.881	0.0150400
798.959	0.0149416
799.038	0.0148678
799.116	0.0149480
799.194	0.0149902
799.272	0.0147461
799.350	0.0149253
799.428	0.0150487
799.506	0.0149938
799.584	0.0149102
799.663	0.0149729
799.741	0.0151051
799.819	0.0152442
799.897	0.0152396
799.975	0.0153515
800.053	0.0154234
800.131	0.0154769
800.209	0.0155443
800.288	0.0156150
800.366	0.0157539
800.444	0.0156998
800.522	0.0156828
800.600	0.0158793
800.678	0.0158023
800.756	0.0160080
800.834	0.0159799
800.913	0.0159588
800.991	0.0160062
801.069	0.0160281
801.147	0.0161017
801.225	0.0159274
801.303	0.0160324
801.381	0.0160637
801.459	0.0160604
801.538	0.0159177
801.616	0.0161002
801.694	0.0159464
801.772	0.0159759
801.850	0.0159875
801.928	0.0159735
802.006	0.0158327
802.084	0.0158450
802.163	0.0158517
802.241	0.0157094
802.319	0.0157458
802.397	0.0158265
802.475	0.0156567
802.553	0.0156223
802.631	0.0156136
802.709	0.0155137
802.788	0.0155893
802.866	0.0157356
802.944	0.0156036
803.022	0.0154488
803.100	0.0155289
803.178	0.0155679
803.256	0.0154517
803.334	0.0155812
803.413	0.0155707
803.491	0.0154872
803.569	0.0155406
803.647	0.0155215
803.725	0.0155436
803.803	0.0155157
803.881	0.0154334
803.959	0.0156093
804.038	0.0155839
804.116	0.0156585
804.194	0.0156538
804.272	0.0155811
804.350	0.0155099
804.428	0.0155697
804.506	0.0154243
804.584	0.0155746
804.663	0.0154242
804.741	0.0155107
804.819	0.0154240
804.897	0.0154023
804.975	0.0153096
805.053	0.0153388
805.131	0.0154237
805.209	0.0156413
805.288	0.0153809
805.366	0.0154285
805.444	0.0153975
805.522	0.0154896
805.600	0.0152984
805.678	0.0153456
805.756	0.0154435
805.834	0.0153629
805.913	0.0154633
805.991	0.0156002
806.069	0.0156339
806.147	0.0155747
806.225	0.0155903
806.303	0.0156283
806.381	0.0156440
806.459	0.0156804
806.538	0.0156773
806.616	0.0157994
806.694	0.0157589
806.772	0.0157028
806.850	0.0157982
806.928	0.0157605
807.006	0.0157653
807.084	0.0158614
807.163	0.0159067
807.241	0.0158001
807.319	0.0158270
807.397	0.0158461
807.475	0.0159102
807.553	0.0159204
807.631	0.0158382
807.709	0.0158746
807.788	0.0159743
807.866	0.0159732
807.944	0.0158998
808.022	0.0159338
808.100	0.0158614
808.178	0.0160166
808.256	0.0160765
808.334	0.0159312
808.413	0.0159692
808.491	0.0157886
808.569	0.0158890
808.647	0.0158080
808.725	0.0160557
808.803	0.0159890
808.881	0.0159167
808.959	0.0158471
809.038	0.0158915
809.116	0.0158675
809.194	0.0157620
809.272	0.0155714
809.350	0.0156951
809.428	0.0158290
809.506	0.0155518
809.584	0.0155659
809.663	0.0156377
809.741	0.0154225
809.819	0.0155293
809.897	0.0154555
809.975	0.0154980
810.053	0.0155878
810.131	0.0154996
810.209	0.0155227
810.288	0.0155478
810.366	0.0154787
810.444	0.0156003
810.522	0.0155431
810.600	0.0155536
810.678	0.0154948
810.756	0.0155549
810.834	0.0155125
810.913	0.0155914
810.991	0.0155364
811.069	0.0154195
811.147	0.0155893
811.225	0.0154411
811.303	0.0154062
811.381	0.0154506
811.459	0.0155051
811.538	0.0153344
811.616	0.0153133
811.694	0.0153451
811.772	0.0153761
811.850	0.0155122
811.928	0.0154568
812.006	0.0153448
812.084	0.0153477
812.163	0.0153212
812.241	0.0153732
812.319	0.0154943
812.397	0.0153565
812.475	0.0154553
812.553	0.0156120
812.631	0.0156123
812.709	0.0155505
812.788	0.0156873
812.866	0.0157346
812.944	0.0156781
813.022	0.0158743
813.100	0.0158794
813.178	0.0158132
813.256	0.0157378
813.334	0.0159385
813.413	0.0159276
813.491	0.0159108
813.569	0.0159957
813.647	0.0159148
813.725	0.0158138
813.803	0.0157940
813.881	0.0158194
813.959	0.0157708
814.038	0.0156737
814.116	0.0159061
814.194	0.0158532
814.272	0.0158935
814.350	0.0158625
814.428	0.0156641
814.506	0.0156299
814.584	0.0155923
814.663	0.0156935
814.741	0.0157021
814.819	0.0156940
814.897	0.0156142
814.975	0.0156430
815.053	0.0156575
815.131	0.0155007
815.209	0.0155475
815.288	0.0156448
815.366	0.0154900
815.444	0.0156269
815.522	0.0155038
815.600	0.0156700
815.678	0.0155116
815.756	0.0157184
815.834	0.0158257
815.913	0.0156522
815.991	0.0155247
816.069	0.0156374
816.147	0.0157083
816.225	0.0157180
816.303	0.0157220
816.381	0.0158045
816.459	0.0157122
816.538	0.0157791
816.616	0.0157938
816.694	0.0158196
816.772	0.0156329
816.850	0.0156014
816.928	0.0157793
817.006	0.0156718
817.084	0.0154246
817.163	0.0155672
817.241	0.0157452
817.319	0.0155627
817.397	0.0156647
817.475	0.0156614
817.553	0.0157883
817.631	0.0156644
817.709	0.0154319
817.788	0.0156474
817.866	0.0155873
817.944	0.0156849
818.022	0.0155368
818.100	0.0156530
818.178	0.0156118
818.256	0.0154605
818.334	0.0157156
818.413	0.0156053
818.491	0.0155923
818.569	0.0155546
818.647	0.0156171
818.725	0.0155962
818.803	0.0155346
818.881	0.0155888
818.959	0.0156483
819.038	0.0157217
819.116	0.0155692
819.194	0.0155177
819.272	0.0157157
819.350	0.0156493
819.428	0.0157364
819.506	0.0157697
819.584	0.0157313
819.663	0.0157461
819.741	0.0157044
819.819	0.0156860
819.897	0.0155866
819.975	0.0156947
820.053	0.0157260
820.131	0.0156647
820.209	0.0157066
820.288	0.0157417
820.366	0.0158156
820.444	0.0157547
820.522	0.0156725
820.600	0.0155754
820.678	0.0156416
820.756	0.0156162
820.834	0.0156436
820.913	0.0156767
820.991	0.0156113
821.069	0.0156059
821.147	0.0156760
821.225	0.0154500
821.303	0.0155318
821.381	0.0155498
821.459	0.0154138
821.538	0.0154041
821.616	0.0154746
821.694	0.0154035
821.772	0.0153869
821.850	0.0156039
821.928	0.0154679
822.006	0.0155952
822.084	0.0154939
822.163	0.0155364
822.241	0.0155536
822.319	0.0154180
822.397	0.0155138
822.475	0.0154168
822.553	0.0155490
822.631	0.0155886
822.709	0.0155628
822.788	0.0155533
822.866	0.0154919
822.944	0.0154784
823.022	0.0155006
823.100	0.0155251
823.178	0.0155701
823.256	0.0154500
823.334	0.0155058
823.413	0.0155489
823.491	0.0155328
823.569	0.0156179
823.647	0.0155631
823.725	0.0157687
823.803	0.0156583
823.881	0.0156625
823.959	0.0156312
824.038	0.0156889
824.116	0.0156223
824.194	0.0156067
824.272	0.0157607
824.350	0.0156277
824.428	0.0156691
824.506	0.0158583
824.584	0.0158163
824.663	0.0157854
824.741	0.0157008
824.819	0.0158022
824.897	0.0158152
824.975	0.0156512
825.053	0.0158412
825.131	0.0157192
825.209	0.0158395
825.288	0.0157958
825.366	0.0156806
825.444	0.0156983
825.522	0.0156596
825.600	0.0156839
825.678	0.0155925
825.756	0.0157644
825.834	0.0156400
825.913	0.0154702
825.991	0.0155618
826.069	0.0155652
826.147	0.0154002
826.225	0.0155667
826.303	0.0154728
826.381	0.0155409
826.459	0.0153403
826.538	0.0154349
826.616	0.0155654
826.694	0.0154958
826.772	0.0155225
826.850	0.0152947
826.928	0.0152873
827.006	0.0154848
827.084	0.0153739
827.163	0.0154454
827.241	0.0155037
827.319	0.0154085
827.397	0.0154730
827.475	0.0154503
827.553	0.0154645
827.631	0.0155476
827.709	0.0154672
827.788	0.0154693
827.866	0.0154996
827.944	0.0154501
828.022	0.0154301
828.100	0.0155840
828.178	0.0155947
828.256	0.0155457
828.334	0.0156255
828.413	0.0155756
828.491	0.0155242
828.569	0.0156217
828.647	0.0156887
828.725	0.0158424
828.803	0.0156631
828.881	0.0156667
828.959	0.0157529
829.038	0.0157660
829.116	0.0156277
829.194	0.0157953
829.272	0.0156139
829.350	0.0156284
829.428	0.0157800
829.506	0.0157512
829.584	0.0157092
829.663	0.0157182
829.741	0.0156686
829.819	0.0157900
829.897	0.0155992
829.975	0.0155872
830.053	0.0158137
830.131	0.0156321
830.209	0.0156507
830.288	0.0157724
830.366	0.0158432
830.444	0.0158046
830.522	0.0157315
830.600	0.0157114
830.678	0.0157896
830.756	0.0155796
830.834	0.0157040
830.913	0.0157539
830.991	0.0156687
831.069	0.0157423
831.147	0.0157007
831.225	0.0157626
831.303	0.0157086
831.381	0.0156493
831.459	0.0156641
831.538	0.0157738
831.616	0.0157303
831.694	0.0156627
831.772	0.0157046
831.850	0.0157539
831.928	0.0157638
832.006	0.0156883
832.084	0.0156231
832.163	0.0158438
832.241	0.0157488
832.319	0.0159093
832.397	0.0157356
832.475	0.0157722
832.553	0.0156331
832.631	0.0156915
832.709	0.0157845
832.788	0.0157858
832.866	0.0156634
832.944	0.0156461
833.022	0.0156268
833.100	0.0156998
833.178	0.0157502
833.256	0.0156413
833.334	0.0156372
833.413	0.0156540
833.491	0.0156380
833.569	0.0155958
833.647	0.0155642
833.725	0.0157095
833.803	0.0157468
833.881	0.0155973
833.959	0.0157019
834.038	0.0156375
834.116	0.0156050
834.194	0.0156037
834.272	0.0157620
834.350	0.0155791
834.428	0.0156417
834.506	0.0157320
834.584	0.0156232
834.663	0.0157572
834.741	0.0157539
834.819	0.0157083
834.897	0.0156602
834.975	0.0157448
835.053	0.0156520
835.131	0.0155912
835.209	0.0158936
835.288	0.0156271
835.366	0.0155592
835.444	0.0156208
835.522	0.0156833
835.600	0.0154747
835.678	0.0156364
835.756	0.0155686
835.834	0.0155216
835.913	0.0155463
835.991	0.0155156
836.069	0.0154720
836.147	0.0154618
836.225	0.0156530
836.303	0.0154178
836.381	0.0154110
836.459	0.0154570
836.538	0.0154546
836.616	0.0154359
836.694	0.0154192
836.772	0.0155242
836.850	0.0154931
836.928	0.0154635
837.006	0.0155391
837.084	0.0154667
837.163	0.0154762
837.241	0.0155157
837.319	0.0156148
837.397	0.0155312
837.475	0.0155588
837.553	0.0154807
837.631	0.0155784
837.709	0.0156771
837.788	0.0155695
837.866	0.0155595
837.944	0.0155086
838.022	0.0154984
838.100	0.0157241
838.178	0.0156734
838.256	0.0156920
838.334	0.0156767
838.413	0.0158123
838.491	0.0157557
838.569	0.0157890
838.647	0.0157739
838.725	0.0156899
838.803	0.0157303
838.881	0.0158302
838.959	0.0157402
839.038	0.0157792
839.116	0.0157472
839.194	0.0158264
839.272	0.0157231
839.350	0.0157896
839.428	0.0156870
839.506	0.0156827
839.584	0.0157439
839.663	0.0156786
839.741	0.0156887
839.819	0.0156949
839.897	0.0156744
839.975	0.0154710
840.053	0.0155212
840.131	0.0156333
840.209	0.0155515
840.288	0.0156267
840.366	0.0154629
840.444	0.0153295
840.522	0.0155979
840.600	0.0153425
840.678	0.0154558
840.756	0.0153184
840.834	0.0153295
840.913	0.0153908
840.991	0.0154270
841.069	0.0154333
841.147	0.0155907
841.225	0.0155015
841.303	0.0154008
841.381	0.0155750
841.459	0.0156789
841.538	0.0154903
841.616	0.0154913
841.694	0.0155209
841.772	0.0154854
841.850	0.0156024
841.928	0.0155001
842.006	0.0155224
842.084	0.0156848
842.163	0.0156612
842.241	0.0156308
842.319	0.0156204
842.397	0.0156004
842.475	0.0157280
842.553	0.0157173
842.631	0.0155577
842.709	0.0156131
842.788	0.0156483
842.866	0.0156897
842.944	0.0157289
843.022	0.0157398
843.100	0.0157053
843.178	0.0157295
843.256	0.0156313
843.334	0.0157782
843.413	0.0156399
843.491	0.0156635
843.569	0.0156219
843.647	0.0156984
843.725	0.0156633
843.803	0.0157336
843.881	0.0156651
843.959	0.0155804
844.038	0.0156557
844.116	0.0156372
844.194	0.0155351
844.272	0.0155382
844.350	0.0156300
844.428	0.0156262
844.506	0.0156571
844.584	0.0156327
844.663	0.0156666
844.741	0.0155935
844.819	0.0154445
844.897	0.0155611
844.975	0.0154390
845.053	0.0155051
845.131	0.0155868
845.209	0.0154491
845.288	0.0154313
845.366	0.0154822
845.444	0.0154732
845.522	0.0154175
845.600	0.0154682
845.678	0.0153202
845.756	0.0154070
845.834	0.0153449
845.913	0.0154192
845.991	0.0154652
846.069	0.0154919
846.147	0.0152416
846.225	0.0154214
846.303	0.0154559
846.381	0.0153741
846.459	0.0154894
846.538	0.0155200
846.616	0.0155070
846.694	0.0154129
846.772	0.0155959
846.850	0.0155168
846.928	0.0155802
847.006	0.0156345
847.084	0.0156072
847.163	0.0156879
847.241	0.0156756
847.319	0.0156002
847.397	0.0156208
847.475	0.0156512
847.553	0.0157511
847.631	0.0157758
847.709	0.0158125
847.788	0.0156319
847.866	0.0155962
847.944	0.0157394
848.022	0.0156900
848.100	0.0156769
848.178	0.0156863
848.256	0.0157022
848.334	0.0156997
848.413	0.0158022
848.491	0.0157018
848.569	0.0157063
848.647	0.0156608
848.725	0.0157047
848.803	0.0156594
848.881	0.0157386
848.959	0.0157305
849.038	0.0156300
849.116	0.0156313
849.194	0.0156656
849.272	0.0155413
849.350	0.0156901
849.428	0.0155856
849.506	0.0156348
849.584	0.0156136
849.663	0.0155128
849.741	0.0155477
849.819	0.0156665
849.897	0.0156331
849.975	0.0156313
850.053	0.0156423
850.131	0.0155917
850.209	0.0156625
850.288	0.0155779
850.366	0.0154845
850.444	0.0156850
850.522	0.0155885
850.600	0.0157470
850.678	0.0156646
850.756	0.0156952
850.834	0.0157382
850.913	0.0157435
850.991	0.0157573
851.069	0.0155614
851.147	0.0155764
851.225	0.0156881
851.303	0.0155700
851.381	0.0156340
851.459	0.0156782
851.538	0.0157356
851.616	0.0157307
851.694	0.0157574
851.772	0.0156609
851.850	0.0155951
851.928	0.0156219
852.006	0.0156750
852.084	0.0158025
852.163	0.0157593
852.241	0.0155958
852.319	0.0158203
852.397	0.0156616
852.475	0.0156561
852.553	0.0156284
852.631	0.0156421
852.709	0.0157416
852.788	0.0156789
852.866	0.0157362
852.944	0.0156144
853.022	0.0155970
853.100	0.0155254
853.178	0.0155909
853.256	0.0154851
853.334	0.0155493
853.413	0.0156285
853.491	0.0154428
853.569	0.0154915
853.647	0.0153812
853.725	0.0155412
853.803	0.0154465
853.881	0.0154131
853.959	0.0153179
854.038	0.0154543
854.116	0.0154132
854.194	0.0153772
854.272	0.0154859
854.350	0.0154173
854.428	0.0152848
854.506	0.0153043
854.584	0.0153709
854.663	0.0154860
854.741	0.0155246
854.819	0.0155159
854.897	0.0153092
854.975	0.0153794
855.053	0.0155016
855.131	0.0154730
855.209	0.0153405
855.288	0.0154489
855.366	0.0154771
855.444	0.0156397
855.522	0.0156406
855.600	0.0155488
855.678	0.0155882
855.756	0.0156474
855.834	0.0155952
855.913	0.0154961
855.991	0.0156701
856.069	0.0156338
856.147	0.0156926
856.225	0.0157246
856.303	0.0157694
856.381	0.0157720
856.459	0.0157620
856.538	0.0157449
856.616	0.0156583
856.694	0.0158987
856.772	0.0157607
856.850	0.0155863
856.928	0.0156017
857.006	0.0155986
857.084	0.0157540
857.163	0.0158581
857.241	0.0157937
857.319	0.0156424
857.397	0.0157195
857.475	0.0158021
857.553	0.0158092
857.631	0.0157408
857.709	0.0156509
857.788	0.0156889
857.866	0.0157248
857.944	0.0156883
858.022	0.0155607
858.100	0.0156164
858.178	0.0155764
858.256	0.0155010
858.334	0.0155206
858.413	0.0156687
858.491	0.0157565
858.569	0.0157069
858.647	0.0156826
858.725	0.0155095
858.803	0.0156174
858.881	0.0154315
858.959	0.0156458
859.038	0.0157124
859.116	0.0155479
859.194	0.0156532
859.272	0.0156346
859.350	0.0156432
859.428	0.0155796
859.506	0.0155621
859.584	0.0156049
859.663	0.0156735
859.741	0.0155938
859.819	0.0156175
859.897	0.0156278
859.975	0.0157442
860.053	0.0156474
860.131	0.0156468
860.209	0.0157347
860.288	0.0157709
860.366	0.0156027
860.444	0.0156503
860.522	0.0156107
860.600	0.0156630
860.678	0.0157572
860.756	0.0157064
860.834	0.0154920
860.913	0.0156859
860.991	0.0157722
861.069	0.0155793
861.147	0.0156988
861.225	0.0155740
861.303	0.0155827
861.381	0.0156363
861.459	0.0156894
861.538	0.0157495
861.616	0.0156799
861.694	0.0155731
861.772	0.0156738
861.850	0.0156412
861.928	0.0157629
862.006	0.0157527
862.084	0.0157446
862.163	0.0157127
862.241	0.0157220
862.319	0.0158516
862.397	0.0157738
862.475	0.0156429
862.553	0.0156525
862.631	0.0157434
862.709	0.0156246
862.788	0.0155894
862.866	0.0156575
862.944	0.0156491
863.022	0.0156520
863.100	0.0156189
863.178	0.0157718
863.256	0.0156393
863.334	0.0155949
863.413	0.0156619
863.491	0.0156690
863.569	0.0155843
863.647	0.0154708
863.725	0.0154459
863.803	0.0154807
863.881	0.0156026
863.959	0.0155700
864.038	0.0154070
864.116	0.0156057
864.194	0.0156287
864.272	0.0155244
864.350	0.0154946
864.428	0.0154436
864.506	0.0155070
864.584	0.0155282
864.663	0.0154529
864.741	0.0154131
864.819	0.0154048
864.897	0.0154633
864.975	0.0156438
865.053	0.0154569
865.131	0.0155154
865.209	0.0155553
865.288	0.0155321
865.366	0.0155114
865.444	0.0156692
865.522	0.0156349
865.600	0.0156371
865.678	0.0156154
865.756	0.0156971
865.834	0.0157658
865.913	0.0156247
865.991	0.0155949
866.069	0.0155897
866.147	0.0158738
866.225	0.0157218
866.303	0.0155183
866.381	0.0157713
866.459	0.0158276
866.538	0.0157235
866.616	0.0156380
866.694	0.0156870
866.772	0.0156995
866.850	0.0155869
866.928	0.0156725
867.006	0.0157004
867.084	0.0157346
867.163	0.0156996
867.241	0.0157516
867.319	0.0155647
867.397	0.0157214
867.475	0.0156003
867.553	0.0156262
867.631	0.0155106
867.709	0.0156634
867.788	0.0156068
867.866	0.0155141
867.944	0.0155615
868.022	0.0155160
868.100	0.0155919
868.178	0.0156516
868.256	0.0155056
868.334	0.0154066
868.413	0.0154975
868.491	0.0153343
868.569	0.0153514
868.647	0.0155393
868.725	0.0154979
868.803	0.0154099
868.881	0.0154850
868.959	0.0153632
869.038	0.0155127
869.116	0.0155170
869.194	0.0154726
869.272	0.0155178
869.350	0.0156915
869.428	0.0156186
869.506	0.0156750
869.584	0.0158218
869.663	0.0157309
869.741	0.0154105
869.819	0.0155542
869.897	0.0156336
869.975	0.0156673
870.053	0.0157412
870.131	0.0156210
870.209	0.0156548
870.288	0.0156364
870.366	0.0157021
870.444	0.0157077
870.522	0.0158084
870.600	0.0157784
870.678	0.0157454
870.756	0.0158352
870.834	0.0158312
870.913	0.0158514
870.991	0.0158250
871.069	0.0158128
871.147	0.0157403
871.225	0.0157330
871.303	0.0159159
871.381	0.0158158
871.459	0.0158759
871.538	0.0157188
871.616	0.0158165
871.694	0.0158108
871.772	0.0157778
871.850	0.0157091
871.928	0.0156364
872.006	0.0155387
872.084	0.0156127
872.163	0.0154662
872.241	0.0156615
872.319	0.0154993
872.397	0.0155316
872.475	0.0155074
872.553	0.0154953
872.631	0.0155238
872.709	0.0156095
872.788	0.0155551
872.866	0.0155497
872.944	0.0154455
873.022	0.0156158
873.100	0.0155467
873.178	0.0153876
873.256	0.0155422
873.334	0.0157070
873.413	0.0156715
873.491	0.0155379
873.569	0.0154221
873.647	0.0154243
873.725	0.0154911
873.803	0.0155917
873.881	0.0155553
873.959	0.0157018
874.038	0.0156141
874.116	0.0157455
874.194	0.0156776
874.272	0.0156851
874.350	0.0156496
874.428	0.0155900
874.506	0.0157384
874.584	0.0156733
874.663	0.0155453
874.741	0.0157305
874.819	0.0157555
874.897	0.0156843
874.975	0.0156889
875.053	0.0155350
875.131	0.0156802
875.209	0.0157088
875.288	0.0155889
875.366	0.0156896
875.444	0.0157446
875.522	0.0158223
875.600	0.0157668
875.678	0.0156835
875.756	0.0156721
875.834	0.0156447
875.913	0.0157141
875.991	0.0155984
876.069	0.0155711
876.147	0.0156656
876.225	0.0157285
876.303	0.0156455
876.381	0.0156357
876.459	0.0154736
876.538	0.0155972
876.616	0.0155099
876.694	0.0154971
876.772	0.0156255
876.850	0.0155405
876.928	0.0156280
877.006	0.0155634
877.084	0.0155303
877.163	0.0156605
877.241	0.0155183
877.319	0.0154729
877.397	0.0156148
877.475	0.0155531
877.553	0.0154853
877.631	0.0154893
877.709	0.0155530
877.788	0.0154359
877.866	0.0155338
877.944	0.0155560
878.022	0.0155613
878.100	0.0154967
878.178	0.0154583
878.256	0.0155293
878.334	0.0155063
878.413	0.0157354
878.491	0.0157101
878.569	0.0154807
878.647	0.0155609
878.725	0.0155913
878.803	0.0155470
878.881	0.0156255
878.959	0.0155452
879.038	0.0157623
879.116	0.0156871
879.194	0.0157049
879.272	0.0156184
879.350	0.0157965
879.428	0.0157558
879.506	0.0157887
879.584	0.0158342
879.663	0.0156841
879.741	0.0157945
879.819	0.0158352
879.897	0.0158968
879.975	0.0157169
880.053	0.0157406
880.131	0.0157537
880.209	0.0156693
880.288	0.0156554
880.366	0.0155598
880.444	0.0156413
880.522	0.0156409
880.600	0.0156166
880.678	0.0155998
880.756	0.0155383
880.834	0.0155424
880.913	0.0156744
880.991	0.0156117
881.069	0.0155469
881.147	0.0155038
881.225	0.0156628
881.303	0.0155907
881.381	0.0155204
881.459	0.0155218
881.538	0.0155463
881.616	0.0157115
881.694	0.0155430
881.772	0.0155358
881.850	0.0156355
881.928	0.0157523
882.006	0.0156752
882.084	0.0156554
882.163	0.0155499
882.241	0.0157191
882.319	0.0156826
882.397	0.0156805
882.475	0.0156722
882.553	0.0156454
882.631	0.0157448
882.709	0.0156273
882.788	0.0155948
882.866	0.0155603
882.944	0.0156599
883.022	0.0156030
883.100	0.0155476
883.178	0.0156266
883.256	0.0154671
883.334	0.0156364
883.413	0.0156572
883.491	0.0154526
883.569	0.0155380
883.647	0.0156927
883.725	0.0155798
883.803	0.0155299
883.881	0.0155612
883.959	0.0156325
884.038	0.0155197
884.116	0.0156024
884.194	0.0155553
884.272	0.0156880
884.350	0.0156184
884.428	0.0155620
884.506	0.0155627
884.584	0.0156924
884.663	0.0156977
884.741	0.0155687
884.819	0.0155495
884.897	0.0155856
884.975	0.0155466
885.053	0.0156651
885.131	0.0157428
885.209	0.0156494
885.288	0.0156735
885.366	0.0156339
885.444	0.0158059
885.522	0.0157572
885.600	0.0156023
885.678	0.0157246
885.756	0.0156486
885.834	0.0156919
885.913	0.0156435
885.991	0.0155159
886.069	0.0155683
886.147	0.0155325
886.225	0.0156573
886.303	0.0155135
886.381	0.0155177
886.459	0.0154663
886.538	0.0154352
886.616	0.0154732
886.694	0.0154735
886.772	0.0154559
886.850	0.0155560
886.928	0.0153173
887.006	0.0154184
887.084	0.0155578
887.163	0.0154964
887.241	0.0155456
887.319	0.0155428
887.397	0.0153494
887.475	0.0154971
887.553	0.0156067
887.631	0.0153106
887.709	0.0154423
887.788	0.0154269
887.866	0.0155098
887.944	0.0156106
888.022	0.0156567
888.100	0.0156242
888.178	0.0156122
888.256	0.0155904
888.334	0.0156084
888.413	0.0156482
888.491	0.0156219
888.569	0.0156397
888.647	0.0155375
888.725	0.0155726
888.803	0.0155559
888.881	0.0155092
888.959	0.0156384
889.038	0.0155722
889.116	0.0155232
889.194	0.0155254
889.272	0.0156601
889.350	0.0157018
889.428	0.0156252
889.506	0.0154704
889.584	0.0155912
889.663	0.0156452
889.741	0.0156451
889.819	0.0155744
889.897	0.0156836
889.975	0.0156347
890.053	0.0157956
890.131	0.0157109
890.209	0.0155722
890.288	0.0156073
890.366	0.0157384
890.444	0.0155334
890.522	0.0156206
890.600	0.0155772
890.678	0.0156701
890.756	0.0155685
890.834	0.0156527
890.913	0.0157069
890.991	0.0156075
891.069	0.0156045
891.147	0.0157225
891.225	0.0156796
891.303	0.0156202
891.381	0.0157301
891.459	0.0155888
891.538	0.0157920
891.616	0.0158736
891.694	0.0158007
891.772	0.0156840
891.850	0.0157271
891.928	0.0156339
892.006	0.0159444
892.084	0.0157264
892.163	0.0155540
892.241	0.0155846
892.319	0.0155603
892.397	0.0156947
892.475	0.0156541
892.553	0.0156087
892.631	0.0155450
892.709	0.0155392
892.788	0.0155922
892.866	0.0154813
892.944	0.0154412
893.022	0.0156199
893.100	0.0155542
893.178	0.0154611
893.256	0.0156435
893.334	0.0156010
893.413	0.0154659
893.491	0.0155769
893.569	0.0155782
893.647	0.0155029
893.725	0.0155548
893.803	0.0155076
893.881	0.0157221
893.959	0.0155875
894.038	0.0155605
894.116	0.0156899
894.194	0.0156390
894.272	0.0155537
894.350	0.0156131
894.428	0.0156868
894.506	0.0156638
894.584	0.0157262
894.663	0.0157904
894.741	0.0157187
894.819	0.0158013
894.897	0.0158169
894.975	0.0158961
895.053	0.0157823
895.131	0.0159987
895.209	0.0160235
895.288	0.0157166
895.366	0.0158234
895.444	0.0158367
895.522	0.0157966
895.600	0.0159480
895.678	0.0158965
895.756	0.0157594
895.834	0.0157251
895.913	0.0157343
895.991	0.0155998
896.069	0.0156873
896.147	0.0156532
896.225	0.0156503
896.303	0.0156792
896.381	0.0155345
896.459	0.0155921
896.538	0.0155003
896.616	0.0154754
896.694	0.0155293
896.772	0.0154487
896.850	0.0155007
896.928	0.0155202
897.006	0.0155155
897.084	0.0155187
897.163	0.0154736
897.241	0.0154677
897.319	0.0155019
897.397	0.0154147
897.475	0.0155004
897.553	0.0155254
897.631	0.0156085
897.709	0.0154913
897.788	0.0154832
897.866	0.0154305
897.944	0.0156988
898.022	0.0156123
898.100	0.0155486
898.178	0.0156748
898.256	0.0155799
898.334	0.0156100
898.413	0.0156799
898.491	0.0156976
898.569	0.0156418
898.647	0.0157404
898.725	0.0157715
898.803	0.0157951
898.881	0.0156784
898.959	0.0157610
899.038	0.0158221
899.116	0.0159176
899.194	0.0156589
899.272	0.0157641
899.350	0.0157471
899.428	0.0157500
899.506	0.0156704
899.584	0.0156252
899.663	0.0156624
899.741	0.0155809
899.819	0.0155756
899.897	0.0156549
899.975	0.0156045
900.053	0.0155898
900.131	0.0157584
900.209	0.0156215
900.288	0.0156773
900.366	0.0155721
900.444	0.0154962
900.522	0.0154584
900.600	0.0156705
900.678	0.0156406
900.756	0.0156170
900.834	0.0157001
900.913	0.0156116
900.991	0.0157000
901.069	0.0156400
901.147	0.0156194
901.225	0.0156305
901.303	0.0156557
901.381	0.0158117
901.459	0.0156911
901.538	0.0155729
901.616	0.0155173
901.694	0.0156730
901.772	0.0155285
901.850	0.0155728
901.928	0.0156534
902.006	0.0155172
902.084	0.0157552
902.163	0.0156037
902.241	0.0156284
902.319	0.0154754
902.397	0.0154821
902.475	0.0155112
902.553	0.0157023
902.631	0.0155087
902.709	0.0156953
902.788	0.0157084
902.866	0.0155405
902.944	0.0155888
903.022	0.0156647
903.100	0.0157370
903.178	0.0155913
903.256	0.0156113
903.334	0.0155307
903.413	0.0156722
903.491	0.0157090
903.569	0.0156068
903.647	0.0156348
903.725	0.0156739
903.803	0.0155261
903.881	0.0156292
903.959	0.0156187
904.038	0.0156254
904.116	0.0156140
904.194	0.0157507
904.272	0.0156917
904.350	0.0156015
904.428	0.0156114
904.506	0.0157536
904.584	0.0156971
904.663	0.0156718
904.741	0.0157355
904.819	0.0156216
904.897	0.0156360
904.975	0.0157085
905.053	0.0156023
905.131	0.0157339
905.209	0.0156518
905.288	0.0156621
905.366	0.0155867
905.444	0.0156134
905.522	0.0155879
905.600	0.0156873
905.678	0.0156949
905.756	0.0155067
905.834	0.0154980
905.913	0.0155970
905.991	0.0155473
906.069	0.0156846
906.147	0.0154334
906.225	0.0154450
906.303	0.0154312
906.381	0.0155124
906.459	0.0155572
906.538	0.0155767
906.616	0.0155624
906.694	0.0155352
906.772	0.0154492
906.850	0.0155548
906.928	0.0154310
907.006	0.0154796
907.084	0.0154655
907.163	0.0156005
907.241	0.0155050
907.319	0.0156293
907.397	0.0157300
907.475	0.0157126
907.553	0.0156785
907.631	0.0156236
907.709	0.0158099
907.788	0.0157771
907.866	0.0157745
907.944	0.0156815
908.022	0.0157044
908.100	0.0157388
908.178	0.0157178
908.256	0.0157900
908.334	0.0156733
908.413	0.0155923
908.491	0.0157942
908.569	0.0157284
908.647	0.0156922
908.725	0.0156906
908.803	0.0157813
908.881	0.0158463
908.959	0.0156483
909.038	0.0155930
909.116	0.0157310
909.194	0.0157655
909.272	0.0155796
909.350	0.0155220
909.428	0.0155971
909.506	0.0155906
909.584	0.0155373
909.663	0.0155191
909.741	0.0156312
909.819	0.0153811
909.897	0.0157130
909.975	0.0155880
910.053	0.0156597
910.131	0.0156875
910.209	0.0156672
910.288	0.0156425
910.366	0.0157470
910.444	0.0158212
910.522	0.0157468
910.600	0.0159107
910.678	0.0158556
910.756	0.0158348
910.834	0.0158643
910.913	0.0158383
910.991	0.0159083
911.069	0.0158659
911.147	0.0156628
911.225	0.0157684
911.303	0.0156731
911.381	0.0158429
911.459	0.0157014
911.538	0.0156670
911.616	0.0156557
911.694	0.0156073
911.772	0.0156767
911.850	0.0155212
911.928	0.0156993
912.006	0.0156461
912.084	0.0155309
912.163	0.0155585
912.241	0.0155808
912.319	0.0155476
912.397	0.0154848
912.475	0.0155046
912.553	0.0155813
912.631	0.0155638
912.709	0.0155572
912.788	0.0156181
912.866	0.0154552
912.944	0.0156553
913.022	0.0156542
913.100	0.0155443
913.178	0.0156007
913.256	0.0156113
913.334	0.0155379
913.413	0.0155782
913.491	0.0155916
913.569	0.0157069
913.647	0.0157085
913.725	0.0155191
913.803	0.0155664
913.881	0.0156215
913.959	0.0155795
914.038	0.0155085
914.116	0.0155412
914.194	0.0155300
914.272	0.0156276
914.350	0.0157280
914.428	0.0157426
914.506	0.0155807
914.584	0.0154685
914.663	0.0156404
914.741	0.0156023
914.819	0.0154729
914.897	0.0155835
914.975	0.0156135
915.053	0.0156158
915.131	0.0156365
915.209	0.0155766
915.288	0.0155425
915.366	0.0158456
915.444	0.0155646
915.522	0.0155857
915.600	0.0156068
915.678	0.0156367
915.756	0.0156148
915.834	0.0157597
915.913	0.0155158
915.991	0.0153403
916.069	0.0155789
916.147	0.0154884
916.225	0.0155096
916.303	0.0155259
916.381	0.0156641
916.459	0.0155697
916.538	0.0155064
916.616	0.0155405
916.694	0.0155302
916.772	0.0155167
916.850	0.0156416
916.928	0.0155605
917.006	0.0155254
917.084	0.0155437
917.163	0.0155245
917.241	0.0156005
917.319	0.0155009
917.397	0.0154567
917.475	0.0154236
917.553	0.0153609
917.631	0.0154478
917.709	0.0154633
917.788	0.0153578
917.866	0.0155187
917.944	0.0155497
918.022	0.0153654
918.100	0.0154251
918.178	0.0154391
918.256	0.0155767
918.334	0.0154233
918.413	0.0154578
918.491	0.0153677
918.569	0.0155119
918.647	0.0155115
918.725	0.0155720
918.803	0.0157061
918.881	0.0155735
918.959	0.0155098
919.038	0.0155888
919.116	0.0156687
919.194	0.0156584
919.272	0.0156512
919.350	0.0156462
919.428	0.0156477
919.506	0.0157260
919.584	0.0155856
919.663	0.0156339
919.741	0.0157512
919.819	0.0156220
919.897	0.0156516
