05/20/2022	21:30:29	Ver.	4.1	UNKNOWN
Optical Delay	599.975067	Delta X		0.078125	Sweeps	1	Scan Rate	0/0
Coordinates	Axis 1	NaN	Axis 2	NaN	Axis 3	NaN	Axis 4	NaN	Axis 5	NaN	Axis 6	0.000000
TX Power	0.000000	RX Power	0.000000

599.975	0.0156683
600.053	0.0156541
600.131	0.0157660
600.209	0.0158427
600.288	0.0157508
600.366	0.0156733
600.444	0.0156984
600.522	0.0155984
600.600	0.0156674
600.678	0.0157843
600.756	0.0157445
600.834	0.0158260
600.913	0.0156633
600.991	0.0158903
601.069	0.0156950
601.147	0.0157134
601.225	0.0155493
601.303	0.0156623
601.381	0.0155829
601.459	0.0156792
601.538	0.0157556
601.616	0.0156348
601.694	0.0157076
601.772	0.0156600
601.850	0.0157119
601.928	0.0157479
602.006	0.0155466
602.084	0.0156728
602.163	0.0157211
602.241	0.0157196
602.319	0.0158242
602.397	0.0157308
602.475	0.0156118
602.553	0.0156001
602.631	0.0156977
602.709	0.0156622
602.788	0.0157094
602.866	0.0157607
602.944	0.0156554
603.022	0.0156535
603.100	0.0155914
603.178	0.0156542
603.256	0.0156644
603.334	0.0156181
603.413	0.0156457
603.491	0.0157773
603.569	0.0157378
603.647	0.0157608
603.725	0.0156678
603.803	0.0157754
603.881	0.0156701
603.959	0.0157353
604.038	0.0156590
604.116	0.0157883
604.194	0.0157632
604.272	0.0157256
604.350	0.0157336
604.428	0.0156808
604.506	0.0155882
604.584	0.0157276
604.663	0.0157171
604.741	0.0156712
604.819	0.0156363
604.897	0.0157082
604.975	0.0157161
605.053	0.0156826
605.131	0.0156739
605.209	0.0156588
605.288	0.0157175
605.366	0.0157201
605.444	0.0157792
605.522	0.0157279
605.600	0.0157294
605.678	0.0157008
605.756	0.0157737
605.834	0.0158341
605.913	0.0158051
605.991	0.0156923
606.069	0.0157334
606.147	0.0156773
606.225	0.0157028
606.303	0.0157722
606.381	0.0158545
606.459	0.0157231
606.538	0.0156079
606.616	0.0157672
606.694	0.0157359
606.772	0.0157239
606.850	0.0158880
606.928	0.0158048
607.006	0.0156047
607.084	0.0157847
607.163	0.0158183
607.241	0.0157965
607.319	0.0157325
607.397	0.0157694
607.475	0.0157355
607.553	0.0156598
607.631	0.0156551
607.709	0.0157723
607.788	0.0157918
607.866	0.0156390
607.944	0.0157433
608.022	0.0157524
608.100	0.0157824
608.178	0.0156696
608.256	0.0157391
608.334	0.0158620
608.413	0.0157497
608.491	0.0157755
608.569	0.0158032
608.647	0.0157070
608.725	0.0157022
608.803	0.0156842
608.881	0.0156886
608.959	0.0157273
609.038	0.0158154
609.116	0.0157541
609.194	0.0158935
609.272	0.0157426
609.350	0.0157524
609.428	0.0157987
609.506	0.0157423
609.584	0.0157171
609.663	0.0156057
609.741	0.0158263
609.819	0.0158327
609.897	0.0157182
609.975	0.0156828
610.053	0.0156181
610.131	0.0158231
610.209	0.0157239
610.288	0.0157880
610.366	0.0157482
610.444	0.0158189
610.522	0.0159582
610.600	0.0157309
610.678	0.0157088
610.756	0.0157241
610.834	0.0156773
610.913	0.0156805
610.991	0.0157911
611.069	0.0157710
611.147	0.0155877
611.225	0.0156961
611.303	0.0157246
611.381	0.0157548
611.459	0.0156429
611.538	0.0157420
611.616	0.0156046
611.694	0.0157191
611.772	0.0158142
611.850	0.0158256
611.928	0.0157868
612.006	0.0156975
612.084	0.0157835
612.163	0.0156848
612.241	0.0157604
612.319	0.0157059
612.397	0.0156922
612.475	0.0157495
612.553	0.0157099
612.631	0.0158003
612.709	0.0157758
612.788	0.0157657
612.866	0.0157823
612.944	0.0158381
613.022	0.0156880
613.100	0.0156919
613.178	0.0156046
613.256	0.0158306
613.334	0.0157756
613.413	0.0156580
613.491	0.0157023
613.569	0.0158735
613.647	0.0157176
613.725	0.0157476
613.803	0.0156854
613.881	0.0158099
613.959	0.0156549
614.038	0.0156570
614.116	0.0157516
614.194	0.0158104
614.272	0.0156744
614.350	0.0157864
614.428	0.0157541
614.506	0.0157006
614.584	0.0158660
614.663	0.0156993
614.741	0.0158074
614.819	0.0158325
614.897	0.0158707
614.975	0.0158357
615.053	0.0158437
615.131	0.0158955
615.209	0.0158725
615.288	0.0157728
615.366	0.0158568
615.444	0.0158249
615.522	0.0157418
615.600	0.0156628
615.678	0.0157811
615.756	0.0156878
615.834	0.0156344
615.913	0.0156664
615.991	0.0157442
616.069	0.0157008
616.147	0.0156770
616.225	0.0157768
616.303	0.0157954
616.381	0.0158028
616.459	0.0158210
616.538	0.0156710
616.616	0.0156447
616.694	0.0156863
616.772	0.0156984
616.850	0.0157597
616.928	0.0158407
617.006	0.0157226
617.084	0.0156970
617.163	0.0156542
617.241	0.0157320
617.319	0.0155893
617.397	0.0157084
617.475	0.0156339
617.553	0.0158006
617.631	0.0157066
617.709	0.0156595
617.788	0.0157496
617.866	0.0158401
617.944	0.0155753
618.022	0.0157671
618.100	0.0156400
618.178	0.0157058
618.256	0.0157306
618.334	0.0157092
618.413	0.0158623
618.491	0.0158405
618.569	0.0156579
618.647	0.0156905
618.725	0.0157048
618.803	0.0157700
618.881	0.0158212
618.959	0.0156644
619.038	0.0156845
619.116	0.0158949
619.194	0.0158167
619.272	0.0156844
619.350	0.0157637
619.428	0.0157948
619.506	0.0156792
619.584	0.0157558
619.663	0.0157442
619.741	0.0157401
619.819	0.0159248
619.897	0.0157513
619.975	0.0156771
620.053	0.0157571
620.131	0.0157805
620.209	0.0157603
620.288	0.0157284
620.366	0.0157282
620.444	0.0158185
620.522	0.0157246
620.600	0.0157674
620.678	0.0157059
620.756	0.0156734
620.834	0.0157213
620.913	0.0156797
620.991	0.0157001
621.069	0.0157424
621.147	0.0156959
621.225	0.0156612
621.303	0.0156307
621.381	0.0158773
621.459	0.0157258
621.538	0.0157925
621.616	0.0157226
621.694	0.0156628
621.772	0.0156578
621.850	0.0159277
621.928	0.0157233
622.006	0.0156467
622.084	0.0158292
622.163	0.0155820
622.241	0.0156799
622.319	0.0156573
622.397	0.0156823
622.475	0.0156690
622.553	0.0156905
622.631	0.0156901
622.709	0.0157211
622.788	0.0156957
622.866	0.0156308
622.944	0.0155391
623.022	0.0157092
623.100	0.0158447
623.178	0.0157222
623.256	0.0156802
623.334	0.0157246
623.413	0.0156940
623.491	0.0158224
623.569	0.0157701
623.647	0.0157178
623.725	0.0156576
623.803	0.0157494
623.881	0.0157925
623.959	0.0157804
624.038	0.0156723
624.116	0.0156564
624.194	0.0156075
624.272	0.0157147
624.350	0.0156886
624.428	0.0157719
624.506	0.0157368
624.584	0.0157283
624.663	0.0156945
624.741	0.0156424
624.819	0.0156040
624.897	0.0157269
624.975	0.0158177
625.053	0.0157805
625.131	0.0157207
625.209	0.0157744
625.288	0.0156526
625.366	0.0157891
625.444	0.0157201
625.522	0.0156489
625.600	0.0157620
625.678	0.0157811
625.756	0.0156919
625.834	0.0156677
625.913	0.0156636
625.991	0.0157250
626.069	0.0158540
626.147	0.0156621
626.225	0.0157919
626.303	0.0158535
626.381	0.0158411
626.459	0.0159000
626.538	0.0158231
626.616	0.0158362
626.694	0.0157110
626.772	0.0157165
626.850	0.0157907
626.928	0.0158302
627.006	0.0157099
627.084	0.0157432
627.163	0.0156305
627.241	0.0156585
627.319	0.0157544
627.397	0.0157764
627.475	0.0157208
627.553	0.0156215
627.631	0.0156695
627.709	0.0157040
627.788	0.0156214
627.866	0.0156501
627.944	0.0156854
628.022	0.0157729
628.100	0.0157348
628.178	0.0157484
628.256	0.0155196
628.334	0.0155653
628.413	0.0157818
628.491	0.0156776
628.569	0.0155927
628.647	0.0157777
628.725	0.0157113
628.803	0.0156466
628.881	0.0157018
628.959	0.0156783
629.038	0.0157697
629.116	0.0157636
629.194	0.0156207
629.272	0.0157472
629.350	0.0157336
629.428	0.0158400
629.506	0.0157075
629.584	0.0156217
629.663	0.0157735
629.741	0.0157541
629.819	0.0157562
629.897	0.0156698
629.975	0.0157940
630.053	0.0157366
630.131	0.0157959
630.209	0.0155972
630.288	0.0157443
630.366	0.0156333
630.444	0.0157838
630.522	0.0157730
630.600	0.0156207
630.678	0.0158770
630.756	0.0157661
630.834	0.0157126
630.913	0.0156667
630.991	0.0157756
631.069	0.0158359
631.147	0.0157404
631.225	0.0158286
631.303	0.0158616
631.381	0.0157410
631.459	0.0158059
631.538	0.0159299
631.616	0.0156839
631.694	0.0159044
631.772	0.0157393
631.850	0.0157893
631.928	0.0158027
632.006	0.0156836
632.084	0.0156313
632.163	0.0157918
632.241	0.0157365
632.319	0.0157162
632.397	0.0156925
632.475	0.0157297
632.553	0.0157816
632.631	0.0157259
632.709	0.0158003
632.788	0.0155967
632.866	0.0156963
632.944	0.0155936
633.022	0.0156145
633.100	0.0157523
633.178	0.0155437
633.256	0.0156873
633.334	0.0156438
633.413	0.0156983
633.491	0.0156439
633.569	0.0156002
633.647	0.0156618
633.725	0.0156153
633.803	0.0156419
633.881	0.0155411
633.959	0.0156061
634.038	0.0155257
634.116	0.0156387
634.194	0.0156174
634.272	0.0156118
634.350	0.0156424
634.428	0.0155463
634.506	0.0156390
634.584	0.0157355
634.663	0.0156576
634.741	0.0156136
634.819	0.0156761
634.897	0.0157169
634.975	0.0155679
635.053	0.0156120
635.131	0.0156607
635.209	0.0156477
635.288	0.0156294
635.366	0.0156845
635.444	0.0156822
635.522	0.0156636
635.600	0.0156604
635.678	0.0156630
635.756	0.0156879
635.834	0.0157070
635.913	0.0156174
635.991	0.0155450
636.069	0.0156808
636.147	0.0158295
636.225	0.0157330
636.303	0.0155965
636.381	0.0156877
636.459	0.0156715
636.538	0.0157539
636.616	0.0155598
636.694	0.0156844
636.772	0.0156390
636.850	0.0156960
636.928	0.0157648
637.006	0.0155968
637.084	0.0156406
637.163	0.0156467
637.241	0.0157102
637.319	0.0157794
637.397	0.0157144
637.475	0.0156163
637.553	0.0156998
637.631	0.0156950
637.709	0.0157382
637.788	0.0157862
637.866	0.0156489
637.944	0.0156877
638.022	0.0157357
638.100	0.0157354
638.178	0.0157318
638.256	0.0156486
638.334	0.0157078
638.413	0.0156409
638.491	0.0156551
638.569	0.0158104
638.647	0.0157508
638.725	0.0157560
638.803	0.0157924
638.881	0.0157458
638.959	0.0157703
639.038	0.0157286
639.116	0.0156387
639.194	0.0157693
639.272	0.0158390
639.350	0.0157345
639.428	0.0156423
639.506	0.0158968
639.584	0.0159917
639.663	0.0158471
639.741	0.0158909
639.819	0.0158008
639.897	0.0157829
639.975	0.0159605
640.053	0.0159624
640.131	0.0159521
640.209	0.0158719
640.288	0.0158036
640.366	0.0157841
640.444	0.0157870
640.522	0.0158404
640.600	0.0159046
640.678	0.0157909
640.756	0.0158271
640.834	0.0157536
640.913	0.0158429
640.991	0.0158976
641.069	0.0159379
641.147	0.0158871
641.225	0.0158478
641.303	0.0159305
641.381	0.0157362
641.459	0.0158163
641.538	0.0158589
641.616	0.0159223
641.694	0.0157062
641.772	0.0157880
641.850	0.0157835
641.928	0.0157759
642.006	0.0157359
642.084	0.0159034
642.163	0.0158105
642.241	0.0157737
642.319	0.0157520
642.397	0.0157592
642.475	0.0158585
642.553	0.0158184
642.631	0.0157040
642.709	0.0158403
642.788	0.0157799
642.866	0.0157883
642.944	0.0157006
643.022	0.0158665
643.100	0.0158658
643.178	0.0157048
643.256	0.0156964
643.334	0.0157317
643.413	0.0157624
643.491	0.0157940
643.569	0.0156693
643.647	0.0156348
643.725	0.0158090
643.803	0.0158014
643.881	0.0157354
643.959	0.0157836
644.038	0.0156356
644.116	0.0156742
644.194	0.0156969
644.272	0.0157304
644.350	0.0156915
644.428	0.0155861
644.506	0.0156905
644.584	0.0157634
644.663	0.0157752
644.741	0.0155978
644.819	0.0156156
644.897	0.0156631
644.975	0.0156980
645.053	0.0155827
645.131	0.0156133
645.209	0.0157646
645.288	0.0155914
645.366	0.0156033
645.444	0.0156992
645.522	0.0155522
645.600	0.0154282
645.678	0.0154446
645.756	0.0156772
645.834	0.0156539
645.913	0.0156760
645.991	0.0154707
646.069	0.0156294
646.147	0.0156475
646.225	0.0156023
646.303	0.0155322
646.381	0.0154065
646.459	0.0155171
646.538	0.0154907
646.616	0.0156110
646.694	0.0155712
646.772	0.0155157
646.850	0.0154466
646.928	0.0156865
647.006	0.0156754
647.084	0.0155580
647.163	0.0156425
647.241	0.0155389
647.319	0.0156030
647.397	0.0154800
647.475	0.0156543
647.553	0.0156353
647.631	0.0157552
647.709	0.0156178
647.788	0.0155856
647.866	0.0155854
647.944	0.0155516
648.022	0.0155621
648.100	0.0155453
648.178	0.0157151
648.256	0.0157026
648.334	0.0156080
648.413	0.0155946
648.491	0.0157180
648.569	0.0157477
648.647	0.0155906
648.725	0.0156856
648.803	0.0157347
648.881	0.0155990
648.959	0.0155901
649.038	0.0156879
649.116	0.0157858
649.194	0.0157335
649.272	0.0155525
649.350	0.0156985
649.428	0.0156610
649.506	0.0158009
649.584	0.0157143
649.663	0.0157524
649.741	0.0156364
649.819	0.0157168
649.897	0.0157745
649.975	0.0157620
650.053	0.0159396
650.131	0.0158376
650.209	0.0158139
650.288	0.0157391
650.366	0.0157376
650.444	0.0156253
650.522	0.0157758
650.600	0.0158543
650.678	0.0157413
650.756	0.0156673
650.834	0.0156456
650.913	0.0157834
650.991	0.0156122
651.069	0.0156990
651.147	0.0157488
651.225	0.0158025
651.303	0.0158096
651.381	0.0157001
651.459	0.0158263
651.538	0.0158755
651.616	0.0158429
651.694	0.0157816
651.772	0.0157101
651.850	0.0158596
651.928	0.0157390
652.006	0.0157410
652.084	0.0159338
652.163	0.0157809
652.241	0.0156866
652.319	0.0157594
652.397	0.0156508
652.475	0.0156434
652.553	0.0157017
652.631	0.0155111
652.709	0.0156645
652.788	0.0156461
652.866	0.0155235
652.944	0.0156269
653.022	0.0157668
653.100	0.0156383
653.178	0.0154600
653.256	0.0155791
653.334	0.0155602
653.413	0.0155271
653.491	0.0156353
653.569	0.0156047
653.647	0.0156885
653.725	0.0157895
653.803	0.0155759
653.881	0.0156583
653.959	0.0156920
654.038	0.0156979
654.116	0.0158506
654.194	0.0158209
654.272	0.0156006
654.350	0.0157682
654.428	0.0158375
654.506	0.0157739
654.584	0.0155006
654.663	0.0156698
654.741	0.0156480
654.819	0.0156343
654.897	0.0154667
654.975	0.0155170
655.053	0.0155389
655.131	0.0154247
655.209	0.0153876
655.288	0.0154095
655.366	0.0153394
655.444	0.0153197
655.522	0.0154752
655.600	0.0154430
655.678	0.0155020
655.756	0.0155804
655.834	0.0156643
655.913	0.0155669
655.991	0.0156785
656.069	0.0158313
656.147	0.0158226
656.225	0.0157867
656.303	0.0158498
656.381	0.0157556
656.459	0.0159449
656.538	0.0159406
656.616	0.0159153
656.694	0.0158847
656.772	0.0158961
656.850	0.0159462
656.928	0.0158369
657.006	0.0158620
657.084	0.0157241
657.163	0.0157180
657.241	0.0157285
657.319	0.0157101
657.397	0.0155140
657.475	0.0155243
657.553	0.0155034
657.631	0.0154189
657.709	0.0154091
657.788	0.0153835
657.866	0.0152863
657.944	0.0153528
658.022	0.0153467
658.100	0.0154561
658.178	0.0153199
658.256	0.0151359
658.334	0.0153093
658.413	0.0154050
658.491	0.0153064
658.569	0.0153597
658.647	0.0153436
658.725	0.0152919
658.803	0.0155764
658.881	0.0157910
658.959	0.0157095
659.038	0.0157256
659.116	0.0159797
659.194	0.0160737
659.272	0.0159708
659.350	0.0161451
659.428	0.0162160
659.506	0.0162109
659.584	0.0163641
659.663	0.0162496
659.741	0.0164310
659.819	0.0163560
659.897	0.0163320
659.975	0.0162012
660.053	0.0161441
660.131	0.0163922
660.209	0.0162249
660.288	0.0160675
660.366	0.0158877
660.444	0.0159937
660.522	0.0158723
660.600	0.0155473
660.678	0.0154419
660.756	0.0154445
660.834	0.0153326
660.913	0.0153454
660.991	0.0151893
661.069	0.0152734
661.147	0.0151527
661.225	0.0151701
661.303	0.0150580
661.381	0.0151208
661.459	0.0150176
661.538	0.0150165
661.616	0.0152881
661.694	0.0152657
661.772	0.0152336
661.850	0.0151844
661.928	0.0152289
662.006	0.0154259
662.084	0.0155415
662.163	0.0155968
662.241	0.0155608
662.319	0.0156039
662.397	0.0156624
662.475	0.0159341
662.553	0.0158090
662.631	0.0158631
662.709	0.0159462
662.788	0.0160594
662.866	0.0159968
662.944	0.0160860
663.022	0.0160690
663.100	0.0160372
663.178	0.0159574
663.256	0.0160246
663.334	0.0159986
663.413	0.0160033
663.491	0.0159550
663.569	0.0157536
663.647	0.0158600
663.725	0.0158984
663.803	0.0158686
663.881	0.0157705
663.959	0.0158137
664.038	0.0157334
664.116	0.0156926
664.194	0.0156793
664.272	0.0156416
664.350	0.0158228
664.428	0.0157654
664.506	0.0156762
664.584	0.0156722
664.663	0.0158670
664.741	0.0158173
664.819	0.0157821
664.897	0.0156892
664.975	0.0157973
665.053	0.0157959
665.131	0.0157346
665.209	0.0158121
665.288	0.0158036
665.366	0.0156769
665.444	0.0156559
665.522	0.0156574
665.600	0.0155945
665.678	0.0156734
665.756	0.0156041
665.834	0.0153974
665.913	0.0155771
665.991	0.0155297
666.069	0.0153251
666.147	0.0153358
666.225	0.0151618
666.303	0.0152322
666.381	0.0152118
666.459	0.0151852
666.538	0.0149575
666.616	0.0150616
666.694	0.0150552
666.772	0.0151222
666.850	0.0150893
666.928	0.0149582
667.006	0.0151582
667.084	0.0152223
667.163	0.0150008
667.241	0.0152480
667.319	0.0154274
667.397	0.0153759
667.475	0.0154800
667.553	0.0153537
667.631	0.0155066
667.709	0.0157779
667.788	0.0156660
667.866	0.0157169
667.944	0.0157413
668.022	0.0156727
668.100	0.0158760
668.178	0.0158636
668.256	0.0159093
668.334	0.0158825
668.413	0.0160073
668.491	0.0159657
668.569	0.0157696
668.647	0.0160067
668.725	0.0160659
668.803	0.0158952
668.881	0.0160682
668.959	0.0160101
669.038	0.0161076
669.116	0.0159113
669.194	0.0161234
669.272	0.0161561
669.350	0.0161739
669.428	0.0160658
669.506	0.0160390
669.584	0.0160305
669.663	0.0161533
669.741	0.0160372
669.819	0.0159709
669.897	0.0159041
669.975	0.0158516
670.053	0.0159150
670.131	0.0158851
670.209	0.0156607
670.288	0.0156995
670.366	0.0156357
670.444	0.0156659
670.522	0.0157050
670.600	0.0156500
670.678	0.0155356
670.756	0.0153699
670.834	0.0153534
670.913	0.0153404
670.991	0.0152763
671.069	0.0152673
671.147	0.0150850
671.225	0.0150600
671.303	0.0149637
671.381	0.0150113
671.459	0.0151117
671.538	0.0149187
671.616	0.0150197
671.694	0.0150417
671.772	0.0150724
671.850	0.0149850
671.928	0.0150782
672.006	0.0151623
672.084	0.0150888
672.163	0.0152394
672.241	0.0152213
672.319	0.0153234
672.397	0.0154669
672.475	0.0152632
672.553	0.0154348
672.631	0.0155349
672.709	0.0155585
672.788	0.0155451
672.866	0.0155496
672.944	0.0157420
673.022	0.0158737
673.100	0.0158241
673.178	0.0158996
673.256	0.0158519
673.334	0.0160346
673.413	0.0160265
673.491	0.0159995
673.569	0.0159799
673.647	0.0161256
673.725	0.0160382
673.803	0.0160612
673.881	0.0162474
673.959	0.0163670
674.038	0.0163734
674.116	0.0161575
674.194	0.0164677
674.272	0.0165008
674.350	0.0165616
674.428	0.0165607
674.506	0.0166219
674.584	0.0166187
674.663	0.0165756
674.741	0.0167321
674.819	0.0168461
674.897	0.0168085
674.975	0.0167702
675.053	0.0168461
675.131	0.0167549
675.209	0.0166177
675.288	0.0165277
675.366	0.0164805
675.444	0.0163499
675.522	0.0160277
675.600	0.0160620
675.678	0.0158264
675.756	0.0156552
675.834	0.0154994
675.913	0.0153009
675.991	0.0150494
676.069	0.0151024
676.147	0.0148800
676.225	0.0147025
676.303	0.0144756
676.381	0.0143915
676.459	0.0143251
676.538	0.0142923
676.616	0.0140743
676.694	0.0140200
676.772	0.0140047
676.850	0.0141279
676.928	0.0141093
677.006	0.0140502
677.084	0.0141021
677.163	0.0139951
677.241	0.0140532
677.319	0.0143767
677.397	0.0145919
677.475	0.0144927
677.553	0.0148779
677.631	0.0149783
677.709	0.0151703
677.788	0.0153713
677.866	0.0156937
677.944	0.0157555
678.022	0.0159454
678.100	0.0162978
678.178	0.0165283
678.256	0.0168073
678.334	0.0170279
678.413	0.0171909
678.491	0.0172979
678.569	0.0173239
678.647	0.0174468
678.725	0.0174758
678.803	0.0176573
678.881	0.0175620
678.959	0.0175980
679.038	0.0175565
679.116	0.0175793
679.194	0.0173712
679.272	0.0171951
679.350	0.0170644
679.428	0.0168031
679.506	0.0165909
679.584	0.0165068
679.663	0.0162592
679.741	0.0160076
679.819	0.0158938
679.897	0.0156808
679.975	0.0156387
680.053	0.0154812
680.131	0.0150639
680.209	0.0150920
680.288	0.0151086
680.366	0.0150669
680.444	0.0148251
680.522	0.0146686
680.600	0.0147196
680.678	0.0146529
680.756	0.0146986
680.834	0.0146877
680.913	0.0145042
680.991	0.0143731
681.069	0.0146284
681.147	0.0145610
681.225	0.0145084
681.303	0.0145997
681.381	0.0147031
681.459	0.0147981
681.538	0.0147819
681.616	0.0150069
681.694	0.0151685
681.772	0.0152621
681.850	0.0154365
681.928	0.0155540
682.006	0.0154025
682.084	0.0155283
682.163	0.0156388
682.241	0.0157364
682.319	0.0158807
682.397	0.0158900
682.475	0.0158725
682.553	0.0158951
682.631	0.0159960
682.709	0.0160921
682.788	0.0159500
682.866	0.0159838
682.944	0.0161111
683.022	0.0161834
683.100	0.0161436
683.178	0.0160027
683.256	0.0161216
683.334	0.0162181
683.413	0.0162158
683.491	0.0162972
683.569	0.0162630
683.647	0.0162177
683.725	0.0161930
683.803	0.0162167
683.881	0.0163123
683.959	0.0162223
684.038	0.0163093
684.116	0.0162350
684.194	0.0162279
684.272	0.0160425
684.350	0.0160141
684.428	0.0160693
684.506	0.0159644
684.584	0.0158042
684.663	0.0157470
684.741	0.0158448
684.819	0.0157738
684.897	0.0155976
684.975	0.0155207
685.053	0.0157463
685.131	0.0154665
685.209	0.0153857
685.288	0.0153620
685.366	0.0150554
685.444	0.0150922
685.522	0.0150362
685.600	0.0149133
685.678	0.0147015
685.756	0.0148307
685.834	0.0147371
685.913	0.0148399
685.991	0.0149271
686.069	0.0148198
686.147	0.0149336
686.225	0.0151250
686.303	0.0152177
686.381	0.0152783
686.459	0.0153834
686.538	0.0155212
686.616	0.0156573
686.694	0.0157728
686.772	0.0160188
686.850	0.0160451
686.928	0.0161306
687.006	0.0162693
687.084	0.0164081
687.163	0.0164150
687.241	0.0165481
687.319	0.0165417
687.397	0.0164254
687.475	0.0165275
687.553	0.0166516
687.631	0.0165993
687.709	0.0164942
687.788	0.0164157
687.866	0.0164640
687.944	0.0162638
688.022	0.0161013
688.100	0.0162335
688.178	0.0162531
688.256	0.0161089
688.334	0.0158856
688.413	0.0160399
688.491	0.0159974
688.569	0.0158907
688.647	0.0156832
688.725	0.0156578
688.803	0.0154498
688.881	0.0153871
688.959	0.0153789
689.038	0.0153005
689.116	0.0151886
689.194	0.0149570
689.272	0.0148196
689.350	0.0146349
689.428	0.0147250
689.506	0.0145419
689.584	0.0145506
689.663	0.0147023
689.741	0.0146913
689.819	0.0147723
689.897	0.0147176
689.975	0.0149298
690.053	0.0149780
690.131	0.0152135
690.209	0.0155408
690.288	0.0154392
690.366	0.0155176
690.444	0.0157507
690.522	0.0158317
690.600	0.0160150
690.678	0.0162300
690.756	0.0161313
690.834	0.0164529
690.913	0.0164741
690.991	0.0163676
691.069	0.0163486
691.147	0.0164081
691.225	0.0165755
691.303	0.0164964
691.381	0.0165115
691.459	0.0164539
691.538	0.0164171
691.616	0.0163353
691.694	0.0163344
691.772	0.0161674
691.850	0.0161747
691.928	0.0158354
692.006	0.0157714
692.084	0.0157534
692.163	0.0156412
692.241	0.0155144
692.319	0.0154336
692.397	0.0153573
692.475	0.0153470
692.553	0.0152259
692.631	0.0150447
692.709	0.0150729
692.788	0.0149261
692.866	0.0148763
692.944	0.0149775
693.022	0.0149567
693.100	0.0149129
693.178	0.0149449
693.256	0.0150886
693.334	0.0152213
693.413	0.0153971
693.491	0.0153268
693.569	0.0155295
693.647	0.0157232
693.725	0.0156888
693.803	0.0158711
693.881	0.0159668
693.959	0.0160805
694.038	0.0162428
694.116	0.0163592
694.194	0.0164458
694.272	0.0165474
694.350	0.0166680
694.428	0.0165495
694.506	0.0167499
694.584	0.0167608
694.663	0.0169061
694.741	0.0170429
694.819	0.0169457
694.897	0.0169188
694.975	0.0169515
695.053	0.0171362
695.131	0.0171713
695.209	0.0170094
695.288	0.0168842
695.366	0.0168146
695.444	0.0166057
695.522	0.0166582
695.600	0.0166270
695.678	0.0163962
695.756	0.0162022
695.834	0.0159625
695.913	0.0158723
695.991	0.0156284
696.069	0.0153313
696.147	0.0153013
696.225	0.0150304
696.303	0.0146906
696.381	0.0146758
696.459	0.0143279
696.538	0.0140937
696.616	0.0140745
696.694	0.0139377
696.772	0.0136877
696.850	0.0136246
696.928	0.0134321
697.006	0.0133489
697.084	0.0134263
697.163	0.0136727
697.241	0.0136700
697.319	0.0137596
697.397	0.0139021
697.475	0.0139661
697.553	0.0140536
697.631	0.0145118
697.709	0.0144916
697.788	0.0147012
697.866	0.0150436
697.944	0.0152579
698.022	0.0154083
698.100	0.0157626
698.178	0.0157786
698.256	0.0160577
698.334	0.0163610
698.413	0.0163966
698.491	0.0164261
698.569	0.0167095
698.647	0.0168373
698.725	0.0170081
698.803	0.0169499
698.881	0.0171838
698.959	0.0170789
699.038	0.0172253
699.116	0.0173016
699.194	0.0172033
699.272	0.0171172
699.350	0.0171607
699.428	0.0171621
699.506	0.0173030
699.584	0.0171355
699.663	0.0171974
699.741	0.0172448
699.819	0.0172388
699.897	0.0172851
699.975	0.0174249
700.053	0.0172608
700.131	0.0172288
700.209	0.0171968
700.288	0.0172104
700.366	0.0172142
700.444	0.0170192
700.522	0.0167681
700.600	0.0166424
700.678	0.0166217
700.756	0.0161248
700.834	0.0158237
700.913	0.0157509
700.991	0.0156902
701.069	0.0154166
701.147	0.0150621
701.225	0.0149232
701.303	0.0148036
701.381	0.0145904
701.459	0.0144473
701.538	0.0142387
701.616	0.0140976
701.694	0.0138852
701.772	0.0138653
701.850	0.0135629
701.928	0.0134273
702.006	0.0134478
702.084	0.0134338
702.163	0.0133274
702.241	0.0132447
702.319	0.0133553
702.397	0.0135352
702.475	0.0134886
702.553	0.0135226
702.631	0.0138700
702.709	0.0138693
702.788	0.0142149
702.866	0.0144382
702.944	0.0147552
703.022	0.0149946
703.100	0.0152409
703.178	0.0155440
703.256	0.0157875
703.334	0.0161134
703.413	0.0164393
703.491	0.0164904
703.569	0.0168497
703.647	0.0170557
703.725	0.0172913
703.803	0.0174082
703.881	0.0175638
703.959	0.0176122
704.038	0.0176789
704.116	0.0177534
704.194	0.0175464
704.272	0.0176673
704.350	0.0177740
704.428	0.0176589
704.506	0.0175463
704.584	0.0173512
704.663	0.0171895
704.741	0.0171800
704.819	0.0170425
704.897	0.0169449
704.975	0.0167621
705.053	0.0165178
705.131	0.0164561
705.209	0.0162959
705.288	0.0162785
705.366	0.0160896
705.444	0.0159394
705.522	0.0158435
705.600	0.0155427
705.678	0.0156898
705.756	0.0152895
705.834	0.0154402
705.913	0.0153954
705.991	0.0152457
706.069	0.0151988
706.147	0.0152075
706.225	0.0152596
706.303	0.0151987
706.381	0.0152695
706.459	0.0151834
706.538	0.0153403
706.616	0.0153271
706.694	0.0153781
706.772	0.0154852
706.850	0.0155126
706.928	0.0155262
707.006	0.0157089
707.084	0.0155634
707.163	0.0156152
707.241	0.0158041
707.319	0.0157924
707.397	0.0158176
707.475	0.0158270
707.553	0.0158846
707.631	0.0158531
707.709	0.0158204
707.788	0.0158906
707.866	0.0156150
707.944	0.0155646
708.022	0.0155935
708.100	0.0154160
708.178	0.0153909
708.256	0.0153593
708.334	0.0152618
708.413	0.0151686
708.491	0.0152421
708.569	0.0151566
708.647	0.0152238
708.725	0.0152447
708.803	0.0152189
708.881	0.0153165
708.959	0.0152426
709.038	0.0155377
709.116	0.0155505
709.194	0.0154831
709.272	0.0155378
709.350	0.0157719
709.428	0.0157852
709.506	0.0159045
709.584	0.0160773
709.663	0.0161235
709.741	0.0163374
709.819	0.0161870
709.897	0.0164502
709.975	0.0163761
710.053	0.0163499
710.131	0.0165082
710.209	0.0165471
710.288	0.0165029
710.366	0.0165663
710.444	0.0164508
710.522	0.0166510
710.600	0.0165440
710.678	0.0164190
710.756	0.0163376
710.834	0.0163485
710.913	0.0162733
710.991	0.0161692
711.069	0.0160352
711.147	0.0160638
711.225	0.0160255
711.303	0.0158165
711.381	0.0158646
711.459	0.0157697
711.538	0.0156669
711.616	0.0156232
711.694	0.0155616
711.772	0.0155082
711.850	0.0153620
711.928	0.0152512
712.006	0.0151582
712.084	0.0153056
712.163	0.0151467
712.241	0.0150998
712.319	0.0148960
712.397	0.0148878
712.475	0.0149467
712.553	0.0150164
712.631	0.0150510
712.709	0.0149001
712.788	0.0148600
712.866	0.0149959
712.944	0.0150317
713.022	0.0151842
713.100	0.0151526
713.178	0.0152409
713.256	0.0153698
713.334	0.0154576
713.413	0.0155147
713.491	0.0157160
713.569	0.0159940
713.647	0.0158928
713.725	0.0159744
713.803	0.0162451
713.881	0.0161328
713.959	0.0163725
714.038	0.0164500
714.116	0.0164768
714.194	0.0165070
714.272	0.0165316
714.350	0.0164639
714.428	0.0166727
714.506	0.0164940
714.584	0.0164980
714.663	0.0165408
714.741	0.0164073
714.819	0.0163023
714.897	0.0162680
714.975	0.0162402
715.053	0.0160773
715.131	0.0159484
715.209	0.0158482
715.288	0.0157219
715.366	0.0155815
715.444	0.0154128
715.522	0.0154611
715.600	0.0152966
715.678	0.0150292
715.756	0.0149371
715.834	0.0148222
715.913	0.0148019
715.991	0.0147749
716.069	0.0148153
716.147	0.0147049
716.225	0.0147167
716.303	0.0147195
716.381	0.0147117
716.459	0.0148208
716.538	0.0148576
716.616	0.0148902
716.694	0.0150400
716.772	0.0153010
716.850	0.0152722
716.928	0.0154592
717.006	0.0156538
717.084	0.0156741
717.163	0.0158704
717.241	0.0159492
717.319	0.0159586
717.397	0.0160682
717.475	0.0160672
717.553	0.0161260
717.631	0.0160991
717.709	0.0160989
717.788	0.0161654
717.866	0.0161094
717.944	0.0163493
718.022	0.0161722
718.100	0.0161023
718.178	0.0161950
718.256	0.0162035
718.334	0.0161749
718.413	0.0160756
718.491	0.0160613
718.569	0.0161975
718.647	0.0162258
718.725	0.0161149
718.803	0.0161855
718.881	0.0160875
718.959	0.0161475
719.038	0.0162365
719.116	0.0162604
719.194	0.0160017
719.272	0.0161658
719.350	0.0162067
719.428	0.0161608
719.506	0.0164071
719.584	0.0163079
719.663	0.0162197
719.741	0.0162212
719.819	0.0160331
719.897	0.0160484
719.975	0.0159682
720.053	0.0157986
720.131	0.0156597
720.209	0.0155800
720.288	0.0155953
720.366	0.0154975
720.444	0.0153716
720.522	0.0151989
720.600	0.0152782
720.678	0.0150148
720.756	0.0148905
720.834	0.0147681
720.913	0.0147240
720.991	0.0146403
721.069	0.0146651
721.147	0.0146604
721.225	0.0145154
721.303	0.0145852
721.381	0.0145552
721.459	0.0144936
721.538	0.0147481
721.616	0.0148498
721.694	0.0148233
721.772	0.0149182
721.850	0.0151213
721.928	0.0151170
722.006	0.0153559
722.084	0.0155737
722.163	0.0157316
722.241	0.0158712
722.319	0.0160025
722.397	0.0162281
722.475	0.0163042
722.553	0.0163351
722.631	0.0165221
722.709	0.0166930
722.788	0.0167798
722.866	0.0169758
722.944	0.0169165
723.022	0.0169982
723.100	0.0168468
723.178	0.0171041
723.256	0.0170287
723.334	0.0168709
723.413	0.0169413
723.491	0.0168867
723.569	0.0167270
723.647	0.0166116
723.725	0.0165387
723.803	0.0163383
723.881	0.0162047
723.959	0.0162245
724.038	0.0159838
724.116	0.0157227
724.194	0.0155535
724.272	0.0155676
724.350	0.0153616
724.428	0.0153893
724.506	0.0153841
724.584	0.0153210
724.663	0.0151775
724.741	0.0151928
724.819	0.0153400
724.897	0.0152615
724.975	0.0152406
725.053	0.0152143
725.131	0.0153246
725.209	0.0154058
725.288	0.0154771
725.366	0.0156290
725.444	0.0156128
725.522	0.0156467
725.600	0.0156851
725.678	0.0157677
725.756	0.0155259
725.834	0.0156244
725.913	0.0156093
725.991	0.0154971
726.069	0.0154621
726.147	0.0157040
726.225	0.0153631
726.303	0.0153949
726.381	0.0153751
726.459	0.0153916
726.538	0.0153105
726.616	0.0152826
726.694	0.0154785
726.772	0.0153085
726.850	0.0152354
726.928	0.0152794
727.006	0.0153617
727.084	0.0152847
727.163	0.0151279
727.241	0.0152811
727.319	0.0153873
727.397	0.0153974
727.475	0.0153690
727.553	0.0154251
727.631	0.0154831
727.709	0.0156625
727.788	0.0157624
727.866	0.0157560
727.944	0.0157010
728.022	0.0156988
728.100	0.0158132
728.178	0.0158834
728.256	0.0157619
728.334	0.0157781
728.413	0.0158305
728.491	0.0158179
728.569	0.0157397
728.647	0.0157363
728.725	0.0158382
728.803	0.0161024
728.881	0.0160523
728.959	0.0161935
729.038	0.0162260
729.116	0.0165125
729.194	0.0164947
729.272	0.0164568
729.350	0.0167205
729.428	0.0168647
729.506	0.0170880
729.584	0.0171291
729.663	0.0170834
729.741	0.0172104
729.819	0.0172570
729.897	0.0171791
729.975	0.0172832
730.053	0.0171922
730.131	0.0170744
730.209	0.0169959
730.288	0.0168928
730.366	0.0166265
730.444	0.0164703
730.522	0.0163216
730.600	0.0160854
730.678	0.0158607
730.756	0.0155941
730.834	0.0153413
730.913	0.0150403
730.991	0.0149117
731.069	0.0147801
731.147	0.0144547
731.225	0.0141930
731.303	0.0141298
731.381	0.0140510
731.459	0.0140048
731.538	0.0139354
731.616	0.0138884
731.694	0.0139445
731.772	0.0139038
731.850	0.0140798
731.928	0.0139976
732.006	0.0141368
732.084	0.0142676
732.163	0.0144151
732.241	0.0146105
732.319	0.0149186
732.397	0.0151315
732.475	0.0153157
732.553	0.0153275
732.631	0.0155436
732.709	0.0157690
732.788	0.0158807
732.866	0.0160040
732.944	0.0162904
733.022	0.0163892
733.100	0.0164123
733.178	0.0164186
733.256	0.0165794
733.334	0.0165882
733.413	0.0167252
733.491	0.0166068
733.569	0.0165759
733.647	0.0163834
733.725	0.0165740
733.803	0.0164728
733.881	0.0161948
733.959	0.0162836
734.038	0.0162270
734.116	0.0163038
734.194	0.0162244
734.272	0.0160487
734.350	0.0160796
734.428	0.0159203
734.506	0.0159584
734.584	0.0158467
734.663	0.0158369
734.741	0.0156804
734.819	0.0156494
734.897	0.0156953
734.975	0.0157209
735.053	0.0157608
735.131	0.0155156
735.209	0.0155598
735.288	0.0155829
735.366	0.0156678
735.444	0.0157430
735.522	0.0155365
735.600	0.0156715
735.678	0.0154781
735.756	0.0155134
735.834	0.0156120
735.913	0.0156770
735.991	0.0154939
736.069	0.0156172
736.147	0.0156773
736.225	0.0156284
736.303	0.0157188
736.381	0.0157284
736.459	0.0157556
736.538	0.0155815
736.616	0.0156538
736.694	0.0157409
736.772	0.0157089
736.850	0.0156060
736.928	0.0156452
737.006	0.0155975
737.084	0.0156721
737.163	0.0156953
737.241	0.0155973
737.319	0.0155154
737.397	0.0157050
737.475	0.0155296
737.553	0.0155091
737.631	0.0155534
737.709	0.0154874
737.788	0.0155035
737.866	0.0155101
737.944	0.0154371
738.022	0.0153699
738.100	0.0155430
738.178	0.0153836
738.256	0.0154489
738.334	0.0154124
738.413	0.0153255
738.491	0.0152747
738.569	0.0152906
738.647	0.0154427
738.725	0.0153888
738.803	0.0152688
738.881	0.0154496
738.959	0.0155061
739.038	0.0154540
739.116	0.0156247
739.194	0.0156265
739.272	0.0155441
739.350	0.0159255
739.428	0.0158169
739.506	0.0157870
739.584	0.0159982
739.663	0.0161821
739.741	0.0161210
739.819	0.0161225
739.897	0.0162018
739.975	0.0163181
740.053	0.0161457
740.131	0.0161395
740.209	0.0160356
740.288	0.0159643
740.366	0.0159433
740.444	0.0157124
740.522	0.0157241
740.600	0.0158592
740.678	0.0155359
740.756	0.0156533
740.834	0.0154751
740.913	0.0154134
740.991	0.0152616
741.069	0.0153042
741.147	0.0152071
741.225	0.0152199
741.303	0.0152254
741.381	0.0152924
741.459	0.0153024
741.538	0.0154478
741.616	0.0153037
741.694	0.0153800
741.772	0.0154818
741.850	0.0155635
741.928	0.0155730
742.006	0.0156662
742.084	0.0157088
742.163	0.0156300
742.241	0.0158212
742.319	0.0159308
742.397	0.0159691
742.475	0.0159742
742.553	0.0160508
742.631	0.0160773
742.709	0.0160780
742.788	0.0160366
742.866	0.0160432
742.944	0.0161435
743.022	0.0162229
743.100	0.0159607
743.178	0.0161446
743.256	0.0161708
743.334	0.0161420
743.413	0.0161357
743.491	0.0161714
743.569	0.0161719
743.647	0.0160083
743.725	0.0162086
743.803	0.0163721
743.881	0.0162801
743.959	0.0161729
744.038	0.0162189
744.116	0.0161926
744.194	0.0161908
744.272	0.0160475
744.350	0.0161624
744.428	0.0160244
744.506	0.0158867
744.584	0.0158655
744.663	0.0158762
744.741	0.0157603
744.819	0.0158216
744.897	0.0157223
744.975	0.0156730
745.053	0.0155535
745.131	0.0154333
745.209	0.0155839
745.288	0.0154327
745.366	0.0153304
745.444	0.0152850
745.522	0.0151981
745.600	0.0152147
745.678	0.0152005
745.756	0.0150843
745.834	0.0150549
745.913	0.0150255
745.991	0.0150855
746.069	0.0150908
746.147	0.0150123
746.225	0.0149030
746.303	0.0148322
746.381	0.0149995
746.459	0.0149142
746.538	0.0150716
746.616	0.0150315
746.694	0.0149318
746.772	0.0150695
746.850	0.0152657
746.928	0.0150887
747.006	0.0151217
747.084	0.0152174
747.163	0.0151318
747.241	0.0154199
747.319	0.0155102
747.397	0.0155641
747.475	0.0158107
747.553	0.0159505
747.631	0.0160183
747.709	0.0161533
747.788	0.0161968
747.866	0.0166392
747.944	0.0165645
748.022	0.0165243
748.100	0.0166565
748.178	0.0168034
748.256	0.0168153
748.334	0.0166679
748.413	0.0167179
748.491	0.0167439
748.569	0.0165636
748.647	0.0164526
748.725	0.0163175
748.803	0.0162848
748.881	0.0161222
748.959	0.0159326
749.038	0.0158667
749.116	0.0157657
749.194	0.0155469
749.272	0.0154095
749.350	0.0153049
749.428	0.0152947
749.506	0.0153263
749.584	0.0152206
749.663	0.0153026
749.741	0.0152284
749.819	0.0150848
749.897	0.0152116
749.975	0.0152291
750.053	0.0152837
750.131	0.0152695
750.209	0.0154820
750.288	0.0154301
750.366	0.0155550
750.444	0.0155939
750.522	0.0155101
750.600	0.0156286
750.678	0.0156918
750.756	0.0158095
750.834	0.0159093
750.913	0.0160097
750.991	0.0159315
751.069	0.0157829
751.147	0.0160304
751.225	0.0159495
751.303	0.0160104
751.381	0.0159290
751.459	0.0160394
751.538	0.0159372
751.616	0.0159501
751.694	0.0158482
751.772	0.0160416
751.850	0.0158421
751.928	0.0159755
752.006	0.0159988
752.084	0.0158590
752.163	0.0158747
752.241	0.0157606
752.319	0.0157851
752.397	0.0156457
752.475	0.0155145
752.553	0.0156564
752.631	0.0155505
752.709	0.0153559
752.788	0.0154145
752.866	0.0154301
752.944	0.0152440
753.022	0.0154001
753.100	0.0152499
753.178	0.0152128
753.256	0.0150957
753.334	0.0152714
753.413	0.0151391
753.491	0.0150181
753.569	0.0150847
753.647	0.0152245
753.725	0.0152373
753.803	0.0154236
753.881	0.0155076
753.959	0.0155374
754.038	0.0154301
754.116	0.0156540
754.194	0.0157529
754.272	0.0158463
754.350	0.0159332
754.428	0.0158854
754.506	0.0160285
754.584	0.0159990
754.663	0.0160501
754.741	0.0161873
754.819	0.0161164
754.897	0.0158650
754.975	0.0158171
755.053	0.0158713
755.131	0.0157003
755.209	0.0155520
755.288	0.0153729
755.366	0.0153588
755.444	0.0153410
755.522	0.0152883
755.600	0.0152109
755.678	0.0150745
755.756	0.0150542
755.834	0.0150676
755.913	0.0150784
755.991	0.0150881
756.069	0.0151967
756.147	0.0153443
756.225	0.0154985
756.303	0.0154729
756.381	0.0155366
756.459	0.0158018
756.538	0.0159914
756.616	0.0161954
756.694	0.0161801
756.772	0.0163195
756.850	0.0165544
756.928	0.0165051
757.006	0.0164535
757.084	0.0166898
757.163	0.0166855
757.241	0.0165894
757.319	0.0164941
757.397	0.0165475
757.475	0.0163506
757.553	0.0162663
757.631	0.0161752
757.709	0.0158174
757.788	0.0156806
757.866	0.0156947
757.944	0.0155204
758.022	0.0151352
758.100	0.0153727
758.178	0.0149805
758.256	0.0149162
758.334	0.0149169
758.413	0.0147864
758.491	0.0148014
758.569	0.0148049
758.647	0.0148890
758.725	0.0148787
758.803	0.0147337
758.881	0.0147353
758.959	0.0148907
759.038	0.0151110
759.116	0.0150150
759.194	0.0151194
759.272	0.0150909
759.350	0.0152273
759.428	0.0155727
759.506	0.0154179
759.584	0.0156165
759.663	0.0155804
759.741	0.0155718
759.819	0.0155830
759.897	0.0156866
759.975	0.0157693
760.053	0.0158666
760.131	0.0158975
760.209	0.0159311
760.288	0.0160385
760.366	0.0158781
760.444	0.0159740
760.522	0.0158770
760.600	0.0158617
760.678	0.0158300
760.756	0.0159483
760.834	0.0158567
760.913	0.0159034
760.991	0.0158827
761.069	0.0158486
761.147	0.0158505
761.225	0.0158424
761.303	0.0159891
761.381	0.0159512
761.459	0.0159468
761.538	0.0159793
761.616	0.0162091
761.694	0.0162569
761.772	0.0162122
761.850	0.0162603
761.928	0.0161482
762.006	0.0162856
762.084	0.0162663
762.163	0.0162796
762.241	0.0162643
762.319	0.0162444
762.397	0.0162454
762.475	0.0161667
762.553	0.0161407
762.631	0.0159375
762.709	0.0160120
762.788	0.0159617
762.866	0.0159612
762.944	0.0159325
763.022	0.0159637
763.100	0.0157863
763.178	0.0157774
763.256	0.0156370
763.334	0.0156694
763.413	0.0156020
763.491	0.0156398
763.569	0.0154831
763.647	0.0154269
763.725	0.0155033
763.803	0.0151675
763.881	0.0151034
763.959	0.0152602
764.038	0.0151891
764.116	0.0151083
764.194	0.0152113
764.272	0.0151910
764.350	0.0150961
764.428	0.0150674
764.506	0.0149835
764.584	0.0150512
764.663	0.0150854
764.741	0.0150021
764.819	0.0152085
764.897	0.0150578
764.975	0.0153698
765.053	0.0154034
765.131	0.0155524
765.209	0.0156281
765.288	0.0159347
765.366	0.0159560
765.444	0.0160587
765.522	0.0161922
765.600	0.0163118
765.678	0.0163631
765.756	0.0165093
765.834	0.0165233
765.913	0.0167616
765.991	0.0166725
766.069	0.0164857
766.147	0.0164821
766.225	0.0164877
766.303	0.0164317
766.381	0.0163097
766.459	0.0162576
766.538	0.0160693
766.616	0.0158116
766.694	0.0157322
766.772	0.0157110
766.850	0.0154902
766.928	0.0153942
767.006	0.0153870
767.084	0.0150701
767.163	0.0151405
767.241	0.0150664
767.319	0.0149201
767.397	0.0148792
767.475	0.0147542
767.553	0.0149885
767.631	0.0148132
767.709	0.0148895
767.788	0.0150586
767.866	0.0150238
767.944	0.0151965
768.022	0.0152593
768.100	0.0155624
768.178	0.0154726
768.256	0.0156561
768.334	0.0156778
768.413	0.0157583
768.491	0.0159122
768.569	0.0160591
768.647	0.0161414
768.725	0.0162647
768.803	0.0163537
768.881	0.0165035
768.959	0.0163653
769.038	0.0165117
769.116	0.0165234
769.194	0.0165054
769.272	0.0163783
769.350	0.0164064
769.428	0.0163979
769.506	0.0162387
769.584	0.0161949
769.663	0.0161489
769.741	0.0160328
769.819	0.0159366
769.897	0.0158255
769.975	0.0157312
770.053	0.0157097
770.131	0.0155305
770.209	0.0153543
770.288	0.0154095
770.366	0.0153290
770.444	0.0154261
770.522	0.0152892
770.600	0.0152863
770.678	0.0153786
770.756	0.0152715
770.834	0.0153591
770.913	0.0155173
770.991	0.0155299
771.069	0.0154742
771.147	0.0155896
771.225	0.0157883
771.303	0.0158867
771.381	0.0158760
771.459	0.0158839
771.538	0.0160356
771.616	0.0160696
771.694	0.0160747
771.772	0.0161988
771.850	0.0160353
771.928	0.0161636
772.006	0.0160329
772.084	0.0159332
772.163	0.0158136
772.241	0.0157929
772.319	0.0157740
772.397	0.0156374
772.475	0.0154153
772.553	0.0154169
772.631	0.0152192
772.709	0.0152310
772.788	0.0150200
772.866	0.0149749
772.944	0.0149001
773.022	0.0149014
773.100	0.0148348
773.178	0.0149575
773.256	0.0149919
773.334	0.0149273
773.413	0.0150452
773.491	0.0150931
773.569	0.0151157
773.647	0.0153986
773.725	0.0154624
773.803	0.0154984
773.881	0.0155154
773.959	0.0157291
774.038	0.0158812
774.116	0.0160768
774.194	0.0161591
774.272	0.0160661
774.350	0.0163954
774.428	0.0164336
774.506	0.0162538
774.584	0.0164368
774.663	0.0165668
774.741	0.0165039
774.819	0.0164206
774.897	0.0162811
774.975	0.0164429
775.053	0.0161842
775.131	0.0162072
775.209	0.0160979
775.288	0.0160582
775.366	0.0159833
775.444	0.0159563
775.522	0.0156790
775.600	0.0156571
775.678	0.0156822
775.756	0.0156458
775.834	0.0155182
775.913	0.0154629
775.991	0.0155415
776.069	0.0153585
776.147	0.0153129
776.225	0.0154766
776.303	0.0154391
776.381	0.0155390
776.459	0.0155778
776.538	0.0156026
776.616	0.0155734
776.694	0.0155408
776.772	0.0155898
776.850	0.0157641
776.928	0.0158618
777.006	0.0157253
777.084	0.0157984
777.163	0.0158778
777.241	0.0159042
777.319	0.0157665
777.397	0.0157361
777.475	0.0159316
777.553	0.0159142
777.631	0.0157280
777.709	0.0157275
777.788	0.0155919
777.866	0.0155635
777.944	0.0154984
778.022	0.0154410
778.100	0.0153165
778.178	0.0152865
778.256	0.0153430
778.334	0.0152642
778.413	0.0151917
778.491	0.0153976
778.569	0.0151362
778.647	0.0151921
778.725	0.0153233
778.803	0.0153279
778.881	0.0152299
778.959	0.0154934
779.038	0.0154961
779.116	0.0156261
779.194	0.0158242
779.272	0.0157871
779.350	0.0158961
779.428	0.0158979
779.506	0.0160304
779.584	0.0159826
779.663	0.0160831
779.741	0.0159911
779.819	0.0160946
779.897	0.0161179
779.975	0.0161428
780.053	0.0160351
780.131	0.0159415
780.209	0.0159579
780.288	0.0159575
780.366	0.0159630
780.444	0.0159451
780.522	0.0159254
780.600	0.0159122
780.678	0.0161292
780.756	0.0160351
780.834	0.0160565
780.913	0.0159875
780.991	0.0158632
781.069	0.0157659
781.147	0.0157613
781.225	0.0156806
781.303	0.0156339
781.381	0.0154845
781.459	0.0155759
781.538	0.0155315
781.616	0.0153728
781.694	0.0153271
781.772	0.0153693
781.850	0.0153184
781.928	0.0152594
782.006	0.0152291
782.084	0.0151329
782.163	0.0151476
782.241	0.0153374
782.319	0.0153656
782.397	0.0153094
782.475	0.0154189
782.553	0.0153775
782.631	0.0154294
782.709	0.0155173
782.788	0.0154408
782.866	0.0156569
782.944	0.0157865
783.022	0.0157993
783.100	0.0158598
783.178	0.0159195
783.256	0.0160110
783.334	0.0159686
783.413	0.0160526
783.491	0.0159604
783.569	0.0159550
783.647	0.0160462
783.725	0.0159903
783.803	0.0159871
783.881	0.0160160
783.959	0.0160005
784.038	0.0159525
784.116	0.0158360
784.194	0.0159376
784.272	0.0159351
784.350	0.0158975
784.428	0.0159735
784.506	0.0160131
784.584	0.0160596
784.663	0.0160387
784.741	0.0160249
784.819	0.0159724
784.897	0.0161139
784.975	0.0159245
785.053	0.0161816
785.131	0.0161051
785.209	0.0160178
785.288	0.0160351
785.366	0.0161646
785.444	0.0161015
785.522	0.0160615
785.600	0.0163029
785.678	0.0160930
785.756	0.0159812
785.834	0.0160039
785.913	0.0159308
785.991	0.0158388
786.069	0.0157845
786.147	0.0157828
786.225	0.0157579
786.303	0.0156554
786.381	0.0157517
786.459	0.0157222
786.538	0.0156040
786.616	0.0154592
786.694	0.0154610
786.772	0.0154829
786.850	0.0153166
786.928	0.0154212
787.006	0.0153999
787.084	0.0154415
787.163	0.0154619
787.241	0.0154435
787.319	0.0153270
787.397	0.0152621
787.475	0.0152866
787.553	0.0153981
787.631	0.0153480
787.709	0.0155086
787.788	0.0153735
787.866	0.0156428
787.944	0.0154867
788.022	0.0154511
788.100	0.0155064
788.178	0.0156770
788.256	0.0156990
788.334	0.0157152
788.413	0.0156285
788.491	0.0156573
788.569	0.0157157
788.647	0.0157199
788.725	0.0155757
788.803	0.0157088
788.881	0.0157217
788.959	0.0158183
789.038	0.0157230
789.116	0.0158292
789.194	0.0159168
789.272	0.0157665
789.350	0.0158506
789.428	0.0159038
789.506	0.0158250
789.584	0.0159693
789.663	0.0159888
789.741	0.0160748
789.819	0.0160075
789.897	0.0159147
789.975	0.0160806
790.053	0.0160530
790.131	0.0160541
790.209	0.0160559
790.288	0.0159792
790.366	0.0157918
790.444	0.0159751
790.522	0.0159611
790.600	0.0159473
790.678	0.0158470
790.756	0.0158808
790.834	0.0157776
790.913	0.0158515
790.991	0.0157468
791.069	0.0158454
791.147	0.0157190
791.225	0.0156710
791.303	0.0157974
791.381	0.0158117
791.459	0.0156374
791.538	0.0157887
791.616	0.0157668
791.694	0.0157733
791.772	0.0157468
791.850	0.0156742
791.928	0.0155128
792.006	0.0156703
792.084	0.0156897
792.163	0.0157433
792.241	0.0156755
792.319	0.0156040
792.397	0.0157358
792.475	0.0156808
792.553	0.0156656
792.631	0.0156860
792.709	0.0154790
792.788	0.0156615
792.866	0.0156670
792.944	0.0155472
793.022	0.0155746
793.100	0.0154708
793.178	0.0154761
793.256	0.0156705
793.334	0.0154559
793.413	0.0154540
793.491	0.0155788
793.569	0.0154060
793.647	0.0154749
793.725	0.0154887
793.803	0.0155303
793.881	0.0154713
793.959	0.0154503
794.038	0.0155726
794.116	0.0154710
794.194	0.0154011
794.272	0.0153822
794.350	0.0154530
794.428	0.0154765
794.506	0.0155067
794.584	0.0155354
794.663	0.0154465
794.741	0.0154820
794.819	0.0155361
794.897	0.0154149
794.975	0.0154608
795.053	0.0154169
795.131	0.0155333
795.209	0.0154832
795.288	0.0155930
795.366	0.0155125
795.444	0.0155315
795.522	0.0156169
795.600	0.0156638
795.678	0.0156573
795.756	0.0156075
795.834	0.0156264
795.913	0.0158229
795.991	0.0156982
796.069	0.0156754
796.147	0.0157595
796.225	0.0156489
796.303	0.0157480
796.381	0.0157700
796.459	0.0157839
796.538	0.0157127
796.616	0.0158958
796.694	0.0160785
796.772	0.0159374
796.850	0.0158512
796.928	0.0159342
797.006	0.0160429
797.084	0.0159499
797.163	0.0159844
797.241	0.0161265
797.319	0.0160482
797.397	0.0159953
797.475	0.0160595
797.553	0.0160268
797.631	0.0160483
797.709	0.0161176
797.788	0.0160373
797.866	0.0162135
797.944	0.0160871
798.022	0.0159951
798.100	0.0158976
798.178	0.0159126
798.256	0.0158060
798.334	0.0157751
798.413	0.0156322
798.491	0.0156374
798.569	0.0155274
798.647	0.0155292
798.725	0.0155496
798.803	0.0155262
798.881	0.0156436
798.959	0.0154230
799.038	0.0154343
799.116	0.0154407
799.194	0.0154243
799.272	0.0153258
799.350	0.0152570
799.428	0.0153658
799.506	0.0155090
799.584	0.0153093
799.663	0.0153477
799.741	0.0153688
799.819	0.0153898
799.897	0.0154653
799.975	0.0154659
800.053	0.0155300
800.131	0.0156054
800.209	0.0157054
800.288	0.0158335
800.366	0.0157122
800.444	0.0158070
800.522	0.0159125
800.600	0.0157687
800.678	0.0158160
800.756	0.0158801
800.834	0.0158813
800.913	0.0158443
800.991	0.0158784
801.069	0.0159108
801.147	0.0159314
801.225	0.0158450
801.303	0.0159755
801.381	0.0159597
801.459	0.0159858
801.538	0.0160989
801.616	0.0159306
801.694	0.0159286
801.772	0.0159550
801.850	0.0158737
801.928	0.0159659
802.006	0.0159015
802.084	0.0159915
802.163	0.0159194
802.241	0.0158281
802.319	0.0157005
802.397	0.0157967
802.475	0.0157644
802.553	0.0157651
802.631	0.0158139
802.709	0.0157011
802.788	0.0156683
802.866	0.0156910
802.944	0.0158505
803.022	0.0157985
803.100	0.0157045
803.178	0.0156634
803.256	0.0157079
803.334	0.0156477
803.413	0.0157800
803.491	0.0157017
803.569	0.0155527
803.647	0.0156252
803.725	0.0155853
803.803	0.0155907
803.881	0.0156416
803.959	0.0156672
804.038	0.0155394
804.116	0.0156903
804.194	0.0155651
804.272	0.0156395
804.350	0.0157108
804.428	0.0156886
804.506	0.0157047
804.584	0.0156708
804.663	0.0155577
804.741	0.0156102
804.819	0.0157145
804.897	0.0156528
804.975	0.0155714
805.053	0.0156390
805.131	0.0154643
805.209	0.0156024
805.288	0.0155724
805.366	0.0155099
805.444	0.0155707
805.522	0.0155542
805.600	0.0157330
805.678	0.0155298
805.756	0.0155775
805.834	0.0157002
805.913	0.0156470
805.991	0.0156229
806.069	0.0157522
806.147	0.0157098
806.225	0.0158003
806.303	0.0158583
806.381	0.0157719
806.459	0.0157683
806.538	0.0158456
806.616	0.0158263
806.694	0.0158598
806.772	0.0159206
806.850	0.0158496
806.928	0.0158044
807.006	0.0158890
807.084	0.0159439
807.163	0.0159503
807.241	0.0159352
807.319	0.0160146
807.397	0.0159794
807.475	0.0159962
807.553	0.0158453
807.631	0.0159279
807.709	0.0158983
807.788	0.0158931
807.866	0.0157875
807.944	0.0158680
808.022	0.0157959
808.100	0.0158075
808.178	0.0158853
808.256	0.0157440
808.334	0.0157271
808.413	0.0157430
808.491	0.0157198
808.569	0.0155144
808.647	0.0155710
808.725	0.0155573
808.803	0.0155585
808.881	0.0156941
808.959	0.0155476
809.038	0.0156174
809.116	0.0155046
809.194	0.0155369
809.272	0.0155557
809.350	0.0155322
809.428	0.0155327
809.506	0.0155045
809.584	0.0154955
809.663	0.0154648
809.741	0.0156178
809.819	0.0157029
809.897	0.0155505
809.975	0.0154950
810.053	0.0156362
810.131	0.0155358
810.209	0.0156161
810.288	0.0157093
810.366	0.0157714
810.444	0.0157262
810.522	0.0156008
810.600	0.0157230
810.678	0.0157698
810.756	0.0157365
810.834	0.0157001
810.913	0.0158143
810.991	0.0157386
811.069	0.0156866
811.147	0.0157102
811.225	0.0158781
811.303	0.0156455
811.381	0.0156667
811.459	0.0156187
811.538	0.0156726
811.616	0.0157313
811.694	0.0157132
811.772	0.0155868
811.850	0.0155727
811.928	0.0156456
812.006	0.0156407
812.084	0.0155617
812.163	0.0156196
812.241	0.0157073
812.319	0.0157397
812.397	0.0156915
812.475	0.0156337
812.553	0.0156322
812.631	0.0156782
812.709	0.0156008
812.788	0.0157095
812.866	0.0157352
812.944	0.0157079
813.022	0.0157036
813.100	0.0157219
813.178	0.0157267
813.256	0.0157643
813.334	0.0158625
813.413	0.0156315
813.491	0.0156935
813.569	0.0156388
813.647	0.0157339
813.725	0.0155403
813.803	0.0157518
813.881	0.0156197
813.959	0.0156019
814.038	0.0156789
814.116	0.0158022
814.194	0.0157541
814.272	0.0157521
814.350	0.0158156
814.428	0.0158247
814.506	0.0158373
814.584	0.0156637
814.663	0.0156936
814.741	0.0157868
814.819	0.0157736
814.897	0.0159100
814.975	0.0156470
815.053	0.0158588
815.131	0.0160037
815.209	0.0157011
815.288	0.0157871
815.366	0.0156618
815.444	0.0157540
815.522	0.0157927
815.600	0.0156693
815.678	0.0157840
815.756	0.0156724
815.834	0.0157139
815.913	0.0157137
815.991	0.0157899
816.069	0.0156399
816.147	0.0156688
816.225	0.0157155
816.303	0.0156319
816.381	0.0156156
816.459	0.0157751
816.538	0.0156744
816.616	0.0156580
816.694	0.0156499
816.772	0.0157491
816.850	0.0158005
816.928	0.0155970
817.006	0.0155754
817.084	0.0155946
817.163	0.0155865
817.241	0.0155579
817.319	0.0155030
817.397	0.0155465
817.475	0.0155220
817.553	0.0154397
817.631	0.0154641
817.709	0.0154603
817.788	0.0154094
817.866	0.0154259
817.944	0.0154191
818.022	0.0152996
818.100	0.0153997
818.178	0.0154544
818.256	0.0154576
818.334	0.0154649
818.413	0.0153948
818.491	0.0155608
818.569	0.0156513
818.647	0.0154692
818.725	0.0155589
818.803	0.0155893
818.881	0.0157691
818.959	0.0156355
819.038	0.0157463
819.116	0.0158541
819.194	0.0157647
819.272	0.0156650
819.350	0.0158169
819.428	0.0158691
819.506	0.0158917
819.584	0.0157111
819.663	0.0158193
819.741	0.0158517
819.819	0.0157973
819.897	0.0159156
819.975	0.0157465
820.053	0.0158372
820.131	0.0157081
820.209	0.0158646
820.288	0.0158047
820.366	0.0157731
820.444	0.0156448
820.522	0.0157034
820.600	0.0157236
820.678	0.0157545
820.756	0.0157198
820.834	0.0157671
820.913	0.0157721
820.991	0.0156460
821.069	0.0157456
821.147	0.0156975
821.225	0.0157661
821.303	0.0156916
821.381	0.0156973
821.459	0.0157201
821.538	0.0157470
821.616	0.0158238
821.694	0.0157091
821.772	0.0157265
821.850	0.0156120
821.928	0.0157891
822.006	0.0155810
822.084	0.0155476
822.163	0.0155795
822.241	0.0156815
822.319	0.0156493
822.397	0.0156618
822.475	0.0155682
822.553	0.0155529
822.631	0.0156690
822.709	0.0156529
822.788	0.0156899
822.866	0.0155773
822.944	0.0154548
823.022	0.0154436
823.100	0.0156251
823.178	0.0155598
823.256	0.0155582
823.334	0.0155560
823.413	0.0155354
823.491	0.0157579
823.569	0.0156725
823.647	0.0155651
823.725	0.0156803
823.803	0.0155525
823.881	0.0157676
823.959	0.0155458
824.038	0.0154396
824.116	0.0155618
824.194	0.0156196
824.272	0.0155493
824.350	0.0155497
824.428	0.0157405
824.506	0.0156622
824.584	0.0156693
824.663	0.0156560
824.741	0.0157777
824.819	0.0158443
824.897	0.0157235
824.975	0.0156776
825.053	0.0158319
825.131	0.0157921
825.209	0.0157626
825.288	0.0159070
825.366	0.0159032
825.444	0.0159483
825.522	0.0160336
825.600	0.0159696
825.678	0.0159506
825.756	0.0159568
825.834	0.0158567
825.913	0.0160692
825.991	0.0160785
826.069	0.0159207
826.147	0.0159109
826.225	0.0159720
826.303	0.0159354
826.381	0.0159441
826.459	0.0159721
826.538	0.0159208
826.616	0.0159813
826.694	0.0159562
826.772	0.0157524
826.850	0.0157771
826.928	0.0157601
827.006	0.0157773
827.084	0.0156622
827.163	0.0156803
827.241	0.0156843
827.319	0.0156198
827.397	0.0156888
827.475	0.0155766
827.553	0.0154900
827.631	0.0155169
827.709	0.0155223
827.788	0.0155303
827.866	0.0156313
827.944	0.0154443
828.022	0.0152897
828.100	0.0156352
828.178	0.0155537
828.256	0.0154059
828.334	0.0156036
828.413	0.0156435
828.491	0.0157067
828.569	0.0156474
828.647	0.0154999
828.725	0.0156377
828.803	0.0156271
828.881	0.0156780
828.959	0.0156728
829.038	0.0158221
829.116	0.0157072
829.194	0.0158221
829.272	0.0158158
829.350	0.0159341
829.428	0.0158177
829.506	0.0158655
829.584	0.0157665
829.663	0.0158358
829.741	0.0158035
829.819	0.0158723
829.897	0.0157413
829.975	0.0158728
830.053	0.0160122
830.131	0.0159403
830.209	0.0158688
830.288	0.0159499
830.366	0.0159307
830.444	0.0158791
830.522	0.0157472
830.600	0.0157799
830.678	0.0159164
830.756	0.0155527
830.834	0.0158064
830.913	0.0157912
830.991	0.0157634
831.069	0.0157715
831.147	0.0157133
831.225	0.0157891
831.303	0.0156775
831.381	0.0156526
831.459	0.0157188
831.538	0.0157104
831.616	0.0157376
831.694	0.0157257
831.772	0.0156516
831.850	0.0156153
831.928	0.0156120
832.006	0.0155631
832.084	0.0155141
832.163	0.0156290
832.241	0.0156075
832.319	0.0155565
832.397	0.0156834
832.475	0.0156071
832.553	0.0155238
832.631	0.0157440
832.709	0.0155377
832.788	0.0155391
832.866	0.0154947
832.944	0.0155923
833.022	0.0155650
833.100	0.0155917
833.178	0.0156291
833.256	0.0155468
833.334	0.0157384
833.413	0.0156335
833.491	0.0155495
833.569	0.0155126
833.647	0.0155859
833.725	0.0155486
833.803	0.0155481
833.881	0.0154768
833.959	0.0154633
834.038	0.0155660
834.116	0.0154752
834.194	0.0156515
834.272	0.0155621
834.350	0.0153969
834.428	0.0154289
834.506	0.0154566
834.584	0.0154217
834.663	0.0154218
834.741	0.0154216
834.819	0.0153008
834.897	0.0154288
834.975	0.0153974
835.053	0.0154507
835.131	0.0155055
835.209	0.0153485
835.288	0.0153434
835.366	0.0154118
835.444	0.0155337
835.522	0.0155379
835.600	0.0154825
835.678	0.0155569
835.756	0.0154271
835.834	0.0156306
835.913	0.0156388
835.991	0.0156194
836.069	0.0156995
836.147	0.0157208
836.225	0.0157849
836.303	0.0157018
836.381	0.0157997
836.459	0.0157704
836.538	0.0157885
836.616	0.0159138
836.694	0.0157967
836.772	0.0157750
836.850	0.0157964
836.928	0.0158746
837.006	0.0159212
837.084	0.0158070
837.163	0.0158157
837.241	0.0157554
837.319	0.0157345
837.397	0.0156465
837.475	0.0157289
837.553	0.0157890
837.631	0.0157660
837.709	0.0156365
837.788	0.0157067
837.866	0.0157242
837.944	0.0155959
838.022	0.0158657
838.100	0.0157708
838.178	0.0158318
838.256	0.0157802
838.334	0.0157063
838.413	0.0155530
838.491	0.0156258
838.569	0.0156238
838.647	0.0156864
838.725	0.0156399
838.803	0.0156072
838.881	0.0156684
838.959	0.0156110
839.038	0.0156099
839.116	0.0155382
839.194	0.0156377
839.272	0.0157721
839.350	0.0156669
839.428	0.0156567
839.506	0.0155710
839.584	0.0157372
839.663	0.0156831
839.741	0.0157047
839.819	0.0156979
839.897	0.0156352
839.975	0.0157850
840.053	0.0157731
840.131	0.0158219
840.209	0.0158749
840.288	0.0157581
840.366	0.0157533
840.444	0.0158257
840.522	0.0158578
840.600	0.0158490
840.678	0.0158841
840.756	0.0158196
840.834	0.0159142
840.913	0.0159125
840.991	0.0159982
841.069	0.0158735
841.147	0.0158203
841.225	0.0158242
841.303	0.0157394
841.381	0.0157523
841.459	0.0157278
841.538	0.0158481
841.616	0.0158669
841.694	0.0158501
841.772	0.0157692
841.850	0.0158074
841.928	0.0157658
842.006	0.0157059
842.084	0.0157976
842.163	0.0157138
842.241	0.0159024
842.319	0.0156589
842.397	0.0157294
842.475	0.0156991
842.553	0.0156067
842.631	0.0157399
842.709	0.0156440
842.788	0.0156709
842.866	0.0157906
842.944	0.0156138
843.022	0.0156350
843.100	0.0156463
843.178	0.0156629
843.256	0.0155080
843.334	0.0155312
843.413	0.0156343
843.491	0.0156106
843.569	0.0155896
843.647	0.0155583
843.725	0.0155737
843.803	0.0154671
843.881	0.0155061
843.959	0.0156893
844.038	0.0156343
844.116	0.0156421
844.194	0.0157056
844.272	0.0155784
844.350	0.0157184
844.428	0.0157216
844.506	0.0156570
844.584	0.0157764
844.663	0.0157523
844.741	0.0156691
844.819	0.0155198
844.897	0.0158490
844.975	0.0156719
845.053	0.0156464
845.131	0.0155993
845.209	0.0157071
845.288	0.0158161
845.366	0.0158042
845.444	0.0157887
845.522	0.0157809
845.600	0.0157150
845.678	0.0156876
845.756	0.0158002
845.834	0.0156775
845.913	0.0157591
845.991	0.0157888
846.069	0.0157690
846.147	0.0157159
846.225	0.0156290
846.303	0.0157942
846.381	0.0156867
846.459	0.0157523
846.538	0.0157355
846.616	0.0157421
846.694	0.0157094
846.772	0.0155880
846.850	0.0158057
846.928	0.0157315
847.006	0.0156974
847.084	0.0157929
847.163	0.0157109
847.241	0.0157417
847.319	0.0156676
847.397	0.0157053
847.475	0.0156821
847.553	0.0157259
847.631	0.0158157
847.709	0.0157047
847.788	0.0157840
847.866	0.0157956
847.944	0.0157169
848.022	0.0157670
848.100	0.0157646
848.178	0.0157484
848.256	0.0157220
848.334	0.0157648
848.413	0.0157767
848.491	0.0157314
848.569	0.0157331
848.647	0.0157039
848.725	0.0156077
848.803	0.0156171
848.881	0.0157069
848.959	0.0157455
849.038	0.0158309
849.116	0.0158167
849.194	0.0157428
849.272	0.0156538
849.350	0.0157368
849.428	0.0158341
849.506	0.0156155
849.584	0.0156580
849.663	0.0157867
849.741	0.0158360
849.819	0.0155773
849.897	0.0157033
849.975	0.0158976
850.053	0.0158656
850.131	0.0156429
850.209	0.0158035
850.288	0.0157729
850.366	0.0157149
850.444	0.0157647
850.522	0.0158669
850.600	0.0156937
850.678	0.0157313
850.756	0.0157180
850.834	0.0158393
850.913	0.0158286
850.991	0.0158773
851.069	0.0158338
851.147	0.0157033
851.225	0.0156631
851.303	0.0156865
851.381	0.0157256
851.459	0.0158328
851.538	0.0157668
851.616	0.0155644
851.694	0.0157108
851.772	0.0157351
851.850	0.0157034
851.928	0.0156619
852.006	0.0155666
852.084	0.0155643
852.163	0.0156016
852.241	0.0156963
852.319	0.0155274
852.397	0.0157932
852.475	0.0157255
852.553	0.0156244
852.631	0.0157966
852.709	0.0156352
852.788	0.0156838
852.866	0.0157315
852.944	0.0155425
853.022	0.0156424
853.100	0.0156327
853.178	0.0157442
853.256	0.0156827
853.334	0.0157688
853.413	0.0156044
853.491	0.0156609
853.569	0.0158796
853.647	0.0156663
853.725	0.0156357
853.803	0.0157112
853.881	0.0155597
853.959	0.0156596
854.038	0.0156188
854.116	0.0156075
854.194	0.0157231
854.272	0.0156948
854.350	0.0156525
854.428	0.0156277
854.506	0.0156206
854.584	0.0156789
854.663	0.0157175
854.741	0.0157670
854.819	0.0156122
854.897	0.0157140
854.975	0.0156984
855.053	0.0156886
855.131	0.0156788
855.209	0.0155765
855.288	0.0156784
855.366	0.0157609
855.444	0.0157993
855.522	0.0157076
855.600	0.0158252
855.678	0.0157674
855.756	0.0157270
855.834	0.0157861
855.913	0.0156534
855.991	0.0156091
856.069	0.0158234
856.147	0.0156484
856.225	0.0157178
856.303	0.0157070
856.381	0.0157540
856.459	0.0158321
856.538	0.0156403
856.616	0.0157323
856.694	0.0156589
856.772	0.0157584
856.850	0.0158819
856.928	0.0158293
857.006	0.0156805
857.084	0.0156167
857.163	0.0155829
857.241	0.0156766
857.319	0.0156940
857.397	0.0158833
857.475	0.0156994
857.553	0.0157592
857.631	0.0156633
857.709	0.0157400
857.788	0.0158450
857.866	0.0157590
857.944	0.0157109
858.022	0.0157692
858.100	0.0156750
858.178	0.0157880
858.256	0.0158504
858.334	0.0156927
858.413	0.0156558
858.491	0.0156593
858.569	0.0157773
858.647	0.0157690
858.725	0.0155659
858.803	0.0156668
858.881	0.0157320
858.959	0.0158082
859.038	0.0157456
859.116	0.0157187
859.194	0.0155856
859.272	0.0156757
859.350	0.0157173
859.428	0.0156499
859.506	0.0157360
859.584	0.0157517
859.663	0.0156116
859.741	0.0155247
859.819	0.0156123
859.897	0.0157043
859.975	0.0155234
860.053	0.0156065
860.131	0.0156213
860.209	0.0155670
860.288	0.0154504
860.366	0.0156104
860.444	0.0156828
860.522	0.0156448
860.600	0.0157590
860.678	0.0156949
860.756	0.0156256
860.834	0.0155590
860.913	0.0156725
860.991	0.0157458
861.069	0.0157413
861.147	0.0156494
861.225	0.0156926
861.303	0.0157398
861.381	0.0157180
861.459	0.0158312
861.538	0.0157909
861.616	0.0156904
861.694	0.0157478
861.772	0.0157780
861.850	0.0157164
861.928	0.0158566
862.006	0.0158681
862.084	0.0159605
862.163	0.0157285
862.241	0.0157352
862.319	0.0157946
862.397	0.0158786
862.475	0.0158904
862.553	0.0157916
862.631	0.0156974
862.709	0.0158034
862.788	0.0157365
862.866	0.0157848
862.944	0.0157169
863.022	0.0156671
863.100	0.0157011
863.178	0.0157715
863.256	0.0156033
863.334	0.0158018
863.413	0.0157214
863.491	0.0156461
863.569	0.0155860
863.647	0.0155637
863.725	0.0155292
863.803	0.0155711
863.881	0.0155666
863.959	0.0155854
864.038	0.0156731
864.116	0.0156073
864.194	0.0154887
864.272	0.0156164
864.350	0.0157592
864.428	0.0156213
864.506	0.0156084
864.584	0.0156604
864.663	0.0155609
864.741	0.0157314
864.819	0.0155793
864.897	0.0155690
864.975	0.0157255
865.053	0.0156207
865.131	0.0156973
865.209	0.0157223
865.288	0.0156680
865.366	0.0156236
865.444	0.0156250
865.522	0.0156995
865.600	0.0156881
865.678	0.0156012
865.756	0.0156252
865.834	0.0157384
865.913	0.0157575
865.991	0.0156676
866.069	0.0157376
866.147	0.0157160
866.225	0.0158075
866.303	0.0156303
866.381	0.0158512
866.459	0.0157250
866.538	0.0156457
866.616	0.0157185
866.694	0.0157624
866.772	0.0157226
866.850	0.0157340
866.928	0.0157343
867.006	0.0156339
867.084	0.0155901
867.163	0.0157092
867.241	0.0157030
867.319	0.0155241
867.397	0.0157174
867.475	0.0155463
867.553	0.0155602
867.631	0.0155470
867.709	0.0156087
867.788	0.0156486
867.866	0.0156248
867.944	0.0156293
868.022	0.0156142
868.100	0.0156442
868.178	0.0156416
868.256	0.0157127
868.334	0.0156036
868.413	0.0156076
868.491	0.0157018
868.569	0.0155424
868.647	0.0155643
868.725	0.0155539
868.803	0.0155539
868.881	0.0154982
868.959	0.0156031
869.038	0.0154645
869.116	0.0156316
869.194	0.0155939
869.272	0.0155372
869.350	0.0154884
869.428	0.0155222
869.506	0.0155351
869.584	0.0156361
869.663	0.0157063
869.741	0.0156023
869.819	0.0156938
869.897	0.0157851
869.975	0.0156725
870.053	0.0155518
870.131	0.0157200
870.209	0.0157343
870.288	0.0156717
870.366	0.0157995
870.444	0.0156636
870.522	0.0158348
870.600	0.0158205
870.678	0.0158723
870.756	0.0156509
870.834	0.0157450
870.913	0.0158034
870.991	0.0158112
871.069	0.0157063
871.147	0.0157111
871.225	0.0159572
871.303	0.0160031
871.381	0.0158093
871.459	0.0157759
871.538	0.0156572
871.616	0.0157468
871.694	0.0157290
871.772	0.0157304
871.850	0.0157719
871.928	0.0159480
872.006	0.0155840
872.084	0.0156006
872.163	0.0155493
872.241	0.0156255
872.319	0.0157518
872.397	0.0156236
872.475	0.0157172
872.553	0.0156363
872.631	0.0156419
872.709	0.0156155
872.788	0.0155706
872.866	0.0155872
872.944	0.0156731
873.022	0.0155521
873.100	0.0155631
873.178	0.0156555
873.256	0.0158058
873.334	0.0157888
873.413	0.0156556
873.491	0.0156510
873.569	0.0157427
873.647	0.0157922
873.725	0.0157244
873.803	0.0157963
873.881	0.0158067
873.959	0.0157320
874.038	0.0158500
874.116	0.0159609
874.194	0.0158605
874.272	0.0157150
874.350	0.0156977
874.428	0.0158578
874.506	0.0157745
874.584	0.0155060
874.663	0.0157169
874.741	0.0157556
874.819	0.0158888
874.897	0.0157687
874.975	0.0156232
875.053	0.0156830
875.131	0.0157600
875.209	0.0157146
875.288	0.0157111
875.366	0.0157034
875.444	0.0157190
875.522	0.0157812
875.600	0.0157111
875.678	0.0156996
875.756	0.0156710
875.834	0.0158407
875.913	0.0156432
875.991	0.0157184
876.069	0.0157919
876.147	0.0157706
876.225	0.0157661
876.303	0.0158163
876.381	0.0157670
876.459	0.0158152
876.538	0.0157122
876.616	0.0159097
876.694	0.0158025
876.772	0.0158012
876.850	0.0156685
876.928	0.0157743
877.006	0.0157703
877.084	0.0157465
877.163	0.0159322
877.241	0.0158611
877.319	0.0158007
877.397	0.0157793
877.475	0.0157959
877.553	0.0156584
877.631	0.0157478
877.709	0.0158362
877.788	0.0156866
877.866	0.0157188
877.944	0.0157807
878.022	0.0156460
878.100	0.0156248
878.178	0.0158727
878.256	0.0156842
878.334	0.0157294
878.413	0.0156971
878.491	0.0157067
878.569	0.0157209
878.647	0.0157188
878.725	0.0155928
878.803	0.0158252
878.881	0.0156998
878.959	0.0157117
879.038	0.0156825
879.116	0.0157736
879.194	0.0156503
879.272	0.0156352
879.350	0.0156742
879.428	0.0157081
879.506	0.0157735
879.584	0.0157528
879.663	0.0157052
879.741	0.0155544
879.819	0.0158395
879.897	0.0156488
879.975	0.0157692
880.053	0.0157593
880.131	0.0157990
880.209	0.0157053
880.288	0.0157285
880.366	0.0159137
880.444	0.0157479
880.522	0.0159377
880.600	0.0158096
880.678	0.0158234
880.756	0.0159219
880.834	0.0158060
880.913	0.0157848
880.991	0.0158321
881.069	0.0157275
881.147	0.0158044
881.225	0.0157493
881.303	0.0158275
881.381	0.0158149
881.459	0.0157182
881.538	0.0156947
881.616	0.0157993
881.694	0.0157021
881.772	0.0157021
881.850	0.0156952
881.928	0.0156851
882.006	0.0157638
882.084	0.0158231
882.163	0.0158698
882.241	0.0157586
882.319	0.0157865
882.397	0.0156816
882.475	0.0156655
882.553	0.0158861
882.631	0.0157650
882.709	0.0156380
882.788	0.0156674
882.866	0.0158486
882.944	0.0157999
883.022	0.0157082
883.100	0.0157999
883.178	0.0157891
883.256	0.0157877
883.334	0.0156621
883.413	0.0157438
883.491	0.0157450
883.569	0.0158885
883.647	0.0156866
883.725	0.0156202
883.803	0.0156194
883.881	0.0157392
883.959	0.0157497
884.038	0.0155973
884.116	0.0154070
884.194	0.0155549
884.272	0.0156568
884.350	0.0154949
884.428	0.0156174
884.506	0.0155912
884.584	0.0156147
884.663	0.0156020
884.741	0.0156391
884.819	0.0156918
884.897	0.0155083
884.975	0.0155938
885.053	0.0155486
885.131	0.0156738
885.209	0.0156197
885.288	0.0157448
885.366	0.0157183
885.444	0.0157762
885.522	0.0157932
885.600	0.0158372
885.678	0.0157929
885.756	0.0158060
885.834	0.0158210
885.913	0.0158733
885.991	0.0159563
886.069	0.0159341
886.147	0.0159433
886.225	0.0160292
886.303	0.0158611
886.381	0.0159005
886.459	0.0159786
886.538	0.0158706
886.616	0.0160804
886.694	0.0159880
886.772	0.0159348
886.850	0.0158978
886.928	0.0160366
887.006	0.0158428
887.084	0.0158882
887.163	0.0159614
887.241	0.0159455
887.319	0.0159888
887.397	0.0159593
887.475	0.0158054
887.553	0.0158156
887.631	0.0157898
887.709	0.0156751
887.788	0.0157650
887.866	0.0157382
887.944	0.0156365
888.022	0.0156915
888.100	0.0156543
888.178	0.0156740
888.256	0.0154919
888.334	0.0154137
888.413	0.0156380
888.491	0.0156137
888.569	0.0156230
888.647	0.0157129
888.725	0.0156956
888.803	0.0156171
888.881	0.0157319
888.959	0.0156522
889.038	0.0156869
889.116	0.0157709
889.194	0.0157812
889.272	0.0157063
889.350	0.0157626
889.428	0.0158515
889.506	0.0158256
889.584	0.0157793
889.663	0.0159999
889.741	0.0157816
889.819	0.0159204
889.897	0.0158179
889.975	0.0157850
890.053	0.0158663
890.131	0.0157664
890.209	0.0157526
890.288	0.0158923
890.366	0.0158446
890.444	0.0157663
890.522	0.0156672
890.600	0.0156126
890.678	0.0155833
890.756	0.0156594
890.834	0.0157095
890.913	0.0156645
890.991	0.0155511
891.069	0.0154890
891.147	0.0156355
891.225	0.0156884
891.303	0.0156950
891.381	0.0156722
891.459	0.0156709
891.538	0.0156193
891.616	0.0157513
891.694	0.0156938
891.772	0.0156947
891.850	0.0156911
891.928	0.0158271
892.006	0.0157371
892.084	0.0156478
892.163	0.0155692
892.241	0.0157784
892.319	0.0156856
892.397	0.0157127
892.475	0.0156009
892.553	0.0156310
892.631	0.0157436
892.709	0.0156275
892.788	0.0154906
892.866	0.0155766
892.944	0.0156071
893.022	0.0156076
893.100	0.0154848
893.178	0.0156048
893.256	0.0156030
893.334	0.0154475
893.413	0.0155174
893.491	0.0155460
893.569	0.0155455
893.647	0.0155959
893.725	0.0155451
893.803	0.0155074
893.881	0.0154653
893.959	0.0156004
894.038	0.0155563
894.116	0.0155347
894.194	0.0156668
894.272	0.0156847
894.350	0.0157196
894.428	0.0156466
894.506	0.0155778
894.584	0.0158382
894.663	0.0157758
894.741	0.0159077
894.819	0.0158214
894.897	0.0158621
894.975	0.0157788
895.053	0.0158100
895.131	0.0158366
895.209	0.0157927
895.288	0.0158028
895.366	0.0158050
895.444	0.0157219
895.522	0.0157655
895.600	0.0157237
895.678	0.0156013
895.756	0.0156021
895.834	0.0156258
895.913	0.0155504
895.991	0.0155272
896.069	0.0154200
896.147	0.0155945
896.225	0.0154044
896.303	0.0155094
896.381	0.0156266
896.459	0.0152441
896.538	0.0155649
896.616	0.0153846
896.694	0.0154084
896.772	0.0154217
896.850	0.0156394
896.928	0.0154685
897.006	0.0153833
897.084	0.0154301
897.163	0.0154619
897.241	0.0153717
897.319	0.0154137
897.397	0.0155062
897.475	0.0155093
897.553	0.0154671
897.631	0.0156386
897.709	0.0155734
897.788	0.0156579
897.866	0.0155148
897.944	0.0156329
898.022	0.0156812
898.100	0.0155955
898.178	0.0156677
898.256	0.0157240
898.334	0.0156652
898.413	0.0158148
898.491	0.0158746
898.569	0.0157290
898.647	0.0157417
898.725	0.0159573
898.803	0.0158802
898.881	0.0157812
898.959	0.0159499
899.038	0.0159454
899.116	0.0158770
899.194	0.0157710
899.272	0.0159035
899.350	0.0158141
899.428	0.0157984
899.506	0.0156505
899.584	0.0158823
899.663	0.0156457
899.741	0.0157437
899.819	0.0157297
899.897	0.0157060
899.975	0.0157704
900.053	0.0157835
900.131	0.0157549
900.209	0.0155714
900.288	0.0156223
900.366	0.0156878
900.444	0.0156691
900.522	0.0157214
900.600	0.0156970
900.678	0.0157480
900.756	0.0158365
900.834	0.0157339
900.913	0.0158533
900.991	0.0157441
901.069	0.0157419
901.147	0.0157288
901.225	0.0157465
901.303	0.0157630
901.381	0.0157359
901.459	0.0156085
901.538	0.0158037
901.616	0.0157417
901.694	0.0156313
901.772	0.0157363
901.850	0.0156990
901.928	0.0156844
902.006	0.0156866
902.084	0.0157527
902.163	0.0157623
902.241	0.0156759
902.319	0.0156033
902.397	0.0156301
902.475	0.0156385
902.553	0.0155986
902.631	0.0157508
902.709	0.0155678
902.788	0.0155904
902.866	0.0157595
902.944	0.0156974
903.022	0.0155797
903.100	0.0156779
903.178	0.0156924
903.256	0.0156683
903.334	0.0158790
903.413	0.0157051
903.491	0.0157531
903.569	0.0157351
903.647	0.0156814
903.725	0.0157959
903.803	0.0157530
903.881	0.0157803
903.959	0.0157258
904.038	0.0159136
904.116	0.0156937
904.194	0.0157952
904.272	0.0158936
904.350	0.0157279
904.428	0.0156656
904.506	0.0158374
904.584	0.0156818
904.663	0.0158981
904.741	0.0157306
904.819	0.0157898
904.897	0.0158243
904.975	0.0159089
905.053	0.0156879
905.131	0.0157160
905.209	0.0157729
905.288	0.0157500
905.366	0.0158179
905.444	0.0157712
905.522	0.0156680
905.600	0.0156697
905.678	0.0155827
905.756	0.0157276
905.834	0.0155865
905.913	0.0155460
905.991	0.0156711
906.069	0.0156154
906.147	0.0156678
906.225	0.0155765
906.303	0.0154738
906.381	0.0156245
906.459	0.0156531
906.538	0.0155814
906.616	0.0157558
906.694	0.0155560
906.772	0.0156605
906.850	0.0156425
906.928	0.0157717
907.006	0.0155320
907.084	0.0156583
907.163	0.0157158
907.241	0.0156310
907.319	0.0157947
907.397	0.0158401
907.475	0.0156058
907.553	0.0156944
907.631	0.0158080
907.709	0.0157117
907.788	0.0157367
907.866	0.0157235
907.944	0.0159336
908.022	0.0157191
908.100	0.0158294
908.178	0.0157922
908.256	0.0157419
908.334	0.0157593
908.413	0.0156580
908.491	0.0156349
908.569	0.0157364
908.647	0.0157782
908.725	0.0156555
908.803	0.0157331
908.881	0.0157407
908.959	0.0157750
909.038	0.0156102
909.116	0.0157182
909.194	0.0157740
909.272	0.0157202
909.350	0.0155921
909.428	0.0156037
909.506	0.0156971
909.584	0.0156339
909.663	0.0156340
909.741	0.0156426
909.819	0.0156380
909.897	0.0156436
909.975	0.0155684
910.053	0.0156344
910.131	0.0158105
910.209	0.0156522
910.288	0.0156554
910.366	0.0156412
910.444	0.0157822
910.522	0.0158478
910.600	0.0157593
910.678	0.0155746
910.756	0.0156519
910.834	0.0157071
910.913	0.0157313
910.991	0.0155908
911.069	0.0157217
911.147	0.0157384
911.225	0.0157427
911.303	0.0158270
911.381	0.0157069
911.459	0.0155270
911.538	0.0156704
911.616	0.0156528
911.694	0.0156219
911.772	0.0155624
911.850	0.0156421
911.928	0.0156304
912.006	0.0157489
912.084	0.0156615
912.163	0.0155849
912.241	0.0156023
912.319	0.0156190
912.397	0.0156931
912.475	0.0158079
912.553	0.0155946
912.631	0.0156730
912.709	0.0157697
912.788	0.0157411
912.866	0.0155847
912.944	0.0156763
913.022	0.0155661
913.100	0.0156310
913.178	0.0157713
913.256	0.0156924
913.334	0.0157824
913.413	0.0156733
913.491	0.0156998
913.569	0.0157092
913.647	0.0155692
913.725	0.0157178
913.803	0.0158043
913.881	0.0156136
913.959	0.0156049
914.038	0.0156712
914.116	0.0156703
914.194	0.0157113
914.272	0.0157677
914.350	0.0157895
914.428	0.0156495
914.506	0.0156870
914.584	0.0155788
914.663	0.0156468
914.741	0.0155724
914.819	0.0155902
914.897	0.0155503
914.975	0.0155544
915.053	0.0155500
915.131	0.0155344
915.209	0.0155457
915.288	0.0155627
915.366	0.0154880
915.444	0.0154472
915.522	0.0154604
915.600	0.0154885
915.678	0.0154475
915.756	0.0153786
915.834	0.0154918
915.913	0.0154091
915.991	0.0153165
916.069	0.0154886
916.147	0.0155621
916.225	0.0156770
916.303	0.0155971
916.381	0.0155349
916.459	0.0156445
916.538	0.0157602
916.616	0.0155147
916.694	0.0155867
916.772	0.0156503
916.850	0.0158871
916.928	0.0157098
917.006	0.0158603
917.084	0.0156666
917.163	0.0156741
917.241	0.0156955
917.319	0.0157039
917.397	0.0157269
917.475	0.0157921
917.553	0.0157328
917.631	0.0156681
917.709	0.0157796
917.788	0.0157300
917.866	0.0156908
917.944	0.0156401
918.022	0.0156701
918.100	0.0157104
918.178	0.0156573
918.256	0.0156507
918.334	0.0156431
918.413	0.0156308
918.491	0.0154905
918.569	0.0155482
918.647	0.0155485
918.725	0.0156093
918.803	0.0155630
918.881	0.0156155
918.959	0.0156230
919.038	0.0156087
919.116	0.0155128
919.194	0.0155772
919.272	0.0156606
919.350	0.0156118
919.428	0.0158109
919.506	0.0158199
919.584	0.0157957
919.663	0.0157647
919.741	0.0157513
919.819	0.0157638
919.897	0.0158283
