05/20/2022	21:30:54	Ver.	4.1	UNKNOWN
Optical Delay	599.975067	Delta X		0.078125	Sweeps	1	Scan Rate	0/0
Coordinates	Axis 1	NaN	Axis 2	NaN	Axis 3	NaN	Axis 4	NaN	Axis 5	NaN	Axis 6	0.000000
TX Power	0.000000	RX Power	0.000000

599.975	0.0164730
600.053	0.0165167
600.131	0.0164159
600.209	0.0165849
600.288	0.0164161
600.366	0.0165876
600.444	0.0165086
600.522	0.0164353
600.600	0.0165158
600.678	0.0164957
600.756	0.0165073
600.834	0.0165482
600.913	0.0164380
600.991	0.0163889
601.069	0.0164745
601.147	0.0163770
601.225	0.0163119
601.303	0.0163174
601.381	0.0163486
601.459	0.0164241
601.538	0.0164907
601.616	0.0163481
601.694	0.0165713
601.772	0.0164791
601.850	0.0165620
601.928	0.0165108
602.006	0.0164497
602.084	0.0163741
602.163	0.0165493
602.241	0.0164187
602.319	0.0164716
602.397	0.0164539
602.475	0.0165182
602.553	0.0164680
602.631	0.0164407
602.709	0.0164214
602.788	0.0166451
602.866	0.0163960
602.944	0.0165290
603.022	0.0164038
603.100	0.0165202
603.178	0.0164923
603.256	0.0165025
603.334	0.0164387
603.413	0.0165018
603.491	0.0165327
603.569	0.0165042
603.647	0.0164867
603.725	0.0164558
603.803	0.0164725
603.881	0.0164575
603.959	0.0165739
604.038	0.0165574
604.116	0.0165184
604.194	0.0162995
604.272	0.0165377
604.350	0.0165462
604.428	0.0164230
604.506	0.0166013
604.584	0.0164223
604.663	0.0165970
604.741	0.0164751
604.819	0.0164899
604.897	0.0164640
604.975	0.0165326
605.053	0.0165559
605.131	0.0165811
605.209	0.0166974
605.288	0.0166875
605.366	0.0165897
605.444	0.0165230
605.522	0.0165504
605.600	0.0164430
605.678	0.0163755
605.756	0.0163448
605.834	0.0165190
605.913	0.0165379
605.991	0.0165177
606.069	0.0163534
606.147	0.0164817
606.225	0.0166311
606.303	0.0165746
606.381	0.0163841
606.459	0.0163881
606.538	0.0165587
606.616	0.0165862
606.694	0.0165150
606.772	0.0165630
606.850	0.0165853
606.928	0.0164650
607.006	0.0164444
607.084	0.0165718
607.163	0.0165075
607.241	0.0165879
607.319	0.0164280
607.397	0.0164720
607.475	0.0164716
607.553	0.0165302
607.631	0.0164985
607.709	0.0165567
607.788	0.0166386
607.866	0.0166319
607.944	0.0166887
608.022	0.0165623
608.100	0.0165402
608.178	0.0165539
608.256	0.0165741
608.334	0.0164850
608.413	0.0165891
608.491	0.0165405
608.569	0.0164288
608.647	0.0165534
608.725	0.0165236
608.803	0.0166035
608.881	0.0164851
608.959	0.0165936
609.038	0.0164301
609.116	0.0164705
609.194	0.0164975
609.272	0.0164948
609.350	0.0165034
609.428	0.0166647
609.506	0.0166093
609.584	0.0164149
609.663	0.0164893
609.741	0.0166696
609.819	0.0165585
609.897	0.0165511
609.975	0.0166241
610.053	0.0165907
610.131	0.0165434
610.209	0.0167650
610.288	0.0166409
610.366	0.0165889
610.444	0.0164331
610.522	0.0165168
610.600	0.0166360
610.678	0.0166366
610.756	0.0166154
610.834	0.0165793
610.913	0.0165784
610.991	0.0165958
611.069	0.0165011
611.147	0.0166636
611.225	0.0165646
611.303	0.0165466
611.381	0.0165325
611.459	0.0167402
611.538	0.0166511
611.616	0.0166128
611.694	0.0165078
611.772	0.0166158
611.850	0.0165305
611.928	0.0165234
612.006	0.0165228
612.084	0.0167180
612.163	0.0165124
612.241	0.0165331
612.319	0.0164613
612.397	0.0165427
612.475	0.0165239
612.553	0.0165282
612.631	0.0165981
612.709	0.0165689
612.788	0.0164106
612.866	0.0165076
612.944	0.0165022
613.022	0.0165038
613.100	0.0164467
613.178	0.0165662
613.256	0.0164719
613.334	0.0164281
613.413	0.0164861
613.491	0.0164371
613.569	0.0164485
613.647	0.0166016
613.725	0.0165405
613.803	0.0164952
613.881	0.0165958
613.959	0.0164842
614.038	0.0164854
614.116	0.0167231
614.194	0.0165932
614.272	0.0164989
614.350	0.0165964
614.428	0.0165255
614.506	0.0165325
614.584	0.0166670
614.663	0.0165833
614.741	0.0165035
614.819	0.0165695
614.897	0.0165887
614.975	0.0164013
615.053	0.0165782
615.131	0.0164361
615.209	0.0167174
615.288	0.0164812
615.366	0.0164111
615.444	0.0164864
615.522	0.0164927
615.600	0.0163548
615.678	0.0164967
615.756	0.0165788
615.834	0.0165252
615.913	0.0164619
615.991	0.0164555
616.069	0.0164542
616.147	0.0164153
616.225	0.0164060
616.303	0.0163715
616.381	0.0164532
616.459	0.0165530
616.538	0.0162858
616.616	0.0164581
616.694	0.0164537
616.772	0.0166044
616.850	0.0164963
616.928	0.0166128
617.006	0.0164751
617.084	0.0164189
617.163	0.0165105
617.241	0.0165894
617.319	0.0165176
617.397	0.0165974
617.475	0.0165546
617.553	0.0166319
617.631	0.0165054
617.709	0.0164796
617.788	0.0165108
617.866	0.0164396
617.944	0.0165742
618.022	0.0165511
618.100	0.0166243
618.178	0.0164862
618.256	0.0164734
618.334	0.0165054
618.413	0.0164310
618.491	0.0166656
618.569	0.0166226
618.647	0.0166561
618.725	0.0166238
618.803	0.0165708
618.881	0.0165565
618.959	0.0166404
619.038	0.0165198
619.116	0.0165739
619.194	0.0167000
619.272	0.0165675
619.350	0.0165219
619.428	0.0164799
619.506	0.0164288
619.584	0.0165376
619.663	0.0166216
619.741	0.0164723
619.819	0.0166425
619.897	0.0165360
619.975	0.0164963
620.053	0.0164645
620.131	0.0164050
620.209	0.0164856
620.288	0.0163676
620.366	0.0164014
620.444	0.0163949
620.522	0.0163770
620.600	0.0164818
620.678	0.0164783
620.756	0.0164433
620.834	0.0163774
620.913	0.0165038
620.991	0.0164362
621.069	0.0164647
621.147	0.0165682
621.225	0.0164529
621.303	0.0163311
621.381	0.0164353
621.459	0.0164816
621.538	0.0163685
621.616	0.0163234
621.694	0.0163922
621.772	0.0163962
621.850	0.0165455
621.928	0.0165452
622.006	0.0163676
622.084	0.0163268
622.163	0.0163471
622.241	0.0164281
622.319	0.0166285
622.397	0.0163509
622.475	0.0163472
622.553	0.0163979
622.631	0.0164224
622.709	0.0164289
622.788	0.0164030
622.866	0.0163378
622.944	0.0163603
623.022	0.0164017
623.100	0.0164603
623.178	0.0164294
623.256	0.0164955
623.334	0.0164617
623.413	0.0164067
623.491	0.0164144
623.569	0.0165128
623.647	0.0164986
623.725	0.0162574
623.803	0.0164046
623.881	0.0165399
623.959	0.0164301
624.038	0.0164334
624.116	0.0165232
624.194	0.0164214
624.272	0.0165112
624.350	0.0165095
624.428	0.0164648
624.506	0.0162757
624.584	0.0164662
624.663	0.0164575
624.741	0.0165324
624.819	0.0164558
624.897	0.0164980
624.975	0.0165485
625.053	0.0166020
625.131	0.0166270
625.209	0.0165584
625.288	0.0166772
625.366	0.0165184
625.444	0.0164825
625.522	0.0165943
625.600	0.0165543
625.678	0.0165926
625.756	0.0166302
625.834	0.0165096
625.913	0.0165100
625.991	0.0165299
626.069	0.0165652
626.147	0.0165105
626.225	0.0164482
626.303	0.0165399
626.381	0.0164953
626.459	0.0166796
626.538	0.0164967
626.616	0.0165263
626.694	0.0165712
626.772	0.0165034
626.850	0.0165430
626.928	0.0166661
627.006	0.0165948
627.084	0.0165853
627.163	0.0166391
627.241	0.0165379
627.319	0.0165754
627.397	0.0164477
627.475	0.0164802
627.553	0.0164400
627.631	0.0165697
627.709	0.0164568
627.788	0.0165620
627.866	0.0165655
627.944	0.0165835
628.022	0.0165585
628.100	0.0167481
628.178	0.0165208
628.256	0.0165469
628.334	0.0165057
628.413	0.0165697
628.491	0.0164476
628.569	0.0166274
628.647	0.0164907
628.725	0.0165326
628.803	0.0165163
628.881	0.0165658
628.959	0.0166252
629.038	0.0164427
629.116	0.0165421
629.194	0.0164494
629.272	0.0164149
629.350	0.0166080
629.428	0.0165427
629.506	0.0164793
629.584	0.0164762
629.663	0.0165953
629.741	0.0164754
629.819	0.0165430
629.897	0.0164605
629.975	0.0166754
630.053	0.0164838
630.131	0.0164455
630.209	0.0165975
630.288	0.0164600
630.366	0.0164348
630.444	0.0165150
630.522	0.0165588
630.600	0.0164542
630.678	0.0165400
630.756	0.0163920
630.834	0.0164033
630.913	0.0163528
630.991	0.0164214
631.069	0.0164140
631.147	0.0164501
631.225	0.0164945
631.303	0.0163527
631.381	0.0165259
631.459	0.0164304
631.538	0.0163686
631.616	0.0165230
631.694	0.0163121
631.772	0.0163850
631.850	0.0163891
631.928	0.0163475
632.006	0.0163554
632.084	0.0163868
632.163	0.0163794
632.241	0.0163351
632.319	0.0164359
632.397	0.0164300
632.475	0.0163979
632.553	0.0164353
632.631	0.0164754
632.709	0.0162300
632.788	0.0163955
632.866	0.0164131
632.944	0.0165336
633.022	0.0163122
633.100	0.0163646
633.178	0.0163215
633.256	0.0163077
633.334	0.0164214
633.413	0.0164044
633.491	0.0163867
633.569	0.0163009
633.647	0.0162897
633.725	0.0163814
633.803	0.0164556
633.881	0.0164951
633.959	0.0163474
634.038	0.0164450
634.116	0.0163396
634.194	0.0164594
634.272	0.0165092
634.350	0.0164664
634.428	0.0164716
634.506	0.0164915
634.584	0.0165295
634.663	0.0164571
634.741	0.0165455
634.819	0.0164747
634.897	0.0166474
634.975	0.0165504
635.053	0.0164979
635.131	0.0164776
635.209	0.0165438
635.288	0.0164860
635.366	0.0165623
635.444	0.0166433
635.522	0.0167039
635.600	0.0164526
635.678	0.0166185
635.756	0.0165140
635.834	0.0166418
635.913	0.0165577
635.991	0.0166580
636.069	0.0165468
636.147	0.0165309
636.225	0.0163506
636.303	0.0165308
636.381	0.0164546
636.459	0.0166137
636.538	0.0164960
636.616	0.0163136
636.694	0.0164807
636.772	0.0164903
636.850	0.0165695
636.928	0.0165450
637.006	0.0164825
637.084	0.0164474
637.163	0.0164153
637.241	0.0164655
637.319	0.0164473
637.397	0.0164538
637.475	0.0164981
637.553	0.0165492
637.631	0.0164024
637.709	0.0164315
637.788	0.0165356
637.866	0.0165943
637.944	0.0165498
638.022	0.0164507
638.100	0.0165388
638.178	0.0164300
638.256	0.0166537
638.334	0.0164773
638.413	0.0166132
638.491	0.0165635
638.569	0.0165063
638.647	0.0165605
638.725	0.0166744
638.803	0.0165855
638.881	0.0164983
638.959	0.0164223
639.038	0.0165166
639.116	0.0165881
639.194	0.0166768
639.272	0.0166421
639.350	0.0165605
639.428	0.0165543
639.506	0.0164940
639.584	0.0165636
639.663	0.0166273
639.741	0.0165318
639.819	0.0164264
639.897	0.0164819
639.975	0.0165129
640.053	0.0166412
640.131	0.0165342
640.209	0.0164606
640.288	0.0164104
640.366	0.0164581
640.444	0.0165355
640.522	0.0164185
640.600	0.0164063
640.678	0.0164291
640.756	0.0165083
640.834	0.0165850
640.913	0.0165537
640.991	0.0164328
641.069	0.0164175
641.147	0.0164690
641.225	0.0165165
641.303	0.0166679
641.381	0.0164552
641.459	0.0165289
641.538	0.0165440
641.616	0.0164429
641.694	0.0163919
641.772	0.0164307
641.850	0.0165096
641.928	0.0164796
642.006	0.0164569
642.084	0.0164259
642.163	0.0163008
642.241	0.0163116
642.319	0.0162995
642.397	0.0164171
642.475	0.0163928
642.553	0.0164986
642.631	0.0163779
642.709	0.0164603
642.788	0.0164650
642.866	0.0163097
642.944	0.0164058
643.022	0.0163915
643.100	0.0164257
643.178	0.0163949
643.256	0.0164134
643.334	0.0163805
643.413	0.0164380
643.491	0.0165765
643.569	0.0165150
643.647	0.0163142
643.725	0.0164393
643.803	0.0163363
643.881	0.0165225
643.959	0.0164814
644.038	0.0164764
644.116	0.0163978
644.194	0.0163670
644.272	0.0163026
644.350	0.0162387
644.428	0.0163609
644.506	0.0164349
644.584	0.0164593
644.663	0.0163749
644.741	0.0163442
644.819	0.0163647
644.897	0.0163966
644.975	0.0164771
645.053	0.0163995
645.131	0.0163618
645.209	0.0163802
645.288	0.0164243
645.366	0.0164585
645.444	0.0163524
645.522	0.0163298
645.600	0.0163159
645.678	0.0164591
645.756	0.0163963
645.834	0.0163486
645.913	0.0163153
645.991	0.0163163
646.069	0.0163466
646.147	0.0163647
646.225	0.0163847
646.303	0.0163535
646.381	0.0161889
646.459	0.0162344
646.538	0.0164389
646.616	0.0164771
646.694	0.0163728
646.772	0.0163870
646.850	0.0163261
646.928	0.0164482
647.006	0.0163501
647.084	0.0164628
647.163	0.0163849
647.241	0.0163798
647.319	0.0164175
647.397	0.0163681
647.475	0.0164409
647.553	0.0163806
647.631	0.0164738
647.709	0.0165333
647.788	0.0163638
647.866	0.0162381
647.944	0.0165096
648.022	0.0165411
648.100	0.0165807
648.178	0.0163727
648.256	0.0164783
648.334	0.0166032
648.413	0.0164436
648.491	0.0164081
648.569	0.0165589
648.647	0.0164243
648.725	0.0164558
648.803	0.0164475
648.881	0.0164223
648.959	0.0164832
649.038	0.0164665
649.116	0.0165751
649.194	0.0166029
649.272	0.0164619
649.350	0.0165417
649.428	0.0167057
649.506	0.0166322
649.584	0.0166235
649.663	0.0165646
649.741	0.0164748
649.819	0.0165086
649.897	0.0165639
649.975	0.0166553
650.053	0.0165242
650.131	0.0164170
650.209	0.0165710
650.288	0.0164162
650.366	0.0165192
650.444	0.0163964
650.522	0.0162350
650.600	0.0163829
650.678	0.0164047
650.756	0.0164856
650.834	0.0164159
650.913	0.0164940
650.991	0.0164628
651.069	0.0164468
651.147	0.0163773
651.225	0.0164289
651.303	0.0165315
651.381	0.0164966
651.459	0.0165293
651.538	0.0165292
651.616	0.0165089
651.694	0.0164754
651.772	0.0162778
651.850	0.0163457
651.928	0.0164376
652.006	0.0164868
652.084	0.0164518
652.163	0.0163741
652.241	0.0164851
652.319	0.0164453
652.397	0.0163434
652.475	0.0163947
652.553	0.0164772
652.631	0.0164414
652.709	0.0164253
652.788	0.0164287
652.866	0.0162649
652.944	0.0165654
653.022	0.0164315
653.100	0.0163235
653.178	0.0164941
653.256	0.0164584
653.334	0.0165986
653.413	0.0166057
653.491	0.0166153
653.569	0.0166891
653.647	0.0166005
653.725	0.0165343
653.803	0.0165664
653.881	0.0165895
653.959	0.0166053
654.038	0.0166032
654.116	0.0164707
654.194	0.0164544
654.272	0.0164796
654.350	0.0164114
654.428	0.0164714
654.506	0.0164446
654.584	0.0163062
654.663	0.0162962
654.741	0.0162196
654.819	0.0161185
654.897	0.0163523
654.975	0.0162922
655.053	0.0162225
655.131	0.0164182
655.209	0.0163155
655.288	0.0164811
655.366	0.0163812
655.444	0.0165149
655.522	0.0164655
655.600	0.0164031
655.678	0.0165697
655.756	0.0164647
655.834	0.0164960
655.913	0.0166683
655.991	0.0166562
656.069	0.0166212
656.147	0.0166417
656.225	0.0166252
656.303	0.0168185
656.381	0.0168376
656.459	0.0166302
656.538	0.0166633
656.616	0.0167077
656.694	0.0166272
656.772	0.0164927
656.850	0.0165064
656.928	0.0165234
657.006	0.0164890
657.084	0.0164788
657.163	0.0164674
657.241	0.0164422
657.319	0.0162994
657.397	0.0163132
657.475	0.0160983
657.553	0.0160674
657.631	0.0162479
657.709	0.0161769
657.788	0.0160860
657.866	0.0161140
657.944	0.0161143
658.022	0.0160797
658.100	0.0160331
658.178	0.0161482
658.256	0.0162099
658.334	0.0162663
658.413	0.0163504
658.491	0.0163589
658.569	0.0163296
658.647	0.0165868
658.725	0.0166512
658.803	0.0166371
658.881	0.0167425
658.959	0.0168457
659.038	0.0168488
659.116	0.0170341
659.194	0.0170714
659.272	0.0169866
659.350	0.0171350
659.428	0.0169096
659.506	0.0171159
659.584	0.0172559
659.663	0.0170132
659.741	0.0168901
659.819	0.0167865
659.897	0.0168385
659.975	0.0169003
660.053	0.0168574
660.131	0.0166005
660.209	0.0164595
660.288	0.0165662
660.366	0.0164491
660.444	0.0163087
660.522	0.0162064
660.600	0.0162248
660.678	0.0160262
660.756	0.0158508
660.834	0.0158315
660.913	0.0158105
660.991	0.0157678
661.069	0.0156930
661.147	0.0158252
661.225	0.0159232
661.303	0.0157957
661.381	0.0158007
661.459	0.0157134
661.538	0.0159512
661.616	0.0158685
661.694	0.0158794
661.772	0.0160891
661.850	0.0162341
661.928	0.0162997
662.006	0.0160535
662.084	0.0162942
662.163	0.0164378
662.241	0.0165674
662.319	0.0165991
662.397	0.0167139
662.475	0.0166319
662.553	0.0165475
662.631	0.0167339
662.709	0.0167501
662.788	0.0166740
662.866	0.0166894
662.944	0.0166768
663.022	0.0167563
663.100	0.0166436
663.178	0.0165223
663.256	0.0165706
663.334	0.0166306
663.413	0.0165849
663.491	0.0164671
663.569	0.0163423
663.647	0.0163138
663.725	0.0163924
663.803	0.0163922
663.881	0.0164503
663.959	0.0163846
664.038	0.0162234
664.116	0.0163500
664.194	0.0163609
664.272	0.0164389
664.350	0.0163602
664.428	0.0162959
664.506	0.0164509
664.584	0.0164182
664.663	0.0163473
664.741	0.0162701
664.819	0.0165372
664.897	0.0164695
664.975	0.0164262
665.053	0.0162542
665.131	0.0164328
665.209	0.0164362
665.288	0.0164718
665.366	0.0162633
665.444	0.0164668
665.522	0.0163976
665.600	0.0162482
665.678	0.0161665
665.756	0.0161338
665.834	0.0161511
665.913	0.0160557
665.991	0.0161152
666.069	0.0160184
666.147	0.0160341
666.225	0.0160245
666.303	0.0159177
666.381	0.0157845
666.459	0.0159007
666.538	0.0158394
666.616	0.0159022
666.694	0.0159027
666.772	0.0161138
666.850	0.0160620
666.928	0.0161901
667.006	0.0161992
667.084	0.0161002
667.163	0.0162351
667.241	0.0163522
667.319	0.0162617
667.397	0.0163929
667.475	0.0164040
667.553	0.0164097
667.631	0.0165498
667.709	0.0165651
667.788	0.0165630
667.866	0.0165822
667.944	0.0164870
668.022	0.0165479
668.100	0.0165186
668.178	0.0166054
668.256	0.0166891
668.334	0.0166502
668.413	0.0168077
668.491	0.0167646
668.569	0.0167989
668.647	0.0167863
668.725	0.0168182
668.803	0.0169351
668.881	0.0169553
668.959	0.0167149
669.038	0.0168124
669.116	0.0168683
669.194	0.0170532
669.272	0.0168519
669.350	0.0169722
669.428	0.0170048
669.506	0.0168767
669.584	0.0167084
669.663	0.0167792
669.741	0.0167580
669.819	0.0166359
669.897	0.0166422
669.975	0.0163628
670.053	0.0165065
670.131	0.0164590
670.209	0.0164268
670.288	0.0163000
670.366	0.0163385
670.444	0.0163107
670.522	0.0161038
670.600	0.0161221
670.678	0.0160742
670.756	0.0158955
670.834	0.0160149
670.913	0.0159519
670.991	0.0157729
671.069	0.0159159
671.147	0.0159222
671.225	0.0157722
671.303	0.0158347
671.381	0.0158655
671.459	0.0159270
671.538	0.0159470
671.616	0.0157874
671.694	0.0159162
671.772	0.0159686
671.850	0.0160278
671.928	0.0161063
672.006	0.0161425
672.084	0.0162019
672.163	0.0162286
672.241	0.0162283
672.319	0.0163143
672.397	0.0163260
672.475	0.0163740
672.553	0.0163485
672.631	0.0164214
672.709	0.0164951
672.788	0.0166100
672.866	0.0164119
672.944	0.0165534
673.022	0.0165145
673.100	0.0166758
673.178	0.0167646
673.256	0.0166431
673.334	0.0167526
673.413	0.0167735
673.491	0.0167702
673.569	0.0167688
673.647	0.0167635
673.725	0.0167796
673.803	0.0168761
673.881	0.0168304
673.959	0.0169080
674.038	0.0171181
674.116	0.0171503
674.194	0.0171967
674.272	0.0173912
674.350	0.0172224
674.428	0.0172533
674.506	0.0172456
674.584	0.0174082
674.663	0.0173482
674.741	0.0173221
674.819	0.0173487
674.897	0.0172004
674.975	0.0171737
675.053	0.0171770
675.131	0.0170647
675.209	0.0168890
675.288	0.0167442
675.366	0.0166155
675.444	0.0165933
675.522	0.0163433
675.600	0.0161703
675.678	0.0160632
675.756	0.0158353
675.834	0.0157995
675.913	0.0155885
675.991	0.0154483
676.069	0.0153136
676.147	0.0152625
676.225	0.0151826
676.303	0.0151383
676.381	0.0150621
676.459	0.0150677
676.538	0.0150950
676.616	0.0149944
676.694	0.0149417
676.772	0.0149834
676.850	0.0148510
676.928	0.0151138
677.006	0.0151605
677.084	0.0152923
677.163	0.0154591
677.241	0.0155741
677.319	0.0156837
677.397	0.0159395
677.475	0.0160083
677.553	0.0162933
677.631	0.0166180
677.709	0.0166148
677.788	0.0169335
677.866	0.0172637
677.944	0.0172816
678.022	0.0175533
678.100	0.0177176
678.178	0.0178739
678.256	0.0179321
678.334	0.0180251
678.413	0.0180855
678.491	0.0182180
678.569	0.0181747
678.647	0.0181731
678.725	0.0181394
678.803	0.0182377
678.881	0.0180345
678.959	0.0177811
679.038	0.0177855
679.116	0.0176920
679.194	0.0174104
679.272	0.0172372
679.350	0.0170805
679.428	0.0167869
679.506	0.0168333
679.584	0.0165739
679.663	0.0164770
679.741	0.0163354
679.819	0.0161675
679.897	0.0160255
679.975	0.0159099
680.053	0.0156989
680.131	0.0157249
680.209	0.0156190
680.288	0.0154944
680.366	0.0154982
680.444	0.0154136
680.522	0.0154290
680.600	0.0154484
680.678	0.0153741
680.756	0.0153120
680.834	0.0153956
680.913	0.0154208
680.991	0.0154125
681.069	0.0155131
681.147	0.0155797
681.225	0.0157679
681.303	0.0159206
681.381	0.0159138
681.459	0.0159749
681.538	0.0160787
681.616	0.0162572
681.694	0.0163560
681.772	0.0164372
681.850	0.0164632
681.928	0.0164649
682.006	0.0165060
682.084	0.0167091
682.163	0.0166711
682.241	0.0167117
682.319	0.0167764
682.397	0.0167472
682.475	0.0167765
682.553	0.0168233
682.631	0.0168427
682.709	0.0169789
682.788	0.0169058
682.866	0.0170041
682.944	0.0169453
683.022	0.0168749
683.100	0.0169019
683.178	0.0170332
683.256	0.0170369
683.334	0.0169234
683.413	0.0169625
683.491	0.0170074
683.569	0.0169189
683.647	0.0168984
683.725	0.0168694
683.803	0.0168690
683.881	0.0168165
683.959	0.0168571
684.038	0.0168803
684.116	0.0165678
684.194	0.0166843
684.272	0.0167186
684.350	0.0166647
684.428	0.0166318
684.506	0.0165356
684.584	0.0162691
684.663	0.0164493
684.741	0.0162351
684.819	0.0162170
684.897	0.0160680
684.975	0.0160236
685.053	0.0159972
685.131	0.0157906
685.209	0.0156466
685.288	0.0156952
685.366	0.0157106
685.444	0.0154671
685.522	0.0153343
685.600	0.0153553
685.678	0.0154144
685.756	0.0153806
685.834	0.0153741
685.913	0.0155898
685.991	0.0156278
686.069	0.0158617
686.147	0.0160487
686.225	0.0161007
686.303	0.0161778
686.381	0.0164031
686.459	0.0166068
686.538	0.0166418
686.616	0.0167934
686.694	0.0169833
686.772	0.0169309
686.850	0.0170325
686.928	0.0171735
687.006	0.0170847
687.084	0.0171767
687.163	0.0172265
687.241	0.0173037
687.319	0.0172741
687.397	0.0172181
687.475	0.0171794
687.553	0.0171453
687.631	0.0170792
687.709	0.0170543
687.788	0.0169362
687.866	0.0169339
687.944	0.0168150
688.022	0.0167075
688.100	0.0167623
688.178	0.0167056
688.256	0.0165901
688.334	0.0165063
688.413	0.0164352
688.491	0.0164123
688.569	0.0162124
688.647	0.0161278
688.725	0.0160011
688.803	0.0158379
688.881	0.0157530
688.959	0.0156254
689.038	0.0154024
689.116	0.0155163
689.194	0.0153270
689.272	0.0153890
689.350	0.0154468
689.428	0.0153934
689.506	0.0153962
689.584	0.0155539
689.663	0.0156627
689.741	0.0156979
689.819	0.0159325
689.897	0.0160591
689.975	0.0160353
690.053	0.0163004
690.131	0.0164659
690.209	0.0164582
690.288	0.0165257
690.366	0.0168576
690.444	0.0168865
690.522	0.0168941
690.600	0.0169884
690.678	0.0171703
690.756	0.0171803
690.834	0.0171992
690.913	0.0171053
690.991	0.0171701
691.069	0.0170910
691.147	0.0170866
691.225	0.0170828
691.303	0.0170190
691.381	0.0170879
691.459	0.0169456
691.538	0.0169915
691.616	0.0168894
691.694	0.0167655
691.772	0.0166347
691.850	0.0165473
691.928	0.0163866
692.006	0.0163879
692.084	0.0161979
692.163	0.0159786
692.241	0.0161605
692.319	0.0160493
692.397	0.0159173
692.475	0.0157903
692.553	0.0157622
692.631	0.0157000
692.709	0.0156586
692.788	0.0157034
692.866	0.0156171
692.944	0.0157324
693.022	0.0159033
693.100	0.0159660
693.178	0.0158332
693.256	0.0159454
693.334	0.0161210
693.413	0.0161996
693.491	0.0163573
693.569	0.0164341
693.647	0.0165249
693.725	0.0166804
693.803	0.0166470
693.881	0.0168531
693.959	0.0171729
694.038	0.0171729
694.116	0.0172047
694.194	0.0172399
694.272	0.0174313
694.350	0.0174773
694.428	0.0174426
694.506	0.0174136
694.584	0.0175754
694.663	0.0176308
694.741	0.0176351
694.819	0.0176781
694.897	0.0176492
694.975	0.0176354
695.053	0.0174741
695.131	0.0174958
695.209	0.0172516
695.288	0.0171421
695.366	0.0172235
695.444	0.0169769
695.522	0.0168456
695.600	0.0167901
695.678	0.0166513
695.756	0.0164639
695.834	0.0162083
695.913	0.0162392
695.991	0.0160737
696.069	0.0157616
696.147	0.0156109
696.225	0.0154713
696.303	0.0152942
696.381	0.0151822
696.459	0.0149297
696.538	0.0148129
696.616	0.0149065
696.694	0.0145979
696.772	0.0145252
696.850	0.0144736
696.928	0.0145558
697.006	0.0145731
697.084	0.0147050
697.163	0.0147773
697.241	0.0148310
697.319	0.0150195
697.397	0.0151540
697.475	0.0151418
697.553	0.0154935
697.631	0.0156796
697.709	0.0159499
697.788	0.0161138
697.866	0.0163437
697.944	0.0165818
698.022	0.0166486
698.100	0.0170144
698.178	0.0170694
698.256	0.0173534
698.334	0.0173971
698.413	0.0175631
698.491	0.0176299
698.569	0.0176580
698.647	0.0177365
698.725	0.0178384
698.803	0.0176853
698.881	0.0177740
698.959	0.0176973
699.038	0.0177383
699.116	0.0176711
699.194	0.0176665
699.272	0.0177153
699.350	0.0177116
699.428	0.0177613
699.506	0.0176848
699.584	0.0177705
699.663	0.0177757
699.741	0.0178153
699.819	0.0177982
699.897	0.0177290
699.975	0.0177311
700.053	0.0177079
700.131	0.0176530
700.209	0.0176505
700.288	0.0175448
700.366	0.0174393
700.444	0.0173344
700.522	0.0172418
700.600	0.0169128
700.678	0.0167014
700.756	0.0166061
700.834	0.0163786
700.913	0.0162044
700.991	0.0159608
701.069	0.0157632
701.147	0.0156541
701.225	0.0154753
701.303	0.0153185
701.381	0.0152011
701.459	0.0149867
701.538	0.0150314
701.616	0.0146880
701.694	0.0145995
701.772	0.0147508
701.850	0.0145971
701.928	0.0144357
702.006	0.0142859
702.084	0.0143536
702.163	0.0143807
702.241	0.0143312
702.319	0.0145287
702.397	0.0147250
702.475	0.0147514
702.553	0.0148925
702.631	0.0150785
702.709	0.0154379
702.788	0.0155888
702.866	0.0158170
702.944	0.0160519
703.022	0.0163000
703.100	0.0166203
703.178	0.0168349
703.256	0.0172466
703.334	0.0174738
703.413	0.0176632
703.491	0.0177403
703.569	0.0179994
703.647	0.0182373
703.725	0.0183018
703.803	0.0183199
703.881	0.0185549
703.959	0.0186755
704.038	0.0187431
704.116	0.0184290
704.194	0.0185846
704.272	0.0184736
704.350	0.0183003
704.428	0.0184356
704.506	0.0181611
704.584	0.0180804
704.663	0.0179517
704.741	0.0178516
704.819	0.0178250
704.897	0.0175417
704.975	0.0172146
705.053	0.0171657
705.131	0.0168997
705.209	0.0168296
705.288	0.0166978
705.366	0.0164528
705.444	0.0163702
705.522	0.0161524
705.600	0.0160876
705.678	0.0159909
705.756	0.0158385
705.834	0.0159400
705.913	0.0158191
705.991	0.0158620
706.069	0.0157752
706.147	0.0158595
706.225	0.0158092
706.303	0.0158366
706.381	0.0158202
706.459	0.0158582
706.538	0.0158738
706.616	0.0160969
706.694	0.0162949
706.772	0.0162656
706.850	0.0162397
706.928	0.0162730
707.006	0.0165894
707.084	0.0166726
707.163	0.0165411
707.241	0.0167075
707.319	0.0166803
707.397	0.0166447
707.475	0.0166698
707.553	0.0164530
707.631	0.0163626
707.709	0.0164787
707.788	0.0163153
707.866	0.0162261
707.944	0.0160101
708.022	0.0159073
708.100	0.0158297
708.178	0.0157858
708.256	0.0156919
708.334	0.0157017
708.413	0.0156285
708.491	0.0155146
708.569	0.0156207
708.647	0.0158537
708.725	0.0157790
708.803	0.0158865
708.881	0.0160221
708.959	0.0160873
709.038	0.0162349
709.116	0.0161182
709.194	0.0164743
709.272	0.0164618
709.350	0.0165614
709.428	0.0168494
709.506	0.0168980
709.584	0.0167839
709.663	0.0168276
709.741	0.0170414
709.819	0.0171384
709.897	0.0171143
709.975	0.0171993
710.053	0.0171642
710.131	0.0172884
710.209	0.0172588
710.288	0.0172741
710.366	0.0170415
710.444	0.0171236
710.522	0.0171493
710.600	0.0170217
710.678	0.0169421
710.756	0.0169666
710.834	0.0168391
710.913	0.0166351
710.991	0.0166894
711.069	0.0166814
711.147	0.0165276
711.225	0.0164237
711.303	0.0165642
711.381	0.0163457
711.459	0.0161737
711.538	0.0161953
711.616	0.0161208
711.694	0.0160832
711.772	0.0160497
711.850	0.0158063
711.928	0.0156862
712.006	0.0157824
712.084	0.0158387
712.163	0.0157747
712.241	0.0156915
712.319	0.0157285
712.397	0.0155931
712.475	0.0156064
712.553	0.0156063
712.631	0.0156668
712.709	0.0157081
712.788	0.0158662
712.866	0.0160080
712.944	0.0160419
713.022	0.0161986
713.100	0.0162557
713.178	0.0163284
713.256	0.0164342
713.334	0.0167847
713.413	0.0166719
713.491	0.0168728
713.569	0.0168874
713.647	0.0170083
713.725	0.0170259
713.803	0.0170712
713.881	0.0171914
713.959	0.0173078
714.038	0.0172917
714.116	0.0172861
714.194	0.0173639
714.272	0.0173601
714.350	0.0174165
714.428	0.0173021
714.506	0.0173513
714.584	0.0172586
714.663	0.0172572
714.741	0.0171599
714.819	0.0170065
714.897	0.0167123
714.975	0.0167997
715.053	0.0165834
715.131	0.0163360
715.209	0.0163847
715.288	0.0162521
715.366	0.0160418
715.444	0.0159445
715.522	0.0158218
715.600	0.0157603
715.678	0.0156340
715.756	0.0155779
715.834	0.0156097
715.913	0.0155746
715.991	0.0154348
716.069	0.0154363
716.147	0.0154967
716.225	0.0154362
716.303	0.0154810
716.381	0.0156446
716.459	0.0157470
716.538	0.0159056
716.616	0.0159372
716.694	0.0159789
716.772	0.0162396
716.850	0.0163103
716.928	0.0163589
717.006	0.0165355
717.084	0.0167020
717.163	0.0167905
717.241	0.0166586
717.319	0.0168627
717.397	0.0169498
717.475	0.0169315
717.553	0.0168216
717.631	0.0170162
717.709	0.0169648
717.788	0.0168678
717.866	0.0168742
717.944	0.0169209
718.022	0.0167751
718.100	0.0167166
718.178	0.0167042
718.256	0.0167928
718.334	0.0168143
718.413	0.0167852
718.491	0.0167496
718.569	0.0167238
718.647	0.0168156
718.725	0.0167332
718.803	0.0167383
718.881	0.0166880
718.959	0.0167870
719.038	0.0167838
719.116	0.0168430
719.194	0.0169375
719.272	0.0169979
719.350	0.0168060
719.428	0.0169289
719.506	0.0168489
719.584	0.0168512
719.663	0.0168217
719.741	0.0166872
719.819	0.0168350
719.897	0.0166914
719.975	0.0164309
720.053	0.0165603
720.131	0.0164174
720.209	0.0163634
720.288	0.0160938
720.366	0.0160995
720.444	0.0159998
720.522	0.0159944
720.600	0.0159007
720.678	0.0157520
720.756	0.0157814
720.834	0.0157327
720.913	0.0155689
720.991	0.0155294
721.069	0.0154921
721.147	0.0156970
721.225	0.0155672
721.303	0.0157665
721.381	0.0156443
721.459	0.0156555
721.538	0.0157246
721.616	0.0157998
721.694	0.0158372
721.772	0.0160506
721.850	0.0161140
721.928	0.0161633
722.006	0.0163251
722.084	0.0166721
722.163	0.0167654
722.241	0.0170076
722.319	0.0170442
722.397	0.0171207
722.475	0.0172443
722.553	0.0174345
722.631	0.0174852
722.709	0.0176225
722.788	0.0177596
722.866	0.0179069
722.944	0.0178477
723.022	0.0179154
723.100	0.0178710
723.178	0.0180624
723.256	0.0176906
723.334	0.0175859
723.413	0.0176928
723.491	0.0175132
723.569	0.0174706
723.647	0.0173547
723.725	0.0171497
723.803	0.0171996
723.881	0.0169314
723.959	0.0169010
724.038	0.0165342
724.116	0.0165433
724.194	0.0162302
724.272	0.0162188
724.350	0.0160943
724.428	0.0161061
724.506	0.0159517
724.584	0.0159489
724.663	0.0158491
724.741	0.0159528
724.819	0.0158817
724.897	0.0158719
724.975	0.0159068
725.053	0.0160161
725.131	0.0159928
725.209	0.0160617
725.288	0.0160206
725.366	0.0160840
725.444	0.0162699
725.522	0.0162519
725.600	0.0163324
725.678	0.0163021
725.756	0.0163053
725.834	0.0164139
725.913	0.0162869
725.991	0.0163841
726.069	0.0163270
726.147	0.0163157
726.225	0.0162535
726.303	0.0162261
726.381	0.0161945
726.459	0.0162460
726.538	0.0161731
726.616	0.0161761
726.694	0.0161505
726.772	0.0161827
726.850	0.0160318
726.928	0.0158772
727.006	0.0160500
727.084	0.0161216
727.163	0.0161352
727.241	0.0161630
727.319	0.0161143
727.397	0.0160118
727.475	0.0161556
727.553	0.0163027
727.631	0.0163963
727.709	0.0162534
727.788	0.0163152
727.866	0.0163898
727.944	0.0164745
728.022	0.0163451
728.100	0.0162215
728.178	0.0163853
728.256	0.0163826
728.334	0.0163294
728.413	0.0162276
728.491	0.0163190
728.569	0.0163725
728.647	0.0165033
728.725	0.0163757
728.803	0.0164977
728.881	0.0167648
728.959	0.0168810
729.038	0.0170332
729.116	0.0169864
729.194	0.0172321
729.272	0.0172058
729.350	0.0173579
729.428	0.0175879
729.506	0.0175860
729.584	0.0176306
729.663	0.0177515
729.741	0.0178111
729.819	0.0178275
729.897	0.0179043
729.975	0.0178269
730.053	0.0176211
730.131	0.0176033
730.209	0.0175909
730.288	0.0174070
730.366	0.0171731
730.444	0.0170162
730.522	0.0166429
730.600	0.0165022
730.678	0.0163448
730.756	0.0161747
730.834	0.0157116
730.913	0.0156184
730.991	0.0155907
731.069	0.0153968
731.147	0.0152603
731.225	0.0151512
731.303	0.0148936
731.381	0.0146292
731.459	0.0147635
731.538	0.0147108
731.616	0.0144958
731.694	0.0147763
731.772	0.0146769
731.850	0.0148545
731.928	0.0148631
732.006	0.0150985
732.084	0.0151482
732.163	0.0153410
732.241	0.0154449
732.319	0.0156022
732.397	0.0158220
732.475	0.0159455
732.553	0.0162782
732.631	0.0163360
732.709	0.0165492
732.788	0.0167706
732.866	0.0168543
732.944	0.0170490
733.022	0.0171647
733.100	0.0170944
733.178	0.0173377
733.256	0.0173661
733.334	0.0173067
733.413	0.0174723
733.491	0.0177249
733.569	0.0174878
733.647	0.0174125
733.725	0.0173977
733.803	0.0174732
733.881	0.0173277
733.959	0.0173444
734.038	0.0174354
734.116	0.0172168
734.194	0.0169358
734.272	0.0169003
734.350	0.0168756
734.428	0.0168532
734.506	0.0167472
734.584	0.0167285
734.663	0.0166139
734.741	0.0165760
734.819	0.0164507
734.897	0.0163889
734.975	0.0163341
735.053	0.0162370
735.131	0.0163721
735.209	0.0163178
735.288	0.0161481
735.366	0.0161609
735.444	0.0162083
735.522	0.0161712
735.600	0.0160851
735.678	0.0161587
735.756	0.0162551
735.834	0.0159835
735.913	0.0162646
735.991	0.0162691
736.069	0.0161244
736.147	0.0162347
736.225	0.0163211
736.303	0.0163899
736.381	0.0164962
736.459	0.0164217
736.538	0.0165580
736.616	0.0164641
736.694	0.0165819
736.772	0.0165946
736.850	0.0165456
736.928	0.0164764
737.006	0.0166542
737.084	0.0165545
737.163	0.0164619
737.241	0.0164170
737.319	0.0164687
737.397	0.0165100
737.475	0.0165291
737.553	0.0164128
737.631	0.0163548
737.709	0.0164446
737.788	0.0163587
737.866	0.0162773
737.944	0.0161376
738.022	0.0160166
738.100	0.0161771
738.178	0.0160582
738.256	0.0160956
738.334	0.0160133
738.413	0.0158304
738.491	0.0159265
738.569	0.0160979
738.647	0.0161428
738.725	0.0161520
738.803	0.0161488
738.881	0.0160677
738.959	0.0162011
739.038	0.0163917
739.116	0.0164622
739.194	0.0165316
739.272	0.0165612
739.350	0.0167634
739.428	0.0167147
739.506	0.0167969
739.584	0.0168749
739.663	0.0169978
739.741	0.0170126
739.819	0.0170290
739.897	0.0170206
739.975	0.0170382
740.053	0.0170757
740.131	0.0169185
740.209	0.0170036
740.288	0.0168721
740.366	0.0168191
740.444	0.0167054
740.522	0.0165878
740.600	0.0165905
740.678	0.0164647
740.756	0.0162505
740.834	0.0162865
740.913	0.0161691
740.991	0.0161848
741.069	0.0161960
741.147	0.0160722
741.225	0.0160623
741.303	0.0161772
741.381	0.0161053
741.459	0.0159854
741.538	0.0160899
741.616	0.0162055
741.694	0.0161519
741.772	0.0162501
741.850	0.0162381
741.928	0.0161560
742.006	0.0162449
742.084	0.0163717
742.163	0.0164521
742.241	0.0165086
742.319	0.0165319
742.397	0.0165979
742.475	0.0165960
742.553	0.0165842
742.631	0.0165829
742.709	0.0166824
742.788	0.0166393
742.866	0.0164943
742.944	0.0167466
743.022	0.0166714
743.100	0.0167831
743.178	0.0169193
743.256	0.0169307
743.334	0.0168066
743.413	0.0168342
743.491	0.0169875
743.569	0.0170457
743.647	0.0169784
743.725	0.0170776
743.803	0.0170432
743.881	0.0170755
743.959	0.0171717
744.038	0.0172334
744.116	0.0171692
744.194	0.0172239
744.272	0.0171555
744.350	0.0171200
744.428	0.0170930
744.506	0.0170338
744.584	0.0169074
744.663	0.0169059
744.741	0.0168305
744.819	0.0167867
744.897	0.0166045
744.975	0.0165260
745.053	0.0164695
745.131	0.0163849
745.209	0.0163193
745.288	0.0162592
745.366	0.0160822
745.444	0.0159883
745.522	0.0159559
745.600	0.0157932
745.678	0.0155842
745.756	0.0158058
745.834	0.0156895
745.913	0.0156249
745.991	0.0157722
746.069	0.0157648
746.147	0.0156236
746.225	0.0157472
746.303	0.0156374
746.381	0.0156995
746.459	0.0157434
746.538	0.0158183
746.616	0.0159245
746.694	0.0158488
746.772	0.0158735
746.850	0.0159248
746.928	0.0160769
747.006	0.0161521
747.084	0.0160975
747.163	0.0160228
747.241	0.0159701
747.319	0.0163714
747.397	0.0164919
747.475	0.0164545
747.553	0.0166443
747.631	0.0167601
747.709	0.0168513
747.788	0.0169742
747.866	0.0171006
747.944	0.0172236
748.022	0.0172724
748.100	0.0172775
748.178	0.0174471
748.256	0.0174803
748.334	0.0173852
748.413	0.0174142
748.491	0.0173655
748.569	0.0171889
748.647	0.0172387
748.725	0.0170679
748.803	0.0170890
748.881	0.0170541
748.959	0.0168603
749.038	0.0168198
749.116	0.0166078
749.194	0.0164794
749.272	0.0164346
749.350	0.0163656
749.428	0.0163782
749.506	0.0162446
749.584	0.0162239
749.663	0.0160546
749.741	0.0161170
749.819	0.0159677
749.897	0.0158799
749.975	0.0158964
750.053	0.0158926
750.131	0.0158097
750.209	0.0159922
750.288	0.0159059
750.366	0.0158877
750.444	0.0161549
750.522	0.0161916
750.600	0.0162379
750.678	0.0163029
750.756	0.0162523
750.834	0.0162773
750.913	0.0164428
750.991	0.0165172
751.069	0.0166357
751.147	0.0166090
751.225	0.0166654
751.303	0.0168449
751.381	0.0168112
751.459	0.0167423
751.538	0.0167402
751.616	0.0166973
751.694	0.0168584
751.772	0.0168623
751.850	0.0167724
751.928	0.0168027
752.006	0.0166889
752.084	0.0167307
752.163	0.0167307
752.241	0.0165762
752.319	0.0165429
752.397	0.0164903
752.475	0.0164877
752.553	0.0162375
752.631	0.0161752
752.709	0.0161433
752.788	0.0159532
752.866	0.0159462
752.944	0.0158499
753.022	0.0159637
753.100	0.0158348
753.178	0.0157585
753.256	0.0157753
753.334	0.0157313
753.413	0.0157575
753.491	0.0158829
753.569	0.0158341
753.647	0.0159919
753.725	0.0158925
753.803	0.0159929
753.881	0.0162413
753.959	0.0164150
754.038	0.0164365
754.116	0.0164561
754.194	0.0166327
754.272	0.0166759
754.350	0.0166572
754.428	0.0168868
754.506	0.0169198
754.584	0.0169527
754.663	0.0170748
754.741	0.0171117
754.819	0.0170667
754.897	0.0170585
754.975	0.0170674
755.053	0.0170185
755.131	0.0168269
755.209	0.0168106
755.288	0.0167880
755.366	0.0164727
755.444	0.0164686
755.522	0.0162685
755.600	0.0161954
755.678	0.0161280
755.756	0.0160648
755.834	0.0159335
755.913	0.0158882
755.991	0.0159306
756.069	0.0159049
756.147	0.0159979
756.225	0.0161578
756.303	0.0162659
756.381	0.0161329
756.459	0.0163748
756.538	0.0164952
756.616	0.0165940
756.694	0.0166927
756.772	0.0169345
756.850	0.0171247
756.928	0.0170277
757.006	0.0171152
757.084	0.0172974
757.163	0.0172190
757.241	0.0172579
757.319	0.0172948
757.397	0.0172207
757.475	0.0172929
757.553	0.0170731
757.631	0.0169878
757.709	0.0169117
757.788	0.0169305
757.866	0.0167006
757.944	0.0164696
758.022	0.0163570
758.100	0.0162924
758.178	0.0160892
758.256	0.0159464
758.334	0.0159061
758.413	0.0156803
758.491	0.0155564
758.569	0.0156848
758.647	0.0158038
758.725	0.0156133
758.803	0.0157388
758.881	0.0156484
758.959	0.0158120
759.038	0.0158518
759.116	0.0157899
759.194	0.0160017
759.272	0.0161010
759.350	0.0160230
759.428	0.0162537
759.506	0.0163289
759.584	0.0164035
759.663	0.0164584
759.741	0.0165154
759.819	0.0164812
759.897	0.0165314
759.975	0.0166660
760.053	0.0165572
760.131	0.0165182
760.209	0.0167617
760.288	0.0165457
760.366	0.0166699
760.444	0.0165524
760.522	0.0165324
760.600	0.0164462
760.678	0.0164691
760.756	0.0164857
760.834	0.0164230
760.913	0.0164645
760.991	0.0164807
761.069	0.0165298
761.147	0.0165741
761.225	0.0165362
761.303	0.0165081
761.381	0.0165482
761.459	0.0166560
761.538	0.0165131
761.616	0.0165717
761.694	0.0166364
761.772	0.0167925
761.850	0.0167722
761.928	0.0168282
762.006	0.0169442
762.084	0.0166908
762.163	0.0168018
762.241	0.0167451
762.319	0.0168614
762.397	0.0166546
762.475	0.0167735
762.553	0.0167233
762.631	0.0168646
762.709	0.0166234
762.788	0.0166649
762.866	0.0166559
762.944	0.0166273
763.022	0.0167046
763.100	0.0167301
763.178	0.0167548
763.256	0.0166516
763.334	0.0167077
763.413	0.0164941
763.491	0.0166950
763.569	0.0167420
763.647	0.0165340
763.725	0.0165700
763.803	0.0163712
763.881	0.0164977
763.959	0.0162643
764.038	0.0161087
764.116	0.0161076
764.194	0.0160615
764.272	0.0160078
764.350	0.0157140
764.428	0.0158678
764.506	0.0158316
764.584	0.0155001
764.663	0.0155473
764.741	0.0156863
764.819	0.0156604
764.897	0.0155702
764.975	0.0156169
765.053	0.0156647
765.131	0.0159492
765.209	0.0159634
765.288	0.0161375
765.366	0.0162965
765.444	0.0164124
765.522	0.0165811
765.600	0.0167488
765.678	0.0168184
765.756	0.0168819
765.834	0.0170310
765.913	0.0171414
765.991	0.0172587
766.069	0.0174562
766.147	0.0173315
766.225	0.0173779
766.303	0.0173732
766.381	0.0172251
766.459	0.0172630
766.538	0.0172700
766.616	0.0170323
766.694	0.0170716
766.772	0.0169338
766.850	0.0167411
766.928	0.0166367
767.006	0.0163747
767.084	0.0162016
767.163	0.0161654
767.241	0.0158409
767.319	0.0158133
767.397	0.0157816
767.475	0.0156696
767.553	0.0155540
767.631	0.0155042
767.709	0.0154336
767.788	0.0157235
767.866	0.0156368
767.944	0.0157404
768.022	0.0156815
768.100	0.0159324
768.178	0.0159179
768.256	0.0158652
768.334	0.0160544
768.413	0.0162784
768.491	0.0164828
768.569	0.0166077
768.647	0.0167403
768.725	0.0168661
768.803	0.0171040
768.881	0.0169995
768.959	0.0171103
769.038	0.0172808
769.116	0.0172287
769.194	0.0172959
769.272	0.0172562
769.350	0.0171771
769.428	0.0172729
769.506	0.0173774
769.584	0.0171172
769.663	0.0169625
769.741	0.0167441
769.819	0.0169556
769.897	0.0168826
769.975	0.0165574
770.053	0.0165222
770.131	0.0164462
770.209	0.0163574
770.288	0.0162795
770.366	0.0162331
770.444	0.0160778
770.522	0.0159994
770.600	0.0159172
770.678	0.0158765
770.756	0.0158337
770.834	0.0157887
770.913	0.0159103
770.991	0.0158232
771.069	0.0159229
771.147	0.0159753
771.225	0.0160577
771.303	0.0160455
771.381	0.0162006
771.459	0.0162455
771.538	0.0165151
771.616	0.0165636
771.694	0.0166769
771.772	0.0165590
771.850	0.0165775
771.928	0.0166746
772.006	0.0167252
772.084	0.0166203
772.163	0.0166732
772.241	0.0166167
772.319	0.0164709
772.397	0.0164342
772.475	0.0164788
772.553	0.0163053
772.631	0.0162854
772.709	0.0162180
772.788	0.0160513
772.866	0.0160665
772.944	0.0160248
773.022	0.0159182
773.100	0.0158134
773.178	0.0158488
773.256	0.0158088
773.334	0.0158098
773.413	0.0160565
773.491	0.0158737
773.569	0.0159211
773.647	0.0160718
773.725	0.0161982
773.803	0.0162560
773.881	0.0163152
773.959	0.0166080
774.038	0.0165667
774.116	0.0166743
774.194	0.0167155
774.272	0.0166934
774.350	0.0168708
774.428	0.0169273
774.506	0.0169981
774.584	0.0170770
774.663	0.0171196
774.741	0.0171350
774.819	0.0170746
774.897	0.0169777
774.975	0.0169945
775.053	0.0169373
775.131	0.0167966
775.209	0.0168421
775.288	0.0166219
775.366	0.0168031
775.444	0.0166393
775.522	0.0165247
775.600	0.0166148
775.678	0.0165630
775.756	0.0163526
775.834	0.0163810
775.913	0.0163834
775.991	0.0163541
776.069	0.0162452
776.147	0.0160574
776.225	0.0161248
776.303	0.0162207
776.381	0.0161971
776.459	0.0162049
776.538	0.0161894
776.616	0.0161320
776.694	0.0163815
776.772	0.0163892
776.850	0.0164777
776.928	0.0164626
777.006	0.0166769
777.084	0.0164981
777.163	0.0165381
777.241	0.0167716
777.319	0.0165802
777.397	0.0166137
777.475	0.0166345
777.553	0.0166113
777.631	0.0167277
777.709	0.0167126
777.788	0.0165028
777.866	0.0164265
777.944	0.0164778
778.022	0.0163415
778.100	0.0163477
778.178	0.0160870
778.256	0.0162122
778.334	0.0162107
778.413	0.0161279
778.491	0.0160027
778.569	0.0160041
778.647	0.0161787
778.725	0.0160426
778.803	0.0161186
778.881	0.0161620
778.959	0.0162579
779.038	0.0163206
779.116	0.0161871
779.194	0.0164147
779.272	0.0165763
779.350	0.0163930
779.428	0.0165356
779.506	0.0166842
779.584	0.0166039
779.663	0.0166333
779.741	0.0166524
779.819	0.0168544
779.897	0.0168448
779.975	0.0166763
780.053	0.0167136
780.131	0.0166933
780.209	0.0165683
780.288	0.0166696
780.366	0.0167635
780.444	0.0167958
780.522	0.0167368
780.600	0.0167185
780.678	0.0166735
780.756	0.0166679
780.834	0.0167065
780.913	0.0167638
780.991	0.0166333
781.069	0.0165552
781.147	0.0166006
781.225	0.0166293
781.303	0.0164570
781.381	0.0163934
781.459	0.0164042
781.538	0.0165221
781.616	0.0163737
781.694	0.0163096
781.772	0.0163574
781.850	0.0161777
781.928	0.0163546
782.006	0.0161169
782.084	0.0162214
782.163	0.0161967
782.241	0.0161010
782.319	0.0161921
782.397	0.0162443
782.475	0.0162338
782.553	0.0163058
782.631	0.0163242
782.709	0.0164040
782.788	0.0163884
782.866	0.0163676
782.944	0.0165545
783.022	0.0166009
783.100	0.0165399
783.178	0.0165527
783.256	0.0167178
783.334	0.0167919
783.413	0.0168790
783.491	0.0169025
783.569	0.0167692
783.647	0.0167216
783.725	0.0167632
783.803	0.0167751
783.881	0.0166789
783.959	0.0167944
784.038	0.0167992
784.116	0.0168058
784.194	0.0165990
784.272	0.0166022
784.350	0.0165209
784.428	0.0165666
784.506	0.0165751
784.584	0.0166649
784.663	0.0166116
784.741	0.0166484
784.819	0.0166634
784.897	0.0166940
784.975	0.0164757
785.053	0.0166391
785.131	0.0166087
785.209	0.0167252
785.288	0.0166885
785.366	0.0167822
785.444	0.0167043
785.522	0.0166036
785.600	0.0167119
785.678	0.0167080
785.756	0.0167536
785.834	0.0166890
785.913	0.0166020
785.991	0.0165983
786.069	0.0164564
786.147	0.0164799
786.225	0.0165534
786.303	0.0163846
786.381	0.0163572
786.459	0.0163709
786.538	0.0162225
786.616	0.0161317
786.694	0.0162465
786.772	0.0162373
786.850	0.0162456
786.928	0.0162562
787.006	0.0162366
787.084	0.0162163
787.163	0.0162791
787.241	0.0162882
787.319	0.0161380
787.397	0.0161822
787.475	0.0163541
787.553	0.0162994
787.631	0.0162534
787.709	0.0162327
787.788	0.0162200
787.866	0.0164156
787.944	0.0163766
788.022	0.0163261
788.100	0.0162904
788.178	0.0161012
788.256	0.0162631
788.334	0.0163229
788.413	0.0163662
788.491	0.0163058
788.569	0.0162730
788.647	0.0162427
788.725	0.0162105
788.803	0.0163010
788.881	0.0162173
788.959	0.0162157
789.038	0.0162545
789.116	0.0163411
789.194	0.0162873
789.272	0.0162640
789.350	0.0163911
789.428	0.0162045
789.506	0.0163342
789.584	0.0163305
789.663	0.0164640
789.741	0.0163965
789.819	0.0164713
789.897	0.0166765
789.975	0.0167030
790.053	0.0166307
790.131	0.0166280
790.209	0.0166334
790.288	0.0165524
790.366	0.0166058
790.444	0.0166524
790.522	0.0166397
790.600	0.0167699
790.678	0.0166739
790.756	0.0166620
790.834	0.0167049
790.913	0.0167274
790.991	0.0166098
791.069	0.0165232
791.147	0.0165890
791.225	0.0165555
791.303	0.0166142
791.381	0.0164300
791.459	0.0164269
791.538	0.0163043
791.616	0.0164388
791.694	0.0164478
791.772	0.0164809
791.850	0.0164046
791.928	0.0164225
792.006	0.0163552
792.084	0.0165553
792.163	0.0164567
792.241	0.0162048
792.319	0.0163980
792.397	0.0163577
792.475	0.0161395
792.553	0.0164250
792.631	0.0163518
792.709	0.0163498
792.788	0.0162463
792.866	0.0162910
792.944	0.0163367
793.022	0.0162511
793.100	0.0162328
793.178	0.0161963
793.256	0.0161682
793.334	0.0162824
793.413	0.0161098
793.491	0.0161160
793.569	0.0162153
793.647	0.0161520
793.725	0.0160760
793.803	0.0162804
793.881	0.0162009
793.959	0.0161848
794.038	0.0159953
794.116	0.0160019
794.194	0.0161369
794.272	0.0161433
794.350	0.0160555
794.428	0.0162903
794.506	0.0161276
794.584	0.0161935
794.663	0.0163306
794.741	0.0163354
794.819	0.0162147
794.897	0.0161416
794.975	0.0163006
795.053	0.0163899
795.131	0.0165008
795.209	0.0164355
795.288	0.0163707
795.366	0.0163940
795.444	0.0164674
795.522	0.0163893
795.600	0.0162858
795.678	0.0166208
795.756	0.0165786
795.834	0.0165694
795.913	0.0164916
795.991	0.0164887
796.069	0.0164880
796.147	0.0166171
796.225	0.0166529
796.303	0.0167536
796.381	0.0166503
796.459	0.0166971
796.538	0.0168036
796.616	0.0167683
796.694	0.0167705
796.772	0.0168378
796.850	0.0167078
796.928	0.0167976
797.006	0.0167648
797.084	0.0168475
797.163	0.0168530
797.241	0.0169865
797.319	0.0167848
797.397	0.0169032
797.475	0.0169167
797.553	0.0168613
797.631	0.0166953
797.709	0.0168576
797.788	0.0167632
797.866	0.0165730
797.944	0.0166768
798.022	0.0167300
798.100	0.0166003
798.178	0.0165602
798.256	0.0165276
798.334	0.0164655
798.413	0.0163812
798.491	0.0163495
798.569	0.0162366
798.647	0.0163244
798.725	0.0164328
798.803	0.0162722
798.881	0.0162408
798.959	0.0162556
799.038	0.0160852
799.116	0.0162543
799.194	0.0163289
799.272	0.0161736
799.350	0.0161468
799.428	0.0161794
799.506	0.0162104
799.584	0.0161071
799.663	0.0162033
799.741	0.0162841
799.819	0.0162830
799.897	0.0161548
799.975	0.0162392
800.053	0.0164586
800.131	0.0162839
800.209	0.0164407
800.288	0.0165031
800.366	0.0164075
800.444	0.0165323
800.522	0.0165934
800.600	0.0166479
800.678	0.0166476
800.756	0.0166485
800.834	0.0166074
800.913	0.0166644
800.991	0.0166980
801.069	0.0166002
801.147	0.0168387
801.225	0.0167273
801.303	0.0167023
801.381	0.0167939
801.459	0.0165853
801.538	0.0166737
801.616	0.0166164
801.694	0.0166666
801.772	0.0164866
801.850	0.0165929
801.928	0.0166260
802.006	0.0165481
802.084	0.0166056
802.163	0.0166107
802.241	0.0165088
802.319	0.0165672
802.397	0.0166239
802.475	0.0165648
802.553	0.0166111
802.631	0.0166719
802.709	0.0166361
802.788	0.0167643
802.866	0.0167181
802.944	0.0167271
803.022	0.0166389
803.100	0.0166566
803.178	0.0166380
803.256	0.0166642
803.334	0.0166505
803.413	0.0165899
803.491	0.0165469
803.569	0.0165714
803.647	0.0166056
803.725	0.0165122
803.803	0.0164987
803.881	0.0165557
803.959	0.0165512
804.038	0.0163988
804.116	0.0165463
804.194	0.0163452
804.272	0.0163712
804.350	0.0162524
804.428	0.0161938
804.506	0.0163422
804.584	0.0163929
804.663	0.0162918
804.741	0.0163028
804.819	0.0162429
804.897	0.0163938
804.975	0.0163125
805.053	0.0162641
805.131	0.0164198
805.209	0.0163110
805.288	0.0162870
805.366	0.0162724
805.444	0.0163811
805.522	0.0163670
805.600	0.0162581
805.678	0.0163062
805.756	0.0164370
805.834	0.0164695
805.913	0.0165115
805.991	0.0164569
806.069	0.0164335
806.147	0.0164420
806.225	0.0166244
806.303	0.0165462
806.381	0.0166521
806.459	0.0166636
806.538	0.0166209
806.616	0.0165416
806.694	0.0166347
806.772	0.0167485
806.850	0.0167476
806.928	0.0166251
807.006	0.0165456
807.084	0.0165998
807.163	0.0167702
807.241	0.0165335
807.319	0.0167339
807.397	0.0166885
807.475	0.0165961
807.553	0.0167281
807.631	0.0166321
807.709	0.0166026
807.788	0.0165234
807.866	0.0166598
807.944	0.0166904
808.022	0.0164410
808.100	0.0164268
808.178	0.0165637
808.256	0.0164641
808.334	0.0162951
808.413	0.0163161
808.491	0.0163556
808.569	0.0163868
808.647	0.0162460
808.725	0.0162328
808.803	0.0163039
808.881	0.0162740
808.959	0.0163153
809.038	0.0162659
809.116	0.0162807
809.194	0.0161401
809.272	0.0163720
809.350	0.0162746
809.428	0.0163424
809.506	0.0162717
809.584	0.0164922
809.663	0.0163139
809.741	0.0163731
809.819	0.0163285
809.897	0.0163989
809.975	0.0163621
810.053	0.0163526
810.131	0.0164051
810.209	0.0162944
810.288	0.0164352
810.366	0.0164888
810.444	0.0164394
810.522	0.0165314
810.600	0.0164600
810.678	0.0164263
810.756	0.0165611
810.834	0.0166412
810.913	0.0166090
810.991	0.0164600
811.069	0.0163763
811.147	0.0164695
811.225	0.0165699
811.303	0.0165110
811.381	0.0165314
811.459	0.0165815
811.538	0.0165945
811.616	0.0164966
811.694	0.0165047
811.772	0.0164986
811.850	0.0164217
811.928	0.0164953
812.006	0.0164577
812.084	0.0164869
812.163	0.0162999
812.241	0.0164235
812.319	0.0164574
812.397	0.0164167
812.475	0.0164631
812.553	0.0164426
812.631	0.0163838
812.709	0.0164927
812.788	0.0164360
812.866	0.0165614
812.944	0.0165665
813.022	0.0164223
813.100	0.0165162
813.178	0.0166589
813.256	0.0166132
813.334	0.0164725
813.413	0.0166029
813.491	0.0164276
813.569	0.0164656
813.647	0.0163174
813.725	0.0164266
813.803	0.0165264
813.881	0.0164905
813.959	0.0163814
814.038	0.0163831
814.116	0.0163575
814.194	0.0163938
814.272	0.0163042
814.350	0.0163580
814.428	0.0165462
814.506	0.0164782
814.584	0.0164164
814.663	0.0163165
814.741	0.0164435
814.819	0.0164892
814.897	0.0165923
814.975	0.0165863
815.053	0.0166610
815.131	0.0166405
815.209	0.0164925
815.288	0.0166116
815.366	0.0165652
815.444	0.0165719
815.522	0.0165401
815.600	0.0166503
815.678	0.0166982
815.756	0.0164667
815.834	0.0165936
815.913	0.0165646
815.991	0.0164557
816.069	0.0165286
816.147	0.0165123
816.225	0.0165261
816.303	0.0164114
816.381	0.0164133
816.459	0.0165513
816.538	0.0163967
816.616	0.0162619
816.694	0.0163267
816.772	0.0163434
816.850	0.0164663
816.928	0.0164859
817.006	0.0163798
817.084	0.0163186
817.163	0.0162836
817.241	0.0162220
817.319	0.0163164
817.397	0.0162817
817.475	0.0161475
817.553	0.0161542
817.631	0.0161629
817.709	0.0161121
817.788	0.0161536
817.866	0.0161965
817.944	0.0161746
818.022	0.0161178
818.100	0.0160472
818.178	0.0161449
818.256	0.0161414
818.334	0.0163129
818.413	0.0162395
818.491	0.0162926
818.569	0.0163412
818.647	0.0163017
818.725	0.0162469
818.803	0.0164066
818.881	0.0163911
818.959	0.0164857
819.038	0.0164813
819.116	0.0165006
819.194	0.0165134
819.272	0.0165353
819.350	0.0166220
819.428	0.0167602
819.506	0.0167200
819.584	0.0165211
819.663	0.0167173
819.741	0.0167148
819.819	0.0167159
819.897	0.0165622
819.975	0.0165890
820.053	0.0167058
820.131	0.0165331
820.209	0.0164841
820.288	0.0165678
820.366	0.0166296
820.444	0.0165184
820.522	0.0165545
820.600	0.0163901
820.678	0.0164726
820.756	0.0166191
820.834	0.0165646
820.913	0.0165031
820.991	0.0164727
821.069	0.0163946
821.147	0.0164866
821.225	0.0165639
821.303	0.0164925
821.381	0.0164819
821.459	0.0165964
821.538	0.0165097
821.616	0.0165659
821.694	0.0166623
821.772	0.0163435
821.850	0.0165900
821.928	0.0165456
822.006	0.0165088
822.084	0.0165208
822.163	0.0165141
822.241	0.0166341
822.319	0.0165363
822.397	0.0165015
822.475	0.0163836
822.553	0.0163658
822.631	0.0163990
822.709	0.0163592
822.788	0.0163380
822.866	0.0163618
822.944	0.0164698
823.022	0.0164130
823.100	0.0163235
823.178	0.0164209
823.256	0.0165340
823.334	0.0164516
823.413	0.0164611
823.491	0.0164596
823.569	0.0165271
823.647	0.0164613
823.725	0.0164925
823.803	0.0165253
823.881	0.0163592
823.959	0.0164320
824.038	0.0165216
824.116	0.0165350
824.194	0.0163460
824.272	0.0165916
824.350	0.0165588
824.428	0.0164574
824.506	0.0165059
824.584	0.0165292
824.663	0.0165221
824.741	0.0164836
824.819	0.0165260
824.897	0.0164516
824.975	0.0165176
825.053	0.0167259
825.131	0.0166165
825.209	0.0166403
825.288	0.0166859
825.366	0.0166553
825.444	0.0167999
825.522	0.0166730
825.600	0.0165945
825.678	0.0167509
825.756	0.0167447
825.834	0.0166405
825.913	0.0165922
825.991	0.0165565
826.069	0.0167218
826.147	0.0167684
826.225	0.0166615
826.303	0.0165813
826.381	0.0167986
826.459	0.0166126
826.538	0.0165958
826.616	0.0165302
826.694	0.0166116
826.772	0.0164555
826.850	0.0165352
826.928	0.0165688
827.006	0.0164352
827.084	0.0163888
827.163	0.0164830
827.241	0.0163865
827.319	0.0164362
827.397	0.0162647
827.475	0.0162412
827.553	0.0164747
827.631	0.0162984
827.709	0.0162880
827.788	0.0162415
827.866	0.0162978
827.944	0.0161569
828.022	0.0161824
828.100	0.0161921
828.178	0.0161767
828.256	0.0162779
828.334	0.0161756
828.413	0.0162552
828.491	0.0162690
828.569	0.0162926
828.647	0.0162949
828.725	0.0163438
828.803	0.0164889
828.881	0.0163167
828.959	0.0163647
829.038	0.0164932
829.116	0.0164317
829.194	0.0164626
829.272	0.0165060
829.350	0.0163687
829.428	0.0163871
829.506	0.0164056
829.584	0.0163874
829.663	0.0164423
829.741	0.0165585
829.819	0.0164909
829.897	0.0164852
829.975	0.0165482
830.053	0.0165950
830.131	0.0166010
830.209	0.0166202
830.288	0.0165537
830.366	0.0165402
830.444	0.0164979
830.522	0.0165627
830.600	0.0165788
830.678	0.0165147
830.756	0.0165072
830.834	0.0164607
830.913	0.0164177
830.991	0.0164966
831.069	0.0164796
831.147	0.0164686
831.225	0.0165217
831.303	0.0164411
831.381	0.0163974
831.459	0.0162892
831.538	0.0162809
831.616	0.0163824
831.694	0.0163868
831.772	0.0162245
831.850	0.0161715
831.928	0.0163796
832.006	0.0162113
832.084	0.0163157
832.163	0.0162289
832.241	0.0163091
832.319	0.0163324
832.397	0.0162558
832.475	0.0163996
832.553	0.0163314
832.631	0.0162299
832.709	0.0163064
832.788	0.0163478
832.866	0.0164292
832.944	0.0163037
833.022	0.0162554
833.100	0.0163717
833.178	0.0164465
833.256	0.0163471
833.334	0.0165778
833.413	0.0165295
833.491	0.0165137
833.569	0.0164512
833.647	0.0164504
833.725	0.0165218
833.803	0.0164172
833.881	0.0164456
833.959	0.0164707
834.038	0.0163728
834.116	0.0162663
834.194	0.0162793
834.272	0.0162703
834.350	0.0163062
834.428	0.0163824
834.506	0.0163982
834.584	0.0163761
834.663	0.0162801
834.741	0.0163324
834.819	0.0163202
834.897	0.0162637
834.975	0.0162106
835.053	0.0163520
835.131	0.0163574
835.209	0.0163060
835.288	0.0163257
835.366	0.0162809
835.444	0.0162546
835.522	0.0163728
835.600	0.0163960
835.678	0.0165282
835.756	0.0164137
835.834	0.0164490
835.913	0.0165517
835.991	0.0166926
836.069	0.0165971
836.147	0.0165915
836.225	0.0166187
836.303	0.0166440
836.381	0.0166824
836.459	0.0166872
836.538	0.0166599
836.616	0.0166096
836.694	0.0168480
836.772	0.0167841
836.850	0.0166513
836.928	0.0166702
837.006	0.0166305
837.084	0.0165372
837.163	0.0166985
837.241	0.0166965
837.319	0.0167074
837.397	0.0166173
837.475	0.0164909
837.553	0.0165231
837.631	0.0166351
837.709	0.0165475
837.788	0.0165601
837.866	0.0165611
837.944	0.0164467
838.022	0.0165655
838.100	0.0165468
838.178	0.0165503
838.256	0.0164832
838.334	0.0164949
838.413	0.0165045
838.491	0.0164743
838.569	0.0164365
838.647	0.0163183
838.725	0.0163432
838.803	0.0163936
838.881	0.0164220
838.959	0.0164504
839.038	0.0163435
839.116	0.0165272
839.194	0.0163792
839.272	0.0165099
839.350	0.0165077
839.428	0.0166206
839.506	0.0165404
839.584	0.0165656
839.663	0.0164579
839.741	0.0165218
839.819	0.0166015
839.897	0.0167510
839.975	0.0167792
840.053	0.0166503
840.131	0.0167932
840.209	0.0166544
840.288	0.0166355
840.366	0.0166372
840.444	0.0166737
840.522	0.0167049
840.600	0.0167358
840.678	0.0167584
840.756	0.0165495
840.834	0.0167316
840.913	0.0167516
840.991	0.0167535
841.069	0.0167731
841.147	0.0165894
841.225	0.0165462
841.303	0.0166528
841.381	0.0166732
841.459	0.0164754
841.538	0.0166213
841.616	0.0165687
841.694	0.0166420
841.772	0.0166431
841.850	0.0165366
841.928	0.0165372
842.006	0.0164574
842.084	0.0165641
842.163	0.0163816
842.241	0.0163931
842.319	0.0164561
842.397	0.0164938
842.475	0.0165310
842.553	0.0163385
842.631	0.0164296
842.709	0.0165090
842.788	0.0162906
842.866	0.0162473
842.944	0.0163750
843.022	0.0164308
843.100	0.0162511
843.178	0.0163627
843.256	0.0163432
843.334	0.0162995
843.413	0.0163477
843.491	0.0162528
843.569	0.0163294
843.647	0.0162590
843.725	0.0163622
843.803	0.0162139
843.881	0.0162609
843.959	0.0164230
844.038	0.0163591
844.116	0.0164076
844.194	0.0163740
844.272	0.0162507
844.350	0.0164828
844.428	0.0164248
844.506	0.0165043
844.584	0.0164381
844.663	0.0165114
844.741	0.0164797
844.819	0.0165429
844.897	0.0166402
844.975	0.0166085
845.053	0.0165591
845.131	0.0165649
845.209	0.0166843
845.288	0.0167287
845.366	0.0165906
845.444	0.0165915
845.522	0.0166858
845.600	0.0166384
845.678	0.0166404
845.756	0.0166648
845.834	0.0165651
845.913	0.0166520
845.991	0.0165896
846.069	0.0166314
846.147	0.0165175
846.225	0.0166232
846.303	0.0166850
846.381	0.0166026
846.459	0.0165460
846.538	0.0165501
846.616	0.0164949
846.694	0.0165988
846.772	0.0165367
846.850	0.0165721
846.928	0.0165762
847.006	0.0165352
847.084	0.0165418
847.163	0.0165115
847.241	0.0165984
847.319	0.0165433
847.397	0.0164108
847.475	0.0164864
847.553	0.0166645
847.631	0.0165221
847.709	0.0165166
847.788	0.0164147
847.866	0.0164267
847.944	0.0166032
848.022	0.0164953
848.100	0.0165730
848.178	0.0165204
848.256	0.0164586
848.334	0.0164429
848.413	0.0164260
848.491	0.0165411
848.569	0.0164555
848.647	0.0164961
848.725	0.0165127
848.803	0.0163055
848.881	0.0164335
848.959	0.0164523
849.038	0.0163954
849.116	0.0164256
849.194	0.0164318
849.272	0.0164103
849.350	0.0165027
849.428	0.0162640
849.506	0.0165298
849.584	0.0165052
849.663	0.0163850
849.741	0.0163940
849.819	0.0164089
849.897	0.0163744
849.975	0.0163104
850.053	0.0163582
850.131	0.0164015
850.209	0.0163428
850.288	0.0164542
850.366	0.0164903
850.444	0.0162963
850.522	0.0163388
850.600	0.0166096
850.678	0.0165249
850.756	0.0164163
850.834	0.0163966
850.913	0.0164401
850.991	0.0163938
851.069	0.0164020
851.147	0.0164360
851.225	0.0164846
851.303	0.0164207
851.381	0.0164571
851.459	0.0164091
851.538	0.0163914
851.616	0.0165195
851.694	0.0165870
851.772	0.0164352
851.850	0.0162851
851.928	0.0163870
852.006	0.0163975
852.084	0.0163177
852.163	0.0164307
852.241	0.0164328
852.319	0.0164777
852.397	0.0164789
852.475	0.0165422
852.553	0.0165040
852.631	0.0163992
852.709	0.0165691
852.788	0.0165272
852.866	0.0164722
852.944	0.0163543
853.022	0.0164736
853.100	0.0164793
853.178	0.0164572
853.256	0.0164722
853.334	0.0166157
853.413	0.0165913
853.491	0.0164858
853.569	0.0164268
853.647	0.0165425
853.725	0.0164548
853.803	0.0164861
853.881	0.0166517
853.959	0.0164124
854.038	0.0166360
854.116	0.0166438
854.194	0.0164818
854.272	0.0165758
854.350	0.0165034
854.428	0.0164972
854.506	0.0165874
854.584	0.0164718
854.663	0.0164735
854.741	0.0165104
854.819	0.0165528
854.897	0.0165199
854.975	0.0166796
855.053	0.0164910
855.131	0.0165507
855.209	0.0164384
855.288	0.0164072
855.366	0.0165590
855.444	0.0164748
855.522	0.0164972
855.600	0.0165805
855.678	0.0163679
855.756	0.0164590
855.834	0.0164302
855.913	0.0165623
855.991	0.0165813
856.069	0.0165619
856.147	0.0165195
856.225	0.0163757
856.303	0.0164122
856.381	0.0163908
856.459	0.0165680
856.538	0.0166193
856.616	0.0164175
856.694	0.0165418
856.772	0.0166412
856.850	0.0165424
856.928	0.0164868
857.006	0.0165446
857.084	0.0165321
857.163	0.0164600
857.241	0.0165969
857.319	0.0164357
857.397	0.0163668
857.475	0.0164262
857.553	0.0165005
857.631	0.0163969
857.709	0.0163569
857.788	0.0165125
857.866	0.0165511
857.944	0.0165737
858.022	0.0165366
858.100	0.0163979
858.178	0.0165056
858.256	0.0165117
858.334	0.0165331
858.413	0.0164046
858.491	0.0164198
858.569	0.0164531
858.647	0.0165087
858.725	0.0164968
858.803	0.0163897
858.881	0.0163422
858.959	0.0165135
859.038	0.0163792
859.116	0.0164307
859.194	0.0165784
859.272	0.0164347
859.350	0.0163802
859.428	0.0164516
859.506	0.0163837
859.584	0.0164217
859.663	0.0163931
859.741	0.0163715
859.819	0.0164307
859.897	0.0164736
859.975	0.0164392
860.053	0.0163643
860.131	0.0164632
860.209	0.0164838
860.288	0.0163697
860.366	0.0164887
860.444	0.0164932
860.522	0.0163771
860.600	0.0164135
860.678	0.0164227
860.756	0.0163538
860.834	0.0163863
860.913	0.0164243
860.991	0.0163860
861.069	0.0164424
861.147	0.0162450
861.225	0.0161824
861.303	0.0164493
861.381	0.0164572
861.459	0.0163606
861.538	0.0163456
861.616	0.0164869
861.694	0.0164192
861.772	0.0163503
861.850	0.0164431
861.928	0.0164232
862.006	0.0162753
862.084	0.0164201
862.163	0.0163967
862.241	0.0163498
862.319	0.0164855
862.397	0.0164196
862.475	0.0166162
862.553	0.0163095
862.631	0.0164610
862.709	0.0165849
862.788	0.0164841
862.866	0.0165189
862.944	0.0166034
863.022	0.0165435
863.100	0.0164774
863.178	0.0165349
863.256	0.0165089
863.334	0.0164751
863.413	0.0164560
863.491	0.0165514
863.569	0.0164700
863.647	0.0163183
863.725	0.0160928
863.803	0.0163384
863.881	0.0164186
863.959	0.0164391
864.038	0.0162994
864.116	0.0162778
864.194	0.0162995
864.272	0.0162507
864.350	0.0164474
864.428	0.0163771
864.506	0.0163424
864.584	0.0164057
864.663	0.0163311
864.741	0.0164702
864.819	0.0163987
864.897	0.0165675
864.975	0.0165939
865.053	0.0165137
865.131	0.0164404
865.209	0.0164280
865.288	0.0164696
865.366	0.0163993
865.444	0.0165418
865.522	0.0165807
865.600	0.0164656
865.678	0.0165147
865.756	0.0166197
865.834	0.0165123
865.913	0.0164648
865.991	0.0166255
866.069	0.0166262
866.147	0.0165910
866.225	0.0164801
866.303	0.0165495
866.381	0.0165247
866.459	0.0164854
866.538	0.0165143
866.616	0.0166336
866.694	0.0166779
866.772	0.0165335
866.850	0.0163724
866.928	0.0163651
867.006	0.0166434
867.084	0.0165063
867.163	0.0163381
867.241	0.0163660
867.319	0.0165296
867.397	0.0162920
867.475	0.0162679
867.553	0.0165250
867.631	0.0164195
867.709	0.0164628
867.788	0.0163090
867.866	0.0164192
867.944	0.0163934
868.022	0.0164035
868.100	0.0161947
868.178	0.0163458
868.256	0.0165874
868.334	0.0164979
868.413	0.0164133
868.491	0.0163140
868.569	0.0163223
868.647	0.0163565
868.725	0.0164867
868.803	0.0164426
868.881	0.0162915
868.959	0.0164771
869.038	0.0164651
869.116	0.0163455
869.194	0.0164111
869.272	0.0164095
869.350	0.0165685
869.428	0.0164958
869.506	0.0164984
869.584	0.0165996
869.663	0.0166085
869.741	0.0165419
869.819	0.0164819
869.897	0.0164882
869.975	0.0164965
870.053	0.0165813
870.131	0.0165434
870.209	0.0165112
870.288	0.0165849
870.366	0.0165208
870.444	0.0165195
870.522	0.0165932
870.600	0.0165752
870.678	0.0164568
870.756	0.0166679
870.834	0.0165527
870.913	0.0165796
870.991	0.0165516
871.069	0.0166251
871.147	0.0167459
871.225	0.0164144
871.303	0.0164571
871.381	0.0164928
871.459	0.0164979
871.538	0.0165950
871.616	0.0164848
871.694	0.0164178
871.772	0.0165305
871.850	0.0164065
871.928	0.0163490
872.006	0.0163291
872.084	0.0162220
872.163	0.0163923
872.241	0.0163267
872.319	0.0164192
872.397	0.0163464
872.475	0.0163522
872.553	0.0162258
872.631	0.0163576
872.709	0.0163995
872.788	0.0164642
872.866	0.0163078
872.944	0.0164730
873.022	0.0164420
873.100	0.0163531
873.178	0.0165736
873.256	0.0164165
873.334	0.0165833
873.413	0.0164024
873.491	0.0165169
873.569	0.0165395
873.647	0.0164734
873.725	0.0164954
873.803	0.0164415
873.881	0.0164703
873.959	0.0165731
874.038	0.0165498
874.116	0.0165604
874.194	0.0165965
874.272	0.0165612
874.350	0.0165283
874.428	0.0165521
874.506	0.0165574
874.584	0.0163950
874.663	0.0165586
874.741	0.0166434
874.819	0.0166618
874.897	0.0165210
874.975	0.0165511
875.053	0.0164715
875.131	0.0166353
875.209	0.0165043
875.288	0.0166313
875.366	0.0165696
875.444	0.0164906
875.522	0.0165907
875.600	0.0164747
875.678	0.0164806
875.756	0.0165324
875.834	0.0165979
875.913	0.0165055
875.991	0.0164693
876.069	0.0165767
876.147	0.0167440
876.225	0.0165724
876.303	0.0165252
876.381	0.0165908
876.459	0.0166120
876.538	0.0165508
876.616	0.0166138
876.694	0.0166556
876.772	0.0165907
876.850	0.0165533
876.928	0.0166349
877.006	0.0166518
877.084	0.0165382
877.163	0.0165468
877.241	0.0165551
877.319	0.0164325
877.397	0.0165859
877.475	0.0166926
877.553	0.0165179
877.631	0.0166512
877.709	0.0167931
877.788	0.0165736
877.866	0.0165865
877.944	0.0164635
878.022	0.0164728
878.100	0.0166718
878.178	0.0165031
878.256	0.0165011
878.334	0.0165991
878.413	0.0165583
878.491	0.0165478
878.569	0.0164857
878.647	0.0164809
878.725	0.0165379
878.803	0.0166752
878.881	0.0165293
878.959	0.0165097
879.038	0.0164954
879.116	0.0164682
879.194	0.0165527
879.272	0.0166154
879.350	0.0165160
879.428	0.0166904
879.506	0.0166570
879.584	0.0164868
879.663	0.0166247
879.741	0.0165815
879.819	0.0165331
879.897	0.0165340
879.975	0.0165430
880.053	0.0165261
880.131	0.0163730
880.209	0.0166006
880.288	0.0165690
880.366	0.0165089
880.444	0.0165273
880.522	0.0165788
880.600	0.0163881
880.678	0.0164368
880.756	0.0164788
880.834	0.0164069
880.913	0.0165491
880.991	0.0164290
881.069	0.0165279
881.147	0.0163702
881.225	0.0164078
881.303	0.0166206
881.381	0.0163659
881.459	0.0163580
881.538	0.0164001
881.616	0.0164313
881.694	0.0164525
881.772	0.0164676
881.850	0.0166257
881.928	0.0165129
882.006	0.0163642
882.084	0.0164410
882.163	0.0164772
882.241	0.0164669
882.319	0.0164948
882.397	0.0166192
882.475	0.0164799
882.553	0.0164371
882.631	0.0165843
882.709	0.0164731
882.788	0.0165906
882.866	0.0166119
882.944	0.0164619
883.022	0.0163710
883.100	0.0164973
883.178	0.0165491
883.256	0.0165357
883.334	0.0165979
883.413	0.0165195
883.491	0.0164359
883.569	0.0164426
883.647	0.0164717
883.725	0.0163129
883.803	0.0164600
883.881	0.0163181
883.959	0.0164254
884.038	0.0163319
884.116	0.0161881
884.194	0.0163351
884.272	0.0163827
884.350	0.0164037
884.428	0.0163579
884.506	0.0164128
884.584	0.0163728
884.663	0.0162857
884.741	0.0164848
884.819	0.0164847
884.897	0.0164362
884.975	0.0164690
885.053	0.0164460
885.131	0.0164819
885.209	0.0163667
885.288	0.0165781
885.366	0.0164535
885.444	0.0166307
885.522	0.0166196
885.600	0.0166381
885.678	0.0165621
885.756	0.0167410
885.834	0.0167520
885.913	0.0166061
885.991	0.0165982
886.069	0.0167361
886.147	0.0166539
886.225	0.0167490
886.303	0.0168275
886.381	0.0167403
886.459	0.0167204
886.538	0.0167163
886.616	0.0167118
886.694	0.0165750
886.772	0.0166184
886.850	0.0167020
886.928	0.0165867
887.006	0.0167033
887.084	0.0167529
887.163	0.0167057
887.241	0.0167092
887.319	0.0166930
887.397	0.0164899
887.475	0.0167309
887.553	0.0165047
887.631	0.0165991
887.709	0.0165511
887.788	0.0165289
887.866	0.0164481
887.944	0.0163949
888.022	0.0164400
888.100	0.0164057
888.178	0.0163408
888.256	0.0164182
888.334	0.0161958
888.413	0.0163818
888.491	0.0162808
888.569	0.0162760
888.647	0.0162857
888.725	0.0162896
888.803	0.0163433
888.881	0.0163681
888.959	0.0163774
889.038	0.0163185
889.116	0.0163149
889.194	0.0164661
889.272	0.0164379
889.350	0.0164621
889.428	0.0165234
889.506	0.0163924
889.584	0.0165899
889.663	0.0165486
889.741	0.0164885
889.819	0.0164245
889.897	0.0165756
889.975	0.0165517
890.053	0.0165763
890.131	0.0166058
890.209	0.0165442
890.288	0.0164938
890.366	0.0162843
890.444	0.0165928
890.522	0.0162901
890.600	0.0163779
890.678	0.0163006
890.756	0.0162130
890.834	0.0163428
890.913	0.0163003
890.991	0.0161922
891.069	0.0162335
891.147	0.0163852
891.225	0.0163329
891.303	0.0162173
891.381	0.0162801
891.459	0.0162394
891.538	0.0163704
891.616	0.0164212
891.694	0.0163999
891.772	0.0163520
891.850	0.0163682
891.928	0.0162566
892.006	0.0164310
892.084	0.0164248
892.163	0.0164989
892.241	0.0164159
892.319	0.0165211
892.397	0.0163511
892.475	0.0163915
892.553	0.0163721
892.631	0.0163609
892.709	0.0163223
892.788	0.0163423
892.866	0.0162091
892.944	0.0164874
893.022	0.0162779
893.100	0.0163383
893.178	0.0164038
893.256	0.0163774
893.334	0.0163194
893.413	0.0162712
893.491	0.0162665
893.569	0.0162276
893.647	0.0164101
893.725	0.0162785
893.803	0.0163168
893.881	0.0163918
893.959	0.0163683
894.038	0.0164362
894.116	0.0163850
894.194	0.0163181
894.272	0.0164476
894.350	0.0165328
894.428	0.0164685
894.506	0.0165180
894.584	0.0166142
894.663	0.0165022
894.741	0.0165830
894.819	0.0166376
894.897	0.0165922
894.975	0.0166252
895.053	0.0166214
895.131	0.0166145
895.209	0.0164819
895.288	0.0165484
895.366	0.0166410
895.444	0.0166312
895.522	0.0164833
895.600	0.0164988
895.678	0.0164048
895.756	0.0164644
895.834	0.0163870
895.913	0.0162710
895.991	0.0163697
896.069	0.0164861
896.147	0.0162798
896.225	0.0163407
896.303	0.0164545
896.381	0.0164306
896.459	0.0161618
896.538	0.0163905
896.616	0.0163247
896.694	0.0162741
896.772	0.0163355
896.850	0.0163538
896.928	0.0162662
897.006	0.0163811
897.084	0.0163036
897.163	0.0163597
897.241	0.0164624
897.319	0.0165089
897.397	0.0164990
897.475	0.0164355
897.553	0.0165878
897.631	0.0165465
897.709	0.0166779
897.788	0.0167554
897.866	0.0167643
897.944	0.0166532
898.022	0.0167652
898.100	0.0167441
898.178	0.0168796
898.256	0.0166349
898.334	0.0167216
898.413	0.0168179
898.491	0.0168297
898.569	0.0168254
898.647	0.0168356
898.725	0.0167486
898.803	0.0167857
898.881	0.0168578
898.959	0.0167973
899.038	0.0168414
899.116	0.0166832
899.194	0.0167330
899.272	0.0166204
899.350	0.0165260
899.428	0.0165936
899.506	0.0165596
899.584	0.0164820
899.663	0.0165645
899.741	0.0166940
899.819	0.0165501
899.897	0.0164693
899.975	0.0164082
900.053	0.0165333
900.131	0.0165205
900.209	0.0164385
900.288	0.0162769
900.366	0.0166777
900.444	0.0165866
900.522	0.0164194
900.600	0.0164714
900.678	0.0165629
900.756	0.0164613
900.834	0.0164991
900.913	0.0165099
900.991	0.0164735
901.069	0.0164819
901.147	0.0164524
901.225	0.0164530
901.303	0.0164274
901.381	0.0164938
901.459	0.0164219
901.538	0.0162645
901.616	0.0163797
901.694	0.0163496
901.772	0.0164483
901.850	0.0164199
901.928	0.0163429
902.006	0.0163559
902.084	0.0164681
902.163	0.0165005
902.241	0.0164038
902.319	0.0162839
902.397	0.0163655
902.475	0.0163857
902.553	0.0164808
902.631	0.0163809
902.709	0.0163693
902.788	0.0163294
902.866	0.0162996
902.944	0.0164014
903.022	0.0163770
903.100	0.0162971
903.178	0.0163703
903.256	0.0163363
903.334	0.0163522
903.413	0.0165553
903.491	0.0163453
903.569	0.0164297
903.647	0.0165070
903.725	0.0164069
903.803	0.0165450
903.881	0.0164856
903.959	0.0163423
904.038	0.0163087
904.116	0.0164821
904.194	0.0165997
904.272	0.0165697
904.350	0.0165353
904.428	0.0166211
904.506	0.0164467
904.584	0.0165164
904.663	0.0165941
904.741	0.0167089
904.819	0.0166127
904.897	0.0164923
904.975	0.0165878
905.053	0.0165502
905.131	0.0166958
905.209	0.0165956
905.288	0.0165285
905.366	0.0165211
905.444	0.0166466
905.522	0.0166004
905.600	0.0164789
905.678	0.0165411
905.756	0.0164590
905.834	0.0165370
905.913	0.0165488
905.991	0.0165953
906.069	0.0164722
906.147	0.0165124
906.225	0.0165391
906.303	0.0165111
906.381	0.0164420
906.459	0.0165466
906.538	0.0164257
906.616	0.0163435
906.694	0.0164574
906.772	0.0166021
906.850	0.0167088
906.928	0.0165343
907.006	0.0166576
907.084	0.0166176
907.163	0.0164748
907.241	0.0164478
907.319	0.0166077
907.397	0.0165681
907.475	0.0164728
907.553	0.0165242
907.631	0.0164600
907.709	0.0164613
907.788	0.0164729
907.866	0.0164560
907.944	0.0164217
908.022	0.0165644
908.100	0.0164824
908.178	0.0165732
908.256	0.0165096
908.334	0.0164581
908.413	0.0164386
908.491	0.0163847
908.569	0.0164117
908.647	0.0164966
908.725	0.0163680
908.803	0.0162860
908.881	0.0164208
908.959	0.0163138
909.038	0.0163396
909.116	0.0163336
909.194	0.0163105
909.272	0.0164512
909.350	0.0163686
909.428	0.0163313
909.506	0.0163713
909.584	0.0162948
909.663	0.0162401
909.741	0.0163815
909.819	0.0163358
909.897	0.0161966
909.975	0.0163000
910.053	0.0163727
910.131	0.0162153
910.209	0.0162950
910.288	0.0164596
910.366	0.0166078
910.444	0.0164884
910.522	0.0164349
910.600	0.0164556
910.678	0.0164146
910.756	0.0164407
910.834	0.0164154
910.913	0.0165397
910.991	0.0164537
911.069	0.0165065
911.147	0.0165624
911.225	0.0165208
911.303	0.0164150
911.381	0.0163766
911.459	0.0163786
911.538	0.0164249
911.616	0.0165100
911.694	0.0164167
911.772	0.0164081
911.850	0.0164739
911.928	0.0164053
912.006	0.0162130
912.084	0.0163344
912.163	0.0163578
912.241	0.0163946
912.319	0.0163914
912.397	0.0164310
912.475	0.0165172
912.553	0.0163194
912.631	0.0162272
912.709	0.0164723
912.788	0.0163372
912.866	0.0164393
912.944	0.0164459
913.022	0.0165632
913.100	0.0164139
913.178	0.0162437
913.256	0.0162549
913.334	0.0162833
913.413	0.0163649
913.491	0.0162560
913.569	0.0164250
913.647	0.0163939
913.725	0.0163086
913.803	0.0165266
913.881	0.0163509
913.959	0.0164285
914.038	0.0163087
914.116	0.0163374
914.194	0.0163670
914.272	0.0163193
914.350	0.0163181
914.428	0.0163862
914.506	0.0163957
914.584	0.0164297
914.663	0.0163430
914.741	0.0163538
914.819	0.0164239
914.897	0.0164526
914.975	0.0163416
915.053	0.0163084
915.131	0.0163503
915.209	0.0163800
915.288	0.0164307
915.366	0.0163475
915.444	0.0163020
915.522	0.0164243
915.600	0.0163911
915.678	0.0163813
915.756	0.0164749
915.834	0.0164314
915.913	0.0164445
915.991	0.0164952
916.069	0.0164151
916.147	0.0165302
916.225	0.0164872
916.303	0.0165613
916.381	0.0165722
916.459	0.0166427
916.538	0.0165883
916.616	0.0167088
916.694	0.0165659
916.772	0.0165922
916.850	0.0166943
916.928	0.0166354
917.006	0.0168945
917.084	0.0167852
917.163	0.0166529
917.241	0.0167850
917.319	0.0167573
917.397	0.0166342
917.475	0.0164880
917.553	0.0166551
917.631	0.0166454
917.709	0.0166502
917.788	0.0166556
917.866	0.0166035
917.944	0.0163889
918.022	0.0163546
918.100	0.0165144
918.178	0.0164747
918.256	0.0162434
918.334	0.0164322
918.413	0.0164664
918.491	0.0163495
918.569	0.0163857
918.647	0.0165044
918.725	0.0164204
918.803	0.0164291
918.881	0.0164141
918.959	0.0163387
919.038	0.0164008
919.116	0.0163838
919.194	0.0164661
919.272	0.0164944
919.350	0.0164340
919.428	0.0165335
919.506	0.0164223
919.584	0.0165546
919.663	0.0164886
919.741	0.0165275
919.819	0.0164852
919.897	0.0165321
