05/20/2022	21:31:15	Ver.	4.1	UNKNOWN
Optical Delay	599.975067	Delta X		0.078125	Sweeps	1	Scan Rate	0/0
Coordinates	Axis 1	NaN	Axis 2	NaN	Axis 3	NaN	Axis 4	NaN	Axis 5	NaN	Axis 6	0.000000
TX Power	0.000000	RX Power	0.000000

599.975	0.0161075
600.053	0.0159184
600.131	0.0161638
600.209	0.0162347
600.288	0.0161076
600.366	0.0161707
600.444	0.0161053
600.522	0.0162338
600.600	0.0161450
600.678	0.0160564
600.756	0.0161033
600.834	0.0160847
600.913	0.0160206
600.991	0.0160521
601.069	0.0161374
601.147	0.0160681
601.225	0.0161205
601.303	0.0161084
601.381	0.0161526
601.459	0.0162197
601.538	0.0161566
601.616	0.0160996
601.694	0.0161562
601.772	0.0162675
601.850	0.0162138
601.928	0.0161419
602.006	0.0161543
602.084	0.0160913
602.163	0.0161424
602.241	0.0161864
602.319	0.0161429
602.397	0.0160849
602.475	0.0161029
602.553	0.0161605
602.631	0.0161318
602.709	0.0162623
602.788	0.0160458
602.866	0.0160631
602.944	0.0160294
603.022	0.0159875
603.100	0.0161510
603.178	0.0160499
603.256	0.0159583
603.334	0.0160813
603.413	0.0162040
603.491	0.0162107
603.569	0.0158783
603.647	0.0160878
603.725	0.0161456
603.803	0.0162145
603.881	0.0161152
603.959	0.0159577
604.038	0.0162359
604.116	0.0161530
604.194	0.0161743
604.272	0.0162127
604.350	0.0161669
604.428	0.0163947
604.506	0.0161359
604.584	0.0159519
604.663	0.0161191
604.741	0.0162351
604.819	0.0161561
604.897	0.0160991
604.975	0.0162213
605.053	0.0160520
605.131	0.0162940
605.209	0.0162343
605.288	0.0160536
605.366	0.0161542
605.444	0.0162265
605.522	0.0162120
605.600	0.0162873
605.678	0.0162376
605.756	0.0161327
605.834	0.0160838
605.913	0.0162029
605.991	0.0161064
606.069	0.0161565
606.147	0.0162000
606.225	0.0162026
606.303	0.0161837
606.381	0.0161606
606.459	0.0162910
606.538	0.0162569
606.616	0.0161948
606.694	0.0162836
606.772	0.0163567
606.850	0.0161639
606.928	0.0161725
607.006	0.0162987
607.084	0.0162402
607.163	0.0162220
607.241	0.0163184
607.319	0.0161835
607.397	0.0161907
607.475	0.0163081
607.553	0.0161995
607.631	0.0162051
607.709	0.0160676
607.788	0.0160554
607.866	0.0162862
607.944	0.0162917
608.022	0.0162030
608.100	0.0162714
608.178	0.0162024
608.256	0.0162824
608.334	0.0163026
608.413	0.0162125
608.491	0.0163696
608.569	0.0161318
608.647	0.0161852
608.725	0.0162968
608.803	0.0162536
608.881	0.0161467
608.959	0.0161359
609.038	0.0161772
609.116	0.0161945
609.194	0.0162458
609.272	0.0162782
609.350	0.0162648
609.428	0.0162054
609.506	0.0162957
609.584	0.0163027
609.663	0.0162257
609.741	0.0161909
609.819	0.0163217
609.897	0.0163537
609.975	0.0162664
610.053	0.0164022
610.131	0.0161403
610.209	0.0164269
610.288	0.0163538
610.366	0.0163655
610.444	0.0162653
610.522	0.0162743
610.600	0.0162503
610.678	0.0162925
610.756	0.0162766
610.834	0.0162640
610.913	0.0161789
610.991	0.0162564
611.069	0.0161736
611.147	0.0161431
611.225	0.0162302
611.303	0.0161741
611.381	0.0162746
611.459	0.0161135
611.538	0.0160524
611.616	0.0162753
611.694	0.0163070
611.772	0.0163032
611.850	0.0162532
611.928	0.0161403
612.006	0.0161094
612.084	0.0162418
612.163	0.0161768
612.241	0.0162656
612.319	0.0161036
612.397	0.0161179
612.475	0.0161169
612.553	0.0161839
612.631	0.0162623
612.709	0.0162195
612.788	0.0161316
612.866	0.0161317
612.944	0.0161569
613.022	0.0160986
613.100	0.0161599
613.178	0.0162184
613.256	0.0163087
613.334	0.0162354
613.413	0.0162664
613.491	0.0161739
613.569	0.0162560
613.647	0.0162162
613.725	0.0163393
613.803	0.0163482
613.881	0.0162608
613.959	0.0161471
614.038	0.0163163
614.116	0.0162700
614.194	0.0163967
614.272	0.0163586
614.350	0.0161171
614.428	0.0162270
614.506	0.0163523
614.584	0.0161666
614.663	0.0162292
614.741	0.0162385
614.819	0.0161052
614.897	0.0162192
614.975	0.0163055
615.053	0.0163038
615.131	0.0162226
615.209	0.0161444
615.288	0.0162321
615.366	0.0162163
615.444	0.0161041
615.522	0.0161167
615.600	0.0162273
615.678	0.0162051
615.756	0.0162351
615.834	0.0162454
615.913	0.0160604
615.991	0.0162734
616.069	0.0162086
616.147	0.0162463
616.225	0.0162202
616.303	0.0161620
616.381	0.0161526
616.459	0.0161575
616.538	0.0161344
616.616	0.0160696
616.694	0.0162095
616.772	0.0161256
616.850	0.0160605
616.928	0.0160691
617.006	0.0162074
617.084	0.0162029
617.163	0.0160739
617.241	0.0161736
617.319	0.0161349
617.397	0.0162481
617.475	0.0160636
617.553	0.0161441
617.631	0.0162368
617.709	0.0161855
617.788	0.0160299
617.866	0.0161397
617.944	0.0162313
618.022	0.0160321
618.100	0.0162096
618.178	0.0162236
618.256	0.0160487
618.334	0.0162057
618.413	0.0160780
618.491	0.0160538
618.569	0.0160250
618.647	0.0161261
618.725	0.0161483
618.803	0.0160474
618.881	0.0161228
618.959	0.0160264
619.038	0.0161127
619.116	0.0160307
619.194	0.0160653
619.272	0.0161671
619.350	0.0160345
619.428	0.0161259
619.506	0.0161258
619.584	0.0160873
619.663	0.0160222
619.741	0.0160410
619.819	0.0160161
619.897	0.0159769
619.975	0.0161438
620.053	0.0161553
620.131	0.0160471
620.209	0.0161221
620.288	0.0160439
620.366	0.0160413
620.444	0.0161375
620.522	0.0160459
620.600	0.0160030
620.678	0.0161377
620.756	0.0158955
620.834	0.0160641
620.913	0.0161638
620.991	0.0159725
621.069	0.0160109
621.147	0.0161051
621.225	0.0161868
621.303	0.0159921
621.381	0.0160101
621.459	0.0160944
621.538	0.0160394
621.616	0.0161253
621.694	0.0160867
621.772	0.0160061
621.850	0.0160641
621.928	0.0160535
622.006	0.0161910
622.084	0.0160858
622.163	0.0160954
622.241	0.0162836
622.319	0.0161781
622.397	0.0160931
622.475	0.0160754
622.553	0.0161524
622.631	0.0162298
622.709	0.0162382
622.788	0.0161668
622.866	0.0161831
622.944	0.0162261
623.022	0.0161940
623.100	0.0161353
623.178	0.0161662
623.256	0.0162952
623.334	0.0161407
623.413	0.0162535
623.491	0.0162021
623.569	0.0162650
623.647	0.0161305
623.725	0.0162392
623.803	0.0163930
623.881	0.0162780
623.959	0.0164207
624.038	0.0163228
624.116	0.0162840
624.194	0.0163975
624.272	0.0163177
624.350	0.0162755
624.428	0.0163127
624.506	0.0163755
624.584	0.0163490
624.663	0.0162868
624.741	0.0162094
624.819	0.0162894
624.897	0.0161959
624.975	0.0162001
625.053	0.0163777
625.131	0.0162622
625.209	0.0161945
625.288	0.0161463
625.366	0.0161299
625.444	0.0162217
625.522	0.0163131
625.600	0.0162314
625.678	0.0162810
625.756	0.0162599
625.834	0.0161404
625.913	0.0162238
625.991	0.0162533
626.069	0.0162470
626.147	0.0161788
626.225	0.0162527
626.303	0.0162157
626.381	0.0161369
626.459	0.0161154
626.538	0.0161382
626.616	0.0161347
626.694	0.0160738
626.772	0.0162017
626.850	0.0162026
626.928	0.0161962
627.006	0.0161108
627.084	0.0161765
627.163	0.0162749
627.241	0.0160965
627.319	0.0161212
627.397	0.0162754
627.475	0.0161441
627.553	0.0161282
627.631	0.0163406
627.709	0.0162224
627.788	0.0160767
627.866	0.0162939
627.944	0.0162566
628.022	0.0161740
628.100	0.0161107
628.178	0.0160898
628.256	0.0162095
628.334	0.0162063
628.413	0.0160601
628.491	0.0160046
628.569	0.0162794
628.647	0.0161607
628.725	0.0161375
628.803	0.0161440
628.881	0.0161802
628.959	0.0159913
629.038	0.0160516
629.116	0.0161440
629.194	0.0161222
629.272	0.0162701
629.350	0.0160474
629.428	0.0162058
629.506	0.0161357
629.584	0.0159628
629.663	0.0160323
629.741	0.0160919
629.819	0.0161774
629.897	0.0160017
629.975	0.0161206
630.053	0.0161129
630.131	0.0160448
630.209	0.0160443
630.288	0.0159855
630.366	0.0161610
630.444	0.0161947
630.522	0.0160396
630.600	0.0161305
630.678	0.0161514
630.756	0.0160471
630.834	0.0162121
630.913	0.0162243
630.991	0.0161734
631.069	0.0160352
631.147	0.0160699
631.225	0.0161195
631.303	0.0160989
631.381	0.0160690
631.459	0.0162356
631.538	0.0160728
631.616	0.0161436
631.694	0.0161287
631.772	0.0160001
631.850	0.0161380
631.928	0.0160905
632.006	0.0159446
632.084	0.0161246
632.163	0.0160248
632.241	0.0160711
632.319	0.0160056
632.397	0.0160118
632.475	0.0161205
632.553	0.0160052
632.631	0.0159737
632.709	0.0160719
632.788	0.0161306
632.866	0.0159809
632.944	0.0161406
633.022	0.0161209
633.100	0.0162759
633.178	0.0161301
633.256	0.0161654
633.334	0.0161047
633.413	0.0161270
633.491	0.0161135
633.569	0.0162756
633.647	0.0162009
633.725	0.0162352
633.803	0.0161360
633.881	0.0162622
633.959	0.0162089
634.038	0.0162164
634.116	0.0161893
634.194	0.0160670
634.272	0.0163564
634.350	0.0162720
634.428	0.0162248
634.506	0.0162503
634.584	0.0162836
634.663	0.0161575
634.741	0.0162463
634.819	0.0162367
634.897	0.0162467
634.975	0.0162401
635.053	0.0161401
635.131	0.0163274
635.209	0.0163544
635.288	0.0161662
635.366	0.0161723
635.444	0.0162631
635.522	0.0162959
635.600	0.0162973
635.678	0.0162152
635.756	0.0163105
635.834	0.0163276
635.913	0.0160891
635.991	0.0162772
636.069	0.0162888
636.147	0.0162682
636.225	0.0162304
636.303	0.0161414
636.381	0.0161794
636.459	0.0162556
636.538	0.0162859
636.616	0.0161157
636.694	0.0162344
636.772	0.0161949
636.850	0.0163111
636.928	0.0162568
637.006	0.0162045
637.084	0.0162420
637.163	0.0162717
637.241	0.0160210
637.319	0.0162764
637.397	0.0163596
637.475	0.0161670
637.553	0.0161095
637.631	0.0162316
637.709	0.0161727
637.788	0.0162637
637.866	0.0163165
637.944	0.0163163
638.022	0.0162697
638.100	0.0160369
638.178	0.0163483
638.256	0.0162426
638.334	0.0162981
638.413	0.0162311
638.491	0.0162254
638.569	0.0162732
638.647	0.0161631
638.725	0.0163199
638.803	0.0163100
638.881	0.0162613
638.959	0.0162521
639.038	0.0162524
639.116	0.0162474
639.194	0.0161970
639.272	0.0163727
639.350	0.0162518
639.428	0.0162707
639.506	0.0162530
639.584	0.0163186
639.663	0.0161638
639.741	0.0161078
639.819	0.0163200
639.897	0.0162513
639.975	0.0160910
640.053	0.0160908
640.131	0.0160979
640.209	0.0162971
640.288	0.0160797
640.366	0.0160259
640.444	0.0162617
640.522	0.0160940
640.600	0.0159292
640.678	0.0161530
640.756	0.0160255
640.834	0.0159576
640.913	0.0161037
640.991	0.0159752
641.069	0.0161071
641.147	0.0160813
641.225	0.0159952
641.303	0.0160004
641.381	0.0160859
641.459	0.0160245
641.538	0.0160920
641.616	0.0159862
641.694	0.0160020
641.772	0.0160743
641.850	0.0159010
641.928	0.0159618
642.006	0.0159617
642.084	0.0160026
642.163	0.0160413
642.241	0.0160656
642.319	0.0159139
642.397	0.0159370
642.475	0.0159355
642.553	0.0157986
642.631	0.0160428
642.709	0.0161498
642.788	0.0160499
642.866	0.0159576
642.944	0.0160651
643.022	0.0160174
643.100	0.0159254
643.178	0.0160130
643.256	0.0159772
643.334	0.0160271
643.413	0.0159390
643.491	0.0158578
643.569	0.0160023
643.647	0.0159473
643.725	0.0159581
643.803	0.0158480
643.881	0.0159420
643.959	0.0161971
644.038	0.0160498
644.116	0.0159501
644.194	0.0159581
644.272	0.0159109
644.350	0.0158856
644.428	0.0159821
644.506	0.0158672
644.584	0.0159070
644.663	0.0159828
644.741	0.0160246
644.819	0.0159328
644.897	0.0160696
644.975	0.0159412
645.053	0.0160355
645.131	0.0160653
645.209	0.0159708
645.288	0.0160143
645.366	0.0159080
645.444	0.0160257
645.522	0.0162146
645.600	0.0161163
645.678	0.0159951
645.756	0.0160624
645.834	0.0160379
645.913	0.0159187
645.991	0.0161137
646.069	0.0160593
646.147	0.0158925
646.225	0.0160587
646.303	0.0161517
646.381	0.0161675
646.459	0.0161700
646.538	0.0161117
646.616	0.0160030
646.694	0.0160354
646.772	0.0161108
646.850	0.0161584
646.928	0.0160911
647.006	0.0161083
647.084	0.0161588
647.163	0.0161491
647.241	0.0161839
647.319	0.0160570
647.397	0.0160753
647.475	0.0162312
647.553	0.0161749
647.631	0.0161661
647.709	0.0161330
647.788	0.0161375
647.866	0.0161545
647.944	0.0160564
648.022	0.0162273
648.100	0.0162599
648.178	0.0161732
648.256	0.0161627
648.334	0.0163804
648.413	0.0163027
648.491	0.0162292
648.569	0.0162046
648.647	0.0161676
648.725	0.0162113
648.803	0.0161318
648.881	0.0161443
648.959	0.0161459
649.038	0.0161582
649.116	0.0160094
649.194	0.0161549
649.272	0.0162362
649.350	0.0162200
649.428	0.0162090
649.506	0.0161227
649.584	0.0161728
649.663	0.0161068
649.741	0.0162029
649.819	0.0160855
649.897	0.0160368
649.975	0.0160508
650.053	0.0161012
650.131	0.0160461
650.209	0.0160283
650.288	0.0161219
650.366	0.0162547
650.444	0.0162223
650.522	0.0161512
650.600	0.0160309
650.678	0.0161464
650.756	0.0161868
650.834	0.0162238
650.913	0.0161012
650.991	0.0162044
651.069	0.0162139
651.147	0.0161239
651.225	0.0161845
651.303	0.0161983
651.381	0.0161898
651.459	0.0163065
651.538	0.0161970
651.616	0.0162234
651.694	0.0160623
651.772	0.0161919
651.850	0.0161347
651.928	0.0160210
652.006	0.0160296
652.084	0.0159099
652.163	0.0160886
652.241	0.0161281
652.319	0.0160198
652.397	0.0161700
652.475	0.0161028
652.553	0.0160985
652.631	0.0161492
652.709	0.0161946
652.788	0.0162160
652.866	0.0161595
652.944	0.0161588
653.022	0.0162441
653.100	0.0162383
653.178	0.0162576
653.256	0.0162311
653.334	0.0163284
653.413	0.0162769
653.491	0.0163473
653.569	0.0163653
653.647	0.0163527
653.725	0.0162608
653.803	0.0162611
653.881	0.0161582
653.959	0.0161279
654.038	0.0161838
654.116	0.0161761
654.194	0.0160841
654.272	0.0159769
654.350	0.0159533
654.428	0.0160721
654.506	0.0160681
654.584	0.0161187
654.663	0.0159344
654.741	0.0158213
654.819	0.0161160
654.897	0.0159103
654.975	0.0159451
655.053	0.0160592
655.131	0.0161654
655.209	0.0162125
655.288	0.0161558
655.366	0.0161432
655.444	0.0162151
655.522	0.0162025
655.600	0.0162306
655.678	0.0162333
655.756	0.0162592
655.834	0.0163632
655.913	0.0163438
655.991	0.0162823
656.069	0.0163373
656.147	0.0163728
656.225	0.0161247
656.303	0.0162737
656.381	0.0161284
656.459	0.0162048
656.538	0.0162071
656.616	0.0161295
656.694	0.0160242
656.772	0.0160935
656.850	0.0159494
656.928	0.0158338
657.006	0.0160163
657.084	0.0160371
657.163	0.0159679
657.241	0.0158367
657.319	0.0158773
657.397	0.0159128
657.475	0.0158585
657.553	0.0157696
657.631	0.0158083
657.709	0.0158600
657.788	0.0158326
657.866	0.0158304
657.944	0.0158625
658.022	0.0158880
658.100	0.0159486
658.178	0.0160596
658.256	0.0160890
658.334	0.0160792
658.413	0.0160915
658.491	0.0161455
658.569	0.0162426
658.647	0.0163515
658.725	0.0164124
658.803	0.0163511
658.881	0.0163516
658.959	0.0164249
659.038	0.0164525
659.116	0.0164604
659.194	0.0163898
659.272	0.0163812
659.350	0.0163667
659.428	0.0163100
659.506	0.0161894
659.584	0.0162537
659.663	0.0163199
659.741	0.0160960
659.819	0.0160000
659.897	0.0158687
659.975	0.0158211
660.053	0.0157717
660.131	0.0157369
660.209	0.0155977
660.288	0.0154921
660.366	0.0155040
660.444	0.0154896
660.522	0.0155232
660.600	0.0154556
660.678	0.0152951
660.756	0.0154411
660.834	0.0155428
660.913	0.0154584
660.991	0.0154888
661.069	0.0155832
661.147	0.0156105
661.225	0.0155285
661.303	0.0156931
661.381	0.0157532
661.459	0.0157253
661.538	0.0159635
661.616	0.0160252
661.694	0.0159591
661.772	0.0159908
661.850	0.0162219
661.928	0.0162726
662.006	0.0162670
662.084	0.0163039
662.163	0.0162879
662.241	0.0164205
662.319	0.0163837
662.397	0.0163780
662.475	0.0163676
662.553	0.0164513
662.631	0.0163372
662.709	0.0164060
662.788	0.0163950
662.866	0.0162090
662.944	0.0161887
663.022	0.0162018
663.100	0.0161024
663.178	0.0161324
663.256	0.0162000
663.334	0.0160733
663.413	0.0161511
663.491	0.0160590
663.569	0.0160237
663.647	0.0160390
663.725	0.0160449
663.803	0.0161172
663.881	0.0160020
663.959	0.0160899
664.038	0.0159747
664.116	0.0161614
664.194	0.0159274
664.272	0.0160982
664.350	0.0161021
664.428	0.0161948
664.506	0.0161251
664.584	0.0162125
664.663	0.0160526
664.741	0.0161440
664.819	0.0161580
664.897	0.0160869
664.975	0.0161274
665.053	0.0160520
665.131	0.0160712
665.209	0.0159333
665.288	0.0157999
665.366	0.0158664
665.444	0.0159159
665.522	0.0159705
665.600	0.0157549
665.678	0.0156322
665.756	0.0156287
665.834	0.0154998
665.913	0.0155855
665.991	0.0155795
666.069	0.0154617
666.147	0.0155560
666.225	0.0157047
666.303	0.0158282
666.381	0.0156842
666.459	0.0157767
666.538	0.0157679
666.616	0.0158537
666.694	0.0159008
666.772	0.0160580
666.850	0.0160390
666.928	0.0160915
667.006	0.0160207
667.084	0.0161433
667.163	0.0164116
667.241	0.0164001
667.319	0.0163942
667.397	0.0162829
667.475	0.0163196
667.553	0.0164136
667.631	0.0162816
667.709	0.0162783
667.788	0.0164255
667.866	0.0164666
667.944	0.0164148
668.022	0.0165539
668.100	0.0164984
668.178	0.0164906
668.256	0.0166071
668.334	0.0164425
668.413	0.0164801
668.491	0.0165531
668.569	0.0165578
668.647	0.0165480
668.725	0.0164849
668.803	0.0163351
668.881	0.0164480
668.959	0.0164854
669.038	0.0163525
669.116	0.0164191
669.194	0.0162297
669.272	0.0161985
669.350	0.0163635
669.428	0.0162411
669.506	0.0162662
669.584	0.0161245
669.663	0.0160793
669.741	0.0159795
669.819	0.0159168
669.897	0.0158678
669.975	0.0158327
670.053	0.0157921
670.131	0.0157587
670.209	0.0155869
670.288	0.0156915
670.366	0.0155261
670.444	0.0155479
670.522	0.0155678
670.600	0.0155398
670.678	0.0154691
670.756	0.0154809
670.834	0.0153835
670.913	0.0154948
670.991	0.0154422
671.069	0.0154704
671.147	0.0154520
671.225	0.0154340
671.303	0.0154815
671.381	0.0155952
671.459	0.0156813
671.538	0.0156062
671.616	0.0157012
671.694	0.0159592
671.772	0.0159891
671.850	0.0158913
671.928	0.0159603
672.006	0.0159888
672.084	0.0160400
672.163	0.0162108
672.241	0.0161255
672.319	0.0162225
672.397	0.0163336
672.475	0.0162316
672.553	0.0161897
672.631	0.0161250
672.709	0.0161352
672.788	0.0164156
672.866	0.0165047
672.944	0.0164622
673.022	0.0163210
673.100	0.0163717
673.178	0.0163551
673.256	0.0165380
673.334	0.0165217
673.413	0.0167295
673.491	0.0165754
673.569	0.0164851
673.647	0.0166721
673.725	0.0167495
673.803	0.0167500
673.881	0.0168591
673.959	0.0167859
674.038	0.0168774
674.116	0.0169483
674.194	0.0170106
674.272	0.0169999
674.350	0.0170124
674.428	0.0170288
674.506	0.0168588
674.584	0.0167988
674.663	0.0167087
674.741	0.0167403
674.819	0.0166494
674.897	0.0165465
674.975	0.0164275
675.053	0.0162766
675.131	0.0162167
675.209	0.0161683
675.288	0.0158469
675.366	0.0157233
675.444	0.0157327
675.522	0.0156454
675.600	0.0153945
675.678	0.0153699
675.756	0.0152198
675.834	0.0150140
675.913	0.0149086
675.991	0.0150416
676.069	0.0148618
676.147	0.0147967
676.225	0.0148724
676.303	0.0147681
676.381	0.0148230
676.459	0.0148374
676.538	0.0149308
676.616	0.0148610
676.694	0.0151529
676.772	0.0153142
676.850	0.0154208
676.928	0.0154686
677.006	0.0157326
677.084	0.0157596
677.163	0.0160693
677.241	0.0161879
677.319	0.0165200
677.397	0.0166090
677.475	0.0169275
677.553	0.0170166
677.631	0.0169740
677.709	0.0172539
677.788	0.0173364
677.866	0.0173735
677.944	0.0175433
678.022	0.0175754
678.100	0.0177862
678.178	0.0176255
678.256	0.0176436
678.334	0.0177448
678.413	0.0176061
678.491	0.0174277
678.569	0.0173315
678.647	0.0172389
678.725	0.0171564
678.803	0.0169010
678.881	0.0167816
678.959	0.0167444
679.038	0.0165933
679.116	0.0163263
679.194	0.0161594
679.272	0.0160533
679.350	0.0160088
679.428	0.0158055
679.506	0.0157413
679.584	0.0155771
679.663	0.0153558
679.741	0.0153757
679.819	0.0153281
679.897	0.0152861
679.975	0.0150984
680.053	0.0152929
680.131	0.0151622
680.209	0.0148708
680.288	0.0151946
680.366	0.0151567
680.444	0.0149733
680.522	0.0151934
680.600	0.0151000
680.678	0.0151225
680.756	0.0152364
680.834	0.0152569
680.913	0.0153443
680.991	0.0156218
681.069	0.0155371
681.147	0.0157143
681.225	0.0159477
681.303	0.0158066
681.381	0.0159626
681.459	0.0158336
681.538	0.0160375
681.616	0.0161256
681.694	0.0163292
681.772	0.0161971
681.850	0.0163923
681.928	0.0162731
682.006	0.0163682
682.084	0.0162798
682.163	0.0164075
682.241	0.0164613
682.319	0.0163777
682.397	0.0163897
682.475	0.0163552
682.553	0.0164788
682.631	0.0164365
682.709	0.0162968
682.788	0.0163454
682.866	0.0165064
682.944	0.0163551
683.022	0.0164390
683.100	0.0162746
683.178	0.0164372
683.256	0.0164354
683.334	0.0165563
683.413	0.0164276
683.491	0.0165134
683.569	0.0163515
683.647	0.0163724
683.725	0.0163109
683.803	0.0163921
683.881	0.0163122
683.959	0.0162698
684.038	0.0162450
684.116	0.0161036
684.194	0.0161224
684.272	0.0161158
684.350	0.0160979
684.428	0.0159686
684.506	0.0158845
684.584	0.0156893
684.663	0.0156551
684.741	0.0155384
684.819	0.0154593
684.897	0.0156029
684.975	0.0153435
685.053	0.0153313
685.131	0.0153336
685.209	0.0152872
685.288	0.0150730
685.366	0.0151272
685.444	0.0152973
685.522	0.0152711
685.600	0.0154708
685.678	0.0155914
685.756	0.0157818
685.834	0.0159160
685.913	0.0159875
685.991	0.0160054
686.069	0.0161201
686.147	0.0163207
686.225	0.0164589
686.303	0.0163435
686.381	0.0164960
686.459	0.0166768
686.538	0.0167468
686.616	0.0169214
686.694	0.0168827
686.772	0.0167433
686.850	0.0168479
686.928	0.0168591
687.006	0.0168919
687.084	0.0168520
687.163	0.0168057
687.241	0.0167258
687.319	0.0166594
687.397	0.0166022
687.475	0.0167714
687.553	0.0167607
687.631	0.0164753
687.709	0.0164679
687.788	0.0165609
687.866	0.0163405
687.944	0.0164239
688.022	0.0161694
688.100	0.0161864
688.178	0.0159637
688.256	0.0160060
688.334	0.0158069
688.413	0.0156248
688.491	0.0155311
688.569	0.0155664
688.647	0.0154527
688.725	0.0152637
688.803	0.0150900
688.881	0.0150885
688.959	0.0152732
689.038	0.0151398
689.116	0.0152625
689.194	0.0152177
689.272	0.0154118
689.350	0.0154507
689.428	0.0155904
689.506	0.0155698
689.584	0.0158032
689.663	0.0157704
689.741	0.0160374
689.819	0.0161081
689.897	0.0160947
689.975	0.0163104
690.053	0.0163081
690.131	0.0164137
690.209	0.0164296
690.288	0.0166210
690.366	0.0166843
690.444	0.0166387
690.522	0.0165551
690.600	0.0166553
690.678	0.0168217
690.756	0.0167468
690.834	0.0166507
690.913	0.0166918
690.991	0.0167648
691.069	0.0165981
691.147	0.0165102
691.225	0.0164844
691.303	0.0164143
691.381	0.0163765
691.459	0.0162470
691.538	0.0160545
691.616	0.0160815
691.694	0.0159467
691.772	0.0158662
691.850	0.0159785
691.928	0.0157053
692.006	0.0157636
692.084	0.0156528
692.163	0.0155226
692.241	0.0155749
692.319	0.0155706
692.397	0.0156340
692.475	0.0157166
692.553	0.0155196
692.631	0.0156095
692.709	0.0156909
692.788	0.0156110
692.866	0.0155653
692.944	0.0158060
693.022	0.0157648
693.100	0.0159210
693.178	0.0161367
693.256	0.0161430
693.334	0.0162383
693.413	0.0164043
693.491	0.0165874
693.569	0.0164695
693.647	0.0166515
693.725	0.0167929
693.803	0.0169871
693.881	0.0171039
693.959	0.0170592
694.038	0.0171166
694.116	0.0171827
694.194	0.0172066
694.272	0.0172475
694.350	0.0173822
694.428	0.0174031
694.506	0.0172797
694.584	0.0171642
694.663	0.0170953
694.741	0.0171215
694.819	0.0170429
694.897	0.0169771
694.975	0.0168324
695.053	0.0168182
695.131	0.0165843
695.209	0.0165679
695.288	0.0163790
695.366	0.0163441
695.444	0.0161697
695.522	0.0161823
695.600	0.0159397
695.678	0.0157092
695.756	0.0156211
695.834	0.0154666
695.913	0.0153362
695.991	0.0149948
696.069	0.0148431
696.147	0.0149340
696.225	0.0147417
696.303	0.0146998
696.381	0.0144716
696.459	0.0143913
696.538	0.0142553
696.616	0.0143568
696.694	0.0144666
696.772	0.0144454
696.850	0.0145844
696.928	0.0146527
697.006	0.0147325
697.084	0.0149478
697.163	0.0151824
697.241	0.0153735
697.319	0.0156058
697.397	0.0157539
697.475	0.0160557
697.553	0.0163124
697.631	0.0163814
697.709	0.0165247
697.788	0.0167223
697.866	0.0168093
697.944	0.0170715
698.022	0.0171916
698.100	0.0172628
698.178	0.0173101
698.256	0.0172018
698.334	0.0173376
698.413	0.0172405
698.491	0.0173837
698.569	0.0173341
698.647	0.0173039
698.725	0.0173463
698.803	0.0174731
698.881	0.0174839
698.959	0.0173972
699.038	0.0174654
699.116	0.0174155
699.194	0.0174138
699.272	0.0175735
699.350	0.0174419
699.428	0.0174872
699.506	0.0174994
699.584	0.0175019
699.663	0.0174805
699.741	0.0173944
699.819	0.0173460
699.897	0.0171452
699.975	0.0170877
700.053	0.0170486
700.131	0.0168989
700.209	0.0167963
700.288	0.0165958
700.366	0.0164924
700.444	0.0162737
700.522	0.0161548
700.600	0.0160394
700.678	0.0157772
700.756	0.0156680
700.834	0.0154681
700.913	0.0151979
700.991	0.0150858
701.069	0.0150876
701.147	0.0149211
701.225	0.0147730
701.303	0.0145905
701.381	0.0147393
701.459	0.0144600
701.538	0.0144297
701.616	0.0142896
701.694	0.0143635
701.772	0.0145247
701.850	0.0142571
701.928	0.0143324
702.006	0.0142664
702.084	0.0143513
702.163	0.0145074
702.241	0.0147213
702.319	0.0148637
702.397	0.0150842
702.475	0.0153117
702.553	0.0155827
702.631	0.0157769
702.709	0.0158739
702.788	0.0162196
702.866	0.0164682
702.944	0.0167447
703.022	0.0168861
703.100	0.0170510
703.178	0.0174210
703.256	0.0175761
703.334	0.0176093
703.413	0.0177292
703.491	0.0179408
703.569	0.0180337
703.647	0.0179334
703.725	0.0181207
703.803	0.0180408
703.881	0.0180744
703.959	0.0180883
704.038	0.0179346
704.116	0.0179311
704.194	0.0177917
704.272	0.0177001
704.350	0.0175382
704.428	0.0173327
704.506	0.0172017
704.584	0.0171137
704.663	0.0168217
704.741	0.0165237
704.819	0.0165388
704.897	0.0163143
704.975	0.0160765
705.053	0.0159632
705.131	0.0157234
705.209	0.0156848
705.288	0.0155839
705.366	0.0153895
705.444	0.0153352
705.522	0.0152640
705.600	0.0150542
705.678	0.0149671
705.756	0.0151335
705.834	0.0151255
705.913	0.0151914
705.991	0.0152174
706.069	0.0152170
706.147	0.0152234
706.225	0.0153619
706.303	0.0154245
706.381	0.0156038
706.459	0.0157710
706.538	0.0159329
706.616	0.0159901
706.694	0.0159544
706.772	0.0160293
706.850	0.0161943
706.928	0.0162580
707.006	0.0163020
707.084	0.0163008
707.163	0.0162135
707.241	0.0161902
707.319	0.0163156
707.397	0.0161230
707.475	0.0159753
707.553	0.0159435
707.631	0.0158401
707.709	0.0156387
707.788	0.0156828
707.866	0.0155307
707.944	0.0154786
708.022	0.0153511
708.100	0.0153796
708.178	0.0154665
708.256	0.0154455
708.334	0.0155111
708.413	0.0156731
708.491	0.0156065
708.569	0.0156510
708.647	0.0157434
708.725	0.0159245
708.803	0.0160049
708.881	0.0161334
708.959	0.0162242
709.038	0.0164241
709.116	0.0163635
709.194	0.0164336
709.272	0.0165215
709.350	0.0165157
709.428	0.0165885
709.506	0.0168686
709.584	0.0168145
709.663	0.0168104
709.741	0.0169507
709.819	0.0169339
709.897	0.0168937
709.975	0.0169560
710.053	0.0168609
710.131	0.0168383
710.209	0.0169053
710.288	0.0168280
710.366	0.0166959
710.444	0.0166035
710.522	0.0164669
710.600	0.0164628
710.678	0.0163539
710.756	0.0162656
710.834	0.0162529
710.913	0.0161135
710.991	0.0159827
711.069	0.0160814
711.147	0.0160030
711.225	0.0157250
711.303	0.0157233
711.381	0.0157063
711.459	0.0157111
711.538	0.0155899
711.616	0.0154167
711.694	0.0153286
711.772	0.0154795
711.850	0.0154926
711.928	0.0152320
712.006	0.0152466
712.084	0.0153011
712.163	0.0153191
712.241	0.0153348
712.319	0.0154099
712.397	0.0154939
712.475	0.0155177
712.553	0.0154502
712.631	0.0156197
712.709	0.0157308
712.788	0.0158534
712.866	0.0159119
712.944	0.0161411
713.022	0.0161132
713.100	0.0163291
713.178	0.0163506
713.256	0.0163849
713.334	0.0164676
713.413	0.0165496
713.491	0.0166816
713.569	0.0167433
713.647	0.0167203
713.725	0.0167883
713.803	0.0168753
713.881	0.0169189
713.959	0.0169245
714.038	0.0169987
714.116	0.0169401
714.194	0.0168921
714.272	0.0169214
714.350	0.0167460
714.428	0.0166625
714.506	0.0166840
714.584	0.0165072
714.663	0.0163213
714.741	0.0160898
714.819	0.0161652
714.897	0.0159395
714.975	0.0157288
715.053	0.0156754
715.131	0.0155260
715.209	0.0153705
715.288	0.0152688
715.366	0.0153734
715.444	0.0151827
715.522	0.0151144
715.600	0.0151007
715.678	0.0152237
715.756	0.0152949
715.834	0.0151334
715.913	0.0151160
715.991	0.0153377
716.069	0.0152847
716.147	0.0153446
716.225	0.0154549
716.303	0.0156229
716.381	0.0157983
716.459	0.0157826
716.538	0.0160993
716.616	0.0161932
716.694	0.0163250
716.772	0.0164264
716.850	0.0164988
716.928	0.0166854
717.006	0.0167765
717.084	0.0167354
717.163	0.0166692
717.241	0.0167722
717.319	0.0167792
717.397	0.0168404
717.475	0.0169506
717.553	0.0166595
717.631	0.0167702
717.709	0.0167960
717.788	0.0165226
717.866	0.0166412
717.944	0.0167880
718.022	0.0166570
718.100	0.0166769
718.178	0.0165797
718.256	0.0166776
718.334	0.0166578
718.413	0.0167190
718.491	0.0166438
718.569	0.0166015
718.647	0.0166374
718.725	0.0167669
718.803	0.0168227
718.881	0.0167638
718.959	0.0167348
719.038	0.0167908
719.116	0.0168388
719.194	0.0166015
719.272	0.0166969
719.350	0.0165543
719.428	0.0165604
719.506	0.0165650
719.584	0.0164129
719.663	0.0163918
719.741	0.0162430
719.819	0.0160094
719.897	0.0161138
719.975	0.0159151
720.053	0.0159328
720.131	0.0156654
720.209	0.0156277
720.288	0.0155972
720.366	0.0154363
720.444	0.0155065
720.522	0.0153088
720.600	0.0153042
720.678	0.0153616
720.756	0.0152618
720.834	0.0152347
720.913	0.0151784
720.991	0.0152308
721.069	0.0151261
721.147	0.0151082
721.225	0.0153402
721.303	0.0152096
721.381	0.0153931
721.459	0.0154213
721.538	0.0156317
721.616	0.0157552
721.694	0.0157964
721.772	0.0159537
721.850	0.0160686
721.928	0.0162344
722.006	0.0164652
722.084	0.0166644
722.163	0.0167846
722.241	0.0168346
722.319	0.0169200
722.397	0.0169505
722.475	0.0171578
722.553	0.0174162
722.631	0.0173734
722.709	0.0174529
722.788	0.0173846
722.866	0.0173631
722.944	0.0174110
723.022	0.0173167
723.100	0.0171919
723.178	0.0172638
723.256	0.0168858
723.334	0.0170010
723.413	0.0167987
723.491	0.0167468
723.569	0.0165440
723.647	0.0162486
723.725	0.0162173
723.803	0.0160821
723.881	0.0160684
723.959	0.0157572
724.038	0.0157720
724.116	0.0156987
724.194	0.0155380
724.272	0.0155150
724.350	0.0153954
724.428	0.0153672
724.506	0.0153496
724.584	0.0153343
724.663	0.0154006
724.741	0.0153603
724.819	0.0153851
724.897	0.0154889
724.975	0.0154489
725.053	0.0155962
725.131	0.0157274
725.209	0.0156927
725.288	0.0157841
725.366	0.0158312
725.444	0.0158521
725.522	0.0159372
725.600	0.0159622
725.678	0.0159625
725.756	0.0159853
725.834	0.0160095
725.913	0.0159384
725.991	0.0159892
726.069	0.0159290
726.147	0.0158313
726.225	0.0159653
726.303	0.0158761
726.381	0.0156756
726.459	0.0157955
726.538	0.0156979
726.616	0.0157593
726.694	0.0156976
726.772	0.0156966
726.850	0.0156184
726.928	0.0156236
727.006	0.0156946
727.084	0.0157265
727.163	0.0157303
727.241	0.0157272
727.319	0.0157742
727.397	0.0158953
727.475	0.0158423
727.553	0.0159434
727.631	0.0160875
727.709	0.0159419
727.788	0.0160967
727.866	0.0160950
727.944	0.0161682
728.022	0.0161842
728.100	0.0162925
728.178	0.0162621
728.256	0.0161806
728.334	0.0162370
728.413	0.0161035
728.491	0.0162646
728.569	0.0165494
728.647	0.0166516
728.725	0.0166989
728.803	0.0167593
728.881	0.0168773
728.959	0.0168283
729.038	0.0170495
729.116	0.0170798
729.194	0.0173119
729.272	0.0173126
729.350	0.0173806
729.428	0.0172845
729.506	0.0172556
729.584	0.0173820
729.663	0.0173651
729.741	0.0172676
729.819	0.0171012
729.897	0.0171278
729.975	0.0171176
730.053	0.0168484
730.131	0.0168353
730.209	0.0165936
730.288	0.0163783
730.366	0.0160918
730.444	0.0160176
730.522	0.0157649
730.600	0.0156377
730.678	0.0155346
730.756	0.0152212
730.834	0.0150603
730.913	0.0150174
730.991	0.0147749
731.069	0.0146045
731.147	0.0144732
731.225	0.0144672
731.303	0.0145196
731.381	0.0145163
731.459	0.0144765
731.538	0.0144692
731.616	0.0146535
731.694	0.0146204
731.772	0.0148134
731.850	0.0147869
731.928	0.0148678
732.006	0.0151048
732.084	0.0151870
732.163	0.0154144
732.241	0.0155860
732.319	0.0156577
732.397	0.0157285
732.475	0.0159844
732.553	0.0160534
732.631	0.0163249
732.709	0.0165100
732.788	0.0166550
732.866	0.0168916
732.944	0.0168321
733.022	0.0170564
733.100	0.0170024
733.178	0.0171368
733.256	0.0171025
733.334	0.0172707
733.413	0.0172255
733.491	0.0173396
733.569	0.0172803
733.647	0.0172428
733.725	0.0171960
733.803	0.0171299
733.881	0.0170946
733.959	0.0170048
734.038	0.0168866
734.116	0.0167072
734.194	0.0166230
734.272	0.0165434
734.350	0.0164886
734.428	0.0163023
734.506	0.0162197
734.584	0.0160343
734.663	0.0160826
734.741	0.0159271
734.819	0.0158878
734.897	0.0157368
734.975	0.0157729
735.053	0.0156824
735.131	0.0155095
735.209	0.0155387
735.288	0.0155300
735.366	0.0155413
735.444	0.0155109
735.522	0.0157108
735.600	0.0155976
735.678	0.0155395
735.756	0.0157084
735.834	0.0157194
735.913	0.0156418
735.991	0.0158449
736.069	0.0158164
736.147	0.0158187
736.225	0.0159900
736.303	0.0160320
736.381	0.0159840
736.459	0.0160192
736.538	0.0163692
736.616	0.0161645
736.694	0.0162022
736.772	0.0162067
736.850	0.0161797
736.928	0.0161082
737.006	0.0161089
737.084	0.0159696
737.163	0.0162170
737.241	0.0161796
737.319	0.0160327
737.397	0.0159447
737.475	0.0159379
737.553	0.0158233
737.631	0.0157745
737.709	0.0159169
737.788	0.0158208
737.866	0.0157681
737.944	0.0156704
738.022	0.0158217
738.100	0.0157277
738.178	0.0159167
738.256	0.0158384
738.334	0.0158195
738.413	0.0156834
738.491	0.0158836
738.569	0.0158878
738.647	0.0159629
738.725	0.0159877
738.803	0.0160262
738.881	0.0161624
738.959	0.0161211
739.038	0.0162733
739.116	0.0164008
739.194	0.0164587
739.272	0.0163531
739.350	0.0166455
739.428	0.0166359
739.506	0.0166582
739.584	0.0167595
739.663	0.0166842
739.741	0.0166793
739.819	0.0168233
739.897	0.0166322
739.975	0.0167127
740.053	0.0166353
740.131	0.0165296
740.209	0.0166037
740.288	0.0163897
740.366	0.0163015
740.444	0.0162260
740.522	0.0161594
740.600	0.0160251
740.678	0.0158529
740.756	0.0158744
740.834	0.0157530
740.913	0.0157647
740.991	0.0157148
741.069	0.0158167
741.147	0.0157024
741.225	0.0158401
741.303	0.0158071
741.381	0.0157925
741.459	0.0157852
741.538	0.0158832
741.616	0.0158981
741.694	0.0158228
741.772	0.0158450
741.850	0.0159897
741.928	0.0160002
742.006	0.0159203
742.084	0.0158902
742.163	0.0160471
742.241	0.0160178
742.319	0.0161786
742.397	0.0161060
742.475	0.0161111
742.553	0.0161209
742.631	0.0162433
742.709	0.0161630
742.788	0.0162362
742.866	0.0163777
742.944	0.0163117
743.022	0.0163194
743.100	0.0164303
743.178	0.0165828
743.256	0.0164401
743.334	0.0164692
743.413	0.0165807
743.491	0.0165252
743.569	0.0166798
743.647	0.0166862
743.725	0.0166665
743.803	0.0168304
743.881	0.0167706
743.959	0.0168085
744.038	0.0167805
744.116	0.0167747
744.194	0.0167815
744.272	0.0166641
744.350	0.0167218
744.428	0.0164873
744.506	0.0166679
744.584	0.0164954
744.663	0.0163213
744.741	0.0163254
744.819	0.0161752
744.897	0.0161027
744.975	0.0159385
745.053	0.0155914
745.131	0.0156387
745.209	0.0154264
745.288	0.0153642
745.366	0.0153080
745.444	0.0152203
745.522	0.0151482
745.600	0.0150069
745.678	0.0148683
745.756	0.0151292
745.834	0.0151472
745.913	0.0150785
745.991	0.0150959
746.069	0.0152420
746.147	0.0152736
746.225	0.0152195
746.303	0.0153814
746.381	0.0155826
746.459	0.0155241
746.538	0.0155725
746.616	0.0158003
746.694	0.0157865
746.772	0.0158355
746.850	0.0158680
746.928	0.0159813
747.006	0.0160316
747.084	0.0160332
747.163	0.0160964
747.241	0.0162421
747.319	0.0162593
747.397	0.0161439
747.475	0.0162354
747.553	0.0163369
747.631	0.0163493
747.709	0.0164176
747.788	0.0165070
747.866	0.0166085
747.944	0.0165877
748.022	0.0166650
748.100	0.0165441
748.178	0.0166239
748.256	0.0167125
748.334	0.0166859
748.413	0.0165809
748.491	0.0167883
748.569	0.0166907
748.647	0.0166376
748.725	0.0165134
748.803	0.0164091
748.881	0.0164084
748.959	0.0163477
749.038	0.0162627
749.116	0.0162826
749.194	0.0162183
749.272	0.0160249
749.350	0.0159899
749.428	0.0158615
749.506	0.0158330
749.584	0.0157045
749.663	0.0157135
749.741	0.0157306
749.819	0.0154974
749.897	0.0155849
749.975	0.0155599
750.053	0.0156471
750.131	0.0156174
750.209	0.0155593
750.288	0.0155124
750.366	0.0155424
750.444	0.0157644
750.522	0.0158276
750.600	0.0158784
750.678	0.0159080
750.756	0.0159919
750.834	0.0160677
750.913	0.0162980
750.991	0.0163401
751.069	0.0165182
751.147	0.0164162
751.225	0.0165673
751.303	0.0166827
751.381	0.0168703
751.459	0.0168133
751.538	0.0167408
751.616	0.0166582
751.694	0.0167809
751.772	0.0167812
751.850	0.0167731
751.928	0.0166003
752.006	0.0163908
752.084	0.0164857
752.163	0.0164314
752.241	0.0162780
752.319	0.0161554
752.397	0.0160527
752.475	0.0159476
752.553	0.0156687
752.631	0.0155254
752.709	0.0156430
752.788	0.0155580
752.866	0.0154973
752.944	0.0153998
753.022	0.0153500
753.100	0.0153140
753.178	0.0153161
753.256	0.0153172
753.334	0.0152648
753.413	0.0155355
753.491	0.0155499
753.569	0.0156939
753.647	0.0157589
753.725	0.0158248
753.803	0.0159998
753.881	0.0161097
753.959	0.0162399
754.038	0.0162269
754.116	0.0164435
754.194	0.0165658
754.272	0.0165859
754.350	0.0166654
754.428	0.0168748
754.506	0.0168606
754.584	0.0168623
754.663	0.0168617
754.741	0.0169566
754.819	0.0168228
754.897	0.0168394
754.975	0.0168118
755.053	0.0165948
755.131	0.0165508
755.209	0.0162613
755.288	0.0162347
755.366	0.0161042
755.444	0.0160847
755.522	0.0159555
755.600	0.0156882
755.678	0.0156768
755.756	0.0155701
755.834	0.0155252
755.913	0.0154012
755.991	0.0154323
756.069	0.0154412
756.147	0.0153340
756.225	0.0155602
756.303	0.0155593
756.381	0.0156329
756.459	0.0157485
756.538	0.0159376
756.616	0.0159181
756.694	0.0161087
756.772	0.0162307
756.850	0.0163794
756.928	0.0164812
757.006	0.0165791
757.084	0.0165793
757.163	0.0166944
757.241	0.0167163
757.319	0.0166972
757.397	0.0165234
757.475	0.0167309
757.553	0.0165830
757.631	0.0164111
757.709	0.0163425
757.788	0.0163410
757.866	0.0162534
757.944	0.0161154
758.022	0.0159707
758.100	0.0158481
758.178	0.0157336
758.256	0.0154645
758.334	0.0156631
758.413	0.0154540
758.491	0.0152303
758.569	0.0153528
758.647	0.0154400
758.725	0.0152579
758.803	0.0153423
758.881	0.0154130
758.959	0.0155292
759.038	0.0155447
759.116	0.0156987
759.194	0.0158985
759.272	0.0157396
759.350	0.0158686
759.428	0.0161214
759.506	0.0160935
759.584	0.0161178
759.663	0.0161543
759.741	0.0162350
759.819	0.0162887
759.897	0.0162074
759.975	0.0162000
760.053	0.0163953
760.131	0.0163670
760.209	0.0162090
760.288	0.0161595
760.366	0.0163548
760.444	0.0162513
760.522	0.0162192
760.600	0.0163085
760.678	0.0163775
760.756	0.0162230
760.834	0.0163203
760.913	0.0163463
760.991	0.0164108
761.069	0.0163673
761.147	0.0164183
761.225	0.0164435
761.303	0.0165243
761.381	0.0165265
761.459	0.0164787
761.538	0.0164741
761.616	0.0163448
761.694	0.0163614
761.772	0.0164714
761.850	0.0163734
761.928	0.0163762
762.006	0.0164680
762.084	0.0162526
762.163	0.0161474
762.241	0.0162877
762.319	0.0162344
762.397	0.0161077
762.475	0.0160931
762.553	0.0161324
762.631	0.0160269
762.709	0.0161617
762.788	0.0161682
762.866	0.0162297
762.944	0.0163055
763.022	0.0162331
763.100	0.0162915
763.178	0.0164349
763.256	0.0163811
763.334	0.0164424
763.413	0.0164796
763.491	0.0164860
763.569	0.0163636
763.647	0.0163344
763.725	0.0161907
763.803	0.0161044
763.881	0.0160031
763.959	0.0160113
764.038	0.0158497
764.116	0.0156823
764.194	0.0155699
764.272	0.0154005
764.350	0.0153898
764.428	0.0153055
764.506	0.0151373
764.584	0.0152748
764.663	0.0151720
764.741	0.0151118
764.819	0.0150623
764.897	0.0149807
764.975	0.0150503
765.053	0.0151978
765.131	0.0153422
765.209	0.0153645
765.288	0.0154813
765.366	0.0157584
765.444	0.0159042
765.522	0.0160400
765.600	0.0161702
765.678	0.0164551
765.756	0.0166031
765.834	0.0168430
765.913	0.0167886
765.991	0.0168987
766.069	0.0170872
766.147	0.0170677
766.225	0.0170538
766.303	0.0171024
766.381	0.0171136
766.459	0.0169202
766.538	0.0168689
766.616	0.0167647
766.694	0.0166685
766.772	0.0165010
766.850	0.0163677
766.928	0.0162056
767.006	0.0160616
767.084	0.0157005
767.163	0.0156594
767.241	0.0156546
767.319	0.0154244
767.397	0.0152835
767.475	0.0151818
767.553	0.0153925
767.631	0.0151851
767.709	0.0150433
767.788	0.0152180
767.866	0.0152692
767.944	0.0152890
768.022	0.0153907
768.100	0.0155140
768.178	0.0156212
768.256	0.0156664
768.334	0.0158721
768.413	0.0159801
768.491	0.0161169
768.569	0.0162335
768.647	0.0162349
768.725	0.0164367
768.803	0.0166622
768.881	0.0167948
768.959	0.0168023
769.038	0.0168314
769.116	0.0169035
769.194	0.0168904
769.272	0.0169112
769.350	0.0171390
769.428	0.0170296
769.506	0.0168682
769.584	0.0168383
769.663	0.0169224
769.741	0.0167506
769.819	0.0165438
769.897	0.0163434
769.975	0.0164547
770.053	0.0162843
770.131	0.0161227
770.209	0.0158687
770.288	0.0159007
770.366	0.0158417
770.444	0.0156076
770.522	0.0155720
770.600	0.0154750
770.678	0.0154164
770.756	0.0152753
770.834	0.0153397
770.913	0.0151557
770.991	0.0152832
771.069	0.0152982
771.147	0.0152917
771.225	0.0155185
771.303	0.0155263
771.381	0.0156337
771.459	0.0157415
771.538	0.0158774
771.616	0.0158173
771.694	0.0158758
771.772	0.0161195
771.850	0.0160931
771.928	0.0161519
772.006	0.0161226
772.084	0.0161682
772.163	0.0162886
772.241	0.0162047
772.319	0.0161827
772.397	0.0161511
772.475	0.0161524
772.553	0.0161580
772.631	0.0160825
772.709	0.0160537
772.788	0.0160547
772.866	0.0160975
772.944	0.0158882
773.022	0.0159012
773.100	0.0159799
773.178	0.0159587
773.256	0.0161935
773.334	0.0160327
773.413	0.0161201
773.491	0.0161658
773.569	0.0161463
773.647	0.0161990
773.725	0.0162482
773.803	0.0163110
773.881	0.0164094
773.959	0.0162759
774.038	0.0164509
774.116	0.0164509
774.194	0.0165858
774.272	0.0164745
774.350	0.0164594
774.428	0.0165071
774.506	0.0165812
774.584	0.0166074
774.663	0.0165408
774.741	0.0166006
774.819	0.0165019
774.897	0.0165424
774.975	0.0165460
775.053	0.0163937
775.131	0.0163038
775.209	0.0162751
775.288	0.0162970
775.366	0.0161794
775.444	0.0160216
775.522	0.0161330
775.600	0.0158895
775.678	0.0159251
775.756	0.0158804
775.834	0.0158022
775.913	0.0158197
775.991	0.0159167
776.069	0.0158029
776.147	0.0156993
776.225	0.0156801
776.303	0.0158029
776.381	0.0158865
776.459	0.0159552
776.538	0.0159840
776.616	0.0159948
776.694	0.0160568
776.772	0.0161459
776.850	0.0161600
776.928	0.0161408
777.006	0.0162096
777.084	0.0162463
777.163	0.0162835
777.241	0.0163237
777.319	0.0163307
777.397	0.0163487
777.475	0.0161531
777.553	0.0161491
777.631	0.0163144
777.709	0.0162449
777.788	0.0161239
777.866	0.0160777
777.944	0.0161590
778.022	0.0159816
778.100	0.0160033
778.178	0.0160343
778.256	0.0159326
778.334	0.0159983
778.413	0.0159764
778.491	0.0158987
778.569	0.0159005
778.647	0.0160661
778.725	0.0160207
778.803	0.0159389
778.881	0.0159370
778.959	0.0158900
779.038	0.0158765
779.116	0.0160385
779.194	0.0161292
779.272	0.0160835
779.350	0.0160296
779.428	0.0161819
779.506	0.0162328
779.584	0.0161661
779.663	0.0162589
779.741	0.0162717
779.819	0.0161720
779.897	0.0162340
779.975	0.0162412
780.053	0.0164759
780.131	0.0163017
780.209	0.0162946
780.288	0.0162362
780.366	0.0162271
780.444	0.0163556
780.522	0.0163887
780.600	0.0163190
780.678	0.0163940
780.756	0.0162740
780.834	0.0161883
780.913	0.0163649
780.991	0.0163116
781.069	0.0161648
781.147	0.0162856
781.225	0.0162663
781.303	0.0162134
781.381	0.0163301
781.459	0.0162070
781.538	0.0161443
781.616	0.0161012
781.694	0.0160740
781.772	0.0161048
781.850	0.0160855
781.928	0.0160537
782.006	0.0158672
782.084	0.0158663
782.163	0.0160044
782.241	0.0159624
782.319	0.0158362
782.397	0.0160159
782.475	0.0160500
782.553	0.0160839
782.631	0.0160471
782.709	0.0160939
782.788	0.0160311
782.866	0.0161578
782.944	0.0161213
783.022	0.0161230
783.100	0.0162185
783.178	0.0160899
783.256	0.0163138
783.334	0.0163579
783.413	0.0163300
783.491	0.0162779
783.569	0.0163051
783.647	0.0163319
783.725	0.0162643
783.803	0.0164023
783.881	0.0163110
783.959	0.0163109
784.038	0.0163177
784.116	0.0162680
784.194	0.0162328
784.272	0.0162861
784.350	0.0161979
784.428	0.0163840
784.506	0.0162844
784.584	0.0162164
784.663	0.0162212
784.741	0.0161562
784.819	0.0161702
784.897	0.0162205
784.975	0.0161069
785.053	0.0162220
785.131	0.0163297
785.209	0.0162123
785.288	0.0160980
785.366	0.0162112
785.444	0.0163101
785.522	0.0161998
785.600	0.0162039
785.678	0.0161972
785.756	0.0160031
785.834	0.0160962
785.913	0.0161069
785.991	0.0160694
786.069	0.0159801
786.147	0.0159538
786.225	0.0160142
786.303	0.0159328
786.381	0.0159832
786.459	0.0159113
786.538	0.0158115
786.616	0.0157447
786.694	0.0158536
786.772	0.0158858
786.850	0.0159191
786.928	0.0157991
787.006	0.0159576
787.084	0.0159779
787.163	0.0159034
787.241	0.0158554
787.319	0.0159033
787.397	0.0158554
787.475	0.0159681
787.553	0.0158044
787.631	0.0158859
787.709	0.0159446
787.788	0.0158208
787.866	0.0157932
787.944	0.0157962
788.022	0.0159029
788.100	0.0158885
788.178	0.0157869
788.256	0.0159059
788.334	0.0158467
788.413	0.0158347
788.491	0.0157533
788.569	0.0157064
788.647	0.0156626
788.725	0.0157331
788.803	0.0158916
788.881	0.0158568
788.959	0.0157610
789.038	0.0157915
789.116	0.0158779
789.194	0.0160276
789.272	0.0160189
789.350	0.0159102
789.428	0.0160294
789.506	0.0160483
789.584	0.0159508
789.663	0.0161535
789.741	0.0161457
789.819	0.0162624
789.897	0.0161897
789.975	0.0161072
790.053	0.0162650
790.131	0.0164243
790.209	0.0162933
790.288	0.0162094
790.366	0.0163984
790.444	0.0164037
790.522	0.0163607
790.600	0.0162048
790.678	0.0163690
790.756	0.0164400
790.834	0.0163095
790.913	0.0163059
790.991	0.0163779
791.069	0.0163078
791.147	0.0161977
791.225	0.0162593
791.303	0.0163646
791.381	0.0161830
791.459	0.0161224
791.538	0.0162701
791.616	0.0161430
791.694	0.0160818
791.772	0.0161073
791.850	0.0161811
791.928	0.0160966
792.006	0.0160712
792.084	0.0160077
792.163	0.0159477
792.241	0.0160477
792.319	0.0159611
792.397	0.0159846
792.475	0.0160603
792.553	0.0159204
792.631	0.0158569
792.709	0.0158965
792.788	0.0158276
792.866	0.0159686
792.944	0.0159854
793.022	0.0159480
793.100	0.0159827
793.178	0.0158785
793.256	0.0158836
793.334	0.0158660
793.413	0.0159962
793.491	0.0159081
793.569	0.0158891
793.647	0.0158954
793.725	0.0159696
793.803	0.0158718
793.881	0.0158102
793.959	0.0157966
794.038	0.0159526
794.116	0.0159553
794.194	0.0159315
794.272	0.0159017
794.350	0.0158960
794.428	0.0160772
794.506	0.0158796
794.584	0.0159681
794.663	0.0159714
794.741	0.0160982
794.819	0.0161671
794.897	0.0161213
794.975	0.0160993
795.053	0.0159946
795.131	0.0160736
795.209	0.0161282
795.288	0.0159509
795.366	0.0161414
795.444	0.0161780
795.522	0.0161456
795.600	0.0161039
795.678	0.0160947
795.756	0.0163644
795.834	0.0163515
795.913	0.0161370
795.991	0.0162835
796.069	0.0163200
796.147	0.0162682
796.225	0.0162980
796.303	0.0164965
796.381	0.0164250
796.459	0.0164048
796.538	0.0164087
796.616	0.0163139
796.694	0.0163237
796.772	0.0164730
796.850	0.0165032
796.928	0.0164292
797.006	0.0165174
797.084	0.0164497
797.163	0.0164439
797.241	0.0163309
797.319	0.0163684
797.397	0.0163573
797.475	0.0163407
797.553	0.0163099
797.631	0.0162244
797.709	0.0162740
797.788	0.0162547
797.866	0.0161905
797.944	0.0161823
798.022	0.0161266
798.100	0.0161285
798.178	0.0158743
798.256	0.0158920
798.334	0.0159998
798.413	0.0160238
798.491	0.0159586
798.569	0.0157554
798.647	0.0157861
798.725	0.0158195
798.803	0.0158024
798.881	0.0158980
798.959	0.0158515
799.038	0.0158555
799.116	0.0160074
799.194	0.0158728
799.272	0.0158291
799.350	0.0160265
799.428	0.0160305
799.506	0.0159567
799.584	0.0159564
799.663	0.0160629
799.741	0.0160471
799.819	0.0160530
799.897	0.0160806
799.975	0.0161911
800.053	0.0161324
800.131	0.0160861
800.209	0.0161246
800.288	0.0162489
800.366	0.0163326
800.444	0.0163020
800.522	0.0163402
800.600	0.0163365
800.678	0.0163301
800.756	0.0164727
800.834	0.0163844
800.913	0.0163218
800.991	0.0162019
801.069	0.0161807
801.147	0.0161712
801.225	0.0163891
801.303	0.0163720
801.381	0.0161609
801.459	0.0161321
801.538	0.0160987
801.616	0.0161571
801.694	0.0161508
801.772	0.0160664
801.850	0.0160447
801.928	0.0161186
802.006	0.0161201
802.084	0.0161391
802.163	0.0160806
802.241	0.0160793
802.319	0.0160860
802.397	0.0161944
802.475	0.0162910
802.553	0.0161514
802.631	0.0161656
802.709	0.0162815
802.788	0.0162115
802.866	0.0163576
802.944	0.0161987
803.022	0.0161559
803.100	0.0162160
803.178	0.0162459
803.256	0.0162225
803.334	0.0161533
803.413	0.0162492
803.491	0.0161552
803.569	0.0162041
803.647	0.0162648
803.725	0.0161780
803.803	0.0160464
803.881	0.0161073
803.959	0.0160925
804.038	0.0160807
804.116	0.0159865
804.194	0.0160168
804.272	0.0160560
804.350	0.0157947
804.428	0.0158508
804.506	0.0159525
804.584	0.0160188
804.663	0.0158696
804.741	0.0158456
804.819	0.0160413
804.897	0.0159075
804.975	0.0159178
805.053	0.0158932
805.131	0.0159228
805.209	0.0159467
805.288	0.0160207
805.366	0.0160394
805.444	0.0160965
805.522	0.0159962
805.600	0.0159444
805.678	0.0161265
805.756	0.0160733
805.834	0.0161327
805.913	0.0160992
805.991	0.0160577
806.069	0.0161716
806.147	0.0160955
806.225	0.0159482
806.303	0.0160265
806.381	0.0160554
806.459	0.0161037
806.538	0.0161402
806.616	0.0161327
806.694	0.0164254
806.772	0.0161697
806.850	0.0162748
806.928	0.0162244
807.006	0.0160882
807.084	0.0163743
807.163	0.0163927
807.241	0.0162507
807.319	0.0163520
807.397	0.0163127
807.475	0.0162563
807.553	0.0162834
807.631	0.0163177
807.709	0.0163551
807.788	0.0162222
807.866	0.0162697
807.944	0.0161502
808.022	0.0161752
808.100	0.0162150
808.178	0.0161992
808.256	0.0161137
808.334	0.0162428
808.413	0.0160635
808.491	0.0161311
808.569	0.0162792
808.647	0.0161746
808.725	0.0162793
808.803	0.0162012
808.881	0.0162373
808.959	0.0162344
809.038	0.0160916
809.116	0.0161361
809.194	0.0160767
809.272	0.0161361
809.350	0.0160229
809.428	0.0159976
809.506	0.0159617
809.584	0.0162007
809.663	0.0160670
809.741	0.0161061
809.819	0.0160842
809.897	0.0161269
809.975	0.0161007
810.053	0.0160566
810.131	0.0161933
810.209	0.0160735
810.288	0.0160514
810.366	0.0159597
810.444	0.0160892
810.522	0.0160818
810.600	0.0160332
810.678	0.0160026
810.756	0.0160664
810.834	0.0161579
810.913	0.0160307
810.991	0.0159342
811.069	0.0159048
811.147	0.0160453
811.225	0.0160864
811.303	0.0160484
811.381	0.0161684
811.459	0.0161718
811.538	0.0160122
811.616	0.0159346
811.694	0.0160252
811.772	0.0158070
811.850	0.0158665
811.928	0.0159898
812.006	0.0160395
812.084	0.0160209
812.163	0.0158101
812.241	0.0159199
812.319	0.0160577
812.397	0.0160098
812.475	0.0159218
812.553	0.0159898
812.631	0.0160017
812.709	0.0160670
812.788	0.0160569
812.866	0.0160556
812.944	0.0161082
813.022	0.0161747
813.100	0.0161752
813.178	0.0161606
813.256	0.0162122
813.334	0.0160453
813.413	0.0159825
813.491	0.0160155
813.569	0.0159423
813.647	0.0158677
813.725	0.0159750
813.803	0.0160239
813.881	0.0159626
813.959	0.0160049
814.038	0.0160177
814.116	0.0160068
814.194	0.0159309
814.272	0.0161343
814.350	0.0159768
814.428	0.0160764
814.506	0.0160973
814.584	0.0162153
814.663	0.0161849
814.741	0.0161530
814.819	0.0161013
814.897	0.0161938
814.975	0.0163840
815.053	0.0162728
815.131	0.0162802
815.209	0.0162523
815.288	0.0162911
815.366	0.0162482
815.444	0.0163708
815.522	0.0164401
815.600	0.0162869
815.678	0.0163496
815.756	0.0163835
815.834	0.0162376
815.913	0.0161707
815.991	0.0161819
816.069	0.0161454
816.147	0.0161514
816.225	0.0161726
816.303	0.0162330
816.381	0.0161194
816.459	0.0160542
816.538	0.0158814
816.616	0.0161366
816.694	0.0160708
816.772	0.0159061
816.850	0.0160699
816.928	0.0159663
817.006	0.0159145
817.084	0.0158997
817.163	0.0160345
817.241	0.0159631
817.319	0.0159506
817.397	0.0159830
817.475	0.0158376
817.553	0.0160275
817.631	0.0159432
817.709	0.0156784
817.788	0.0158881
817.866	0.0158693
817.944	0.0158858
818.022	0.0158807
818.100	0.0160371
818.178	0.0159305
818.256	0.0159354
818.334	0.0160667
818.413	0.0159563
818.491	0.0160941
818.569	0.0158353
818.647	0.0161170
818.725	0.0162989
818.803	0.0161828
818.881	0.0163005
818.959	0.0164651
819.038	0.0163464
819.116	0.0161906
819.194	0.0164619
819.272	0.0165073
819.350	0.0163837
819.428	0.0164326
819.506	0.0164639
819.584	0.0163880
819.663	0.0164990
819.741	0.0163280
819.819	0.0164428
819.897	0.0164083
819.975	0.0163725
820.053	0.0163481
820.131	0.0162203
820.209	0.0162460
820.288	0.0164119
820.366	0.0163271
820.444	0.0162106
820.522	0.0162374
820.600	0.0162392
820.678	0.0162229
820.756	0.0162177
820.834	0.0162764
820.913	0.0162791
820.991	0.0162002
821.069	0.0162167
821.147	0.0162051
821.225	0.0160979
821.303	0.0162498
821.381	0.0160665
821.459	0.0161980
821.538	0.0161349
821.616	0.0161533
821.694	0.0161604
821.772	0.0160946
821.850	0.0163528
821.928	0.0162062
822.006	0.0160857
822.084	0.0161190
822.163	0.0161328
822.241	0.0160950
822.319	0.0160706
822.397	0.0161693
822.475	0.0159377
822.553	0.0161115
822.631	0.0160837
822.709	0.0160434
822.788	0.0161440
822.866	0.0160425
822.944	0.0160516
823.022	0.0161333
823.100	0.0160412
823.178	0.0159931
823.256	0.0161037
823.334	0.0160054
823.413	0.0161128
823.491	0.0160921
823.569	0.0160699
823.647	0.0160248
823.725	0.0159465
823.803	0.0161650
823.881	0.0160025
823.959	0.0161005
824.038	0.0161983
824.116	0.0161158
824.194	0.0160970
824.272	0.0160727
824.350	0.0162333
824.428	0.0160430
824.506	0.0160034
824.584	0.0158904
824.663	0.0161343
824.741	0.0158984
824.819	0.0160629
824.897	0.0161144
824.975	0.0161401
825.053	0.0160810
825.131	0.0159206
825.209	0.0162029
825.288	0.0161588
825.366	0.0160518
825.444	0.0161939
825.522	0.0161735
825.600	0.0161829
825.678	0.0162643
825.756	0.0162029
825.834	0.0161532
825.913	0.0161849
825.991	0.0161736
826.069	0.0163383
826.147	0.0162180
826.225	0.0162276
826.303	0.0162648
826.381	0.0162511
826.459	0.0162325
826.538	0.0161975
826.616	0.0161265
826.694	0.0162559
826.772	0.0161560
826.850	0.0160885
826.928	0.0158992
827.006	0.0159093
827.084	0.0160907
827.163	0.0160915
827.241	0.0159412
827.319	0.0159147
827.397	0.0160300
827.475	0.0160078
827.553	0.0159853
827.631	0.0158906
827.709	0.0158115
827.788	0.0159103
827.866	0.0157669
827.944	0.0156718
828.022	0.0158173
828.100	0.0158352
828.178	0.0157743
828.256	0.0158424
828.334	0.0158983
828.413	0.0160410
828.491	0.0159739
828.569	0.0158723
828.647	0.0158688
828.725	0.0158849
828.803	0.0159373
828.881	0.0159201
828.959	0.0160606
829.038	0.0159611
829.116	0.0158741
829.194	0.0160183
829.272	0.0159608
829.350	0.0162679
829.428	0.0160862
829.506	0.0160432
829.584	0.0160825
829.663	0.0161490
829.741	0.0160695
829.819	0.0161464
829.897	0.0160909
829.975	0.0162041
830.053	0.0161430
830.131	0.0162505
830.209	0.0160885
830.288	0.0160276
830.366	0.0160557
830.444	0.0160874
830.522	0.0161057
830.600	0.0162181
830.678	0.0160217
830.756	0.0159653
830.834	0.0160743
830.913	0.0160067
830.991	0.0158733
831.069	0.0158836
831.147	0.0158823
831.225	0.0159299
831.303	0.0160479
831.381	0.0159981
831.459	0.0159612
831.538	0.0159687
831.616	0.0158554
831.694	0.0158938
831.772	0.0159455
831.850	0.0158688
831.928	0.0159000
832.006	0.0160834
832.084	0.0160981
832.163	0.0160785
832.241	0.0161464
832.319	0.0160285
832.397	0.0161089
832.475	0.0160180
832.553	0.0160345
832.631	0.0160456
832.709	0.0161314
832.788	0.0161294
832.866	0.0161072
832.944	0.0161469
833.022	0.0161259
833.100	0.0161737
833.178	0.0162023
833.256	0.0161031
833.334	0.0161446
833.413	0.0162315
833.491	0.0161493
833.569	0.0161943
833.647	0.0162511
833.725	0.0162061
833.803	0.0162007
833.881	0.0162313
833.959	0.0162722
834.038	0.0161478
834.116	0.0160622
834.194	0.0161897
834.272	0.0160834
834.350	0.0162321
834.428	0.0160535
834.506	0.0159718
834.584	0.0160197
834.663	0.0160506
834.741	0.0161626
834.819	0.0161841
834.897	0.0161056
834.975	0.0160484
835.053	0.0158502
835.131	0.0161201
835.209	0.0162550
835.288	0.0161248
835.366	0.0160236
835.444	0.0161888
835.522	0.0161186
835.600	0.0161054
835.678	0.0163248
835.756	0.0162618
835.834	0.0164205
835.913	0.0162926
835.991	0.0164457
836.069	0.0165001
836.147	0.0163280
836.225	0.0164031
836.303	0.0163409
836.381	0.0163805
836.459	0.0163879
836.538	0.0164683
836.616	0.0162881
836.694	0.0163368
836.772	0.0163512
836.850	0.0163176
836.928	0.0163500
837.006	0.0163261
837.084	0.0163681
837.163	0.0163906
837.241	0.0163102
837.319	0.0163850
837.397	0.0163566
837.475	0.0163327
837.553	0.0162692
837.631	0.0162122
837.709	0.0163512
837.788	0.0161569
837.866	0.0161391
837.944	0.0162127
838.022	0.0161595
838.100	0.0161940
838.178	0.0160703
838.256	0.0161906
838.334	0.0161451
838.413	0.0162028
838.491	0.0160532
838.569	0.0160625
838.647	0.0161397
838.725	0.0159731
838.803	0.0161752
838.881	0.0161801
838.959	0.0160065
839.038	0.0160741
839.116	0.0162689
839.194	0.0162306
839.272	0.0163466
839.350	0.0161682
839.428	0.0162700
839.506	0.0161643
839.584	0.0161425
839.663	0.0163529
839.741	0.0163094
839.819	0.0163220
839.897	0.0163075
839.975	0.0161788
840.053	0.0162772
840.131	0.0163074
840.209	0.0162864
840.288	0.0163245
840.366	0.0163566
840.444	0.0163483
840.522	0.0163345
840.600	0.0161515
840.678	0.0163585
840.756	0.0162727
840.834	0.0162212
840.913	0.0162605
840.991	0.0162633
841.069	0.0162711
841.147	0.0162302
841.225	0.0162621
841.303	0.0161838
841.381	0.0161608
841.459	0.0160558
841.538	0.0161343
841.616	0.0160820
841.694	0.0160851
841.772	0.0161166
841.850	0.0160854
841.928	0.0160437
842.006	0.0161670
842.084	0.0161433
842.163	0.0159799
842.241	0.0159689
842.319	0.0160519
842.397	0.0159814
842.475	0.0160102
842.553	0.0160310
842.631	0.0158533
842.709	0.0158979
842.788	0.0158342
842.866	0.0159132
842.944	0.0159565
843.022	0.0159259
843.100	0.0159106
843.178	0.0159354
843.256	0.0158675
843.334	0.0159030
843.413	0.0158657
843.491	0.0160820
843.569	0.0160635
843.647	0.0159413
843.725	0.0160437
843.803	0.0159992
843.881	0.0159911
843.959	0.0159766
844.038	0.0160597
844.116	0.0160865
844.194	0.0160024
844.272	0.0159452
844.350	0.0160445
844.428	0.0161642
844.506	0.0162801
844.584	0.0161427
844.663	0.0160716
844.741	0.0161601
844.819	0.0163296
844.897	0.0162844
844.975	0.0162763
845.053	0.0163258
845.131	0.0163204
845.209	0.0163167
845.288	0.0162991
845.366	0.0163168
845.444	0.0161736
845.522	0.0162400
845.600	0.0162553
845.678	0.0162211
845.756	0.0162117
845.834	0.0161575
845.913	0.0162283
845.991	0.0161745
846.069	0.0161938
846.147	0.0162061
846.225	0.0161412
846.303	0.0161404
846.381	0.0161099
846.459	0.0160239
846.538	0.0160662
846.616	0.0161346
846.694	0.0161586
846.772	0.0159956
846.850	0.0160582
846.928	0.0160336
847.006	0.0158845
847.084	0.0159229
847.163	0.0160881
847.241	0.0160891
847.319	0.0161608
847.397	0.0162472
847.475	0.0161919
847.553	0.0160606
847.631	0.0160954
847.709	0.0161628
847.788	0.0162624
847.866	0.0162038
847.944	0.0160503
848.022	0.0160465
848.100	0.0160754
848.178	0.0162660
848.256	0.0161774
848.334	0.0161700
848.413	0.0162323
848.491	0.0161383
848.569	0.0161108
848.647	0.0162038
848.725	0.0161289
848.803	0.0161150
848.881	0.0160374
848.959	0.0161255
849.038	0.0161991
849.116	0.0161361
849.194	0.0160765
849.272	0.0160829
849.350	0.0161533
849.428	0.0160737
849.506	0.0160210
849.584	0.0161423
849.663	0.0160049
849.741	0.0160872
849.819	0.0159928
849.897	0.0160115
849.975	0.0160379
850.053	0.0160140
850.131	0.0160574
850.209	0.0161952
850.288	0.0162298
850.366	0.0159844
850.444	0.0162095
850.522	0.0161214
850.600	0.0161092
850.678	0.0160896
850.756	0.0161929
850.834	0.0161684
850.913	0.0162082
850.991	0.0162914
851.069	0.0161866
851.147	0.0160723
851.225	0.0161556
851.303	0.0161973
851.381	0.0161438
851.459	0.0160701
851.538	0.0161291
851.616	0.0161462
851.694	0.0161803
851.772	0.0161588
851.850	0.0161456
851.928	0.0162682
852.006	0.0160854
852.084	0.0160126
852.163	0.0162083
852.241	0.0162486
852.319	0.0160303
852.397	0.0162094
852.475	0.0160487
852.553	0.0160265
852.631	0.0160853
852.709	0.0161061
852.788	0.0162706
852.866	0.0162544
852.944	0.0163270
853.022	0.0162122
853.100	0.0161313
853.178	0.0161083
853.256	0.0162241
853.334	0.0162191
853.413	0.0161129
853.491	0.0160278
853.569	0.0161970
853.647	0.0161985
853.725	0.0160928
853.803	0.0160417
853.881	0.0161298
853.959	0.0161170
854.038	0.0160748
854.116	0.0160035
854.194	0.0159383
854.272	0.0162430
854.350	0.0161177
854.428	0.0162529
854.506	0.0161501
854.584	0.0159920
854.663	0.0160858
854.741	0.0161870
854.819	0.0159846
854.897	0.0160193
854.975	0.0161335
855.053	0.0161001
855.131	0.0160428
855.209	0.0161151
855.288	0.0161594
855.366	0.0160484
855.444	0.0159510
855.522	0.0160025
855.600	0.0162179
855.678	0.0160950
855.756	0.0161143
855.834	0.0161417
855.913	0.0160066
855.991	0.0159875
856.069	0.0160023
856.147	0.0161762
856.225	0.0162263
856.303	0.0160797
856.381	0.0160252
856.459	0.0159915
856.538	0.0159568
856.616	0.0160748
856.694	0.0162187
856.772	0.0160730
856.850	0.0160595
856.928	0.0160225
857.006	0.0160440
857.084	0.0162173
857.163	0.0160692
857.241	0.0160629
857.319	0.0162225
857.397	0.0160292
857.475	0.0161195
857.553	0.0160410
857.631	0.0160341
857.709	0.0160632
857.788	0.0160815
857.866	0.0160951
857.944	0.0160548
858.022	0.0160091
858.100	0.0161226
858.178	0.0159686
858.256	0.0161138
858.334	0.0159581
858.413	0.0161201
858.491	0.0159300
858.569	0.0160107
858.647	0.0160969
858.725	0.0160406
858.803	0.0161201
858.881	0.0159680
858.959	0.0160886
859.038	0.0159869
859.116	0.0160500
859.194	0.0160108
859.272	0.0159624
859.350	0.0160427
859.428	0.0159703
859.506	0.0160506
859.584	0.0161238
859.663	0.0160663
859.741	0.0160461
859.819	0.0160211
859.897	0.0160559
859.975	0.0160950
860.053	0.0160560
860.131	0.0161243
860.209	0.0161029
860.288	0.0159796
860.366	0.0160905
860.444	0.0160329
860.522	0.0161263
860.600	0.0161177
860.678	0.0159193
860.756	0.0160145
860.834	0.0160381
860.913	0.0160973
860.991	0.0159866
861.069	0.0161450
861.147	0.0159636
861.225	0.0160115
861.303	0.0159595
861.381	0.0160528
861.459	0.0160067
861.538	0.0161127
861.616	0.0160206
861.694	0.0160761
861.772	0.0160432
861.850	0.0161250
861.928	0.0159299
862.006	0.0160886
862.084	0.0160490
862.163	0.0161227
862.241	0.0160753
862.319	0.0160873
862.397	0.0161209
862.475	0.0160913
862.553	0.0161465
862.631	0.0160670
862.709	0.0159762
862.788	0.0161551
862.866	0.0160255
862.944	0.0162082
863.022	0.0162469
863.100	0.0163026
863.178	0.0161478
863.256	0.0160796
863.334	0.0160682
863.413	0.0161351
863.491	0.0162009
863.569	0.0160729
863.647	0.0161390
863.725	0.0160614
863.803	0.0162005
863.881	0.0162608
863.959	0.0161296
864.038	0.0161629
864.116	0.0162185
864.194	0.0161981
864.272	0.0161739
864.350	0.0162254
864.428	0.0162018
864.506	0.0160964
864.584	0.0161539
864.663	0.0162389
864.741	0.0163242
864.819	0.0162160
864.897	0.0161810
864.975	0.0159862
865.053	0.0161480
865.131	0.0161197
865.209	0.0161995
865.288	0.0162597
865.366	0.0162697
865.444	0.0161858
865.522	0.0162919
865.600	0.0162552
865.678	0.0164111
865.756	0.0162676
865.834	0.0163153
865.913	0.0162719
865.991	0.0162434
866.069	0.0162773
866.147	0.0163660
866.225	0.0162312
866.303	0.0164084
866.381	0.0162915
866.459	0.0163081
866.538	0.0162963
866.616	0.0162619
866.694	0.0162561
866.772	0.0161290
866.850	0.0162129
866.928	0.0161919
867.006	0.0161978
867.084	0.0161582
867.163	0.0160502
867.241	0.0160480
867.319	0.0160952
867.397	0.0159621
867.475	0.0160817
867.553	0.0160722
867.631	0.0161063
867.709	0.0160220
867.788	0.0158521
867.866	0.0159986
867.944	0.0160797
868.022	0.0160310
868.100	0.0160183
868.178	0.0157816
868.256	0.0159732
868.334	0.0159595
868.413	0.0159496
868.491	0.0160176
868.569	0.0160467
868.647	0.0158898
868.725	0.0160388
868.803	0.0161154
868.881	0.0161152
868.959	0.0162289
869.038	0.0160243
869.116	0.0161105
869.194	0.0160507
869.272	0.0162506
869.350	0.0161155
869.428	0.0161856
869.506	0.0161457
869.584	0.0161359
869.663	0.0162782
869.741	0.0161126
869.819	0.0161473
869.897	0.0161063
869.975	0.0162746
870.053	0.0160688
870.131	0.0163050
870.209	0.0163691
870.288	0.0161308
870.366	0.0163160
870.444	0.0162347
870.522	0.0163030
870.600	0.0162820
870.678	0.0161566
870.756	0.0161127
870.834	0.0161944
870.913	0.0162450
870.991	0.0163011
871.069	0.0162552
871.147	0.0161964
871.225	0.0161430
871.303	0.0160823
871.381	0.0161475
871.459	0.0160584
871.538	0.0160539
871.616	0.0160562
871.694	0.0161072
871.772	0.0161116
871.850	0.0159944
871.928	0.0160314
872.006	0.0161885
872.084	0.0160105
872.163	0.0160896
872.241	0.0160739
872.319	0.0163094
872.397	0.0161473
872.475	0.0162402
872.553	0.0163264
872.631	0.0162562
872.709	0.0162858
872.788	0.0162714
872.866	0.0163669
872.944	0.0163242
873.022	0.0164093
873.100	0.0163885
873.178	0.0162351
873.256	0.0164905
873.334	0.0163617
873.413	0.0164606
873.491	0.0163471
873.569	0.0164349
873.647	0.0164745
873.725	0.0163388
873.803	0.0163195
873.881	0.0164026
873.959	0.0164156
874.038	0.0162689
874.116	0.0164154
874.194	0.0161913
874.272	0.0162138
874.350	0.0162907
874.428	0.0163554
874.506	0.0162035
874.584	0.0163206
874.663	0.0162356
874.741	0.0162032
874.819	0.0161881
874.897	0.0163211
874.975	0.0162493
875.053	0.0160544
875.131	0.0160989
875.209	0.0160418
875.288	0.0159940
875.366	0.0161074
875.444	0.0161297
875.522	0.0161712
875.600	0.0161322
875.678	0.0160796
875.756	0.0160625
875.834	0.0162469
875.913	0.0161639
875.991	0.0161595
876.069	0.0161594
876.147	0.0160501
876.225	0.0160947
876.303	0.0162099
876.381	0.0161508
876.459	0.0161722
876.538	0.0161866
876.616	0.0161895
876.694	0.0161408
876.772	0.0161312
876.850	0.0161703
876.928	0.0161020
877.006	0.0161270
877.084	0.0161865
877.163	0.0161770
877.241	0.0162442
877.319	0.0162264
877.397	0.0161906
877.475	0.0162769
877.553	0.0163641
877.631	0.0161742
877.709	0.0162044
877.788	0.0162684
877.866	0.0162206
877.944	0.0162208
878.022	0.0162411
878.100	0.0161650
878.178	0.0162353
878.256	0.0161222
878.334	0.0161598
878.413	0.0160349
878.491	0.0161353
878.569	0.0162066
878.647	0.0160319
878.725	0.0160834
878.803	0.0161050
878.881	0.0160188
878.959	0.0160996
879.038	0.0160211
879.116	0.0159925
879.194	0.0159835
879.272	0.0158884
879.350	0.0158726
879.428	0.0160968
879.506	0.0159089
879.584	0.0160296
879.663	0.0159875
879.741	0.0160133
879.819	0.0159639
879.897	0.0159463
879.975	0.0159650
880.053	0.0159414
880.131	0.0159958
880.209	0.0160403
880.288	0.0160258
880.366	0.0159841
880.444	0.0159545
880.522	0.0160679
880.600	0.0160657
880.678	0.0158744
880.756	0.0159230
880.834	0.0160461
880.913	0.0160336
880.991	0.0162143
881.069	0.0161725
881.147	0.0160812
881.225	0.0161846
881.303	0.0162368
881.381	0.0161294
881.459	0.0163061
881.538	0.0161981
881.616	0.0162050
881.694	0.0163616
881.772	0.0162741
881.850	0.0163863
881.928	0.0162076
882.006	0.0162558
882.084	0.0162642
882.163	0.0161554
882.241	0.0162389
882.319	0.0163538
882.397	0.0162940
882.475	0.0162898
882.553	0.0163055
882.631	0.0161891
882.709	0.0163669
882.788	0.0162207
882.866	0.0162304
882.944	0.0161892
883.022	0.0161661
883.100	0.0162443
883.178	0.0161206
883.256	0.0161609
883.334	0.0161523
883.413	0.0160303
883.491	0.0160710
883.569	0.0160104
883.647	0.0161427
883.725	0.0159769
883.803	0.0160065
883.881	0.0160409
883.959	0.0159291
884.038	0.0159659
884.116	0.0160037
884.194	0.0159875
884.272	0.0159370
884.350	0.0160447
884.428	0.0161040
884.506	0.0160684
884.584	0.0159659
884.663	0.0160262
884.741	0.0160427
884.819	0.0160777
884.897	0.0160743
884.975	0.0161176
885.053	0.0161329
885.131	0.0162114
885.209	0.0161110
885.288	0.0161366
885.366	0.0161590
885.444	0.0160719
885.522	0.0160804
885.600	0.0162543
885.678	0.0161519
885.756	0.0160995
885.834	0.0162274
885.913	0.0161842
885.991	0.0161437
886.069	0.0163046
886.147	0.0161579
886.225	0.0162938
886.303	0.0163297
886.381	0.0163650
886.459	0.0162848
886.538	0.0163018
886.616	0.0163488
886.694	0.0162749
886.772	0.0162253
886.850	0.0162749
886.928	0.0162171
887.006	0.0163030
887.084	0.0161905
887.163	0.0162056
887.241	0.0162653
887.319	0.0162501
887.397	0.0162076
887.475	0.0161504
887.553	0.0160073
887.631	0.0161781
887.709	0.0160915
887.788	0.0159953
887.866	0.0160258
887.944	0.0159402
888.022	0.0159238
888.100	0.0159368
888.178	0.0160510
888.256	0.0159162
888.334	0.0159460
888.413	0.0159307
888.491	0.0158592
888.569	0.0159518
888.647	0.0160530
888.725	0.0159823
888.803	0.0158828
888.881	0.0159752
888.959	0.0160271
889.038	0.0160631
889.116	0.0159438
889.194	0.0159695
889.272	0.0161629
889.350	0.0160843
889.428	0.0159370
889.506	0.0160333
889.584	0.0161613
889.663	0.0161377
889.741	0.0160773
889.819	0.0161715
889.897	0.0161131
889.975	0.0159084
890.053	0.0158890
890.131	0.0159611
890.209	0.0159780
890.288	0.0158583
890.366	0.0159613
890.444	0.0159565
890.522	0.0159089
890.600	0.0159148
890.678	0.0158185
890.756	0.0159375
890.834	0.0158138
890.913	0.0158938
890.991	0.0159644
891.069	0.0159321
891.147	0.0160458
891.225	0.0159626
891.303	0.0158727
891.381	0.0158592
891.459	0.0159248
891.538	0.0160029
891.616	0.0159410
891.694	0.0160900
891.772	0.0159900
891.850	0.0158460
891.928	0.0159071
892.006	0.0160257
892.084	0.0159499
892.163	0.0160370
892.241	0.0159766
892.319	0.0159574
892.397	0.0160809
892.475	0.0160901
892.553	0.0160734
892.631	0.0161167
892.709	0.0160760
892.788	0.0160164
892.866	0.0159361
892.944	0.0160964
893.022	0.0161003
893.100	0.0160889
893.178	0.0162193
893.256	0.0161271
893.334	0.0160677
893.413	0.0160892
893.491	0.0162257
893.569	0.0161897
893.647	0.0161972
893.725	0.0161784
893.803	0.0162154
893.881	0.0161973
893.959	0.0162360
894.038	0.0161713
894.116	0.0162906
894.194	0.0163301
894.272	0.0163789
894.350	0.0163669
894.428	0.0164475
894.506	0.0164351
894.584	0.0165016
894.663	0.0164257
894.741	0.0163870
894.819	0.0164501
894.897	0.0164735
894.975	0.0164905
895.053	0.0163777
895.131	0.0162598
895.209	0.0163750
895.288	0.0163643
895.366	0.0165020
895.444	0.0162039
895.522	0.0161848
895.600	0.0163259
895.678	0.0162662
895.756	0.0162891
895.834	0.0161147
895.913	0.0161806
895.991	0.0161753
896.069	0.0160460
896.147	0.0160775
896.225	0.0162106
896.303	0.0161259
896.381	0.0161008
896.459	0.0162251
896.538	0.0162175
896.616	0.0159540
896.694	0.0161079
896.772	0.0160886
896.850	0.0160281
896.928	0.0160660
897.006	0.0161926
897.084	0.0161239
897.163	0.0161884
897.241	0.0159808
897.319	0.0160434
897.397	0.0160606
897.475	0.0161836
897.553	0.0163063
897.631	0.0162920
897.709	0.0162029
897.788	0.0160516
897.866	0.0161412
897.944	0.0161726
898.022	0.0162598
898.100	0.0162987
898.178	0.0162592
898.256	0.0164305
898.334	0.0163286
898.413	0.0162521
898.491	0.0160768
898.569	0.0163838
898.647	0.0163956
898.725	0.0162576
898.803	0.0161185
898.881	0.0164823
898.959	0.0164152
899.038	0.0162936
899.116	0.0161686
899.194	0.0160973
899.272	0.0161382
899.350	0.0162537
899.428	0.0161473
899.506	0.0160402
899.584	0.0161188
899.663	0.0161332
899.741	0.0161180
899.819	0.0160599
899.897	0.0161404
899.975	0.0162067
900.053	0.0161135
900.131	0.0159898
900.209	0.0160870
900.288	0.0160941
900.366	0.0161630
900.444	0.0160130
900.522	0.0161583
900.600	0.0160348
900.678	0.0159867
900.756	0.0161761
900.834	0.0158892
900.913	0.0160048
900.991	0.0159400
901.069	0.0159538
901.147	0.0160931
901.225	0.0161790
901.303	0.0159752
901.381	0.0159686
901.459	0.0160722
901.538	0.0160567
901.616	0.0159827
901.694	0.0159605
901.772	0.0161068
901.850	0.0159727
901.928	0.0158939
902.006	0.0159732
902.084	0.0159896
902.163	0.0160121
902.241	0.0159571
902.319	0.0159348
902.397	0.0159718
902.475	0.0160728
902.553	0.0159705
902.631	0.0159958
902.709	0.0159297
902.788	0.0158868
902.866	0.0160907
902.944	0.0159057
903.022	0.0160889
903.100	0.0159030
903.178	0.0160265
903.256	0.0160101
903.334	0.0160029
903.413	0.0160780
903.491	0.0160399
903.569	0.0161152
903.647	0.0161524
903.725	0.0160885
903.803	0.0160780
903.881	0.0160734
903.959	0.0162719
904.038	0.0161489
904.116	0.0160128
904.194	0.0162700
904.272	0.0161243
904.350	0.0161182
904.428	0.0161234
904.506	0.0160799
904.584	0.0161751
904.663	0.0162118
904.741	0.0161793
904.819	0.0160641
904.897	0.0160959
904.975	0.0159969
905.053	0.0160255
905.131	0.0161103
905.209	0.0160897
905.288	0.0159908
905.366	0.0160892
905.444	0.0159750
905.522	0.0159885
905.600	0.0160363
905.678	0.0159595
905.756	0.0159119
905.834	0.0160381
905.913	0.0160214
905.991	0.0159777
906.069	0.0160136
906.147	0.0161678
906.225	0.0161169
906.303	0.0161838
906.381	0.0160579
906.459	0.0160030
906.538	0.0160126
906.616	0.0161082
906.694	0.0160908
906.772	0.0159750
906.850	0.0160468
906.928	0.0160975
907.006	0.0162463
907.084	0.0161922
907.163	0.0160562
907.241	0.0160703
907.319	0.0161626
907.397	0.0162546
907.475	0.0161356
907.553	0.0160912
907.631	0.0161519
907.709	0.0161459
907.788	0.0160992
907.866	0.0161019
907.944	0.0162099
908.022	0.0161588
908.100	0.0161068
908.178	0.0160585
908.256	0.0161214
908.334	0.0159771
908.413	0.0160826
908.491	0.0159814
908.569	0.0161460
908.647	0.0161876
908.725	0.0159703
908.803	0.0159244
908.881	0.0160122
908.959	0.0159175
909.038	0.0159425
909.116	0.0161510
909.194	0.0160995
909.272	0.0160074
909.350	0.0160620
909.428	0.0160224
909.506	0.0160757
909.584	0.0159757
909.663	0.0159853
909.741	0.0158914
909.819	0.0160421
909.897	0.0161806
909.975	0.0160357
910.053	0.0159704
910.131	0.0160489
910.209	0.0159361
910.288	0.0161169
910.366	0.0160564
910.444	0.0162821
910.522	0.0160700
910.600	0.0161657
910.678	0.0161150
910.756	0.0160712
910.834	0.0161483
910.913	0.0161783
910.991	0.0160592
911.069	0.0161737
911.147	0.0160638
911.225	0.0161855
911.303	0.0161906
911.381	0.0161563
911.459	0.0161726
911.538	0.0160537
911.616	0.0161527
911.694	0.0160312
911.772	0.0159557
911.850	0.0161066
911.928	0.0161124
912.006	0.0161520
912.084	0.0161404
912.163	0.0162176
912.241	0.0161105
912.319	0.0161138
912.397	0.0161024
912.475	0.0160518
912.553	0.0162029
912.631	0.0161342
912.709	0.0161066
912.788	0.0161014
912.866	0.0161189
912.944	0.0160315
913.022	0.0160791
913.100	0.0161999
913.178	0.0161021
913.256	0.0160102
913.334	0.0160410
913.413	0.0161869
913.491	0.0160127
913.569	0.0160460
913.647	0.0160246
913.725	0.0160741
913.803	0.0160333
913.881	0.0159700
913.959	0.0160282
914.038	0.0161132
914.116	0.0159415
914.194	0.0159991
914.272	0.0160185
914.350	0.0160812
914.428	0.0159991
914.506	0.0160052
914.584	0.0160564
914.663	0.0160271
914.741	0.0160812
914.819	0.0159431
914.897	0.0159703
914.975	0.0162066
915.053	0.0160908
915.131	0.0160789
915.209	0.0160600
915.288	0.0160104
915.366	0.0160503
915.444	0.0161405
915.522	0.0159670
915.600	0.0159552
915.678	0.0160596
915.756	0.0160140
915.834	0.0160397
915.913	0.0161906
915.991	0.0161454
916.069	0.0162145
916.147	0.0161304
916.225	0.0161391
916.303	0.0162457
916.381	0.0161683
916.459	0.0163871
916.538	0.0161743
916.616	0.0162820
916.694	0.0162322
916.772	0.0162072
916.850	0.0162527
916.928	0.0162461
917.006	0.0161793
917.084	0.0163828
917.163	0.0162521
917.241	0.0162077
917.319	0.0162101
917.397	0.0161962
917.475	0.0161620
917.553	0.0162134
917.631	0.0162142
917.709	0.0161974
917.788	0.0160519
917.866	0.0160237
917.944	0.0159962
918.022	0.0161586
918.100	0.0162646
918.178	0.0160853
918.256	0.0160406
918.334	0.0160738
918.413	0.0160835
918.491	0.0160453
918.569	0.0160286
918.647	0.0159522
918.725	0.0161115
918.803	0.0161212
918.881	0.0162209
918.959	0.0161249
919.038	0.0159653
919.116	0.0161929
919.194	0.0160790
919.272	0.0160454
919.350	0.0161649
919.428	0.0160369
919.506	0.0160733
919.584	0.0160233
919.663	0.0160808
919.741	0.0161589
919.819	0.0160645
919.897	0.0160146
