05/20/2022	20:38:12	Ver.	4.1	UNKNOWN
Optical Delay	599.981738	Delta X		0.078125	Sweeps	1	Scan Rate	0/0
Coordinates	Axis 1	NaN	Axis 2	NaN	Axis 3	NaN	Axis 4	NaN	Axis 5	NaN	Axis 6	0.000000
TX Power	0.000000	RX Power	0.000000

599.982	0.0151984
600.060	0.0151051
600.138	0.0151323
600.216	0.0151253
600.294	0.0152559
600.372	0.0152078
600.450	0.0150777
600.529	0.0151935
600.607	0.0151642
600.685	0.0151277
600.763	0.0151814
600.841	0.0151862
600.919	0.0152674
600.997	0.0151866
601.075	0.0151567
601.154	0.0151360
601.232	0.0150627
601.310	0.0153233
601.388	0.0151656
601.466	0.0151653
601.544	0.0152545
601.622	0.0152126
601.700	0.0152308
601.779	0.0151591
601.857	0.0152193
601.935	0.0152622
602.013	0.0151878
602.091	0.0151390
602.169	0.0152331
602.247	0.0151488
602.325	0.0152758
602.404	0.0151302
602.482	0.0151817
602.560	0.0152143
602.638	0.0152401
602.716	0.0151395
602.794	0.0152001
602.872	0.0151609
602.950	0.0150426
603.029	0.0151516
603.107	0.0152210
603.185	0.0151830
603.263	0.0152614
603.341	0.0152203
603.419	0.0152640
603.497	0.0152744
603.575	0.0151595
603.654	0.0150114
603.732	0.0152576
603.810	0.0152892
603.888	0.0152226
603.966	0.0151665
604.044	0.0152605
604.122	0.0151595
604.200	0.0151884
604.279	0.0151936
604.357	0.0152109
604.435	0.0152203
604.513	0.0151606
604.591	0.0152238
604.669	0.0150694
604.747	0.0151949
604.825	0.0151936
604.904	0.0153545
604.982	0.0151939
605.060	0.0151498
605.138	0.0151893
605.216	0.0150757
605.294	0.0152065
605.372	0.0152569
605.450	0.0152011
605.529	0.0152406
605.607	0.0151608
605.685	0.0152303
605.763	0.0152193
605.841	0.0152710
605.919	0.0151971
605.997	0.0152694
606.075	0.0152250
606.154	0.0152455
606.232	0.0152151
606.310	0.0150932
606.388	0.0154317
606.466	0.0151090
606.544	0.0151473
606.622	0.0153054
606.700	0.0150729
606.779	0.0152105
606.857	0.0151308
606.935	0.0151517
607.013	0.0153005
607.091	0.0153194
607.169	0.0152934
607.247	0.0151724
607.325	0.0150827
607.404	0.0151022
607.482	0.0152023
607.560	0.0152326
607.638	0.0153316
607.716	0.0151718
607.794	0.0151482
607.872	0.0151476
607.950	0.0150664
608.029	0.0151598
608.107	0.0151589
608.185	0.0151373
608.263	0.0151821
608.341	0.0151953
608.419	0.0151941
608.497	0.0150829
608.575	0.0151055
608.654	0.0152911
608.732	0.0150739
608.810	0.0152213
608.888	0.0152284
608.966	0.0151208
609.044	0.0151908
609.122	0.0152399
609.200	0.0152670
609.279	0.0151927
609.357	0.0151689
609.435	0.0152934
609.513	0.0151511
609.591	0.0152132
609.669	0.0152628
609.747	0.0151837
609.825	0.0151122
609.904	0.0151974
609.982	0.0152026
610.060	0.0152877
610.138	0.0151167
610.216	0.0150529
610.294	0.0152254
610.372	0.0151492
610.450	0.0153247
610.529	0.0152212
610.607	0.0151838
610.685	0.0151134
610.763	0.0151138
610.841	0.0152556
610.919	0.0152620
610.997	0.0151601
611.075	0.0151347
611.154	0.0152058
611.232	0.0151747
611.310	0.0152071
611.388	0.0151637
611.466	0.0151577
611.544	0.0152188
611.622	0.0152197
611.700	0.0150704
611.779	0.0151009
611.857	0.0150315
611.935	0.0151309
612.013	0.0151136
612.091	0.0152140
612.169	0.0151380
612.247	0.0151015
612.325	0.0152065
612.404	0.0151707
612.482	0.0151105
612.560	0.0151539
612.638	0.0151016
612.716	0.0152114
612.794	0.0152589
612.872	0.0151822
612.950	0.0151243
613.029	0.0151774
613.107	0.0152644
613.185	0.0152275
613.263	0.0152037
613.341	0.0151552
613.419	0.0152611
613.497	0.0151479
613.575	0.0152412
613.654	0.0151064
613.732	0.0151058
613.810	0.0150494
613.888	0.0152902
613.966	0.0150568
614.044	0.0151044
614.122	0.0150744
614.200	0.0152240
614.279	0.0152076
614.357	0.0151379
614.435	0.0151540
614.513	0.0150043
614.591	0.0152553
614.669	0.0150726
614.747	0.0152091
614.825	0.0151214
614.904	0.0152296
614.982	0.0152694
615.060	0.0153027
615.138	0.0153371
615.216	0.0152389
615.294	0.0153101
615.372	0.0152682
615.450	0.0151973
615.529	0.0152551
615.607	0.0151864
615.685	0.0151382
615.763	0.0152018
615.841	0.0151715
615.919	0.0151908
615.997	0.0152048
616.075	0.0151116
616.154	0.0151594
616.232	0.0151936
616.310	0.0150434
616.388	0.0151501
616.466	0.0150824
616.544	0.0151208
616.622	0.0151629
616.700	0.0151536
616.779	0.0150670
616.857	0.0150932
616.935	0.0151067
617.013	0.0150997
617.091	0.0151527
617.169	0.0152350
617.247	0.0151647
617.325	0.0151968
617.404	0.0152039
617.482	0.0152164
617.560	0.0151693
617.638	0.0151694
617.716	0.0150301
617.794	0.0150600
617.872	0.0152587
617.950	0.0152127
618.029	0.0152035
618.107	0.0151982
618.185	0.0152943
618.263	0.0152430
618.341	0.0151522
618.419	0.0151328
618.497	0.0152029
618.575	0.0152145
618.654	0.0152523
618.732	0.0151483
618.810	0.0150606
618.888	0.0152700
618.966	0.0151360
619.044	0.0152324
619.122	0.0151988
619.200	0.0151546
619.279	0.0151271
619.357	0.0150323
619.435	0.0152135
619.513	0.0151859
619.591	0.0152088
619.669	0.0152826
619.747	0.0152547
619.825	0.0151106
619.904	0.0151716
619.982	0.0151388
620.060	0.0151115
620.138	0.0151272
620.216	0.0152069
620.294	0.0152106
620.372	0.0151698
620.450	0.0152008
620.529	0.0152158
620.607	0.0152246
620.685	0.0151543
620.763	0.0152552
620.841	0.0152108
620.919	0.0152043
620.997	0.0150304
621.075	0.0152088
621.154	0.0152464
621.232	0.0151721
621.310	0.0151769
621.388	0.0152878
621.466	0.0151022
621.544	0.0151717
621.622	0.0152904
621.700	0.0151283
621.779	0.0150832
621.857	0.0151649
621.935	0.0153440
622.013	0.0152386
622.091	0.0152195
622.169	0.0151335
622.247	0.0152480
622.325	0.0152037
622.404	0.0152740
622.482	0.0151660
622.560	0.0151308
622.638	0.0152032
622.716	0.0152845
622.794	0.0151237
622.872	0.0151532
622.950	0.0152151
623.029	0.0151264
623.107	0.0151401
623.185	0.0152069
623.263	0.0150961
623.341	0.0152289
623.419	0.0152686
623.497	0.0151414
623.575	0.0152122
623.654	0.0152087
623.732	0.0150139
623.810	0.0151449
623.888	0.0151310
623.966	0.0152337
624.044	0.0151551
624.122	0.0151637
624.200	0.0151562
624.279	0.0152220
624.357	0.0152972
624.435	0.0151705
624.513	0.0150710
624.591	0.0152365
624.669	0.0150661
624.747	0.0152050
624.825	0.0151993
624.904	0.0150558
624.982	0.0150855
625.060	0.0151637
625.138	0.0153040
625.216	0.0150917
625.294	0.0151211
625.372	0.0152191
625.450	0.0151662
625.529	0.0150903
625.607	0.0151466
625.685	0.0152612
625.763	0.0152399
625.841	0.0151440
625.919	0.0151285
625.997	0.0151718
626.075	0.0150710
626.154	0.0152634
626.232	0.0151460
626.310	0.0152276
626.388	0.0151347
626.466	0.0151787
626.544	0.0152148
626.622	0.0151748
626.700	0.0152829
626.779	0.0151432
626.857	0.0151286
626.935	0.0152711
627.013	0.0151349
627.091	0.0152222
627.169	0.0151575
627.247	0.0149978
627.325	0.0150972
627.404	0.0153112
627.482	0.0152461
627.560	0.0151101
627.638	0.0151375
627.716	0.0152124
627.794	0.0151431
627.872	0.0151900
627.950	0.0151982
628.029	0.0151833
628.107	0.0152959
628.185	0.0151978
628.263	0.0151692
628.341	0.0150388
628.419	0.0152737
628.497	0.0153529
628.575	0.0151319
628.654	0.0152657
628.732	0.0152051
628.810	0.0151546
628.888	0.0151368
628.966	0.0152259
629.044	0.0150172
629.122	0.0153091
629.200	0.0151602
629.279	0.0151279
629.357	0.0152229
629.435	0.0150438
629.513	0.0151524
629.591	0.0151611
629.669	0.0151163
629.747	0.0152444
629.825	0.0152644
629.904	0.0151114
629.982	0.0151761
630.060	0.0151618
630.138	0.0152248
630.216	0.0152101
630.294	0.0151534
630.372	0.0149754
630.450	0.0153638
630.529	0.0153403
630.607	0.0151745
630.685	0.0151823
630.763	0.0153157
630.841	0.0151682
630.919	0.0151615
630.997	0.0150777
631.075	0.0151237
631.154	0.0152127
631.232	0.0150587
631.310	0.0151073
631.388	0.0152572
631.466	0.0150394
631.544	0.0151520
631.622	0.0151309
631.700	0.0151000
631.779	0.0150891
631.857	0.0152798
631.935	0.0151833
632.013	0.0151178
632.091	0.0151778
632.169	0.0152686
632.247	0.0151205
632.325	0.0151180
632.404	0.0151945
632.482	0.0153086
632.560	0.0150851
632.638	0.0152576
632.716	0.0151554
632.794	0.0150970
632.872	0.0152860
632.950	0.0152621
633.029	0.0151761
633.107	0.0152367
633.185	0.0151168
633.263	0.0151335
633.341	0.0152261
633.419	0.0151900
633.497	0.0152343
633.575	0.0152039
633.654	0.0151628
633.732	0.0151762
633.810	0.0150947
633.888	0.0151355
633.966	0.0151684
634.044	0.0151881
634.122	0.0150645
634.200	0.0151500
634.279	0.0152914
634.357	0.0151562
634.435	0.0151586
634.513	0.0150848
634.591	0.0152689
634.669	0.0153065
634.747	0.0152031
634.825	0.0150320
634.904	0.0151376
634.982	0.0151781
635.060	0.0151502
635.138	0.0150636
635.216	0.0152187
635.294	0.0150981
635.372	0.0151345
635.450	0.0152339
635.529	0.0152794
635.607	0.0152619
635.685	0.0152085
635.763	0.0150630
635.841	0.0151308
635.919	0.0151109
635.997	0.0151229
636.075	0.0151360
636.154	0.0151747
636.232	0.0151556
636.310	0.0151803
636.388	0.0151353
636.466	0.0152698
636.544	0.0152361
636.622	0.0150526
636.700	0.0150367
636.779	0.0151659
636.857	0.0153457
636.935	0.0151025
637.013	0.0151167
637.091	0.0151160
637.169	0.0152366
637.247	0.0151824
637.325	0.0151901
637.404	0.0151324
637.482	0.0151991
637.560	0.0151743
637.638	0.0149255
637.716	0.0151010
637.794	0.0151922
637.872	0.0151206
637.950	0.0151775
638.029	0.0150524
638.107	0.0150805
638.185	0.0151930
638.263	0.0151851
638.341	0.0151414
638.419	0.0151890
638.497	0.0150830
638.575	0.0151936
638.654	0.0151334
638.732	0.0150574
638.810	0.0151284
638.888	0.0151501
638.966	0.0151011
639.044	0.0150671
639.122	0.0151322
639.200	0.0151492
639.279	0.0151396
639.357	0.0151231
639.435	0.0151025
639.513	0.0152266
639.591	0.0150589
639.669	0.0150600
639.747	0.0152645
639.825	0.0152528
639.904	0.0151208
639.982	0.0151595
640.060	0.0152519
640.138	0.0150737
640.216	0.0152275
640.294	0.0151730
640.372	0.0150161
640.450	0.0151285
640.529	0.0151744
640.607	0.0150642
640.685	0.0152340
640.763	0.0150586
640.841	0.0149256
640.919	0.0150444
640.997	0.0152695
641.075	0.0150985
641.154	0.0152162
641.232	0.0150825
641.310	0.0151661
641.388	0.0152317
641.466	0.0151600
641.544	0.0151102
641.622	0.0151694
641.700	0.0152691
641.779	0.0152238
641.857	0.0152496
641.935	0.0151586
642.013	0.0151807
642.091	0.0151139
642.169	0.0151740
642.247	0.0153589
642.325	0.0151303
642.404	0.0151299
642.482	0.0151342
642.560	0.0150901
642.638	0.0151670
642.716	0.0151997
642.794	0.0151603
642.872	0.0152377
642.950	0.0151077
643.029	0.0152533
643.107	0.0151208
643.185	0.0151376
643.263	0.0150977
643.341	0.0151322
643.419	0.0151245
643.497	0.0151225
643.575	0.0151797
643.654	0.0151093
643.732	0.0152864
643.810	0.0151095
643.888	0.0150884
643.966	0.0151991
644.044	0.0152271
644.122	0.0151764
644.200	0.0153025
644.279	0.0152219
644.357	0.0151054
644.435	0.0151056
644.513	0.0151148
644.591	0.0151867
644.669	0.0151295
644.747	0.0151335
644.825	0.0151312
644.904	0.0151977
644.982	0.0151401
645.060	0.0151363
645.138	0.0152744
645.216	0.0151327
645.294	0.0152281
645.372	0.0151937
645.450	0.0151153
645.529	0.0151241
645.607	0.0151875
645.685	0.0153059
645.763	0.0151863
645.841	0.0151936
645.919	0.0152602
645.997	0.0151798
646.075	0.0151708
646.154	0.0151132
646.232	0.0150907
646.310	0.0151729
646.388	0.0151276
646.466	0.0151901
646.544	0.0152029
646.622	0.0152037
646.700	0.0151780
646.779	0.0152663
646.857	0.0151372
646.935	0.0151664
647.013	0.0152118
647.091	0.0152020
647.169	0.0151127
647.247	0.0150895
647.325	0.0150558
647.404	0.0152003
647.482	0.0152921
647.560	0.0151105
647.638	0.0152502
647.716	0.0151414
647.794	0.0150661
647.872	0.0152201
647.950	0.0152594
648.029	0.0151363
648.107	0.0151823
648.185	0.0151539
648.263	0.0152563
648.341	0.0152975
648.419	0.0152745
648.497	0.0151274
648.575	0.0151186
648.654	0.0152639
648.732	0.0152318
648.810	0.0150793
648.888	0.0152039
648.966	0.0153403
649.044	0.0153023
649.122	0.0151845
649.200	0.0153646
649.279	0.0151748
649.357	0.0152185
649.435	0.0151844
649.513	0.0151651
649.591	0.0152287
649.669	0.0151332
649.747	0.0151263
649.825	0.0152757
649.904	0.0153093
649.982	0.0151569
650.060	0.0151531
650.138	0.0151205
650.216	0.0152380
650.294	0.0152846
650.372	0.0153101
650.450	0.0150587
650.529	0.0152581
650.607	0.0151787
650.685	0.0151871
650.763	0.0152032
650.841	0.0153101
650.919	0.0151449
650.997	0.0153444
651.075	0.0152094
651.154	0.0151900
651.232	0.0152110
651.310	0.0152395
651.388	0.0150964
651.466	0.0153333
651.544	0.0151340
651.622	0.0152281
651.700	0.0152417
651.779	0.0153139
651.857	0.0151933
651.935	0.0151653
652.013	0.0151637
652.091	0.0152127
652.169	0.0151735
652.247	0.0152184
652.325	0.0151423
652.404	0.0153055
652.482	0.0151353
652.560	0.0153806
652.638	0.0152898
652.716	0.0152343
652.794	0.0151471
652.872	0.0151106
652.950	0.0152590
653.029	0.0152937
653.107	0.0152528
653.185	0.0151680
653.263	0.0151369
653.341	0.0152733
653.419	0.0152827
653.497	0.0151563
653.575	0.0151830
653.654	0.0153327
653.732	0.0150790
653.810	0.0150644
653.888	0.0152430
653.966	0.0153724
654.044	0.0152033
654.122	0.0150978
654.200	0.0151307
654.279	0.0151939
654.357	0.0152270
654.435	0.0150890
654.513	0.0152523
654.591	0.0152595
654.669	0.0152306
654.747	0.0152563
654.825	0.0151866
654.904	0.0151511
654.982	0.0150485
655.060	0.0151836
655.138	0.0152075
655.216	0.0152124
655.294	0.0151770
655.372	0.0152169
655.450	0.0151216
655.529	0.0150892
655.607	0.0151446
655.685	0.0150819
655.763	0.0152046
655.841	0.0151627
655.919	0.0152074
655.997	0.0150897
656.075	0.0152745
656.154	0.0152139
656.232	0.0150646
656.310	0.0152486
656.388	0.0152386
656.466	0.0150332
656.544	0.0151622
656.622	0.0151145
656.700	0.0151535
656.779	0.0152184
656.857	0.0151719
656.935	0.0151543
657.013	0.0150934
657.091	0.0152322
657.169	0.0153279
657.247	0.0152588
657.325	0.0151794
657.404	0.0151298
657.482	0.0151973
657.560	0.0151566
657.638	0.0151557
657.716	0.0151810
657.794	0.0151314
657.872	0.0152349
657.950	0.0150632
658.029	0.0151600
658.107	0.0151237
658.185	0.0151997
658.263	0.0152402
658.341	0.0151646
658.419	0.0152339
658.497	0.0152249
658.575	0.0153055
658.654	0.0150970
658.732	0.0151266
658.810	0.0153449
658.888	0.0151270
658.966	0.0149906
659.044	0.0152139
659.122	0.0153799
659.200	0.0151976
659.279	0.0151762
659.357	0.0152238
659.435	0.0151990
659.513	0.0150352
659.591	0.0150378
659.669	0.0151757
659.747	0.0152362
659.825	0.0152584
659.904	0.0151714
659.982	0.0151699
660.060	0.0151562
660.138	0.0151707
660.216	0.0151173
660.294	0.0153212
660.372	0.0153062
660.450	0.0152141
660.529	0.0151599
660.607	0.0151005
660.685	0.0151703
660.763	0.0152282
660.841	0.0150893
660.919	0.0152016
660.997	0.0151046
661.075	0.0151323
661.154	0.0151706
661.232	0.0151792
661.310	0.0152165
661.388	0.0151143
661.466	0.0152242
661.544	0.0151784
661.622	0.0151687
661.700	0.0152187
661.779	0.0151813
661.857	0.0152583
661.935	0.0152241
662.013	0.0150948
662.091	0.0151440
662.169	0.0152149
662.247	0.0151091
662.325	0.0151231
662.404	0.0151776
662.482	0.0150961
662.560	0.0152139
662.638	0.0151231
662.716	0.0151416
662.794	0.0152905
662.872	0.0150543
662.950	0.0150847
663.029	0.0152239
663.107	0.0152654
663.185	0.0152874
663.263	0.0152032
663.341	0.0151489
663.419	0.0150842
663.497	0.0150755
663.575	0.0152381
663.654	0.0152000
663.732	0.0151493
663.810	0.0151205
663.888	0.0151481
663.966	0.0152388
664.044	0.0150822
664.122	0.0152130
664.200	0.0151921
664.279	0.0151673
664.357	0.0151852
664.435	0.0150061
664.513	0.0151454
664.591	0.0152066
664.669	0.0152551
664.747	0.0152927
664.825	0.0151962
664.904	0.0152286
664.982	0.0152224
665.060	0.0152553
665.138	0.0151127
665.216	0.0151334
665.294	0.0150741
665.372	0.0152039
665.450	0.0151814
665.529	0.0151056
665.607	0.0151963
665.685	0.0152153
665.763	0.0151637
665.841	0.0152305
665.919	0.0152235
665.997	0.0151949
666.075	0.0151089
666.154	0.0152277
666.232	0.0151579
666.310	0.0151589
666.388	0.0151324
666.466	0.0151682
666.544	0.0151336
666.622	0.0150890
666.700	0.0149985
666.779	0.0151484
666.857	0.0152975
666.935	0.0152224
667.013	0.0152214
667.091	0.0150439
667.169	0.0152133
667.247	0.0151374
667.325	0.0152522
667.404	0.0151199
667.482	0.0151574
667.560	0.0150790
667.638	0.0152412
667.716	0.0152100
667.794	0.0151608
667.872	0.0151066
667.950	0.0152235
668.029	0.0152100
668.107	0.0150510
668.185	0.0152093
668.263	0.0151875
668.341	0.0152522
668.419	0.0151688
668.497	0.0152225
668.575	0.0152804
668.654	0.0152261
668.732	0.0152058
668.810	0.0151814
668.888	0.0151399
668.966	0.0152676
669.044	0.0152003
669.122	0.0150796
669.200	0.0151070
669.279	0.0151444
669.357	0.0151637
669.435	0.0150207
669.513	0.0152335
669.591	0.0151970
669.669	0.0152137
669.747	0.0151067
669.825	0.0150735
669.904	0.0150479
669.982	0.0152355
670.060	0.0152013
670.138	0.0151033
670.216	0.0151700
670.294	0.0152702
670.372	0.0150969
670.450	0.0150379
670.529	0.0151344
670.607	0.0152281
670.685	0.0151756
670.763	0.0152283
670.841	0.0151585
670.919	0.0151903
670.997	0.0151431
671.075	0.0151762
671.154	0.0150256
671.232	0.0150557
671.310	0.0152646
671.388	0.0151486
671.466	0.0152858
671.544	0.0152233
671.622	0.0151788
671.700	0.0151264
671.779	0.0152502
671.857	0.0152805
671.935	0.0151244
672.013	0.0152150
672.091	0.0152818
672.169	0.0152319
672.247	0.0151689
672.325	0.0152341
672.404	0.0153043
672.482	0.0151245
672.560	0.0150980
672.638	0.0152216
672.716	0.0152469
672.794	0.0151651
672.872	0.0151385
672.950	0.0151752
673.029	0.0151452
673.107	0.0151705
673.185	0.0152457
673.263	0.0151517
673.341	0.0151902
673.419	0.0153230
673.497	0.0151768
673.575	0.0151372
673.654	0.0153036
673.732	0.0152218
673.810	0.0151051
673.888	0.0151677
673.966	0.0152010
674.044	0.0153389
674.122	0.0152731
674.200	0.0153254
674.279	0.0152085
674.357	0.0152583
674.435	0.0152711
674.513	0.0153302
674.591	0.0152080
674.669	0.0154100
674.747	0.0154119
674.825	0.0152717
674.904	0.0153035
674.982	0.0154057
675.060	0.0151926
675.138	0.0152238
675.216	0.0152780
675.294	0.0152966
675.372	0.0153233
675.450	0.0153420
675.529	0.0152910
675.607	0.0152200
675.685	0.0154127
675.763	0.0153563
675.841	0.0152882
675.919	0.0152948
675.997	0.0152120
676.075	0.0153693
676.154	0.0153491
676.232	0.0152634
676.310	0.0151031
676.388	0.0152325
676.466	0.0153500
676.544	0.0153544
676.622	0.0153070
676.700	0.0153099
676.779	0.0152487
676.857	0.0153375
676.935	0.0153316
677.013	0.0152702
677.091	0.0152808
677.169	0.0153213
677.247	0.0152998
677.325	0.0152670
677.404	0.0152544
677.482	0.0152431
677.560	0.0151511
677.638	0.0151279
677.716	0.0154350
677.794	0.0153124
677.872	0.0152078
677.950	0.0153281
678.029	0.0153350
678.107	0.0152516
678.185	0.0153069
678.263	0.0151856
678.341	0.0152062
678.419	0.0152924
678.497	0.0152666
678.575	0.0150974
678.654	0.0152271
678.732	0.0150816
678.810	0.0151495
678.888	0.0150927
678.966	0.0152854
679.044	0.0152261
679.122	0.0151114
679.200	0.0151807
679.279	0.0152838
679.357	0.0152171
679.435	0.0149895
679.513	0.0149998
679.591	0.0151398
679.669	0.0150528
679.747	0.0151169
679.825	0.0150783
679.904	0.0150858
679.982	0.0151079
680.060	0.0150676
680.138	0.0149758
680.216	0.0150768
680.294	0.0151043
680.372	0.0150611
680.450	0.0150391
680.529	0.0150314
680.607	0.0152235
680.685	0.0150361
680.763	0.0152718
680.841	0.0152196
680.919	0.0151488
680.997	0.0151257
681.075	0.0148530
681.154	0.0150648
681.232	0.0150941
681.310	0.0150223
681.388	0.0151078
681.466	0.0149595
681.544	0.0151194
681.622	0.0150993
681.700	0.0149625
681.779	0.0150399
681.857	0.0150853
681.935	0.0150438
682.013	0.0151074
682.091	0.0150554
682.169	0.0149819
682.247	0.0151199
682.325	0.0151035
682.404	0.0151345
682.482	0.0152479
682.560	0.0150868
682.638	0.0150271
682.716	0.0150455
682.794	0.0151974
682.872	0.0150694
682.950	0.0152359
683.029	0.0152827
683.107	0.0150949
683.185	0.0149731
683.263	0.0152089
683.341	0.0150867
683.419	0.0151468
683.497	0.0152299
683.575	0.0149869
683.654	0.0151266
683.732	0.0150266
683.810	0.0151342
683.888	0.0151034
683.966	0.0150131
684.044	0.0150305
684.122	0.0152451
684.200	0.0150927
684.279	0.0149666
684.357	0.0151266
684.435	0.0151930
684.513	0.0151086
684.591	0.0150260
684.669	0.0150158
684.747	0.0151826
684.825	0.0150217
684.904	0.0151475
684.982	0.0151598
685.060	0.0151558
685.138	0.0151248
685.216	0.0151635
685.294	0.0151627
685.372	0.0151555
685.450	0.0152377
685.529	0.0153579
685.607	0.0152753
685.685	0.0153046
685.763	0.0150607
685.841	0.0152398
685.919	0.0152268
685.997	0.0150893
686.075	0.0152700
686.154	0.0151228
686.232	0.0151628
686.310	0.0151690
686.388	0.0152076
686.466	0.0152738
686.544	0.0151925
686.622	0.0153363
686.700	0.0151121
686.779	0.0151553
686.857	0.0152472
686.935	0.0151590
687.013	0.0152122
687.091	0.0152180
687.169	0.0152208
687.247	0.0152753
687.325	0.0152559
687.404	0.0151620
687.482	0.0151698
687.560	0.0152199
687.638	0.0151691
687.716	0.0152636
687.794	0.0151615
687.872	0.0152422
687.950	0.0152087
688.029	0.0152373
688.107	0.0152895
688.185	0.0152440
688.263	0.0153256
688.341	0.0153622
688.419	0.0154861
688.497	0.0154054
688.575	0.0152719
688.654	0.0152221
688.732	0.0152081
688.810	0.0153311
688.888	0.0150400
688.966	0.0148756
689.044	0.0149029
689.122	0.0147220
689.200	0.0143988
689.279	0.0144276
689.357	0.0144701
689.435	0.0145004
689.513	0.0147775
689.591	0.0149126
689.669	0.0152394
689.747	0.0156742
689.825	0.0161121
689.904	0.0165582
689.982	0.0168540
690.060	0.0170456
690.138	0.0173103
690.216	0.0173355
690.294	0.0172226
690.372	0.0168454
690.450	0.0164137
690.529	0.0158426
690.607	0.0150581
690.685	0.0140387
690.763	0.0132163
690.841	0.0122465
690.919	0.0113136
690.997	0.0108176
691.075	0.0103207
691.154	0.0101242
691.232	0.0103467
691.310	0.0108043
691.388	0.0116940
691.466	0.0127374
691.544	0.0140416
691.622	0.0158615
691.700	0.0175751
691.779	0.0192554
691.857	0.0209585
691.935	0.0221511
692.013	0.0233212
692.091	0.0237178
692.169	0.0239803
692.247	0.0235622
692.325	0.0226649
692.404	0.0215085
692.482	0.0198847
692.560	0.0182195
692.638	0.0162818
692.716	0.0142349
692.794	0.0121410
692.872	0.0102870
692.950	0.00858253
693.029	0.00715355
693.107	0.00612854
693.185	0.00515709
693.263	0.00472107
693.341	0.00450691
693.419	0.00463654
693.497	0.00541229
693.575	0.00616508
693.654	0.00736061
693.732	0.00886353
693.810	0.0107320
693.888	0.0126669
693.966	0.0150843
694.044	0.0174322
694.122	0.0197939
694.200	0.0221264
694.279	0.0243418
694.357	0.0262187
694.435	0.0277045
694.513	0.0288094
694.591	0.0293999
694.669	0.0294606
694.747	0.0289024
694.825	0.0278915
694.904	0.0261872
694.982	0.0241261
695.060	0.0219059
695.138	0.0194889
695.216	0.0169155
695.294	0.0143570
695.372	0.0117075
695.450	0.00937195
695.529	0.00718758
695.607	0.00541946
695.685	0.00397369
695.763	0.00282013
695.841	0.00217155
695.919	0.00188049
695.997	0.00210197
696.075	0.00259750
696.154	0.00331352
696.232	0.00450386
696.310	0.00599876
696.388	0.00767105
696.466	0.00913605
696.544	0.0109158
696.622	0.0127412
696.700	0.0144396
696.779	0.0163779
696.857	0.0179171
696.935	0.0195465
697.013	0.0208600
697.091	0.0223035
697.169	0.0233305
697.247	0.0241408
697.325	0.0249161
697.404	0.0253674
697.482	0.0255317
697.560	0.0254543
697.638	0.0250578
697.716	0.0246226
697.794	0.0237523
697.872	0.0224734
697.950	0.0213818
698.029	0.0202454
698.107	0.0188853
698.185	0.0175637
698.263	0.0163293
698.341	0.0150410
698.419	0.0139783
698.497	0.0129208
698.575	0.0117697
698.654	0.0110492
698.732	0.0103640
698.810	0.00974564
698.888	0.00930351
698.966	0.00912819
699.044	0.00883400
699.122	0.00882561
699.200	0.00885521
699.279	0.00867973
699.357	0.00888916
699.435	0.00896492
699.513	0.00924980
699.591	0.00966850
699.669	0.0101476
699.747	0.0108396
699.825	0.0113414
699.904	0.0121887
699.982	0.0130978
700.060	0.0142408
700.138	0.0151691
700.216	0.0160185
700.294	0.0170821
700.372	0.0179272
700.450	0.0185802
700.529	0.0190784
700.607	0.0194272
700.685	0.0195116
700.763	0.0195744
700.841	0.0194620
700.919	0.0191653
700.997	0.0188074
701.075	0.0186060
701.154	0.0183492
701.232	0.0177605
701.310	0.0173824
701.388	0.0172478
701.466	0.0169849
701.544	0.0166928
701.622	0.0164848
701.700	0.0162958
701.779	0.0161703
701.857	0.0159485
701.935	0.0157870
702.013	0.0156629
702.091	0.0155813
702.169	0.0155229
702.247	0.0155383
702.325	0.0155653
702.404	0.0156175
702.482	0.0157038
702.560	0.0157579
702.638	0.0158454
702.716	0.0159635
702.794	0.0160375
702.872	0.0158862
702.950	0.0156939
703.029	0.0156482
703.107	0.0153293
703.185	0.0149442
703.263	0.0143532
703.341	0.0140467
703.419	0.0135951
703.497	0.0131989
703.575	0.0127040
703.654	0.0123110
703.732	0.0119939
703.810	0.0114925
703.888	0.0112343
703.966	0.0113133
704.044	0.0111478
704.122	0.0112557
704.200	0.0114823
704.279	0.0115671
704.357	0.0118246
704.435	0.0121609
704.513	0.0128262
704.591	0.0133511
704.669	0.0138795
704.747	0.0146552
704.825	0.0152489
704.904	0.0159472
704.982	0.0167539
705.060	0.0175972
705.138	0.0181904
705.216	0.0187498
705.294	0.0191413
705.372	0.0193939
705.450	0.0196682
705.529	0.0197295
705.607	0.0195857
705.685	0.0193085
705.763	0.0190690
705.841	0.0185519
705.919	0.0178984
705.997	0.0172823
706.075	0.0166287
706.154	0.0160172
706.232	0.0152603
706.310	0.0145477
706.388	0.0139771
706.466	0.0135955
706.544	0.0133636
706.622	0.0130278
706.700	0.0131908
706.779	0.0131315
706.857	0.0131641
706.935	0.0134132
707.013	0.0136338
707.091	0.0140882
707.169	0.0144922
707.247	0.0147993
707.325	0.0151487
707.404	0.0153456
707.482	0.0157455
707.560	0.0158752
707.638	0.0162015
707.716	0.0162045
707.794	0.0161301
707.872	0.0161043
707.950	0.0159348
708.029	0.0159677
708.107	0.0155923
708.185	0.0154057
708.263	0.0150900
708.341	0.0149377
708.419	0.0145715
708.497	0.0142286
708.575	0.0141195
708.654	0.0137902
708.732	0.0136855
708.810	0.0134776
708.888	0.0133379
708.966	0.0132185
709.044	0.0132472
709.122	0.0135858
709.200	0.0135526
709.279	0.0137038
709.357	0.0137952
709.435	0.0143391
709.513	0.0146719
709.591	0.0149858
709.669	0.0153510
709.747	0.0157491
709.825	0.0161425
709.904	0.0163565
709.982	0.0165674
710.060	0.0166602
710.138	0.0167802
710.216	0.0170798
710.294	0.0170345
710.372	0.0167879
710.450	0.0168321
710.529	0.0166891
710.607	0.0163937
710.685	0.0162108
710.763	0.0159474
710.841	0.0157996
710.919	0.0154117
710.997	0.0151570
711.075	0.0147274
711.154	0.0145554
711.232	0.0144609
711.310	0.0142611
711.388	0.0143680
711.466	0.0142163
711.544	0.0140539
711.622	0.0141862
711.700	0.0143037
711.779	0.0146188
711.857	0.0146859
711.935	0.0146581
712.013	0.0151022
712.091	0.0152876
712.169	0.0154446
712.247	0.0157384
712.325	0.0159380
712.404	0.0161490
712.482	0.0161011
712.560	0.0161877
712.638	0.0161964
712.716	0.0159746
712.794	0.0160525
712.872	0.0160582
712.950	0.0159527
713.029	0.0159139
713.107	0.0156601
713.185	0.0156676
713.263	0.0155596
713.341	0.0154908
713.419	0.0154199
713.497	0.0153696
713.575	0.0150174
713.654	0.0149568
713.732	0.0148557
713.810	0.0147504
713.888	0.0146379
713.966	0.0145946
714.044	0.0143736
714.122	0.0142747
714.200	0.0141988
714.279	0.0141145
714.357	0.0141155
714.435	0.0140424
714.513	0.0140871
714.591	0.0142592
714.669	0.0144434
714.747	0.0145358
714.825	0.0146074
714.904	0.0147021
714.982	0.0149229
715.060	0.0151183
715.138	0.0151344
715.216	0.0152570
715.294	0.0153074
715.372	0.0155050
715.450	0.0156800
715.529	0.0156156
715.607	0.0158309
715.685	0.0157698
715.763	0.0158105
715.841	0.0158924
715.919	0.0159440
715.997	0.0159206
716.075	0.0159793
716.154	0.0159578
716.232	0.0160670
716.310	0.0159312
716.388	0.0159354
716.466	0.0159534
716.544	0.0156962
716.622	0.0156450
716.700	0.0154019
716.779	0.0152662
716.857	0.0150454
716.935	0.0150301
717.013	0.0148859
717.091	0.0144716
717.169	0.0145422
717.247	0.0145163
717.325	0.0143518
717.404	0.0142464
717.482	0.0143279
717.560	0.0141006
717.638	0.0141348
717.716	0.0143520
717.794	0.0143774
717.872	0.0144280
717.950	0.0146373
718.029	0.0146828
718.107	0.0146336
718.185	0.0147661
718.263	0.0149847
718.341	0.0150522
718.419	0.0151153
718.497	0.0152728
718.575	0.0155060
718.654	0.0155116
718.732	0.0154539
718.810	0.0155956
718.888	0.0156925
718.966	0.0156117
719.044	0.0156787
719.122	0.0157325
719.200	0.0156864
719.279	0.0158487
719.357	0.0158198
719.435	0.0159876
719.513	0.0161034
719.591	0.0159352
719.669	0.0160233
719.747	0.0159336
719.825	0.0159000
719.904	0.0157739
719.982	0.0157283
720.060	0.0155889
720.138	0.0155054
720.216	0.0152217
720.294	0.0151540
720.372	0.0149651
720.450	0.0148225
720.529	0.0146948
720.607	0.0144030
720.685	0.0143473
720.763	0.0141740
720.841	0.0142671
720.919	0.0143407
720.997	0.0144743
721.075	0.0143932
721.154	0.0146334
721.232	0.0147852
721.310	0.0149091
721.388	0.0150098
721.466	0.0150289
721.544	0.0152145
721.622	0.0152784
721.700	0.0154155
721.779	0.0155219
721.857	0.0155829
721.935	0.0155402
722.013	0.0155808
722.091	0.0155175
722.169	0.0155493
722.247	0.0155460
722.325	0.0154725
722.404	0.0154070
722.482	0.0152556
722.560	0.0151583
722.638	0.0150892
722.716	0.0148840
722.794	0.0147330
722.872	0.0144899
722.950	0.0143822
723.029	0.0143682
723.107	0.0142811
723.185	0.0141946
723.263	0.0140900
723.341	0.0140824
723.419	0.0140423
723.497	0.0141187
723.575	0.0142216
723.654	0.0142802
723.732	0.0142963
723.810	0.0144957
723.888	0.0146473
723.966	0.0148325
724.044	0.0149579
724.122	0.0148678
724.200	0.0150620
724.279	0.0152735
724.357	0.0153682
724.435	0.0153279
724.513	0.0156808
724.591	0.0159064
724.669	0.0160103
724.747	0.0162911
724.825	0.0164001
724.904	0.0166025
724.982	0.0167064
725.060	0.0166890
725.138	0.0167675
725.216	0.0168246
725.294	0.0167435
725.372	0.0165746
725.450	0.0164962
725.529	0.0164439
725.607	0.0160940
725.685	0.0158781
725.763	0.0160001
725.841	0.0156667
725.919	0.0155575
725.997	0.0155251
726.075	0.0153381
726.154	0.0152403
726.232	0.0151537
726.310	0.0152213
726.388	0.0151305
726.466	0.0150539
726.544	0.0149625
726.622	0.0149789
726.700	0.0148832
726.779	0.0147598
726.857	0.0148430
726.935	0.0149693
727.013	0.0150343
727.091	0.0149031
727.169	0.0149490
727.247	0.0149980
727.325	0.0149060
727.404	0.0149365
727.482	0.0151096
727.560	0.0149082
727.638	0.0148244
727.716	0.0146815
727.794	0.0146160
727.872	0.0145449
727.950	0.0145920
728.029	0.0146218
728.107	0.0144721
728.185	0.0142889
728.263	0.0144077
728.341	0.0144422
728.419	0.0145157
728.497	0.0145724
728.575	0.0145558
728.654	0.0146455
728.732	0.0145740
728.810	0.0147189
728.888	0.0147272
728.966	0.0147061
729.044	0.0146111
729.122	0.0147428
729.200	0.0145892
729.279	0.0144197
729.357	0.0145346
729.435	0.0146862
729.513	0.0145425
729.591	0.0144553
729.669	0.0145354
729.747	0.0148507
729.825	0.0147917
729.904	0.0148989
729.982	0.0151434
730.060	0.0151637
730.138	0.0153397
730.216	0.0154649
730.294	0.0156040
730.372	0.0158069
730.450	0.0159750
730.529	0.0161924
730.607	0.0162895
730.685	0.0164792
730.763	0.0166335
730.841	0.0166782
730.919	0.0166330
730.997	0.0168804
731.075	0.0166399
731.154	0.0164160
731.232	0.0163399
731.310	0.0163058
731.388	0.0159542
731.466	0.0157080
731.544	0.0156651
731.622	0.0153587
731.700	0.0152199
731.779	0.0150766
731.857	0.0151138
731.935	0.0148389
732.013	0.0147990
732.091	0.0149059
732.169	0.0149320
732.247	0.0149846
732.325	0.0151413
732.404	0.0151351
732.482	0.0151468
732.560	0.0154188
732.638	0.0153792
732.716	0.0153554
732.794	0.0153364
732.872	0.0155141
732.950	0.0154447
733.029	0.0154881
733.107	0.0152622
733.185	0.0151707
733.263	0.0149767
733.341	0.0148951
733.419	0.0148486
733.497	0.0146854
733.575	0.0144585
733.654	0.0145081
733.732	0.0143423
733.810	0.0142023
733.888	0.0141470
733.966	0.0140334
734.044	0.0141795
734.122	0.0141776
734.200	0.0140697
734.279	0.0143140
734.357	0.0142725
734.435	0.0143212
734.513	0.0145781
734.591	0.0148956
734.669	0.0149332
734.747	0.0149950
734.825	0.0150172
734.904	0.0151067
734.982	0.0151752
735.060	0.0152722
735.138	0.0152568
735.216	0.0153094
735.294	0.0153707
735.372	0.0152451
735.450	0.0153970
735.529	0.0154014
735.607	0.0153901
735.685	0.0154723
735.763	0.0155116
735.841	0.0155299
735.919	0.0155435
735.997	0.0154709
736.075	0.0155257
736.154	0.0156253
736.232	0.0155342
736.310	0.0155059
736.388	0.0154083
736.466	0.0154005
736.544	0.0152464
736.622	0.0152201
736.700	0.0153446
736.779	0.0152384
736.857	0.0152528
736.935	0.0152350
737.013	0.0152982
737.091	0.0152570
737.169	0.0150793
737.247	0.0151775
737.325	0.0153534
737.404	0.0152752
737.482	0.0151411
737.560	0.0151317
737.638	0.0151643
737.716	0.0152584
737.794	0.0151779
737.872	0.0152078
737.950	0.0152751
738.029	0.0154557
738.107	0.0155139
738.185	0.0156673
738.263	0.0155812
738.341	0.0157975
738.419	0.0157930
738.497	0.0158427
738.575	0.0158140
738.654	0.0157198
738.732	0.0157383
738.810	0.0157129
738.888	0.0156030
738.966	0.0153912
739.044	0.0153268
739.122	0.0152242
739.200	0.0150096
739.279	0.0147997
739.357	0.0148628
739.435	0.0145959
739.513	0.0145803
739.591	0.0144553
739.669	0.0145235
739.747	0.0145255
739.825	0.0144247
739.904	0.0146469
739.982	0.0146215
740.060	0.0146449
740.138	0.0147056
740.216	0.0148784
740.294	0.0150190
740.372	0.0149527
740.450	0.0150640
740.529	0.0150897
740.607	0.0153094
740.685	0.0154395
740.763	0.0154168
740.841	0.0154893
740.919	0.0155347
740.997	0.0155588
741.075	0.0155676
741.154	0.0154745
741.232	0.0154391
741.310	0.0152592
741.388	0.0153493
741.466	0.0153320
741.544	0.0151559
741.622	0.0149396
741.700	0.0149593
741.779	0.0148858
741.857	0.0146928
741.935	0.0147046
742.013	0.0146613
742.091	0.0146101
742.169	0.0147451
742.247	0.0145261
742.325	0.0147552
742.404	0.0146902
742.482	0.0147216
742.560	0.0149037
742.638	0.0148751
742.716	0.0149265
742.794	0.0149772
742.872	0.0150122
742.950	0.0152547
743.029	0.0152921
743.107	0.0153613
743.185	0.0153215
743.263	0.0153985
743.341	0.0154488
743.419	0.0154942
743.497	0.0154372
743.575	0.0154003
743.654	0.0154020
743.732	0.0153576
743.810	0.0154224
743.888	0.0151987
743.966	0.0151897
744.044	0.0152767
744.122	0.0152196
744.200	0.0149356
744.279	0.0150392
744.357	0.0150513
744.435	0.0149924
744.513	0.0150766
744.591	0.0151208
744.669	0.0150565
744.747	0.0151001
744.825	0.0151611
744.904	0.0152137
744.982	0.0151559
745.060	0.0151575
745.138	0.0151228
745.216	0.0151206
745.294	0.0150429
745.372	0.0150440
745.450	0.0149783
745.529	0.0150684
745.607	0.0149110
745.685	0.0150645
745.763	0.0152831
745.841	0.0153417
745.919	0.0155232
745.997	0.0155592
746.075	0.0154830
746.154	0.0157050
746.232	0.0157247
746.310	0.0158416
746.388	0.0160058
746.466	0.0159797
746.544	0.0158848
746.622	0.0159983
746.700	0.0160281
746.779	0.0157648
746.857	0.0155264
746.935	0.0155569
747.013	0.0153448
747.091	0.0150700
747.169	0.0148782
747.247	0.0148294
747.325	0.0147057
747.404	0.0144802
747.482	0.0145601
747.560	0.0144534
747.638	0.0145100
747.716	0.0142695
747.794	0.0143678
747.872	0.0146534
747.950	0.0144865
748.029	0.0147427
748.107	0.0145634
748.185	0.0146957
748.263	0.0147715
748.341	0.0147885
748.419	0.0148876
748.497	0.0148199
748.575	0.0151090
748.654	0.0150806
748.732	0.0151080
748.810	0.0151568
748.888	0.0151814
748.966	0.0152544
749.044	0.0152002
749.122	0.0151828
749.200	0.0153146
749.279	0.0151308
749.357	0.0149654
749.435	0.0149982
749.513	0.0149795
749.591	0.0149910
749.669	0.0150078
749.747	0.0148472
749.825	0.0149615
749.904	0.0149512
749.982	0.0149763
750.060	0.0150008
750.138	0.0149950
750.216	0.0150526
750.294	0.0151245
750.372	0.0150960
750.450	0.0153584
750.529	0.0154373
750.607	0.0153798
750.685	0.0155515
750.763	0.0154303
750.841	0.0155587
750.919	0.0154735
750.997	0.0154639
751.075	0.0155354
751.154	0.0156312
751.232	0.0155901
751.310	0.0153805
751.388	0.0155040
751.466	0.0154314
751.544	0.0153103
751.622	0.0153033
751.700	0.0153004
751.779	0.0153358
751.857	0.0153329
751.935	0.0151508
752.013	0.0151507
752.091	0.0151146
752.169	0.0150801
752.247	0.0150466
752.325	0.0151350
752.404	0.0151089
752.482	0.0151412
752.560	0.0150340
752.638	0.0150762
752.716	0.0151019
752.794	0.0151734
752.872	0.0150858
752.950	0.0149435
753.029	0.0149671
753.107	0.0149712
753.185	0.0148483
753.263	0.0149443
753.341	0.0148943
753.419	0.0149660
753.497	0.0151266
753.575	0.0151440
753.654	0.0152320
753.732	0.0152003
753.810	0.0154027
753.888	0.0156293
753.966	0.0156557
754.044	0.0156834
754.122	0.0158070
754.200	0.0158341
754.279	0.0158601
754.357	0.0157930
754.435	0.0158163
754.513	0.0157642
754.591	0.0157568
754.669	0.0156014
754.747	0.0155679
754.825	0.0154110
754.904	0.0151588
754.982	0.0150447
755.060	0.0149345
755.138	0.0148625
755.216	0.0145765
755.294	0.0146019
755.372	0.0144801
755.450	0.0144708
755.529	0.0144601
755.607	0.0145124
755.685	0.0141882
755.763	0.0143192
755.841	0.0143748
755.919	0.0144334
755.997	0.0145838
756.075	0.0146023
756.154	0.0145939
756.232	0.0145627
756.310	0.0146801
756.388	0.0148113
756.466	0.0148866
756.544	0.0149522
756.622	0.0150709
756.700	0.0150524
756.779	0.0151479
756.857	0.0152529
756.935	0.0152768
757.013	0.0153714
757.091	0.0153288
757.169	0.0152573
757.247	0.0153529
757.325	0.0153963
757.404	0.0156150
757.482	0.0154762
757.560	0.0155396
757.638	0.0153668
757.716	0.0154185
757.794	0.0153957
757.872	0.0152818
757.950	0.0151543
758.029	0.0151666
758.107	0.0150504
758.185	0.0150121
758.263	0.0149496
758.341	0.0148741
758.419	0.0148701
758.497	0.0146973
758.575	0.0148811
758.654	0.0148592
758.732	0.0147339
758.810	0.0146822
758.888	0.0147837
758.966	0.0151385
759.044	0.0152254
759.122	0.0151840
759.200	0.0152070
759.279	0.0153486
759.357	0.0152907
759.435	0.0154144
759.513	0.0156635
759.591	0.0156582
759.669	0.0156203
759.747	0.0156432
759.825	0.0157410
759.904	0.0157639
759.982	0.0157844
760.060	0.0158275
760.138	0.0158826
760.216	0.0157926
760.294	0.0157375
760.372	0.0156886
760.450	0.0154893
760.529	0.0156200
760.607	0.0156509
760.685	0.0155281
760.763	0.0154298
760.841	0.0154885
760.919	0.0153500
760.997	0.0150178
761.075	0.0151244
761.154	0.0150897
761.232	0.0149572
761.310	0.0148734
761.388	0.0149156
761.466	0.0149769
761.544	0.0148922
761.622	0.0147965
761.700	0.0148189
761.779	0.0148686
761.857	0.0147771
761.935	0.0149476
762.013	0.0150728
762.091	0.0149733
762.169	0.0151147
762.247	0.0151983
762.325	0.0152510
762.404	0.0151184
762.482	0.0150460
762.560	0.0152937
762.638	0.0151950
762.716	0.0151904
762.794	0.0149593
762.872	0.0150208
762.950	0.0149994
763.029	0.0149734
763.107	0.0148887
763.185	0.0148339
763.263	0.0148414
763.341	0.0148203
763.419	0.0147435
763.497	0.0147732
763.575	0.0150249
763.654	0.0148302
763.732	0.0149637
763.810	0.0150747
763.888	0.0149615
763.966	0.0150171
764.044	0.0151196
764.122	0.0151559
764.200	0.0152583
764.279	0.0151479
764.357	0.0152101
764.435	0.0153004
764.513	0.0152448
764.591	0.0152954
764.669	0.0153136
764.747	0.0152956
764.825	0.0152007
764.904	0.0153133
764.982	0.0153555
765.060	0.0154871
765.138	0.0153090
765.216	0.0154206
765.294	0.0152763
765.372	0.0154272
765.450	0.0152348
765.529	0.0152612
765.607	0.0153915
765.685	0.0153037
765.763	0.0151595
765.841	0.0150587
765.919	0.0149728
765.997	0.0150387
766.075	0.0150687
766.154	0.0148875
766.232	0.0148664
766.310	0.0149509
766.388	0.0148360
766.466	0.0148481
766.544	0.0148827
766.622	0.0148700
766.700	0.0149555
766.779	0.0149810
766.857	0.0151242
766.935	0.0151292
767.013	0.0151688
767.091	0.0152971
767.169	0.0151298
767.247	0.0152818
767.325	0.0154128
767.404	0.0153315
767.482	0.0154705
767.560	0.0153685
767.638	0.0154116
767.716	0.0154173
767.794	0.0153512
767.872	0.0153711
767.950	0.0152817
768.029	0.0152688
768.107	0.0153722
768.185	0.0151691
768.263	0.0152795
768.341	0.0152134
768.419	0.0152582
768.497	0.0151276
768.575	0.0150896
768.654	0.0150288
768.732	0.0150996
768.810	0.0151231
768.888	0.0150633
768.966	0.0151582
769.044	0.0150699
769.122	0.0151514
769.200	0.0151001
769.279	0.0152057
769.357	0.0149902
769.435	0.0151512
769.513	0.0153269
769.591	0.0152924
769.669	0.0153264
769.747	0.0153409
769.825	0.0153113
769.904	0.0153529
769.982	0.0154282
770.060	0.0154340
770.138	0.0154388
770.216	0.0153145
770.294	0.0154070
770.372	0.0154924
770.450	0.0155792
770.529	0.0154853
770.607	0.0152841
770.685	0.0154448
770.763	0.0155380
770.841	0.0154089
770.919	0.0153886
770.997	0.0153883
771.075	0.0152105
771.154	0.0153696
771.232	0.0152275
771.310	0.0151479
771.388	0.0151340
771.466	0.0148447
771.544	0.0146925
771.622	0.0148598
771.700	0.0147849
771.779	0.0147782
771.857	0.0146882
771.935	0.0146730
772.013	0.0147128
772.091	0.0148052
772.169	0.0146603
772.247	0.0147688
772.325	0.0148933
772.404	0.0148351
772.482	0.0149005
772.560	0.0149039
772.638	0.0149105
772.716	0.0149628
772.794	0.0150089
772.872	0.0150453
772.950	0.0151054
773.029	0.0151945
773.107	0.0151575
773.185	0.0151318
773.263	0.0152876
773.341	0.0154030
773.419	0.0153548
773.497	0.0154781
773.575	0.0156070
773.654	0.0156324
773.732	0.0157082
773.810	0.0156567
773.888	0.0157905
773.966	0.0157044
774.044	0.0157163
774.122	0.0156003
774.200	0.0156329
774.279	0.0156220
774.357	0.0155181
774.435	0.0153855
774.513	0.0153175
774.591	0.0153568
774.669	0.0151762
774.747	0.0151844
774.825	0.0151876
774.904	0.0152184
774.982	0.0152374
775.060	0.0151569
775.138	0.0150081
775.216	0.0149175
775.294	0.0150416
775.372	0.0150552
775.450	0.0151952
775.529	0.0150758
775.607	0.0151266
775.685	0.0151790
775.763	0.0151978
775.841	0.0153739
775.919	0.0152277
775.997	0.0153938
776.075	0.0154179
776.154	0.0154945
776.232	0.0155454
776.310	0.0154803
776.388	0.0154768
776.466	0.0156158
776.544	0.0155361
776.622	0.0156264
776.700	0.0154451
776.779	0.0153333
776.857	0.0153890
776.935	0.0153098
777.013	0.0151701
777.091	0.0151070
777.169	0.0152686
777.247	0.0151820
777.325	0.0149770
777.404	0.0148957
777.482	0.0149593
777.560	0.0149487
777.638	0.0149970
777.716	0.0150075
777.794	0.0149969
777.872	0.0148978
777.950	0.0149627
778.029	0.0149682
778.107	0.0148759
778.185	0.0148666
778.263	0.0148835
778.341	0.0147260
778.419	0.0146921
778.497	0.0147748
778.575	0.0147620
778.654	0.0148238
778.732	0.0148833
778.810	0.0148316
778.888	0.0148717
778.966	0.0149014
779.044	0.0149714
779.122	0.0151750
779.200	0.0152074
779.279	0.0153970
779.357	0.0152019
779.435	0.0152293
779.513	0.0152866
779.591	0.0153006
779.669	0.0153946
779.747	0.0152386
779.825	0.0151557
779.904	0.0151510
779.982	0.0153386
780.060	0.0150732
780.138	0.0150380
780.216	0.0150797
780.294	0.0149411
780.372	0.0150188
780.450	0.0149597
780.529	0.0149931
780.607	0.0150127
780.685	0.0150191
780.763	0.0149950
780.841	0.0150513
780.919	0.0150747
780.997	0.0152800
781.075	0.0153037
781.154	0.0153374
781.232	0.0152873
781.310	0.0150414
781.388	0.0153555
781.466	0.0154026
781.544	0.0152906
781.622	0.0154359
781.700	0.0154642
781.779	0.0154652
781.857	0.0153761
781.935	0.0153044
782.013	0.0154079
782.091	0.0154072
782.169	0.0153383
782.247	0.0154016
782.325	0.0153866
782.404	0.0153909
782.482	0.0154151
782.560	0.0153539
782.638	0.0153507
782.716	0.0152306
782.794	0.0151772
782.872	0.0152951
782.950	0.0152211
783.029	0.0150759
783.107	0.0152373
783.185	0.0151917
783.263	0.0151381
783.341	0.0150047
783.419	0.0150749
783.497	0.0150906
783.575	0.0148331
783.654	0.0150188
783.732	0.0150542
783.810	0.0150068
783.888	0.0149728
783.966	0.0149423
784.044	0.0149381
784.122	0.0150459
784.200	0.0148900
784.279	0.0149790
784.357	0.0151774
784.435	0.0151303
784.513	0.0151309
784.591	0.0152854
784.669	0.0151205
784.747	0.0151453
784.825	0.0151014
784.904	0.0152531
784.982	0.0153838
785.060	0.0152850
785.138	0.0151901
785.216	0.0151450
785.294	0.0151978
785.372	0.0153085
785.450	0.0152797
785.529	0.0152664
785.607	0.0153461
785.685	0.0152125
785.763	0.0152193
785.841	0.0153310
785.919	0.0154773
785.997	0.0153445
786.075	0.0152585
786.154	0.0153645
786.232	0.0153349
786.310	0.0153628
786.388	0.0153141
786.466	0.0152748
786.544	0.0154199
786.622	0.0153230
786.700	0.0152437
786.779	0.0151572
786.857	0.0152048
786.935	0.0150247
787.013	0.0149582
787.091	0.0147366
787.169	0.0150175
787.247	0.0149124
787.325	0.0147578
787.404	0.0146776
787.482	0.0145771
787.560	0.0147447
787.638	0.0147546
787.716	0.0148439
787.794	0.0149705
787.872	0.0149001
787.950	0.0151658
788.029	0.0152866
788.107	0.0152312
788.185	0.0154940
788.263	0.0155475
788.341	0.0156451
788.419	0.0157005
788.497	0.0156860
788.575	0.0156801
788.654	0.0156740
788.732	0.0155083
788.810	0.0154160
788.888	0.0152170
788.966	0.0151393
789.044	0.0149183
789.122	0.0147630
789.200	0.0146604
789.279	0.0144785
789.357	0.0145694
789.435	0.0144469
789.513	0.0142108
789.591	0.0141878
789.669	0.0141271
789.747	0.0140350
789.825	0.0140062
789.904	0.0142024
789.982	0.0141007
790.060	0.0141463
790.138	0.0143067
790.216	0.0144420
790.294	0.0146825
790.372	0.0149277
790.450	0.0151099
790.529	0.0155196
790.607	0.0158215
790.685	0.0161084
790.763	0.0163802
790.841	0.0166280
790.919	0.0167223
790.997	0.0167526
791.075	0.0170068
791.154	0.0169827
791.232	0.0169187
791.310	0.0166180
791.388	0.0166569
791.466	0.0165531
791.544	0.0164143
791.622	0.0161877
791.700	0.0157825
791.779	0.0155586
791.857	0.0152845
791.935	0.0150774
792.013	0.0149646
792.091	0.0145570
792.169	0.0144474
792.247	0.0142513
792.325	0.0140335
792.404	0.0140720
792.482	0.0138265
792.560	0.0138360
792.638	0.0137067
792.716	0.0137709
792.794	0.0139579
792.872	0.0138813
792.950	0.0140415
793.029	0.0143301
793.107	0.0143928
793.185	0.0146223
793.263	0.0147744
793.341	0.0150115
793.419	0.0151950
793.497	0.0154182
793.575	0.0154724
793.654	0.0156402
793.732	0.0157873
793.810	0.0158628
793.888	0.0158834
793.966	0.0159380
794.044	0.0159118
794.122	0.0160703
794.200	0.0158492
794.279	0.0157690
794.357	0.0156963
794.435	0.0155461
794.513	0.0155556
794.591	0.0155586
794.669	0.0153874
794.747	0.0153568
794.825	0.0152272
794.904	0.0152621
794.982	0.0152554
795.060	0.0152487
795.138	0.0151705
795.216	0.0150931
795.294	0.0151254
795.372	0.0149607
795.450	0.0149106
795.529	0.0148207
795.607	0.0146982
795.685	0.0145847
795.763	0.0145199
795.841	0.0144147
795.919	0.0143441
795.997	0.0142326
796.075	0.0141568
796.154	0.0142321
796.232	0.0142247
796.310	0.0144039
796.388	0.0143856
796.466	0.0144148
796.544	0.0146252
796.622	0.0147322
796.700	0.0148363
796.779	0.0149646
796.857	0.0150626
796.935	0.0152523
797.013	0.0152538
797.091	0.0153972
797.169	0.0156116
797.247	0.0155914
797.325	0.0158630
797.404	0.0158838
797.482	0.0158385
797.560	0.0160133
797.638	0.0158748
797.716	0.0159881
797.794	0.0159991
797.872	0.0161905
797.950	0.0161030
798.029	0.0159589
798.107	0.0160944
798.185	0.0160147
798.263	0.0158311
798.341	0.0158913
798.419	0.0158137
798.497	0.0156157
798.575	0.0156719
798.654	0.0154821
798.732	0.0153817
798.810	0.0152991
798.888	0.0152486
798.966	0.0150074
799.044	0.0150168
799.122	0.0150960
799.200	0.0148747
799.279	0.0147714
799.357	0.0146591
799.435	0.0146228
799.513	0.0146275
799.591	0.0147041
799.669	0.0144746
799.747	0.0144740
799.825	0.0146162
799.904	0.0146055
799.982	0.0144855
800.060	0.0147633
800.138	0.0147565
800.216	0.0146304
800.294	0.0148916
800.372	0.0149184
800.450	0.0148015
800.529	0.0147341
800.607	0.0148697
800.685	0.0150112
800.763	0.0149950
800.841	0.0149500
800.919	0.0149993
800.997	0.0151456
801.075	0.0151133
801.154	0.0151941
801.232	0.0151325
801.310	0.0152847
801.388	0.0154854
801.466	0.0152991
801.544	0.0153396
801.622	0.0154648
801.700	0.0155051
801.779	0.0154736
801.857	0.0155772
801.935	0.0154262
802.013	0.0155234
802.091	0.0155215
802.169	0.0153044
802.247	0.0152469
802.325	0.0154108
802.404	0.0152493
802.482	0.0152028
802.560	0.0151794
802.638	0.0151125
802.716	0.0151382
802.794	0.0152048
802.872	0.0151068
802.950	0.0150983
803.029	0.0150721
803.107	0.0150741
803.185	0.0150375
803.263	0.0150936
803.341	0.0151723
803.419	0.0151173
803.497	0.0151728
803.575	0.0152042
803.654	0.0153776
803.732	0.0153564
803.810	0.0153642
803.888	0.0152905
803.966	0.0154029
804.044	0.0154080
804.122	0.0154632
804.200	0.0155209
804.279	0.0153078
804.357	0.0154419
804.435	0.0155555
804.513	0.0153928
804.591	0.0152052
804.669	0.0151357
804.747	0.0151315
804.825	0.0150394
804.904	0.0149639
804.982	0.0149886
805.060	0.0148853
805.138	0.0147822
805.216	0.0149029
805.294	0.0146669
805.372	0.0146191
805.450	0.0146834
805.529	0.0148153
805.607	0.0147095
805.685	0.0147285
805.763	0.0148653
805.841	0.0148428
805.919	0.0148914
805.997	0.0149364
806.075	0.0147946
806.154	0.0149387
806.232	0.0151266
806.310	0.0150972
806.388	0.0151700
806.466	0.0153216
806.544	0.0153148
806.622	0.0154032
806.700	0.0154512
806.779	0.0154908
806.857	0.0157098
806.935	0.0155546
807.013	0.0156216
807.091	0.0155984
807.169	0.0156850
807.247	0.0156400
807.325	0.0155913
807.404	0.0154276
807.482	0.0153786
807.560	0.0153872
807.638	0.0154133
807.716	0.0151585
807.794	0.0151662
807.872	0.0150766
807.950	0.0149645
808.029	0.0149746
808.107	0.0148667
808.185	0.0149674
808.263	0.0150737
808.341	0.0149518
808.419	0.0148003
808.497	0.0151345
808.575	0.0152043
808.654	0.0151450
808.732	0.0153135
808.810	0.0153402
808.888	0.0154264
808.966	0.0153014
809.044	0.0153808
809.122	0.0153686
809.200	0.0154124
809.279	0.0153502
809.357	0.0154439
809.435	0.0154303
809.513	0.0152830
809.591	0.0152097
809.669	0.0150797
809.747	0.0151181
809.825	0.0149842
809.904	0.0150430
809.982	0.0149250
810.060	0.0147817
810.138	0.0147526
810.216	0.0148631
810.294	0.0146923
810.372	0.0146394
810.450	0.0147324
810.529	0.0147441
810.607	0.0147421
810.685	0.0147732
810.763	0.0148116
810.841	0.0148576
810.919	0.0147726
810.997	0.0148171
811.075	0.0149415
811.154	0.0150584
811.232	0.0151058
811.310	0.0151557
811.388	0.0150834
811.466	0.0152586
811.544	0.0150761
811.622	0.0152353
811.700	0.0153371
811.779	0.0153947
811.857	0.0155088
811.935	0.0154391
812.013	0.0153355
812.091	0.0153722
812.169	0.0153187
812.247	0.0154368
812.325	0.0153973
812.404	0.0153971
812.482	0.0154253
812.560	0.0155062
812.638	0.0153470
812.716	0.0153042
812.794	0.0152764
812.872	0.0152112
812.950	0.0153085
813.029	0.0152584
813.107	0.0151935
813.185	0.0151579
813.263	0.0152750
813.341	0.0151927
813.419	0.0149255
813.497	0.0150550
813.575	0.0149836
813.654	0.0149242
813.732	0.0148103
813.810	0.0149548
813.888	0.0148522
813.966	0.0148945
814.044	0.0149471
814.122	0.0148650
814.200	0.0148432
814.279	0.0148756
814.357	0.0150047
814.435	0.0151208
814.513	0.0150586
814.591	0.0152712
814.669	0.0152628
814.747	0.0153039
814.825	0.0153210
814.904	0.0152552
814.982	0.0153762
815.060	0.0152734
815.138	0.0153417
815.216	0.0153034
815.294	0.0154816
815.372	0.0152216
815.450	0.0152631
815.529	0.0152482
815.607	0.0152103
815.685	0.0153133
815.763	0.0153266
815.841	0.0152026
815.919	0.0152768
815.997	0.0149886
816.075	0.0151460
816.154	0.0151335
816.232	0.0150220
816.310	0.0150971
816.388	0.0149155
816.466	0.0149265
816.544	0.0149882
816.622	0.0149567
816.700	0.0148008
816.779	0.0146962
816.857	0.0147491
816.935	0.0147976
817.013	0.0148404
817.091	0.0147697
817.169	0.0147438
817.247	0.0147397
817.325	0.0148094
817.404	0.0148634
817.482	0.0148390
817.560	0.0150296
817.638	0.0151223
817.716	0.0152612
817.794	0.0152064
817.872	0.0152731
817.950	0.0153823
818.029	0.0153534
818.107	0.0153766
818.185	0.0154090
818.263	0.0153667
818.341	0.0154038
818.419	0.0154031
818.497	0.0154852
818.575	0.0155786
818.654	0.0154325
818.732	0.0153163
818.810	0.0153902
818.888	0.0153122
818.966	0.0153585
819.044	0.0152959
819.122	0.0151556
819.200	0.0153297
819.279	0.0150938
819.357	0.0149692
819.435	0.0148518
819.513	0.0149916
819.591	0.0148924
819.669	0.0148384
819.747	0.0148737
819.825	0.0147665
819.904	0.0147121
819.982	0.0148153
820.060	0.0147605
820.138	0.0147355
820.216	0.0147456
820.294	0.0146801
820.372	0.0147446
820.450	0.0148484
820.529	0.0149238
820.607	0.0149583
820.685	0.0149973
820.763	0.0150446
820.841	0.0151128
820.919	0.0149918
820.997	0.0153486
821.075	0.0153274
821.154	0.0152507
821.232	0.0152720
821.310	0.0152941
821.388	0.0152795
821.466	0.0152808
821.544	0.0152536
821.622	0.0153330
821.700	0.0153272
821.779	0.0153266
821.857	0.0153204
821.935	0.0151588
822.013	0.0152817
822.091	0.0152859
822.169	0.0152718
822.247	0.0151614
822.325	0.0151699
822.404	0.0151155
822.482	0.0151445
822.560	0.0151146
822.638	0.0151804
822.716	0.0152390
822.794	0.0151475
822.872	0.0150134
822.950	0.0150295
823.029	0.0152733
823.107	0.0152397
823.185	0.0152845
823.263	0.0153950
823.341	0.0153231
823.419	0.0152934
823.497	0.0152494
823.575	0.0153400
823.654	0.0153650
823.732	0.0152914
823.810	0.0153447
823.888	0.0153454
823.966	0.0154678
824.044	0.0152522
824.122	0.0152355
824.200	0.0152639
824.279	0.0152801
824.357	0.0152750
824.435	0.0154783
824.513	0.0152767
824.591	0.0152289
824.669	0.0150454
824.747	0.0151701
824.825	0.0151540
824.904	0.0151118
824.982	0.0150204
825.060	0.0150072
825.138	0.0151362
825.216	0.0149108
825.294	0.0149017
825.372	0.0149866
825.450	0.0148119
825.529	0.0148530
825.607	0.0148552
825.685	0.0147284
825.763	0.0147841
825.841	0.0148502
825.919	0.0148805
825.997	0.0148024
826.075	0.0147680
826.154	0.0148215
826.232	0.0149999
826.310	0.0149496
826.388	0.0150702
826.466	0.0150727
826.544	0.0151569
826.622	0.0152451
826.700	0.0152415
826.779	0.0151391
826.857	0.0153304
826.935	0.0152828
827.013	0.0154021
827.091	0.0152824
827.169	0.0153259
827.247	0.0154342
827.325	0.0153947
827.404	0.0153481
827.482	0.0154446
827.560	0.0153699
827.638	0.0154304
827.716	0.0153729
827.794	0.0153590
827.872	0.0152979
827.950	0.0151936
828.029	0.0152283
828.107	0.0151624
828.185	0.0151015
828.263	0.0152642
828.341	0.0151430
828.419	0.0151147
828.497	0.0150751
828.575	0.0150834
828.654	0.0149632
828.732	0.0151701
828.810	0.0150084
828.888	0.0148804
828.966	0.0149380
829.044	0.0152576
829.122	0.0149722
829.200	0.0149062
829.279	0.0149713
829.357	0.0149897
829.435	0.0150216
829.513	0.0150745
829.591	0.0149688
829.669	0.0149924
829.747	0.0149641
829.825	0.0149467
829.904	0.0149557
829.982	0.0149638
830.060	0.0149600
830.138	0.0149700
830.216	0.0149588
830.294	0.0149687
830.372	0.0149799
830.450	0.0149272
830.529	0.0150676
830.607	0.0150872
830.685	0.0151060
830.763	0.0151075
830.841	0.0151619
830.919	0.0152038
830.997	0.0153246
831.075	0.0154156
831.154	0.0155896
831.232	0.0155772
831.310	0.0154697
831.388	0.0156359
831.466	0.0156029
831.544	0.0155829
831.622	0.0155981
831.700	0.0156832
831.779	0.0156048
831.857	0.0155994
831.935	0.0155648
832.013	0.0155465
832.091	0.0154484
832.169	0.0155768
832.247	0.0156164
832.325	0.0154231
832.404	0.0154806
832.482	0.0152502
832.560	0.0151337
832.638	0.0152940
832.716	0.0150012
832.794	0.0149503
832.872	0.0148567
832.950	0.0149534
833.029	0.0150394
833.107	0.0149295
833.185	0.0146763
833.263	0.0147550
833.341	0.0147355
833.419	0.0147736
833.497	0.0148516
833.575	0.0147539
833.654	0.0148528
833.732	0.0146593
833.810	0.0146779
833.888	0.0146582
833.966	0.0147197
834.044	0.0147118
834.122	0.0147285
834.200	0.0148235
834.279	0.0147732
834.357	0.0147469
834.435	0.0149209
834.513	0.0150066
834.591	0.0149675
834.669	0.0150083
834.747	0.0150768
834.825	0.0150352
834.904	0.0152234
834.982	0.0152775
835.060	0.0155234
835.138	0.0152858
835.216	0.0153491
835.294	0.0154315
835.372	0.0155149
835.450	0.0155695
835.529	0.0155652
835.607	0.0155374
835.685	0.0155916
835.763	0.0156435
835.841	0.0156332
835.919	0.0154582
835.997	0.0155737
836.075	0.0155725
836.154	0.0154757
836.232	0.0154575
836.310	0.0154320
836.388	0.0153600
836.466	0.0153806
836.544	0.0154015
836.622	0.0152246
836.700	0.0151762
836.779	0.0153237
836.857	0.0151997
836.935	0.0151624
837.013	0.0151965
837.091	0.0152054
837.169	0.0150575
837.247	0.0151060
837.325	0.0151408
837.404	0.0151461
837.482	0.0150179
837.560	0.0151195
837.638	0.0150956
837.716	0.0150758
837.794	0.0149975
837.872	0.0150890
837.950	0.0150933
838.029	0.0151757
838.107	0.0151206
838.185	0.0151106
838.263	0.0153258
838.341	0.0152589
838.419	0.0152158
838.497	0.0152613
838.575	0.0151506
838.654	0.0152723
838.732	0.0151315
838.810	0.0150522
838.888	0.0151309
838.966	0.0152383
839.044	0.0152182
839.122	0.0151569
839.200	0.0150762
839.279	0.0151388
839.357	0.0150800
839.435	0.0151521
839.513	0.0150778
839.591	0.0151757
839.669	0.0150663
839.747	0.0152611
839.825	0.0152567
839.904	0.0150984
839.982	0.0151868
840.060	0.0152506
840.138	0.0152529
840.216	0.0151732
840.294	0.0152686
840.372	0.0151797
840.450	0.0152321
840.529	0.0153130
840.607	0.0153229
840.685	0.0150901
840.763	0.0152577
840.841	0.0152396
840.919	0.0152310
840.997	0.0152312
841.075	0.0153726
841.154	0.0152662
841.232	0.0152499
841.310	0.0151292
841.388	0.0152077
841.466	0.0152365
841.544	0.0152277
841.622	0.0151952
841.700	0.0151608
841.779	0.0150700
841.857	0.0148000
841.935	0.0148997
842.013	0.0149418
842.091	0.0148088
842.169	0.0149494
842.247	0.0147768
842.325	0.0148353
842.404	0.0148907
842.482	0.0149158
842.560	0.0147882
842.638	0.0148374
842.716	0.0149271
842.794	0.0149506
842.872	0.0148636
842.950	0.0151464
843.029	0.0149938
843.107	0.0150564
843.185	0.0151544
843.263	0.0150469
843.341	0.0152100
843.419	0.0152613
843.497	0.0150928
843.575	0.0151889
843.654	0.0153135
843.732	0.0152888
843.810	0.0151002
843.888	0.0154787
843.966	0.0154248
844.044	0.0154451
844.122	0.0155332
844.200	0.0154089
844.279	0.0153066
844.357	0.0154757
844.435	0.0156701
844.513	0.0156235
844.591	0.0155508
844.669	0.0156331
844.747	0.0155779
844.825	0.0157480
844.904	0.0156985
844.982	0.0156224
845.060	0.0154702
845.138	0.0156224
845.216	0.0156741
845.294	0.0154543
845.372	0.0155767
845.450	0.0154575
845.529	0.0153772
845.607	0.0152982
845.685	0.0153300
845.763	0.0153072
845.841	0.0152512
845.919	0.0151983
845.997	0.0151384
846.075	0.0151154
846.154	0.0148677
846.232	0.0149890
846.310	0.0149999
846.388	0.0149458
846.466	0.0148849
846.544	0.0148146
846.622	0.0148222
846.700	0.0148801
846.779	0.0147979
846.857	0.0148174
846.935	0.0149315
847.013	0.0148187
847.091	0.0147426
847.169	0.0147182
847.247	0.0148402
847.325	0.0148126
847.404	0.0147726
847.482	0.0148383
847.560	0.0149702
847.638	0.0148554
847.716	0.0149340
847.794	0.0149040
847.872	0.0149137
847.950	0.0148816
848.029	0.0149502
848.107	0.0149182
848.185	0.0149088
848.263	0.0149376
848.341	0.0150466
848.419	0.0150892
848.497	0.0149951
848.575	0.0150115
848.654	0.0150994
848.732	0.0150808
848.810	0.0151420
848.888	0.0151614
848.966	0.0151830
849.044	0.0152863
849.122	0.0152433
849.200	0.0152309
849.279	0.0152737
849.357	0.0153002
849.435	0.0152185
849.513	0.0151475
849.591	0.0153577
849.669	0.0153271
849.747	0.0152989
849.825	0.0152082
849.904	0.0153121
849.982	0.0154269
850.060	0.0153085
850.138	0.0154023
850.216	0.0153539
850.294	0.0152261
850.372	0.0154401
850.450	0.0153839
850.529	0.0154137
850.607	0.0153053
850.685	0.0152882
850.763	0.0153524
850.841	0.0152270
850.919	0.0153633
850.997	0.0153952
851.075	0.0154172
851.154	0.0154411
851.232	0.0154235
851.310	0.0154223
851.388	0.0154578
851.466	0.0155310
851.544	0.0154861
851.622	0.0155629
851.700	0.0155233
851.779	0.0155663
851.857	0.0154363
851.935	0.0153270
852.013	0.0154330
852.091	0.0153577
852.169	0.0152600
852.247	0.0153232
852.325	0.0151930
852.404	0.0151114
852.482	0.0150555
852.560	0.0150724
852.638	0.0149873
852.716	0.0149248
852.794	0.0150467
852.872	0.0150057
852.950	0.0150209
853.029	0.0151778
853.107	0.0148907
853.185	0.0149064
853.263	0.0150804
853.341	0.0150739
853.419	0.0150960
853.497	0.0151713
853.575	0.0152361
853.654	0.0150687
853.732	0.0150907
853.810	0.0150748
853.888	0.0151296
853.966	0.0149820
854.044	0.0151232
854.122	0.0149844
854.200	0.0150759
854.279	0.0151378
854.357	0.0149928
854.435	0.0149678
854.513	0.0149557
854.591	0.0148730
854.669	0.0148095
854.747	0.0149216
854.825	0.0148392
854.904	0.0150072
854.982	0.0149600
855.060	0.0149966
855.138	0.0149486
855.216	0.0150314
855.294	0.0148137
855.372	0.0149288
855.450	0.0150826
855.529	0.0150639
855.607	0.0150837
855.685	0.0152396
855.763	0.0152030
855.841	0.0151503
855.919	0.0152753
855.997	0.0151599
856.075	0.0151717
856.154	0.0153236
856.232	0.0153113
856.310	0.0152747
856.388	0.0153290
856.466	0.0153271
856.544	0.0153896
856.622	0.0152933
856.700	0.0151555
856.779	0.0152422
856.857	0.0151884
856.935	0.0152070
857.013	0.0153249
857.091	0.0154036
857.169	0.0153687
857.247	0.0152898
857.325	0.0153291
857.404	0.0154111
857.482	0.0156130
857.560	0.0155171
857.638	0.0154383
857.716	0.0155291
857.794	0.0156965
857.872	0.0158438
857.950	0.0157805
858.029	0.0156908
858.107	0.0155829
858.185	0.0157777
858.263	0.0157185
858.341	0.0158056
858.419	0.0157611
858.497	0.0156612
858.575	0.0155962
858.654	0.0156330
858.732	0.0155488
858.810	0.0155683
858.888	0.0154406
858.966	0.0153481
859.044	0.0152666
859.122	0.0153487
859.200	0.0152342
859.279	0.0151031
859.357	0.0150973
859.435	0.0150095
859.513	0.0150658
859.591	0.0149538
859.669	0.0148823
859.747	0.0149258
859.825	0.0147981
859.904	0.0147899
859.982	0.0148356
860.060	0.0147062
860.138	0.0147604
860.216	0.0146476
860.294	0.0146568
860.372	0.0147110
860.450	0.0146321
860.529	0.0145642
860.607	0.0145663
860.685	0.0144524
860.763	0.0144629
860.841	0.0144262
860.919	0.0143340
860.997	0.0143895
861.075	0.0144505
861.154	0.0144167
861.232	0.0145015
861.310	0.0144139
861.388	0.0143163
861.466	0.0145817
861.544	0.0144758
861.622	0.0146947
861.700	0.0146762
861.779	0.0148354
861.857	0.0149307
861.935	0.0149766
862.013	0.0151448
862.091	0.0153001
862.169	0.0152646
862.247	0.0154248
862.325	0.0155634
862.404	0.0157198
862.482	0.0157281
862.560	0.0156937
862.638	0.0158281
862.716	0.0156658
862.794	0.0157989
862.872	0.0159129
862.950	0.0158062
863.029	0.0157690
863.107	0.0157684
863.185	0.0157251
863.263	0.0155729
863.341	0.0156114
863.419	0.0156501
863.497	0.0155105
863.575	0.0153760
863.654	0.0153024
863.732	0.0154333
863.810	0.0153672
863.888	0.0153532
863.966	0.0153116
864.044	0.0152092
864.122	0.0152421
864.200	0.0151286
864.279	0.0151600
864.357	0.0152009
864.435	0.0151645
864.513	0.0152306
864.591	0.0151675
864.669	0.0152048
864.747	0.0151505
864.825	0.0151568
864.904	0.0151518
864.982	0.0153910
865.060	0.0152414
865.138	0.0153345
865.216	0.0152040
865.294	0.0154109
865.372	0.0153506
865.450	0.0152907
865.529	0.0154727
865.607	0.0153214
865.685	0.0153112
865.763	0.0151324
865.841	0.0151665
865.919	0.0151746
865.997	0.0151289
866.075	0.0148591
866.154	0.0148837
866.232	0.0148514
866.310	0.0147587
866.388	0.0149092
866.466	0.0147115
866.544	0.0147310
866.622	0.0147287
866.700	0.0146523
866.779	0.0145947
866.857	0.0145502
866.935	0.0147548
867.013	0.0147113
867.091	0.0146510
867.169	0.0145705
867.247	0.0146954
867.325	0.0149662
867.404	0.0147202
867.482	0.0147091
867.560	0.0147845
867.638	0.0149293
867.716	0.0149438
867.794	0.0149265
867.872	0.0150578
867.950	0.0150575
868.029	0.0151245
868.107	0.0151071
868.185	0.0151225
868.263	0.0152104
868.341	0.0153561
868.419	0.0152267
868.497	0.0153448
868.575	0.0153549
868.654	0.0154240
868.732	0.0151627
868.810	0.0152945
868.888	0.0153205
868.966	0.0153580
869.044	0.0153342
869.122	0.0151013
869.200	0.0153749
869.279	0.0153587
869.357	0.0153989
869.435	0.0154119
869.513	0.0152860
869.591	0.0153325
869.669	0.0154250
869.747	0.0154308
869.825	0.0155084
869.904	0.0154594
869.982	0.0155086
870.060	0.0155215
870.138	0.0155205
870.216	0.0155945
870.294	0.0154948
870.372	0.0155437
870.450	0.0154536
870.529	0.0155470
870.607	0.0154842
870.685	0.0153908
870.763	0.0153992
870.841	0.0152820
870.919	0.0152433
870.997	0.0152199
871.075	0.0152039
871.154	0.0150977
871.232	0.0148933
871.310	0.0149053
871.388	0.0148521
871.466	0.0149200
871.544	0.0149475
871.622	0.0148234
871.700	0.0148495
871.779	0.0148485
871.857	0.0147748
871.935	0.0147675
872.013	0.0148161
872.091	0.0148325
872.169	0.0147839
872.247	0.0148553
872.325	0.0149896
872.404	0.0149535
872.482	0.0150494
872.560	0.0150491
872.638	0.0152618
872.716	0.0153589
872.794	0.0151564
872.872	0.0153049
872.950	0.0154925
873.029	0.0154114
873.107	0.0153864
873.185	0.0154476
873.263	0.0155519
873.341	0.0155254
873.419	0.0156091
873.497	0.0154704
873.575	0.0152737
873.654	0.0153046
873.732	0.0153106
873.810	0.0152905
873.888	0.0152603
873.966	0.0152201
874.044	0.0150526
874.122	0.0151237
874.200	0.0150012
874.279	0.0149123
874.357	0.0151157
874.435	0.0148967
874.513	0.0148584
874.591	0.0150102
874.669	0.0149106
874.747	0.0148949
874.825	0.0149844
874.904	0.0150367
874.982	0.0148659
875.060	0.0148874
875.138	0.0149024
875.216	0.0149341
875.294	0.0150903
875.372	0.0149494
875.450	0.0150297
875.529	0.0149612
875.607	0.0150511
875.685	0.0151054
875.763	0.0150935
875.841	0.0150574
875.919	0.0152215
875.997	0.0152034
876.075	0.0151846
876.154	0.0153911
876.232	0.0152070
876.310	0.0152557
876.388	0.0153738
876.466	0.0154127
876.544	0.0152251
876.622	0.0151568
876.700	0.0151846
876.779	0.0151854
876.857	0.0153512
876.935	0.0152594
877.013	0.0151438
877.091	0.0151368
877.169	0.0151316
877.247	0.0151053
877.325	0.0151291
877.404	0.0152077
877.482	0.0152506
877.560	0.0151994
877.638	0.0151338
877.716	0.0151234
877.794	0.0152532
877.872	0.0151010
877.950	0.0151060
878.029	0.0150304
878.107	0.0150450
878.185	0.0151369
878.263	0.0149978
878.341	0.0150449
878.419	0.0151437
878.497	0.0150584
878.575	0.0149356
878.654	0.0149564
878.732	0.0150753
878.810	0.0151452
878.888	0.0151363
878.966	0.0151635
879.044	0.0152612
879.122	0.0152451
879.200	0.0152834
879.279	0.0152065
879.357	0.0152331
879.435	0.0153220
879.513	0.0152889
879.591	0.0153490
879.669	0.0153725
879.747	0.0153056
879.825	0.0151752
879.904	0.0152720
879.982	0.0153541
880.060	0.0153796
880.138	0.0152898
880.216	0.0151353
880.294	0.0151759
880.372	0.0151820
880.450	0.0152341
880.529	0.0152033
880.607	0.0150406
880.685	0.0150414
880.763	0.0148189
880.841	0.0149039
880.919	0.0148930
880.997	0.0149490
881.075	0.0149010
881.154	0.0148829
881.232	0.0149342
881.310	0.0151292
881.388	0.0150709
881.466	0.0151577
881.544	0.0151671
881.622	0.0152625
881.700	0.0151608
881.779	0.0152303
881.857	0.0152985
881.935	0.0152491
882.013	0.0151090
882.091	0.0151109
882.169	0.0151855
882.247	0.0151892
882.325	0.0149609
882.404	0.0149285
882.482	0.0147736
882.560	0.0147718
882.638	0.0147134
882.716	0.0147341
882.794	0.0146303
882.872	0.0146158
882.950	0.0147646
883.029	0.0147919
883.107	0.0150306
883.185	0.0151696
883.263	0.0152302
883.341	0.0153305
883.419	0.0156355
883.497	0.0158746
883.575	0.0159902
883.654	0.0160871
883.732	0.0162770
883.810	0.0163947
883.888	0.0161886
883.966	0.0160457
884.044	0.0158522
884.122	0.0157091
884.200	0.0152951
884.279	0.0151080
884.357	0.0148682
884.435	0.0146770
884.513	0.0143785
884.591	0.0141941
884.669	0.0142364
884.747	0.0140979
884.825	0.0139725
884.904	0.0139072
884.982	0.0139857
885.060	0.0140628
885.138	0.0143250
885.216	0.0143582
885.294	0.0144008
885.372	0.0146762
885.450	0.0148986
885.529	0.0152328
885.607	0.0153569
885.685	0.0156162
885.763	0.0157024
885.841	0.0158493
885.919	0.0161057
885.997	0.0162625
886.075	0.0163280
886.154	0.0162946
886.232	0.0161841
886.310	0.0160930
886.388	0.0158916
886.466	0.0157518
886.544	0.0155866
886.622	0.0153727
886.700	0.0150901
886.779	0.0147738
886.857	0.0144409
886.935	0.0142822
887.013	0.0141554
887.091	0.0138434
887.169	0.0138927
887.247	0.0139610
887.325	0.0139181
887.404	0.0139635
887.482	0.0139478
887.560	0.0142277
887.638	0.0143820
887.716	0.0146392
887.794	0.0147202
887.872	0.0148545
887.950	0.0152214
888.029	0.0153658
888.107	0.0155562
888.185	0.0157279
888.263	0.0157862
888.341	0.0159093
888.419	0.0160780
888.497	0.0161186
888.575	0.0161363
888.654	0.0162781
888.732	0.0161629
888.810	0.0161158
888.888	0.0161198
888.966	0.0159201
889.044	0.0158098
889.122	0.0158476
889.200	0.0157343
889.279	0.0156219
889.357	0.0153713
889.435	0.0153051
889.513	0.0151093
889.591	0.0151648
889.669	0.0150328
889.747	0.0148382
889.825	0.0148237
889.904	0.0145989
889.982	0.0145532
890.060	0.0146211
890.138	0.0147366
890.216	0.0146675
890.294	0.0147081
890.372	0.0147978
890.450	0.0147935
890.529	0.0148313
890.607	0.0149176
890.685	0.0149737
890.763	0.0149231
890.841	0.0151073
890.919	0.0151626
890.997	0.0150657
891.075	0.0150410
891.154	0.0151642
891.232	0.0151740
891.310	0.0152804
891.388	0.0152162
891.466	0.0153563
891.544	0.0151246
891.622	0.0151215
891.700	0.0151099
891.779	0.0150635
891.857	0.0151395
891.935	0.0150333
892.013	0.0150484
892.091	0.0149146
892.169	0.0150469
892.247	0.0148704
892.325	0.0149147
892.404	0.0148682
892.482	0.0148987
892.560	0.0148553
892.638	0.0147465
892.716	0.0148457
892.794	0.0145795
892.872	0.0148146
892.950	0.0147002
893.029	0.0147440
893.107	0.0147909
893.185	0.0148181
893.263	0.0146749
893.341	0.0148636
893.419	0.0149303
893.497	0.0150370
893.575	0.0149860
893.654	0.0151121
893.732	0.0152118
893.810	0.0151798
893.888	0.0152246
893.966	0.0153106
894.044	0.0154927
894.122	0.0153864
894.200	0.0154192
894.279	0.0153951
894.357	0.0154115
894.435	0.0155156
894.513	0.0155827
894.591	0.0155121
894.669	0.0155512
894.747	0.0154569
894.825	0.0154190
894.904	0.0152684
894.982	0.0152539
895.060	0.0152784
895.138	0.0153828
895.216	0.0151704
895.294	0.0150417
895.372	0.0150315
895.450	0.0151091
895.529	0.0150546
895.607	0.0149794
895.685	0.0151696
895.763	0.0151899
895.841	0.0151812
895.919	0.0151424
895.997	0.0150636
896.075	0.0152939
896.154	0.0152246
896.232	0.0151578
896.310	0.0151265
896.388	0.0151566
896.466	0.0152054
896.544	0.0152297
896.622	0.0152663
896.700	0.0152446
896.779	0.0152263
896.857	0.0152493
896.935	0.0151373
897.013	0.0151356
897.091	0.0151357
897.169	0.0151050
897.247	0.0150082
897.325	0.0149464
897.404	0.0150562
897.482	0.0149233
897.560	0.0148297
897.638	0.0147970
897.716	0.0147337
897.794	0.0147923
897.872	0.0147114
897.950	0.0145448
898.029	0.0146515
898.107	0.0147018
898.185	0.0147085
898.263	0.0148019
898.341	0.0148106
898.419	0.0149226
898.497	0.0150060
898.575	0.0150684
898.654	0.0151101
898.732	0.0152470
898.810	0.0153650
898.888	0.0154765
898.966	0.0154387
899.044	0.0154707
899.122	0.0154461
899.200	0.0156278
899.279	0.0154273
899.357	0.0153600
899.435	0.0155045
899.513	0.0153361
899.591	0.0153186
899.669	0.0151320
899.747	0.0148914
899.825	0.0149807
899.904	0.0149577
899.982	0.0149916
900.060	0.0147578
900.138	0.0146127
900.216	0.0146626
900.294	0.0147102
900.372	0.0148149
900.450	0.0147953
900.529	0.0147192
900.607	0.0147440
900.685	0.0148462
900.763	0.0149545
900.841	0.0149185
900.919	0.0149760
900.997	0.0149703
901.075	0.0151579
901.154	0.0151994
901.232	0.0152324
901.310	0.0154684
901.388	0.0154015
901.466	0.0153688
901.544	0.0154408
901.622	0.0154811
901.700	0.0154487
901.779	0.0156158
901.857	0.0155955
901.935	0.0154273
902.013	0.0156049
902.091	0.0154953
902.169	0.0153008
902.247	0.0153546
902.325	0.0153012
902.404	0.0152402
902.482	0.0151680
902.560	0.0151694
902.638	0.0149506
902.716	0.0150153
902.794	0.0150121
902.872	0.0148510
902.950	0.0149445
903.029	0.0148121
903.107	0.0148049
903.185	0.0147726
903.263	0.0148592
903.341	0.0148425
903.419	0.0149152
903.497	0.0149111
903.575	0.0148948
903.654	0.0150974
903.732	0.0149595
903.810	0.0150471
903.888	0.0151229
903.966	0.0152527
904.044	0.0152962
904.122	0.0153397
904.200	0.0152370
904.279	0.0153421
904.357	0.0154232
904.435	0.0154035
904.513	0.0155478
904.591	0.0154242
904.669	0.0153625
904.747	0.0155624
904.825	0.0155673
904.904	0.0153561
904.982	0.0153848
905.060	0.0154010
905.138	0.0153209
905.216	0.0153478
905.294	0.0153753
905.372	0.0152700
905.450	0.0153176
905.529	0.0151786
905.607	0.0150901
905.685	0.0151542
905.763	0.0151082
905.841	0.0150549
905.919	0.0149805
905.997	0.0149870
906.075	0.0149219
906.154	0.0150181
906.232	0.0149581
906.310	0.0149353
906.388	0.0149876
906.466	0.0149834
906.544	0.0150932
906.622	0.0150178
906.700	0.0150978
906.779	0.0152411
906.857	0.0149362
906.935	0.0150973
907.013	0.0151252
907.091	0.0150774
907.169	0.0150898
907.247	0.0150561
907.325	0.0152357
907.404	0.0149355
907.482	0.0151168
907.560	0.0151598
907.638	0.0151025
907.716	0.0149570
907.794	0.0149410
907.872	0.0150250
907.950	0.0149936
908.029	0.0149731
908.107	0.0149171
908.185	0.0149438
908.263	0.0150088
908.341	0.0149715
908.419	0.0148727
908.497	0.0148064
908.575	0.0149832
908.654	0.0148878
908.732	0.0149801
908.810	0.0150261
908.888	0.0150690
908.966	0.0149813
909.044	0.0152894
909.122	0.0151810
909.200	0.0151942
909.279	0.0155289
909.357	0.0152779
909.435	0.0153547
909.513	0.0154511
909.591	0.0154266
909.669	0.0155140
909.747	0.0156652
909.825	0.0157040
909.904	0.0156876
909.982	0.0156970
910.060	0.0156154
910.138	0.0156693
910.216	0.0155826
910.294	0.0154886
910.372	0.0152490
910.450	0.0154117
910.529	0.0152972
910.607	0.0152888
910.685	0.0152888
910.763	0.0151481
910.841	0.0151675
910.919	0.0149975
910.997	0.0150449
911.075	0.0150538
911.154	0.0149850
911.232	0.0149682
911.310	0.0149155
911.388	0.0147704
911.466	0.0147226
911.544	0.0147504
911.622	0.0147459
911.700	0.0146801
911.779	0.0146580
911.857	0.0146413
911.935	0.0149297
912.013	0.0150358
912.091	0.0148805
912.169	0.0148908
912.247	0.0149353
912.325	0.0149830
912.404	0.0150449
912.482	0.0152874
912.560	0.0152895
912.638	0.0151668
912.716	0.0154152
912.794	0.0154337
912.872	0.0153928
912.950	0.0153553
913.029	0.0154639
913.107	0.0153944
913.185	0.0153372
913.263	0.0153466
913.341	0.0152720
913.419	0.0152686
913.497	0.0152944
913.575	0.0152408
913.654	0.0152920
913.732	0.0152286
913.810	0.0151262
913.888	0.0150817
913.966	0.0151569
914.044	0.0149999
914.122	0.0149809
914.200	0.0148227
914.279	0.0148357
914.357	0.0150394
914.435	0.0149363
914.513	0.0148554
914.591	0.0148695
914.669	0.0147888
914.747	0.0149505
914.825	0.0149517
914.904	0.0148546
914.982	0.0149590
915.060	0.0149104
915.138	0.0149546
915.216	0.0151149
915.294	0.0150224
915.372	0.0150472
915.450	0.0151658
915.529	0.0150882
915.607	0.0150462
915.685	0.0149586
915.763	0.0152008
915.841	0.0150842
915.919	0.0150605
915.997	0.0149259
916.075	0.0150916
916.154	0.0151077
916.232	0.0151756
916.310	0.0150890
916.388	0.0151379
916.466	0.0150048
916.544	0.0150681
916.622	0.0149377
916.700	0.0149011
916.779	0.0149927
916.857	0.0151360
916.935	0.0150719
917.013	0.0150365
917.091	0.0151093
917.169	0.0150826
917.247	0.0152398
917.325	0.0152292
917.404	0.0152969
917.482	0.0152959
917.560	0.0152493
917.638	0.0151483
917.716	0.0152674
917.794	0.0152778
917.872	0.0152368
917.950	0.0152434
918.029	0.0153803
918.107	0.0152059
918.185	0.0152902
918.263	0.0153063
918.341	0.0152634
918.419	0.0152089
918.497	0.0152782
918.575	0.0153041
918.654	0.0153140
918.732	0.0151714
918.810	0.0151869
918.888	0.0151286
918.966	0.0151298
919.044	0.0152630
919.122	0.0151001
919.200	0.0150900
919.279	0.0150546
919.357	0.0151604
919.435	0.0150356
919.513	0.0151611
919.591	0.0151953
919.669	0.0150581
919.747	0.0151098
919.825	0.0151523
919.904	0.0150877
