05/20/2022	21:32:30	Ver.	4.1	UNKNOWN
Optical Delay	599.975067	Delta X		0.078125	Sweeps	1	Scan Rate	0/0
Coordinates	Axis 1	NaN	Axis 2	NaN	Axis 3	NaN	Axis 4	NaN	Axis 5	NaN	Axis 6	0.000000
TX Power	0.000000	RX Power	0.000000

599.975	0.0153905
600.053	0.0153027
600.131	0.0152920
600.209	0.0153294
600.288	0.0154411
600.366	0.0154363
600.444	0.0155546
600.522	0.0156010
600.600	0.0154679
600.678	0.0155268
600.756	0.0155437
600.834	0.0155491
600.913	0.0155946
600.991	0.0155510
601.069	0.0155523
601.147	0.0155038
601.225	0.0155116
601.303	0.0153209
601.381	0.0154311
601.459	0.0153077
601.538	0.0155094
601.616	0.0154752
601.694	0.0154351
601.772	0.0155038
601.850	0.0155036
601.928	0.0153493
602.006	0.0154937
602.084	0.0154887
602.163	0.0154634
602.241	0.0155444
602.319	0.0153593
602.397	0.0153248
602.475	0.0153224
602.553	0.0153604
602.631	0.0152853
602.709	0.0153931
602.788	0.0153899
602.866	0.0152962
602.944	0.0152209
603.022	0.0152215
603.100	0.0153055
603.178	0.0154420
603.256	0.0154488
603.334	0.0153268
603.413	0.0154414
603.491	0.0155573
603.569	0.0154269
603.647	0.0153889
603.725	0.0154670
603.803	0.0155552
603.881	0.0154670
603.959	0.0154920
604.038	0.0157336
604.116	0.0155737
604.194	0.0156615
604.272	0.0155272
604.350	0.0153720
604.428	0.0153862
604.506	0.0154617
604.584	0.0155264
604.663	0.0155873
604.741	0.0154615
604.819	0.0154277
604.897	0.0154630
604.975	0.0154888
605.053	0.0155468
605.131	0.0154002
605.209	0.0154899
605.288	0.0155041
605.366	0.0154340
605.444	0.0156558
605.522	0.0155302
605.600	0.0154826
605.678	0.0154877
605.756	0.0155978
605.834	0.0155512
605.913	0.0155884
605.991	0.0155212
606.069	0.0154468
606.147	0.0156542
606.225	0.0154646
606.303	0.0155013
606.381	0.0153970
606.459	0.0156132
606.538	0.0155658
606.616	0.0155758
606.694	0.0155983
606.772	0.0156551
606.850	0.0156296
606.928	0.0154197
607.006	0.0155725
607.084	0.0156216
607.163	0.0156231
607.241	0.0154553
607.319	0.0154903
607.397	0.0154893
607.475	0.0156185
607.553	0.0153736
607.631	0.0153786
607.709	0.0154234
607.788	0.0154749
607.866	0.0154791
607.944	0.0154501
608.022	0.0153835
608.100	0.0155825
608.178	0.0154259
608.256	0.0153726
608.334	0.0152448
608.413	0.0154800
608.491	0.0154231
608.569	0.0155274
608.647	0.0154726
608.725	0.0153918
608.803	0.0153500
608.881	0.0155316
608.959	0.0154128
609.038	0.0155599
609.116	0.0153244
609.194	0.0154545
609.272	0.0155512
609.350	0.0154713
609.428	0.0153910
609.506	0.0155086
609.584	0.0155566
609.663	0.0154871
609.741	0.0154444
609.819	0.0154076
609.897	0.0155048
609.975	0.0154491
610.053	0.0154906
610.131	0.0154167
610.209	0.0154312
610.288	0.0155811
610.366	0.0153754
610.444	0.0153902
610.522	0.0155088
610.600	0.0152753
610.678	0.0154090
610.756	0.0154811
610.834	0.0154539
610.913	0.0153212
610.991	0.0154573
611.069	0.0154573
611.147	0.0153914
611.225	0.0153882
611.303	0.0154897
611.381	0.0156387
611.459	0.0153951
611.538	0.0153935
611.616	0.0155076
611.694	0.0154700
611.772	0.0154182
611.850	0.0154834
611.928	0.0153929
612.006	0.0155100
612.084	0.0153407
612.163	0.0152405
612.241	0.0152892
612.319	0.0154115
612.397	0.0153865
612.475	0.0151994
612.553	0.0153912
612.631	0.0153921
612.709	0.0152309
612.788	0.0154408
612.866	0.0152184
612.944	0.0152499
613.022	0.0152779
613.100	0.0151428
613.178	0.0153127
613.256	0.0153438
613.334	0.0152261
613.413	0.0152638
613.491	0.0153564
613.569	0.0154150
613.647	0.0154704
613.725	0.0154587
613.803	0.0153818
613.881	0.0152437
613.959	0.0154576
614.038	0.0153886
614.116	0.0153575
614.194	0.0155373
614.272	0.0155318
614.350	0.0154589
614.428	0.0154492
614.506	0.0154514
614.584	0.0155102
614.663	0.0154704
614.741	0.0154359
614.819	0.0153423
614.897	0.0154610
614.975	0.0154488
615.053	0.0152809
615.131	0.0155361
615.209	0.0154212
615.288	0.0154385
615.366	0.0154259
615.444	0.0154467
615.522	0.0154082
615.600	0.0155412
615.678	0.0155200
615.756	0.0156219
615.834	0.0154754
615.913	0.0154111
615.991	0.0155071
616.069	0.0155556
616.147	0.0154118
616.225	0.0155678
616.303	0.0154532
616.381	0.0153522
616.459	0.0155863
616.538	0.0156311
616.616	0.0154652
616.694	0.0155347
616.772	0.0155529
616.850	0.0155157
616.928	0.0156060
617.006	0.0155983
617.084	0.0157221
617.163	0.0156349
617.241	0.0154597
617.319	0.0156670
617.397	0.0155472
617.475	0.0157670
617.553	0.0156937
617.631	0.0155386
617.709	0.0154655
617.788	0.0156698
617.866	0.0155600
617.944	0.0155912
618.022	0.0155453
618.100	0.0156200
618.178	0.0155066
618.256	0.0155031
618.334	0.0155396
618.413	0.0154180
618.491	0.0154095
618.569	0.0154311
618.647	0.0154113
618.725	0.0154479
618.803	0.0154514
618.881	0.0153312
618.959	0.0153575
619.038	0.0154877
619.116	0.0153986
619.194	0.0153984
619.272	0.0154372
619.350	0.0152065
619.428	0.0151572
619.506	0.0152238
619.584	0.0153615
619.663	0.0152914
619.741	0.0152332
619.819	0.0153776
619.897	0.0153510
619.975	0.0152746
620.053	0.0154051
620.131	0.0154671
620.209	0.0154549
620.288	0.0154059
620.366	0.0153754
620.444	0.0154005
620.522	0.0154139
620.600	0.0153819
620.678	0.0155209
620.756	0.0155369
620.834	0.0152658
620.913	0.0155103
620.991	0.0155410
621.069	0.0154466
621.147	0.0154297
621.225	0.0154839
621.303	0.0154162
621.381	0.0153969
621.459	0.0154095
621.538	0.0153487
621.616	0.0153230
621.694	0.0154346
621.772	0.0154517
621.850	0.0154464
621.928	0.0152995
622.006	0.0152616
622.084	0.0152598
622.163	0.0154764
622.241	0.0154230
622.319	0.0154133
622.397	0.0154440
622.475	0.0153824
622.553	0.0156828
622.631	0.0156479
622.709	0.0154126
622.788	0.0155099
622.866	0.0155840
622.944	0.0157055
623.022	0.0157476
623.100	0.0156888
623.178	0.0155771
623.256	0.0156659
623.334	0.0155283
623.413	0.0155291
623.491	0.0155024
623.569	0.0155698
623.647	0.0155312
623.725	0.0155162
623.803	0.0156268
623.881	0.0155290
623.959	0.0154477
624.038	0.0154044
624.116	0.0155603
624.194	0.0154809
624.272	0.0153521
624.350	0.0154340
624.428	0.0154635
624.506	0.0154338
624.584	0.0153582
624.663	0.0152936
624.741	0.0153650
624.819	0.0153485
624.897	0.0153313
624.975	0.0152612
625.053	0.0153117
625.131	0.0151712
625.209	0.0152530
625.288	0.0152329
625.366	0.0153173
625.444	0.0153439
625.522	0.0152752
625.600	0.0153862
625.678	0.0153387
625.756	0.0152499
625.834	0.0154305
625.913	0.0154778
625.991	0.0153587
626.069	0.0151807
626.147	0.0153414
626.225	0.0155388
626.303	0.0154072
626.381	0.0151812
626.459	0.0153651
626.538	0.0152908
626.616	0.0152090
626.694	0.0153250
626.772	0.0152195
626.850	0.0153964
626.928	0.0153522
627.006	0.0151034
627.084	0.0151899
627.163	0.0151163
627.241	0.0151567
627.319	0.0152225
627.397	0.0150737
627.475	0.0151215
627.553	0.0152087
627.631	0.0150595
627.709	0.0152470
627.788	0.0151549
627.866	0.0150599
627.944	0.0152368
628.022	0.0152287
628.100	0.0152650
628.178	0.0152311
628.256	0.0152803
628.334	0.0153405
628.413	0.0152322
628.491	0.0153304
628.569	0.0154202
628.647	0.0153943
628.725	0.0152690
628.803	0.0154069
628.881	0.0155096
628.959	0.0154868
629.038	0.0153888
629.116	0.0153636
629.194	0.0154213
629.272	0.0153284
629.350	0.0153293
629.428	0.0154493
629.506	0.0154305
629.584	0.0154013
629.663	0.0153961
629.741	0.0153285
629.819	0.0153426
629.897	0.0154146
629.975	0.0153309
630.053	0.0153189
630.131	0.0152468
630.209	0.0154716
630.288	0.0155316
630.366	0.0153069
630.444	0.0154237
630.522	0.0153973
630.600	0.0154562
630.678	0.0153870
630.756	0.0155061
630.834	0.0154507
630.913	0.0155399
630.991	0.0154408
631.069	0.0154478
631.147	0.0155407
631.225	0.0154847
631.303	0.0154545
631.381	0.0155756
631.459	0.0155118
631.538	0.0153858
631.616	0.0154977
631.694	0.0154539
631.772	0.0155032
631.850	0.0155168
631.928	0.0153894
632.006	0.0154536
632.084	0.0154762
632.163	0.0154623
632.241	0.0154147
632.319	0.0155094
632.397	0.0156811
632.475	0.0155380
632.553	0.0156450
632.631	0.0155914
632.709	0.0155421
632.788	0.0155689
632.866	0.0156421
632.944	0.0155699
633.022	0.0156724
633.100	0.0156145
633.178	0.0156020
633.256	0.0156760
633.334	0.0156985
633.413	0.0156337
633.491	0.0157763
633.569	0.0156673
633.647	0.0156115
633.725	0.0155993
633.803	0.0155580
633.881	0.0155926
633.959	0.0155080
634.038	0.0154831
634.116	0.0155845
634.194	0.0154723
634.272	0.0153992
634.350	0.0154272
634.428	0.0154980
634.506	0.0154210
634.584	0.0154405
634.663	0.0155059
634.741	0.0153407
634.819	0.0155001
634.897	0.0154112
634.975	0.0154207
635.053	0.0154887
635.131	0.0154688
635.209	0.0153878
635.288	0.0152821
635.366	0.0153591
635.444	0.0153793
635.522	0.0153671
635.600	0.0155264
635.678	0.0153135
635.756	0.0153241
635.834	0.0154245
635.913	0.0155444
635.991	0.0154041
636.069	0.0154580
636.147	0.0153394
636.225	0.0152267
636.303	0.0153952
636.381	0.0154301
636.459	0.0154455
636.538	0.0153677
636.616	0.0154006
636.694	0.0153697
636.772	0.0154865
636.850	0.0152666
636.928	0.0154116
637.006	0.0152728
637.084	0.0154848
637.163	0.0153764
637.241	0.0153233
637.319	0.0154665
637.397	0.0155294
637.475	0.0153273
637.553	0.0154758
637.631	0.0155707
637.709	0.0154883
637.788	0.0153672
637.866	0.0153286
637.944	0.0154555
638.022	0.0155051
638.100	0.0154554
638.178	0.0153900
638.256	0.0155045
638.334	0.0154245
638.413	0.0155189
638.491	0.0153523
638.569	0.0154198
638.647	0.0153238
638.725	0.0154774
638.803	0.0154314
638.881	0.0153351
638.959	0.0153441
639.038	0.0153989
639.116	0.0152968
639.194	0.0153317
639.272	0.0153278
639.350	0.0152650
639.428	0.0152486
639.506	0.0152670
639.584	0.0151878
639.663	0.0153272
639.741	0.0152396
639.819	0.0151441
639.897	0.0152550
639.975	0.0152815
640.053	0.0152679
640.131	0.0152612
640.209	0.0152178
640.288	0.0152254
640.366	0.0152000
640.444	0.0152586
640.522	0.0153148
640.600	0.0152859
640.678	0.0151871
640.756	0.0152325
640.834	0.0153647
640.913	0.0151620
640.991	0.0151456
641.069	0.0151652
641.147	0.0151044
641.225	0.0151324
641.303	0.0152073
641.381	0.0151778
641.459	0.0151201
641.538	0.0149638
641.616	0.0149829
641.694	0.0150328
641.772	0.0151413
641.850	0.0151037
641.928	0.0151351
642.006	0.0150441
642.084	0.0151958
642.163	0.0151667
642.241	0.0152621
642.319	0.0152858
642.397	0.0153810
642.475	0.0153174
642.553	0.0152514
642.631	0.0155169
642.709	0.0153036
642.788	0.0153653
642.866	0.0154333
642.944	0.0154047
643.022	0.0153395
643.100	0.0155080
643.178	0.0154073
643.256	0.0153416
643.334	0.0154674
643.413	0.0153419
643.491	0.0153777
643.569	0.0153731
643.647	0.0153175
643.725	0.0153678
643.803	0.0152376
643.881	0.0152203
643.959	0.0154025
644.038	0.0153736
644.116	0.0152388
644.194	0.0152926
644.272	0.0154557
644.350	0.0154208
644.428	0.0154874
644.506	0.0153685
644.584	0.0154236
644.663	0.0155005
644.741	0.0153413
644.819	0.0153659
644.897	0.0154742
644.975	0.0155296
645.053	0.0154911
645.131	0.0154404
645.209	0.0154932
645.288	0.0154558
645.366	0.0155152
645.444	0.0155759
645.522	0.0154405
645.600	0.0153934
645.678	0.0155996
645.756	0.0153661
645.834	0.0154072
645.913	0.0154234
645.991	0.0153790
646.069	0.0153352
646.147	0.0152549
646.225	0.0152349
646.303	0.0153583
646.381	0.0153859
646.459	0.0154079
646.538	0.0152722
646.616	0.0152358
646.694	0.0154942
646.772	0.0155232
646.850	0.0153306
646.928	0.0154858
647.006	0.0153814
647.084	0.0153970
647.163	0.0153791
647.241	0.0154217
647.319	0.0154050
647.397	0.0153124
647.475	0.0153916
647.553	0.0153474
647.631	0.0153701
647.709	0.0153100
647.788	0.0152409
647.866	0.0152952
647.944	0.0153632
648.022	0.0152380
648.100	0.0151595
648.178	0.0152538
648.256	0.0151655
648.334	0.0151453
648.413	0.0150633
648.491	0.0150384
648.569	0.0152493
648.647	0.0151851
648.725	0.0152277
648.803	0.0152170
648.881	0.0152022
648.959	0.0151283
649.038	0.0151218
649.116	0.0152430
649.194	0.0152847
649.272	0.0151620
649.350	0.0152909
649.428	0.0153208
649.506	0.0153581
649.584	0.0152575
649.663	0.0152235
649.741	0.0154050
649.819	0.0152588
649.897	0.0152988
649.975	0.0151900
650.053	0.0152457
650.131	0.0152692
650.209	0.0152963
650.288	0.0152036
650.366	0.0151641
650.444	0.0151031
650.522	0.0150513
650.600	0.0150674
650.678	0.0150595
650.756	0.0150338
650.834	0.0150504
650.913	0.0149718
650.991	0.0149885
651.069	0.0150295
651.147	0.0150283
651.225	0.0149734
651.303	0.0150200
651.381	0.0152398
651.459	0.0150883
651.538	0.0150790
651.616	0.0152454
651.694	0.0151740
651.772	0.0152597
651.850	0.0152681
651.928	0.0152024
652.006	0.0151617
652.084	0.0152919
652.163	0.0153308
652.241	0.0154806
652.319	0.0153825
652.397	0.0154367
652.475	0.0154796
652.553	0.0153870
652.631	0.0154557
652.709	0.0153680
652.788	0.0154170
652.866	0.0154259
652.944	0.0154721
653.022	0.0153604
653.100	0.0156520
653.178	0.0154459
653.256	0.0153737
653.334	0.0151991
653.413	0.0153237
653.491	0.0153760
653.569	0.0152799
653.647	0.0151128
653.725	0.0152444
653.803	0.0152396
653.881	0.0154053
653.959	0.0151885
654.038	0.0153716
654.116	0.0153680
654.194	0.0152591
654.272	0.0152750
654.350	0.0154508
654.428	0.0154690
654.506	0.0153241
654.584	0.0154256
654.663	0.0155858
654.741	0.0155943
654.819	0.0155017
654.897	0.0154910
654.975	0.0154712
655.053	0.0155972
655.131	0.0154552
655.209	0.0154028
655.288	0.0156130
655.366	0.0155737
655.444	0.0155482
655.522	0.0155447
655.600	0.0154863
655.678	0.0155579
655.756	0.0155130
655.834	0.0154832
655.913	0.0153900
655.991	0.0152551
656.069	0.0153098
656.147	0.0153608
656.225	0.0152039
656.303	0.0152011
656.381	0.0153002
656.459	0.0152303
656.538	0.0151025
656.616	0.0151873
656.694	0.0152590
656.772	0.0151215
656.850	0.0150866
656.928	0.0151939
657.006	0.0152834
657.084	0.0153639
657.163	0.0153441
657.241	0.0152708
657.319	0.0153514
657.397	0.0155141
657.475	0.0155984
657.553	0.0157896
657.631	0.0154752
657.709	0.0155012
657.788	0.0156677
657.866	0.0156624
657.944	0.0155499
658.022	0.0155338
658.100	0.0155544
658.178	0.0155724
658.256	0.0155449
658.334	0.0154810
658.413	0.0155697
658.491	0.0153423
658.569	0.0153450
658.647	0.0153425
658.725	0.0154260
658.803	0.0152495
658.881	0.0151584
658.959	0.0152232
659.038	0.0152429
659.116	0.0151876
659.194	0.0152328
659.272	0.0151411
659.350	0.0152097
659.428	0.0152049
659.506	0.0151632
659.584	0.0152314
659.663	0.0152918
659.741	0.0152526
659.819	0.0153669
659.897	0.0153695
659.975	0.0152618
660.053	0.0154492
660.131	0.0155473
660.209	0.0154535
660.288	0.0155542
660.366	0.0157633
660.444	0.0156606
660.522	0.0156717
660.600	0.0158178
660.678	0.0157210
660.756	0.0158279
660.834	0.0157196
660.913	0.0156807
660.991	0.0155589
661.069	0.0157919
661.147	0.0156678
661.225	0.0156808
661.303	0.0157240
661.381	0.0156403
661.459	0.0155286
661.538	0.0154840
661.616	0.0156647
661.694	0.0155573
661.772	0.0153747
661.850	0.0152831
661.928	0.0152624
662.006	0.0153130
662.084	0.0152513
662.163	0.0152378
662.241	0.0151649
662.319	0.0151904
662.397	0.0152937
662.475	0.0150265
662.553	0.0152338
662.631	0.0153588
662.709	0.0153119
662.788	0.0151569
662.866	0.0151438
662.944	0.0153150
663.022	0.0152666
663.100	0.0152837
663.178	0.0154384
663.256	0.0153001
663.334	0.0153761
663.413	0.0154054
663.491	0.0152922
663.569	0.0152283
663.647	0.0152063
663.725	0.0153632
663.803	0.0153367
663.881	0.0151165
663.959	0.0150777
664.038	0.0151496
664.116	0.0150778
664.194	0.0150579
664.272	0.0150983
664.350	0.0149058
664.428	0.0147881
664.506	0.0149271
664.584	0.0148993
664.663	0.0149714
664.741	0.0148328
664.819	0.0149242
664.897	0.0149174
664.975	0.0150360
665.053	0.0149317
665.131	0.0148407
665.209	0.0150213
665.288	0.0150514
665.366	0.0150481
665.444	0.0151622
665.522	0.0152180
665.600	0.0151895
665.678	0.0153026
665.756	0.0154197
665.834	0.0154280
665.913	0.0153151
665.991	0.0154375
666.069	0.0154762
666.147	0.0156295
666.225	0.0153880
666.303	0.0155587
666.381	0.0154906
666.459	0.0154949
666.538	0.0153485
666.616	0.0155055
666.694	0.0157227
666.772	0.0155309
666.850	0.0154602
666.928	0.0154440
667.006	0.0155700
667.084	0.0155315
667.163	0.0156232
667.241	0.0157126
667.319	0.0155212
667.397	0.0155293
667.475	0.0157052
667.553	0.0155412
667.631	0.0155713
667.709	0.0156094
667.788	0.0157206
667.866	0.0157082
667.944	0.0154852
668.022	0.0155692
668.100	0.0156611
668.178	0.0156412
668.256	0.0155430
668.334	0.0154654
668.413	0.0154402
668.491	0.0154845
668.569	0.0154936
668.647	0.0154820
668.725	0.0154817
668.803	0.0154562
668.881	0.0153649
668.959	0.0154507
669.038	0.0154749
669.116	0.0154594
669.194	0.0154044
669.272	0.0155476
669.350	0.0153217
669.428	0.0154607
669.506	0.0154426
669.584	0.0153155
669.663	0.0156033
669.741	0.0153757
669.819	0.0153673
669.897	0.0153857
669.975	0.0155118
670.053	0.0153930
670.131	0.0152995
670.209	0.0154791
670.288	0.0154286
670.366	0.0153879
670.444	0.0155419
670.522	0.0154558
670.600	0.0155382
670.678	0.0156008
670.756	0.0155989
670.834	0.0155397
670.913	0.0154825
670.991	0.0157423
671.069	0.0156856
671.147	0.0156212
671.225	0.0156705
671.303	0.0157375
671.381	0.0156143
671.459	0.0155099
671.538	0.0156592
671.616	0.0155576
671.694	0.0155509
671.772	0.0155537
671.850	0.0156697
671.928	0.0157241
672.006	0.0155934
672.084	0.0156834
672.163	0.0156542
672.241	0.0157539
672.319	0.0156238
672.397	0.0156364
672.475	0.0157233
672.553	0.0155621
672.631	0.0156458
672.709	0.0157238
672.788	0.0156174
672.866	0.0155345
672.944	0.0156702
673.022	0.0157039
673.100	0.0156187
673.178	0.0154536
673.256	0.0154738
673.334	0.0153227
673.413	0.0153732
673.491	0.0154255
673.569	0.0152589
673.647	0.0150927
673.725	0.0150233
673.803	0.0150878
673.881	0.0150211
673.959	0.0149454
674.038	0.0147796
674.116	0.0148484
674.194	0.0147890
674.272	0.0146315
674.350	0.0147047
674.428	0.0145715
674.506	0.0145560
674.584	0.0145497
674.663	0.0143897
674.741	0.0145427
674.819	0.0145204
674.897	0.0144014
674.975	0.0144372
675.053	0.0146448
675.131	0.0144560
675.209	0.0145287
675.288	0.0144637
675.366	0.0146268
675.444	0.0147219
675.522	0.0148209
675.600	0.0147118
675.678	0.0149518
675.756	0.0151145
675.834	0.0151524
675.913	0.0151498
675.991	0.0153065
676.069	0.0154156
676.147	0.0157342
676.225	0.0156766
676.303	0.0157907
676.381	0.0157812
676.459	0.0159949
676.538	0.0160183
676.616	0.0161249
676.694	0.0160099
676.772	0.0163433
676.850	0.0162386
676.928	0.0162466
677.006	0.0163038
677.084	0.0160888
677.163	0.0161852
677.241	0.0161984
677.319	0.0161269
677.397	0.0160822
677.475	0.0159573
677.553	0.0159566
677.631	0.0158495
677.709	0.0155793
677.788	0.0156155
677.866	0.0155396
677.944	0.0152808
678.022	0.0153093
678.100	0.0152193
678.178	0.0150951
678.256	0.0150959
678.334	0.0149595
678.413	0.0149186
678.491	0.0149621
678.569	0.0149612
678.647	0.0148853
678.725	0.0148823
678.803	0.0148758
678.881	0.0149728
678.959	0.0149577
679.038	0.0150269
679.116	0.0149127
679.194	0.0151533
679.272	0.0152680
679.350	0.0153088
679.428	0.0154016
679.506	0.0153315
679.584	0.0154617
679.663	0.0155145
679.741	0.0155829
679.819	0.0155244
679.897	0.0157391
679.975	0.0158100
680.053	0.0157354
680.131	0.0159171
680.209	0.0159190
680.288	0.0158138
680.366	0.0157542
680.444	0.0157549
680.522	0.0158958
680.600	0.0158794
680.678	0.0158401
680.756	0.0159151
680.834	0.0158064
680.913	0.0158693
680.991	0.0157802
681.069	0.0157363
681.147	0.0157017
681.225	0.0156986
681.303	0.0154966
681.381	0.0155128
681.459	0.0157403
681.538	0.0156189
681.616	0.0154835
681.694	0.0155830
681.772	0.0155611
681.850	0.0155128
681.928	0.0154019
682.006	0.0156358
682.084	0.0155994
682.163	0.0155315
682.241	0.0154914
682.319	0.0154453
682.397	0.0154521
682.475	0.0154575
682.553	0.0154257
682.631	0.0155331
682.709	0.0154742
682.788	0.0155348
682.866	0.0155575
682.944	0.0154217
683.022	0.0155947
683.100	0.0154943
683.178	0.0153008
683.256	0.0154445
683.334	0.0153863
683.413	0.0153008
683.491	0.0152665
683.569	0.0151659
683.647	0.0151850
683.725	0.0151701
683.803	0.0151208
683.881	0.0150449
683.959	0.0150159
684.038	0.0150658
684.116	0.0150057
684.194	0.0150166
684.272	0.0150858
684.350	0.0150320
684.428	0.0151698
684.506	0.0149759
684.584	0.0152372
684.663	0.0153057
684.741	0.0153769
684.819	0.0155190
684.897	0.0156184
684.975	0.0156979
685.053	0.0157004
685.131	0.0157500
685.209	0.0159442
685.288	0.0158821
685.366	0.0160886
685.444	0.0162285
685.522	0.0161174
685.600	0.0160673
685.678	0.0159962
685.756	0.0161160
685.834	0.0161514
685.913	0.0161909
685.991	0.0160638
686.069	0.0159504
686.147	0.0159676
686.225	0.0159610
686.303	0.0158395
686.381	0.0157769
686.459	0.0157471
686.538	0.0155617
686.616	0.0155743
686.694	0.0155896
686.772	0.0154044
686.850	0.0153851
686.928	0.0153624
687.006	0.0151534
687.084	0.0151737
687.163	0.0151164
687.241	0.0150829
687.319	0.0149751
687.397	0.0148933
687.475	0.0148313
687.553	0.0149590
687.631	0.0150721
687.709	0.0150132
687.788	0.0149006
687.866	0.0149624
687.944	0.0150255
688.022	0.0150079
688.100	0.0152388
688.178	0.0152898
688.256	0.0152511
688.334	0.0153420
688.413	0.0153893
688.491	0.0154285
688.569	0.0154385
688.647	0.0152699
688.725	0.0154343
688.803	0.0156002
688.881	0.0155053
688.959	0.0154834
689.038	0.0156069
689.116	0.0157530
689.194	0.0156068
689.272	0.0155398
689.350	0.0155486
689.428	0.0156062
689.506	0.0155582
689.584	0.0156512
689.663	0.0156370
689.741	0.0156106
689.819	0.0156815
689.897	0.0155741
689.975	0.0156959
690.053	0.0155684
690.131	0.0155531
690.209	0.0156492
690.288	0.0153656
690.366	0.0154704
690.444	0.0155447
690.522	0.0153611
690.600	0.0153233
690.678	0.0154452
690.756	0.0154210
690.834	0.0151826
690.913	0.0153572
690.991	0.0153064
691.069	0.0151611
691.147	0.0153045
691.225	0.0152467
691.303	0.0151450
691.381	0.0151131
691.459	0.0152081
691.538	0.0151270
691.616	0.0150800
691.694	0.0152028
691.772	0.0151373
691.850	0.0153132
691.928	0.0153265
692.006	0.0152470
692.084	0.0153528
692.163	0.0153638
692.241	0.0155160
692.319	0.0155771
692.397	0.0156682
692.475	0.0157419
692.553	0.0157442
692.631	0.0158891
692.709	0.0158730
692.788	0.0158714
692.866	0.0159650
692.944	0.0160627
693.022	0.0160770
693.100	0.0160608
693.178	0.0159209
693.256	0.0158976
693.334	0.0160554
693.413	0.0160009
693.491	0.0160356
693.569	0.0158904
693.647	0.0158552
693.725	0.0157995
693.803	0.0157175
693.881	0.0156607
693.959	0.0157561
694.038	0.0157291
694.116	0.0155782
694.194	0.0155601
694.272	0.0154191
694.350	0.0155663
694.428	0.0154074
694.506	0.0153360
694.584	0.0153173
694.663	0.0154092
694.741	0.0151643
694.819	0.0152006
694.897	0.0151322
694.975	0.0150544
695.053	0.0149867
695.131	0.0149886
695.209	0.0147932
695.288	0.0146726
695.366	0.0147274
695.444	0.0147324
695.522	0.0147274
695.600	0.0147102
695.678	0.0146983
695.756	0.0146998
695.834	0.0149120
695.913	0.0148875
695.991	0.0149950
696.069	0.0150748
696.147	0.0151604
696.225	0.0153236
696.303	0.0154999
696.381	0.0156222
696.459	0.0156297
696.538	0.0157455
696.616	0.0158176
696.694	0.0158969
696.772	0.0159088
696.850	0.0157795
696.928	0.0158314
697.006	0.0159646
697.084	0.0160085
697.163	0.0161370
697.241	0.0160583
697.319	0.0160506
697.397	0.0160423
697.475	0.0158965
697.553	0.0158822
697.631	0.0156742
697.709	0.0159695
697.788	0.0159440
697.866	0.0158264
697.944	0.0158942
698.022	0.0158183
698.100	0.0157352
698.178	0.0156583
698.256	0.0157111
698.334	0.0156838
698.413	0.0156658
698.491	0.0156823
698.569	0.0155768
698.647	0.0156242
698.725	0.0155557
698.803	0.0156133
698.881	0.0155314
698.959	0.0155412
699.038	0.0155001
699.116	0.0155402
699.194	0.0152983
699.272	0.0154916
699.350	0.0153249
699.428	0.0153401
699.506	0.0152512
699.584	0.0152483
699.663	0.0150551
699.741	0.0150157
699.819	0.0149146
699.897	0.0149036
699.975	0.0147842
700.053	0.0147228
700.131	0.0146655
700.209	0.0145415
700.288	0.0145351
700.366	0.0145357
700.444	0.0145538
700.522	0.0144596
700.600	0.0144389
700.678	0.0144071
700.756	0.0143030
700.834	0.0143861
700.913	0.0144148
700.991	0.0145267
701.069	0.0145353
701.147	0.0146047
701.225	0.0147185
701.303	0.0147123
701.381	0.0149793
701.459	0.0151056
701.538	0.0151479
701.616	0.0153760
701.694	0.0155584
701.772	0.0157134
701.850	0.0158813
701.928	0.0159163
702.006	0.0161472
702.084	0.0162617
702.163	0.0164339
702.241	0.0163725
702.319	0.0165247
702.397	0.0166463
702.475	0.0166682
702.553	0.0168139
702.631	0.0168019
702.709	0.0168304
702.788	0.0169208
702.866	0.0167075
702.944	0.0168304
703.022	0.0167560
703.100	0.0167757
703.178	0.0167033
703.256	0.0165686
703.334	0.0164890
703.413	0.0163352
703.491	0.0162897
703.569	0.0162781
703.647	0.0159576
703.725	0.0158350
703.803	0.0158644
703.881	0.0158024
703.959	0.0155008
704.038	0.0153621
704.116	0.0152622
704.194	0.0151159
704.272	0.0150162
704.350	0.0149563
704.428	0.0149516
704.506	0.0147818
704.584	0.0148161
704.663	0.0148685
704.741	0.0147718
704.819	0.0148637
704.897	0.0147912
704.975	0.0149384
705.053	0.0149261
705.131	0.0149962
705.209	0.0150196
705.288	0.0150972
705.366	0.0152232
705.444	0.0152826
705.522	0.0152352
705.600	0.0153622
705.678	0.0154939
705.756	0.0154530
705.834	0.0154986
705.913	0.0155096
705.991	0.0155095
706.069	0.0155955
706.147	0.0154739
706.225	0.0153477
706.303	0.0153255
706.381	0.0153711
706.459	0.0153836
706.538	0.0153372
706.616	0.0152751
706.694	0.0151292
706.772	0.0150612
706.850	0.0150108
706.928	0.0148108
707.006	0.0149223
707.084	0.0148223
707.163	0.0149246
707.241	0.0148986
707.319	0.0148049
707.397	0.0147233
707.475	0.0147111
707.553	0.0148768
707.631	0.0150249
707.709	0.0151073
707.788	0.0149633
707.866	0.0149951
707.944	0.0152434
708.022	0.0153723
708.100	0.0153806
708.178	0.0153864
708.256	0.0155772
708.334	0.0155896
708.413	0.0156112
708.491	0.0156373
708.569	0.0158419
708.647	0.0158916
708.725	0.0159557
708.803	0.0159332
708.881	0.0159718
708.959	0.0160990
709.038	0.0159059
709.116	0.0158504
709.194	0.0158942
709.272	0.0160239
709.350	0.0159091
709.428	0.0156930
709.506	0.0158158
709.584	0.0157458
709.663	0.0156885
709.741	0.0155748
709.819	0.0155459
709.897	0.0153734
709.975	0.0153786
710.053	0.0154253
710.131	0.0152917
710.209	0.0152831
710.288	0.0152673
710.366	0.0152060
710.444	0.0150798
710.522	0.0150504
710.600	0.0150438
710.678	0.0149756
710.756	0.0148743
710.834	0.0150332
710.913	0.0150255
710.991	0.0149872
711.069	0.0150529
711.147	0.0152113
711.225	0.0151451
711.303	0.0151037
711.381	0.0151672
711.459	0.0153069
711.538	0.0151875
711.616	0.0153051
711.694	0.0154634
711.772	0.0156320
711.850	0.0156062
711.928	0.0156893
712.006	0.0157431
712.084	0.0158743
712.163	0.0158685
712.241	0.0159023
712.319	0.0161606
712.397	0.0162364
712.475	0.0162187
712.553	0.0161545
712.631	0.0161738
712.709	0.0162899
712.788	0.0162285
712.866	0.0161210
712.944	0.0162640
713.022	0.0163191
713.100	0.0161360
713.178	0.0159628
713.256	0.0159821
713.334	0.0158792
713.413	0.0158918
713.491	0.0157155
713.569	0.0157422
713.647	0.0153963
713.725	0.0153228
713.803	0.0153996
713.881	0.0152753
713.959	0.0152990
714.038	0.0152028
714.116	0.0150163
714.194	0.0150045
714.272	0.0149879
714.350	0.0150219
714.428	0.0149666
714.506	0.0149398
714.584	0.0150154
714.663	0.0148902
714.741	0.0149152
714.819	0.0149500
714.897	0.0149585
714.975	0.0149752
715.053	0.0151586
715.131	0.0151894
715.209	0.0151386
715.288	0.0150938
715.366	0.0153007
715.444	0.0153725
715.522	0.0154128
715.600	0.0154981
715.678	0.0154333
715.756	0.0157206
715.834	0.0158802
715.913	0.0158064
715.991	0.0156673
716.069	0.0157109
716.147	0.0157532
716.225	0.0157644
716.303	0.0157790
716.381	0.0157849
716.459	0.0157897
716.538	0.0156825
716.616	0.0157201
716.694	0.0156911
716.772	0.0156103
716.850	0.0157262
716.928	0.0155791
717.006	0.0154152
717.084	0.0154528
717.163	0.0153648
717.241	0.0153739
717.319	0.0151464
717.397	0.0152458
717.475	0.0152519
717.553	0.0152601
717.631	0.0152585
717.709	0.0153232
717.788	0.0152331
717.866	0.0151299
717.944	0.0152339
718.022	0.0154070
718.100	0.0154415
718.178	0.0154395
718.256	0.0153359
718.334	0.0152699
718.413	0.0154256
718.491	0.0152562
718.569	0.0153314
718.647	0.0153139
718.725	0.0153427
718.803	0.0152351
718.881	0.0152805
718.959	0.0152155
719.038	0.0152255
719.116	0.0152121
719.194	0.0150156
719.272	0.0150033
719.350	0.0150205
719.428	0.0148984
719.506	0.0149567
719.584	0.0148846
719.663	0.0148731
719.741	0.0149821
719.819	0.0147134
719.897	0.0146464
719.975	0.0148081
720.053	0.0149088
720.131	0.0147560
720.209	0.0147969
720.288	0.0147579
720.366	0.0148563
720.444	0.0148503
720.522	0.0149599
720.600	0.0150030
720.678	0.0150606
720.756	0.0151932
720.834	0.0152027
720.913	0.0153300
720.991	0.0153691
721.069	0.0154527
721.147	0.0154705
721.225	0.0156555
721.303	0.0157217
721.381	0.0159282
721.459	0.0158889
721.538	0.0159263
721.616	0.0160361
721.694	0.0161003
721.772	0.0162441
721.850	0.0162140
721.928	0.0161907
722.006	0.0161755
722.084	0.0163118
722.163	0.0162045
722.241	0.0161244
722.319	0.0159324
722.397	0.0160764
722.475	0.0160419
722.553	0.0158038
722.631	0.0157170
722.709	0.0157315
722.788	0.0155253
722.866	0.0154955
722.944	0.0153579
723.022	0.0153416
723.100	0.0152324
723.178	0.0152375
723.256	0.0151281
723.334	0.0151039
723.413	0.0152027
723.491	0.0151347
723.569	0.0150066
723.647	0.0151462
723.725	0.0149754
723.803	0.0149397
723.881	0.0151526
723.959	0.0150952
724.038	0.0150343
724.116	0.0150160
724.194	0.0152299
724.272	0.0150880
724.350	0.0152452
724.428	0.0152567
724.506	0.0151608
724.584	0.0151687
724.663	0.0152404
724.741	0.0153213
724.819	0.0153164
724.897	0.0153858
724.975	0.0155770
725.053	0.0155144
725.131	0.0154120
725.209	0.0155508
725.288	0.0156099
725.366	0.0155125
725.444	0.0154815
725.522	0.0155083
725.600	0.0156384
725.678	0.0154916
725.756	0.0153917
725.834	0.0156254
725.913	0.0154489
725.991	0.0154388
726.069	0.0155217
726.147	0.0154501
726.225	0.0153117
726.303	0.0152616
726.381	0.0152705
726.459	0.0152560
726.538	0.0151006
726.616	0.0150645
726.694	0.0150803
726.772	0.0151812
726.850	0.0151688
726.928	0.0152740
727.006	0.0154455
727.084	0.0152374
727.163	0.0154324
727.241	0.0153816
727.319	0.0154420
727.397	0.0156139
727.475	0.0156306
727.553	0.0158457
727.631	0.0157430
727.709	0.0158047
727.788	0.0156559
727.866	0.0157145
727.944	0.0158055
728.022	0.0157851
728.100	0.0157667
728.178	0.0158829
728.256	0.0157243
728.334	0.0157372
728.413	0.0156701
728.491	0.0157968
728.569	0.0158197
728.647	0.0156564
728.725	0.0157195
728.803	0.0158464
728.881	0.0157150
728.959	0.0157363
729.038	0.0156584
729.116	0.0156331
729.194	0.0156009
729.272	0.0156435
729.350	0.0156155
729.428	0.0155453
729.506	0.0154848
729.584	0.0152835
729.663	0.0153541
729.741	0.0150890
729.819	0.0153203
729.897	0.0151134
729.975	0.0150050
730.053	0.0148867
730.131	0.0147926
730.209	0.0150190
730.288	0.0146411
730.366	0.0146972
730.444	0.0146872
730.522	0.0146473
730.600	0.0146873
730.678	0.0145184
730.756	0.0144707
730.834	0.0145975
730.913	0.0145505
730.991	0.0145760
731.069	0.0145566
731.147	0.0145018
731.225	0.0146728
731.303	0.0147181
731.381	0.0146104
731.459	0.0147774
731.538	0.0148245
731.616	0.0148920
731.694	0.0150871
731.772	0.0152261
731.850	0.0152856
731.928	0.0154237
732.006	0.0155017
732.084	0.0154939
732.163	0.0158195
732.241	0.0158242
732.319	0.0158740
732.397	0.0160732
732.475	0.0161240
732.553	0.0160033
732.631	0.0161171
732.709	0.0161816
732.788	0.0162832
732.866	0.0161926
732.944	0.0161759
733.022	0.0163202
733.100	0.0160492
733.178	0.0161526
733.256	0.0161448
733.334	0.0159435
733.413	0.0159042
733.491	0.0159138
733.569	0.0157832
733.647	0.0156968
733.725	0.0156329
733.803	0.0155316
733.881	0.0154922
733.959	0.0153860
734.038	0.0152190
734.116	0.0151465
734.194	0.0150693
734.272	0.0151650
734.350	0.0151179
734.428	0.0150266
734.506	0.0150102
734.584	0.0150423
734.663	0.0148771
734.741	0.0149694
734.819	0.0151613
734.897	0.0150257
734.975	0.0150937
735.053	0.0151917
735.131	0.0150919
735.209	0.0152982
735.288	0.0153033
735.366	0.0153101
735.444	0.0154655
735.522	0.0153817
735.600	0.0153942
735.678	0.0154710
735.756	0.0155315
735.834	0.0156438
735.913	0.0156535
735.991	0.0155012
736.069	0.0155949
736.147	0.0156021
736.225	0.0156015
736.303	0.0155029
736.381	0.0155164
736.459	0.0154691
736.538	0.0154570
736.616	0.0153654
736.694	0.0154871
736.772	0.0155187
736.850	0.0153900
736.928	0.0154050
737.006	0.0152485
737.084	0.0152390
737.163	0.0153364
737.241	0.0152594
737.319	0.0152869
737.397	0.0152205
737.475	0.0153166
737.553	0.0153670
737.631	0.0153732
737.709	0.0153083
737.788	0.0154519
737.866	0.0153778
737.944	0.0155143
738.022	0.0155597
738.100	0.0155549
738.178	0.0155953
738.256	0.0156154
738.334	0.0155573
738.413	0.0156730
738.491	0.0158138
738.569	0.0156921
738.647	0.0158052
738.725	0.0157981
738.803	0.0159395
738.881	0.0158474
738.959	0.0158636
739.038	0.0157703
739.116	0.0159004
739.194	0.0158347
739.272	0.0157195
739.350	0.0158329
739.428	0.0157238
739.506	0.0159011
739.584	0.0156453
739.663	0.0155965
739.741	0.0156091
739.819	0.0154816
739.897	0.0155986
739.975	0.0155424
740.053	0.0156042
740.131	0.0154438
740.209	0.0154081
740.288	0.0153313
740.366	0.0153613
740.444	0.0152602
740.522	0.0153397
740.600	0.0152084
740.678	0.0150404
740.756	0.0150164
740.834	0.0149393
740.913	0.0148898
740.991	0.0149583
741.069	0.0150250
741.147	0.0147988
741.225	0.0148001
741.303	0.0149619
741.381	0.0149139
741.459	0.0150773
741.538	0.0151872
741.616	0.0150397
741.694	0.0150682
741.772	0.0150695
741.850	0.0151056
741.928	0.0152151
742.006	0.0152077
742.084	0.0151789
742.163	0.0151903
742.241	0.0152050
742.319	0.0151656
742.397	0.0151878
742.475	0.0153062
742.553	0.0151672
742.631	0.0153143
742.709	0.0152856
742.788	0.0154359
742.866	0.0153973
742.944	0.0153638
743.022	0.0153426
743.100	0.0155424
743.178	0.0154710
743.256	0.0156599
743.334	0.0156353
743.413	0.0156156
743.491	0.0155301
743.569	0.0155406
743.647	0.0156229
743.725	0.0155282
743.803	0.0155301
743.881	0.0156658
743.959	0.0154913
744.038	0.0154079
744.116	0.0155047
744.194	0.0152463
744.272	0.0152267
744.350	0.0151180
744.428	0.0151206
744.506	0.0149952
744.584	0.0149204
744.663	0.0149394
744.741	0.0146901
744.819	0.0146021
744.897	0.0145412
744.975	0.0145557
745.053	0.0146520
745.131	0.0144788
745.209	0.0146537
745.288	0.0146491
745.366	0.0146561
745.444	0.0148164
745.522	0.0148884
745.600	0.0150008
745.678	0.0150034
745.756	0.0151873
745.834	0.0154337
745.913	0.0154807
745.991	0.0156928
746.069	0.0158121
746.147	0.0158204
746.225	0.0158113
746.303	0.0159021
746.381	0.0159814
746.459	0.0159885
746.538	0.0159711
746.616	0.0157720
746.694	0.0156980
746.772	0.0156052
746.850	0.0155582
746.928	0.0155383
747.006	0.0154439
747.084	0.0155306
747.163	0.0153175
747.241	0.0154060
747.319	0.0153603
747.397	0.0153048
747.475	0.0153531
747.553	0.0153696
747.631	0.0153194
747.709	0.0155080
747.788	0.0154515
747.866	0.0155371
747.944	0.0155893
748.022	0.0157284
748.100	0.0156570
748.178	0.0156557
748.256	0.0158863
748.334	0.0158670
748.413	0.0160480
748.491	0.0160382
748.569	0.0158203
748.647	0.0157875
748.725	0.0158203
748.803	0.0157133
748.881	0.0157233
748.959	0.0157162
749.038	0.0155253
749.116	0.0155126
749.194	0.0153760
749.272	0.0154426
749.350	0.0150033
749.428	0.0149689
749.506	0.0148454
749.584	0.0147742
749.663	0.0147212
749.741	0.0146554
749.819	0.0144335
749.897	0.0144482
749.975	0.0143338
750.053	0.0145542
750.131	0.0145843
750.209	0.0145251
750.288	0.0147273
750.366	0.0147916
750.444	0.0149704
750.522	0.0151919
750.600	0.0153410
750.678	0.0153935
750.756	0.0154235
750.834	0.0154859
750.913	0.0157142
750.991	0.0158726
751.069	0.0158023
751.147	0.0159039
751.225	0.0159478
751.303	0.0158883
751.381	0.0158706
751.459	0.0157782
751.538	0.0157031
751.616	0.0156355
751.694	0.0155830
751.772	0.0153336
751.850	0.0151472
751.928	0.0151653
752.006	0.0149572
752.084	0.0147688
752.163	0.0146754
752.241	0.0145978
752.319	0.0145064
752.397	0.0145947
752.475	0.0144159
752.553	0.0145219
752.631	0.0146284
752.709	0.0147357
752.788	0.0145447
752.866	0.0146616
752.944	0.0147881
753.022	0.0149686
753.100	0.0151780
753.178	0.0151424
753.256	0.0152138
753.334	0.0154819
753.413	0.0156523
753.491	0.0157626
753.569	0.0157043
753.647	0.0158928
753.725	0.0160069
753.803	0.0160101
753.881	0.0159957
753.959	0.0159934
754.038	0.0160649
754.116	0.0159929
754.194	0.0158884
754.272	0.0159298
754.350	0.0159538
754.428	0.0160010
754.506	0.0160345
754.584	0.0160397
754.663	0.0158042
754.741	0.0158184
754.819	0.0157159
754.897	0.0157392
754.975	0.0155621
755.053	0.0155364
755.131	0.0155651
755.209	0.0155207
755.288	0.0154436
755.366	0.0153220
755.444	0.0152788
755.522	0.0153816
755.600	0.0152198
755.678	0.0151330
755.756	0.0151065
755.834	0.0151703
755.913	0.0150446
755.991	0.0148506
756.069	0.0150352
756.147	0.0148802
756.225	0.0148858
756.303	0.0149036
756.381	0.0149180
756.459	0.0149062
756.538	0.0149707
756.616	0.0152398
756.694	0.0152191
756.772	0.0152222
756.850	0.0153898
756.928	0.0156177
757.006	0.0156859
757.084	0.0157681
757.163	0.0157919
757.241	0.0161335
757.319	0.0160209
757.397	0.0160812
757.475	0.0162573
757.553	0.0162788
757.631	0.0161655
757.709	0.0160944
757.788	0.0160074
757.866	0.0157920
757.944	0.0157565
758.022	0.0156676
758.100	0.0155501
758.178	0.0154391
758.256	0.0150993
758.334	0.0150027
758.413	0.0148729
758.491	0.0149491
758.569	0.0147528
758.647	0.0147795
758.725	0.0146758
758.803	0.0145683
758.881	0.0147283
758.959	0.0148340
759.038	0.0146904
759.116	0.0147157
759.194	0.0149310
759.272	0.0149586
759.350	0.0151553
759.428	0.0153027
759.506	0.0153658
759.584	0.0154804
759.663	0.0156564
759.741	0.0157191
759.819	0.0158182
759.897	0.0158856
759.975	0.0160989
760.053	0.0160009
760.131	0.0160217
760.209	0.0160238
760.288	0.0160187
760.366	0.0159605
760.444	0.0159315
760.522	0.0159068
760.600	0.0159408
760.678	0.0157742
760.756	0.0157639
760.834	0.0156799
760.913	0.0157292
760.991	0.0156738
761.069	0.0154805
761.147	0.0154410
761.225	0.0156320
761.303	0.0155273
761.381	0.0154887
761.459	0.0153619
761.538	0.0154774
761.616	0.0155849
761.694	0.0153271
761.772	0.0154821
761.850	0.0153915
761.928	0.0155573
762.006	0.0155312
762.084	0.0154386
762.163	0.0154556
762.241	0.0154389
762.319	0.0153721
762.397	0.0155082
762.475	0.0153242
762.553	0.0154676
762.631	0.0155685
762.709	0.0153875
762.788	0.0154604
762.866	0.0154476
762.944	0.0154392
763.022	0.0154697
763.100	0.0156662
763.178	0.0155372
763.256	0.0156800
763.334	0.0156666
763.413	0.0157458
763.491	0.0156836
763.569	0.0156680
763.647	0.0157096
763.725	0.0155118
763.803	0.0154474
763.881	0.0154384
763.959	0.0152435
764.038	0.0151354
764.116	0.0152031
764.194	0.0149082
764.272	0.0148469
764.350	0.0147263
764.428	0.0146317
764.506	0.0144889
764.584	0.0144266
764.663	0.0144324
764.741	0.0144409
764.819	0.0143139
764.897	0.0144917
764.975	0.0143517
765.053	0.0143319
765.131	0.0145823
765.209	0.0147051
765.288	0.0146979
765.366	0.0146806
765.444	0.0149416
765.522	0.0150649
765.600	0.0151788
765.678	0.0154731
765.756	0.0155051
765.834	0.0157245
765.913	0.0156565
765.991	0.0160189
766.069	0.0161408
766.147	0.0162200
766.225	0.0163203
766.303	0.0162718
766.381	0.0162461
766.459	0.0161263
766.538	0.0161761
766.616	0.0161470
766.694	0.0160217
766.772	0.0159655
766.850	0.0159282
766.928	0.0157948
767.006	0.0155544
767.084	0.0155199
767.163	0.0156136
767.241	0.0152065
767.319	0.0152135
767.397	0.0151499
767.475	0.0149828
767.553	0.0149406
767.631	0.0149980
767.709	0.0147932
767.788	0.0147569
767.866	0.0146804
767.944	0.0148692
768.022	0.0148385
768.100	0.0147291
768.178	0.0147047
768.256	0.0149037
768.334	0.0149892
768.413	0.0149248
768.491	0.0151062
768.569	0.0151231
768.647	0.0152833
768.725	0.0153699
768.803	0.0153636
768.881	0.0155578
768.959	0.0156837
769.038	0.0157675
769.116	0.0159206
769.194	0.0161079
769.272	0.0161087
769.350	0.0162180
769.428	0.0163179
769.506	0.0161432
769.584	0.0160955
769.663	0.0162058
769.741	0.0163131
769.819	0.0158823
769.897	0.0159125
769.975	0.0159322
770.053	0.0157898
770.131	0.0156070
770.209	0.0154556
770.288	0.0153535
770.366	0.0152514
770.444	0.0151038
770.522	0.0148504
770.600	0.0147660
770.678	0.0147710
770.756	0.0145889
770.834	0.0146336
770.913	0.0145639
770.991	0.0145190
771.069	0.0144849
771.147	0.0144794
771.225	0.0144181
771.303	0.0144484
771.381	0.0145451
771.459	0.0146962
771.538	0.0147405
771.616	0.0147559
771.694	0.0150181
771.772	0.0151053
771.850	0.0151997
771.928	0.0153570
772.006	0.0155446
772.084	0.0156372
772.163	0.0159021
772.241	0.0160196
772.319	0.0161104
772.397	0.0162433
772.475	0.0163615
772.553	0.0164811
772.631	0.0164243
772.709	0.0166354
772.788	0.0164774
772.866	0.0165171
772.944	0.0164803
773.022	0.0163588
773.100	0.0161562
773.178	0.0162082
773.256	0.0158695
773.334	0.0155812
773.413	0.0154280
773.491	0.0152599
773.569	0.0150188
773.647	0.0149220
773.725	0.0147649
773.803	0.0146529
773.881	0.0145609
773.959	0.0145633
774.038	0.0145093
774.116	0.0146569
774.194	0.0145470
774.272	0.0145802
774.350	0.0147091
774.428	0.0147110
774.506	0.0148235
774.584	0.0147549
774.663	0.0151340
774.741	0.0150745
774.819	0.0151659
774.897	0.0150822
774.975	0.0153090
775.053	0.0154561
775.131	0.0154452
775.209	0.0154837
775.288	0.0156535
775.366	0.0155022
775.444	0.0154276
775.522	0.0155420
775.600	0.0156255
775.678	0.0157261
775.756	0.0157247
775.834	0.0158073
775.913	0.0156744
775.991	0.0156946
776.069	0.0158858
776.147	0.0157450
776.225	0.0157317
776.303	0.0158899
776.381	0.0157573
776.459	0.0157426
776.538	0.0157731
776.616	0.0158089
776.694	0.0157739
776.772	0.0156953
776.850	0.0158207
776.928	0.0156514
777.006	0.0159002
777.084	0.0157291
777.163	0.0158410
777.241	0.0158139
777.319	0.0157712
777.397	0.0156883
777.475	0.0158282
777.553	0.0157051
777.631	0.0156227
777.709	0.0156689
777.788	0.0156027
777.866	0.0157233
777.944	0.0153538
778.022	0.0153665
778.100	0.0153751
778.178	0.0154707
778.256	0.0151851
778.334	0.0152009
778.413	0.0151492
778.491	0.0151719
778.569	0.0151672
778.647	0.0151623
778.725	0.0150432
778.803	0.0152824
778.881	0.0151388
778.959	0.0151085
779.038	0.0152071
779.116	0.0151566
779.194	0.0150476
779.272	0.0152833
779.350	0.0153447
779.428	0.0152392
779.506	0.0152947
779.584	0.0154559
779.663	0.0154834
779.741	0.0155306
779.819	0.0155445
779.897	0.0154739
779.975	0.0156489
780.053	0.0157932
780.131	0.0156725
780.209	0.0156673
780.288	0.0157481
780.366	0.0158854
780.444	0.0158607
780.522	0.0157122
780.600	0.0157391
780.678	0.0157388
780.756	0.0157155
780.834	0.0158519
780.913	0.0156345
780.991	0.0156601
781.069	0.0157578
781.147	0.0156515
781.225	0.0155698
781.303	0.0155755
781.381	0.0154516
781.459	0.0152525
781.538	0.0154430
781.616	0.0155084
781.694	0.0152882
781.772	0.0152690
781.850	0.0152225
781.928	0.0153201
782.006	0.0152705
782.084	0.0151617
782.163	0.0151292
782.241	0.0150938
782.319	0.0150462
782.397	0.0150745
782.475	0.0149705
782.553	0.0149510
782.631	0.0148972
782.709	0.0150352
782.788	0.0148863
782.866	0.0149377
782.944	0.0148399
783.022	0.0148631
783.100	0.0150133
783.178	0.0148602
783.256	0.0148580
783.334	0.0148680
783.413	0.0148637
783.491	0.0149107
783.569	0.0148499
783.647	0.0149466
783.725	0.0148806
783.803	0.0148693
783.881	0.0149414
783.959	0.0149288
784.038	0.0147406
784.116	0.0148112
784.194	0.0150267
784.272	0.0150304
784.350	0.0149316
784.428	0.0148730
784.506	0.0150507
784.584	0.0150332
784.663	0.0150009
784.741	0.0149648
784.819	0.0150440
784.897	0.0152930
784.975	0.0153199
785.053	0.0152742
785.131	0.0153691
785.209	0.0155424
785.288	0.0156883
785.366	0.0156446
785.444	0.0155656
785.522	0.0158337
785.600	0.0157468
785.678	0.0156527
785.756	0.0158032
785.834	0.0159424
785.913	0.0158145
785.991	0.0157269
786.069	0.0158752
786.147	0.0157663
786.225	0.0157040
786.303	0.0156498
786.381	0.0157906
786.459	0.0155566
786.538	0.0154864
786.616	0.0155440
786.694	0.0154960
786.772	0.0153783
786.850	0.0154575
786.928	0.0152515
787.006	0.0154291
787.084	0.0155597
787.163	0.0154209
787.241	0.0152354
787.319	0.0151564
787.397	0.0154517
787.475	0.0152936
787.553	0.0151896
787.631	0.0153860
787.709	0.0152671
787.788	0.0152485
787.866	0.0153096
787.944	0.0152012
788.022	0.0152917
788.100	0.0153303
788.178	0.0153711
788.256	0.0153101
788.334	0.0151582
788.413	0.0153719
788.491	0.0154642
788.569	0.0153426
788.647	0.0152942
788.725	0.0153215
788.803	0.0153536
788.881	0.0152575
788.959	0.0153118
789.038	0.0153449
789.116	0.0152831
789.194	0.0155097
789.272	0.0154722
789.350	0.0154913
789.428	0.0154934
789.506	0.0154810
789.584	0.0155589
789.663	0.0153880
789.741	0.0156595
789.819	0.0156476
789.897	0.0155839
789.975	0.0155721
790.053	0.0156565
790.131	0.0155884
790.209	0.0155910
790.288	0.0156582
790.366	0.0157745
790.444	0.0156633
790.522	0.0156756
790.600	0.0158120
790.678	0.0157410
790.756	0.0157767
790.834	0.0158270
790.913	0.0158982
790.991	0.0157755
791.069	0.0157211
791.147	0.0157689
791.225	0.0158797
791.303	0.0157373
791.381	0.0155927
791.459	0.0156503
791.538	0.0155988
791.616	0.0155586
791.694	0.0155177
791.772	0.0154803
791.850	0.0153065
791.928	0.0152432
792.006	0.0152062
792.084	0.0152299
792.163	0.0152307
792.241	0.0152431
792.319	0.0150997
792.397	0.0150476
792.475	0.0150249
792.553	0.0150082
792.631	0.0150697
792.709	0.0151250
792.788	0.0151686
792.866	0.0151585
792.944	0.0152437
793.022	0.0153104
793.100	0.0153064
793.178	0.0152816
793.256	0.0152137
793.334	0.0153607
793.413	0.0152859
793.491	0.0153117
793.569	0.0154630
793.647	0.0153103
793.725	0.0153662
793.803	0.0152426
793.881	0.0150861
793.959	0.0152981
794.038	0.0153635
794.116	0.0154694
794.194	0.0154922
794.272	0.0153913
794.350	0.0153872
794.428	0.0155518
794.506	0.0155994
794.584	0.0155013
794.663	0.0156191
794.741	0.0156916
794.819	0.0156073
794.897	0.0157590
794.975	0.0157304
795.053	0.0157003
795.131	0.0157778
795.209	0.0158036
795.288	0.0155911
795.366	0.0156293
795.444	0.0156179
795.522	0.0156963
795.600	0.0156877
795.678	0.0156728
795.756	0.0156283
795.834	0.0156682
795.913	0.0157433
795.991	0.0156686
796.069	0.0158008
796.147	0.0156873
796.225	0.0156294
796.303	0.0157127
796.381	0.0156646
796.459	0.0155598
796.538	0.0155285
796.616	0.0154814
796.694	0.0154739
796.772	0.0153799
796.850	0.0154344
796.928	0.0153481
797.006	0.0154298
797.084	0.0153170
797.163	0.0153122
797.241	0.0152499
797.319	0.0151614
797.397	0.0151540
797.475	0.0150799
797.553	0.0149916
797.631	0.0149387
797.709	0.0149340
797.788	0.0149683
797.866	0.0147645
797.944	0.0149709
798.022	0.0149817
798.100	0.0148631
798.178	0.0149456
798.256	0.0149470
798.334	0.0148978
798.413	0.0149640
798.491	0.0150322
798.569	0.0150952
798.647	0.0151835
798.725	0.0152969
798.803	0.0152158
798.881	0.0153693
798.959	0.0153092
799.038	0.0152602
799.116	0.0154234
799.194	0.0153387
799.272	0.0153415
799.350	0.0153307
799.428	0.0153999
799.506	0.0156413
799.584	0.0156707
799.663	0.0154462
799.741	0.0156013
799.819	0.0154790
799.897	0.0154276
799.975	0.0155592
800.053	0.0156117
800.131	0.0156420
800.209	0.0155045
800.288	0.0155190
800.366	0.0154102
800.444	0.0154237
800.522	0.0154253
800.600	0.0153666
800.678	0.0153600
800.756	0.0153011
800.834	0.0153388
800.913	0.0153618
800.991	0.0151378
801.069	0.0151350
801.147	0.0152381
801.225	0.0151472
801.303	0.0150874
801.381	0.0152205
801.459	0.0152629
801.538	0.0153296
801.616	0.0153011
801.694	0.0152821
801.772	0.0154554
801.850	0.0154739
801.928	0.0154474
802.006	0.0155576
802.084	0.0156155
802.163	0.0156057
802.241	0.0154899
802.319	0.0156615
802.397	0.0157124
802.475	0.0156028
802.553	0.0156555
802.631	0.0157129
802.709	0.0157449
802.788	0.0158286
802.866	0.0158868
802.944	0.0158410
803.022	0.0157244
803.100	0.0157192
803.178	0.0157856
803.256	0.0157054
803.334	0.0157927
803.413	0.0158398
803.491	0.0157464
803.569	0.0157893
803.647	0.0157164
803.725	0.0157120
803.803	0.0156124
803.881	0.0156856
803.959	0.0154504
804.038	0.0155721
804.116	0.0156280
804.194	0.0153910
804.272	0.0154423
804.350	0.0154331
804.428	0.0155154
804.506	0.0153751
804.584	0.0153807
804.663	0.0152744
804.741	0.0154087
804.819	0.0153767
804.897	0.0153539
804.975	0.0154784
805.053	0.0152251
805.131	0.0153197
805.209	0.0153373
805.288	0.0152336
805.366	0.0153019
805.444	0.0152179
805.522	0.0153780
805.600	0.0153506
805.678	0.0153635
805.756	0.0154472
805.834	0.0154402
805.913	0.0155004
805.991	0.0154070
806.069	0.0154247
806.147	0.0154152
806.225	0.0154803
806.303	0.0154517
806.381	0.0154607
806.459	0.0153627
806.538	0.0153432
806.616	0.0153360
806.694	0.0153175
806.772	0.0154091
806.850	0.0153989
806.928	0.0152835
807.006	0.0152481
807.084	0.0152469
807.163	0.0152653
807.241	0.0151806
807.319	0.0151985
807.397	0.0151494
807.475	0.0152052
807.553	0.0154234
807.631	0.0153954
807.709	0.0154007
807.788	0.0154072
807.866	0.0152650
807.944	0.0154115
808.022	0.0154256
808.100	0.0154739
808.178	0.0154231
808.256	0.0153231
808.334	0.0154007
808.413	0.0152608
808.491	0.0153919
808.569	0.0153240
808.647	0.0152657
808.725	0.0152858
808.803	0.0152911
808.881	0.0151303
808.959	0.0151985
809.038	0.0152045
809.116	0.0149889
809.194	0.0150761
809.272	0.0150235
809.350	0.0151662
809.428	0.0151637
809.506	0.0151682
809.584	0.0152821
809.663	0.0151092
809.741	0.0151084
809.819	0.0150531
809.897	0.0151844
809.975	0.0152425
810.053	0.0152098
810.131	0.0152495
810.209	0.0152429
810.288	0.0151816
810.366	0.0151537
810.444	0.0152095
810.522	0.0153593
810.600	0.0152524
810.678	0.0152219
810.756	0.0152617
810.834	0.0152898
810.913	0.0153675
810.991	0.0153079
811.069	0.0152310
811.147	0.0153680
811.225	0.0153613
811.303	0.0153792
811.381	0.0153133
811.459	0.0154291
811.538	0.0154966
811.616	0.0154381
811.694	0.0154875
811.772	0.0154188
811.850	0.0154340
811.928	0.0153776
812.006	0.0155599
812.084	0.0154291
812.163	0.0154750
812.241	0.0155547
812.319	0.0155781
812.397	0.0155088
812.475	0.0155809
812.553	0.0154826
812.631	0.0154522
812.709	0.0155473
812.788	0.0154807
812.866	0.0155428
812.944	0.0154297
813.022	0.0154707
813.100	0.0154218
813.178	0.0154939
813.256	0.0154879
813.334	0.0154750
813.413	0.0155212
813.491	0.0156861
813.569	0.0156053
813.647	0.0155222
813.725	0.0155387
813.803	0.0156052
813.881	0.0154716
813.959	0.0155530
814.038	0.0155274
814.116	0.0155199
814.194	0.0155854
814.272	0.0156535
814.350	0.0157154
814.428	0.0157134
814.506	0.0157140
814.584	0.0157236
814.663	0.0155945
814.741	0.0158047
814.819	0.0156741
814.897	0.0155487
814.975	0.0157200
815.053	0.0156743
815.131	0.0156821
815.209	0.0157136
815.288	0.0156327
815.366	0.0156834
815.444	0.0155669
815.522	0.0157261
815.600	0.0155301
815.678	0.0154784
815.756	0.0155360
815.834	0.0154454
815.913	0.0153648
815.991	0.0153316
816.069	0.0154633
816.147	0.0152531
816.225	0.0153334
816.303	0.0154048
816.381	0.0153591
816.459	0.0153394
816.538	0.0152647
816.616	0.0153503
816.694	0.0152676
816.772	0.0152544
816.850	0.0153077
816.928	0.0153907
817.006	0.0153186
817.084	0.0153312
817.163	0.0153715
817.241	0.0153957
817.319	0.0153879
817.397	0.0153606
817.475	0.0153875
817.553	0.0155571
817.631	0.0154214
817.709	0.0153848
817.788	0.0153783
817.866	0.0154373
817.944	0.0154321
818.022	0.0154441
818.100	0.0155581
818.178	0.0154462
818.256	0.0153956
818.334	0.0154398
818.413	0.0155193
818.491	0.0155166
818.569	0.0154440
818.647	0.0154669
818.725	0.0152836
818.803	0.0153609
818.881	0.0153861
818.959	0.0155054
819.038	0.0153976
819.116	0.0155887
819.194	0.0154707
819.272	0.0153739
819.350	0.0153671
819.428	0.0154761
819.506	0.0153835
819.584	0.0154076
819.663	0.0154414
819.741	0.0152512
819.819	0.0153854
819.897	0.0152630
819.975	0.0152036
820.053	0.0154617
820.131	0.0153236
820.209	0.0152867
820.288	0.0151849
820.366	0.0152258
820.444	0.0151866
820.522	0.0152035
820.600	0.0151624
820.678	0.0150946
820.756	0.0151266
820.834	0.0151476
820.913	0.0151672
820.991	0.0151379
821.069	0.0151904
821.147	0.0151357
821.225	0.0151620
821.303	0.0150438
821.381	0.0149973
821.459	0.0151135
821.538	0.0151980
821.616	0.0151664
821.694	0.0152010
821.772	0.0151582
821.850	0.0151678
821.928	0.0153384
822.006	0.0154128
822.084	0.0152209
822.163	0.0151788
822.241	0.0154382
822.319	0.0154375
822.397	0.0154364
822.475	0.0153148
822.553	0.0153945
822.631	0.0155163
822.709	0.0154615
822.788	0.0155107
822.866	0.0154102
822.944	0.0154944
823.022	0.0154267
823.100	0.0154292
823.178	0.0155499
823.256	0.0155853
823.334	0.0155064
823.413	0.0155370
823.491	0.0154571
823.569	0.0154755
823.647	0.0154077
823.725	0.0153815
823.803	0.0155725
823.881	0.0153185
823.959	0.0154450
824.038	0.0153958
824.116	0.0153273
824.194	0.0154791
824.272	0.0155163
824.350	0.0153255
824.428	0.0155260
824.506	0.0153754
824.584	0.0153101
824.663	0.0152528
824.741	0.0155357
824.819	0.0154596
824.897	0.0152590
824.975	0.0155502
825.053	0.0154787
825.131	0.0155537
825.209	0.0154308
825.288	0.0154375
825.366	0.0154790
825.444	0.0155695
825.522	0.0154557
825.600	0.0154845
825.678	0.0153981
825.756	0.0153560
825.834	0.0154009
825.913	0.0153179
825.991	0.0153074
826.069	0.0153221
826.147	0.0153168
826.225	0.0153162
826.303	0.0152213
826.381	0.0152333
826.459	0.0152374
826.538	0.0152184
826.616	0.0152650
826.694	0.0152159
826.772	0.0151786
826.850	0.0152800
826.928	0.0152101
827.006	0.0153100
827.084	0.0153091
827.163	0.0152354
827.241	0.0152869
827.319	0.0153864
827.397	0.0154689
827.475	0.0153849
827.553	0.0154408
827.631	0.0153502
827.709	0.0153915
827.788	0.0155199
827.866	0.0154822
827.944	0.0154321
828.022	0.0154015
828.100	0.0152700
828.178	0.0153651
828.256	0.0153873
828.334	0.0153477
828.413	0.0152711
828.491	0.0154102
828.569	0.0153793
828.647	0.0154781
828.725	0.0154264
828.803	0.0153801
828.881	0.0154894
828.959	0.0154437
829.038	0.0154312
829.116	0.0154988
829.194	0.0155825
829.272	0.0155416
829.350	0.0155768
829.428	0.0156419
829.506	0.0156912
829.584	0.0156476
829.663	0.0156169
829.741	0.0155145
829.819	0.0154925
829.897	0.0155872
829.975	0.0154031
830.053	0.0155074
830.131	0.0153558
830.209	0.0155280
830.288	0.0154121
830.366	0.0153024
830.444	0.0152422
830.522	0.0153231
830.600	0.0153726
830.678	0.0152428
830.756	0.0151881
830.834	0.0151760
830.913	0.0151943
830.991	0.0152943
831.069	0.0151620
831.147	0.0151648
831.225	0.0152654
831.303	0.0153165
831.381	0.0151835
831.459	0.0153422
831.538	0.0152397
831.616	0.0153725
831.694	0.0152656
831.772	0.0152442
831.850	0.0153914
831.928	0.0153855
832.006	0.0154256
832.084	0.0152627
832.163	0.0153655
832.241	0.0153781
832.319	0.0155148
832.397	0.0153967
832.475	0.0152753
832.553	0.0154341
832.631	0.0154618
832.709	0.0154237
832.788	0.0154274
832.866	0.0154089
832.944	0.0154152
833.022	0.0153790
833.100	0.0155218
833.178	0.0155264
833.256	0.0155309
833.334	0.0154168
833.413	0.0153994
833.491	0.0155210
833.569	0.0154314
833.647	0.0154241
833.725	0.0153111
833.803	0.0154266
833.881	0.0154809
833.959	0.0154842
834.038	0.0153999
834.116	0.0153553
834.194	0.0154889
834.272	0.0153369
834.350	0.0153295
834.428	0.0153896
834.506	0.0154285
834.584	0.0153301
834.663	0.0153809
834.741	0.0153332
834.819	0.0153355
834.897	0.0153401
834.975	0.0153849
835.053	0.0154351
835.131	0.0153868
835.209	0.0155305
835.288	0.0153944
835.366	0.0153478
835.444	0.0155350
835.522	0.0154630
835.600	0.0154343
835.678	0.0154996
835.756	0.0155642
835.834	0.0156888
835.913	0.0155754
835.991	0.0154669
836.069	0.0156030
836.147	0.0156144
836.225	0.0157316
836.303	0.0156178
836.381	0.0155531
836.459	0.0154678
836.538	0.0154816
836.616	0.0155481
836.694	0.0156148
836.772	0.0154167
836.850	0.0152996
836.928	0.0154591
837.006	0.0154362
837.084	0.0154414
837.163	0.0152997
837.241	0.0151617
837.319	0.0152987
837.397	0.0151805
837.475	0.0152589
837.553	0.0153578
837.631	0.0152826
837.709	0.0153837
837.788	0.0153584
837.866	0.0153563
837.944	0.0154167
838.022	0.0153955
838.100	0.0154420
838.178	0.0154064
838.256	0.0153146
838.334	0.0155087
838.413	0.0153555
838.491	0.0153229
838.569	0.0154227
838.647	0.0154390
838.725	0.0154379
838.803	0.0154840
838.881	0.0156734
838.959	0.0156253
839.038	0.0155187
839.116	0.0154850
839.194	0.0155292
839.272	0.0156723
839.350	0.0156020
839.428	0.0155254
839.506	0.0157379
839.584	0.0155627
839.663	0.0155759
839.741	0.0156702
839.819	0.0155672
839.897	0.0154714
839.975	0.0155519
840.053	0.0155338
840.131	0.0154744
840.209	0.0155212
840.288	0.0155388
840.366	0.0155307
840.444	0.0154775
840.522	0.0154045
840.600	0.0154851
840.678	0.0155307
840.756	0.0153951
840.834	0.0154197
840.913	0.0154713
840.991	0.0154686
841.069	0.0153428
841.147	0.0152329
841.225	0.0152518
841.303	0.0152542
841.381	0.0152728
841.459	0.0153316
841.538	0.0152569
841.616	0.0151807
841.694	0.0151746
841.772	0.0153062
841.850	0.0153217
841.928	0.0152292
842.006	0.0153745
842.084	0.0152579
842.163	0.0152882
842.241	0.0152425
842.319	0.0151373
842.397	0.0153870
842.475	0.0153671
842.553	0.0153119
842.631	0.0154076
842.709	0.0153789
842.788	0.0152865
842.866	0.0153631
842.944	0.0153443
843.022	0.0153313
843.100	0.0152934
843.178	0.0152828
843.256	0.0152595
843.334	0.0153912
843.413	0.0153012
843.491	0.0152014
843.569	0.0152163
843.647	0.0152544
843.725	0.0153087
843.803	0.0153229
843.881	0.0152791
843.959	0.0151639
844.038	0.0152666
844.116	0.0154255
844.194	0.0154301
844.272	0.0153008
844.350	0.0154046
844.428	0.0154627
844.506	0.0155389
844.584	0.0156033
844.663	0.0155802
844.741	0.0154491
844.819	0.0154942
844.897	0.0155083
844.975	0.0154430
845.053	0.0154564
845.131	0.0154896
845.209	0.0154048
845.288	0.0152620
845.366	0.0153731
845.444	0.0153926
845.522	0.0153879
845.600	0.0153178
845.678	0.0153554
845.756	0.0151660
845.834	0.0153204
845.913	0.0153685
845.991	0.0153463
846.069	0.0153477
846.147	0.0153698
846.225	0.0153928
846.303	0.0153318
846.381	0.0153140
846.459	0.0152215
846.538	0.0152459
846.616	0.0153294
846.694	0.0152100
846.772	0.0153179
846.850	0.0153408
846.928	0.0152670
847.006	0.0152708
847.084	0.0152755
847.163	0.0152574
847.241	0.0151662
847.319	0.0152972
847.397	0.0153344
847.475	0.0152859
847.553	0.0152744
847.631	0.0152477
847.709	0.0152261
847.788	0.0154202
847.866	0.0154555
847.944	0.0153779
848.022	0.0154852
848.100	0.0155711
848.178	0.0156011
848.256	0.0154440
848.334	0.0155283
848.413	0.0156480
848.491	0.0155924
848.569	0.0154124
848.647	0.0155901
848.725	0.0156034
848.803	0.0156450
848.881	0.0155686
848.959	0.0156644
849.038	0.0156248
849.116	0.0156012
849.194	0.0157397
849.272	0.0155857
849.350	0.0155728
849.428	0.0156272
849.506	0.0155418
849.584	0.0156448
849.663	0.0155328
849.741	0.0154511
849.819	0.0154453
849.897	0.0154460
849.975	0.0153930
850.053	0.0153703
850.131	0.0153486
850.209	0.0153315
850.288	0.0152666
850.366	0.0151346
850.444	0.0154668
850.522	0.0152282
850.600	0.0152090
850.678	0.0153309
850.756	0.0153423
850.834	0.0152771
850.913	0.0153450
850.991	0.0153088
851.069	0.0152821
851.147	0.0153993
851.225	0.0154384
851.303	0.0153672
851.381	0.0153391
851.459	0.0152068
851.538	0.0152876
851.616	0.0153113
851.694	0.0152995
851.772	0.0154192
851.850	0.0154958
851.928	0.0154189
852.006	0.0153708
852.084	0.0153944
852.163	0.0154385
852.241	0.0152963
852.319	0.0153443
852.397	0.0153429
852.475	0.0151875
852.553	0.0153011
852.631	0.0153296
852.709	0.0151359
852.788	0.0151588
852.866	0.0151994
852.944	0.0152415
853.022	0.0150950
853.100	0.0152578
853.178	0.0153612
853.256	0.0152750
853.334	0.0150967
853.413	0.0151714
853.491	0.0153354
853.569	0.0155140
853.647	0.0154532
853.725	0.0153385
853.803	0.0153311
853.881	0.0154673
853.959	0.0155817
854.038	0.0154818
854.116	0.0155020
854.194	0.0154916
854.272	0.0154330
854.350	0.0154772
854.428	0.0153956
854.506	0.0155285
854.584	0.0155685
854.663	0.0155862
854.741	0.0155540
854.819	0.0154382
854.897	0.0154324
854.975	0.0154918
855.053	0.0153720
855.131	0.0152557
855.209	0.0153743
855.288	0.0153680
855.366	0.0153748
855.444	0.0153344
855.522	0.0154095
855.600	0.0153572
855.678	0.0153768
855.756	0.0154779
855.834	0.0155809
855.913	0.0154625
855.991	0.0153674
856.069	0.0154761
856.147	0.0154362
856.225	0.0153469
856.303	0.0155161
856.381	0.0155193
856.459	0.0153858
856.538	0.0151855
856.616	0.0154184
856.694	0.0154121
856.772	0.0154360
856.850	0.0154530
856.928	0.0154774
857.006	0.0155097
857.084	0.0155947
857.163	0.0155354
857.241	0.0154734
857.319	0.0155231
857.397	0.0154823
857.475	0.0154562
857.553	0.0156542
857.631	0.0154998
857.709	0.0155468
857.788	0.0156161
857.866	0.0155485
857.944	0.0154786
858.022	0.0154604
858.100	0.0154903
858.178	0.0154960
858.256	0.0155605
858.334	0.0155767
858.413	0.0154851
858.491	0.0155129
858.569	0.0156828
858.647	0.0156287
858.725	0.0156059
858.803	0.0155103
858.881	0.0154414
858.959	0.0156422
859.038	0.0155379
859.116	0.0155618
859.194	0.0155308
859.272	0.0156464
859.350	0.0156586
859.428	0.0156226
859.506	0.0156609
859.584	0.0154388
859.663	0.0155311
859.741	0.0155820
859.819	0.0156027
859.897	0.0154160
859.975	0.0154892
860.053	0.0156463
860.131	0.0153520
860.209	0.0154032
860.288	0.0154099
860.366	0.0154884
860.444	0.0153723
860.522	0.0151896
860.600	0.0152840
860.678	0.0152544
860.756	0.0151569
860.834	0.0152402
860.913	0.0152365
860.991	0.0151758
861.069	0.0151353
861.147	0.0151348
861.225	0.0151593
861.303	0.0152145
861.381	0.0152010
861.459	0.0151591
861.538	0.0153414
861.616	0.0153004
861.694	0.0151972
861.772	0.0152869
861.850	0.0151772
861.928	0.0152667
862.006	0.0153983
862.084	0.0153228
862.163	0.0153005
862.241	0.0152195
862.319	0.0152380
862.397	0.0154404
862.475	0.0154094
862.553	0.0153022
862.631	0.0153968
862.709	0.0154208
862.788	0.0153344
862.866	0.0153821
862.944	0.0153755
863.022	0.0155413
863.100	0.0154674
863.178	0.0155490
863.256	0.0153185
863.334	0.0154771
863.413	0.0153226
863.491	0.0154225
863.569	0.0154511
863.647	0.0154297
863.725	0.0152586
863.803	0.0154649
863.881	0.0155389
863.959	0.0154453
864.038	0.0154012
864.116	0.0154226
864.194	0.0153361
864.272	0.0154259
864.350	0.0153939
864.428	0.0153535
864.506	0.0155132
864.584	0.0155537
864.663	0.0154557
864.741	0.0155141
864.819	0.0156034
864.897	0.0157084
864.975	0.0153305
865.053	0.0156203
865.131	0.0156357
865.209	0.0155833
865.288	0.0155400
865.366	0.0155466
865.444	0.0155197
865.522	0.0155667
865.600	0.0155033
865.678	0.0156433
865.756	0.0155573
865.834	0.0155711
865.913	0.0155095
865.991	0.0155341
866.069	0.0155415
866.147	0.0156760
866.225	0.0156039
866.303	0.0155858
866.381	0.0154855
866.459	0.0156068
866.538	0.0156776
866.616	0.0154599
866.694	0.0153529
866.772	0.0154244
866.850	0.0154008
866.928	0.0154281
867.006	0.0154967
867.084	0.0152903
867.163	0.0153146
867.241	0.0154051
867.319	0.0153568
867.397	0.0154354
867.475	0.0154340
867.553	0.0155695
867.631	0.0154974
867.709	0.0156519
867.788	0.0156363
867.866	0.0156052
867.944	0.0156132
868.022	0.0158282
868.100	0.0156866
868.178	0.0157824
868.256	0.0157153
868.334	0.0159583
868.413	0.0157152
868.491	0.0158852
868.569	0.0159013
868.647	0.0157366
868.725	0.0157896
868.803	0.0158073
868.881	0.0157072
868.959	0.0158179
869.038	0.0158671
869.116	0.0159361
869.194	0.0157018
869.272	0.0156644
869.350	0.0157040
869.428	0.0156962
869.506	0.0155776
869.584	0.0156994
869.663	0.0157181
869.741	0.0156601
869.819	0.0156328
869.897	0.0154908
869.975	0.0154602
870.053	0.0153478
870.131	0.0153204
870.209	0.0153590
870.288	0.0153529
870.366	0.0154090
870.444	0.0154784
870.522	0.0153702
870.600	0.0154185
870.678	0.0153072
870.756	0.0152598
870.834	0.0152877
870.913	0.0153156
870.991	0.0152935
871.069	0.0153028
871.147	0.0151447
871.225	0.0151031
871.303	0.0152499
871.381	0.0151459
871.459	0.0152010
871.538	0.0152045
871.616	0.0151910
871.694	0.0152637
871.772	0.0152587
871.850	0.0152847
871.928	0.0152829
872.006	0.0152758
872.084	0.0152625
872.163	0.0152707
872.241	0.0152979
872.319	0.0153438
872.397	0.0155119
872.475	0.0153733
872.553	0.0153165
872.631	0.0154337
872.709	0.0154374
872.788	0.0154868
872.866	0.0154354
872.944	0.0155330
873.022	0.0153793
873.100	0.0154568
873.178	0.0154569
873.256	0.0154009
873.334	0.0154573
873.413	0.0153461
873.491	0.0153098
873.569	0.0152700
873.647	0.0154467
873.725	0.0153661
873.803	0.0153555
873.881	0.0153952
873.959	0.0153523
874.038	0.0151896
874.116	0.0151968
874.194	0.0152383
874.272	0.0151456
874.350	0.0152060
874.428	0.0151380
874.506	0.0151450
874.584	0.0151965
874.663	0.0151032
874.741	0.0150442
874.819	0.0151018
874.897	0.0151632
874.975	0.0150896
875.053	0.0149972
875.131	0.0151596
875.209	0.0151275
875.288	0.0151295
875.366	0.0150403
875.444	0.0150647
875.522	0.0151373
875.600	0.0150927
875.678	0.0152036
875.756	0.0152016
875.834	0.0152335
875.913	0.0152962
875.991	0.0152313
876.069	0.0152789
876.147	0.0153600
876.225	0.0154106
876.303	0.0153651
876.381	0.0152644
876.459	0.0154214
876.538	0.0154473
876.616	0.0153372
876.694	0.0153005
876.772	0.0154041
876.850	0.0153336
876.928	0.0152034
877.006	0.0153685
877.084	0.0152720
877.163	0.0152275
877.241	0.0151357
877.319	0.0151865
877.397	0.0151250
877.475	0.0151434
877.553	0.0150701
877.631	0.0150797
877.709	0.0150043
877.788	0.0151055
877.866	0.0150908
877.944	0.0152758
878.022	0.0150240
878.100	0.0151648
878.178	0.0150853
878.256	0.0151527
878.334	0.0152000
878.413	0.0153390
878.491	0.0152541
878.569	0.0152627
878.647	0.0152009
878.725	0.0153954
878.803	0.0153925
878.881	0.0152458
878.959	0.0152882
879.038	0.0155542
879.116	0.0155391
879.194	0.0154108
879.272	0.0155251
879.350	0.0156301
879.428	0.0156178
879.506	0.0155526
879.584	0.0155681
879.663	0.0155647
879.741	0.0155788
879.819	0.0156674
879.897	0.0156689
879.975	0.0155846
880.053	0.0154754
880.131	0.0156191
880.209	0.0156832
880.288	0.0156128
880.366	0.0155381
880.444	0.0155750
880.522	0.0155988
880.600	0.0156133
880.678	0.0157352
880.756	0.0156096
880.834	0.0155118
880.913	0.0154385
880.991	0.0154664
881.069	0.0156997
881.147	0.0156088
881.225	0.0155277
881.303	0.0155428
881.381	0.0155000
881.459	0.0156274
881.538	0.0154384
881.616	0.0154203
881.694	0.0154310
881.772	0.0156972
881.850	0.0156277
881.928	0.0153048
882.006	0.0153524
882.084	0.0153983
882.163	0.0154391
882.241	0.0155461
882.319	0.0154774
882.397	0.0153066
882.475	0.0152853
882.553	0.0153005
882.631	0.0153010
882.709	0.0151476
882.788	0.0152776
882.866	0.0152407
882.944	0.0152475
883.022	0.0153009
883.100	0.0152036
883.178	0.0152166
883.256	0.0153551
883.334	0.0152441
883.413	0.0151936
883.491	0.0152943
883.569	0.0153375
883.647	0.0152541
883.725	0.0153301
883.803	0.0153177
883.881	0.0155130
883.959	0.0152812
884.038	0.0155003
884.116	0.0155042
884.194	0.0153248
884.272	0.0153809
884.350	0.0154079
884.428	0.0154490
884.506	0.0153313
884.584	0.0154038
884.663	0.0153606
884.741	0.0154506
884.819	0.0152349
884.897	0.0151314
884.975	0.0153379
885.053	0.0153133
885.131	0.0153813
885.209	0.0153775
885.288	0.0153696
885.366	0.0152057
885.444	0.0154994
885.522	0.0152670
885.600	0.0153596
885.678	0.0153046
885.756	0.0152898
885.834	0.0152541
885.913	0.0152750
885.991	0.0153673
886.069	0.0152969
886.147	0.0153172
886.225	0.0154049
886.303	0.0152160
886.381	0.0155414
886.459	0.0152848
886.538	0.0153362
886.616	0.0154671
886.694	0.0155099
886.772	0.0155201
886.850	0.0154396
886.928	0.0154846
887.006	0.0153575
887.084	0.0153840
887.163	0.0153760
887.241	0.0154675
887.319	0.0154992
887.397	0.0152982
887.475	0.0154442
887.553	0.0153539
887.631	0.0153976
887.709	0.0155216
887.788	0.0155093
887.866	0.0153548
887.944	0.0154021
888.022	0.0154212
888.100	0.0156109
888.178	0.0154597
888.256	0.0154526
888.334	0.0154784
888.413	0.0155849
888.491	0.0155474
888.569	0.0156281
888.647	0.0155867
888.725	0.0155470
888.803	0.0154904
888.881	0.0154281
888.959	0.0154373
889.038	0.0153461
889.116	0.0153340
889.194	0.0154169
889.272	0.0155312
889.350	0.0153935
889.428	0.0153932
889.506	0.0152763
889.584	0.0154134
889.663	0.0153123
889.741	0.0152959
889.819	0.0155149
889.897	0.0155050
889.975	0.0154841
890.053	0.0153647
890.131	0.0154875
890.209	0.0154591
890.288	0.0155483
890.366	0.0154607
890.444	0.0153922
890.522	0.0155589
890.600	0.0155307
890.678	0.0155656
890.756	0.0156071
890.834	0.0154501
890.913	0.0153345
890.991	0.0154566
891.069	0.0154191
891.147	0.0154552
891.225	0.0154762
891.303	0.0154241
891.381	0.0153487
891.459	0.0153291
891.538	0.0155209
891.616	0.0153825
891.694	0.0153359
891.772	0.0154932
891.850	0.0154832
891.928	0.0154240
892.006	0.0154492
892.084	0.0154066
892.163	0.0155066
892.241	0.0153405
892.319	0.0155185
892.397	0.0154897
892.475	0.0153563
892.553	0.0155241
892.631	0.0155111
892.709	0.0154439
892.788	0.0155688
892.866	0.0154935
892.944	0.0155921
893.022	0.0155864
893.100	0.0155067
893.178	0.0155450
893.256	0.0156364
893.334	0.0156915
893.413	0.0156577
893.491	0.0154427
893.569	0.0155744
893.647	0.0156802
893.725	0.0156157
893.803	0.0154642
893.881	0.0153209
893.959	0.0153853
894.038	0.0153781
894.116	0.0153734
894.194	0.0154134
894.272	0.0151740
894.350	0.0152125
894.428	0.0153033
894.506	0.0152375
894.584	0.0151102
894.663	0.0152039
894.741	0.0152071
894.819	0.0150704
894.897	0.0151253
894.975	0.0151111
895.053	0.0151775
895.131	0.0150991
895.209	0.0150722
895.288	0.0150407
895.366	0.0149718
895.444	0.0150932
895.522	0.0150123
895.600	0.0149845
895.678	0.0150982
895.756	0.0148393
895.834	0.0149517
895.913	0.0150080
895.991	0.0149057
896.069	0.0150256
896.147	0.0149799
896.225	0.0149708
896.303	0.0148566
896.381	0.0150852
896.459	0.0149992
896.538	0.0149809
896.616	0.0150880
896.694	0.0150602
896.772	0.0151423
896.850	0.0151276
896.928	0.0150762
897.006	0.0152729
897.084	0.0151845
897.163	0.0152060
897.241	0.0152831
897.319	0.0151655
897.397	0.0151628
897.475	0.0151278
897.553	0.0153107
897.631	0.0152267
897.709	0.0153954
897.788	0.0151343
897.866	0.0151221
897.944	0.0150827
898.022	0.0151850
898.100	0.0152158
898.178	0.0151829
898.256	0.0151582
898.334	0.0152785
898.413	0.0151406
898.491	0.0149690
898.569	0.0150938
898.647	0.0152572
898.725	0.0153931
898.803	0.0153961
898.881	0.0154050
898.959	0.0154598
899.038	0.0154076
899.116	0.0155741
899.194	0.0153709
899.272	0.0155202
899.350	0.0155741
899.428	0.0155007
899.506	0.0153882
899.584	0.0154195
899.663	0.0155927
899.741	0.0155436
899.819	0.0154517
899.897	0.0154942
899.975	0.0154719
900.053	0.0154947
900.131	0.0154997
900.209	0.0154490
900.288	0.0153657
900.366	0.0154256
900.444	0.0154143
900.522	0.0154562
900.600	0.0153806
900.678	0.0154282
900.756	0.0154641
900.834	0.0154323
900.913	0.0154597
900.991	0.0153908
901.069	0.0154878
901.147	0.0153838
901.225	0.0153243
901.303	0.0153064
901.381	0.0155769
901.459	0.0154211
901.538	0.0154354
901.616	0.0154524
901.694	0.0154794
901.772	0.0155785
901.850	0.0154881
901.928	0.0154650
902.006	0.0155405
902.084	0.0156157
902.163	0.0156248
902.241	0.0155022
902.319	0.0156694
902.397	0.0156249
902.475	0.0156597
902.553	0.0155764
902.631	0.0156004
902.709	0.0154572
902.788	0.0156320
902.866	0.0155561
902.944	0.0154803
903.022	0.0154164
903.100	0.0155732
903.178	0.0153377
903.256	0.0154100
903.334	0.0154858
903.413	0.0152853
903.491	0.0152781
903.569	0.0153401
903.647	0.0152499
903.725	0.0152863
903.803	0.0153346
903.881	0.0152297
903.959	0.0152421
904.038	0.0153216
904.116	0.0152589
904.194	0.0154518
904.272	0.0152813
904.350	0.0152850
904.428	0.0154183
904.506	0.0153915
904.584	0.0154477
904.663	0.0154703
904.741	0.0153239
904.819	0.0154180
904.897	0.0154453
904.975	0.0153530
905.053	0.0153509
905.131	0.0153371
905.209	0.0153161
905.288	0.0152159
905.366	0.0151756
905.444	0.0151988
905.522	0.0150629
905.600	0.0150027
905.678	0.0150751
905.756	0.0149947
905.834	0.0149187
905.913	0.0149796
905.991	0.0151270
906.069	0.0149052
906.147	0.0150593
906.225	0.0149986
906.303	0.0150782
906.381	0.0149049
906.459	0.0150595
906.538	0.0150943
906.616	0.0150478
906.694	0.0150901
906.772	0.0152859
906.850	0.0151643
906.928	0.0149792
907.006	0.0150726
907.084	0.0153416
907.163	0.0152101
907.241	0.0149671
907.319	0.0151228
907.397	0.0152690
907.475	0.0151443
907.553	0.0152026
907.631	0.0152410
907.709	0.0152335
907.788	0.0151178
907.866	0.0150395
907.944	0.0152362
908.022	0.0150931
908.100	0.0150767
908.178	0.0151282
908.256	0.0151603
908.334	0.0150821
908.413	0.0149245
908.491	0.0151507
908.569	0.0151208
908.647	0.0150237
908.725	0.0150567
908.803	0.0151077
908.881	0.0150941
908.959	0.0152729
909.038	0.0151737
909.116	0.0152872
909.194	0.0151878
909.272	0.0153609
909.350	0.0152826
909.428	0.0153212
909.506	0.0153356
909.584	0.0153808
909.663	0.0153748
909.741	0.0153011
909.819	0.0153896
909.897	0.0154372
909.975	0.0153761
910.053	0.0152275
910.131	0.0152677
910.209	0.0153920
910.288	0.0153682
910.366	0.0153280
910.444	0.0153545
910.522	0.0152276
910.600	0.0153719
910.678	0.0153287
910.756	0.0152921
910.834	0.0154438
910.913	0.0152312
910.991	0.0153856
911.069	0.0154095
911.147	0.0155137
911.225	0.0154145
911.303	0.0155015
911.381	0.0155180
911.459	0.0154951
911.538	0.0155887
911.616	0.0156505
911.694	0.0155108
911.772	0.0155995
911.850	0.0155408
911.928	0.0156747
912.006	0.0155749
912.084	0.0155846
912.163	0.0156075
912.241	0.0156663
912.319	0.0155811
912.397	0.0156862
912.475	0.0155357
912.553	0.0156944
912.631	0.0154828
912.709	0.0155554
912.788	0.0156003
912.866	0.0154616
912.944	0.0154568
913.022	0.0155565
913.100	0.0155338
913.178	0.0155341
913.256	0.0154790
913.334	0.0156137
913.413	0.0155818
913.491	0.0155611
913.569	0.0154607
913.647	0.0155138
913.725	0.0155031
913.803	0.0154948
913.881	0.0155264
913.959	0.0154189
914.038	0.0155504
914.116	0.0155636
914.194	0.0154789
914.272	0.0154766
914.350	0.0155290
914.428	0.0154657
914.506	0.0153659
914.584	0.0153450
914.663	0.0153713
914.741	0.0153432
914.819	0.0152402
914.897	0.0153342
914.975	0.0155038
915.053	0.0153025
915.131	0.0152627
915.209	0.0154238
915.288	0.0153916
915.366	0.0154115
915.444	0.0152714
915.522	0.0153628
915.600	0.0152490
915.678	0.0153329
915.756	0.0154784
915.834	0.0153990
915.913	0.0153638
915.991	0.0153484
916.069	0.0153186
916.147	0.0153549
916.225	0.0154678
916.303	0.0151977
916.381	0.0153725
916.459	0.0152924
916.538	0.0153291
916.616	0.0153504
916.694	0.0152242
916.772	0.0153030
916.850	0.0151924
916.928	0.0153049
917.006	0.0152509
917.084	0.0152558
917.163	0.0151741
917.241	0.0151278
917.319	0.0153072
917.397	0.0150925
917.475	0.0151000
917.553	0.0149777
917.631	0.0152722
917.709	0.0151232
917.788	0.0151105
917.866	0.0150618
917.944	0.0150816
918.022	0.0152107
918.100	0.0151406
918.178	0.0150309
918.256	0.0150277
918.334	0.0151131
918.413	0.0151019
918.491	0.0151357
918.569	0.0150802
918.647	0.0151377
918.725	0.0151508
918.803	0.0151044
918.881	0.0152604
918.959	0.0151826
919.038	0.0152451
919.116	0.0153149
919.194	0.0152490
919.272	0.0152323
919.350	0.0153255
919.428	0.0154082
919.506	0.0153520
919.584	0.0154319
919.663	0.0153969
919.741	0.0154343
919.819	0.0153429
919.897	0.0155312
