05/20/2022	20:44:37	Ver.	4.1	UNKNOWN
Optical Delay	599.981738	Delta X		0.078125	Sweeps	1	Scan Rate	0/0
Coordinates	Axis 1	NaN	Axis 2	NaN	Axis 3	NaN	Axis 4	NaN	Axis 5	NaN	Axis 6	0.000000
TX Power	0.000000	RX Power	0.000000

599.982	0.0159657
600.060	0.0160667
600.138	0.0160291
600.216	0.0159541
600.294	0.0158465
600.372	0.0159949
600.450	0.0160204
600.529	0.0159837
600.607	0.0160220
600.685	0.0159845
600.763	0.0160616
600.841	0.0159941
600.919	0.0159052
600.997	0.0159308
601.075	0.0159323
601.154	0.0160191
601.232	0.0160171
601.310	0.0160394
601.388	0.0159908
601.466	0.0159811
601.544	0.0158664
601.622	0.0159506
601.700	0.0158923
601.779	0.0159870
601.857	0.0159973
601.935	0.0160313
602.013	0.0159314
602.091	0.0160653
602.169	0.0160542
602.247	0.0159409
602.325	0.0158617
602.404	0.0158774
602.482	0.0160262
602.560	0.0158714
602.638	0.0160806
602.716	0.0160770
602.794	0.0159745
602.872	0.0159045
602.950	0.0160491
603.029	0.0159464
603.107	0.0160089
603.185	0.0159562
603.263	0.0159155
603.341	0.0160110
603.419	0.0159348
603.497	0.0160540
603.575	0.0160313
603.654	0.0159718
603.732	0.0160979
603.810	0.0158902
603.888	0.0159235
603.966	0.0159602
604.044	0.0159061
604.122	0.0160474
604.200	0.0159995
604.279	0.0159023
604.357	0.0159138
604.435	0.0160432
604.513	0.0159861
604.591	0.0159571
604.669	0.0159409
604.747	0.0160275
604.825	0.0160142
604.904	0.0160271
604.982	0.0158643
605.060	0.0160457
605.138	0.0158421
605.216	0.0159241
605.294	0.0158658
605.372	0.0160420
605.450	0.0160110
605.529	0.0160064
605.607	0.0159586
605.685	0.0159489
605.763	0.0159666
605.841	0.0159642
605.919	0.0159477
605.997	0.0159378
606.075	0.0159656
606.154	0.0159866
606.232	0.0159621
606.310	0.0158974
606.388	0.0159949
606.466	0.0161444
606.544	0.0160462
606.622	0.0160867
606.700	0.0159637
606.779	0.0160683
606.857	0.0160169
606.935	0.0160589
607.013	0.0160615
607.091	0.0160140
607.169	0.0159794
607.247	0.0160402
607.325	0.0159551
607.404	0.0161585
607.482	0.0160477
607.560	0.0159476
607.638	0.0160258
607.716	0.0158474
607.794	0.0159211
607.872	0.0160859
607.950	0.0159876
608.029	0.0159796
608.107	0.0159690
608.185	0.0159778
608.263	0.0160599
608.341	0.0160030
608.419	0.0158557
608.497	0.0160347
608.575	0.0160489
608.654	0.0159401
608.732	0.0159009
608.810	0.0160107
608.888	0.0159406
608.966	0.0160245
609.044	0.0160658
609.122	0.0159541
609.200	0.0159248
609.279	0.0159211
609.357	0.0159531
609.435	0.0159026
609.513	0.0160609
609.591	0.0160857
609.669	0.0158926
609.747	0.0158839
609.825	0.0159558
609.904	0.0160309
609.982	0.0158552
610.060	0.0159824
610.138	0.0160030
610.216	0.0159781
610.294	0.0159535
610.372	0.0159447
610.450	0.0161023
610.529	0.0160549
610.607	0.0160003
610.685	0.0158796
610.763	0.0160573
610.841	0.0159290
610.919	0.0158441
610.997	0.0160165
611.075	0.0159957
611.154	0.0158308
611.232	0.0160104
611.310	0.0160419
611.388	0.0159999
611.466	0.0160324
611.544	0.0160014
611.622	0.0158629
611.700	0.0159058
611.779	0.0160443
611.857	0.0160786
611.935	0.0158788
612.013	0.0161216
612.091	0.0160241
612.169	0.0159104
612.247	0.0159577
612.325	0.0159865
612.404	0.0159420
612.482	0.0160352
612.560	0.0159918
612.638	0.0160181
612.716	0.0161282
612.794	0.0160085
612.872	0.0161591
612.950	0.0160709
613.029	0.0159857
613.107	0.0159625
613.185	0.0160307
613.263	0.0160693
613.341	0.0159644
613.419	0.0160034
613.497	0.0160135
613.575	0.0159353
613.654	0.0160237
613.732	0.0158856
613.810	0.0159684
613.888	0.0159306
613.966	0.0158563
614.044	0.0160045
614.122	0.0157816
614.200	0.0159636
614.279	0.0158566
614.357	0.0159357
614.435	0.0159330
614.513	0.0159638
614.591	0.0159528
614.669	0.0159486
614.747	0.0158798
614.825	0.0158710
614.904	0.0159505
614.982	0.0160004
615.060	0.0159972
615.138	0.0159372
615.216	0.0160443
615.294	0.0161471
615.372	0.0160941
615.450	0.0159566
615.529	0.0160900
615.607	0.0160722
615.685	0.0160291
615.763	0.0159811
615.841	0.0160014
615.919	0.0161034
615.997	0.0160744
616.075	0.0160694
616.154	0.0160670
616.232	0.0160754
616.310	0.0159714
616.388	0.0158038
616.466	0.0159038
616.544	0.0158598
616.622	0.0158670
616.700	0.0158218
616.779	0.0158475
616.857	0.0159924
616.935	0.0158411
617.013	0.0159071
617.091	0.0159635
617.169	0.0158855
617.247	0.0159949
617.325	0.0158438
617.404	0.0158566
617.482	0.0159100
617.560	0.0158807
617.638	0.0159307
617.716	0.0159547
617.794	0.0161087
617.872	0.0159493
617.950	0.0159596
618.029	0.0159344
618.107	0.0161560
618.185	0.0161608
618.263	0.0160130
618.341	0.0160068
618.419	0.0159705
618.497	0.0160420
618.575	0.0159494
618.654	0.0160342
618.732	0.0160802
618.810	0.0159556
618.888	0.0159409
618.966	0.0158845
619.044	0.0161410
619.122	0.0160255
619.200	0.0159166
619.279	0.0159040
619.357	0.0159857
619.435	0.0159834
619.513	0.0159361
619.591	0.0159117
619.669	0.0159652
619.747	0.0159364
619.825	0.0159232
619.904	0.0158644
619.982	0.0159481
620.060	0.0159477
620.138	0.0158578
620.216	0.0158664
620.294	0.0159274
620.372	0.0159767
620.450	0.0158690
620.529	0.0160493
620.607	0.0159528
620.685	0.0159521
620.763	0.0160490
620.841	0.0160260
620.919	0.0159593
620.997	0.0161084
621.075	0.0159908
621.154	0.0159465
621.232	0.0159745
621.310	0.0160532
621.388	0.0160354
621.466	0.0159657
621.544	0.0160778
621.622	0.0160269
621.700	0.0160803
621.779	0.0160751
621.857	0.0159737
621.935	0.0159666
622.013	0.0158576
622.091	0.0160812
622.169	0.0160387
622.247	0.0160722
622.325	0.0159212
622.404	0.0160410
622.482	0.0160501
622.560	0.0159424
622.638	0.0159698
622.716	0.0160757
622.794	0.0159653
622.872	0.0160202
622.950	0.0160219
623.029	0.0159618
623.107	0.0160754
623.185	0.0159678
623.263	0.0159852
623.341	0.0159984
623.419	0.0159085
623.497	0.0160072
623.575	0.0160358
623.654	0.0159298
623.732	0.0160558
623.810	0.0161183
623.888	0.0160110
623.966	0.0159999
624.044	0.0160002
624.122	0.0160890
624.200	0.0159113
624.279	0.0158932
624.357	0.0158922
624.435	0.0160202
624.513	0.0159854
624.591	0.0158695
624.669	0.0159619
624.747	0.0159531
624.825	0.0159089
624.904	0.0159365
624.982	0.0158929
625.060	0.0160403
625.138	0.0160734
625.216	0.0159180
625.294	0.0158111
625.372	0.0160014
625.450	0.0160552
625.529	0.0159848
625.607	0.0159127
625.685	0.0158783
625.763	0.0159660
625.841	0.0159895
625.919	0.0159640
625.997	0.0160516
626.075	0.0160516
626.154	0.0159119
626.232	0.0160320
626.310	0.0160329
626.388	0.0159496
626.466	0.0159378
626.544	0.0159734
626.622	0.0160381
626.700	0.0160403
626.779	0.0160824
626.857	0.0159712
626.935	0.0159794
627.013	0.0159282
627.091	0.0159045
627.169	0.0160228
627.247	0.0160648
627.325	0.0159241
627.404	0.0159573
627.482	0.0160460
627.560	0.0159877
627.638	0.0160055
627.716	0.0160657
627.794	0.0159100
627.872	0.0158756
627.950	0.0159045
628.029	0.0157946
628.107	0.0159174
628.185	0.0159602
628.263	0.0160642
628.341	0.0159813
628.419	0.0159685
628.497	0.0158903
628.575	0.0158356
628.654	0.0160528
628.732	0.0159885
628.810	0.0158556
628.888	0.0161314
628.966	0.0160248
629.044	0.0160123
629.122	0.0160576
629.200	0.0159494
629.279	0.0160088
629.357	0.0159823
629.435	0.0159732
629.513	0.0160736
629.591	0.0160083
629.669	0.0160262
629.747	0.0160134
629.825	0.0159972
629.904	0.0158656
629.982	0.0159443
630.060	0.0159814
630.138	0.0159325
630.216	0.0159903
630.294	0.0159074
630.372	0.0159272
630.450	0.0160440
630.529	0.0160401
630.607	0.0159550
630.685	0.0159588
630.763	0.0159502
630.841	0.0160587
630.919	0.0160262
630.997	0.0161110
631.075	0.0160174
631.154	0.0159953
631.232	0.0160574
631.310	0.0158727
631.388	0.0158938
631.466	0.0159373
631.544	0.0160135
631.622	0.0159142
631.700	0.0161014
631.779	0.0160614
631.857	0.0159637
631.935	0.0159573
632.013	0.0160027
632.091	0.0159383
632.169	0.0160061
632.247	0.0160060
632.325	0.0159280
632.404	0.0160134
632.482	0.0159379
632.560	0.0160126
632.638	0.0160443
632.716	0.0160108
632.794	0.0159353
632.872	0.0160073
632.950	0.0161095
633.029	0.0158925
633.107	0.0159058
633.185	0.0159013
633.263	0.0159888
633.341	0.0162065
633.419	0.0160312
633.497	0.0161198
633.575	0.0160651
633.654	0.0159849
633.732	0.0160204
633.810	0.0160011
633.888	0.0159960
633.966	0.0160169
634.044	0.0158537
634.122	0.0159159
634.200	0.0160344
634.279	0.0159148
634.357	0.0159875
634.435	0.0160494
634.513	0.0158545
634.591	0.0159233
634.669	0.0159901
634.747	0.0159697
634.825	0.0159975
634.904	0.0160299
634.982	0.0159084
635.060	0.0159205
635.138	0.0159023
635.216	0.0160312
635.294	0.0160369
635.372	0.0159406
635.450	0.0159615
635.529	0.0159385
635.607	0.0160977
635.685	0.0158305
635.763	0.0160110
635.841	0.0160044
635.919	0.0160542
635.997	0.0159347
636.075	0.0159683
636.154	0.0160058
636.232	0.0160722
636.310	0.0160078
636.388	0.0161095
636.466	0.0160076
636.544	0.0158970
636.622	0.0159129
636.700	0.0159476
636.779	0.0159663
636.857	0.0160560
636.935	0.0160598
637.013	0.0159373
637.091	0.0160488
637.169	0.0159705
637.247	0.0159943
637.325	0.0158627
637.404	0.0160707
637.482	0.0160905
637.560	0.0159469
637.638	0.0160207
637.716	0.0160052
637.794	0.0160121
637.872	0.0159746
637.950	0.0158844
638.029	0.0160050
638.107	0.0160453
638.185	0.0160561
638.263	0.0158467
638.341	0.0158459
638.419	0.0159559
638.497	0.0160522
638.575	0.0160011
638.654	0.0159624
638.732	0.0160172
638.810	0.0160060
638.888	0.0159819
638.966	0.0158540
639.044	0.0160471
639.122	0.0158720
639.200	0.0157444
639.279	0.0160271
639.357	0.0159333
639.435	0.0159885
639.513	0.0161210
639.591	0.0159743
639.669	0.0157889
639.747	0.0159987
639.825	0.0159520
639.904	0.0159765
639.982	0.0160292
640.060	0.0158961
640.138	0.0160094
640.216	0.0160095
640.294	0.0158455
640.372	0.0158333
640.450	0.0158593
640.529	0.0158725
640.607	0.0160315
640.685	0.0160572
640.763	0.0159732
640.841	0.0158096
640.919	0.0159113
640.997	0.0159467
641.075	0.0159936
641.154	0.0160170
641.232	0.0160686
641.310	0.0160023
641.388	0.0158706
641.466	0.0159162
641.544	0.0160174
641.622	0.0159920
641.700	0.0159812
641.779	0.0160584
641.857	0.0159065
641.935	0.0160510
642.013	0.0158964
642.091	0.0159415
642.169	0.0159674
642.247	0.0159724
642.325	0.0159090
642.404	0.0159651
642.482	0.0160781
642.560	0.0159386
642.638	0.0160531
642.716	0.0159531
642.794	0.0158452
642.872	0.0160350
642.950	0.0159280
643.029	0.0160411
643.107	0.0160203
643.185	0.0159367
643.263	0.0159711
643.341	0.0159538
643.419	0.0160449
643.497	0.0159733
643.575	0.0159528
643.654	0.0160336
643.732	0.0158424
643.810	0.0159103
643.888	0.0160287
643.966	0.0160030
644.044	0.0158823
644.122	0.0159407
644.200	0.0159725
644.279	0.0160598
644.357	0.0159301
644.435	0.0159026
644.513	0.0160554
644.591	0.0157817
644.669	0.0159787
644.747	0.0161017
644.825	0.0159992
644.904	0.0159686
644.982	0.0160251
645.060	0.0159841
645.138	0.0160545
645.216	0.0159387
645.294	0.0158591
645.372	0.0159867
645.450	0.0160349
645.529	0.0159800
645.607	0.0159180
645.685	0.0160121
645.763	0.0159029
645.841	0.0159577
645.919	0.0159422
645.997	0.0159914
646.075	0.0160888
646.154	0.0158891
646.232	0.0160809
646.310	0.0159509
646.388	0.0159402
646.466	0.0160284
646.544	0.0159817
646.622	0.0159380
646.700	0.0160474
646.779	0.0159871
646.857	0.0160217
646.935	0.0159252
647.013	0.0160568
647.091	0.0159871
647.169	0.0161022
647.247	0.0160381
647.325	0.0159596
647.404	0.0159093
647.482	0.0159744
647.560	0.0160355
647.638	0.0160722
647.716	0.0160689
647.794	0.0158322
647.872	0.0159035
647.950	0.0159329
648.029	0.0158165
648.107	0.0159681
648.185	0.0160226
648.263	0.0158823
648.341	0.0159182
648.419	0.0159547
648.497	0.0158663
648.575	0.0159396
648.654	0.0159624
648.732	0.0158273
648.810	0.0160066
648.888	0.0157763
648.966	0.0158787
649.044	0.0160188
649.122	0.0158836
649.200	0.0159041
649.279	0.0160055
649.357	0.0159724
649.435	0.0158607
649.513	0.0159299
649.591	0.0157989
649.669	0.0159737
649.747	0.0159418
649.825	0.0159740
649.904	0.0159065
649.982	0.0160509
650.060	0.0159637
650.138	0.0158876
650.216	0.0159223
650.294	0.0159636
650.372	0.0158765
650.450	0.0159979
650.529	0.0159698
650.607	0.0158984
650.685	0.0158982
650.763	0.0160116
650.841	0.0158840
650.919	0.0159531
650.997	0.0159573
651.075	0.0161087
651.154	0.0159487
651.232	0.0157969
651.310	0.0159914
651.388	0.0160240
651.466	0.0160383
651.544	0.0159772
651.622	0.0159510
651.700	0.0158902
651.779	0.0159089
651.857	0.0158897
651.935	0.0158879
652.013	0.0160275
652.091	0.0161028
652.169	0.0160064
652.247	0.0159734
652.325	0.0158823
652.404	0.0159408
652.482	0.0159762
652.560	0.0161131
652.638	0.0160268
652.716	0.0159309
652.794	0.0159446
652.872	0.0159580
652.950	0.0161099
653.029	0.0160381
653.107	0.0160413
653.185	0.0158447
653.263	0.0160139
653.341	0.0158915
653.419	0.0158930
653.497	0.0159799
653.575	0.0159545
653.654	0.0159179
653.732	0.0160339
653.810	0.0159324
653.888	0.0159621
653.966	0.0159814
654.044	0.0159622
654.122	0.0159759
654.200	0.0162009
654.279	0.0159584
654.357	0.0160865
654.435	0.0159230
654.513	0.0159901
654.591	0.0158787
654.669	0.0159883
654.747	0.0159990
654.825	0.0159486
654.904	0.0159261
654.982	0.0159534
655.060	0.0158638
655.138	0.0160235
655.216	0.0160369
655.294	0.0160279
655.372	0.0158833
655.450	0.0160153
655.529	0.0160876
655.607	0.0158478
655.685	0.0160563
655.763	0.0160377
655.841	0.0159757
655.919	0.0160780
655.997	0.0160126
656.075	0.0158897
656.154	0.0158374
656.232	0.0158424
656.310	0.0160547
656.388	0.0160096
656.466	0.0159367
656.544	0.0159334
656.622	0.0160091
656.700	0.0160883
656.779	0.0159829
656.857	0.0160323
656.935	0.0158572
657.013	0.0158860
657.091	0.0160881
657.169	0.0159367
657.247	0.0160740
657.325	0.0161397
657.404	0.0160180
657.482	0.0160622
657.560	0.0159272
657.638	0.0160246
657.716	0.0159440
657.794	0.0158973
657.872	0.0159055
657.950	0.0160503
658.029	0.0160176
658.107	0.0159463
658.185	0.0159242
658.263	0.0159239
658.341	0.0160341
658.419	0.0160022
658.497	0.0158868
658.575	0.0159261
658.654	0.0159592
658.732	0.0159758
658.810	0.0159675
658.888	0.0159400
658.966	0.0159201
659.044	0.0158749
659.122	0.0159322
659.200	0.0160027
659.279	0.0159577
659.357	0.0160404
659.435	0.0159305
659.513	0.0159407
659.591	0.0160189
659.669	0.0160295
659.747	0.0159097
659.825	0.0159834
659.904	0.0159895
659.982	0.0159118
660.060	0.0159728
660.138	0.0160006
660.216	0.0160047
660.294	0.0159794
660.372	0.0159197
660.450	0.0159630
660.529	0.0160332
660.607	0.0160287
660.685	0.0160960
660.763	0.0158671
660.841	0.0158935
660.919	0.0161108
660.997	0.0159402
661.075	0.0159172
661.154	0.0158424
661.232	0.0159402
661.310	0.0159903
661.388	0.0158635
661.466	0.0160049
661.544	0.0159885
661.622	0.0160162
661.700	0.0161487
661.779	0.0159305
661.857	0.0159987
661.935	0.0160193
662.013	0.0160616
662.091	0.0160687
662.169	0.0159280
662.247	0.0159595
662.325	0.0159276
662.404	0.0159470
662.482	0.0159633
662.560	0.0161015
662.638	0.0160180
662.716	0.0160423
662.794	0.0159624
662.872	0.0159289
662.950	0.0159230
663.029	0.0160112
663.107	0.0159338
663.185	0.0159039
663.263	0.0158707
663.341	0.0160010
663.419	0.0160136
663.497	0.0160050
663.575	0.0158741
663.654	0.0159029
663.732	0.0160024
663.810	0.0158939
663.888	0.0159108
663.966	0.0159323
664.044	0.0159162
664.122	0.0159813
664.200	0.0160318
664.279	0.0159530
664.357	0.0158968
664.435	0.0159825
664.513	0.0159476
664.591	0.0159930
664.669	0.0160031
664.747	0.0159035
664.825	0.0160116
664.904	0.0160212
664.982	0.0160731
665.060	0.0159982
665.138	0.0159393
665.216	0.0160387
665.294	0.0159456
665.372	0.0160797
665.450	0.0160881
665.529	0.0159408
665.607	0.0160992
665.685	0.0160162
665.763	0.0160081
665.841	0.0159992
665.919	0.0159933
665.997	0.0160587
666.075	0.0159225
666.154	0.0159895
666.232	0.0160370
666.310	0.0160704
666.388	0.0160476
666.466	0.0159895
666.544	0.0159616
666.622	0.0159393
666.700	0.0160681
666.779	0.0160426
666.857	0.0159896
666.935	0.0159179
667.013	0.0160262
667.091	0.0160463
667.169	0.0159975
667.247	0.0160089
667.325	0.0159451
667.404	0.0158549
667.482	0.0158282
667.560	0.0158504
667.638	0.0160100
667.716	0.0159447
667.794	0.0158277
667.872	0.0160816
667.950	0.0159557
668.029	0.0159219
668.107	0.0159087
668.185	0.0159999
668.263	0.0159898
668.341	0.0158316
668.419	0.0159589
668.497	0.0158365
668.575	0.0159225
668.654	0.0159222
668.732	0.0159480
668.810	0.0160357
668.888	0.0160998
668.966	0.0159328
669.044	0.0159168
669.122	0.0159458
669.200	0.0158286
669.279	0.0158836
669.357	0.0158320
669.435	0.0160193
669.513	0.0159830
669.591	0.0158466
669.669	0.0159527
669.747	0.0159461
669.825	0.0159351
669.904	0.0160563
669.982	0.0160288
670.060	0.0159136
670.138	0.0159374
670.216	0.0158025
670.294	0.0159140
670.372	0.0159249
670.450	0.0159278
670.529	0.0159772
670.607	0.0160605
670.685	0.0159875
670.763	0.0160437
670.841	0.0159212
670.919	0.0159233
670.997	0.0159833
671.075	0.0159008
671.154	0.0158423
671.232	0.0159264
671.310	0.0159821
671.388	0.0159648
671.466	0.0158077
671.544	0.0159282
671.622	0.0160390
671.700	0.0160465
671.779	0.0160687
671.857	0.0158973
671.935	0.0159883
672.013	0.0158992
672.091	0.0160829
672.169	0.0160415
672.247	0.0159924
672.325	0.0160345
672.404	0.0160804
672.482	0.0161453
672.560	0.0160635
672.638	0.0160542
672.716	0.0159953
672.794	0.0160434
672.872	0.0161093
672.950	0.0161304
673.029	0.0159988
673.107	0.0160059
673.185	0.0160972
673.263	0.0160829
673.341	0.0161151
673.419	0.0160113
673.497	0.0160707
673.575	0.0161002
673.654	0.0160424
673.732	0.0159174
673.810	0.0161557
673.888	0.0161410
673.966	0.0160005
674.044	0.0159815
674.122	0.0161513
674.200	0.0162818
674.279	0.0161099
674.357	0.0159625
674.435	0.0160017
674.513	0.0160851
674.591	0.0160153
674.669	0.0162578
674.747	0.0161452
674.825	0.0160875
674.904	0.0161485
674.982	0.0159940
675.060	0.0161543
675.138	0.0161270
675.216	0.0160944
675.294	0.0160820
675.372	0.0161693
675.450	0.0161300
675.529	0.0160584
675.607	0.0160851
675.685	0.0160442
675.763	0.0161945
675.841	0.0160532
675.919	0.0160587
675.997	0.0159511
676.075	0.0160322
676.154	0.0160004
676.232	0.0160986
676.310	0.0161442
676.388	0.0161504
676.466	0.0160460
676.544	0.0160711
676.622	0.0161569
676.700	0.0160224
676.779	0.0160613
676.857	0.0160274
676.935	0.0158578
677.013	0.0159476
677.091	0.0161823
677.169	0.0161469
677.247	0.0160798
677.325	0.0159892
677.404	0.0160074
677.482	0.0160242
677.560	0.0160320
677.638	0.0159532
677.716	0.0160584
677.794	0.0159713
677.872	0.0160346
677.950	0.0159556
678.029	0.0160973
678.107	0.0159343
678.185	0.0159740
678.263	0.0158035
678.341	0.0159368
678.419	0.0160250
678.497	0.0158606
678.575	0.0158871
678.654	0.0160991
678.732	0.0158320
678.810	0.0157620
678.888	0.0158743
678.966	0.0159878
679.044	0.0159854
679.122	0.0159417
679.200	0.0159473
679.279	0.0158773
679.357	0.0158042
679.435	0.0158920
679.513	0.0158878
679.591	0.0158678
679.669	0.0158733
679.747	0.0158141
679.825	0.0158743
679.904	0.0157753
679.982	0.0159218
680.060	0.0159642
680.138	0.0158588
680.216	0.0159123
680.294	0.0158691
680.372	0.0158878
680.450	0.0159281
680.529	0.0156956
680.607	0.0157677
680.685	0.0158624
680.763	0.0159146
680.841	0.0158554
680.919	0.0158395
680.997	0.0156448
681.075	0.0158713
681.154	0.0158812
681.232	0.0157401
681.310	0.0158224
681.388	0.0157944
681.466	0.0157692
681.544	0.0157468
681.622	0.0157502
681.700	0.0158254
681.779	0.0158506
681.857	0.0157035
681.935	0.0159464
682.013	0.0159187
682.091	0.0158603
682.169	0.0158374
682.247	0.0158554
682.325	0.0159830
682.404	0.0159978
682.482	0.0158415
682.560	0.0159184
682.638	0.0159370
682.716	0.0159399
682.794	0.0158596
682.872	0.0159666
682.950	0.0160231
683.029	0.0160538
683.107	0.0158936
683.185	0.0160117
683.263	0.0160314
683.341	0.0160285
683.419	0.0160135
683.497	0.0160323
683.575	0.0159837
683.654	0.0158833
683.732	0.0160382
683.810	0.0159776
683.888	0.0159738
683.966	0.0159387
684.044	0.0159659
684.122	0.0159883
684.200	0.0159782
684.279	0.0159162
684.357	0.0159179
684.435	0.0159375
684.513	0.0159158
684.591	0.0159514
684.669	0.0160198
684.747	0.0159243
684.825	0.0157730
684.904	0.0158968
684.982	0.0158856
685.060	0.0160824
685.138	0.0159462
685.216	0.0159760
685.294	0.0158456
685.372	0.0159334
685.450	0.0160176
685.529	0.0160061
685.607	0.0161648
685.685	0.0160331
685.763	0.0161014
685.841	0.0161769
685.919	0.0159138
685.997	0.0160400
686.075	0.0160594
686.154	0.0160763
686.232	0.0161627
686.310	0.0161239
686.388	0.0161005
686.466	0.0161501
686.544	0.0160017
686.622	0.0160590
686.700	0.0161395
686.779	0.0161778
686.857	0.0159085
686.935	0.0159939
687.013	0.0159872
687.091	0.0160545
687.169	0.0160709
687.247	0.0160506
687.325	0.0159505
687.404	0.0161203
687.482	0.0160390
687.560	0.0159966
687.638	0.0159591
687.716	0.0158821
687.794	0.0160382
687.872	0.0160150
687.950	0.0159676
688.029	0.0160529
688.107	0.0158850
688.185	0.0160663
688.263	0.0161431
688.341	0.0161169
688.419	0.0161612
688.497	0.0162247
688.575	0.0160612
688.654	0.0161819
688.732	0.0160373
688.810	0.0158490
688.888	0.0159245
688.966	0.0158854
689.044	0.0157310
689.122	0.0155103
689.200	0.0154134
689.279	0.0155424
689.357	0.0154527
689.435	0.0155125
689.513	0.0157692
689.591	0.0160500
689.669	0.0163315
689.747	0.0166889
689.825	0.0169979
689.904	0.0172257
689.982	0.0175150
690.060	0.0178227
690.138	0.0176580
690.216	0.0175440
690.294	0.0174229
690.372	0.0172474
690.450	0.0167002
690.529	0.0161048
690.607	0.0156519
690.685	0.0153166
690.763	0.0146308
690.841	0.0140224
690.919	0.0135976
690.997	0.0129418
691.075	0.0125588
691.154	0.0124201
691.232	0.0122003
691.310	0.0124314
691.388	0.0127995
691.466	0.0135300
691.544	0.0143023
691.622	0.0155370
691.700	0.0166320
691.779	0.0177676
691.857	0.0191962
691.935	0.0203921
692.013	0.0214575
692.091	0.0223434
692.169	0.0228143
692.247	0.0229358
692.325	0.0226974
692.404	0.0222916
692.482	0.0214971
692.560	0.0202724
692.638	0.0188499
692.716	0.0172829
692.794	0.0158349
692.872	0.0143298
692.950	0.0130511
693.029	0.0114602
693.107	0.0103188
693.185	0.00950752
693.263	0.00874046
693.341	0.00814316
693.419	0.00781136
693.497	0.00783287
693.575	0.00775375
693.654	0.00805855
693.732	0.00863647
693.810	0.00916687
693.888	0.0100943
693.966	0.0112659
694.044	0.0121749
694.122	0.0136497
694.200	0.0153138
694.279	0.0170269
694.357	0.0190430
694.435	0.0209570
694.513	0.0230710
694.591	0.0252832
694.669	0.0271618
694.747	0.0287622
694.825	0.0300677
694.904	0.0306955
694.982	0.0309394
695.060	0.0304691
695.138	0.0295502
695.216	0.0278824
695.294	0.0256245
695.372	0.0230788
695.450	0.0200845
695.529	0.0170506
695.607	0.0139337
695.685	0.0110207
695.763	0.00817101
695.841	0.00570236
695.919	0.00352745
695.997	0.00185020
696.075	0.000780563
696.154	-0.0000908661
696.232	-0.000267868
696.310	-0.0000619507
696.388	0.000407410
696.466	0.00135468
696.544	0.00246254
696.622	0.00389404
696.700	0.00546539
696.779	0.00747070
696.857	0.00975731
696.935	0.0120098
697.013	0.0144393
697.091	0.0171528
697.169	0.0197073
697.247	0.0223055
697.325	0.0246915
697.404	0.0271199
697.482	0.0291861
697.560	0.0306506
697.638	0.0321378
697.716	0.0330534
697.794	0.0334035
697.872	0.0332973
697.950	0.0325365
698.029	0.0313828
698.107	0.0297259
698.185	0.0276945
698.263	0.0256661
698.341	0.0228857
698.419	0.0205548
698.497	0.0180013
698.575	0.0152400
698.654	0.0128909
698.732	0.0107407
698.810	0.00871323
698.888	0.00698158
698.966	0.00566467
699.044	0.00475151
699.122	0.00401512
699.200	0.00365303
699.279	0.00373886
699.357	0.00413811
699.435	0.00450592
699.513	0.00499519
699.591	0.00585266
699.669	0.00690735
699.747	0.00791672
699.825	0.00871330
699.904	0.0100172
699.982	0.0113054
700.060	0.0125520
700.138	0.0137570
700.216	0.0150849
700.294	0.0163867
700.372	0.0177485
700.450	0.0189545
700.529	0.0199429
700.607	0.0210431
700.685	0.0218607
700.763	0.0225133
700.841	0.0231682
700.919	0.0232990
700.997	0.0233523
701.075	0.0232626
701.154	0.0226717
701.232	0.0222980
701.310	0.0217912
701.388	0.0210889
701.466	0.0203495
701.544	0.0196072
701.622	0.0189200
701.700	0.0182731
701.779	0.0176469
701.857	0.0172134
701.935	0.0167843
702.013	0.0165320
702.091	0.0162140
702.169	0.0160053
702.247	0.0158939
702.325	0.0159618
702.404	0.0157253
702.482	0.0158582
702.560	0.0157073
702.638	0.0155774
702.716	0.0155299
702.794	0.0155318
702.872	0.0154891
702.950	0.0152125
703.029	0.0150298
703.107	0.0149602
703.185	0.0148936
703.263	0.0146934
703.341	0.0145499
703.419	0.0143092
703.497	0.0142333
703.575	0.0139767
703.654	0.0136583
703.732	0.0135320
703.810	0.0132756
703.888	0.0129688
703.966	0.0125609
704.044	0.0121628
704.122	0.0120463
704.200	0.0119736
704.279	0.0117776
704.357	0.0117281
704.435	0.0118937
704.513	0.0121732
704.591	0.0125577
704.669	0.0130608
704.747	0.0138922
704.825	0.0144537
704.904	0.0153201
704.982	0.0162726
705.060	0.0172054
705.138	0.0180669
705.216	0.0188125
705.294	0.0193715
705.372	0.0201708
705.450	0.0205081
705.529	0.0207741
705.607	0.0209370
705.685	0.0206873
705.763	0.0205419
705.841	0.0202323
705.919	0.0200109
705.997	0.0193984
706.075	0.0188296
706.154	0.0183296
706.232	0.0177628
706.310	0.0172347
706.388	0.0166542
706.466	0.0164294
706.544	0.0160968
706.622	0.0156532
706.700	0.0154875
706.779	0.0153240
706.857	0.0151479
706.935	0.0150276
707.013	0.0149884
707.091	0.0150378
707.169	0.0149290
707.247	0.0153203
707.325	0.0152412
707.404	0.0153582
707.482	0.0155182
707.560	0.0156003
707.638	0.0157056
707.716	0.0157549
707.794	0.0159322
707.872	0.0158272
707.950	0.0158437
708.029	0.0158578
708.107	0.0158199
708.185	0.0157504
708.263	0.0156061
708.341	0.0155129
708.419	0.0154732
708.497	0.0152698
708.575	0.0151472
708.654	0.0149052
708.732	0.0148545
708.810	0.0146082
708.888	0.0143923
708.966	0.0143233
709.044	0.0140885
709.122	0.0138720
709.200	0.0137621
709.279	0.0137452
709.357	0.0135989
709.435	0.0136105
709.513	0.0137895
709.591	0.0139256
709.669	0.0142342
709.747	0.0144796
709.825	0.0150922
709.904	0.0153482
709.982	0.0159877
710.060	0.0163576
710.138	0.0169225
710.216	0.0175501
710.294	0.0177876
710.372	0.0180238
710.450	0.0183691
710.529	0.0186132
710.607	0.0188662
710.685	0.0187418
710.763	0.0187645
710.841	0.0187144
710.919	0.0184133
710.997	0.0182926
711.075	0.0180337
711.154	0.0177888
711.232	0.0172083
711.310	0.0170516
711.388	0.0169733
711.466	0.0165469
711.544	0.0162292
711.622	0.0158609
711.700	0.0156452
711.779	0.0154511
711.857	0.0149712
711.935	0.0148309
712.013	0.0146317
712.091	0.0146144
712.169	0.0145937
712.247	0.0146635
712.325	0.0147789
712.404	0.0149924
712.482	0.0150482
712.560	0.0153309
712.638	0.0156579
712.716	0.0160059
712.794	0.0162328
712.872	0.0165125
712.950	0.0166125
713.029	0.0166106
713.107	0.0168348
713.185	0.0167738
713.263	0.0168513
713.341	0.0168484
713.419	0.0167046
713.497	0.0164677
713.575	0.0163125
713.654	0.0162428
713.732	0.0159268
713.810	0.0156777
713.888	0.0155005
713.966	0.0152979
714.044	0.0151435
714.122	0.0149620
714.200	0.0150023
714.279	0.0150241
714.357	0.0148669
714.435	0.0148836
714.513	0.0150164
714.591	0.0149895
714.669	0.0150417
714.747	0.0152412
714.825	0.0150644
714.904	0.0151560
714.982	0.0151569
715.060	0.0153362
715.138	0.0155506
715.216	0.0155999
715.294	0.0157981
715.372	0.0157520
715.450	0.0159489
715.529	0.0163679
715.607	0.0163908
715.685	0.0166062
715.763	0.0168755
715.841	0.0169807
715.919	0.0170692
715.997	0.0174197
716.075	0.0174333
716.154	0.0172520
716.232	0.0172735
716.310	0.0171998
716.388	0.0169458
716.466	0.0169357
716.544	0.0167416
716.622	0.0165243
716.700	0.0162215
716.779	0.0160743
716.857	0.0160067
716.935	0.0158425
717.013	0.0156442
717.091	0.0155873
717.169	0.0155981
717.247	0.0155818
717.325	0.0153764
717.404	0.0153878
717.482	0.0153615
717.560	0.0151928
717.638	0.0152273
717.716	0.0151209
717.794	0.0149886
717.872	0.0150883
717.950	0.0149918
718.029	0.0151963
718.107	0.0152888
718.185	0.0154511
718.263	0.0155456
718.341	0.0157888
718.419	0.0159112
718.497	0.0161611
718.575	0.0162975
718.654	0.0163622
718.732	0.0164571
718.810	0.0163769
718.888	0.0164553
718.966	0.0163795
719.044	0.0164108
719.122	0.0163432
719.200	0.0161760
719.279	0.0160920
719.357	0.0160538
719.435	0.0160657
719.513	0.0160809
719.591	0.0160948
719.669	0.0162756
719.747	0.0162950
719.825	0.0164886
719.904	0.0165987
719.982	0.0165050
720.060	0.0164861
720.138	0.0164520
720.216	0.0163883
720.294	0.0162666
720.372	0.0161810
720.450	0.0162376
720.529	0.0160173
720.607	0.0158394
720.685	0.0156837
720.763	0.0155542
720.841	0.0155210
720.919	0.0154960
720.997	0.0153530
721.075	0.0154318
721.154	0.0155530
721.232	0.0155962
721.310	0.0155612
721.388	0.0157240
721.466	0.0157931
721.544	0.0157804
721.622	0.0160065
721.700	0.0160194
721.779	0.0161475
721.857	0.0161992
721.935	0.0162650
722.013	0.0162932
722.091	0.0162690
722.169	0.0162461
722.247	0.0162428
722.325	0.0160473
722.404	0.0160999
722.482	0.0159488
722.560	0.0158741
722.638	0.0158533
722.716	0.0157247
722.794	0.0157336
722.872	0.0154893
722.950	0.0155262
723.029	0.0155473
723.107	0.0155580
723.185	0.0154492
723.263	0.0154515
723.341	0.0154221
723.419	0.0154405
723.497	0.0154589
723.575	0.0153860
723.654	0.0153510
723.732	0.0154295
723.810	0.0155936
723.888	0.0154040
723.966	0.0153490
724.044	0.0155845
724.122	0.0155725
724.200	0.0155226
724.279	0.0155723
724.357	0.0155555
724.435	0.0156271
724.513	0.0157151
724.591	0.0158924
724.669	0.0158768
724.747	0.0159391
724.825	0.0160918
724.904	0.0161261
724.982	0.0163139
725.060	0.0164690
725.138	0.0166595
725.216	0.0168885
725.294	0.0169283
725.372	0.0170723
725.450	0.0170646
725.529	0.0171914
725.607	0.0172997
725.685	0.0171378
725.763	0.0171632
725.841	0.0173624
725.919	0.0172364
725.997	0.0172824
726.075	0.0170968
726.154	0.0169061
726.232	0.0168804
726.310	0.0166749
726.388	0.0165857
726.466	0.0164182
726.544	0.0161350
726.622	0.0161140
726.700	0.0160231
726.779	0.0156333
726.857	0.0156027
726.935	0.0156090
727.013	0.0156423
727.091	0.0153666
727.169	0.0153512
727.247	0.0155843
727.325	0.0156503
727.404	0.0156223
727.482	0.0155936
727.560	0.0156252
727.638	0.0157526
727.716	0.0158067
727.794	0.0156142
727.872	0.0156742
727.950	0.0157596
728.029	0.0156490
728.107	0.0155864
728.185	0.0157982
728.263	0.0157642
728.341	0.0155766
728.419	0.0156564
728.497	0.0157680
728.575	0.0156357
728.654	0.0157102
728.732	0.0156159
728.810	0.0156319
728.888	0.0155435
728.966	0.0154154
729.044	0.0153187
729.122	0.0151697
729.200	0.0151958
729.279	0.0153111
729.357	0.0152406
729.435	0.0152219
729.513	0.0151419
729.591	0.0153809
729.669	0.0152447
729.747	0.0153404
729.825	0.0153584
729.904	0.0155565
729.982	0.0156276
730.060	0.0156593
730.138	0.0156131
730.216	0.0158123
730.294	0.0159630
730.372	0.0160701
730.450	0.0162370
730.529	0.0161284
730.607	0.0163138
730.685	0.0164576
730.763	0.0166078
730.841	0.0169173
730.919	0.0168627
730.997	0.0170910
731.075	0.0174238
731.154	0.0173495
731.232	0.0173605
731.310	0.0173840
731.388	0.0174232
731.466	0.0173141
731.544	0.0171183
731.622	0.0169900
731.700	0.0170558
731.779	0.0166563
731.857	0.0166971
731.935	0.0164749
732.013	0.0164600
732.091	0.0163035
732.169	0.0158839
732.247	0.0157088
732.325	0.0157378
732.404	0.0157299
732.482	0.0155101
732.560	0.0154969
732.638	0.0154217
732.716	0.0155917
732.794	0.0156667
732.872	0.0157109
732.950	0.0159492
733.029	0.0160468
733.107	0.0161980
733.185	0.0162453
733.263	0.0163849
733.341	0.0165012
733.419	0.0165502
733.497	0.0166219
733.575	0.0165613
733.654	0.0165864
733.732	0.0164974
733.810	0.0164324
733.888	0.0162948
733.966	0.0162175
734.044	0.0158993
734.122	0.0157763
734.200	0.0155511
734.279	0.0154169
734.357	0.0153329
734.435	0.0152071
734.513	0.0150005
734.591	0.0150797
734.669	0.0150770
734.747	0.0149996
734.825	0.0149171
734.904	0.0149138
734.982	0.0149666
735.060	0.0149236
735.138	0.0150359
735.216	0.0151270
735.294	0.0152442
735.372	0.0152026
735.450	0.0154337
735.529	0.0155096
735.607	0.0155788
735.685	0.0158228
735.763	0.0158614
735.841	0.0159955
735.919	0.0159941
735.997	0.0162614
736.075	0.0163097
736.154	0.0162708
736.232	0.0161874
736.310	0.0162711
736.388	0.0163417
736.466	0.0162709
736.544	0.0160737
736.622	0.0161523
736.700	0.0160711
736.779	0.0162378
736.857	0.0162597
736.935	0.0161863
737.013	0.0163194
737.091	0.0163767
737.169	0.0164353
737.247	0.0164881
737.325	0.0163213
737.404	0.0165613
737.482	0.0165183
737.560	0.0164255
737.638	0.0163344
737.716	0.0163619
737.794	0.0165150
737.872	0.0162784
737.950	0.0162447
738.029	0.0161863
738.107	0.0163180
738.185	0.0163455
738.263	0.0163171
738.341	0.0162730
738.419	0.0161286
738.497	0.0163336
738.575	0.0162521
738.654	0.0163083
738.732	0.0163322
738.810	0.0163852
738.888	0.0162062
738.966	0.0162376
739.044	0.0163345
739.122	0.0161839
739.200	0.0161044
739.279	0.0161077
739.357	0.0161572
739.435	0.0161329
739.513	0.0161480
739.591	0.0159872
739.669	0.0159036
739.747	0.0159310
739.825	0.0158781
739.904	0.0156982
739.982	0.0155730
740.060	0.0156269
740.138	0.0156301
740.216	0.0154407
740.294	0.0151919
740.372	0.0153484
740.450	0.0154011
740.529	0.0154648
740.607	0.0154607
740.685	0.0155305
740.763	0.0156323
740.841	0.0157673
740.919	0.0159147
740.997	0.0160205
741.075	0.0161420
741.154	0.0161842
741.232	0.0163943
741.310	0.0164392
741.388	0.0163183
741.466	0.0163512
741.544	0.0163884
741.622	0.0162125
741.700	0.0160474
741.779	0.0161208
741.857	0.0159115
741.935	0.0160872
742.013	0.0158964
742.091	0.0158089
742.169	0.0157880
742.247	0.0156818
742.325	0.0156503
742.404	0.0156618
742.482	0.0155495
742.560	0.0152930
742.638	0.0152646
742.716	0.0153461
742.794	0.0152681
742.872	0.0151517
742.950	0.0152031
743.029	0.0153201
743.107	0.0152221
743.185	0.0154628
743.263	0.0156471
743.341	0.0157142
743.419	0.0158461
743.497	0.0158788
743.575	0.0159776
743.654	0.0161182
743.732	0.0161822
743.810	0.0161785
743.888	0.0163372
743.966	0.0161237
744.044	0.0160567
744.122	0.0161189
744.200	0.0161324
744.279	0.0159399
744.357	0.0159716
744.435	0.0159005
744.513	0.0158891
744.591	0.0159848
744.669	0.0157901
744.747	0.0158707
744.825	0.0158427
744.904	0.0159727
744.982	0.0159895
745.060	0.0159705
745.138	0.0160139
745.216	0.0159895
745.294	0.0161977
745.372	0.0160135
745.450	0.0160920
745.529	0.0162837
745.607	0.0163323
745.685	0.0163654
745.763	0.0162958
745.841	0.0163642
745.919	0.0164886
745.997	0.0165757
746.075	0.0166232
746.154	0.0165018
746.232	0.0164890
746.310	0.0165731
746.388	0.0165905
746.466	0.0165538
746.544	0.0165433
746.622	0.0165893
746.700	0.0166279
746.779	0.0164867
746.857	0.0164640
746.935	0.0164595
747.013	0.0163580
747.091	0.0162773
747.169	0.0162448
747.247	0.0161905
747.325	0.0161562
747.404	0.0161388
747.482	0.0158777
747.560	0.0157706
747.638	0.0157817
747.716	0.0156391
747.794	0.0156289
747.872	0.0154541
747.950	0.0153036
748.029	0.0155450
748.107	0.0153642
748.185	0.0151804
748.263	0.0153154
748.341	0.0152775
748.419	0.0151642
748.497	0.0154092
748.575	0.0152674
748.654	0.0153894
748.732	0.0154758
748.810	0.0156251
748.888	0.0156214
748.966	0.0155605
749.044	0.0156357
749.122	0.0156541
749.200	0.0157298
749.279	0.0157301
749.357	0.0158308
749.435	0.0158267
749.513	0.0156692
749.591	0.0157597
749.669	0.0158723
749.747	0.0158228
749.825	0.0157803
749.904	0.0158672
749.982	0.0159107
750.060	0.0160632
750.138	0.0160141
750.216	0.0160983
750.294	0.0161822
750.372	0.0161903
750.450	0.0161868
750.529	0.0162361
750.607	0.0162225
750.685	0.0162012
750.763	0.0160163
750.841	0.0160950
750.919	0.0161868
750.997	0.0161649
751.075	0.0162978
751.154	0.0161352
751.232	0.0161296
751.310	0.0162312
751.388	0.0162340
751.466	0.0161038
751.544	0.0162972
751.622	0.0163786
751.700	0.0162724
751.779	0.0162379
751.857	0.0162714
751.935	0.0162800
752.013	0.0161712
752.091	0.0161664
752.169	0.0160336
752.247	0.0161031
752.325	0.0161284
752.404	0.0161332
752.482	0.0159796
752.560	0.0161546
752.638	0.0161987
752.716	0.0161029
752.794	0.0161812
752.872	0.0160857
752.950	0.0161226
753.029	0.0160539
753.107	0.0160466
753.185	0.0162693
753.263	0.0160404
753.341	0.0161715
753.419	0.0161166
753.497	0.0161646
753.575	0.0161151
753.654	0.0160799
753.732	0.0162268
753.810	0.0161949
753.888	0.0163379
753.966	0.0162398
754.044	0.0162874
754.122	0.0163841
754.200	0.0162381
754.279	0.0162700
754.357	0.0163285
754.435	0.0163534
754.513	0.0161182
754.591	0.0162260
754.669	0.0162901
754.747	0.0160978
754.825	0.0160051
754.904	0.0159059
754.982	0.0158865
755.060	0.0158430
755.138	0.0157929
755.216	0.0157765
755.294	0.0158522
755.372	0.0157913
755.450	0.0157385
755.529	0.0157481
755.607	0.0156353
755.685	0.0154736
755.763	0.0155181
755.841	0.0154562
755.919	0.0155223
755.997	0.0155672
756.075	0.0156146
756.154	0.0156387
756.232	0.0155128
756.310	0.0155337
756.388	0.0155788
756.466	0.0158535
756.544	0.0157925
756.622	0.0157214
756.700	0.0160197
756.779	0.0159693
756.857	0.0160218
756.935	0.0160827
757.013	0.0158708
757.091	0.0160470
757.169	0.0161214
757.247	0.0161953
757.325	0.0161919
757.404	0.0161862
757.482	0.0160879
757.560	0.0162804
757.638	0.0162299
757.716	0.0161639
757.794	0.0161694
757.872	0.0161192
757.950	0.0158779
758.029	0.0159319
758.107	0.0158865
758.185	0.0159749
758.263	0.0159173
758.341	0.0159171
758.419	0.0157738
758.497	0.0158305
758.575	0.0157555
758.654	0.0158356
758.732	0.0159044
758.810	0.0159114
758.888	0.0159918
758.966	0.0160052
759.044	0.0160364
759.122	0.0162172
759.200	0.0160410
759.279	0.0160939
759.357	0.0162337
759.435	0.0162950
759.513	0.0163597
759.591	0.0163596
759.669	0.0161982
759.747	0.0163136
759.825	0.0163268
759.904	0.0163334
759.982	0.0164368
760.060	0.0163897
760.138	0.0164033
760.216	0.0164098
760.294	0.0162419
760.372	0.0164229
760.450	0.0163924
760.529	0.0165297
760.607	0.0164123
760.685	0.0163210
760.763	0.0164279
760.841	0.0164176
760.919	0.0164821
760.997	0.0163676
761.075	0.0161377
761.154	0.0160811
761.232	0.0160104
761.310	0.0159693
761.388	0.0158753
761.466	0.0158167
761.544	0.0157428
761.622	0.0157551
761.700	0.0157585
761.779	0.0156819
761.857	0.0157064
761.935	0.0158159
762.013	0.0158648
762.091	0.0157458
762.169	0.0158175
762.247	0.0159023
762.325	0.0159698
762.404	0.0160479
762.482	0.0161140
762.560	0.0160139
762.638	0.0161515
762.716	0.0161573
762.794	0.0161275
762.872	0.0161119
762.950	0.0160720
763.029	0.0160130
763.107	0.0161376
763.185	0.0161513
763.263	0.0161324
763.341	0.0158450
763.419	0.0159068
763.497	0.0159858
763.575	0.0159750
763.654	0.0158839
763.732	0.0158316
763.810	0.0157756
763.888	0.0157661
763.966	0.0156178
764.044	0.0157630
764.122	0.0156849
764.200	0.0157034
764.279	0.0156080
764.357	0.0154975
764.435	0.0155521
764.513	0.0156833
764.591	0.0156444
764.669	0.0156338
764.747	0.0156470
764.825	0.0156418
764.904	0.0156368
764.982	0.0158968
765.060	0.0158494
765.138	0.0157629
765.216	0.0156469
765.294	0.0158313
765.372	0.0158972
765.450	0.0160323
765.529	0.0159495
765.607	0.0159664
765.685	0.0161663
765.763	0.0161192
765.841	0.0160686
765.919	0.0160914
765.997	0.0161734
766.075	0.0160724
766.154	0.0160731
766.232	0.0160725
766.310	0.0159256
766.388	0.0160694
766.466	0.0159894
766.544	0.0159142
766.622	0.0160358
766.700	0.0159196
766.779	0.0159257
766.857	0.0159463
766.935	0.0160088
767.013	0.0160563
767.091	0.0160032
767.169	0.0159407
767.247	0.0160747
767.325	0.0161018
767.404	0.0161832
767.482	0.0161675
767.560	0.0160910
767.638	0.0161853
767.716	0.0160532
767.794	0.0162038
767.872	0.0161235
767.950	0.0162365
768.029	0.0160735
768.107	0.0161496
768.185	0.0162323
768.263	0.0161203
768.341	0.0160958
768.419	0.0162901
768.497	0.0161192
768.575	0.0161835
768.654	0.0162154
768.732	0.0161665
768.810	0.0161880
768.888	0.0162371
768.966	0.0162714
769.044	0.0161626
769.122	0.0161694
769.200	0.0161916
769.279	0.0161250
769.357	0.0161555
769.435	0.0159918
769.513	0.0159921
769.591	0.0161959
769.669	0.0160125
769.747	0.0158801
769.825	0.0160259
769.904	0.0158789
769.982	0.0158410
770.060	0.0160424
770.138	0.0160239
770.216	0.0158525
770.294	0.0158369
770.372	0.0157668
770.450	0.0159214
770.529	0.0160498
770.607	0.0160632
770.685	0.0159972
770.763	0.0161412
770.841	0.0160544
770.919	0.0161563
770.997	0.0163363
771.075	0.0160777
771.154	0.0162594
771.232	0.0161958
771.310	0.0161596
771.388	0.0161694
771.466	0.0160342
771.544	0.0159539
771.622	0.0158386
771.700	0.0157159
771.779	0.0157627
771.857	0.0156971
771.935	0.0156329
772.013	0.0155349
772.091	0.0155110
772.169	0.0155080
772.247	0.0154793
772.325	0.0154736
772.404	0.0154060
772.482	0.0154863
772.560	0.0155153
772.638	0.0154833
772.716	0.0155231
772.794	0.0156217
772.872	0.0156306
772.950	0.0158329
773.029	0.0158959
773.107	0.0160117
773.185	0.0161105
773.263	0.0161556
773.341	0.0161964
773.419	0.0160972
773.497	0.0162991
773.575	0.0163732
773.654	0.0163866
773.732	0.0164986
773.810	0.0164787
773.888	0.0165343
773.966	0.0164376
774.044	0.0164347
774.122	0.0163851
774.200	0.0163567
774.279	0.0162337
774.357	0.0161006
774.435	0.0161327
774.513	0.0159126
774.591	0.0159946
774.669	0.0158028
774.747	0.0157085
774.825	0.0155569
774.904	0.0158650
774.982	0.0156568
775.060	0.0156580
775.138	0.0155596
775.216	0.0158502
775.294	0.0159472
775.372	0.0159613
775.450	0.0158537
775.529	0.0158881
775.607	0.0159103
775.685	0.0160976
775.763	0.0161669
775.841	0.0160590
775.919	0.0162740
775.997	0.0162987
776.075	0.0163799
776.154	0.0162773
776.232	0.0162396
776.310	0.0164715
776.388	0.0165526
776.466	0.0165053
776.544	0.0164404
776.622	0.0164412
776.700	0.0166451
776.779	0.0165234
776.857	0.0164957
776.935	0.0166301
777.013	0.0164567
777.091	0.0163732
777.169	0.0162612
777.247	0.0162032
777.325	0.0161630
777.404	0.0160072
777.482	0.0161022
777.560	0.0160104
777.638	0.0159064
777.716	0.0157506
777.794	0.0156805
777.872	0.0156234
777.950	0.0155704
778.029	0.0154273
778.107	0.0153833
778.185	0.0154093
778.263	0.0152726
778.341	0.0152398
778.419	0.0152943
778.497	0.0154432
778.575	0.0153342
778.654	0.0154987
778.732	0.0155509
778.810	0.0154945
778.888	0.0155324
778.966	0.0155251
779.044	0.0156859
779.122	0.0158554
779.200	0.0159785
779.279	0.0159621
779.357	0.0160881
779.435	0.0161274
779.513	0.0161683
779.591	0.0161196
779.669	0.0161625
779.747	0.0161456
779.825	0.0161275
779.904	0.0161064
779.982	0.0161277
780.060	0.0158582
780.138	0.0159598
780.216	0.0159246
780.294	0.0158267
780.372	0.0158355
780.450	0.0156940
780.529	0.0158202
780.607	0.0157920
780.685	0.0157686
780.763	0.0157493
780.841	0.0157471
780.919	0.0158422
780.997	0.0158233
781.075	0.0159162
781.154	0.0160162
781.232	0.0160760
781.310	0.0161413
781.388	0.0161207
781.466	0.0162551
781.544	0.0162399
781.622	0.0163783
781.700	0.0163362
781.779	0.0163298
781.857	0.0162194
781.935	0.0162769
782.013	0.0161947
782.091	0.0162423
782.169	0.0162429
782.247	0.0161149
782.325	0.0163525
782.404	0.0162875
782.482	0.0161560
782.560	0.0160036
782.638	0.0160816
782.716	0.0159872
782.794	0.0160185
782.872	0.0159274
782.950	0.0158598
783.029	0.0159093
783.107	0.0158794
783.185	0.0159319
783.263	0.0157644
783.341	0.0158076
783.419	0.0157249
783.497	0.0158385
783.575	0.0157482
783.654	0.0158434
783.732	0.0157858
783.810	0.0157475
783.888	0.0156380
783.966	0.0157580
784.044	0.0158708
784.122	0.0158045
784.200	0.0158059
784.279	0.0160118
784.357	0.0158837
784.435	0.0160175
784.513	0.0160666
784.591	0.0160977
784.669	0.0162553
784.747	0.0162287
784.825	0.0160427
784.904	0.0161820
784.982	0.0161894
785.060	0.0162307
785.138	0.0162173
785.216	0.0162774
785.294	0.0162082
785.372	0.0161720
785.450	0.0161336
785.529	0.0160364
785.607	0.0160854
785.685	0.0159737
785.763	0.0160565
785.841	0.0161018
785.919	0.0160367
785.997	0.0159393
786.075	0.0161259
786.154	0.0161200
786.232	0.0161176
786.310	0.0160792
786.388	0.0160427
786.466	0.0161404
786.544	0.0159927
786.622	0.0159889
786.700	0.0159947
786.779	0.0157964
786.857	0.0158097
786.935	0.0158366
787.013	0.0157647
787.091	0.0158170
787.169	0.0157521
787.247	0.0158019
787.325	0.0156811
787.404	0.0155878
787.482	0.0156261
787.560	0.0157793
787.638	0.0156213
787.716	0.0155368
787.794	0.0156804
787.872	0.0156541
787.950	0.0156979
788.029	0.0157765
788.107	0.0159132
788.185	0.0160487
788.263	0.0158979
788.341	0.0159064
788.419	0.0160259
788.497	0.0161690
788.575	0.0163359
788.654	0.0161184
788.732	0.0162113
788.810	0.0162148
788.888	0.0161602
788.966	0.0161156
789.044	0.0159370
789.122	0.0160274
789.200	0.0158852
789.279	0.0157097
789.357	0.0158017
789.435	0.0157924
789.513	0.0155589
789.591	0.0154795
789.669	0.0154556
789.747	0.0154182
789.825	0.0154939
789.904	0.0155269
789.982	0.0152615
790.060	0.0153423
790.138	0.0153670
790.216	0.0153883
790.294	0.0154060
790.372	0.0154184
790.450	0.0155274
790.529	0.0157605
790.607	0.0160137
790.685	0.0162459
790.763	0.0165025
790.841	0.0167152
790.919	0.0169194
790.997	0.0171730
791.075	0.0173415
791.154	0.0175256
791.232	0.0176875
791.310	0.0178490
791.388	0.0179668
791.466	0.0178802
791.544	0.0176968
791.622	0.0176352
791.700	0.0174262
791.779	0.0170622
791.857	0.0168140
791.935	0.0163715
792.013	0.0163578
792.091	0.0159224
792.169	0.0156302
792.247	0.0152059
792.325	0.0149671
792.404	0.0148753
792.482	0.0147108
792.560	0.0145524
792.638	0.0143416
792.716	0.0142035
792.794	0.0142585
792.872	0.0142711
792.950	0.0142941
793.029	0.0142812
793.107	0.0143686
793.185	0.0146371
793.263	0.0148422
793.341	0.0150497
793.419	0.0154769
793.497	0.0155305
793.575	0.0157689
793.654	0.0161033
793.732	0.0164414
793.810	0.0165742
793.888	0.0167996
793.966	0.0168653
794.044	0.0170919
794.122	0.0170998
794.200	0.0171881
794.279	0.0172658
794.357	0.0171995
794.435	0.0172574
794.513	0.0170604
794.591	0.0170631
794.669	0.0170395
794.747	0.0169118
794.825	0.0168578
794.904	0.0167222
794.982	0.0166409
795.060	0.0165768
795.138	0.0164001
795.216	0.0162321
795.294	0.0160712
795.372	0.0159554
795.450	0.0157265
795.529	0.0156680
795.607	0.0153415
795.685	0.0153132
795.763	0.0153084
795.841	0.0151066
795.919	0.0150590
795.997	0.0148074
796.075	0.0147324
796.154	0.0148002
796.232	0.0147925
796.310	0.0147241
796.388	0.0147332
796.466	0.0149242
796.544	0.0149361
796.622	0.0149323
796.700	0.0151026
796.779	0.0152339
796.857	0.0154565
796.935	0.0156200
797.013	0.0158322
797.091	0.0159623
797.169	0.0161208
797.247	0.0164014
797.325	0.0165778
797.404	0.0166292
797.482	0.0169100
797.560	0.0172200
797.638	0.0169795
797.716	0.0170198
797.794	0.0171854
797.872	0.0172024
797.950	0.0172790
798.029	0.0173907
798.107	0.0171684
798.185	0.0171080
798.263	0.0169711
798.341	0.0169563
798.419	0.0171365
798.497	0.0167954
798.575	0.0166443
798.654	0.0166253
798.732	0.0165948
798.810	0.0163406
798.888	0.0161842
798.966	0.0161272
799.044	0.0159923
799.122	0.0157655
799.200	0.0156009
799.279	0.0155602
799.357	0.0154240
799.435	0.0154137
799.513	0.0152409
799.591	0.0151924
799.669	0.0150877
799.747	0.0151807
799.825	0.0153358
799.904	0.0151923
799.982	0.0153385
800.060	0.0151787
800.138	0.0151401
800.216	0.0153716
800.294	0.0152899
800.372	0.0153529
800.450	0.0154790
800.529	0.0156087
800.607	0.0157066
800.685	0.0155933
800.763	0.0156801
800.841	0.0158140
800.919	0.0160521
800.997	0.0159283
801.075	0.0160293
801.154	0.0161145
801.232	0.0162289
801.310	0.0162527
801.388	0.0162556
801.466	0.0162062
801.544	0.0162524
801.622	0.0162879
801.700	0.0162698
801.779	0.0163663
801.857	0.0161790
801.935	0.0161980
802.013	0.0161729
802.091	0.0161503
802.169	0.0161970
802.247	0.0161443
802.325	0.0160321
802.404	0.0160432
802.482	0.0160263
802.560	0.0161245
802.638	0.0159945
802.716	0.0159186
802.794	0.0159911
802.872	0.0158427
802.950	0.0158505
803.029	0.0158663
803.107	0.0158423
803.185	0.0157048
803.263	0.0157706
803.341	0.0158097
803.419	0.0158878
803.497	0.0159899
803.575	0.0158830
803.654	0.0160000
803.732	0.0160978
803.810	0.0161344
803.888	0.0161161
803.966	0.0162170
804.044	0.0162756
804.122	0.0163706
804.200	0.0163174
804.279	0.0162904
804.357	0.0162169
804.435	0.0162273
804.513	0.0161989
804.591	0.0161108
804.669	0.0159095
804.747	0.0160334
804.825	0.0159655
804.904	0.0159912
804.982	0.0156767
805.060	0.0157323
805.138	0.0157044
805.216	0.0158151
805.294	0.0156024
805.372	0.0156735
805.450	0.0155911
805.529	0.0154932
805.607	0.0157384
805.685	0.0154869
805.763	0.0156078
805.841	0.0155849
805.919	0.0157028
805.997	0.0158786
806.075	0.0157437
806.154	0.0157340
806.232	0.0158430
806.310	0.0159775
806.388	0.0160393
806.466	0.0159991
806.544	0.0160682
806.622	0.0160100
806.700	0.0162158
806.779	0.0162867
806.857	0.0164203
806.935	0.0164856
807.013	0.0165363
807.091	0.0164636
807.169	0.0164317
807.247	0.0166309
807.325	0.0165569
807.404	0.0165400
807.482	0.0164818
807.560	0.0165691
807.638	0.0163081
807.716	0.0163076
807.794	0.0162531
807.872	0.0161687
807.950	0.0160811
808.029	0.0161012
808.107	0.0157990
808.185	0.0157360
808.263	0.0156447
808.341	0.0157253
808.419	0.0157226
808.497	0.0157590
808.575	0.0157198
808.654	0.0157748
808.732	0.0158080
808.810	0.0158617
808.888	0.0158382
808.966	0.0158193
809.044	0.0159985
809.122	0.0161456
809.200	0.0160739
809.279	0.0162325
809.357	0.0159756
809.435	0.0159679
809.513	0.0160344
809.591	0.0161156
809.669	0.0159704
809.747	0.0160251
809.825	0.0161165
809.904	0.0160893
809.982	0.0159798
810.060	0.0159674
810.138	0.0159506
810.216	0.0159467
810.294	0.0158991
810.372	0.0159614
810.450	0.0158656
810.529	0.0158752
810.607	0.0157281
810.685	0.0158722
810.763	0.0157731
810.841	0.0158698
810.919	0.0157834
810.997	0.0159840
811.075	0.0159550
811.154	0.0159283
811.232	0.0159719
811.310	0.0159995
811.388	0.0160218
811.466	0.0159164
811.544	0.0158476
811.622	0.0159579
811.700	0.0160160
811.779	0.0158661
811.857	0.0159122
811.935	0.0160011
812.013	0.0159821
812.091	0.0159808
812.169	0.0160354
812.247	0.0160122
812.325	0.0160330
812.404	0.0160619
812.482	0.0159779
812.560	0.0160368
812.638	0.0160077
812.716	0.0161310
812.794	0.0160518
812.872	0.0161320
812.950	0.0160265
813.029	0.0159194
813.107	0.0159940
813.185	0.0157980
813.263	0.0158493
813.341	0.0159431
813.419	0.0160268
813.497	0.0159742
813.575	0.0157603
813.654	0.0158600
813.732	0.0158348
813.810	0.0157986
813.888	0.0158472
813.966	0.0157746
814.044	0.0157009
814.122	0.0156883
814.200	0.0157101
814.279	0.0157400
814.357	0.0157344
814.435	0.0158863
814.513	0.0156961
814.591	0.0157072
814.669	0.0157905
814.747	0.0159505
814.825	0.0161037
814.904	0.0159052
814.982	0.0161198
815.060	0.0162024
815.138	0.0161663
815.216	0.0161790
815.294	0.0162228
815.372	0.0163313
815.450	0.0162916
815.529	0.0164513
815.607	0.0163269
815.685	0.0163096
815.763	0.0163526
815.841	0.0165488
815.919	0.0164590
815.997	0.0163972
816.075	0.0164120
816.154	0.0163757
816.232	0.0164281
816.310	0.0163288
816.388	0.0161736
816.466	0.0164715
816.544	0.0162638
816.622	0.0161362
816.700	0.0161905
816.779	0.0160398
816.857	0.0159348
816.935	0.0159512
817.013	0.0157445
817.091	0.0156855
817.169	0.0155729
817.247	0.0155515
817.325	0.0156337
817.404	0.0154884
817.482	0.0155851
817.560	0.0154073
817.638	0.0154325
817.716	0.0155061
817.794	0.0156177
817.872	0.0155829
817.950	0.0156101
818.029	0.0156113
818.107	0.0157039
818.185	0.0158092
818.263	0.0158495
818.341	0.0159577
818.419	0.0158822
818.497	0.0159476
818.575	0.0160385
818.654	0.0160532
818.732	0.0161247
818.810	0.0159498
818.888	0.0160450
818.966	0.0160116
819.044	0.0160698
819.122	0.0160355
819.200	0.0160079
819.279	0.0160330
819.357	0.0158614
819.435	0.0160917
819.513	0.0158251
819.591	0.0159226
819.669	0.0159629
819.747	0.0159598
819.825	0.0159699
819.904	0.0158640
819.982	0.0157482
820.060	0.0159000
820.138	0.0157510
820.216	0.0157504
820.294	0.0157334
820.372	0.0157153
820.450	0.0158837
820.529	0.0158359
820.607	0.0157761
820.685	0.0158601
820.763	0.0158753
820.841	0.0158626
820.919	0.0158688
820.997	0.0160950
821.075	0.0160612
821.154	0.0160287
821.232	0.0162183
821.310	0.0161886
821.388	0.0161505
821.466	0.0163307
821.544	0.0162450
821.622	0.0164068
821.700	0.0163570
821.779	0.0164719
821.857	0.0165386
821.935	0.0166698
822.013	0.0163048
822.091	0.0164697
822.169	0.0164532
822.247	0.0164522
822.325	0.0164372
822.404	0.0163161
822.482	0.0162775
822.560	0.0163061
822.638	0.0162608
822.716	0.0161860
822.794	0.0160861
822.872	0.0160543
822.950	0.0159693
823.029	0.0160684
823.107	0.0159972
823.185	0.0159648
823.263	0.0159110
823.341	0.0159766
823.419	0.0159011
823.497	0.0158521
823.575	0.0161093
823.654	0.0159936
823.732	0.0159101
823.810	0.0161552
823.888	0.0162221
823.966	0.0160653
824.044	0.0160355
824.122	0.0159578
824.200	0.0159339
824.279	0.0159888
824.357	0.0158786
824.435	0.0158621
824.513	0.0158420
824.591	0.0158685
824.669	0.0157660
824.747	0.0158582
824.825	0.0157872
824.904	0.0157061
824.982	0.0155775
825.060	0.0156789
825.138	0.0157281
825.216	0.0157242
825.294	0.0156365
825.372	0.0155497
825.450	0.0156202
825.529	0.0156064
825.607	0.0156616
825.685	0.0154079
825.763	0.0155678
825.841	0.0154786
825.919	0.0156366
825.997	0.0155955
826.075	0.0155794
826.154	0.0156350
826.232	0.0157304
826.310	0.0158391
826.388	0.0159055
826.466	0.0160966
826.544	0.0159923
826.622	0.0161642
826.700	0.0161656
826.779	0.0164295
826.857	0.0164871
826.935	0.0163059
827.013	0.0164425
827.091	0.0164368
827.169	0.0165480
827.247	0.0165828
827.325	0.0164792
827.404	0.0165163
827.482	0.0164616
827.560	0.0164815
827.638	0.0164796
827.716	0.0164488
827.794	0.0164225
827.872	0.0163851
827.950	0.0162296
828.029	0.0163103
828.107	0.0162090
828.185	0.0161986
828.263	0.0161349
828.341	0.0161654
828.419	0.0160321
828.497	0.0159840
828.575	0.0158681
828.654	0.0158771
828.732	0.0158488
828.810	0.0156299
828.888	0.0159410
828.966	0.0156759
829.044	0.0156789
829.122	0.0158329
829.200	0.0158782
829.279	0.0157005
829.357	0.0158070
829.435	0.0159868
829.513	0.0159314
829.591	0.0158624
829.669	0.0159679
829.747	0.0159802
829.825	0.0158097
829.904	0.0157295
829.982	0.0157268
830.060	0.0159164
830.138	0.0157960
830.216	0.0156722
830.294	0.0156490
830.372	0.0157107
830.450	0.0155908
830.529	0.0155840
830.607	0.0156004
830.685	0.0156939
830.763	0.0157907
830.841	0.0156730
830.919	0.0156680
830.997	0.0158669
831.075	0.0158724
831.154	0.0158443
831.232	0.0159008
831.310	0.0159081
831.388	0.0159211
831.466	0.0159842
831.544	0.0162311
831.622	0.0162825
831.700	0.0162107
831.779	0.0163548
831.857	0.0163093
831.935	0.0163210
832.013	0.0163341
832.091	0.0164384
832.169	0.0164021
832.247	0.0164446
832.325	0.0163388
832.404	0.0163089
832.482	0.0164304
832.560	0.0164850
832.638	0.0162925
832.716	0.0163828
832.794	0.0164423
832.872	0.0163319
832.950	0.0162533
833.029	0.0160912
833.107	0.0162038
833.185	0.0161434
833.263	0.0161059
833.341	0.0160881
833.419	0.0159421
833.497	0.0158642
833.575	0.0159112
833.654	0.0158365
833.732	0.0158330
833.810	0.0156835
833.888	0.0157868
833.966	0.0156474
834.044	0.0157365
834.122	0.0157458
834.200	0.0158091
834.279	0.0156460
834.357	0.0155759
834.435	0.0155571
834.513	0.0155785
834.591	0.0156136
834.669	0.0156667
834.747	0.0156281
834.825	0.0157048
834.904	0.0154630
834.982	0.0155480
835.060	0.0155501
835.138	0.0157059
835.216	0.0158421
835.294	0.0155682
835.372	0.0157740
835.450	0.0159743
835.529	0.0159623
835.607	0.0160370
835.685	0.0160007
835.763	0.0161858
835.841	0.0161251
835.919	0.0162555
835.997	0.0163055
836.075	0.0163251
836.154	0.0164206
836.232	0.0164246
836.310	0.0163463
836.388	0.0163583
836.466	0.0165034
836.544	0.0165215
836.622	0.0162669
836.700	0.0163668
836.779	0.0162199
836.857	0.0163937
836.935	0.0162569
837.013	0.0162562
837.091	0.0162603
837.169	0.0161775
837.247	0.0159569
837.325	0.0161285
837.404	0.0159110
837.482	0.0160471
837.560	0.0159113
837.638	0.0160173
837.716	0.0159624
837.794	0.0159566
837.872	0.0159076
837.950	0.0161433
838.029	0.0161321
838.107	0.0161144
838.185	0.0159769
838.263	0.0159482
838.341	0.0159821
838.419	0.0158425
838.497	0.0159235
838.575	0.0158719
838.654	0.0157565
838.732	0.0159569
838.810	0.0157068
838.888	0.0158231
838.966	0.0157170
839.044	0.0157996
839.122	0.0156554
839.200	0.0156886
839.279	0.0156915
839.357	0.0157406
839.435	0.0156513
839.513	0.0157095
839.591	0.0157285
839.669	0.0156710
839.747	0.0157331
839.825	0.0157990
839.904	0.0157172
839.982	0.0157742
840.060	0.0156799
840.138	0.0158239
840.216	0.0158225
840.294	0.0157600
840.372	0.0159451
840.450	0.0158992
840.529	0.0157983
840.607	0.0157394
840.685	0.0159888
840.763	0.0159191
840.841	0.0159727
840.919	0.0159795
840.997	0.0160768
841.075	0.0160479
841.154	0.0160088
841.232	0.0160800
841.310	0.0162296
841.388	0.0161787
841.466	0.0161433
841.544	0.0161312
841.622	0.0162386
841.700	0.0163962
841.779	0.0162284
841.857	0.0160924
841.935	0.0163560
842.013	0.0162795
842.091	0.0162915
842.169	0.0163380
842.247	0.0162364
842.325	0.0163132
842.404	0.0162366
842.482	0.0163454
842.560	0.0162643
842.638	0.0162390
842.716	0.0163478
842.794	0.0162394
842.872	0.0161584
842.950	0.0160861
843.029	0.0162259
843.107	0.0161190
843.185	0.0161938
843.263	0.0161555
843.341	0.0161716
843.419	0.0161383
843.497	0.0161135
843.575	0.0160042
843.654	0.0160867
843.732	0.0160688
843.810	0.0159861
843.888	0.0158213
843.966	0.0160008
844.044	0.0158737
844.122	0.0157851
844.200	0.0157628
844.279	0.0159512
844.357	0.0157475
844.435	0.0157638
844.513	0.0158681
844.591	0.0158672
844.669	0.0158968
844.747	0.0158354
844.825	0.0159693
844.904	0.0159721
844.982	0.0158822
845.060	0.0158331
845.138	0.0160466
845.216	0.0161012
845.294	0.0160240
845.372	0.0160542
845.450	0.0160160
845.529	0.0158723
845.607	0.0158993
845.685	0.0160395
845.763	0.0158733
845.841	0.0158857
845.919	0.0158512
845.997	0.0157941
846.075	0.0159206
846.154	0.0159025
846.232	0.0157686
846.310	0.0158163
846.388	0.0156837
846.466	0.0157955
846.544	0.0157467
846.622	0.0156469
846.700	0.0158160
846.779	0.0157569
846.857	0.0156057
846.935	0.0158051
847.013	0.0156915
847.091	0.0156635
847.169	0.0155188
847.247	0.0156824
847.325	0.0156974
847.404	0.0157793
847.482	0.0158128
847.560	0.0158544
847.638	0.0159359
847.716	0.0159570
847.794	0.0159273
847.872	0.0161134
847.950	0.0161982
848.029	0.0162219
848.107	0.0160799
848.185	0.0161903
848.263	0.0163552
848.341	0.0161749
848.419	0.0162679
848.497	0.0162816
848.575	0.0163490
848.654	0.0162319
848.732	0.0163754
848.810	0.0163664
848.888	0.0163071
848.966	0.0164799
849.044	0.0162903
849.122	0.0163591
849.200	0.0163224
849.279	0.0163384
849.357	0.0163800
849.435	0.0162895
849.513	0.0163700
849.591	0.0163569
849.669	0.0161444
849.747	0.0161462
849.825	0.0161835
849.904	0.0161057
849.982	0.0161406
850.060	0.0161869
850.138	0.0161798
850.216	0.0160267
850.294	0.0157933
850.372	0.0159668
850.450	0.0159975
850.529	0.0158000
850.607	0.0159138
850.685	0.0158755
850.763	0.0158337
850.841	0.0157396
850.919	0.0157186
850.997	0.0158109
851.075	0.0157328
851.154	0.0157720
851.232	0.0157333
851.310	0.0156767
851.388	0.0156485
851.466	0.0156145
851.544	0.0157033
851.622	0.0157436
851.700	0.0156891
851.779	0.0157807
851.857	0.0157992
851.935	0.0159128
852.013	0.0156430
852.091	0.0158205
852.169	0.0157681
852.247	0.0158976
852.325	0.0158459
852.404	0.0158257
852.482	0.0159008
852.560	0.0158473
852.638	0.0159062
852.716	0.0158385
852.794	0.0157948
852.872	0.0159130
852.950	0.0158838
853.029	0.0159973
853.107	0.0159547
853.185	0.0160126
853.263	0.0160699
853.341	0.0160480
853.419	0.0160818
853.497	0.0161682
853.575	0.0160558
853.654	0.0161342
853.732	0.0162868
853.810	0.0163398
853.888	0.0162840
853.966	0.0162989
854.044	0.0163380
854.122	0.0162768
854.200	0.0162489
854.279	0.0163792
854.357	0.0163139
854.435	0.0162304
854.513	0.0164735
854.591	0.0164377
854.669	0.0162968
854.747	0.0163167
854.825	0.0162908
854.904	0.0163169
854.982	0.0162775
855.060	0.0163888
855.138	0.0162578
855.216	0.0162590
855.294	0.0161883
855.372	0.0163480
855.450	0.0162332
855.529	0.0160302
855.607	0.0161816
855.685	0.0160777
855.763	0.0160410
855.841	0.0161109
855.919	0.0161829
855.997	0.0160548
856.075	0.0159651
856.154	0.0159007
856.232	0.0159775
856.310	0.0158932
856.388	0.0156659
856.466	0.0157325
856.544	0.0157181
856.622	0.0158078
856.700	0.0157287
856.779	0.0156083
856.857	0.0156437
856.935	0.0155363
857.013	0.0154501
857.091	0.0156167
857.169	0.0155383
857.247	0.0156231
857.325	0.0155879
857.404	0.0156931
857.482	0.0156976
857.560	0.0157466
857.638	0.0158253
857.716	0.0158820
857.794	0.0158970
857.872	0.0159958
857.950	0.0160054
858.029	0.0162300
858.107	0.0161328
858.185	0.0161845
858.263	0.0164136
858.341	0.0164513
858.419	0.0164931
858.497	0.0165461
858.575	0.0166016
858.654	0.0165304
858.732	0.0164806
858.810	0.0166953
858.888	0.0165010
858.966	0.0165459
859.044	0.0165919
859.122	0.0166840
859.200	0.0165875
859.279	0.0164126
859.357	0.0164743
859.435	0.0163906
859.513	0.0163687
859.591	0.0162975
859.669	0.0162797
859.747	0.0163866
859.825	0.0162508
859.904	0.0162121
859.982	0.0160925
860.060	0.0162462
860.138	0.0161520
860.216	0.0160865
860.294	0.0161050
860.372	0.0160429
860.450	0.0160332
860.529	0.0159109
860.607	0.0159386
860.685	0.0158158
860.763	0.0156434
860.841	0.0158004
860.919	0.0156963
860.997	0.0156532
861.075	0.0156263
861.154	0.0155945
861.232	0.0155048
861.310	0.0154935
861.388	0.0154474
861.466	0.0154251
861.544	0.0154127
861.622	0.0155201
861.700	0.0155930
861.779	0.0154420
861.857	0.0155113
861.935	0.0156179
862.013	0.0155260
862.091	0.0157185
862.169	0.0156962
862.247	0.0157335
862.325	0.0157703
862.404	0.0160509
862.482	0.0159709
862.560	0.0160303
862.638	0.0159862
862.716	0.0160912
862.794	0.0160781
862.872	0.0163002
862.950	0.0162925
863.029	0.0161408
863.107	0.0161874
863.185	0.0162020
863.263	0.0162352
863.341	0.0163226
863.419	0.0162887
863.497	0.0163838
863.575	0.0164034
863.654	0.0164941
863.732	0.0164905
863.810	0.0163081
863.888	0.0165883
863.966	0.0163767
864.044	0.0163468
864.122	0.0163419
864.200	0.0162780
864.279	0.0162925
864.357	0.0163771
864.435	0.0163417
864.513	0.0162389
864.591	0.0160606
864.669	0.0161060
864.747	0.0160913
864.825	0.0161598
864.904	0.0161707
864.982	0.0161786
865.060	0.0160057
865.138	0.0161917
865.216	0.0162437
865.294	0.0161581
865.372	0.0162321
865.450	0.0161360
865.529	0.0161678
865.607	0.0163430
865.685	0.0160641
865.763	0.0161221
865.841	0.0161228
865.919	0.0160394
865.997	0.0157776
866.075	0.0159619
866.154	0.0159531
866.232	0.0159280
866.310	0.0158386
866.388	0.0159255
866.466	0.0157635
866.544	0.0158875
866.622	0.0159560
866.700	0.0157905
866.779	0.0158777
866.857	0.0158908
866.935	0.0157619
867.013	0.0159275
867.091	0.0158660
867.169	0.0157004
867.247	0.0157780
867.325	0.0157873
867.404	0.0157448
867.482	0.0158222
867.560	0.0156853
867.638	0.0157084
867.716	0.0157222
867.794	0.0157053
867.872	0.0156046
867.950	0.0156819
868.029	0.0158123
868.107	0.0158873
868.185	0.0157917
868.263	0.0158669
868.341	0.0158475
868.419	0.0159062
868.497	0.0160360
868.575	0.0158938
868.654	0.0159988
868.732	0.0161079
868.810	0.0161319
868.888	0.0160925
868.966	0.0161024
869.044	0.0160013
869.122	0.0160281
869.200	0.0160583
869.279	0.0161617
869.357	0.0161639
869.435	0.0161201
869.513	0.0162787
869.591	0.0160583
869.669	0.0161578
869.747	0.0161211
869.825	0.0161282
869.904	0.0161524
869.982	0.0161782
870.060	0.0162601
870.138	0.0162218
870.216	0.0162396
870.294	0.0163166
870.372	0.0163532
870.450	0.0162511
870.529	0.0162965
870.607	0.0162024
870.685	0.0161967
870.763	0.0162856
870.841	0.0161717
870.919	0.0161246
870.997	0.0160542
871.075	0.0162018
871.154	0.0161176
871.232	0.0159865
871.310	0.0158710
871.388	0.0158472
871.466	0.0157736
871.544	0.0157304
871.622	0.0157671
871.700	0.0158051
871.779	0.0157496
871.857	0.0157787
871.935	0.0156866
872.013	0.0156384
872.091	0.0158803
872.169	0.0158138
872.247	0.0157211
872.325	0.0157625
872.404	0.0157629
872.482	0.0156495
872.560	0.0157131
872.638	0.0158987
872.716	0.0159234
872.794	0.0159151
872.872	0.0160696
872.950	0.0160183
873.029	0.0160630
873.107	0.0160831
873.185	0.0161545
873.263	0.0162265
873.341	0.0162745
873.419	0.0161008
873.497	0.0162556
873.575	0.0163679
873.654	0.0163036
873.732	0.0163744
873.810	0.0163260
873.888	0.0163204
873.966	0.0162017
874.044	0.0162475
874.122	0.0163295
874.200	0.0163380
874.279	0.0161317
874.357	0.0161848
874.435	0.0161645
874.513	0.0162339
874.591	0.0161156
874.669	0.0160567
874.747	0.0160349
874.825	0.0159401
874.904	0.0159792
874.982	0.0160269
875.060	0.0158647
875.138	0.0157105
875.216	0.0157964
875.294	0.0158710
875.372	0.0155798
875.450	0.0157047
875.529	0.0156512
875.607	0.0156697
875.685	0.0156081
875.763	0.0154588
875.841	0.0155218
875.919	0.0155184
875.997	0.0155894
876.075	0.0156848
876.154	0.0156828
876.232	0.0157670
876.310	0.0156660
876.388	0.0158417
876.466	0.0159103
876.544	0.0158923
876.622	0.0159456
876.700	0.0159204
876.779	0.0159602
876.857	0.0160136
876.935	0.0160800
877.013	0.0159753
877.091	0.0160180
877.169	0.0160297
877.247	0.0160036
877.325	0.0158672
877.404	0.0159650
877.482	0.0159633
877.560	0.0160695
877.638	0.0159597
877.716	0.0159714
877.794	0.0160036
877.872	0.0159763
877.950	0.0159727
878.029	0.0158522
878.107	0.0159792
878.185	0.0159539
878.263	0.0161552
878.341	0.0160555
878.419	0.0159163
878.497	0.0160664
878.575	0.0161416
878.654	0.0160020
878.732	0.0161728
878.810	0.0160065
878.888	0.0160314
878.966	0.0160077
879.044	0.0161072
879.122	0.0161150
879.200	0.0163177
879.279	0.0161355
879.357	0.0161146
879.435	0.0161966
879.513	0.0162288
879.591	0.0161872
879.669	0.0162539
879.747	0.0162369
879.825	0.0161367
879.904	0.0163103
879.982	0.0163507
880.060	0.0162157
880.138	0.0160736
880.216	0.0160508
880.294	0.0162302
880.372	0.0161262
880.450	0.0160515
880.529	0.0161060
880.607	0.0160301
880.685	0.0161111
880.763	0.0160630
880.841	0.0159592
880.919	0.0158580
880.997	0.0160337
881.075	0.0158837
881.154	0.0158493
881.232	0.0157994
881.310	0.0159209
881.388	0.0158657
881.466	0.0158246
881.544	0.0160136
881.622	0.0160134
881.700	0.0159325
881.779	0.0159330
881.857	0.0158279
881.935	0.0157977
882.013	0.0158122
882.091	0.0156419
882.169	0.0155625
882.247	0.0156204
882.325	0.0154940
882.404	0.0154945
882.482	0.0154922
882.560	0.0154448
882.638	0.0155247
882.716	0.0154256
882.794	0.0154228
882.872	0.0156007
882.950	0.0155434
883.029	0.0156267
883.107	0.0154549
883.185	0.0156016
883.263	0.0157924
883.341	0.0159344
883.419	0.0161953
883.497	0.0161539
883.575	0.0164181
883.654	0.0165262
883.732	0.0168663
883.810	0.0168730
883.888	0.0166235
883.966	0.0167825
884.044	0.0168684
884.122	0.0166098
884.200	0.0164975
884.279	0.0163881
884.357	0.0161410
884.435	0.0158783
884.513	0.0158233
884.591	0.0156438
884.669	0.0155504
884.747	0.0154538
884.825	0.0152566
884.904	0.0153258
884.982	0.0152676
885.060	0.0152938
885.138	0.0153308
885.216	0.0155106
885.294	0.0155495
885.372	0.0156078
885.450	0.0157311
885.529	0.0159747
885.607	0.0159367
885.685	0.0159094
885.763	0.0161539
885.841	0.0161890
885.919	0.0161905
885.997	0.0165524
886.075	0.0165300
886.154	0.0164800
886.232	0.0168766
886.310	0.0169324
886.388	0.0170013
886.466	0.0170579
886.544	0.0170046
886.622	0.0168941
886.700	0.0167673
886.779	0.0167448
886.857	0.0166212
886.935	0.0162912
887.013	0.0159466
887.091	0.0156905
887.169	0.0153918
887.247	0.0151725
887.325	0.0149515
887.404	0.0146670
887.482	0.0145125
887.560	0.0146396
887.638	0.0145866
887.716	0.0147354
887.794	0.0147705
887.872	0.0148751
887.950	0.0149758
888.029	0.0152321
888.107	0.0155103
888.185	0.0155854
888.263	0.0159727
888.341	0.0162409
888.419	0.0162409
888.497	0.0163523
888.575	0.0166434
888.654	0.0167191
888.732	0.0166840
888.810	0.0169874
888.888	0.0170266
888.966	0.0171288
889.044	0.0172642
889.122	0.0171680
889.200	0.0171968
889.279	0.0170100
889.357	0.0168755
889.435	0.0169250
889.513	0.0166702
889.591	0.0166125
889.669	0.0164116
889.747	0.0161604
889.825	0.0160488
889.904	0.0156512
889.982	0.0154700
890.060	0.0153460
890.138	0.0152065
890.216	0.0151281
890.294	0.0149881
890.372	0.0149198
890.450	0.0148716
890.529	0.0149137
890.607	0.0151121
890.685	0.0150989
890.763	0.0151778
890.841	0.0153640
890.919	0.0155926
890.997	0.0157499
891.075	0.0158938
891.154	0.0159106
891.232	0.0161250
891.310	0.0163210
891.388	0.0163504
891.466	0.0163429
891.544	0.0164423
891.622	0.0163453
891.700	0.0164842
891.779	0.0165324
891.857	0.0165439
891.935	0.0166309
892.013	0.0165154
892.091	0.0162988
892.169	0.0163079
892.247	0.0165929
892.325	0.0164359
892.404	0.0162138
892.482	0.0162934
892.560	0.0162244
892.638	0.0161475
892.716	0.0160806
892.794	0.0159689
892.872	0.0159797
892.950	0.0158212
893.029	0.0157912
893.107	0.0158218
893.185	0.0155563
893.263	0.0155423
893.341	0.0155779
893.419	0.0155635
893.497	0.0154667
893.575	0.0153431
893.654	0.0155502
893.732	0.0155130
893.810	0.0156380
893.888	0.0156246
893.966	0.0158508
894.044	0.0158297
894.122	0.0158483
894.200	0.0159650
894.279	0.0160798
894.357	0.0160394
894.435	0.0160444
894.513	0.0160960
894.591	0.0161566
894.669	0.0162257
894.747	0.0162791
894.825	0.0161465
894.904	0.0161768
894.982	0.0161922
895.060	0.0163921
895.138	0.0162255
895.216	0.0161266
895.294	0.0161527
895.372	0.0161770
895.450	0.0161148
895.529	0.0161358
895.607	0.0159698
895.685	0.0159575
895.763	0.0161432
895.841	0.0160371
895.919	0.0159503
895.997	0.0159115
896.075	0.0159425
896.154	0.0159962
896.232	0.0160297
896.310	0.0158832
896.388	0.0159551
896.466	0.0160430
896.544	0.0161639
896.622	0.0161890
896.700	0.0160892
896.779	0.0160915
896.857	0.0163737
896.935	0.0163362
897.013	0.0163248
897.091	0.0162090
897.169	0.0160798
897.247	0.0161301
897.325	0.0158175
897.404	0.0159406
897.482	0.0159859
897.560	0.0157257
897.638	0.0157845
897.716	0.0157455
897.794	0.0159016
897.872	0.0156505
897.950	0.0157247
898.029	0.0157325
898.107	0.0156778
898.185	0.0156764
898.263	0.0157294
898.341	0.0157753
898.419	0.0158262
898.497	0.0156741
898.575	0.0159062
898.654	0.0159441
898.732	0.0158064
898.810	0.0158241
898.888	0.0159134
898.966	0.0160615
899.044	0.0159357
899.122	0.0160041
899.200	0.0161232
899.279	0.0160531
899.357	0.0160416
899.435	0.0161195
899.513	0.0160783
899.591	0.0159962
899.669	0.0160624
899.747	0.0160758
899.825	0.0160299
899.904	0.0158812
899.982	0.0158902
900.060	0.0158789
900.138	0.0156417
900.216	0.0157205
900.294	0.0157262
900.372	0.0155502
900.450	0.0157549
900.529	0.0156732
900.607	0.0156113
900.685	0.0156429
900.763	0.0156865
900.841	0.0157902
900.919	0.0158519
900.997	0.0158678
901.075	0.0159006
901.154	0.0159692
901.232	0.0160670
901.310	0.0162318
901.388	0.0162848
901.466	0.0162856
901.544	0.0163719
901.622	0.0163661
901.700	0.0164922
901.779	0.0166347
901.857	0.0167445
901.935	0.0166743
902.013	0.0167545
902.091	0.0166976
902.169	0.0166201
902.247	0.0165575
902.325	0.0164925
902.404	0.0164345
902.482	0.0164327
902.560	0.0161424
902.638	0.0160974
902.716	0.0159415
902.794	0.0158212
902.872	0.0158467
902.950	0.0156251
903.029	0.0156138
903.107	0.0156288
903.185	0.0154366
903.263	0.0154507
903.341	0.0153491
903.419	0.0152901
903.497	0.0151654
903.575	0.0151538
903.654	0.0151974
903.732	0.0153008
903.810	0.0154068
903.888	0.0154336
903.966	0.0156367
904.044	0.0156264
904.122	0.0158618
904.200	0.0160501
904.279	0.0160922
904.357	0.0162090
904.435	0.0163633
904.513	0.0163153
904.591	0.0164249
904.669	0.0165274
904.747	0.0165556
904.825	0.0165017
904.904	0.0165560
904.982	0.0165774
905.060	0.0164816
905.138	0.0164797
905.216	0.0163222
905.294	0.0162519
905.372	0.0161982
905.450	0.0161679
905.529	0.0161907
905.607	0.0160136
905.685	0.0160212
905.763	0.0160098
905.841	0.0159722
905.919	0.0158986
905.997	0.0159105
906.075	0.0159332
906.154	0.0159650
906.232	0.0157084
906.310	0.0157775
906.388	0.0158942
906.466	0.0158331
906.544	0.0158138
906.622	0.0157819
906.700	0.0157698
906.779	0.0156782
906.857	0.0156698
906.935	0.0158810
907.013	0.0158389
907.091	0.0158246
907.169	0.0157986
907.247	0.0158528
907.325	0.0160945
907.404	0.0158137
907.482	0.0160165
907.560	0.0161267
907.638	0.0161543
907.716	0.0161813
907.794	0.0160263
907.872	0.0159817
907.950	0.0160439
908.029	0.0159473
908.107	0.0157813
908.185	0.0159370
908.263	0.0158434
908.341	0.0157713
908.419	0.0157507
908.497	0.0157818
908.575	0.0157439
908.654	0.0156505
908.732	0.0158020
908.810	0.0157352
908.888	0.0158697
908.966	0.0159515
909.044	0.0158207
909.122	0.0158338
909.200	0.0159669
909.279	0.0160790
909.357	0.0160265
909.435	0.0160996
909.513	0.0161809
909.591	0.0162424
909.669	0.0161113
909.747	0.0162164
909.825	0.0162840
909.904	0.0162492
909.982	0.0163328
910.060	0.0163235
910.138	0.0163888
910.216	0.0164141
910.294	0.0162841
910.372	0.0163818
910.450	0.0162092
910.529	0.0161897
910.607	0.0162627
910.685	0.0160912
910.763	0.0161096
910.841	0.0161381
910.919	0.0158739
910.997	0.0158831
911.075	0.0158356
911.154	0.0159174
911.232	0.0159785
911.310	0.0159069
911.388	0.0158279
911.466	0.0156886
911.544	0.0157042
911.622	0.0157938
911.700	0.0157649
911.779	0.0157881
911.857	0.0156867
911.935	0.0157135
912.013	0.0155359
912.091	0.0157057
912.169	0.0157895
912.247	0.0157819
912.325	0.0157269
912.404	0.0158721
912.482	0.0157875
912.560	0.0158952
912.638	0.0159548
912.716	0.0159390
912.794	0.0160248
912.872	0.0161565
912.950	0.0161925
913.029	0.0160580
913.107	0.0162652
913.185	0.0161629
913.263	0.0162471
913.341	0.0161981
913.419	0.0162428
913.497	0.0162655
913.575	0.0162769
913.654	0.0162515
913.732	0.0162543
913.810	0.0161637
913.888	0.0161975
913.966	0.0161914
914.044	0.0160925
914.122	0.0159666
914.200	0.0159747
914.279	0.0159002
914.357	0.0158756
914.435	0.0159035
914.513	0.0158564
914.591	0.0156523
914.669	0.0157564
914.747	0.0158059
914.825	0.0158308
914.904	0.0157598
914.982	0.0157616
915.060	0.0159045
915.138	0.0159169
915.216	0.0158054
915.294	0.0159148
915.372	0.0157497
915.450	0.0158918
915.529	0.0158421
915.607	0.0159064
915.685	0.0160622
915.763	0.0159593
915.841	0.0159319
915.919	0.0159715
915.997	0.0160018
916.075	0.0158695
916.154	0.0159701
916.232	0.0158697
916.310	0.0158065
916.388	0.0159476
916.466	0.0159386
916.544	0.0159031
916.622	0.0157832
916.700	0.0158104
916.779	0.0159512
916.857	0.0158536
916.935	0.0158815
917.013	0.0157716
917.091	0.0157491
917.169	0.0158933
917.247	0.0159995
917.325	0.0159658
917.404	0.0160838
917.482	0.0159788
917.560	0.0160509
917.638	0.0161012
917.716	0.0161936
917.794	0.0161737
917.872	0.0160651
917.950	0.0163661
918.029	0.0163685
918.107	0.0161289
918.185	0.0163028
918.263	0.0164054
918.341	0.0163403
918.419	0.0164178
918.497	0.0165079
918.575	0.0163896
918.654	0.0163133
918.732	0.0163068
918.810	0.0163411
918.888	0.0163606
918.966	0.0163660
919.044	0.0162764
919.122	0.0162471
919.200	0.0162180
919.279	0.0161521
919.357	0.0160265
919.435	0.0159779
919.513	0.0160336
919.591	0.0159359
919.669	0.0159853
919.747	0.0158117
919.825	0.0159280
919.904	0.0159267
