05/20/2022	20:47:32	Ver.	4.1	UNKNOWN
Optical Delay	599.981738	Delta X		0.078125	Sweeps	1	Scan Rate	0/0
Coordinates	Axis 1	NaN	Axis 2	NaN	Axis 3	NaN	Axis 4	NaN	Axis 5	NaN	Axis 6	0.000000
TX Power	0.000000	RX Power	0.000000

599.982	0.0160704
600.060	0.0161362
600.138	0.0159447
600.216	0.0160476
600.294	0.0160809
600.372	0.0161002
600.450	0.0161187
600.529	0.0160578
600.607	0.0160724
600.685	0.0160182
600.763	0.0160720
600.841	0.0160849
600.919	0.0161077
600.997	0.0160692
601.075	0.0161173
601.154	0.0160531
601.232	0.0160371
601.310	0.0161007
601.388	0.0159636
601.466	0.0160266
601.544	0.0161044
601.622	0.0161232
601.700	0.0160290
601.779	0.0161211
601.857	0.0160304
601.935	0.0162014
602.013	0.0160815
602.091	0.0161604
602.169	0.0161667
602.247	0.0160529
602.325	0.0161983
602.404	0.0159942
602.482	0.0159793
602.560	0.0160784
602.638	0.0160558
602.716	0.0159924
602.794	0.0160864
602.872	0.0160920
602.950	0.0159399
603.029	0.0161009
603.107	0.0161834
603.185	0.0160638
603.263	0.0160452
603.341	0.0161348
603.419	0.0159860
603.497	0.0159935
603.575	0.0160215
603.654	0.0160123
603.732	0.0161488
603.810	0.0160873
603.888	0.0159959
603.966	0.0160937
604.044	0.0161485
604.122	0.0160596
604.200	0.0161668
604.279	0.0161185
604.357	0.0159267
604.435	0.0159534
604.513	0.0160316
604.591	0.0160161
604.669	0.0161251
604.747	0.0162054
604.825	0.0161060
604.904	0.0161456
604.982	0.0160184
605.060	0.0160114
605.138	0.0160123
605.216	0.0161108
605.294	0.0159532
605.372	0.0160067
605.450	0.0161794
605.529	0.0159839
605.607	0.0160390
605.685	0.0160197
605.763	0.0160622
605.841	0.0160298
605.919	0.0160746
605.997	0.0159991
606.075	0.0160252
606.154	0.0160167
606.232	0.0160488
606.310	0.0161790
606.388	0.0160406
606.466	0.0160400
606.544	0.0158887
606.622	0.0160152
606.700	0.0160294
606.779	0.0160178
606.857	0.0158778
606.935	0.0160921
607.013	0.0160840
607.091	0.0161777
607.169	0.0159751
607.247	0.0159973
607.325	0.0161078
607.404	0.0160474
607.482	0.0160563
607.560	0.0160719
607.638	0.0160318
607.716	0.0159800
607.794	0.0160791
607.872	0.0160959
607.950	0.0160179
608.029	0.0161098
608.107	0.0160294
608.185	0.0159780
608.263	0.0160674
608.341	0.0160631
608.419	0.0160861
608.497	0.0160059
608.575	0.0159917
608.654	0.0160876
608.732	0.0160978
608.810	0.0160093
608.888	0.0159991
608.966	0.0161256
609.044	0.0161282
609.122	0.0159985
609.200	0.0160158
609.279	0.0161884
609.357	0.0159441
609.435	0.0160822
609.513	0.0160255
609.591	0.0159996
609.669	0.0160117
609.747	0.0160389
609.825	0.0160842
609.904	0.0161630
609.982	0.0159583
610.060	0.0160464
610.138	0.0160238
610.216	0.0159696
610.294	0.0160946
610.372	0.0160783
610.450	0.0161017
610.529	0.0161724
610.607	0.0160839
610.685	0.0160140
610.763	0.0160918
610.841	0.0161440
610.919	0.0160818
610.997	0.0160820
611.075	0.0160159
611.154	0.0161913
611.232	0.0160446
611.310	0.0159367
611.388	0.0160316
611.466	0.0161396
611.544	0.0159620
611.622	0.0160967
611.700	0.0162257
611.779	0.0160734
611.857	0.0159480
611.935	0.0160352
612.013	0.0160289
612.091	0.0159512
612.169	0.0160944
612.247	0.0161592
612.325	0.0160866
612.404	0.0160637
612.482	0.0160882
612.560	0.0159317
612.638	0.0159987
612.716	0.0161011
612.794	0.0160712
612.872	0.0161005
612.950	0.0160149
613.029	0.0160202
613.107	0.0160727
613.185	0.0161399
613.263	0.0159634
613.341	0.0160962
613.419	0.0160017
613.497	0.0158947
613.575	0.0161233
613.654	0.0159846
613.732	0.0159056
613.810	0.0160473
613.888	0.0161509
613.966	0.0159732
614.044	0.0160695
614.122	0.0160950
614.200	0.0160053
614.279	0.0158832
614.357	0.0159938
614.435	0.0160429
614.513	0.0159841
614.591	0.0161450
614.669	0.0161758
614.747	0.0160737
614.825	0.0160382
614.904	0.0160894
614.982	0.0161559
615.060	0.0161499
615.138	0.0160600
615.216	0.0161627
615.294	0.0160389
615.372	0.0160191
615.450	0.0159988
615.529	0.0160028
615.607	0.0161136
615.685	0.0161380
615.763	0.0160136
615.841	0.0160298
615.919	0.0159863
615.997	0.0160831
616.075	0.0160397
616.154	0.0159449
616.232	0.0161288
616.310	0.0161369
616.388	0.0160062
616.466	0.0160297
616.544	0.0160419
616.622	0.0161004
616.700	0.0159889
616.779	0.0159988
616.857	0.0159792
616.935	0.0159236
617.013	0.0161199
617.091	0.0161339
617.169	0.0160363
617.247	0.0160762
617.325	0.0161202
617.404	0.0160611
617.482	0.0160325
617.560	0.0160362
617.638	0.0161216
617.716	0.0160405
617.794	0.0160342
617.872	0.0161198
617.950	0.0160707
618.029	0.0160659
618.107	0.0160658
618.185	0.0160376
618.263	0.0161465
618.341	0.0161674
618.419	0.0160813
618.497	0.0161613
618.575	0.0159638
618.654	0.0160870
618.732	0.0159945
618.810	0.0161632
618.888	0.0160673
618.966	0.0162297
619.044	0.0161259
619.122	0.0160773
619.200	0.0159497
619.279	0.0160006
619.357	0.0160626
619.435	0.0162180
619.513	0.0160381
619.591	0.0160749
619.669	0.0160484
619.747	0.0160857
619.825	0.0159872
619.904	0.0159739
619.982	0.0159737
620.060	0.0160223
620.138	0.0161523
620.216	0.0158981
620.294	0.0159902
620.372	0.0160302
620.450	0.0160478
620.529	0.0158255
620.607	0.0160126
620.685	0.0160417
620.763	0.0160347
620.841	0.0160720
620.919	0.0160664
620.997	0.0159762
621.075	0.0160466
621.154	0.0159995
621.232	0.0159010
621.310	0.0159548
621.388	0.0159501
621.466	0.0160471
621.544	0.0160987
621.622	0.0160797
621.700	0.0160639
621.779	0.0160819
621.857	0.0160803
621.935	0.0160271
622.013	0.0160793
622.091	0.0160023
622.169	0.0160810
622.247	0.0161852
622.325	0.0160911
622.404	0.0161512
622.482	0.0161895
622.560	0.0161294
622.638	0.0160648
622.716	0.0161452
622.794	0.0160785
622.872	0.0160849
622.950	0.0159698
623.029	0.0160088
623.107	0.0160751
623.185	0.0161115
623.263	0.0160304
623.341	0.0160699
623.419	0.0159312
623.497	0.0159244
623.575	0.0160076
623.654	0.0159197
623.732	0.0159132
623.810	0.0160024
623.888	0.0160441
623.966	0.0159966
624.044	0.0158834
624.122	0.0158156
624.200	0.0159155
624.279	0.0157449
624.357	0.0159641
624.435	0.0161225
624.513	0.0160100
624.591	0.0159143
624.669	0.0160281
624.747	0.0160176
624.825	0.0159373
624.904	0.0160546
624.982	0.0159458
625.060	0.0161043
625.138	0.0161943
625.216	0.0159829
625.294	0.0160900
625.372	0.0160117
625.450	0.0161831
625.529	0.0160751
625.607	0.0162379
625.685	0.0160029
625.763	0.0160302
625.841	0.0160962
625.919	0.0161896
625.997	0.0161050
626.075	0.0161342
626.154	0.0160291
626.232	0.0160344
626.310	0.0160992
626.388	0.0160683
626.466	0.0160201
626.544	0.0159802
626.622	0.0160755
626.700	0.0160092
626.779	0.0160586
626.857	0.0162410
626.935	0.0161710
627.013	0.0161666
627.091	0.0160445
627.169	0.0159056
627.247	0.0161056
627.325	0.0161127
627.404	0.0161529
627.482	0.0160145
627.560	0.0161122
627.638	0.0160732
627.716	0.0159956
627.794	0.0162364
627.872	0.0160639
627.950	0.0159858
628.029	0.0159579
628.107	0.0160578
628.185	0.0160253
628.263	0.0159956
628.341	0.0160686
628.419	0.0159597
628.497	0.0159187
628.575	0.0160936
628.654	0.0160590
628.732	0.0159465
628.810	0.0158129
628.888	0.0159746
628.966	0.0159376
629.044	0.0158784
629.122	0.0158917
629.200	0.0160631
629.279	0.0159549
629.357	0.0160688
629.435	0.0160464
629.513	0.0160529
629.591	0.0159663
629.669	0.0159358
629.747	0.0160386
629.825	0.0161586
629.904	0.0159898
629.982	0.0158801
630.060	0.0159698
630.138	0.0161787
630.216	0.0159216
630.294	0.0160830
630.372	0.0161481
630.450	0.0160138
630.529	0.0159946
630.607	0.0160426
630.685	0.0160851
630.763	0.0160479
630.841	0.0160015
630.919	0.0161542
630.997	0.0160174
631.075	0.0159766
631.154	0.0160697
631.232	0.0161048
631.310	0.0160184
631.388	0.0161365
631.466	0.0160760
631.544	0.0160065
631.622	0.0159200
631.700	0.0160426
631.779	0.0161795
631.857	0.0161391
631.935	0.0160806
632.013	0.0161365
632.091	0.0160960
632.169	0.0160391
632.247	0.0161022
632.325	0.0160001
632.404	0.0159447
632.482	0.0160052
632.560	0.0159976
632.638	0.0160753
632.716	0.0160201
632.794	0.0158844
632.872	0.0160545
632.950	0.0160188
633.029	0.0159604
633.107	0.0160629
633.185	0.0160095
633.263	0.0160326
633.341	0.0159852
633.419	0.0160550
633.497	0.0160654
633.575	0.0160201
633.654	0.0159651
633.732	0.0159241
633.810	0.0159810
633.888	0.0160450
633.966	0.0159288
634.044	0.0160233
634.122	0.0160472
634.200	0.0160268
634.279	0.0161205
634.357	0.0161074
634.435	0.0161100
634.513	0.0158658
634.591	0.0159970
634.669	0.0160482
634.747	0.0159403
634.825	0.0160722
634.904	0.0160232
634.982	0.0160509
635.060	0.0160156
635.138	0.0160217
635.216	0.0160218
635.294	0.0160463
635.372	0.0160756
635.450	0.0160809
635.529	0.0160425
635.607	0.0160763
635.685	0.0159022
635.763	0.0161848
635.841	0.0160834
635.919	0.0160712
635.997	0.0159638
636.075	0.0160667
636.154	0.0161020
636.232	0.0160596
636.310	0.0161562
636.388	0.0159469
636.466	0.0161266
636.544	0.0161662
636.622	0.0159933
636.700	0.0160471
636.779	0.0161241
636.857	0.0160387
636.935	0.0161649
637.013	0.0160594
637.091	0.0160672
637.169	0.0162151
637.247	0.0159993
637.325	0.0160555
637.404	0.0160593
637.482	0.0160803
637.560	0.0161397
637.638	0.0161237
637.716	0.0162012
637.794	0.0160688
637.872	0.0161146
637.950	0.0159794
638.029	0.0160394
638.107	0.0159545
638.185	0.0161139
638.263	0.0161554
638.341	0.0161534
638.419	0.0160703
638.497	0.0160673
638.575	0.0160553
638.654	0.0160453
638.732	0.0159406
638.810	0.0161476
638.888	0.0161008
638.966	0.0161170
639.044	0.0160596
639.122	0.0160244
639.200	0.0160617
639.279	0.0160723
639.357	0.0159187
639.435	0.0160559
639.513	0.0160412
639.591	0.0159097
639.669	0.0160542
639.747	0.0161364
639.825	0.0161900
639.904	0.0159888
639.982	0.0160432
640.060	0.0160626
640.138	0.0160030
640.216	0.0159958
640.294	0.0160937
640.372	0.0160619
640.450	0.0160236
640.529	0.0160933
640.607	0.0161993
640.685	0.0159974
640.763	0.0159718
640.841	0.0159900
640.919	0.0159713
640.997	0.0160880
641.075	0.0159389
641.154	0.0160572
641.232	0.0159801
641.310	0.0161674
641.388	0.0160031
641.466	0.0160028
641.544	0.0160450
641.622	0.0160300
641.700	0.0160999
641.779	0.0159878
641.857	0.0159399
641.935	0.0161396
642.013	0.0160126
642.091	0.0158966
642.169	0.0158923
642.247	0.0160870
642.325	0.0161103
642.404	0.0159771
642.482	0.0158728
642.560	0.0159702
642.638	0.0160490
642.716	0.0160558
642.794	0.0159786
642.872	0.0160540
642.950	0.0160061
643.029	0.0160458
643.107	0.0159171
643.185	0.0159383
643.263	0.0160786
643.341	0.0160698
643.419	0.0159541
643.497	0.0159857
643.575	0.0160335
643.654	0.0162272
643.732	0.0160428
643.810	0.0159888
643.888	0.0160170
643.966	0.0159947
644.044	0.0158518
644.122	0.0159668
644.200	0.0160298
644.279	0.0160207
644.357	0.0160423
644.435	0.0160542
644.513	0.0159322
644.591	0.0160097
644.669	0.0159620
644.747	0.0160493
644.825	0.0161229
644.904	0.0161330
644.982	0.0159596
645.060	0.0160860
645.138	0.0160711
645.216	0.0160049
645.294	0.0160411
645.372	0.0161839
645.450	0.0161422
645.529	0.0160285
645.607	0.0160975
645.685	0.0160641
645.763	0.0160574
645.841	0.0161034
645.919	0.0161177
645.997	0.0160223
646.075	0.0160783
646.154	0.0160561
646.232	0.0160390
646.310	0.0161307
646.388	0.0160564
646.466	0.0160739
646.544	0.0161308
646.622	0.0160495
646.700	0.0159074
646.779	0.0159648
646.857	0.0160432
646.935	0.0159674
647.013	0.0158657
647.091	0.0160421
647.169	0.0162376
647.247	0.0160104
647.325	0.0160240
647.404	0.0160335
647.482	0.0160342
647.560	0.0160075
647.638	0.0161131
647.716	0.0158414
647.794	0.0159729
647.872	0.0161498
647.950	0.0160120
648.029	0.0161565
648.107	0.0161448
648.185	0.0160936
648.263	0.0161063
648.341	0.0160385
648.419	0.0160066
648.497	0.0160186
648.575	0.0160168
648.654	0.0160500
648.732	0.0160131
648.810	0.0161903
648.888	0.0161539
648.966	0.0160555
649.044	0.0160577
649.122	0.0161032
649.200	0.0160054
649.279	0.0161359
649.357	0.0161142
649.435	0.0160547
649.513	0.0160476
649.591	0.0161076
649.669	0.0160554
649.747	0.0161644
649.825	0.0161420
649.904	0.0159858
649.982	0.0160333
650.060	0.0161570
650.138	0.0160245
650.216	0.0160312
650.294	0.0160223
650.372	0.0161794
650.450	0.0160674
650.529	0.0160568
650.607	0.0161763
650.685	0.0160844
650.763	0.0160399
650.841	0.0160824
650.919	0.0160500
650.997	0.0160710
651.075	0.0159278
651.154	0.0162184
651.232	0.0161089
651.310	0.0159006
651.388	0.0159679
651.466	0.0161953
651.544	0.0161636
651.622	0.0160134
651.700	0.0159048
651.779	0.0160406
651.857	0.0160281
651.935	0.0160719
652.013	0.0159122
652.091	0.0161076
652.169	0.0160903
652.247	0.0161201
652.325	0.0161327
652.404	0.0160383
652.482	0.0160589
652.560	0.0160334
652.638	0.0160557
652.716	0.0159599
652.794	0.0160262
652.872	0.0159436
652.950	0.0160371
653.029	0.0159981
653.107	0.0158902
653.185	0.0160075
653.263	0.0161129
653.341	0.0161263
653.419	0.0160602
653.497	0.0160943
653.575	0.0160032
653.654	0.0160335
653.732	0.0160944
653.810	0.0159493
653.888	0.0159653
653.966	0.0159858
654.044	0.0160362
654.122	0.0161243
654.200	0.0160144
654.279	0.0161063
654.357	0.0160521
654.435	0.0159634
654.513	0.0159823
654.591	0.0161543
654.669	0.0161467
654.747	0.0161445
654.825	0.0161756
654.904	0.0161115
654.982	0.0160741
655.060	0.0160168
655.138	0.0160844
655.216	0.0160517
655.294	0.0160434
655.372	0.0160142
655.450	0.0162136
655.529	0.0162321
655.607	0.0159634
655.685	0.0160268
655.763	0.0161131
655.841	0.0160165
655.919	0.0160101
655.997	0.0160461
656.075	0.0161688
656.154	0.0160978
656.232	0.0159654
656.310	0.0161357
656.388	0.0160619
656.466	0.0160595
656.544	0.0160670
656.622	0.0159303
656.700	0.0159789
656.779	0.0160809
656.857	0.0160502
656.935	0.0161030
657.013	0.0162023
657.091	0.0160000
657.169	0.0159775
657.247	0.0158811
657.325	0.0161024
657.404	0.0160343
657.482	0.0159882
657.560	0.0161491
657.638	0.0160981
657.716	0.0160143
657.794	0.0159672
657.872	0.0159708
657.950	0.0162157
658.029	0.0161333
658.107	0.0160099
658.185	0.0160883
658.263	0.0160161
658.341	0.0161842
658.419	0.0161014
658.497	0.0160356
658.575	0.0160222
658.654	0.0161257
658.732	0.0159098
658.810	0.0160508
658.888	0.0159856
658.966	0.0160762
659.044	0.0160806
659.122	0.0160056
659.200	0.0159866
659.279	0.0157877
659.357	0.0161240
659.435	0.0160386
659.513	0.0159653
659.591	0.0159282
659.669	0.0158588
659.747	0.0161036
659.825	0.0161719
659.904	0.0160708
659.982	0.0160229
660.060	0.0160530
660.138	0.0160832
660.216	0.0159978
660.294	0.0159818
660.372	0.0160976
660.450	0.0161259
660.529	0.0160284
660.607	0.0159528
660.685	0.0159016
660.763	0.0160977
660.841	0.0160771
660.919	0.0159669
660.997	0.0161515
661.075	0.0161156
661.154	0.0159673
661.232	0.0161385
661.310	0.0160514
661.388	0.0159958
661.466	0.0160631
661.544	0.0160323
661.622	0.0160719
661.700	0.0160709
661.779	0.0161633
661.857	0.0159461
661.935	0.0159938
662.013	0.0159999
662.091	0.0160222
662.169	0.0160550
662.247	0.0159614
662.325	0.0160846
662.404	0.0160746
662.482	0.0160421
662.560	0.0161080
662.638	0.0159897
662.716	0.0161149
662.794	0.0159888
662.872	0.0160906
662.950	0.0160015
663.029	0.0159968
663.107	0.0160549
663.185	0.0160925
663.263	0.0161203
663.341	0.0159520
663.419	0.0159111
663.497	0.0160453
663.575	0.0159553
663.654	0.0160579
663.732	0.0160500
663.810	0.0159967
663.888	0.0161018
663.966	0.0161045
664.044	0.0158396
664.122	0.0159044
664.200	0.0159631
664.279	0.0161405
664.357	0.0161324
664.435	0.0160102
664.513	0.0159666
664.591	0.0159104
664.669	0.0160477
664.747	0.0160680
664.825	0.0161582
664.904	0.0159741
664.982	0.0159540
665.060	0.0160410
665.138	0.0161044
665.216	0.0160875
665.294	0.0159621
665.372	0.0160158
665.450	0.0161163
665.529	0.0160938
665.607	0.0158928
665.685	0.0160374
665.763	0.0161855
665.841	0.0161079
665.919	0.0159198
665.997	0.0160751
666.075	0.0160030
666.154	0.0159203
666.232	0.0160490
666.310	0.0159431
666.388	0.0159539
666.466	0.0159818
666.544	0.0160445
666.622	0.0160295
666.700	0.0160513
666.779	0.0160941
666.857	0.0159278
666.935	0.0159792
667.013	0.0160271
667.091	0.0160458
667.169	0.0161351
667.247	0.0160855
667.325	0.0160239
667.404	0.0160509
667.482	0.0161736
667.560	0.0160768
667.638	0.0160760
667.716	0.0160222
667.794	0.0160999
667.872	0.0160614
667.950	0.0161781
668.029	0.0161371
668.107	0.0161054
668.185	0.0160625
668.263	0.0160355
668.341	0.0160976
668.419	0.0160011
668.497	0.0161578
668.575	0.0162131
668.654	0.0160359
668.732	0.0159901
668.810	0.0161896
668.888	0.0161344
668.966	0.0161359
669.044	0.0160406
669.122	0.0160867
669.200	0.0161801
669.279	0.0161504
669.357	0.0160472
669.435	0.0160114
669.513	0.0160381
669.591	0.0161444
669.669	0.0161044
669.747	0.0159724
669.825	0.0161311
669.904	0.0161137
669.982	0.0160818
670.060	0.0161918
670.138	0.0161684
670.216	0.0161100
670.294	0.0159820
670.372	0.0160998
670.450	0.0161606
670.529	0.0160911
670.607	0.0161560
670.685	0.0161251
670.763	0.0160938
670.841	0.0160945
670.919	0.0159593
670.997	0.0160638
671.075	0.0161456
671.154	0.0160944
671.232	0.0160178
671.310	0.0160826
671.388	0.0161565
671.466	0.0160452
671.544	0.0160062
671.622	0.0160711
671.700	0.0160799
671.779	0.0159884
671.857	0.0160026
671.935	0.0159827
672.013	0.0162066
672.091	0.0159636
672.169	0.0159083
672.247	0.0161258
672.325	0.0161434
672.404	0.0160374
672.482	0.0160303
672.560	0.0161904
672.638	0.0161581
672.716	0.0161320
672.794	0.0160856
672.872	0.0160529
672.950	0.0159989
673.029	0.0160624
673.107	0.0161073
673.185	0.0160717
673.263	0.0160815
673.341	0.0160955
673.419	0.0160806
673.497	0.0159757
673.575	0.0159881
673.654	0.0161052
673.732	0.0160831
673.810	0.0160975
673.888	0.0159644
673.966	0.0159761
674.044	0.0160581
674.122	0.0160305
674.200	0.0161198
674.279	0.0159914
674.357	0.0160767
674.435	0.0161437
674.513	0.0159671
674.591	0.0157755
674.669	0.0160177
674.747	0.0161911
674.825	0.0160783
674.904	0.0159906
674.982	0.0161942
675.060	0.0160720
675.138	0.0160163
675.216	0.0159340
675.294	0.0160706
675.372	0.0160734
675.450	0.0159447
675.529	0.0161835
675.607	0.0158989
675.685	0.0161198
675.763	0.0161237
675.841	0.0160870
675.919	0.0160267
675.997	0.0159955
676.075	0.0161285
676.154	0.0160442
676.232	0.0161489
676.310	0.0160943
676.388	0.0160201
676.466	0.0160793
676.544	0.0159798
676.622	0.0159598
676.700	0.0160103
676.779	0.0161378
676.857	0.0161350
676.935	0.0159627
677.013	0.0160784
677.091	0.0161474
677.169	0.0159602
677.247	0.0159139
677.325	0.0161160
677.404	0.0160809
677.482	0.0159517
677.560	0.0160325
677.638	0.0160480
677.716	0.0159990
677.794	0.0159710
677.872	0.0161169
677.950	0.0161203
678.029	0.0161002
678.107	0.0159624
678.185	0.0159645
678.263	0.0159743
678.341	0.0160331
678.419	0.0159881
678.497	0.0158495
678.575	0.0160019
678.654	0.0159737
678.732	0.0159847
678.810	0.0160418
678.888	0.0160773
678.966	0.0160347
679.044	0.0158839
679.122	0.0160027
679.200	0.0161138
679.279	0.0159086
679.357	0.0161169
679.435	0.0160513
679.513	0.0158592
679.591	0.0160171
679.669	0.0160478
679.747	0.0159171
679.825	0.0160303
679.904	0.0159290
679.982	0.0160118
680.060	0.0160907
680.138	0.0160328
680.216	0.0160528
680.294	0.0159470
680.372	0.0160260
680.450	0.0160037
680.529	0.0159779
680.607	0.0161337
680.685	0.0161108
680.763	0.0159452
680.841	0.0159834
680.919	0.0160149
680.997	0.0160957
681.075	0.0160217
681.154	0.0158947
681.232	0.0159007
681.310	0.0160871
681.388	0.0159321
681.466	0.0158533
681.544	0.0159005
681.622	0.0160351
681.700	0.0159611
681.779	0.0159834
681.857	0.0158186
681.935	0.0160194
682.013	0.0161540
682.091	0.0160126
682.169	0.0160354
682.247	0.0160494
682.325	0.0161334
682.404	0.0160751
682.482	0.0160217
682.560	0.0160345
682.638	0.0159883
682.716	0.0159143
682.794	0.0161668
682.872	0.0161411
682.950	0.0159438
683.029	0.0160416
683.107	0.0159414
683.185	0.0160038
683.263	0.0160683
683.341	0.0159979
683.419	0.0160246
683.497	0.0161613
683.575	0.0161172
683.654	0.0159786
683.732	0.0160384
683.810	0.0159985
683.888	0.0160358
683.966	0.0159760
684.044	0.0158027
684.122	0.0159864
684.200	0.0158980
684.279	0.0160178
684.357	0.0158751
684.435	0.0159705
684.513	0.0159406
684.591	0.0159705
684.669	0.0159916
684.747	0.0161226
684.825	0.0159173
684.904	0.0161052
684.982	0.0160703
685.060	0.0161302
685.138	0.0159846
685.216	0.0159930
685.294	0.0160372
685.372	0.0160412
685.450	0.0161227
685.529	0.0160444
685.607	0.0159824
685.685	0.0161153
685.763	0.0161810
685.841	0.0160395
685.919	0.0160134
685.997	0.0160478
686.075	0.0160712
686.154	0.0161162
686.232	0.0160848
686.310	0.0160189
686.388	0.0161054
686.466	0.0160004
686.544	0.0160279
686.622	0.0160372
686.700	0.0160568
686.779	0.0161641
686.857	0.0161246
686.935	0.0161205
687.013	0.0160895
687.091	0.0160534
687.169	0.0159367
687.247	0.0159972
687.325	0.0159126
687.404	0.0159554
687.482	0.0160148
687.560	0.0157700
687.638	0.0159297
687.716	0.0156699
687.794	0.0158405
687.872	0.0157981
687.950	0.0155542
688.029	0.0156380
688.107	0.0157805
688.185	0.0156776
688.263	0.0156570
688.341	0.0159550
688.419	0.0159462
688.497	0.0160468
688.575	0.0162108
688.654	0.0163551
688.732	0.0164623
688.810	0.0167491
688.888	0.0167072
688.966	0.0167242
689.044	0.0167400
689.122	0.0167104
689.200	0.0168736
689.279	0.0166126
689.357	0.0163091
689.435	0.0164237
689.513	0.0162053
689.591	0.0160136
689.669	0.0157576
689.747	0.0155776
689.825	0.0153023
689.904	0.0149775
689.982	0.0149595
690.060	0.0148129
690.138	0.0145528
690.216	0.0145296
690.294	0.0143565
690.372	0.0144968
690.450	0.0146680
690.529	0.0148465
690.607	0.0151613
690.685	0.0156951
690.763	0.0162602
690.841	0.0166687
690.919	0.0172676
690.997	0.0176592
691.075	0.0180779
691.154	0.0184855
691.232	0.0189109
691.310	0.0190402
691.388	0.0191265
691.466	0.0191671
691.544	0.0188766
691.622	0.0184466
691.700	0.0179242
691.779	0.0173898
691.857	0.0166359
691.935	0.0158245
692.013	0.0151419
692.091	0.0143945
692.169	0.0137414
692.247	0.0131217
692.325	0.0125439
692.404	0.0124256
692.482	0.0121413
692.560	0.0121659
692.638	0.0123099
692.716	0.0124368
692.794	0.0128667
692.872	0.0132642
692.950	0.0135399
693.029	0.0138998
693.107	0.0143566
693.185	0.0149104
693.263	0.0152205
693.341	0.0155862
693.419	0.0159743
693.497	0.0165548
693.575	0.0171814
693.654	0.0176746
693.732	0.0182705
693.810	0.0189687
693.888	0.0194302
693.966	0.0201543
694.044	0.0205376
694.122	0.0208559
694.200	0.0211254
694.279	0.0212802
694.357	0.0215574
694.435	0.0212529
694.513	0.0209924
694.591	0.0204650
694.669	0.0199508
694.747	0.0193496
694.825	0.0186458
694.904	0.0179450
694.982	0.0169996
695.060	0.0162865
695.138	0.0152805
695.216	0.0145289
695.294	0.0139082
695.372	0.0130582
695.450	0.0120947
695.529	0.0114442
695.607	0.0106613
695.685	0.00980659
695.763	0.00897522
695.841	0.00833649
695.919	0.00780449
695.997	0.00738808
696.075	0.00719482
696.154	0.00728851
696.232	0.00741936
696.310	0.00815407
696.388	0.00914612
696.466	0.0102129
696.544	0.0117445
696.622	0.0134684
696.700	0.0153036
696.779	0.0171549
696.857	0.0189742
696.935	0.0207185
697.013	0.0221830
697.091	0.0236571
697.169	0.0243227
697.247	0.0250712
697.325	0.0255923
697.404	0.0257441
697.482	0.0254982
697.560	0.0252752
697.638	0.0246951
697.716	0.0240538
697.794	0.0234236
697.872	0.0227416
697.950	0.0218456
698.029	0.0212177
698.107	0.0205348
698.185	0.0197887
698.263	0.0190479
698.341	0.0186118
698.419	0.0178227
698.497	0.0172247
698.575	0.0165979
698.654	0.0159203
698.732	0.0150681
698.810	0.0142196
698.888	0.0133494
698.966	0.0124359
699.044	0.0117013
699.122	0.0107356
699.200	0.0100492
699.279	0.00925430
699.357	0.00884361
699.435	0.00838593
699.513	0.00809410
699.591	0.00796387
699.669	0.00784767
699.747	0.00771492
699.825	0.00772606
699.904	0.00774925
699.982	0.00763229
700.060	0.00776665
700.138	0.00767166
700.216	0.00770554
700.294	0.00805672
700.372	0.00811554
700.450	0.00845863
700.529	0.00912148
700.607	0.0100793
700.685	0.0112698
700.763	0.0128191
700.841	0.0145780
700.919	0.0166817
700.997	0.0191312
701.075	0.0214758
701.154	0.0241333
701.232	0.0264367
701.310	0.0287870
701.388	0.0307202
701.466	0.0321061
701.544	0.0331721
701.622	0.0336488
701.700	0.0337690
701.779	0.0333172
701.857	0.0324901
701.935	0.0315002
702.013	0.0301918
702.091	0.0286538
702.169	0.0270831
702.247	0.0254585
702.325	0.0236880
702.404	0.0219136
702.482	0.0199360
702.560	0.0180176
702.638	0.0160905
702.716	0.0137613
702.794	0.0115466
702.872	0.00932709
702.950	0.00712349
703.029	0.00537476
703.107	0.00331963
703.185	0.00186722
703.263	0.000580292
703.341	-0.000218124
703.419	-0.000605774
703.497	-0.000756760
703.575	-0.000349731
703.654	0.000619354
703.732	0.00154716
703.810	0.00289665
703.888	0.00457817
703.966	0.00639030
704.044	0.00823143
704.122	0.0102001
704.200	0.0119084
704.279	0.0134036
704.357	0.0147466
704.435	0.0161198
704.513	0.0170341
704.591	0.0177824
704.669	0.0185642
704.747	0.0190051
704.825	0.0195599
704.904	0.0197146
704.982	0.0200958
705.060	0.0203483
705.138	0.0206541
705.216	0.0211300
705.294	0.0217523
705.372	0.0220930
705.450	0.0224755
705.529	0.0230621
705.607	0.0234005
705.685	0.0238368
705.763	0.0241192
705.841	0.0242439
705.919	0.0245090
705.997	0.0246337
706.075	0.0244846
706.154	0.0245687
706.232	0.0242945
706.310	0.0240908
706.388	0.0239777
706.466	0.0236116
706.544	0.0230206
706.622	0.0224720
706.700	0.0218254
706.779	0.0210417
706.857	0.0200641
706.935	0.0190211
707.013	0.0177346
707.091	0.0165303
707.169	0.0151308
707.247	0.0136687
707.325	0.0121821
707.404	0.0106090
707.482	0.00927071
707.560	0.00816444
707.638	0.00713936
707.716	0.00625977
707.794	0.00565933
707.872	0.00537560
707.950	0.00512253
708.029	0.00514969
708.107	0.00551102
708.185	0.00582314
708.263	0.00632980
708.341	0.00690384
708.419	0.00746773
708.497	0.00828545
708.575	0.00927277
708.654	0.0101948
708.732	0.0110748
708.810	0.0121921
708.888	0.0133826
708.966	0.0143192
709.044	0.0156051
709.122	0.0164725
709.200	0.0176476
709.279	0.0185664
709.357	0.0192983
709.435	0.0199749
709.513	0.0203961
709.591	0.0208710
709.669	0.0211530
709.747	0.0211484
709.825	0.0212823
709.904	0.0212440
709.982	0.0211896
710.060	0.0212190
710.138	0.0210590
710.216	0.0209603
710.294	0.0206907
710.372	0.0205555
710.450	0.0202850
710.529	0.0200397
710.607	0.0198360
710.685	0.0197771
710.763	0.0196063
710.841	0.0193488
710.919	0.0189490
710.997	0.0188274
711.075	0.0185498
711.154	0.0184190
711.232	0.0180743
711.310	0.0177518
711.388	0.0174171
711.466	0.0172288
711.544	0.0168829
711.622	0.0164799
711.700	0.0160822
711.779	0.0158231
711.857	0.0155027
711.935	0.0150246
712.013	0.0147899
712.091	0.0144936
712.169	0.0140728
712.247	0.0136182
712.325	0.0133347
712.404	0.0129076
712.482	0.0126691
712.560	0.0125318
712.638	0.0123948
712.716	0.0124026
712.794	0.0124609
712.872	0.0125918
712.950	0.0128724
713.029	0.0131496
713.107	0.0139072
713.185	0.0142874
713.263	0.0147948
713.341	0.0152608
713.419	0.0158176
713.497	0.0162349
713.575	0.0165817
713.654	0.0167561
713.732	0.0166386
713.810	0.0164543
713.888	0.0162782
713.966	0.0158362
714.044	0.0156522
714.122	0.0152403
714.200	0.0146644
714.279	0.0145020
714.357	0.0141640
714.435	0.0141175
714.513	0.0140209
714.591	0.0140830
714.669	0.0144170
714.747	0.0146612
714.825	0.0147610
714.904	0.0151148
714.982	0.0154632
715.060	0.0158274
715.138	0.0162303
715.216	0.0165775
715.294	0.0166791
715.372	0.0170467
715.450	0.0172797
715.529	0.0175523
715.607	0.0175594
715.685	0.0176792
715.763	0.0178069
715.841	0.0179670
715.919	0.0180785
715.997	0.0180143
716.075	0.0180010
716.154	0.0180779
716.232	0.0179523
716.310	0.0180971
716.388	0.0179145
716.466	0.0179887
716.544	0.0178099
716.622	0.0175655
716.700	0.0177020
716.779	0.0174304
716.857	0.0171916
716.935	0.0170097
717.013	0.0169913
717.091	0.0168935
717.169	0.0168039
717.247	0.0169224
717.325	0.0168751
717.404	0.0167751
717.482	0.0168996
717.560	0.0169746
717.638	0.0168459
717.716	0.0166730
717.794	0.0165784
717.872	0.0162872
717.950	0.0161443
718.029	0.0158054
718.107	0.0153715
718.185	0.0151260
718.263	0.0146270
718.341	0.0140131
718.419	0.0135734
718.497	0.0134425
718.575	0.0133123
718.654	0.0130186
718.732	0.0131320
718.810	0.0132978
718.888	0.0138068
718.966	0.0141179
719.044	0.0145458
719.122	0.0150108
719.200	0.0154267
719.279	0.0158035
719.357	0.0163247
719.435	0.0166785
719.513	0.0169200
719.591	0.0168438
719.669	0.0170854
719.747	0.0172437
719.825	0.0169701
719.904	0.0169869
719.982	0.0171455
720.060	0.0168641
720.138	0.0167616
720.216	0.0163666
720.294	0.0164317
720.372	0.0162433
720.450	0.0160346
720.529	0.0157741
720.607	0.0153590
720.685	0.0150191
720.763	0.0149834
720.841	0.0148698
720.919	0.0146819
720.997	0.0143461
721.075	0.0143399
721.154	0.0144216
721.232	0.0144615
721.310	0.0144507
721.388	0.0147877
721.466	0.0151098
721.544	0.0154029
721.622	0.0157823
721.700	0.0161926
721.779	0.0167474
721.857	0.0172547
721.935	0.0177047
722.013	0.0181680
722.091	0.0184810
722.169	0.0186466
722.247	0.0188824
722.325	0.0186659
722.404	0.0186198
722.482	0.0184894
722.560	0.0179784
722.638	0.0177206
722.716	0.0172947
722.794	0.0169904
722.872	0.0165362
722.950	0.0162615
723.029	0.0157502
723.107	0.0155891
723.185	0.0155109
723.263	0.0153819
723.341	0.0153709
723.419	0.0153281
723.497	0.0153381
723.575	0.0154413
723.654	0.0151756
723.732	0.0153565
723.810	0.0153874
723.888	0.0153637
723.966	0.0154343
724.044	0.0153777
724.122	0.0153857
724.200	0.0154118
724.279	0.0155093
724.357	0.0155577
724.435	0.0156562
724.513	0.0157024
724.591	0.0159335
724.669	0.0161931
724.747	0.0162669
724.825	0.0164066
724.904	0.0165219
724.982	0.0167784
725.060	0.0169118
725.138	0.0169028
725.216	0.0169759
725.294	0.0168596
725.372	0.0166899
725.450	0.0168530
725.529	0.0167349
725.607	0.0166539
725.685	0.0163714
725.763	0.0163156
725.841	0.0161703
725.919	0.0161124
725.997	0.0158890
726.075	0.0158975
726.154	0.0157787
726.232	0.0156010
726.310	0.0154868
726.388	0.0153799
726.466	0.0152884
726.544	0.0152158
726.622	0.0152077
726.700	0.0152260
726.779	0.0152724
726.857	0.0153482
726.935	0.0153558
727.013	0.0152303
727.091	0.0153174
727.169	0.0154105
727.247	0.0152763
727.325	0.0154017
727.404	0.0153340
727.482	0.0153307
727.560	0.0153242
727.638	0.0153764
727.716	0.0153274
727.794	0.0153798
727.872	0.0155084
727.950	0.0157376
728.029	0.0157228
728.107	0.0159575
728.185	0.0161017
728.263	0.0162231
728.341	0.0165356
728.419	0.0165121
728.497	0.0166161
728.575	0.0167116
728.654	0.0168323
728.732	0.0168239
728.810	0.0167094
728.888	0.0168813
728.966	0.0167807
729.044	0.0168502
729.122	0.0165952
729.200	0.0165966
729.279	0.0164825
729.357	0.0167402
729.435	0.0168752
729.513	0.0166533
729.591	0.0168552
729.669	0.0169089
729.747	0.0169324
729.825	0.0170400
729.904	0.0171185
729.982	0.0170030
730.060	0.0169916
730.138	0.0170895
730.216	0.0170223
730.294	0.0170343
730.372	0.0170215
730.450	0.0168960
730.529	0.0167397
730.607	0.0164834
730.685	0.0163979
730.763	0.0162126
730.841	0.0159023
730.919	0.0158848
730.997	0.0155328
731.075	0.0153904
731.154	0.0151278
731.232	0.0151007
731.310	0.0149537
731.388	0.0149363
731.466	0.0149727
731.544	0.0147575
731.622	0.0149104
731.700	0.0148495
731.779	0.0148408
731.857	0.0149269
731.935	0.0149600
732.013	0.0148647
732.091	0.0149452
732.169	0.0150774
732.247	0.0151591
732.325	0.0150163
732.404	0.0152190
732.482	0.0154017
732.560	0.0155882
732.638	0.0157564
732.716	0.0158150
732.794	0.0160004
732.872	0.0161823
732.950	0.0162920
733.029	0.0165170
733.107	0.0166003
733.185	0.0166721
733.263	0.0167976
733.341	0.0169830
733.419	0.0171096
733.497	0.0172974
733.575	0.0172171
733.654	0.0172386
733.732	0.0170804
733.810	0.0172059
733.888	0.0170636
733.966	0.0169456
734.044	0.0167978
734.122	0.0166418
734.200	0.0164716
734.279	0.0162851
734.357	0.0162418
734.435	0.0160175
734.513	0.0159319
734.591	0.0157818
734.669	0.0157365
734.747	0.0155719
734.825	0.0156801
734.904	0.0157811
734.982	0.0157755
735.060	0.0159074
735.138	0.0158978
735.216	0.0160299
735.294	0.0159533
735.372	0.0159113
735.450	0.0158205
735.529	0.0158706
735.607	0.0157486
735.685	0.0158282
735.763	0.0155559
735.841	0.0155492
735.919	0.0151571
735.997	0.0150155
736.075	0.0150658
736.154	0.0149808
736.232	0.0148900
736.310	0.0150636
736.388	0.0150945
736.466	0.0151038
736.544	0.0152013
736.622	0.0154290
736.700	0.0156860
736.779	0.0159715
736.857	0.0160813
736.935	0.0162388
737.013	0.0163920
737.091	0.0166013
737.169	0.0167111
737.247	0.0169473
737.325	0.0169109
737.404	0.0171080
737.482	0.0171474
737.560	0.0171767
737.638	0.0170053
737.716	0.0171610
737.794	0.0169178
737.872	0.0167937
737.950	0.0166393
738.029	0.0166549
738.107	0.0165239
738.185	0.0163646
738.263	0.0161307
738.341	0.0161429
738.419	0.0160203
738.497	0.0158990
738.575	0.0159958
738.654	0.0158885
738.732	0.0158264
738.810	0.0158278
738.888	0.0157371
738.966	0.0158127
739.044	0.0158934
739.122	0.0159351
739.200	0.0160119
739.279	0.0158795
739.357	0.0158983
739.435	0.0160130
739.513	0.0158370
739.591	0.0158239
739.669	0.0158118
739.747	0.0155510
739.825	0.0155048
739.904	0.0155769
739.982	0.0156564
740.060	0.0156282
740.138	0.0155162
740.216	0.0155643
740.294	0.0156372
740.372	0.0157918
740.450	0.0158537
740.529	0.0160166
740.607	0.0162180
740.685	0.0161617
740.763	0.0163177
740.841	0.0163782
740.919	0.0164338
740.997	0.0164677
741.075	0.0164784
741.154	0.0166016
741.232	0.0164727
741.310	0.0166724
741.388	0.0166902
741.466	0.0164733
741.544	0.0165599
741.622	0.0165765
741.700	0.0162890
741.779	0.0162069
741.857	0.0161106
741.935	0.0159728
742.013	0.0158370
742.091	0.0157669
742.169	0.0155492
742.247	0.0155979
742.325	0.0155418
742.404	0.0156064
742.482	0.0156256
742.560	0.0157485
742.638	0.0156955
742.716	0.0156832
742.794	0.0156974
742.872	0.0158668
742.950	0.0157487
743.029	0.0156906
743.107	0.0157655
743.185	0.0157586
743.263	0.0157275
743.341	0.0155601
743.419	0.0155294
743.497	0.0153763
743.575	0.0154809
743.654	0.0153993
743.732	0.0154761
743.810	0.0154266
743.888	0.0154069
743.966	0.0153915
744.044	0.0155809
744.122	0.0157207
744.200	0.0158269
744.279	0.0157700
744.357	0.0158370
744.435	0.0161369
744.513	0.0161425
744.591	0.0162342
744.669	0.0163106
744.747	0.0164525
744.825	0.0165596
744.904	0.0168616
744.982	0.0168875
745.060	0.0169991
745.138	0.0170354
745.216	0.0171703
745.294	0.0170480
745.372	0.0171171
745.450	0.0172403
745.529	0.0171635
745.607	0.0172243
745.685	0.0170126
745.763	0.0168738
745.841	0.0167588
745.919	0.0166810
745.997	0.0164854
746.075	0.0162675
746.154	0.0161758
746.232	0.0161731
746.310	0.0160397
746.388	0.0160270
746.466	0.0158421
746.544	0.0157861
746.622	0.0157105
746.700	0.0158246
746.779	0.0158831
746.857	0.0160414
746.935	0.0162165
747.013	0.0161772
747.091	0.0161824
747.169	0.0164152
747.247	0.0163078
747.325	0.0164687
747.404	0.0165556
747.482	0.0164041
747.560	0.0164294
747.638	0.0164436
747.716	0.0161067
747.794	0.0160165
747.872	0.0160146
747.950	0.0158189
748.029	0.0154652
748.107	0.0155692
748.185	0.0153219
748.263	0.0152972
748.341	0.0151736
748.419	0.0151727
748.497	0.0151256
748.575	0.0150835
748.654	0.0150074
748.732	0.0150497
748.810	0.0150524
748.888	0.0152007
748.966	0.0152075
749.044	0.0153035
749.122	0.0155009
749.200	0.0155411
749.279	0.0156584
749.357	0.0158013
749.435	0.0158494
749.513	0.0160379
749.591	0.0161044
749.669	0.0160143
749.747	0.0161172
749.825	0.0162428
749.904	0.0163303
749.982	0.0162912
750.060	0.0162387
750.138	0.0162301
750.216	0.0162321
750.294	0.0163097
750.372	0.0163419
750.450	0.0162498
750.529	0.0163994
750.607	0.0164038
750.685	0.0164536
750.763	0.0164906
750.841	0.0164220
750.919	0.0164524
750.997	0.0164920
751.075	0.0165421
751.154	0.0164201
751.232	0.0163749
751.310	0.0164247
751.388	0.0164468
751.466	0.0164039
751.544	0.0164275
751.622	0.0164631
751.700	0.0165170
751.779	0.0164580
751.857	0.0165327
751.935	0.0165733
752.013	0.0166425
752.091	0.0163575
752.169	0.0164390
752.247	0.0164799
752.325	0.0165278
752.404	0.0164476
752.482	0.0163260
752.560	0.0161233
752.638	0.0162601
752.716	0.0160055
752.794	0.0160525
752.872	0.0160290
752.950	0.0158716
753.029	0.0158094
753.107	0.0158736
753.185	0.0157664
753.263	0.0157779
753.341	0.0156512
753.419	0.0155483
753.497	0.0155585
753.575	0.0156232
753.654	0.0154909
753.732	0.0155844
753.810	0.0156932
753.888	0.0157159
753.966	0.0157787
754.044	0.0159062
754.122	0.0159015
754.200	0.0159409
754.279	0.0160870
754.357	0.0159931
754.435	0.0160169
754.513	0.0161122
754.591	0.0161950
754.669	0.0161919
754.747	0.0160999
754.825	0.0163160
754.904	0.0163080
754.982	0.0163469
755.060	0.0163942
755.138	0.0163813
755.216	0.0163493
755.294	0.0164055
755.372	0.0164440
755.450	0.0164787
755.529	0.0164539
755.607	0.0163734
755.685	0.0162034
755.763	0.0159583
755.841	0.0159515
755.919	0.0160032
755.997	0.0157492
756.075	0.0155413
756.154	0.0154185
756.232	0.0155514
756.310	0.0156301
756.388	0.0153762
756.466	0.0153353
756.544	0.0155898
756.622	0.0155615
756.700	0.0157669
756.779	0.0159903
756.857	0.0160062
756.935	0.0160455
757.013	0.0159984
757.091	0.0160432
757.169	0.0163121
757.247	0.0164169
757.325	0.0163860
757.404	0.0163675
757.482	0.0163304
757.560	0.0164605
757.638	0.0163290
757.716	0.0162273
757.794	0.0162266
757.872	0.0161052
757.950	0.0160358
758.029	0.0158971
758.107	0.0156474
758.185	0.0157814
758.263	0.0157494
758.341	0.0157550
758.419	0.0155437
758.497	0.0155284
758.575	0.0156761
758.654	0.0156908
758.732	0.0157065
758.810	0.0158268
758.888	0.0157883
758.966	0.0160105
759.044	0.0159942
759.122	0.0161387
759.200	0.0159983
759.279	0.0161578
759.357	0.0161337
759.435	0.0160738
759.513	0.0162475
759.591	0.0160185
759.669	0.0159150
759.747	0.0163231
759.825	0.0162537
759.904	0.0160986
759.982	0.0161055
760.060	0.0161504
760.138	0.0160828
760.216	0.0161187
760.294	0.0162208
760.372	0.0161682
760.450	0.0162067
760.529	0.0162173
760.607	0.0161486
760.685	0.0162077
760.763	0.0162822
760.841	0.0161999
760.919	0.0160931
760.997	0.0162666
761.075	0.0163732
761.154	0.0164257
761.232	0.0163182
761.310	0.0163316
761.388	0.0164975
761.466	0.0163747
761.544	0.0165253
761.622	0.0164758
761.700	0.0164346
761.779	0.0164303
761.857	0.0164963
761.935	0.0165339
762.013	0.0163423
762.091	0.0164214
762.169	0.0165643
762.247	0.0164579
762.325	0.0163873
762.404	0.0162975
762.482	0.0160803
762.560	0.0162070
762.638	0.0162265
762.716	0.0158997
762.794	0.0159174
762.872	0.0159885
762.950	0.0159712
763.029	0.0158383
763.107	0.0158527
763.185	0.0157052
763.263	0.0156902
763.341	0.0158667
763.419	0.0157596
763.497	0.0156361
763.575	0.0156968
763.654	0.0154483
763.732	0.0154962
763.810	0.0153978
763.888	0.0154597
763.966	0.0154617
764.044	0.0153531
764.122	0.0151820
764.200	0.0152321
764.279	0.0154180
764.357	0.0152362
764.435	0.0154002
764.513	0.0156442
764.591	0.0156164
764.669	0.0155888
764.747	0.0157626
764.825	0.0157679
764.904	0.0158945
764.982	0.0160204
765.060	0.0162123
765.138	0.0160842
765.216	0.0161190
765.294	0.0160786
765.372	0.0162721
765.450	0.0163091
765.529	0.0161708
765.607	0.0163684
765.685	0.0163744
765.763	0.0160525
765.841	0.0160991
765.919	0.0161942
765.997	0.0162367
766.075	0.0161906
766.154	0.0160896
766.232	0.0162549
766.310	0.0161970
766.388	0.0162917
766.466	0.0162711
766.544	0.0161251
766.622	0.0163718
766.700	0.0164059
766.779	0.0164830
766.857	0.0162314
766.935	0.0164662
767.013	0.0164719
767.091	0.0164332
767.169	0.0163782
767.247	0.0164574
767.325	0.0164207
767.404	0.0163586
767.482	0.0163673
767.560	0.0161544
767.638	0.0162414
767.716	0.0160745
767.794	0.0160654
767.872	0.0161654
767.950	0.0161064
768.029	0.0161635
768.107	0.0161432
768.185	0.0160853
768.263	0.0162366
768.341	0.0161942
768.419	0.0162750
768.497	0.0162977
768.575	0.0161064
768.654	0.0160505
768.732	0.0161395
768.810	0.0160991
768.888	0.0160561
768.966	0.0158570
769.044	0.0159290
769.122	0.0159032
769.200	0.0158289
769.279	0.0157167
769.357	0.0158562
769.435	0.0158097
769.513	0.0158925
769.591	0.0159647
769.669	0.0159022
769.747	0.0159901
769.825	0.0159690
769.904	0.0161271
769.982	0.0161410
770.060	0.0161137
770.138	0.0161431
770.216	0.0161747
770.294	0.0161224
770.372	0.0163109
770.450	0.0162475
770.529	0.0162509
770.607	0.0162031
770.685	0.0162612
770.763	0.0161884
770.841	0.0162599
770.919	0.0162066
770.997	0.0160516
771.075	0.0160725
771.154	0.0160913
771.232	0.0159862
771.310	0.0160223
771.388	0.0159647
771.466	0.0158978
771.544	0.0159804
771.622	0.0158070
771.700	0.0156970
771.779	0.0156493
771.857	0.0156882
771.935	0.0155370
772.013	0.0155238
772.091	0.0155096
772.169	0.0153419
772.247	0.0154005
772.325	0.0154768
772.404	0.0153819
772.482	0.0154778
772.560	0.0153729
772.638	0.0155830
772.716	0.0157225
772.794	0.0157047
772.872	0.0156705
772.950	0.0158940
773.029	0.0158274
773.107	0.0159059
773.185	0.0160300
773.263	0.0159433
773.341	0.0159760
773.419	0.0160535
773.497	0.0161490
773.575	0.0161684
773.654	0.0160299
773.732	0.0159859
773.810	0.0161231
773.888	0.0161063
773.966	0.0159882
774.044	0.0160620
774.122	0.0160904
774.200	0.0160098
774.279	0.0160078
774.357	0.0160871
774.435	0.0159785
774.513	0.0161369
774.591	0.0162430
774.669	0.0162551
774.747	0.0163973
774.825	0.0163696
774.904	0.0164332
774.982	0.0165647
775.060	0.0165257
775.138	0.0164902
775.216	0.0166101
775.294	0.0166291
775.372	0.0166124
775.450	0.0165310
775.529	0.0164892
775.607	0.0165894
775.685	0.0163477
775.763	0.0164590
775.841	0.0162824
775.919	0.0162147
775.997	0.0162223
776.075	0.0160596
776.154	0.0162067
776.232	0.0162321
776.310	0.0161825
776.388	0.0161893
776.466	0.0161755
776.544	0.0160718
776.622	0.0161723
776.700	0.0161042
776.779	0.0160239
776.857	0.0160710
776.935	0.0160664
777.013	0.0160345
777.091	0.0160059
777.169	0.0158051
777.247	0.0158399
777.325	0.0157814
777.404	0.0157143
777.482	0.0157570
777.560	0.0157871
777.638	0.0156745
777.716	0.0157121
777.794	0.0156136
777.872	0.0157639
777.950	0.0155363
778.029	0.0155178
778.107	0.0156447
778.185	0.0157788
778.263	0.0158563
778.341	0.0158134
778.419	0.0159401
778.497	0.0161157
778.575	0.0159930
778.654	0.0160742
778.732	0.0161198
778.810	0.0161535
778.888	0.0160724
778.966	0.0161572
779.044	0.0161829
779.122	0.0160880
779.200	0.0160055
779.279	0.0160274
779.357	0.0159711
779.435	0.0159778
779.513	0.0158405
779.591	0.0157381
779.669	0.0155952
779.747	0.0157375
779.825	0.0156949
779.904	0.0156806
779.982	0.0155682
780.060	0.0156295
780.138	0.0157288
780.216	0.0157623
780.294	0.0157285
780.372	0.0158398
780.450	0.0158629
780.529	0.0158277
780.607	0.0161115
780.685	0.0161411
780.763	0.0161871
780.841	0.0162315
780.919	0.0161694
780.997	0.0161317
781.075	0.0162763
781.154	0.0161894
781.232	0.0161340
781.310	0.0162669
781.388	0.0161511
781.466	0.0161361
781.544	0.0162151
781.622	0.0161966
781.700	0.0161637
781.779	0.0160565
781.857	0.0160462
781.935	0.0160101
782.013	0.0159059
782.091	0.0158688
782.169	0.0159275
782.247	0.0158567
782.325	0.0158413
782.404	0.0158269
782.482	0.0159110
782.560	0.0159696
782.638	0.0158089
782.716	0.0159202
782.794	0.0159808
782.872	0.0160333
782.950	0.0159909
783.029	0.0159524
783.107	0.0161311
783.185	0.0162933
783.263	0.0163265
783.341	0.0161966
783.419	0.0162534
783.497	0.0162311
783.575	0.0163003
783.654	0.0162321
783.732	0.0163872
783.810	0.0164754
783.888	0.0163982
783.966	0.0164140
784.044	0.0163824
784.122	0.0162255
784.200	0.0162430
784.279	0.0162262
784.357	0.0163022
784.435	0.0163226
784.513	0.0161480
784.591	0.0162132
784.669	0.0160092
784.747	0.0160965
784.825	0.0161830
784.904	0.0161708
784.982	0.0160731
785.060	0.0161192
785.138	0.0160434
785.216	0.0160770
785.294	0.0162531
785.372	0.0162279
785.450	0.0161477
785.529	0.0160815
785.607	0.0161851
785.685	0.0162016
785.763	0.0159416
785.841	0.0159180
785.919	0.0159531
785.997	0.0158076
786.075	0.0157821
786.154	0.0156608
786.232	0.0156306
786.310	0.0156178
786.388	0.0156148
786.466	0.0155797
786.544	0.0155299
786.622	0.0156301
786.700	0.0154330
786.779	0.0155731
786.857	0.0156580
786.935	0.0156014
787.013	0.0157561
787.091	0.0159753
787.169	0.0159780
787.247	0.0160047
787.325	0.0160410
787.404	0.0159387
787.482	0.0160745
787.560	0.0160526
787.638	0.0160033
787.716	0.0160757
787.794	0.0159868
787.872	0.0158777
787.950	0.0158027
788.029	0.0158216
788.107	0.0156239
788.185	0.0156940
788.263	0.0159050
788.341	0.0157149
788.419	0.0158955
788.497	0.0158449
788.575	0.0158336
788.654	0.0159576
788.732	0.0161271
788.810	0.0160985
788.888	0.0161760
788.966	0.0160752
789.044	0.0162597
789.122	0.0163222
789.200	0.0162964
789.279	0.0162135
789.357	0.0162054
789.435	0.0162735
789.513	0.0162414
789.591	0.0162334
789.669	0.0163818
789.747	0.0163393
789.825	0.0162040
789.904	0.0163113
789.982	0.0162432
790.060	0.0164671
790.138	0.0164754
790.216	0.0164867
790.294	0.0164256
790.372	0.0165665
790.450	0.0167249
790.529	0.0166538
790.607	0.0166611
790.685	0.0166100
790.763	0.0166397
790.841	0.0167986
790.919	0.0165465
790.997	0.0166583
791.075	0.0167294
791.154	0.0165676
791.232	0.0165997
791.310	0.0163613
791.388	0.0163980
791.466	0.0164639
791.544	0.0162748
791.622	0.0161507
791.700	0.0159708
791.779	0.0157365
791.857	0.0156863
791.935	0.0155035
792.013	0.0155272
792.091	0.0154417
792.169	0.0151404
792.247	0.0152717
792.325	0.0150497
792.404	0.0149648
792.482	0.0152780
792.560	0.0151119
792.638	0.0150354
792.716	0.0151595
792.794	0.0150438
792.872	0.0152065
792.950	0.0152966
793.029	0.0152808
793.107	0.0153895
793.185	0.0155767
793.263	0.0155816
793.341	0.0157133
793.419	0.0159048
793.497	0.0161534
793.575	0.0162254
793.654	0.0163776
793.732	0.0166697
793.810	0.0168376
793.888	0.0169823
793.966	0.0169442
794.044	0.0171314
794.122	0.0172054
794.200	0.0173963
794.279	0.0174856
794.357	0.0175536
794.435	0.0174959
794.513	0.0174699
794.591	0.0173483
794.669	0.0172433
794.747	0.0170625
794.825	0.0169866
794.904	0.0168841
794.982	0.0166267
795.060	0.0164138
795.138	0.0162971
795.216	0.0159932
795.294	0.0159202
795.372	0.0155917
795.450	0.0154205
795.529	0.0152467
795.607	0.0151926
795.685	0.0149557
795.763	0.0149101
795.841	0.0148232
795.919	0.0147201
795.997	0.0146788
796.075	0.0146162
796.154	0.0145452
796.232	0.0144972
796.310	0.0144743
796.388	0.0146060
796.466	0.0146245
796.544	0.0145767
796.622	0.0147358
796.700	0.0149091
796.779	0.0150189
796.857	0.0151111
796.935	0.0153092
797.013	0.0157317
797.091	0.0160454
797.169	0.0162811
797.247	0.0162952
797.325	0.0167073
797.404	0.0168209
797.482	0.0171221
797.560	0.0175207
797.638	0.0174454
797.716	0.0175851
797.794	0.0177095
797.872	0.0177646
797.950	0.0178030
798.029	0.0178432
798.107	0.0177831
798.185	0.0176603
798.263	0.0176235
798.341	0.0176656
798.419	0.0175832
798.497	0.0174277
798.575	0.0173878
798.654	0.0173058
798.732	0.0171268
798.810	0.0170269
798.888	0.0167970
798.966	0.0166636
799.044	0.0164072
799.122	0.0165006
799.200	0.0161703
799.279	0.0157345
799.357	0.0154185
799.435	0.0152390
799.513	0.0151527
799.591	0.0147359
799.669	0.0147493
799.747	0.0144804
799.825	0.0144335
799.904	0.0141734
799.982	0.0143165
800.060	0.0143008
800.138	0.0141650
800.216	0.0142471
800.294	0.0143174
800.372	0.0144332
800.450	0.0146406
800.529	0.0147863
800.607	0.0147552
800.685	0.0149764
800.763	0.0151909
800.841	0.0154041
800.919	0.0153755
800.997	0.0154129
801.075	0.0158000
801.154	0.0157529
801.232	0.0160081
801.310	0.0160936
801.388	0.0163354
801.466	0.0163488
801.544	0.0165266
801.622	0.0166563
801.700	0.0166045
801.779	0.0169395
801.857	0.0168814
801.935	0.0169360
802.013	0.0172128
802.091	0.0169598
802.169	0.0171569
802.247	0.0173743
802.325	0.0172215
802.404	0.0174010
802.482	0.0175423
802.560	0.0174913
802.638	0.0176336
802.716	0.0175945
802.794	0.0175809
802.872	0.0174215
802.950	0.0173927
803.029	0.0173204
803.107	0.0172060
803.185	0.0170557
803.263	0.0169667
803.341	0.0167742
803.419	0.0166237
803.497	0.0164345
803.575	0.0162032
803.654	0.0158985
803.732	0.0157040
803.810	0.0154862
803.888	0.0152061
803.966	0.0152325
804.044	0.0150659
804.122	0.0148326
804.200	0.0146375
804.279	0.0147428
804.357	0.0145496
804.435	0.0144024
804.513	0.0144573
804.591	0.0146334
804.669	0.0145838
804.747	0.0146407
804.825	0.0146497
804.904	0.0146931
804.982	0.0148740
805.060	0.0150498
805.138	0.0151787
805.216	0.0152887
805.294	0.0153577
805.372	0.0155683
805.450	0.0154636
805.529	0.0156911
805.607	0.0158142
805.685	0.0159428
805.763	0.0159396
805.841	0.0160345
805.919	0.0160609
805.997	0.0163660
806.075	0.0162885
806.154	0.0163928
806.232	0.0164897
806.310	0.0162866
806.388	0.0164633
806.466	0.0166064
806.544	0.0166142
806.622	0.0166077
806.700	0.0166772
806.779	0.0167703
806.857	0.0166876
806.935	0.0168568
807.013	0.0168223
807.091	0.0167560
807.169	0.0168328
807.247	0.0168040
807.325	0.0168275
807.404	0.0169124
807.482	0.0168693
807.560	0.0169530
807.638	0.0169567
807.716	0.0167736
807.794	0.0168243
807.872	0.0167496
807.950	0.0166549
808.029	0.0165247
808.107	0.0165305
808.185	0.0164011
808.263	0.0162238
808.341	0.0162277
808.419	0.0159712
808.497	0.0158472
808.575	0.0157603
808.654	0.0157298
808.732	0.0156288
808.810	0.0154317
808.888	0.0154313
808.966	0.0154481
809.044	0.0154483
809.122	0.0154711
809.200	0.0155695
809.279	0.0156455
809.357	0.0156675
809.435	0.0158159
809.513	0.0157720
809.591	0.0158973
809.669	0.0159238
809.747	0.0158955
809.825	0.0159247
809.904	0.0159792
809.982	0.0159956
810.060	0.0160184
810.138	0.0161040
810.216	0.0161681
810.294	0.0161373
810.372	0.0159460
810.450	0.0159248
810.529	0.0159615
810.607	0.0159546
810.685	0.0160945
810.763	0.0159062
810.841	0.0159694
810.919	0.0157815
810.997	0.0158862
811.075	0.0157909
811.154	0.0156238
811.232	0.0156909
811.310	0.0157048
811.388	0.0156221
811.466	0.0155367
811.544	0.0155094
811.622	0.0156050
811.700	0.0156269
811.779	0.0157534
811.857	0.0157744
811.935	0.0156274
812.013	0.0158516
812.091	0.0161187
812.169	0.0160227
812.247	0.0160072
812.325	0.0160288
812.404	0.0159749
812.482	0.0160550
812.560	0.0162467
812.638	0.0161703
812.716	0.0162048
812.794	0.0163447
812.872	0.0163406
812.950	0.0164842
813.029	0.0165953
813.107	0.0165837
813.185	0.0166431
813.263	0.0166798
813.341	0.0168011
813.419	0.0167361
813.497	0.0167464
813.575	0.0167139
813.654	0.0166312
813.732	0.0168888
813.810	0.0167328
813.888	0.0166511
813.966	0.0166680
814.044	0.0166580
814.122	0.0166515
814.200	0.0165752
814.279	0.0164417
814.357	0.0161627
814.435	0.0162408
814.513	0.0162627
814.591	0.0161153
814.669	0.0159736
814.747	0.0159394
814.825	0.0159779
814.904	0.0158647
814.982	0.0158154
815.060	0.0158437
815.138	0.0157301
815.216	0.0157221
815.294	0.0157241
815.372	0.0158171
815.450	0.0156136
815.529	0.0157881
815.607	0.0158463
815.685	0.0157097
815.763	0.0158344
815.841	0.0158000
815.919	0.0158823
815.997	0.0158103
816.075	0.0157977
816.154	0.0157227
816.232	0.0157515
816.310	0.0156532
816.388	0.0157941
816.466	0.0157431
816.544	0.0158380
816.622	0.0156979
816.700	0.0158493
816.779	0.0158067
816.857	0.0158353
816.935	0.0160181
817.013	0.0159864
817.091	0.0158378
817.169	0.0158633
817.247	0.0158675
817.325	0.0158816
817.404	0.0157749
817.482	0.0157999
817.560	0.0158604
817.638	0.0159591
817.716	0.0157744
817.794	0.0159732
817.872	0.0161401
817.950	0.0160228
818.029	0.0161654
818.107	0.0161752
818.185	0.0162451
818.263	0.0164065
818.341	0.0163712
818.419	0.0164714
818.497	0.0165902
818.575	0.0165010
818.654	0.0166848
818.732	0.0165601
818.810	0.0165961
818.888	0.0166850
818.966	0.0166648
819.044	0.0165243
819.122	0.0164365
819.200	0.0165843
819.279	0.0164936
819.357	0.0164494
819.435	0.0164172
819.513	0.0163522
819.591	0.0162311
819.669	0.0162485
819.747	0.0163205
819.825	0.0160669
819.904	0.0160455
819.982	0.0161579
820.060	0.0159637
820.138	0.0158522
820.216	0.0160449
820.294	0.0160370
820.372	0.0158756
820.450	0.0157674
820.529	0.0159064
820.607	0.0159995
820.685	0.0160064
820.763	0.0158511
820.841	0.0158387
820.919	0.0159529
820.997	0.0159644
821.075	0.0158110
821.154	0.0158379
821.232	0.0160395
821.310	0.0159575
821.388	0.0158685
821.466	0.0159305
821.544	0.0159483
821.622	0.0159141
821.700	0.0160619
821.779	0.0160590
821.857	0.0162887
821.935	0.0160017
822.013	0.0160583
822.091	0.0161669
822.169	0.0160843
822.247	0.0160384
822.325	0.0159597
822.404	0.0160215
822.482	0.0159611
822.560	0.0159874
822.638	0.0159978
822.716	0.0158943
822.794	0.0158681
822.872	0.0159595
822.950	0.0159511
823.029	0.0159087
823.107	0.0159000
823.185	0.0160534
823.263	0.0158122
823.341	0.0158385
823.419	0.0159934
823.497	0.0160224
823.575	0.0159388
823.654	0.0158130
823.732	0.0157537
823.810	0.0160552
823.888	0.0160830
823.966	0.0161136
824.044	0.0160329
824.122	0.0160730
824.200	0.0162204
824.279	0.0162264
824.357	0.0162831
824.435	0.0162734
824.513	0.0164164
824.591	0.0163247
824.669	0.0163947
824.747	0.0163307
824.825	0.0164574
824.904	0.0165054
824.982	0.0162725
825.060	0.0163797
825.138	0.0163758
825.216	0.0163521
825.294	0.0164960
825.372	0.0163473
825.450	0.0165549
825.529	0.0164088
825.607	0.0162858
825.685	0.0163555
825.763	0.0164944
825.841	0.0164179
825.919	0.0163600
825.997	0.0163851
826.075	0.0163539
826.154	0.0162321
826.232	0.0160213
826.310	0.0160534
826.388	0.0160378
826.466	0.0161319
826.544	0.0159790
826.622	0.0159306
826.700	0.0160371
826.779	0.0159251
826.857	0.0158863
826.935	0.0158877
827.013	0.0159494
827.091	0.0160172
827.169	0.0160349
827.247	0.0159532
827.325	0.0158807
827.404	0.0159010
827.482	0.0158674
827.560	0.0159527
827.638	0.0159209
827.716	0.0159003
827.794	0.0157728
827.872	0.0158253
827.950	0.0158672
828.029	0.0157510
828.107	0.0157296
828.185	0.0158377
828.263	0.0158908
828.341	0.0158999
828.419	0.0159360
828.497	0.0158515
828.575	0.0158402
828.654	0.0158350
828.732	0.0158491
828.810	0.0158913
828.888	0.0158025
828.966	0.0158072
829.044	0.0158096
829.122	0.0158656
829.200	0.0159044
829.279	0.0159334
829.357	0.0159534
829.435	0.0158937
829.513	0.0160590
829.591	0.0160948
829.669	0.0162206
829.747	0.0161042
829.825	0.0161448
829.904	0.0162244
829.982	0.0162570
830.060	0.0162688
830.138	0.0161768
830.216	0.0162568
830.294	0.0163793
830.372	0.0162990
830.450	0.0162882
830.529	0.0162503
830.607	0.0162191
830.685	0.0164426
830.763	0.0163991
830.841	0.0162858
830.919	0.0164635
830.997	0.0165363
831.075	0.0162611
831.154	0.0165595
831.232	0.0164742
831.310	0.0163485
831.388	0.0163678
831.466	0.0164056
831.544	0.0163820
831.622	0.0163782
831.700	0.0164920
831.779	0.0162690
831.857	0.0161842
831.935	0.0162011
832.013	0.0161443
832.091	0.0160853
832.169	0.0160385
832.247	0.0159874
832.325	0.0160538
832.404	0.0157192
832.482	0.0156505
832.560	0.0157186
832.638	0.0154871
832.716	0.0155056
832.794	0.0155872
832.872	0.0156059
832.950	0.0155865
833.029	0.0155013
833.107	0.0156132
833.185	0.0154956
833.263	0.0154382
833.341	0.0156629
833.419	0.0157364
833.497	0.0156314
833.575	0.0158806
833.654	0.0157969
833.732	0.0157034
833.810	0.0159158
833.888	0.0159213
833.966	0.0158952
834.044	0.0159278
834.122	0.0159402
834.200	0.0160608
834.279	0.0159763
834.357	0.0159900
834.435	0.0160551
834.513	0.0161920
834.591	0.0162992
834.669	0.0163821
834.747	0.0163045
834.825	0.0164381
834.904	0.0164421
834.982	0.0165189
835.060	0.0164934
835.138	0.0164571
835.216	0.0164360
835.294	0.0165062
835.372	0.0165884
835.450	0.0164881
835.529	0.0164494
835.607	0.0165395
835.685	0.0165212
835.763	0.0163289
835.841	0.0163609
835.919	0.0163896
835.997	0.0163248
836.075	0.0163284
836.154	0.0163994
836.232	0.0162016
836.310	0.0162000
836.388	0.0161141
836.466	0.0161662
836.544	0.0161198
836.622	0.0159653
836.700	0.0159412
836.779	0.0159183
836.857	0.0160384
836.935	0.0158926
837.013	0.0159136
837.091	0.0158403
837.169	0.0158063
837.247	0.0158176
837.325	0.0157375
837.404	0.0158592
837.482	0.0157390
837.560	0.0156268
837.638	0.0156146
837.716	0.0157496
837.794	0.0157306
837.872	0.0156057
837.950	0.0157227
838.029	0.0156918
838.107	0.0155717
838.185	0.0156017
838.263	0.0157133
838.341	0.0157439
838.419	0.0157660
838.497	0.0157653
838.575	0.0156691
838.654	0.0157999
838.732	0.0157296
838.810	0.0157384
838.888	0.0159682
838.966	0.0159924
839.044	0.0159466
839.122	0.0160337
839.200	0.0161565
839.279	0.0162674
839.357	0.0162203
839.435	0.0162724
839.513	0.0163715
839.591	0.0162865
839.669	0.0165264
839.747	0.0163439
839.825	0.0163607
839.904	0.0163908
839.982	0.0164169
840.060	0.0165752
840.138	0.0164522
840.216	0.0163160
840.294	0.0163875
840.372	0.0165300
840.450	0.0164660
840.529	0.0163414
840.607	0.0163438
840.685	0.0162974
840.763	0.0161720
840.841	0.0162029
840.919	0.0161867
840.997	0.0161982
841.075	0.0161056
841.154	0.0161148
841.232	0.0160535
841.310	0.0159599
841.388	0.0160114
841.466	0.0159939
841.544	0.0159092
841.622	0.0157814
841.700	0.0157791
841.779	0.0157962
841.857	0.0158146
841.935	0.0158092
842.013	0.0156744
842.091	0.0157888
842.169	0.0157897
842.247	0.0158071
842.325	0.0158765
842.404	0.0158673
842.482	0.0156718
842.560	0.0159696
842.638	0.0159338
842.716	0.0158866
842.794	0.0159620
842.872	0.0160896
842.950	0.0159325
843.029	0.0159934
843.107	0.0160283
843.185	0.0159756
843.263	0.0161950
843.341	0.0162724
843.419	0.0161780
843.497	0.0162341
843.575	0.0162226
843.654	0.0163783
843.732	0.0162840
843.810	0.0164175
843.888	0.0164981
843.966	0.0164672
844.044	0.0164449
844.122	0.0166028
844.200	0.0163782
844.279	0.0164845
844.357	0.0163667
844.435	0.0163146
844.513	0.0162637
844.591	0.0163718
844.669	0.0161359
844.747	0.0160818
844.825	0.0161511
844.904	0.0160684
844.982	0.0159771
845.060	0.0160214
845.138	0.0160725
845.216	0.0159472
845.294	0.0158572
845.372	0.0158268
845.450	0.0158382
845.529	0.0157243
845.607	0.0157893
845.685	0.0157506
845.763	0.0157514
845.841	0.0156067
845.919	0.0154344
845.997	0.0155902
846.075	0.0157180
846.154	0.0155102
846.232	0.0155827
846.310	0.0157378
846.388	0.0155766
846.466	0.0156281
846.544	0.0157520
846.622	0.0157294
846.700	0.0158139
846.779	0.0157373
846.857	0.0157781
846.935	0.0158109
847.013	0.0160096
847.091	0.0159835
847.169	0.0161461
847.247	0.0159171
847.325	0.0161031
847.404	0.0162453
847.482	0.0162020
847.560	0.0162527
847.638	0.0164630
847.716	0.0164464
847.794	0.0164980
847.872	0.0164839
847.950	0.0164999
848.029	0.0165654
848.107	0.0165579
848.185	0.0165949
848.263	0.0166127
848.341	0.0166895
848.419	0.0165929
848.497	0.0165783
848.575	0.0164094
848.654	0.0166179
848.732	0.0166357
848.810	0.0163716
848.888	0.0165857
848.966	0.0163537
849.044	0.0163466
849.122	0.0163130
849.200	0.0162782
849.279	0.0162163
849.357	0.0161205
849.435	0.0160772
849.513	0.0161586
849.591	0.0162265
849.669	0.0161583
849.747	0.0160324
849.825	0.0160110
849.904	0.0160640
849.982	0.0160030
850.060	0.0159925
850.138	0.0159617
850.216	0.0159110
850.294	0.0159020
850.372	0.0157592
850.450	0.0156181
850.529	0.0159296
850.607	0.0158502
850.685	0.0156763
850.763	0.0157807
850.841	0.0157829
850.919	0.0156167
850.997	0.0156606
851.075	0.0155599
851.154	0.0156116
851.232	0.0156632
851.310	0.0156808
851.388	0.0157330
851.466	0.0157600
851.544	0.0159069
851.622	0.0158051
851.700	0.0159545
851.779	0.0160052
851.857	0.0159773
851.935	0.0160008
852.013	0.0161746
852.091	0.0162091
852.169	0.0161807
852.247	0.0162287
852.325	0.0161986
852.404	0.0161705
852.482	0.0162482
852.560	0.0162985
852.638	0.0164342
852.716	0.0165112
852.794	0.0165546
852.872	0.0164007
852.950	0.0163319
853.029	0.0163290
853.107	0.0162303
853.185	0.0162466
853.263	0.0163911
853.341	0.0163935
853.419	0.0161369
853.497	0.0160945
853.575	0.0161028
853.654	0.0160953
853.732	0.0161514
853.810	0.0160722
853.888	0.0162785
853.966	0.0161332
854.044	0.0160924
854.122	0.0161930
854.200	0.0159743
854.279	0.0160580
854.357	0.0160032
854.435	0.0159420
854.513	0.0159225
854.591	0.0158410
854.669	0.0159252
854.747	0.0158411
854.825	0.0157217
854.904	0.0157163
854.982	0.0156509
855.060	0.0156422
855.138	0.0156321
855.216	0.0156634
855.294	0.0158512
855.372	0.0157568
855.450	0.0156467
855.529	0.0157980
855.607	0.0157320
855.685	0.0159391
855.763	0.0159331
855.841	0.0158029
855.919	0.0159154
855.997	0.0159126
856.075	0.0159732
856.154	0.0160143
856.232	0.0161131
856.310	0.0159515
856.388	0.0160223
856.466	0.0160153
856.544	0.0160239
856.622	0.0160605
856.700	0.0160393
856.779	0.0161957
856.857	0.0161330
856.935	0.0163001
857.013	0.0162418
857.091	0.0162585
857.169	0.0163612
857.247	0.0163269
857.325	0.0162951
857.404	0.0163758
857.482	0.0163116
857.560	0.0162605
857.638	0.0162183
857.716	0.0162437
857.794	0.0163221
857.872	0.0163157
857.950	0.0161878
858.029	0.0163073
858.107	0.0164016
858.185	0.0163025
858.263	0.0162726
858.341	0.0163239
858.419	0.0161189
858.497	0.0162724
858.575	0.0161224
858.654	0.0163126
858.732	0.0163095
858.810	0.0162083
858.888	0.0161359
858.966	0.0161860
859.044	0.0160623
859.122	0.0160760
859.200	0.0159863
859.279	0.0159461
859.357	0.0160164
859.435	0.0159006
859.513	0.0159210
859.591	0.0157938
859.669	0.0159298
859.747	0.0157894
859.825	0.0158306
859.904	0.0157683
859.982	0.0157344
860.060	0.0158833
860.138	0.0157113
860.216	0.0157988
860.294	0.0158130
860.372	0.0157533
860.450	0.0156591
860.529	0.0157677
860.607	0.0157424
860.685	0.0157612
860.763	0.0158529
860.841	0.0157768
860.919	0.0157713
860.997	0.0158099
861.075	0.0158433
861.154	0.0156457
861.232	0.0157573
861.310	0.0159274
861.388	0.0159019
861.466	0.0159195
861.544	0.0159685
861.622	0.0159480
861.700	0.0158075
861.779	0.0161104
861.857	0.0161025
861.935	0.0161278
862.013	0.0160044
862.091	0.0160422
862.169	0.0161060
862.247	0.0161288
862.325	0.0160492
862.404	0.0162539
862.482	0.0161745
862.560	0.0160939
862.638	0.0161977
862.716	0.0161919
862.794	0.0161459
862.872	0.0161250
862.950	0.0162170
863.029	0.0162345
863.107	0.0161208
863.185	0.0161684
863.263	0.0160880
863.341	0.0163511
863.419	0.0164191
863.497	0.0162189
863.575	0.0162135
863.654	0.0161967
863.732	0.0162370
863.810	0.0161033
863.888	0.0160078
863.966	0.0162461
864.044	0.0161736
864.122	0.0161383
864.200	0.0162296
864.279	0.0161784
864.357	0.0160971
864.435	0.0163000
864.513	0.0161389
864.591	0.0161189
864.669	0.0160505
864.747	0.0161714
864.825	0.0161620
864.904	0.0162555
864.982	0.0161065
865.060	0.0159799
865.138	0.0160390
865.216	0.0160133
865.294	0.0159409
865.372	0.0159949
865.450	0.0159406
865.529	0.0158589
865.607	0.0159254
865.685	0.0159385
865.763	0.0158996
865.841	0.0159841
865.919	0.0158354
865.997	0.0158588
866.075	0.0158439
866.154	0.0159132
866.232	0.0158991
866.310	0.0159921
866.388	0.0159555
866.466	0.0159208
866.544	0.0158921
866.622	0.0160093
866.700	0.0159322
866.779	0.0158900
866.857	0.0157671
866.935	0.0157848
867.013	0.0159388
867.091	0.0160473
867.169	0.0159830
867.247	0.0158045
867.325	0.0158747
867.404	0.0160088
867.482	0.0159765
867.560	0.0158979
867.638	0.0162199
867.716	0.0160242
867.794	0.0161607
867.872	0.0161555
867.950	0.0162051
868.029	0.0162928
868.107	0.0162787
868.185	0.0162189
868.263	0.0162825
868.341	0.0161993
868.419	0.0160803
868.497	0.0161064
868.575	0.0161235
868.654	0.0161044
868.732	0.0160934
868.810	0.0161184
868.888	0.0161487
868.966	0.0159126
869.044	0.0159536
869.122	0.0159505
869.200	0.0160657
869.279	0.0159415
869.357	0.0160345
869.435	0.0160402
869.513	0.0159535
869.591	0.0159036
869.669	0.0160939
869.747	0.0160123
869.825	0.0160148
869.904	0.0160603
869.982	0.0158833
870.060	0.0159884
870.138	0.0160659
870.216	0.0159922
870.294	0.0159574
870.372	0.0161417
870.450	0.0159873
870.529	0.0157630
870.607	0.0160428
870.685	0.0158189
870.763	0.0159174
870.841	0.0158820
870.919	0.0158269
870.997	0.0157815
871.075	0.0158971
871.154	0.0157864
871.232	0.0155965
871.310	0.0157874
871.388	0.0158960
871.466	0.0159046
871.544	0.0159081
871.622	0.0160574
871.700	0.0160791
871.779	0.0161201
871.857	0.0163126
871.935	0.0162535
872.013	0.0161995
872.091	0.0163149
872.169	0.0164941
872.247	0.0164602
872.325	0.0164679
872.404	0.0163057
872.482	0.0164558
872.560	0.0164007
872.638	0.0163625
872.716	0.0164542
872.794	0.0163471
872.872	0.0163304
872.950	0.0163046
873.029	0.0163889
873.107	0.0161511
873.185	0.0160887
873.263	0.0160896
873.341	0.0161720
873.419	0.0160637
873.497	0.0159637
873.575	0.0159205
873.654	0.0159557
873.732	0.0160825
873.810	0.0159322
873.888	0.0160098
873.966	0.0160136
874.044	0.0161206
874.122	0.0160622
874.200	0.0161571
874.279	0.0161689
874.357	0.0162224
874.435	0.0161771
874.513	0.0161304
874.591	0.0160658
874.669	0.0160124
874.747	0.0160232
874.825	0.0160831
874.904	0.0159619
874.982	0.0159171
875.060	0.0159218
875.138	0.0157946
875.216	0.0157720
875.294	0.0158001
875.372	0.0157385
875.450	0.0154267
875.529	0.0155689
875.607	0.0155294
875.685	0.0154884
875.763	0.0154831
875.841	0.0153724
875.919	0.0154266
875.997	0.0154999
876.075	0.0156243
876.154	0.0155871
876.232	0.0155416
876.310	0.0158076
876.388	0.0157845
876.466	0.0160016
876.544	0.0159949
876.622	0.0160690
876.700	0.0161118
876.779	0.0161746
876.857	0.0163683
876.935	0.0162971
877.013	0.0164509
877.091	0.0165440
877.169	0.0164423
877.247	0.0164545
877.325	0.0163955
877.404	0.0164341
877.482	0.0163980
877.560	0.0163856
877.638	0.0164120
877.716	0.0163354
877.794	0.0162463
877.872	0.0162198
877.950	0.0161897
878.029	0.0160280
878.107	0.0160638
878.185	0.0159921
878.263	0.0160986
878.341	0.0158731
878.419	0.0159702
878.497	0.0159917
878.575	0.0159893
878.654	0.0160158
878.732	0.0159230
878.810	0.0159608
878.888	0.0160535
878.966	0.0159570
879.044	0.0158426
879.122	0.0157144
879.200	0.0158266
879.279	0.0159523
879.357	0.0158891
879.435	0.0158025
879.513	0.0157515
879.591	0.0158179
879.669	0.0158243
879.747	0.0158822
879.825	0.0158717
879.904	0.0158353
879.982	0.0158262
880.060	0.0159378
880.138	0.0159437
880.216	0.0160883
880.294	0.0161523
880.372	0.0159571
880.450	0.0160149
880.529	0.0161093
880.607	0.0163293
880.685	0.0161216
880.763	0.0160950
880.841	0.0161249
880.919	0.0162408
880.997	0.0162303
881.075	0.0162452
881.154	0.0161597
881.232	0.0162328
881.310	0.0161899
881.388	0.0161015
881.466	0.0160906
881.544	0.0160067
881.622	0.0160007
881.700	0.0159542
881.779	0.0160807
881.857	0.0160601
881.935	0.0159866
882.013	0.0158687
882.091	0.0158672
882.169	0.0160415
882.247	0.0160224
882.325	0.0159283
882.404	0.0160516
882.482	0.0160400
882.560	0.0160503
882.638	0.0160030
882.716	0.0159338
882.794	0.0160810
882.872	0.0162010
882.950	0.0161948
883.029	0.0160291
883.107	0.0160820
883.185	0.0160717
883.263	0.0160800
883.341	0.0160567
883.419	0.0158148
883.497	0.0158922
883.575	0.0157132
883.654	0.0157407
883.732	0.0157765
883.810	0.0155136
883.888	0.0156847
883.966	0.0155360
884.044	0.0156289
884.122	0.0156501
884.200	0.0157059
884.279	0.0158788
884.357	0.0157616
884.435	0.0159433
884.513	0.0161227
884.591	0.0161752
884.669	0.0163407
884.747	0.0162343
884.825	0.0162698
884.904	0.0163351
884.982	0.0164546
885.060	0.0163681
885.138	0.0164182
885.216	0.0163342
885.294	0.0163331
885.372	0.0164308
885.450	0.0161796
885.529	0.0162504
885.607	0.0164014
885.685	0.0163049
885.763	0.0162309
885.841	0.0163146
885.919	0.0164323
885.997	0.0162977
886.075	0.0161559
886.154	0.0160592
886.232	0.0161257
886.310	0.0159200
886.388	0.0158926
886.466	0.0157807
886.544	0.0157786
886.622	0.0157645
886.700	0.0157409
886.779	0.0156274
886.857	0.0155496
886.935	0.0154676
887.013	0.0154455
887.091	0.0155199
887.169	0.0155732
887.247	0.0154269
887.325	0.0153806
887.404	0.0154101
887.482	0.0154284
887.560	0.0154057
887.638	0.0155133
887.716	0.0155505
887.794	0.0155982
887.872	0.0156436
887.950	0.0156885
888.029	0.0160332
888.107	0.0159295
888.185	0.0161474
888.263	0.0163078
888.341	0.0164115
888.419	0.0165192
888.497	0.0166218
888.575	0.0167584
888.654	0.0168604
888.732	0.0169179
888.810	0.0169769
888.888	0.0169335
888.966	0.0170154
889.044	0.0169923
889.122	0.0168779
889.200	0.0167892
889.279	0.0165096
889.357	0.0165129
889.435	0.0164295
889.513	0.0163821
889.591	0.0161150
889.669	0.0162386
889.747	0.0161143
889.825	0.0157890
889.904	0.0158862
889.982	0.0158350
890.060	0.0158648
890.138	0.0159471
890.216	0.0157380
890.294	0.0157542
890.372	0.0157484
890.450	0.0158370
890.529	0.0156538
890.607	0.0157858
890.685	0.0155195
890.763	0.0154927
890.841	0.0156441
890.919	0.0155246
890.997	0.0154630
891.075	0.0153824
891.154	0.0154366
891.232	0.0155546
891.310	0.0154230
891.388	0.0154179
891.466	0.0155307
891.544	0.0155216
891.622	0.0156714
891.700	0.0155644
891.779	0.0156849
891.857	0.0158398
891.935	0.0158572
892.013	0.0157582
892.091	0.0159485
892.169	0.0159549
892.247	0.0159180
892.325	0.0159144
892.404	0.0159703
892.482	0.0161700
892.560	0.0163100
892.638	0.0162801
892.716	0.0166726
892.794	0.0166590
892.872	0.0165614
892.950	0.0168628
893.029	0.0169424
893.107	0.0170850
893.185	0.0169553
893.263	0.0170244
893.341	0.0169739
893.419	0.0167598
893.497	0.0166804
893.575	0.0166713
893.654	0.0163828
893.732	0.0162921
893.810	0.0160738
893.888	0.0159762
893.966	0.0157273
894.044	0.0155274
894.122	0.0154546
894.200	0.0154259
894.279	0.0153029
894.357	0.0152848
894.435	0.0153503
894.513	0.0152488
894.591	0.0152999
894.669	0.0152392
894.747	0.0152095
894.825	0.0152973
894.904	0.0153708
894.982	0.0153599
895.060	0.0154446
895.138	0.0155492
895.216	0.0156918
895.294	0.0158961
895.372	0.0159375
895.450	0.0161864
895.529	0.0163765
895.607	0.0165148
895.685	0.0166928
895.763	0.0168872
895.841	0.0168651
895.919	0.0168993
895.997	0.0169126
896.075	0.0168915
896.154	0.0166198
896.232	0.0165889
896.310	0.0165939
896.388	0.0164361
896.466	0.0161996
896.544	0.0161652
896.622	0.0159085
896.700	0.0157740
896.779	0.0157921
896.857	0.0156743
896.935	0.0157041
897.013	0.0155309
897.091	0.0156072
897.169	0.0156589
897.247	0.0157309
897.325	0.0159159
897.404	0.0158485
897.482	0.0159922
897.560	0.0159910
897.638	0.0160646
897.716	0.0161360
897.794	0.0161519
897.872	0.0162022
897.950	0.0161962
898.029	0.0163398
898.107	0.0163177
898.185	0.0164450
898.263	0.0164492
898.341	0.0163818
898.419	0.0163189
898.497	0.0162135
898.575	0.0161987
898.654	0.0163235
898.732	0.0161963
898.810	0.0162328
898.888	0.0159815
898.966	0.0158745
899.044	0.0159361
899.122	0.0158318
899.200	0.0157120
899.279	0.0155241
899.357	0.0155443
899.435	0.0155451
899.513	0.0154549
899.591	0.0153363
899.669	0.0153557
899.747	0.0156877
899.825	0.0156287
899.904	0.0157661
899.982	0.0158205
900.060	0.0157613
900.138	0.0159537
900.216	0.0160764
900.294	0.0161314
900.372	0.0162550
900.450	0.0163204
900.529	0.0163471
900.607	0.0164249
900.685	0.0164673
900.763	0.0164997
900.841	0.0165169
900.919	0.0165285
900.997	0.0165211
901.075	0.0166268
901.154	0.0165156
901.232	0.0164442
901.310	0.0164587
901.388	0.0165223
901.466	0.0162094
901.544	0.0161436
901.622	0.0161856
901.700	0.0159336
901.779	0.0159743
901.857	0.0158952
901.935	0.0157582
902.013	0.0158253
902.091	0.0157497
902.169	0.0156529
902.247	0.0157703
902.325	0.0155576
902.404	0.0156981
902.482	0.0158553
902.560	0.0156365
902.638	0.0156401
902.716	0.0157214
902.794	0.0156528
902.872	0.0157133
902.950	0.0157681
903.029	0.0157380
903.107	0.0156390
903.185	0.0158071
903.263	0.0158038
903.341	0.0158758
903.419	0.0158781
903.497	0.0158542
903.575	0.0158451
903.654	0.0158588
903.732	0.0159163
903.810	0.0159375
903.888	0.0160139
903.966	0.0160981
904.044	0.0159829
904.122	0.0160674
904.200	0.0161361
904.279	0.0161745
904.357	0.0161892
904.435	0.0161622
904.513	0.0162723
904.591	0.0162906
904.669	0.0164992
904.747	0.0165187
904.825	0.0164091
904.904	0.0166661
904.982	0.0165615
905.060	0.0166496
905.138	0.0167210
905.216	0.0167278
905.294	0.0167698
905.372	0.0166511
905.450	0.0167417
905.529	0.0166391
905.607	0.0165236
905.685	0.0163757
905.763	0.0162055
905.841	0.0161398
905.919	0.0161259
905.997	0.0159464
906.075	0.0158010
906.154	0.0156218
906.232	0.0156186
906.310	0.0157604
906.388	0.0157065
906.466	0.0156610
906.544	0.0156956
906.622	0.0155267
906.700	0.0156779
906.779	0.0156622
906.857	0.0157011
906.935	0.0157747
907.013	0.0158247
907.091	0.0157341
907.169	0.0158335
907.247	0.0159623
907.325	0.0158987
907.404	0.0158358
907.482	0.0159077
907.560	0.0158383
907.638	0.0159306
907.716	0.0159540
907.794	0.0158536
907.872	0.0157672
907.950	0.0160201
908.029	0.0159966
908.107	0.0159749
908.185	0.0159547
908.263	0.0159949
908.341	0.0160549
908.419	0.0159090
908.497	0.0158757
908.575	0.0158736
908.654	0.0159292
908.732	0.0159986
908.810	0.0159170
908.888	0.0160234
908.966	0.0161107
909.044	0.0161762
909.122	0.0161811
909.200	0.0162722
909.279	0.0162895
909.357	0.0162877
909.435	0.0163524
909.513	0.0162427
909.591	0.0164665
909.669	0.0163291
909.747	0.0163745
909.825	0.0163776
909.904	0.0163437
909.982	0.0161861
910.060	0.0162308
910.138	0.0162981
910.216	0.0162558
910.294	0.0161557
910.372	0.0159751
910.450	0.0159364
910.529	0.0160837
910.607	0.0161217
910.685	0.0160280
910.763	0.0160708
910.841	0.0160812
910.919	0.0160613
910.997	0.0160886
911.075	0.0160598
911.154	0.0160212
911.232	0.0160710
911.310	0.0159479
911.388	0.0159750
911.466	0.0161284
911.544	0.0160343
911.622	0.0159055
911.700	0.0158938
911.779	0.0158746
911.857	0.0161472
911.935	0.0160399
912.013	0.0160392
912.091	0.0158942
912.169	0.0159294
912.247	0.0160390
912.325	0.0159847
912.404	0.0159828
912.482	0.0158919
912.560	0.0159224
912.638	0.0159322
912.716	0.0159258
912.794	0.0159734
912.872	0.0159729
912.950	0.0160295
913.029	0.0159373
913.107	0.0161024
913.185	0.0161366
913.263	0.0161163
913.341	0.0161065
913.419	0.0161115
913.497	0.0161755
913.575	0.0162299
913.654	0.0163182
913.732	0.0164085
913.810	0.0163158
913.888	0.0163533
913.966	0.0163968
914.044	0.0163474
914.122	0.0162803
914.200	0.0161067
914.279	0.0161162
914.357	0.0161253
914.435	0.0159782
914.513	0.0159492
914.591	0.0159576
914.669	0.0158870
914.747	0.0156890
914.825	0.0156572
914.904	0.0157425
914.982	0.0157314
915.060	0.0157107
915.138	0.0158273
915.216	0.0158581
915.294	0.0158871
915.372	0.0157800
915.450	0.0159662
915.529	0.0157594
915.607	0.0159343
915.685	0.0160271
915.763	0.0161548
915.841	0.0162269
915.919	0.0161185
915.997	0.0161423
916.075	0.0159987
916.154	0.0160871
916.232	0.0161359
916.310	0.0160780
916.388	0.0161897
916.466	0.0162717
916.544	0.0161450
916.622	0.0162881
916.700	0.0162491
916.779	0.0162008
916.857	0.0163371
916.935	0.0162965
917.013	0.0162379
917.091	0.0162630
917.169	0.0162745
917.247	0.0162739
917.325	0.0161905
917.404	0.0162101
917.482	0.0162694
917.560	0.0161785
917.638	0.0162130
917.716	0.0163519
917.794	0.0161874
917.872	0.0160917
917.950	0.0160719
918.029	0.0160894
918.107	0.0159911
918.185	0.0161624
918.263	0.0160636
918.341	0.0159715
918.419	0.0161074
918.497	0.0158783
918.575	0.0158904
918.654	0.0158635
918.732	0.0158742
918.810	0.0159917
918.888	0.0158535
918.966	0.0158022
919.044	0.0159601
919.122	0.0160423
919.200	0.0161162
919.279	0.0160736
919.357	0.0160546
919.435	0.0161022
919.513	0.0160966
919.591	0.0159978
919.669	0.0162025
919.747	0.0162289
919.825	0.0162385
919.904	0.0162071
