05/20/2022	20:48:12	Ver.	4.1	UNKNOWN
Optical Delay	599.981738	Delta X		0.078125	Sweeps	1	Scan Rate	0/0
Coordinates	Axis 1	NaN	Axis 2	NaN	Axis 3	NaN	Axis 4	NaN	Axis 5	NaN	Axis 6	0.000000
TX Power	0.000000	RX Power	0.000000

599.982	0.0161169
600.060	0.0161967
600.138	0.0162067
600.216	0.0160430
600.294	0.0160651
600.372	0.0161108
600.450	0.0160786
600.529	0.0162268
600.607	0.0159850
600.685	0.0161073
600.763	0.0162552
600.841	0.0160410
600.919	0.0160843
600.997	0.0161112
601.075	0.0160652
601.154	0.0160624
601.232	0.0160468
601.310	0.0161417
601.388	0.0160427
601.466	0.0160967
601.544	0.0162004
601.622	0.0161745
601.700	0.0160686
601.779	0.0160571
601.857	0.0161934
601.935	0.0161426
602.013	0.0161035
602.091	0.0161973
602.169	0.0161671
602.247	0.0159104
602.325	0.0161816
602.404	0.0162968
602.482	0.0161358
602.560	0.0160382
602.638	0.0162209
602.716	0.0161757
602.794	0.0162166
602.872	0.0160500
602.950	0.0161726
603.029	0.0160107
603.107	0.0161425
603.185	0.0160940
603.263	0.0160854
603.341	0.0161282
603.419	0.0160228
603.497	0.0160914
603.575	0.0161064
603.654	0.0162061
603.732	0.0162131
603.810	0.0161760
603.888	0.0161072
603.966	0.0160299
604.044	0.0162185
604.122	0.0161920
604.200	0.0159620
604.279	0.0160843
604.357	0.0160813
604.435	0.0161398
604.513	0.0162376
604.591	0.0161346
604.669	0.0161192
604.747	0.0161658
604.825	0.0161021
604.904	0.0160335
604.982	0.0160716
605.060	0.0161585
605.138	0.0160413
605.216	0.0161108
605.294	0.0162141
605.372	0.0161362
605.450	0.0162214
605.529	0.0161745
605.607	0.0161047
605.685	0.0161167
605.763	0.0161927
605.841	0.0161233
605.919	0.0162038
605.997	0.0161949
606.075	0.0161793
606.154	0.0160645
606.232	0.0162002
606.310	0.0161380
606.388	0.0162204
606.466	0.0161826
606.544	0.0161474
606.622	0.0161446
606.700	0.0160899
606.779	0.0161967
606.857	0.0160810
606.935	0.0160773
607.013	0.0161962
607.091	0.0161239
607.169	0.0161959
607.247	0.0162564
607.325	0.0160144
607.404	0.0160642
607.482	0.0162809
607.560	0.0161363
607.638	0.0161113
607.716	0.0161212
607.794	0.0162093
607.872	0.0161665
607.950	0.0161472
608.029	0.0161099
608.107	0.0161782
608.185	0.0161595
608.263	0.0162578
608.341	0.0161214
608.419	0.0162083
608.497	0.0161520
608.575	0.0161204
608.654	0.0160089
608.732	0.0160558
608.810	0.0162172
608.888	0.0160844
608.966	0.0161237
609.044	0.0161356
609.122	0.0162697
609.200	0.0161302
609.279	0.0160757
609.357	0.0162251
609.435	0.0161597
609.513	0.0162087
609.591	0.0161480
609.669	0.0161522
609.747	0.0160803
609.825	0.0161589
609.904	0.0162441
609.982	0.0160696
610.060	0.0159997
610.138	0.0160114
610.216	0.0161228
610.294	0.0162432
610.372	0.0161497
610.450	0.0162114
610.529	0.0161521
610.607	0.0161960
610.685	0.0160379
610.763	0.0162283
610.841	0.0162769
610.919	0.0161412
610.997	0.0161139
611.075	0.0161484
611.154	0.0161363
611.232	0.0160361
611.310	0.0161304
611.388	0.0162578
611.466	0.0161471
611.544	0.0160162
611.622	0.0161678
611.700	0.0161843
611.779	0.0160645
611.857	0.0162299
611.935	0.0160773
612.013	0.0161822
612.091	0.0160937
612.169	0.0160538
612.247	0.0161698
612.325	0.0162492
612.404	0.0162537
612.482	0.0161054
612.560	0.0160941
612.638	0.0159969
612.716	0.0161672
612.794	0.0162375
612.872	0.0160832
612.950	0.0160540
613.029	0.0160650
613.107	0.0160946
613.185	0.0161906
613.263	0.0161362
613.341	0.0161907
613.419	0.0160816
613.497	0.0161308
613.575	0.0162991
613.654	0.0160546
613.732	0.0162154
613.810	0.0162098
613.888	0.0160644
613.966	0.0161076
614.044	0.0160576
614.122	0.0160796
614.200	0.0161266
614.279	0.0161282
614.357	0.0161732
614.435	0.0162207
614.513	0.0161052
614.591	0.0161951
614.669	0.0160699
614.747	0.0160857
614.825	0.0161063
614.904	0.0161335
614.982	0.0162884
615.060	0.0160720
615.138	0.0160535
615.216	0.0161606
615.294	0.0161593
615.372	0.0162780
615.450	0.0160608
615.529	0.0162220
615.607	0.0160903
615.685	0.0160969
615.763	0.0161392
615.841	0.0160384
615.919	0.0161764
615.997	0.0161022
616.075	0.0160699
616.154	0.0161555
616.232	0.0161961
616.310	0.0160942
616.388	0.0161938
616.466	0.0160944
616.544	0.0162511
616.622	0.0160480
616.700	0.0161191
616.779	0.0161370
616.857	0.0161434
616.935	0.0161684
617.013	0.0161530
617.091	0.0161712
617.169	0.0162267
617.247	0.0160835
617.325	0.0162621
617.404	0.0162102
617.482	0.0161535
617.560	0.0162415
617.638	0.0162004
617.716	0.0161495
617.794	0.0162074
617.872	0.0161870
617.950	0.0163318
618.029	0.0162854
618.107	0.0161330
618.185	0.0160052
618.263	0.0161378
618.341	0.0162205
618.419	0.0161670
618.497	0.0162939
618.575	0.0161800
618.654	0.0161652
618.732	0.0161826
618.810	0.0161961
618.888	0.0161945
618.966	0.0161546
619.044	0.0160994
619.122	0.0161987
619.200	0.0161263
619.279	0.0161183
619.357	0.0161681
619.435	0.0161491
619.513	0.0160611
619.591	0.0160893
619.669	0.0160786
619.747	0.0162559
619.825	0.0160706
619.904	0.0161375
619.982	0.0160904
620.060	0.0161749
620.138	0.0162206
620.216	0.0161584
620.294	0.0161112
620.372	0.0161206
620.450	0.0161233
620.529	0.0160550
620.607	0.0162654
620.685	0.0161047
620.763	0.0161028
620.841	0.0161845
620.919	0.0160778
620.997	0.0161159
621.075	0.0160152
621.154	0.0161553
621.232	0.0161098
621.310	0.0160280
621.388	0.0160283
621.466	0.0161581
621.544	0.0160818
621.622	0.0160311
621.700	0.0160730
621.779	0.0161135
621.857	0.0162051
621.935	0.0162391
622.013	0.0160649
622.091	0.0162164
622.169	0.0161729
622.247	0.0160591
622.325	0.0161868
622.404	0.0163183
622.482	0.0161920
622.560	0.0161511
622.638	0.0162087
622.716	0.0161323
622.794	0.0162276
622.872	0.0161771
622.950	0.0161039
623.029	0.0162260
623.107	0.0162510
623.185	0.0161210
623.263	0.0161385
623.341	0.0160553
623.419	0.0162047
623.497	0.0162122
623.575	0.0159646
623.654	0.0159765
623.732	0.0162270
623.810	0.0162191
623.888	0.0161164
623.966	0.0159588
624.044	0.0159214
624.122	0.0162186
624.200	0.0160928
624.279	0.0160286
624.357	0.0161393
624.435	0.0160789
624.513	0.0161158
624.591	0.0161872
624.669	0.0161075
624.747	0.0161089
624.825	0.0160615
624.904	0.0161277
624.982	0.0160244
625.060	0.0160021
625.138	0.0161239
625.216	0.0162405
625.294	0.0162510
625.372	0.0160741
625.450	0.0161190
625.529	0.0162617
625.607	0.0160384
625.685	0.0160216
625.763	0.0160569
625.841	0.0160041
625.919	0.0161076
625.997	0.0161829
626.075	0.0161562
626.154	0.0161288
626.232	0.0161347
626.310	0.0159660
626.388	0.0163647
626.466	0.0162138
626.544	0.0161277
626.622	0.0161278
626.700	0.0161633
626.779	0.0160729
626.857	0.0161640
626.935	0.0162189
627.013	0.0161763
627.091	0.0163501
627.169	0.0161720
627.247	0.0161179
627.325	0.0161237
627.404	0.0162388
627.482	0.0161784
627.560	0.0162862
627.638	0.0161476
627.716	0.0161848
627.794	0.0161230
627.872	0.0161952
627.950	0.0161105
628.029	0.0162179
628.107	0.0161424
628.185	0.0160281
628.263	0.0161380
628.341	0.0161057
628.419	0.0160529
628.497	0.0161240
628.575	0.0161158
628.654	0.0161109
628.732	0.0161583
628.810	0.0160919
628.888	0.0161869
628.966	0.0161082
629.044	0.0160165
629.122	0.0161176
629.200	0.0161668
629.279	0.0162399
629.357	0.0161438
629.435	0.0161053
629.513	0.0161943
629.591	0.0161674
629.669	0.0161382
629.747	0.0161491
629.825	0.0160902
629.904	0.0161616
629.982	0.0160338
630.060	0.0160496
630.138	0.0161698
630.216	0.0161877
630.294	0.0161714
630.372	0.0161040
630.450	0.0159956
630.529	0.0162097
630.607	0.0163069
630.685	0.0160501
630.763	0.0161691
630.841	0.0162910
630.919	0.0160685
630.997	0.0160728
631.075	0.0161076
631.154	0.0163206
631.232	0.0160375
631.310	0.0161489
631.388	0.0162207
631.466	0.0162387
631.544	0.0161477
631.622	0.0161511
631.700	0.0162029
631.779	0.0161113
631.857	0.0161330
631.935	0.0162032
632.013	0.0162975
632.091	0.0161104
632.169	0.0161161
632.247	0.0162263
632.325	0.0161871
632.404	0.0161216
632.482	0.0162466
632.560	0.0161836
632.638	0.0160922
632.716	0.0161633
632.794	0.0160902
632.872	0.0160272
632.950	0.0162123
633.029	0.0162429
633.107	0.0160116
633.185	0.0160957
633.263	0.0161192
633.341	0.0161496
633.419	0.0162160
633.497	0.0161494
633.575	0.0160619
633.654	0.0161414
633.732	0.0160900
633.810	0.0161292
633.888	0.0161089
633.966	0.0161905
634.044	0.0162310
634.122	0.0162077
634.200	0.0160395
634.279	0.0161533
634.357	0.0162006
634.435	0.0161171
634.513	0.0162185
634.591	0.0162755
634.669	0.0160789
634.747	0.0162019
634.825	0.0162695
634.904	0.0161853
634.982	0.0161892
635.060	0.0161392
635.138	0.0162043
635.216	0.0161381
635.294	0.0160081
635.372	0.0161436
635.450	0.0160987
635.529	0.0161536
635.607	0.0161127
635.685	0.0161269
635.763	0.0161504
635.841	0.0161646
635.919	0.0161806
635.997	0.0162621
636.075	0.0161593
636.154	0.0161742
636.232	0.0162280
636.310	0.0160585
636.388	0.0162135
636.466	0.0162328
636.544	0.0162175
636.622	0.0162678
636.700	0.0161787
636.779	0.0162446
636.857	0.0162139
636.935	0.0161629
637.013	0.0162794
637.091	0.0161536
637.169	0.0161652
637.247	0.0161779
637.325	0.0162817
637.404	0.0162122
637.482	0.0161102
637.560	0.0161503
637.638	0.0162301
637.716	0.0161152
637.794	0.0160416
637.872	0.0162170
637.950	0.0161404
638.029	0.0160484
638.107	0.0161063
638.185	0.0161605
638.263	0.0162710
638.341	0.0161475
638.419	0.0160741
638.497	0.0161045
638.575	0.0160968
638.654	0.0161559
638.732	0.0161180
638.810	0.0159270
638.888	0.0162563
638.966	0.0161809
639.044	0.0161019
639.122	0.0160472
639.200	0.0162354
639.279	0.0160419
639.357	0.0161411
639.435	0.0162077
639.513	0.0160490
639.591	0.0161914
639.669	0.0162347
639.747	0.0161999
639.825	0.0161475
639.904	0.0161575
639.982	0.0161923
640.060	0.0161581
640.138	0.0162489
640.216	0.0161699
640.294	0.0160825
640.372	0.0160913
640.450	0.0161807
640.529	0.0163582
640.607	0.0161529
640.685	0.0161028
640.763	0.0162219
640.841	0.0161607
640.919	0.0161678
640.997	0.0162023
641.075	0.0160860
641.154	0.0161068
641.232	0.0161145
641.310	0.0161775
641.388	0.0160800
641.466	0.0161791
641.544	0.0163308
641.622	0.0160984
641.700	0.0161571
641.779	0.0161285
641.857	0.0162278
641.935	0.0161473
642.013	0.0161094
642.091	0.0161173
642.169	0.0162500
642.247	0.0161670
642.325	0.0162319
642.404	0.0161925
642.482	0.0161339
642.560	0.0160864
642.638	0.0160976
642.716	0.0161136
642.794	0.0161089
642.872	0.0160680
642.950	0.0162065
643.029	0.0161324
643.107	0.0160664
643.185	0.0163737
643.263	0.0161314
643.341	0.0160628
643.419	0.0160921
643.497	0.0160976
643.575	0.0161704
643.654	0.0162451
643.732	0.0161897
643.810	0.0161661
643.888	0.0161920
643.966	0.0161071
644.044	0.0162083
644.122	0.0161485
644.200	0.0162263
644.279	0.0161915
644.357	0.0161675
644.435	0.0160979
644.513	0.0163148
644.591	0.0161282
644.669	0.0159529
644.747	0.0161150
644.825	0.0160045
644.904	0.0160738
644.982	0.0162997
645.060	0.0160042
645.138	0.0161394
645.216	0.0160602
645.294	0.0161533
645.372	0.0160381
645.450	0.0161169
645.529	0.0160637
645.607	0.0161703
645.685	0.0161327
645.763	0.0162967
645.841	0.0161523
645.919	0.0162291
645.997	0.0160944
646.075	0.0161868
646.154	0.0161003
646.232	0.0161439
646.310	0.0161697
646.388	0.0161795
646.466	0.0160732
646.544	0.0161110
646.622	0.0161891
646.700	0.0160913
646.779	0.0161208
646.857	0.0161403
646.935	0.0160854
647.013	0.0160847
647.091	0.0161468
647.169	0.0162134
647.247	0.0161600
647.325	0.0160983
647.404	0.0161628
647.482	0.0160594
647.560	0.0161320
647.638	0.0162109
647.716	0.0161201
647.794	0.0162660
647.872	0.0159975
647.950	0.0161240
648.029	0.0161517
648.107	0.0162785
648.185	0.0160603
648.263	0.0159996
648.341	0.0161383
648.419	0.0160567
648.497	0.0161538
648.575	0.0160561
648.654	0.0161577
648.732	0.0160662
648.810	0.0161423
648.888	0.0162084
648.966	0.0161850
649.044	0.0160265
649.122	0.0162649
649.200	0.0160618
649.279	0.0162247
649.357	0.0162072
649.435	0.0161398
649.513	0.0162916
649.591	0.0161209
649.669	0.0161912
649.747	0.0161544
649.825	0.0161404
649.904	0.0161686
649.982	0.0162835
650.060	0.0161414
650.138	0.0161288
650.216	0.0162083
650.294	0.0160769
650.372	0.0159998
650.450	0.0162571
650.529	0.0161681
650.607	0.0160841
650.685	0.0162401
650.763	0.0163129
650.841	0.0159726
650.919	0.0161907
650.997	0.0161031
651.075	0.0161587
651.154	0.0161581
651.232	0.0163005
651.310	0.0161253
651.388	0.0160928
651.466	0.0161295
651.544	0.0160556
651.622	0.0160905
651.700	0.0161884
651.779	0.0161118
651.857	0.0161559
651.935	0.0161776
652.013	0.0161887
652.091	0.0160991
652.169	0.0161214
652.247	0.0161469
652.325	0.0162328
652.404	0.0161781
652.482	0.0161554
652.560	0.0161472
652.638	0.0160735
652.716	0.0162221
652.794	0.0161224
652.872	0.0161770
652.950	0.0159816
653.029	0.0161047
653.107	0.0162191
653.185	0.0162428
653.263	0.0162670
653.341	0.0161796
653.419	0.0161034
653.497	0.0160983
653.575	0.0160916
653.654	0.0161660
653.732	0.0161855
653.810	0.0160580
653.888	0.0161365
653.966	0.0160812
654.044	0.0161874
654.122	0.0161749
654.200	0.0162121
654.279	0.0162741
654.357	0.0163939
654.435	0.0160392
654.513	0.0161358
654.591	0.0161039
654.669	0.0161208
654.747	0.0159638
654.825	0.0161465
654.904	0.0160997
654.982	0.0161574
655.060	0.0162308
655.138	0.0161603
655.216	0.0161043
655.294	0.0160379
655.372	0.0160532
655.450	0.0160921
655.529	0.0162008
655.607	0.0161852
655.685	0.0161759
655.763	0.0161538
655.841	0.0160211
655.919	0.0160307
655.997	0.0160303
656.075	0.0162394
656.154	0.0161357
656.232	0.0162154
656.310	0.0161113
656.388	0.0160516
656.466	0.0161534
656.544	0.0160299
656.622	0.0160149
656.700	0.0161431
656.779	0.0162218
656.857	0.0161259
656.935	0.0161569
657.013	0.0161656
657.091	0.0161681
657.169	0.0160976
657.247	0.0161771
657.325	0.0161613
657.404	0.0162483
657.482	0.0161029
657.560	0.0160065
657.638	0.0160736
657.716	0.0161974
657.794	0.0161378
657.872	0.0161075
657.950	0.0161573
658.029	0.0161919
658.107	0.0160408
658.185	0.0161201
658.263	0.0162289
658.341	0.0160580
658.419	0.0161667
658.497	0.0161568
658.575	0.0160860
658.654	0.0161230
658.732	0.0161342
658.810	0.0161996
658.888	0.0161138
658.966	0.0160362
659.044	0.0161233
659.122	0.0160741
659.200	0.0161410
659.279	0.0162017
659.357	0.0161221
659.435	0.0162188
659.513	0.0161529
659.591	0.0161623
659.669	0.0161349
659.747	0.0161775
659.825	0.0161323
659.904	0.0161349
659.982	0.0161636
660.060	0.0161928
660.138	0.0160999
660.216	0.0161732
660.294	0.0162059
660.372	0.0160802
660.450	0.0160989
660.529	0.0161652
660.607	0.0161063
660.685	0.0161192
660.763	0.0161607
660.841	0.0161039
660.919	0.0160979
660.997	0.0161737
661.075	0.0162003
661.154	0.0161802
661.232	0.0159869
661.310	0.0161678
661.388	0.0162009
661.466	0.0161602
661.544	0.0161519
661.622	0.0162242
661.700	0.0161374
661.779	0.0161311
661.857	0.0162004
661.935	0.0162714
662.013	0.0160835
662.091	0.0159925
662.169	0.0160406
662.247	0.0162231
662.325	0.0162141
662.404	0.0161190
662.482	0.0160481
662.560	0.0161760
662.638	0.0162049
662.716	0.0160780
662.794	0.0162099
662.872	0.0160740
662.950	0.0161322
663.029	0.0160915
663.107	0.0162230
663.185	0.0161245
663.263	0.0161474
663.341	0.0161862
663.419	0.0161626
663.497	0.0160087
663.575	0.0161582
663.654	0.0161495
663.732	0.0161315
663.810	0.0161465
663.888	0.0161514
663.966	0.0161741
664.044	0.0162436
664.122	0.0161777
664.200	0.0161646
664.279	0.0161304
664.357	0.0160596
664.435	0.0160779
664.513	0.0160606
664.591	0.0160544
664.669	0.0160759
664.747	0.0161819
664.825	0.0161401
664.904	0.0161428
664.982	0.0161004
665.060	0.0160543
665.138	0.0162218
665.216	0.0161600
665.294	0.0161750
665.372	0.0161561
665.450	0.0162325
665.529	0.0162038
665.607	0.0161978
665.685	0.0161349
665.763	0.0161768
665.841	0.0162352
665.919	0.0162025
665.997	0.0160902
666.075	0.0163042
666.154	0.0162920
666.232	0.0161504
666.310	0.0161795
666.388	0.0161679
666.466	0.0163161
666.544	0.0162012
666.622	0.0161971
666.700	0.0163008
666.779	0.0163321
666.857	0.0160968
666.935	0.0163328
667.013	0.0162157
667.091	0.0162193
667.169	0.0162354
667.247	0.0161662
667.325	0.0161655
667.404	0.0161391
667.482	0.0162820
667.560	0.0161504
667.638	0.0163467
667.716	0.0164754
667.794	0.0162546
667.872	0.0161991
667.950	0.0162206
668.029	0.0161928
668.107	0.0163126
668.185	0.0162801
668.263	0.0161504
668.341	0.0161932
668.419	0.0162261
668.497	0.0161471
668.575	0.0162420
668.654	0.0161909
668.732	0.0161583
668.810	0.0160884
668.888	0.0161889
668.966	0.0162561
669.044	0.0162236
669.122	0.0162510
669.200	0.0162392
669.279	0.0161904
669.357	0.0161370
669.435	0.0161246
669.513	0.0161420
669.591	0.0161674
669.669	0.0161055
669.747	0.0162894
669.825	0.0162714
669.904	0.0162198
669.982	0.0160954
670.060	0.0161459
670.138	0.0161123
670.216	0.0160579
670.294	0.0160754
670.372	0.0161024
670.450	0.0161723
670.529	0.0160715
670.607	0.0161697
670.685	0.0162517
670.763	0.0161753
670.841	0.0161832
670.919	0.0161677
670.997	0.0162791
671.075	0.0160783
671.154	0.0161366
671.232	0.0162663
671.310	0.0161308
671.388	0.0160960
671.466	0.0160349
671.544	0.0162350
671.622	0.0161378
671.700	0.0161445
671.779	0.0162472
671.857	0.0162928
671.935	0.0161134
672.013	0.0161297
672.091	0.0163213
672.169	0.0162668
672.247	0.0161809
672.325	0.0161897
672.404	0.0161720
672.482	0.0162087
672.560	0.0162450
672.638	0.0161708
672.716	0.0160216
672.794	0.0160835
672.872	0.0162144
672.950	0.0162057
673.029	0.0160780
673.107	0.0161658
673.185	0.0162431
673.263	0.0161594
673.341	0.0161289
673.419	0.0161570
673.497	0.0161349
673.575	0.0162083
673.654	0.0162868
673.732	0.0161131
673.810	0.0161168
673.888	0.0159959
673.966	0.0161980
674.044	0.0162080
674.122	0.0161385
674.200	0.0162183
674.279	0.0162005
674.357	0.0161362
674.435	0.0161105
674.513	0.0160317
674.591	0.0162860
674.669	0.0161858
674.747	0.0160905
674.825	0.0160609
674.904	0.0160640
674.982	0.0160869
675.060	0.0162009
675.138	0.0161696
675.216	0.0161211
675.294	0.0161839
675.372	0.0161835
675.450	0.0161002
675.529	0.0161572
675.607	0.0160464
675.685	0.0160737
675.763	0.0161453
675.841	0.0160908
675.919	0.0161208
675.997	0.0162987
676.075	0.0160426
676.154	0.0160922
676.232	0.0162512
676.310	0.0161746
676.388	0.0161612
676.466	0.0160375
676.544	0.0161089
676.622	0.0161239
676.700	0.0160796
676.779	0.0162144
676.857	0.0161179
676.935	0.0161500
677.013	0.0160587
677.091	0.0161896
677.169	0.0161153
677.247	0.0162307
677.325	0.0161690
677.404	0.0160307
677.482	0.0161105
677.560	0.0161345
677.638	0.0162592
677.716	0.0161655
677.794	0.0160405
677.872	0.0161784
677.950	0.0161347
678.029	0.0160337
678.107	0.0160950
678.185	0.0161658
678.263	0.0160960
678.341	0.0161232
678.419	0.0160822
678.497	0.0161284
678.575	0.0162305
678.654	0.0161573
678.732	0.0161269
678.810	0.0161002
678.888	0.0160606
678.966	0.0160526
679.044	0.0160921
679.122	0.0160915
679.200	0.0162234
679.279	0.0161081
679.357	0.0159470
679.435	0.0161047
679.513	0.0159766
679.591	0.0161105
679.669	0.0160684
679.747	0.0160985
679.825	0.0160631
679.904	0.0160293
679.982	0.0160587
680.060	0.0161850
680.138	0.0161162
680.216	0.0161345
680.294	0.0161772
680.372	0.0161943
680.450	0.0161874
680.529	0.0161405
680.607	0.0160670
680.685	0.0162536
680.763	0.0162103
680.841	0.0160566
680.919	0.0160607
680.997	0.0161771
681.075	0.0161248
681.154	0.0160389
681.232	0.0160924
681.310	0.0160425
681.388	0.0161665
681.466	0.0161402
681.544	0.0161935
681.622	0.0162661
681.700	0.0161626
681.779	0.0161635
681.857	0.0162256
681.935	0.0162051
682.013	0.0161607
682.091	0.0162012
682.169	0.0160981
682.247	0.0161726
682.325	0.0162180
682.404	0.0162241
682.482	0.0161584
682.560	0.0161322
682.638	0.0161798
682.716	0.0162833
682.794	0.0161535
682.872	0.0161139
682.950	0.0159832
683.029	0.0161409
683.107	0.0162259
683.185	0.0163007
683.263	0.0161916
683.341	0.0161443
683.419	0.0161982
683.497	0.0161710
683.575	0.0160958
683.654	0.0160740
683.732	0.0160772
683.810	0.0162312
683.888	0.0161105
683.966	0.0160500
684.044	0.0160719
684.122	0.0161797
684.200	0.0162479
684.279	0.0162163
684.357	0.0162598
684.435	0.0162761
684.513	0.0162427
684.591	0.0162109
684.669	0.0161346
684.747	0.0161958
684.825	0.0159767
684.904	0.0162042
684.982	0.0161552
685.060	0.0161631
685.138	0.0162695
685.216	0.0161066
685.294	0.0163101
685.372	0.0162378
685.450	0.0160278
685.529	0.0161577
685.607	0.0163271
685.685	0.0162199
685.763	0.0161823
685.841	0.0161620
685.919	0.0161094
685.997	0.0161509
686.075	0.0163866
686.154	0.0161163
686.232	0.0161514
686.310	0.0160307
686.388	0.0159525
686.466	0.0161053
686.544	0.0160262
686.622	0.0160091
686.700	0.0161629
686.779	0.0161298
686.857	0.0162473
686.935	0.0162468
687.013	0.0164407
687.091	0.0163067
687.169	0.0162841
687.247	0.0163501
687.325	0.0164040
687.404	0.0163809
687.482	0.0162208
687.560	0.0161681
687.638	0.0161508
687.716	0.0161920
687.794	0.0161599
687.872	0.0160492
687.950	0.0162432
688.029	0.0162672
688.107	0.0161933
688.185	0.0162481
688.263	0.0164198
688.341	0.0163848
688.419	0.0164153
688.497	0.0164376
688.575	0.0165524
688.654	0.0164760
688.732	0.0165795
688.810	0.0166349
688.888	0.0164861
688.966	0.0163110
689.044	0.0162938
689.122	0.0161169
689.200	0.0159207
689.279	0.0158444
689.357	0.0156462
689.435	0.0154314
689.513	0.0152964
689.591	0.0152236
689.669	0.0152659
689.747	0.0153055
689.825	0.0152257
689.904	0.0153310
689.982	0.0152781
690.060	0.0155287
690.138	0.0155870
690.216	0.0158323
690.294	0.0160335
690.372	0.0162730
690.450	0.0165299
690.529	0.0166292
690.607	0.0168998
690.685	0.0171719
690.763	0.0173739
690.841	0.0174030
690.919	0.0176603
690.997	0.0179393
691.075	0.0180688
691.154	0.0180667
691.232	0.0179820
691.310	0.0179394
691.388	0.0177488
691.466	0.0174752
691.544	0.0173178
691.622	0.0171266
691.700	0.0167099
691.779	0.0163013
691.857	0.0159090
691.935	0.0154089
692.013	0.0149857
692.091	0.0145366
692.169	0.0141811
692.247	0.0138071
692.325	0.0133521
692.404	0.0131699
692.482	0.0131100
692.560	0.0131455
692.638	0.0129171
692.716	0.0133182
692.794	0.0133737
692.872	0.0136504
692.950	0.0142211
693.029	0.0144607
693.107	0.0149141
693.185	0.0155625
693.263	0.0159100
693.341	0.0164537
693.419	0.0168952
693.497	0.0174631
693.575	0.0179711
693.654	0.0184169
693.732	0.0187753
693.810	0.0192747
693.888	0.0197141
693.966	0.0201646
694.044	0.0204792
694.122	0.0205836
694.200	0.0208621
694.279	0.0208052
694.357	0.0208753
694.435	0.0204565
694.513	0.0199209
694.591	0.0194746
694.669	0.0188770
694.747	0.0181818
694.825	0.0171744
694.904	0.0164970
694.982	0.0156359
695.060	0.0147218
695.138	0.0141398
695.216	0.0134838
695.294	0.0127740
695.372	0.0123543
695.450	0.0120638
695.529	0.0117007
695.607	0.0115004
695.685	0.0112811
695.763	0.0110867
695.841	0.0109023
695.919	0.0106672
695.997	0.0105109
696.075	0.0102308
696.154	0.0102364
696.232	0.0102940
696.310	0.0105967
696.388	0.0109466
696.466	0.0116515
696.544	0.0126060
696.622	0.0138389
696.700	0.0151255
696.779	0.0166282
696.857	0.0182070
696.935	0.0196429
697.013	0.0212014
697.091	0.0223875
697.169	0.0235376
697.247	0.0243908
697.325	0.0249360
697.404	0.0249083
697.482	0.0248505
697.560	0.0246222
697.638	0.0240231
697.716	0.0231754
697.794	0.0224675
697.872	0.0215681
697.950	0.0205655
698.029	0.0196725
698.107	0.0189106
698.185	0.0179899
698.263	0.0171392
698.341	0.0163696
698.419	0.0156603
698.497	0.0150109
698.575	0.0143502
698.654	0.0138633
698.732	0.0136790
698.810	0.0133057
698.888	0.0130002
698.966	0.0129114
699.044	0.0128335
699.122	0.0127390
699.200	0.0126151
699.279	0.0124261
699.357	0.0123940
699.435	0.0124652
699.513	0.0122694
699.591	0.0120690
699.669	0.0121602
699.747	0.0120915
699.825	0.0117670
699.904	0.0114233
699.982	0.0111906
700.060	0.0110348
700.138	0.0106832
700.216	0.0104074
700.294	0.0103180
700.372	0.0100128
700.450	0.00994606
700.529	0.0102099
700.607	0.0102344
700.685	0.0105692
700.763	0.0110030
700.841	0.0116632
700.919	0.0126062
700.997	0.0138841
701.075	0.0153432
701.154	0.0169551
701.232	0.0190200
701.310	0.0208516
701.388	0.0227345
701.466	0.0246439
701.544	0.0264678
701.622	0.0278710
701.700	0.0291584
701.779	0.0302931
701.857	0.0309792
701.935	0.0314492
702.013	0.0316510
702.091	0.0315836
702.169	0.0310098
702.247	0.0300681
702.325	0.0286530
702.404	0.0272181
702.482	0.0253701
702.560	0.0233366
702.638	0.0211826
702.716	0.0189455
702.794	0.0163926
702.872	0.0140079
702.950	0.0116370
703.029	0.00938919
703.107	0.00726555
703.185	0.00543854
703.263	0.00394058
703.341	0.00296715
703.419	0.00237022
703.497	0.00206223
703.575	0.00211823
703.654	0.00241653
703.732	0.00289070
703.810	0.00351646
703.888	0.00434479
703.966	0.00524178
704.044	0.00623222
704.122	0.00722015
704.200	0.00853882
704.279	0.00967453
704.357	0.0106340
704.435	0.0118644
704.513	0.0129539
704.591	0.0137709
704.669	0.0147828
704.747	0.0156110
704.825	0.0163471
704.904	0.0168044
704.982	0.0171515
705.060	0.0175211
705.138	0.0178914
705.216	0.0180087
705.294	0.0182946
705.372	0.0183359
705.450	0.0186479
705.529	0.0190486
705.607	0.0194309
705.685	0.0202956
705.763	0.0213435
705.841	0.0223174
705.919	0.0236855
705.997	0.0249347
706.075	0.0262241
706.154	0.0273951
706.232	0.0283178
706.310	0.0291051
706.388	0.0295574
706.466	0.0295913
706.544	0.0294316
706.622	0.0290994
706.700	0.0283446
706.779	0.0274431
706.857	0.0262415
706.935	0.0250349
707.013	0.0235615
707.091	0.0218726
707.169	0.0200912
707.247	0.0183163
707.325	0.0164059
707.404	0.0145789
707.482	0.0126226
707.560	0.0107202
707.638	0.00884018
707.716	0.00715149
707.794	0.00543961
707.872	0.00400093
707.950	0.00286797
708.029	0.00182938
708.107	0.00123764
708.185	0.000924759
708.263	0.000839386
708.341	0.00111870
708.419	0.00180367
708.497	0.00279434
708.575	0.00398209
708.654	0.00535744
708.732	0.00675606
708.810	0.00825249
708.888	0.00987770
708.966	0.0114537
709.044	0.0130065
709.122	0.0144444
709.200	0.0157078
709.279	0.0168442
709.357	0.0178365
709.435	0.0187736
709.513	0.0196002
709.591	0.0201430
709.669	0.0209037
709.747	0.0212959
709.825	0.0217934
709.904	0.0220591
709.982	0.0223044
710.060	0.0225702
710.138	0.0226743
710.216	0.0225629
710.294	0.0224345
710.372	0.0224323
710.450	0.0221961
710.529	0.0220221
710.607	0.0216518
710.685	0.0215994
710.763	0.0214582
710.841	0.0215240
710.919	0.0213415
710.997	0.0212887
711.075	0.0210967
711.154	0.0207409
711.232	0.0205639
711.310	0.0203950
711.388	0.0198618
711.466	0.0193426
711.544	0.0190672
711.622	0.0185407
711.700	0.0179974
711.779	0.0174883
711.857	0.0170723
711.935	0.0166496
712.013	0.0162632
712.091	0.0157786
712.169	0.0154759
712.247	0.0148331
712.325	0.0142419
712.404	0.0138087
712.482	0.0133723
712.560	0.0126656
712.638	0.0122425
712.716	0.0117068
712.794	0.0113379
712.872	0.0110404
712.950	0.0107855
713.029	0.0107710
713.107	0.0109649
713.185	0.0111784
713.263	0.0116793
713.341	0.0122260
713.419	0.0125069
713.497	0.0131221
713.575	0.0135787
713.654	0.0139346
713.732	0.0142279
713.810	0.0144234
713.888	0.0145683
713.966	0.0145103
714.044	0.0144358
714.122	0.0145062
714.200	0.0144407
714.279	0.0142291
714.357	0.0144371
714.435	0.0145357
714.513	0.0145769
714.591	0.0147631
714.669	0.0152119
714.747	0.0156915
714.825	0.0161594
714.904	0.0165846
714.982	0.0169616
715.060	0.0174467
715.138	0.0177457
715.216	0.0180697
715.294	0.0183982
715.372	0.0186485
715.450	0.0188805
715.529	0.0190624
715.607	0.0193833
715.685	0.0195569
715.763	0.0197658
715.841	0.0197383
715.919	0.0197419
715.997	0.0198087
716.075	0.0195446
716.154	0.0193633
716.232	0.0190257
716.310	0.0184029
716.388	0.0182623
716.466	0.0176851
716.544	0.0172059
716.622	0.0167257
716.700	0.0162825
716.779	0.0160820
716.857	0.0158340
716.935	0.0157350
717.013	0.0156170
717.091	0.0156512
717.169	0.0157901
717.247	0.0159192
717.325	0.0160932
717.404	0.0164031
717.482	0.0166972
717.560	0.0169379
717.638	0.0172327
717.716	0.0174396
717.794	0.0175168
717.872	0.0177480
717.950	0.0178931
718.029	0.0177799
718.107	0.0176959
718.185	0.0173224
718.263	0.0169726
718.341	0.0164999
718.419	0.0159951
718.497	0.0152822
718.575	0.0148249
718.654	0.0141103
718.732	0.0136530
718.810	0.0131536
718.888	0.0125101
718.966	0.0123320
719.044	0.0122143
719.122	0.0121467
719.200	0.0122102
719.279	0.0126363
719.357	0.0129201
719.435	0.0133723
719.513	0.0138235
719.591	0.0144737
719.669	0.0149648
719.747	0.0156618
719.825	0.0161865
719.904	0.0165737
719.982	0.0172346
720.060	0.0174475
720.138	0.0178611
720.216	0.0179131
720.294	0.0179909
720.372	0.0179510
720.450	0.0178801
720.529	0.0177937
720.607	0.0176839
720.685	0.0173795
720.763	0.0169513
720.841	0.0164181
720.919	0.0160406
720.997	0.0157453
721.075	0.0151255
721.154	0.0147118
721.232	0.0145267
721.310	0.0143886
721.388	0.0142944
721.466	0.0142001
721.544	0.0142137
721.622	0.0144296
721.700	0.0146409
721.779	0.0149401
721.857	0.0154115
721.935	0.0158468
722.013	0.0164249
722.091	0.0168192
722.169	0.0171249
722.247	0.0176711
722.325	0.0182008
722.404	0.0184962
722.482	0.0188325
722.560	0.0191441
722.638	0.0191293
722.716	0.0192780
722.794	0.0190034
722.872	0.0190901
722.950	0.0188830
723.029	0.0186256
723.107	0.0182616
723.185	0.0179913
723.263	0.0174763
723.341	0.0171650
723.419	0.0168314
723.497	0.0164844
723.575	0.0162746
723.654	0.0160889
723.732	0.0158251
723.810	0.0158002
723.888	0.0153722
723.966	0.0152260
724.044	0.0150919
724.122	0.0149028
724.200	0.0147533
724.279	0.0145718
724.357	0.0145333
724.435	0.0144849
724.513	0.0144049
724.591	0.0145208
724.669	0.0144606
724.747	0.0146723
724.825	0.0148582
724.904	0.0150523
724.982	0.0153930
725.060	0.0156400
725.138	0.0159400
725.216	0.0164790
725.294	0.0166424
725.372	0.0168756
725.450	0.0172042
725.529	0.0174855
725.607	0.0175001
725.685	0.0174277
725.763	0.0173239
725.841	0.0171288
725.919	0.0168456
725.997	0.0166157
726.075	0.0162203
726.154	0.0159516
726.232	0.0156131
726.310	0.0155640
726.388	0.0152221
726.466	0.0150767
726.544	0.0148318
726.622	0.0146490
726.700	0.0147843
726.779	0.0147247
726.857	0.0148478
726.935	0.0148389
727.013	0.0148455
727.091	0.0151618
727.169	0.0152216
727.247	0.0151597
727.325	0.0152888
727.404	0.0153204
727.482	0.0153305
727.560	0.0154779
727.638	0.0156721
727.716	0.0158144
727.794	0.0158869
727.872	0.0161633
727.950	0.0161416
728.029	0.0164975
728.107	0.0164910
728.185	0.0167075
728.263	0.0169123
728.341	0.0169794
728.419	0.0171394
728.497	0.0172874
728.575	0.0174178
728.654	0.0173959
728.732	0.0174313
728.810	0.0173975
728.888	0.0173855
728.966	0.0172360
729.044	0.0172339
729.122	0.0170719
729.200	0.0169632
729.279	0.0168195
729.357	0.0165888
729.435	0.0164861
729.513	0.0164002
729.591	0.0162518
729.669	0.0163341
729.747	0.0163078
729.825	0.0163506
729.904	0.0164175
729.982	0.0165538
730.060	0.0167220
730.138	0.0167805
730.216	0.0168490
730.294	0.0169002
730.372	0.0170427
730.450	0.0172250
730.529	0.0171429
730.607	0.0171402
730.685	0.0171597
730.763	0.0169896
730.841	0.0167994
730.919	0.0166017
730.997	0.0162777
731.075	0.0162135
731.154	0.0159845
731.232	0.0156898
731.310	0.0156263
731.388	0.0154086
731.466	0.0152894
731.544	0.0150168
731.622	0.0149632
731.700	0.0149528
731.779	0.0149857
731.857	0.0148637
731.935	0.0148050
732.013	0.0148877
732.091	0.0147732
732.169	0.0149997
732.247	0.0150107
732.325	0.0150943
732.404	0.0150474
732.482	0.0151167
732.560	0.0151734
732.638	0.0153403
732.716	0.0155379
732.794	0.0157767
732.872	0.0158166
732.950	0.0160845
733.029	0.0163120
733.107	0.0165223
733.185	0.0166940
733.263	0.0170042
733.341	0.0171231
733.419	0.0172527
733.497	0.0170917
733.575	0.0171825
733.654	0.0170447
733.732	0.0169180
733.810	0.0168085
733.888	0.0167782
733.966	0.0166563
734.044	0.0164108
734.122	0.0163479
734.200	0.0164007
734.279	0.0164095
734.357	0.0162917
734.435	0.0162497
734.513	0.0161319
734.591	0.0162489
734.669	0.0163512
734.747	0.0163875
734.825	0.0165207
734.904	0.0164405
734.982	0.0164341
735.060	0.0165100
735.138	0.0164500
735.216	0.0164415
735.294	0.0162582
735.372	0.0162181
735.450	0.0161240
735.529	0.0161046
735.607	0.0161636
735.685	0.0159621
735.763	0.0160358
735.841	0.0161334
735.919	0.0159157
735.997	0.0157961
736.075	0.0158519
736.154	0.0158514
736.232	0.0158159
736.310	0.0156438
736.388	0.0154444
736.466	0.0155788
736.544	0.0156889
736.622	0.0156379
736.700	0.0156145
736.779	0.0156835
736.857	0.0155103
736.935	0.0157074
737.013	0.0158309
737.091	0.0157588
737.169	0.0158276
737.247	0.0162431
737.325	0.0163204
737.404	0.0164943
737.482	0.0167431
737.560	0.0169287
737.638	0.0171857
737.716	0.0172053
737.794	0.0172566
737.872	0.0174039
737.950	0.0172635
738.029	0.0173109
738.107	0.0172597
738.185	0.0170955
738.263	0.0170062
738.341	0.0167237
738.419	0.0165067
738.497	0.0161917
738.575	0.0161882
738.654	0.0160017
738.732	0.0160531
738.810	0.0159371
738.888	0.0159871
738.966	0.0159177
739.044	0.0157359
739.122	0.0160381
739.200	0.0161942
739.279	0.0162003
739.357	0.0163429
739.435	0.0162834
739.513	0.0162392
739.591	0.0163512
739.669	0.0161979
739.747	0.0160243
739.825	0.0159784
739.904	0.0157970
739.982	0.0156696
740.060	0.0156958
740.138	0.0154848
740.216	0.0153446
740.294	0.0154581
740.372	0.0155241
740.450	0.0155038
740.529	0.0153735
740.607	0.0155505
740.685	0.0156207
740.763	0.0157389
740.841	0.0159476
740.919	0.0160341
740.997	0.0161523
741.075	0.0161362
741.154	0.0163928
741.232	0.0166772
741.310	0.0165677
741.388	0.0167567
741.466	0.0167184
741.544	0.0167279
741.622	0.0168275
741.700	0.0167565
741.779	0.0166466
741.857	0.0165466
741.935	0.0165670
742.013	0.0165154
742.091	0.0163124
742.169	0.0162431
742.247	0.0163077
742.325	0.0160857
742.404	0.0159837
742.482	0.0159292
742.560	0.0159751
742.638	0.0159057
742.716	0.0160002
742.794	0.0160686
742.872	0.0158200
742.950	0.0161489
743.029	0.0161787
743.107	0.0159884
743.185	0.0160254
743.263	0.0157547
743.341	0.0157337
743.419	0.0158602
743.497	0.0158639
743.575	0.0157403
743.654	0.0156577
743.732	0.0157536
743.810	0.0157172
743.888	0.0157753
743.966	0.0158883
744.044	0.0159526
744.122	0.0159041
744.200	0.0161816
744.279	0.0161694
744.357	0.0161896
744.435	0.0162424
744.513	0.0162303
744.591	0.0162817
744.669	0.0162758
744.747	0.0162903
744.825	0.0163772
744.904	0.0164060
744.982	0.0164099
745.060	0.0162813
745.138	0.0164165
745.216	0.0163861
745.294	0.0165368
745.372	0.0167047
745.450	0.0169567
745.529	0.0169374
745.607	0.0169126
745.685	0.0171883
745.763	0.0170114
745.841	0.0171645
745.919	0.0172053
745.997	0.0171396
746.075	0.0170387
746.154	0.0169794
746.232	0.0167207
746.310	0.0167046
746.388	0.0165089
746.466	0.0164198
746.544	0.0163847
746.622	0.0161545
746.700	0.0160492
746.779	0.0160033
746.857	0.0161686
746.935	0.0161810
747.013	0.0159800
747.091	0.0159086
747.169	0.0159654
747.247	0.0160683
747.325	0.0160277
747.404	0.0159269
747.482	0.0160123
747.560	0.0159888
747.638	0.0160847
747.716	0.0160565
747.794	0.0160062
747.872	0.0157647
747.950	0.0156480
748.029	0.0157364
748.107	0.0157245
748.185	0.0154855
748.263	0.0152760
748.341	0.0152219
748.419	0.0151908
748.497	0.0151495
748.575	0.0149693
748.654	0.0151543
748.732	0.0150451
748.810	0.0151734
748.888	0.0151949
748.966	0.0154578
749.044	0.0155317
749.122	0.0156947
749.200	0.0158739
749.279	0.0161242
749.357	0.0163077
749.435	0.0163170
749.513	0.0163506
749.591	0.0165060
749.669	0.0165271
749.747	0.0163345
749.825	0.0165108
749.904	0.0163737
749.982	0.0161344
750.060	0.0163421
750.138	0.0161733
750.216	0.0160651
750.294	0.0161369
750.372	0.0161971
750.450	0.0162331
750.529	0.0161458
750.607	0.0160382
750.685	0.0160920
750.763	0.0158781
750.841	0.0161451
750.919	0.0162120
750.997	0.0163617
751.075	0.0164272
751.154	0.0164123
751.232	0.0165453
751.310	0.0165703
751.388	0.0166763
751.466	0.0165703
751.544	0.0165366
751.622	0.0166288
751.700	0.0166594
751.779	0.0168159
751.857	0.0167598
751.935	0.0167345
752.013	0.0167653
752.091	0.0168124
752.169	0.0168637
752.247	0.0168437
752.325	0.0168152
752.404	0.0167605
752.482	0.0166525
752.560	0.0167964
752.638	0.0166578
752.716	0.0165135
752.794	0.0163311
752.872	0.0162098
752.950	0.0160889
753.029	0.0160324
753.107	0.0158549
753.185	0.0156919
753.263	0.0157322
753.341	0.0156828
753.419	0.0155500
753.497	0.0156392
753.575	0.0156571
753.654	0.0156131
753.732	0.0155067
753.810	0.0156087
753.888	0.0154962
753.966	0.0156072
754.044	0.0156337
754.122	0.0154922
754.200	0.0157773
754.279	0.0157302
754.357	0.0157751
754.435	0.0159047
754.513	0.0160034
754.591	0.0158586
754.669	0.0159030
754.747	0.0161954
754.825	0.0162048
754.904	0.0163645
754.982	0.0164788
755.060	0.0165655
755.138	0.0165056
755.216	0.0166804
755.294	0.0166498
755.372	0.0166007
755.450	0.0165212
755.529	0.0164964
755.607	0.0165210
755.685	0.0164976
755.763	0.0163628
755.841	0.0161353
755.919	0.0160707
755.997	0.0160837
756.075	0.0158911
756.154	0.0158720
756.232	0.0157425
756.310	0.0156899
756.388	0.0155558
756.466	0.0155332
756.544	0.0155712
756.622	0.0155877
756.700	0.0157141
756.779	0.0158516
756.857	0.0159344
756.935	0.0161304
757.013	0.0162873
757.091	0.0162772
757.169	0.0165199
757.247	0.0165472
757.325	0.0166531
757.404	0.0167600
757.482	0.0167362
757.560	0.0166277
757.638	0.0168463
757.716	0.0167015
757.794	0.0165136
757.872	0.0167188
757.950	0.0164165
758.029	0.0161321
758.107	0.0159538
758.185	0.0158530
758.263	0.0159251
758.341	0.0158437
758.419	0.0156185
758.497	0.0154823
758.575	0.0154040
758.654	0.0156294
758.732	0.0155505
758.810	0.0155580
758.888	0.0157207
758.966	0.0156597
759.044	0.0158067
759.122	0.0159624
759.200	0.0160284
759.279	0.0163006
759.357	0.0163608
759.435	0.0162784
759.513	0.0164623
759.591	0.0163947
759.669	0.0165532
759.747	0.0167553
759.825	0.0167057
759.904	0.0167213
759.982	0.0169147
760.060	0.0167921
760.138	0.0167792
760.216	0.0167903
760.294	0.0167794
760.372	0.0167823
760.450	0.0166203
760.529	0.0164513
760.607	0.0164588
760.685	0.0164030
760.763	0.0162090
760.841	0.0160728
760.919	0.0160994
760.997	0.0161495
761.075	0.0159226
761.154	0.0159245
761.232	0.0160225
761.310	0.0160276
761.388	0.0159392
761.466	0.0157887
761.544	0.0159509
761.622	0.0160187
761.700	0.0159369
761.779	0.0161941
761.857	0.0162994
761.935	0.0163963
762.013	0.0164178
762.091	0.0164029
762.169	0.0164301
762.247	0.0164321
762.325	0.0166509
762.404	0.0165933
762.482	0.0163684
762.560	0.0164537
762.638	0.0163921
762.716	0.0162174
762.794	0.0162502
762.872	0.0161935
762.950	0.0162075
763.029	0.0161181
763.107	0.0162067
763.185	0.0159556
763.263	0.0160203
763.341	0.0160033
763.419	0.0158206
763.497	0.0159843
763.575	0.0160017
763.654	0.0158329
763.732	0.0156229
763.810	0.0155944
763.888	0.0156210
763.966	0.0156948
764.044	0.0154726
764.122	0.0154448
764.200	0.0153955
764.279	0.0152948
764.357	0.0154700
764.435	0.0152972
764.513	0.0153645
764.591	0.0155239
764.669	0.0155759
764.747	0.0156605
764.825	0.0156204
764.904	0.0159816
764.982	0.0160957
765.060	0.0160709
765.138	0.0162500
765.216	0.0164967
765.294	0.0166051
765.372	0.0166377
765.450	0.0166994
765.529	0.0168421
765.607	0.0167057
765.685	0.0168021
765.763	0.0166657
765.841	0.0166985
765.919	0.0167197
765.997	0.0166341
766.075	0.0165762
766.154	0.0164906
766.232	0.0163507
766.310	0.0162392
766.388	0.0163480
766.466	0.0162514
766.544	0.0162445
766.622	0.0161816
766.700	0.0161786
766.779	0.0161270
766.857	0.0163061
766.935	0.0161406
767.013	0.0162368
767.091	0.0163401
767.169	0.0163079
767.247	0.0164511
767.325	0.0165353
767.404	0.0165179
767.482	0.0165593
767.560	0.0164824
767.638	0.0164990
767.716	0.0165916
767.794	0.0165642
767.872	0.0164642
767.950	0.0165356
768.029	0.0165066
768.107	0.0163861
768.185	0.0163274
768.263	0.0163206
768.341	0.0162440
768.419	0.0161358
768.497	0.0161827
768.575	0.0160380
768.654	0.0159301
768.732	0.0158435
768.810	0.0158465
768.888	0.0157931
768.966	0.0156947
769.044	0.0155741
769.122	0.0155524
769.200	0.0157355
769.279	0.0155768
769.357	0.0158165
769.435	0.0159116
769.513	0.0159095
769.591	0.0159893
769.669	0.0161161
769.747	0.0163287
769.825	0.0163262
769.904	0.0164198
769.982	0.0164664
770.060	0.0165090
770.138	0.0164790
770.216	0.0164638
770.294	0.0164941
770.372	0.0165903
770.450	0.0164955
770.529	0.0163590
770.607	0.0163454
770.685	0.0163839
770.763	0.0163004
770.841	0.0161755
770.919	0.0161491
770.997	0.0160605
771.075	0.0160568
771.154	0.0160096
771.232	0.0159697
771.310	0.0158177
771.388	0.0159837
771.466	0.0158745
771.544	0.0158150
771.622	0.0159156
771.700	0.0159901
771.779	0.0159018
771.857	0.0157521
771.935	0.0157975
772.013	0.0158352
772.091	0.0157451
772.169	0.0159092
772.247	0.0158428
772.325	0.0159350
772.404	0.0158382
772.482	0.0157906
772.560	0.0156331
772.638	0.0158437
772.716	0.0160109
772.794	0.0157670
772.872	0.0158815
772.950	0.0159338
773.029	0.0159652
773.107	0.0160004
773.185	0.0161253
773.263	0.0160686
773.341	0.0161358
773.419	0.0162910
773.497	0.0161847
773.575	0.0162371
773.654	0.0163179
773.732	0.0161663
773.810	0.0161822
773.888	0.0161325
773.966	0.0162032
774.044	0.0160656
774.122	0.0160341
774.200	0.0161689
774.279	0.0160891
774.357	0.0159489
774.435	0.0160059
774.513	0.0160770
774.591	0.0161079
774.669	0.0161729
774.747	0.0164463
774.825	0.0162944
774.904	0.0165810
774.982	0.0166071
775.060	0.0168211
775.138	0.0166274
775.216	0.0166373
775.294	0.0167859
775.372	0.0169271
775.450	0.0167962
775.529	0.0167022
775.607	0.0167708
775.685	0.0168006
775.763	0.0166851
775.841	0.0166908
775.919	0.0165330
775.997	0.0163681
776.075	0.0163131
776.154	0.0163742
776.232	0.0162822
776.310	0.0162919
776.388	0.0162450
776.466	0.0161901
776.544	0.0160586
776.622	0.0160976
776.700	0.0161126
776.779	0.0160065
776.857	0.0160206
776.935	0.0158655
777.013	0.0158173
777.091	0.0158981
777.169	0.0157693
777.247	0.0156821
777.325	0.0158105
777.404	0.0158438
777.482	0.0157365
777.560	0.0158141
777.638	0.0159616
777.716	0.0159679
777.794	0.0159875
777.872	0.0161102
777.950	0.0160959
778.029	0.0161298
778.107	0.0161794
778.185	0.0162183
778.263	0.0162410
778.341	0.0162997
778.419	0.0163315
778.497	0.0164118
778.575	0.0163392
778.654	0.0162693
778.732	0.0161649
778.810	0.0161866
778.888	0.0161304
778.966	0.0159880
779.044	0.0159939
779.122	0.0159875
779.200	0.0160210
779.279	0.0159591
779.357	0.0160307
779.435	0.0159698
779.513	0.0158792
779.591	0.0159267
779.669	0.0160090
779.747	0.0158062
779.825	0.0157597
779.904	0.0158077
779.982	0.0160803
780.060	0.0158645
780.138	0.0157556
780.216	0.0157941
780.294	0.0160590
780.372	0.0158685
780.450	0.0158367
780.529	0.0160747
780.607	0.0159567
780.685	0.0160072
780.763	0.0161416
780.841	0.0162100
780.919	0.0162760
780.997	0.0163454
781.075	0.0163154
781.154	0.0164146
781.232	0.0163738
781.310	0.0163277
781.388	0.0162984
781.466	0.0163395
781.544	0.0163754
781.622	0.0163274
781.700	0.0162987
781.779	0.0161462
781.857	0.0160683
781.935	0.0160957
782.013	0.0161093
782.091	0.0162131
782.169	0.0161169
782.247	0.0161388
782.325	0.0160982
782.404	0.0161530
782.482	0.0161093
782.560	0.0160565
782.638	0.0161195
782.716	0.0162320
782.794	0.0161602
782.872	0.0162638
782.950	0.0161928
783.029	0.0161494
783.107	0.0162440
783.185	0.0162339
783.263	0.0162172
783.341	0.0162608
783.419	0.0162433
783.497	0.0163910
783.575	0.0164230
783.654	0.0165417
783.732	0.0164522
783.810	0.0163927
783.888	0.0164972
783.966	0.0163389
784.044	0.0162943
784.122	0.0164149
784.200	0.0163094
784.279	0.0162160
784.357	0.0161716
784.435	0.0161617
784.513	0.0159612
784.591	0.0160404
784.669	0.0160111
784.747	0.0158815
784.825	0.0159602
784.904	0.0159004
784.982	0.0160011
785.060	0.0160094
785.138	0.0159745
785.216	0.0160557
785.294	0.0160822
785.372	0.0161654
785.450	0.0160966
785.529	0.0161932
785.607	0.0160448
785.685	0.0161096
785.763	0.0161485
785.841	0.0160654
785.919	0.0161521
785.997	0.0160601
786.075	0.0159193
786.154	0.0160804
786.232	0.0161379
786.310	0.0159400
786.388	0.0158899
786.466	0.0159959
786.544	0.0159068
786.622	0.0159558
786.700	0.0160240
786.779	0.0159785
786.857	0.0159914
786.935	0.0160323
787.013	0.0160364
787.091	0.0161534
787.169	0.0161842
787.247	0.0161494
787.325	0.0163070
787.404	0.0161374
787.482	0.0161360
787.560	0.0162243
787.638	0.0161259
787.716	0.0162814
787.794	0.0160317
787.872	0.0159628
787.950	0.0159595
788.029	0.0160407
788.107	0.0159029
788.185	0.0158672
788.263	0.0157426
788.341	0.0159548
788.419	0.0159402
788.497	0.0158030
788.575	0.0157857
788.654	0.0159000
788.732	0.0159010
788.810	0.0161600
788.888	0.0160275
788.966	0.0160101
789.044	0.0160984
789.122	0.0162734
789.200	0.0162680
789.279	0.0163292
789.357	0.0164430
789.435	0.0164680
789.513	0.0165128
789.591	0.0164754
789.669	0.0165248
789.747	0.0165266
789.825	0.0166740
789.904	0.0166340
789.982	0.0166050
790.060	0.0165974
790.138	0.0165134
790.216	0.0165887
790.294	0.0166171
790.372	0.0165137
790.450	0.0163686
790.529	0.0166292
790.607	0.0165071
790.685	0.0165341
790.763	0.0164360
790.841	0.0164597
790.919	0.0165303
790.997	0.0164594
791.075	0.0165131
791.154	0.0164461
791.232	0.0162852
791.310	0.0163231
791.388	0.0162805
791.466	0.0162753
791.544	0.0159731
791.622	0.0161255
791.700	0.0160452
791.779	0.0158315
791.857	0.0159164
791.935	0.0156947
792.013	0.0156895
792.091	0.0157534
792.169	0.0156664
792.247	0.0155253
792.325	0.0156902
792.404	0.0156067
792.482	0.0155723
792.560	0.0155959
792.638	0.0154459
792.716	0.0154144
792.794	0.0156565
792.872	0.0155246
792.950	0.0153984
793.029	0.0155725
793.107	0.0156242
793.185	0.0156084
793.263	0.0156957
793.341	0.0159034
793.419	0.0162066
793.497	0.0162643
793.575	0.0164992
793.654	0.0164980
793.732	0.0167277
793.810	0.0168737
793.888	0.0170599
793.966	0.0172136
794.044	0.0172608
794.122	0.0172817
794.200	0.0174318
794.279	0.0174732
794.357	0.0172600
794.435	0.0172996
794.513	0.0172677
794.591	0.0171808
794.669	0.0171053
794.747	0.0168684
794.825	0.0167046
794.904	0.0166351
794.982	0.0162961
795.060	0.0160702
795.138	0.0159863
795.216	0.0158768
795.294	0.0156264
795.372	0.0154424
795.450	0.0155029
795.529	0.0154301
795.607	0.0155223
795.685	0.0154151
795.763	0.0152203
795.841	0.0152068
795.919	0.0151991
795.997	0.0152045
796.075	0.0151701
796.154	0.0151920
796.232	0.0150993
796.310	0.0149998
796.388	0.0150312
796.466	0.0150150
796.544	0.0148473
796.622	0.0149881
796.700	0.0150819
796.779	0.0152320
796.857	0.0151997
796.935	0.0154523
797.013	0.0155559
797.091	0.0156166
797.169	0.0158862
797.247	0.0161876
797.325	0.0162823
797.404	0.0164153
797.482	0.0167026
797.560	0.0169976
797.638	0.0168771
797.716	0.0171471
797.794	0.0173663
797.872	0.0173954
797.950	0.0175168
798.029	0.0177478
798.107	0.0175761
798.185	0.0177275
798.263	0.0178626
798.341	0.0178889
798.419	0.0176974
798.497	0.0177484
798.575	0.0177328
798.654	0.0176319
798.732	0.0175909
798.810	0.0173612
798.888	0.0170652
798.966	0.0169263
799.044	0.0168851
799.122	0.0165221
799.200	0.0162658
799.279	0.0160222
799.357	0.0158803
799.435	0.0155406
799.513	0.0153616
799.591	0.0151965
799.669	0.0149072
799.747	0.0149290
799.825	0.0148449
799.904	0.0147542
799.982	0.0144991
800.060	0.0145638
800.138	0.0146827
800.216	0.0144402
800.294	0.0144878
800.372	0.0145896
800.450	0.0146500
800.529	0.0148306
800.607	0.0147217
800.685	0.0148334
800.763	0.0151914
800.841	0.0150317
800.919	0.0151272
800.997	0.0152975
801.075	0.0155045
801.154	0.0156498
801.232	0.0158282
801.310	0.0159432
801.388	0.0159452
801.466	0.0161202
801.544	0.0161349
801.622	0.0161936
801.700	0.0163735
801.779	0.0163622
801.857	0.0164189
801.935	0.0165176
802.013	0.0166057
802.091	0.0167538
802.169	0.0168531
802.247	0.0170015
802.325	0.0171710
802.404	0.0173635
802.482	0.0176209
802.560	0.0176865
802.638	0.0176750
802.716	0.0178361
802.794	0.0178691
802.872	0.0178617
802.950	0.0179275
803.029	0.0179826
803.107	0.0177866
803.185	0.0176601
803.263	0.0176128
803.341	0.0174434
803.419	0.0172617
803.497	0.0170544
803.575	0.0169067
803.654	0.0167470
803.732	0.0164513
803.810	0.0161163
803.888	0.0158463
803.966	0.0157432
804.044	0.0154029
804.122	0.0152311
804.200	0.0151993
804.279	0.0147016
804.357	0.0145974
804.435	0.0144407
804.513	0.0143902
804.591	0.0142442
804.669	0.0141155
804.747	0.0140878
804.825	0.0141586
804.904	0.0143155
804.982	0.0144238
805.060	0.0142100
805.138	0.0144086
805.216	0.0146252
805.294	0.0147907
805.372	0.0147732
805.450	0.0149059
805.529	0.0149174
805.607	0.0152898
805.685	0.0155104
805.763	0.0155447
805.841	0.0157619
805.919	0.0161584
805.997	0.0162156
806.075	0.0163174
806.154	0.0165006
806.232	0.0167480
806.310	0.0168841
806.388	0.0170722
806.466	0.0170808
806.544	0.0170015
806.622	0.0169437
806.700	0.0170043
806.779	0.0171033
806.857	0.0171944
806.935	0.0171451
807.013	0.0171607
807.091	0.0171713
807.169	0.0172123
807.247	0.0171512
807.325	0.0170629
807.404	0.0171687
807.482	0.0172569
807.560	0.0173743
807.638	0.0170374
807.716	0.0171163
807.794	0.0171999
807.872	0.0170840
807.950	0.0171021
808.029	0.0171309
808.107	0.0169913
808.185	0.0167440
808.263	0.0168089
808.341	0.0166399
808.419	0.0166867
808.497	0.0165182
808.575	0.0162511
808.654	0.0162355
808.732	0.0161183
808.810	0.0160564
808.888	0.0159851
808.966	0.0157556
809.044	0.0158630
809.122	0.0156827
809.200	0.0156400
809.279	0.0155053
809.357	0.0154363
809.435	0.0154677
809.513	0.0154178
809.591	0.0154601
809.669	0.0153665
809.747	0.0154826
809.825	0.0155579
809.904	0.0155343
809.982	0.0156951
810.060	0.0157027
810.138	0.0156490
810.216	0.0159007
810.294	0.0158055
810.372	0.0155950
810.450	0.0157611
810.529	0.0158825
810.607	0.0157975
810.685	0.0157289
810.763	0.0157559
810.841	0.0158608
810.919	0.0156251
810.997	0.0157106
811.075	0.0158218
811.154	0.0158748
811.232	0.0159712
811.310	0.0159592
811.388	0.0160081
811.466	0.0159890
811.544	0.0161481
811.622	0.0161576
811.700	0.0162202
811.779	0.0164334
811.857	0.0163319
811.935	0.0162463
812.013	0.0164127
812.091	0.0164581
812.169	0.0165408
812.247	0.0165996
812.325	0.0165276
812.404	0.0166398
812.482	0.0164728
812.560	0.0165891
812.638	0.0167284
812.716	0.0167598
812.794	0.0165907
812.872	0.0165902
812.950	0.0165862
813.029	0.0165799
813.107	0.0167757
813.185	0.0168265
813.263	0.0167889
813.341	0.0167813
813.419	0.0167304
813.497	0.0168714
813.575	0.0166988
813.654	0.0167370
813.732	0.0168253
813.810	0.0167136
813.888	0.0166002
813.966	0.0165369
814.044	0.0166599
814.122	0.0165339
814.200	0.0164850
814.279	0.0163837
814.357	0.0164106
814.435	0.0162518
814.513	0.0161001
814.591	0.0159921
814.669	0.0161867
814.747	0.0160616
814.825	0.0159824
814.904	0.0158061
814.982	0.0158398
815.060	0.0157681
815.138	0.0157966
815.216	0.0156852
815.294	0.0156850
815.372	0.0157141
815.450	0.0156359
815.529	0.0156018
815.607	0.0157023
815.685	0.0156747
815.763	0.0158086
815.841	0.0157490
815.919	0.0157583
815.997	0.0159029
816.075	0.0158141
816.154	0.0159800
816.232	0.0157977
816.310	0.0160740
816.388	0.0159613
816.466	0.0159105
816.544	0.0159150
816.622	0.0160058
816.700	0.0160282
816.779	0.0161031
816.857	0.0160631
816.935	0.0160262
817.013	0.0160138
817.091	0.0159222
817.169	0.0159320
817.247	0.0158202
817.325	0.0159223
817.404	0.0159663
817.482	0.0158178
817.560	0.0158260
817.638	0.0158467
817.716	0.0159573
817.794	0.0159786
817.872	0.0159884
817.950	0.0161599
818.029	0.0162446
818.107	0.0163093
818.185	0.0163367
818.263	0.0165144
818.341	0.0165422
818.419	0.0167287
818.497	0.0167269
818.575	0.0167410
818.654	0.0167268
818.732	0.0168607
818.810	0.0168449
818.888	0.0169427
818.966	0.0169577
819.044	0.0169572
819.122	0.0170872
819.200	0.0169326
819.279	0.0167934
819.357	0.0167302
819.435	0.0166431
819.513	0.0166283
819.591	0.0165048
819.669	0.0165172
819.747	0.0164225
819.825	0.0162752
819.904	0.0162526
819.982	0.0162518
820.060	0.0161834
820.138	0.0160170
820.216	0.0160214
820.294	0.0161369
820.372	0.0160701
820.450	0.0160480
820.529	0.0160899
820.607	0.0160340
820.685	0.0160346
820.763	0.0159087
820.841	0.0159326
820.919	0.0160139
820.997	0.0158572
821.075	0.0159586
821.154	0.0158176
821.232	0.0158655
821.310	0.0159153
821.388	0.0157108
821.466	0.0158126
821.544	0.0157951
821.622	0.0158720
821.700	0.0159030
821.779	0.0158572
821.857	0.0157971
821.935	0.0158014
822.013	0.0158097
822.091	0.0158081
822.169	0.0157912
822.247	0.0157952
822.325	0.0158940
822.404	0.0157596
822.482	0.0157831
822.560	0.0157854
822.638	0.0158376
822.716	0.0156894
822.794	0.0158740
822.872	0.0157813
822.950	0.0158212
823.029	0.0158172
823.107	0.0158672
823.185	0.0157954
823.263	0.0158453
823.341	0.0158882
823.419	0.0157855
823.497	0.0158553
823.575	0.0158728
823.654	0.0159495
823.732	0.0159703
823.810	0.0161373
823.888	0.0161097
823.966	0.0164510
824.044	0.0164722
824.122	0.0164262
824.200	0.0165910
824.279	0.0166222
824.357	0.0165914
824.435	0.0166982
824.513	0.0167126
824.591	0.0167114
824.669	0.0167930
824.747	0.0167527
824.825	0.0167368
824.904	0.0166656
824.982	0.0167565
825.060	0.0167198
825.138	0.0167468
825.216	0.0167730
825.294	0.0166579
825.372	0.0167554
825.450	0.0165665
825.529	0.0164685
825.607	0.0164934
825.685	0.0164912
825.763	0.0164815
825.841	0.0164713
825.919	0.0162758
825.997	0.0163261
826.075	0.0162644
826.154	0.0163034
826.232	0.0160516
826.310	0.0161201
826.388	0.0160391
826.466	0.0161974
826.544	0.0161952
826.622	0.0160461
826.700	0.0160703
826.779	0.0159937
826.857	0.0160045
826.935	0.0161308
827.013	0.0160427
827.091	0.0158779
827.169	0.0159932
827.247	0.0160049
827.325	0.0159296
827.404	0.0158450
827.482	0.0158124
827.560	0.0158469
827.638	0.0156136
827.716	0.0156912
827.794	0.0157144
827.872	0.0157929
827.950	0.0156763
828.029	0.0157202
828.107	0.0158759
828.185	0.0157451
828.263	0.0158063
828.341	0.0156850
828.419	0.0158186
828.497	0.0160551
828.575	0.0158746
828.654	0.0160523
828.732	0.0158796
828.810	0.0159820
828.888	0.0160899
828.966	0.0161178
829.044	0.0161397
829.122	0.0160786
829.200	0.0162982
829.279	0.0162830
829.357	0.0161804
829.435	0.0161463
829.513	0.0161271
829.591	0.0162016
829.669	0.0163426
829.747	0.0163301
829.825	0.0163892
829.904	0.0162181
829.982	0.0162775
830.060	0.0160983
830.138	0.0162877
830.216	0.0163474
830.294	0.0161639
830.372	0.0161995
830.450	0.0162023
830.529	0.0160872
830.607	0.0161575
830.685	0.0161787
830.763	0.0161729
830.841	0.0161565
830.919	0.0162139
830.997	0.0163613
831.075	0.0163941
831.154	0.0162606
831.232	0.0163557
831.310	0.0164677
831.388	0.0162656
831.466	0.0164927
831.544	0.0164691
831.622	0.0164406
831.700	0.0166150
831.779	0.0165484
831.857	0.0163623
831.935	0.0165271
832.013	0.0164922
832.091	0.0162318
832.169	0.0163150
832.247	0.0163583
832.325	0.0162826
832.404	0.0162143
832.482	0.0161987
832.560	0.0161055
832.638	0.0160144
832.716	0.0159376
832.794	0.0158649
832.872	0.0159161
832.950	0.0158572
833.029	0.0157034
833.107	0.0157975
833.185	0.0157548
833.263	0.0157859
833.341	0.0155968
833.419	0.0157371
833.497	0.0157424
833.575	0.0158893
833.654	0.0158968
833.732	0.0159069
833.810	0.0159740
833.888	0.0159480
833.966	0.0161005
834.044	0.0160652
834.122	0.0162298
834.200	0.0162801
834.279	0.0163226
834.357	0.0163329
834.435	0.0163817
834.513	0.0164843
834.591	0.0167040
834.669	0.0166109
834.747	0.0166561
834.825	0.0166953
834.904	0.0165538
834.982	0.0165488
835.060	0.0165281
835.138	0.0165956
835.216	0.0165318
835.294	0.0162919
835.372	0.0163493
835.450	0.0163112
835.529	0.0162660
835.607	0.0162828
835.685	0.0162142
835.763	0.0161595
835.841	0.0160550
835.919	0.0160541
835.997	0.0160618
836.075	0.0161733
836.154	0.0160108
836.232	0.0159771
836.310	0.0161023
836.388	0.0160543
836.466	0.0160368
836.544	0.0160174
836.622	0.0159435
836.700	0.0159180
836.779	0.0161843
836.857	0.0159780
836.935	0.0161182
837.013	0.0159440
837.091	0.0160573
837.169	0.0160244
837.247	0.0161020
837.325	0.0160401
837.404	0.0159144
837.482	0.0160352
837.560	0.0161017
837.638	0.0160313
837.716	0.0161760
837.794	0.0159500
837.872	0.0159090
837.950	0.0160844
838.029	0.0161572
838.107	0.0163361
838.185	0.0161813
838.263	0.0163181
838.341	0.0161978
838.419	0.0160920
838.497	0.0161436
838.575	0.0162956
838.654	0.0161823
838.732	0.0162338
838.810	0.0160900
838.888	0.0160838
838.966	0.0160909
839.044	0.0162203
839.122	0.0161716
839.200	0.0162849
839.279	0.0163400
839.357	0.0161570
839.435	0.0162189
839.513	0.0163570
839.591	0.0164426
839.669	0.0163410
839.747	0.0164289
839.825	0.0166024
839.904	0.0166480
839.982	0.0166008
840.060	0.0165953
840.138	0.0165639
840.216	0.0165244
840.294	0.0165775
840.372	0.0164184
840.450	0.0163488
840.529	0.0162495
840.607	0.0163560
840.685	0.0162888
840.763	0.0161433
840.841	0.0159842
840.919	0.0159669
840.997	0.0160159
841.075	0.0158039
841.154	0.0158574
841.232	0.0156902
841.310	0.0159195
841.388	0.0158986
841.466	0.0158272
841.544	0.0158252
841.622	0.0157917
841.700	0.0157750
841.779	0.0159615
841.857	0.0159151
841.935	0.0159690
842.013	0.0161897
842.091	0.0161018
842.169	0.0161984
842.247	0.0162181
842.325	0.0161420
842.404	0.0162083
842.482	0.0160854
842.560	0.0163382
842.638	0.0163562
842.716	0.0162862
842.794	0.0164253
842.872	0.0163350
842.950	0.0163064
843.029	0.0163210
843.107	0.0164444
843.185	0.0163194
843.263	0.0162415
843.341	0.0162650
843.419	0.0162614
843.497	0.0164246
843.575	0.0164314
843.654	0.0163036
843.732	0.0163865
843.810	0.0162930
843.888	0.0162964
843.966	0.0163165
844.044	0.0162385
844.122	0.0161937
844.200	0.0162056
844.279	0.0163848
844.357	0.0163940
844.435	0.0160759
844.513	0.0163470
844.591	0.0161417
844.669	0.0161979
844.747	0.0163633
844.825	0.0162663
844.904	0.0161391
844.982	0.0160524
845.060	0.0161987
845.138	0.0161884
845.216	0.0160869
845.294	0.0159126
845.372	0.0160224
845.450	0.0159586
845.529	0.0158585
845.607	0.0159651
845.685	0.0159597
845.763	0.0158681
845.841	0.0157354
845.919	0.0157201
845.997	0.0158218
846.075	0.0157298
846.154	0.0157121
846.232	0.0156087
846.310	0.0157928
846.388	0.0157275
846.466	0.0158250
846.544	0.0159170
846.622	0.0158383
846.700	0.0159289
846.779	0.0158677
846.857	0.0159367
846.935	0.0160349
847.013	0.0160451
847.091	0.0161592
847.169	0.0162269
847.247	0.0162602
847.325	0.0163878
847.404	0.0163888
847.482	0.0164118
847.560	0.0164494
847.638	0.0166483
847.716	0.0165047
847.794	0.0165476
847.872	0.0165224
847.950	0.0166466
848.029	0.0166045
848.107	0.0166919
848.185	0.0165324
848.263	0.0166691
848.341	0.0166507
848.419	0.0165446
848.497	0.0165260
848.575	0.0165710
848.654	0.0165012
848.732	0.0164174
848.810	0.0164677
848.888	0.0165612
848.966	0.0165189
849.044	0.0163857
849.122	0.0164215
849.200	0.0163026
849.279	0.0162989
849.357	0.0161987
849.435	0.0161962
849.513	0.0162646
849.591	0.0159583
849.669	0.0160760
849.747	0.0160101
849.825	0.0158213
849.904	0.0157565
849.982	0.0158732
850.060	0.0158093
850.138	0.0156862
850.216	0.0156371
850.294	0.0156112
850.372	0.0156617
850.450	0.0156752
850.529	0.0155159
850.607	0.0156427
850.685	0.0156573
850.763	0.0156876
850.841	0.0157634
850.919	0.0157927
850.997	0.0157379
851.075	0.0157903
851.154	0.0158452
851.232	0.0157919
851.310	0.0158230
851.388	0.0159271
851.466	0.0159206
851.544	0.0160613
851.622	0.0161224
851.700	0.0162469
851.779	0.0160985
851.857	0.0160908
851.935	0.0162876
852.013	0.0163946
852.091	0.0162888
852.169	0.0162428
852.247	0.0164078
852.325	0.0165002
852.404	0.0163305
852.482	0.0165958
852.560	0.0166290
852.638	0.0163716
852.716	0.0165265
852.794	0.0164748
852.872	0.0165739
852.950	0.0164388
853.029	0.0164619
853.107	0.0164546
853.185	0.0162117
853.263	0.0164043
853.341	0.0162801
853.419	0.0161798
853.497	0.0163664
853.575	0.0162199
853.654	0.0161690
853.732	0.0162444
853.810	0.0162319
853.888	0.0161826
853.966	0.0161213
854.044	0.0160532
854.122	0.0161227
854.200	0.0160922
854.279	0.0159508
854.357	0.0160270
854.435	0.0159989
854.513	0.0160464
854.591	0.0157494
854.669	0.0158469
854.747	0.0158696
854.825	0.0158358
854.904	0.0156602
854.982	0.0156579
855.060	0.0158891
855.138	0.0158076
855.216	0.0156392
855.294	0.0157701
855.372	0.0157072
855.450	0.0158015
855.529	0.0159047
855.607	0.0157486
855.685	0.0159283
855.763	0.0157998
855.841	0.0158242
855.919	0.0160956
855.997	0.0161341
856.075	0.0161542
856.154	0.0160185
856.232	0.0160980
856.310	0.0161362
856.388	0.0162577
856.466	0.0162524
856.544	0.0161349
856.622	0.0162536
856.700	0.0163725
856.779	0.0163062
856.857	0.0163612
856.935	0.0164954
857.013	0.0166251
857.091	0.0164407
857.169	0.0164475
857.247	0.0164325
857.325	0.0164145
857.404	0.0166070
857.482	0.0164758
857.560	0.0164141
857.638	0.0164882
857.716	0.0163515
857.794	0.0163173
857.872	0.0164774
857.950	0.0163957
858.029	0.0163773
858.107	0.0165083
858.185	0.0164809
858.263	0.0166496
858.341	0.0164658
858.419	0.0163334
858.497	0.0163403
858.575	0.0164161
858.654	0.0164400
858.732	0.0164314
858.810	0.0162691
858.888	0.0161835
858.966	0.0162289
859.044	0.0161134
859.122	0.0160571
859.200	0.0160826
859.279	0.0159516
859.357	0.0160663
859.435	0.0159089
859.513	0.0157579
859.591	0.0158052
859.669	0.0156533
859.747	0.0157734
859.825	0.0157590
859.904	0.0157829
859.982	0.0157327
860.060	0.0157703
860.138	0.0156998
860.216	0.0158452
860.294	0.0159019
860.372	0.0158435
860.450	0.0158669
860.529	0.0158213
860.607	0.0158519
860.685	0.0159307
860.763	0.0158726
860.841	0.0159039
860.919	0.0159991
860.997	0.0160635
861.075	0.0159192
861.154	0.0160991
861.232	0.0160521
861.310	0.0161269
861.388	0.0160995
861.466	0.0161134
861.544	0.0160459
861.622	0.0160663
861.700	0.0160657
861.779	0.0159467
861.857	0.0160539
861.935	0.0161873
862.013	0.0162667
862.091	0.0161672
862.169	0.0162627
862.247	0.0162569
862.325	0.0162051
862.404	0.0161272
862.482	0.0160553
862.560	0.0162029
862.638	0.0162786
862.716	0.0161163
862.794	0.0162679
862.872	0.0160917
862.950	0.0161025
863.029	0.0161859
863.107	0.0164160
863.185	0.0164555
863.263	0.0163092
863.341	0.0162565
863.419	0.0163936
863.497	0.0163630
863.575	0.0162749
863.654	0.0162971
863.732	0.0161436
863.810	0.0163463
863.888	0.0163297
863.966	0.0162421
864.044	0.0163449
864.122	0.0164224
864.200	0.0163121
864.279	0.0162923
864.357	0.0161796
864.435	0.0162486
864.513	0.0162812
864.591	0.0162254
864.669	0.0161704
864.747	0.0162737
864.825	0.0162276
864.904	0.0162271
864.982	0.0160847
865.060	0.0160109
865.138	0.0161012
865.216	0.0161669
865.294	0.0160480
865.372	0.0160995
865.450	0.0159879
865.529	0.0159766
865.607	0.0160256
865.685	0.0159946
865.763	0.0159628
865.841	0.0160975
865.919	0.0161787
865.997	0.0159586
866.075	0.0161277
866.154	0.0160592
866.232	0.0161115
866.310	0.0160351
866.388	0.0161042
866.466	0.0161139
866.544	0.0161779
866.622	0.0160638
866.700	0.0161196
866.779	0.0160666
866.857	0.0161166
866.935	0.0160043
867.013	0.0158894
867.091	0.0158931
867.169	0.0158636
867.247	0.0158813
867.325	0.0159431
867.404	0.0158531
867.482	0.0160361
867.560	0.0160722
867.638	0.0160339
867.716	0.0160609
867.794	0.0160417
867.872	0.0163310
867.950	0.0161723
868.029	0.0161170
868.107	0.0162765
868.185	0.0162853
868.263	0.0161844
868.341	0.0162556
868.419	0.0162177
868.497	0.0161961
868.575	0.0161201
868.654	0.0162249
868.732	0.0162369
868.810	0.0163050
868.888	0.0162362
868.966	0.0163525
869.044	0.0162250
869.122	0.0160642
869.200	0.0160881
869.279	0.0162351
869.357	0.0162149
869.435	0.0162577
869.513	0.0162507
869.591	0.0163113
869.669	0.0162116
869.747	0.0162347
869.825	0.0161886
869.904	0.0162788
869.982	0.0161248
870.060	0.0162330
870.138	0.0161624
870.216	0.0161189
870.294	0.0160948
870.372	0.0160548
870.450	0.0159428
870.529	0.0160210
870.607	0.0159026
870.685	0.0159441
870.763	0.0159760
870.841	0.0159516
870.919	0.0159705
870.997	0.0157545
871.075	0.0157967
871.154	0.0159024
871.232	0.0157504
871.310	0.0155789
871.388	0.0157905
871.466	0.0158349
871.544	0.0158786
871.622	0.0159266
871.700	0.0159133
871.779	0.0160078
871.857	0.0161207
871.935	0.0161099
872.013	0.0161978
872.091	0.0164829
872.169	0.0165278
872.247	0.0167635
872.325	0.0166364
872.404	0.0166870
872.482	0.0167319
872.560	0.0168646
872.638	0.0167656
872.716	0.0168047
872.794	0.0168447
872.872	0.0167197
872.950	0.0166164
873.029	0.0164709
873.107	0.0165823
873.185	0.0165894
873.263	0.0164088
873.341	0.0163697
873.419	0.0163093
873.497	0.0162083
873.575	0.0161868
873.654	0.0160940
873.732	0.0160526
873.810	0.0160773
873.888	0.0159842
873.966	0.0161288
874.044	0.0159650
874.122	0.0158675
874.200	0.0158831
874.279	0.0159459
874.357	0.0158141
874.435	0.0157444
874.513	0.0157972
874.591	0.0158859
874.669	0.0158327
874.747	0.0158358
874.825	0.0158718
874.904	0.0158421
874.982	0.0158230
875.060	0.0159270
875.138	0.0159212
875.216	0.0158035
875.294	0.0159384
875.372	0.0159168
875.450	0.0157987
875.529	0.0157899
875.607	0.0158141
875.685	0.0158123
875.763	0.0157136
875.841	0.0157404
875.919	0.0157168
875.997	0.0156613
876.075	0.0157760
876.154	0.0157532
876.232	0.0158009
876.310	0.0158807
876.388	0.0159311
876.466	0.0160270
876.544	0.0160702
876.622	0.0163581
876.700	0.0164184
876.779	0.0164918
876.857	0.0165594
876.935	0.0164300
877.013	0.0167116
877.091	0.0168559
877.169	0.0168345
877.247	0.0167805
877.325	0.0166476
877.404	0.0168093
877.482	0.0166650
877.560	0.0166274
877.638	0.0166846
877.716	0.0165407
877.794	0.0164062
877.872	0.0163716
877.950	0.0161543
878.029	0.0161324
878.107	0.0160992
878.185	0.0160252
878.263	0.0159994
878.341	0.0160408
878.419	0.0159291
878.497	0.0159164
878.575	0.0160379
878.654	0.0159197
878.732	0.0159595
878.810	0.0159186
878.888	0.0158989
878.966	0.0160467
879.044	0.0159821
879.122	0.0162176
879.200	0.0159528
879.279	0.0161206
879.357	0.0162665
879.435	0.0162211
879.513	0.0161901
879.591	0.0161636
879.669	0.0162247
879.747	0.0161524
879.825	0.0161089
879.904	0.0161845
879.982	0.0160127
880.060	0.0160977
880.138	0.0160555
880.216	0.0159545
880.294	0.0159258
880.372	0.0159235
880.450	0.0158590
880.529	0.0160150
880.607	0.0159359
880.685	0.0157558
880.763	0.0158187
880.841	0.0158128
880.919	0.0158837
880.997	0.0158958
881.075	0.0160310
881.154	0.0158426
881.232	0.0160085
881.310	0.0159946
881.388	0.0162041
881.466	0.0162251
881.544	0.0161762
881.622	0.0163051
881.700	0.0163197
881.779	0.0163424
881.857	0.0162551
881.935	0.0162898
882.013	0.0162995
882.091	0.0162565
882.169	0.0162103
882.247	0.0163480
882.325	0.0163445
882.404	0.0162782
882.482	0.0162701
882.560	0.0161090
882.638	0.0161684
882.716	0.0161935
882.794	0.0162404
882.872	0.0163845
882.950	0.0162044
883.029	0.0160696
883.107	0.0161227
883.185	0.0160605
883.263	0.0160946
883.341	0.0161368
883.419	0.0161495
883.497	0.0160873
883.575	0.0160589
883.654	0.0160848
883.732	0.0161780
883.810	0.0160710
883.888	0.0161951
883.966	0.0159922
884.044	0.0160126
884.122	0.0161544
884.200	0.0161185
884.279	0.0162475
884.357	0.0161540
884.435	0.0162611
884.513	0.0162039
884.591	0.0163315
884.669	0.0163691
884.747	0.0164452
884.825	0.0163492
884.904	0.0164067
884.982	0.0163563
885.060	0.0162989
885.138	0.0163636
885.216	0.0163245
885.294	0.0164210
885.372	0.0163496
885.450	0.0163400
885.529	0.0163872
885.607	0.0162885
885.685	0.0162182
885.763	0.0161057
885.841	0.0162589
885.919	0.0161098
885.997	0.0161318
886.075	0.0160891
886.154	0.0160748
886.232	0.0161549
886.310	0.0159760
886.388	0.0159505
886.466	0.0158064
886.544	0.0156715
886.622	0.0155831
886.700	0.0155955
886.779	0.0155115
886.857	0.0154771
886.935	0.0155661
887.013	0.0155049
887.091	0.0155521
887.169	0.0158012
887.247	0.0157444
887.325	0.0156189
887.404	0.0158170
887.482	0.0160143
887.560	0.0158884
887.638	0.0159756
887.716	0.0160840
887.794	0.0160787
887.872	0.0160266
887.950	0.0160437
888.029	0.0162211
888.107	0.0162615
888.185	0.0163692
888.263	0.0162105
888.341	0.0165633
888.419	0.0165939
888.497	0.0165470
888.575	0.0167013
888.654	0.0168745
888.732	0.0170661
888.810	0.0169171
888.888	0.0170728
888.966	0.0169704
889.044	0.0170328
889.122	0.0170193
889.200	0.0168178
889.279	0.0167612
889.357	0.0167769
889.435	0.0165630
889.513	0.0163617
889.591	0.0163094
889.669	0.0161332
889.747	0.0160404
889.825	0.0158814
889.904	0.0159071
889.982	0.0159148
890.060	0.0157645
890.138	0.0156760
890.216	0.0157293
890.294	0.0159154
890.372	0.0158154
890.450	0.0158822
890.529	0.0156719
890.607	0.0158408
890.685	0.0160023
890.763	0.0159291
890.841	0.0159868
890.919	0.0159695
890.997	0.0159186
891.075	0.0160433
891.154	0.0158948
891.232	0.0159309
891.310	0.0159376
891.388	0.0160210
891.466	0.0159695
891.544	0.0160443
891.622	0.0159573
891.700	0.0158748
891.779	0.0159750
891.857	0.0159892
891.935	0.0159745
892.013	0.0160258
892.091	0.0161099
892.169	0.0159895
892.247	0.0157934
892.325	0.0157661
892.404	0.0159190
892.482	0.0159892
892.560	0.0160337
892.638	0.0160291
892.716	0.0161400
892.794	0.0160594
892.872	0.0162570
892.950	0.0165517
893.029	0.0165766
893.107	0.0166516
893.185	0.0167793
893.263	0.0168845
893.341	0.0170103
893.419	0.0170972
893.497	0.0170006
893.575	0.0170531
893.654	0.0169849
893.732	0.0169242
893.810	0.0168542
893.888	0.0165375
893.966	0.0163707
894.044	0.0162716
894.122	0.0162463
894.200	0.0159104
894.279	0.0158167
894.357	0.0154234
894.435	0.0154204
894.513	0.0153945
894.591	0.0152080
894.669	0.0152161
894.747	0.0151061
894.825	0.0152624
894.904	0.0153047
894.982	0.0154707
895.060	0.0153809
895.138	0.0155694
895.216	0.0157096
895.294	0.0159791
895.372	0.0160456
895.450	0.0163083
895.529	0.0163347
895.607	0.0165956
895.685	0.0167149
895.763	0.0167583
895.841	0.0167842
895.919	0.0168524
895.997	0.0168304
896.075	0.0169283
896.154	0.0166735
896.232	0.0165906
896.310	0.0165804
896.388	0.0165302
896.466	0.0163288
896.544	0.0162006
896.622	0.0162273
896.700	0.0160411
896.779	0.0160060
896.857	0.0157789
896.935	0.0158319
897.013	0.0157107
897.091	0.0154638
897.169	0.0154937
897.247	0.0155064
897.325	0.0154629
897.404	0.0155531
897.482	0.0156882
897.560	0.0157803
897.638	0.0160583
897.716	0.0161251
897.794	0.0163070
897.872	0.0162937
897.950	0.0165794
898.029	0.0167133
898.107	0.0166817
898.185	0.0166412
898.263	0.0167027
898.341	0.0168468
898.419	0.0167222
898.497	0.0166726
898.575	0.0165272
898.654	0.0164594
898.732	0.0162205
898.810	0.0161521
898.888	0.0160855
898.966	0.0158258
899.044	0.0157548
899.122	0.0159721
899.200	0.0156813
899.279	0.0157307
899.357	0.0155835
899.435	0.0155189
899.513	0.0154989
899.591	0.0153710
899.669	0.0154648
899.747	0.0153419
899.825	0.0152444
899.904	0.0155460
899.982	0.0154709
900.060	0.0156570
900.138	0.0158855
900.216	0.0160456
900.294	0.0161607
900.372	0.0162022
900.450	0.0165365
900.529	0.0164968
900.607	0.0167399
900.685	0.0169132
900.763	0.0169120
900.841	0.0169514
900.919	0.0169775
900.997	0.0170527
901.075	0.0171073
901.154	0.0168525
901.232	0.0168158
901.310	0.0166344
901.388	0.0165371
901.466	0.0165928
901.544	0.0163929
901.622	0.0162772
901.700	0.0161010
901.779	0.0159320
901.857	0.0159572
901.935	0.0158428
902.013	0.0157527
902.091	0.0156502
902.169	0.0155181
902.247	0.0154670
902.325	0.0154974
902.404	0.0156651
902.482	0.0156751
902.560	0.0156054
902.638	0.0156164
902.716	0.0158390
902.794	0.0159135
902.872	0.0158866
902.950	0.0160986
903.029	0.0160099
903.107	0.0160949
903.185	0.0160934
903.263	0.0162968
903.341	0.0163956
903.419	0.0162744
903.497	0.0163142
903.575	0.0163403
903.654	0.0162582
903.732	0.0163310
903.810	0.0164401
903.888	0.0162311
903.966	0.0164042
904.044	0.0164096
904.122	0.0163619
904.200	0.0163113
904.279	0.0161665
904.357	0.0161772
904.435	0.0161790
904.513	0.0162024
904.591	0.0161706
904.669	0.0162350
904.747	0.0161976
904.825	0.0162170
904.904	0.0162190
904.982	0.0163850
905.060	0.0164393
905.138	0.0164410
905.216	0.0165957
905.294	0.0167044
905.372	0.0166904
905.450	0.0166014
905.529	0.0166657
905.607	0.0166776
905.685	0.0166791
905.763	0.0165332
905.841	0.0164072
905.919	0.0164510
905.997	0.0162422
906.075	0.0161469
906.154	0.0161742
906.232	0.0160394
906.310	0.0159650
906.388	0.0159166
906.466	0.0159112
906.544	0.0159373
906.622	0.0158813
906.700	0.0159742
906.779	0.0159257
906.857	0.0160379
906.935	0.0160690
907.013	0.0159715
907.091	0.0160592
907.169	0.0161798
907.247	0.0160886
907.325	0.0160026
907.404	0.0159007
907.482	0.0161845
907.560	0.0160879
907.638	0.0161460
907.716	0.0161695
907.794	0.0161579
907.872	0.0160665
907.950	0.0160554
908.029	0.0161311
908.107	0.0159560
908.185	0.0160094
908.263	0.0158683
908.341	0.0158920
908.419	0.0159653
908.497	0.0158141
908.575	0.0158389
908.654	0.0158647
908.732	0.0159863
908.810	0.0159322
908.888	0.0160878
908.966	0.0159973
909.044	0.0160774
909.122	0.0161267
909.200	0.0161240
909.279	0.0161542
909.357	0.0163190
909.435	0.0163094
909.513	0.0163323
909.591	0.0164462
909.669	0.0164880
909.747	0.0164010
909.825	0.0164146
909.904	0.0164646
909.982	0.0165565
910.060	0.0165216
910.138	0.0164641
910.216	0.0166284
910.294	0.0166221
910.372	0.0164574
910.450	0.0165868
910.529	0.0164885
910.607	0.0164806
910.685	0.0163245
910.763	0.0162988
910.841	0.0162399
910.919	0.0162337
910.997	0.0162868
911.075	0.0163067
911.154	0.0163192
911.232	0.0162471
911.310	0.0161871
911.388	0.0161684
911.466	0.0162683
911.544	0.0162350
911.622	0.0162785
911.700	0.0162355
911.779	0.0161755
911.857	0.0162111
911.935	0.0161381
912.013	0.0161925
912.091	0.0161966
912.169	0.0160523
912.247	0.0160786
912.325	0.0160876
912.404	0.0160744
912.482	0.0158919
912.560	0.0159521
912.638	0.0158215
912.716	0.0158778
912.794	0.0158355
912.872	0.0157522
912.950	0.0158109
913.029	0.0157280
913.107	0.0158578
913.185	0.0158946
913.263	0.0159209
913.341	0.0160225
913.419	0.0160196
913.497	0.0160162
913.575	0.0160320
913.654	0.0159373
913.732	0.0162082
913.810	0.0164048
913.888	0.0163343
913.966	0.0163360
914.044	0.0164079
914.122	0.0163908
914.200	0.0164801
914.279	0.0163688
914.357	0.0164253
914.435	0.0163859
914.513	0.0163866
914.591	0.0164124
914.669	0.0163477
914.747	0.0161864
914.825	0.0161797
914.904	0.0160998
914.982	0.0160903
915.060	0.0160520
915.138	0.0159955
915.216	0.0159303
915.294	0.0160025
915.372	0.0158461
915.450	0.0159059
915.529	0.0158908
915.607	0.0157642
915.685	0.0160244
915.763	0.0160985
915.841	0.0160784
915.919	0.0161140
915.997	0.0161803
916.075	0.0161312
916.154	0.0161433
916.232	0.0162093
916.310	0.0164573
916.388	0.0163001
916.466	0.0163667
916.544	0.0165089
916.622	0.0164043
916.700	0.0164720
916.779	0.0165627
916.857	0.0164931
916.935	0.0165482
917.013	0.0166361
917.091	0.0165255
917.169	0.0164403
917.247	0.0164334
917.325	0.0164188
917.404	0.0164240
917.482	0.0162237
917.560	0.0161943
917.638	0.0160128
917.716	0.0161104
917.794	0.0160273
917.872	0.0159305
917.950	0.0159546
918.029	0.0158860
918.107	0.0158789
918.185	0.0158836
918.263	0.0159111
918.341	0.0158697
918.419	0.0159664
918.497	0.0158912
918.575	0.0160566
918.654	0.0161286
918.732	0.0159680
918.810	0.0160698
918.888	0.0160914
918.966	0.0161642
919.044	0.0163005
919.122	0.0161753
919.200	0.0162131
919.279	0.0161794
919.357	0.0163515
919.435	0.0163086
919.513	0.0162393
919.591	0.0162324
919.669	0.0163614
919.747	0.0163824
919.825	0.0163827
919.904	0.0163786
