05/20/2022	20:49:07	Ver.	4.1	UNKNOWN
Optical Delay	599.981738	Delta X		0.078125	Sweeps	1	Scan Rate	0/0
Coordinates	Axis 1	NaN	Axis 2	NaN	Axis 3	NaN	Axis 4	NaN	Axis 5	NaN	Axis 6	0.000000
TX Power	0.000000	RX Power	0.000000

599.982	0.0162455
600.060	0.0161317
600.138	0.0162723
600.216	0.0162347
600.294	0.0162268
600.372	0.0164543
600.450	0.0162120
600.529	0.0162505
600.607	0.0162814
600.685	0.0162638
600.763	0.0162148
600.841	0.0162435
600.919	0.0163445
600.997	0.0162542
601.075	0.0162231
601.154	0.0162753
601.232	0.0162727
601.310	0.0162437
601.388	0.0163628
601.466	0.0161652
601.544	0.0162299
601.622	0.0162312
601.700	0.0161626
601.779	0.0163171
601.857	0.0163555
601.935	0.0163483
602.013	0.0162049
602.091	0.0162941
602.169	0.0162581
602.247	0.0162213
602.325	0.0162583
602.404	0.0161558
602.482	0.0162029
602.560	0.0162553
602.638	0.0163084
602.716	0.0162489
602.794	0.0163353
602.872	0.0163830
602.950	0.0163046
603.029	0.0162244
603.107	0.0161906
603.185	0.0162411
603.263	0.0162712
603.341	0.0162314
603.419	0.0162764
603.497	0.0162916
603.575	0.0162445
603.654	0.0162622
603.732	0.0163089
603.810	0.0162257
603.888	0.0161175
603.966	0.0163606
604.044	0.0163186
604.122	0.0160673
604.200	0.0162376
604.279	0.0161388
604.357	0.0161960
604.435	0.0163413
604.513	0.0162270
604.591	0.0161440
604.669	0.0163101
604.747	0.0161567
604.825	0.0162041
604.904	0.0161597
604.982	0.0161774
605.060	0.0162543
605.138	0.0162424
605.216	0.0161713
605.294	0.0161356
605.372	0.0162346
605.450	0.0161816
605.529	0.0162527
605.607	0.0163583
605.685	0.0161329
605.763	0.0162769
605.841	0.0163223
605.919	0.0163187
605.997	0.0160490
606.075	0.0161832
606.154	0.0162872
606.232	0.0162073
606.310	0.0160900
606.388	0.0162503
606.466	0.0162142
606.544	0.0162158
606.622	0.0161952
606.700	0.0162231
606.779	0.0162091
606.857	0.0163368
606.935	0.0163445
607.013	0.0160970
607.091	0.0162269
607.169	0.0162737
607.247	0.0163185
607.325	0.0161161
607.404	0.0161717
607.482	0.0161729
607.560	0.0162274
607.638	0.0161803
607.716	0.0162707
607.794	0.0162419
607.872	0.0162671
607.950	0.0162604
608.029	0.0162232
608.107	0.0162675
608.185	0.0163461
608.263	0.0161194
608.341	0.0163407
608.419	0.0163117
608.497	0.0161882
608.575	0.0162833
608.654	0.0162521
608.732	0.0161769
608.810	0.0162847
608.888	0.0162641
608.966	0.0162923
609.044	0.0162997
609.122	0.0162437
609.200	0.0163532
609.279	0.0161634
609.357	0.0162618
609.435	0.0162217
609.513	0.0162873
609.591	0.0161571
609.669	0.0161665
609.747	0.0162379
609.825	0.0161564
609.904	0.0161684
609.982	0.0162247
610.060	0.0162094
610.138	0.0161613
610.216	0.0162460
610.294	0.0162492
610.372	0.0162444
610.450	0.0161779
610.529	0.0161640
610.607	0.0161835
610.685	0.0162766
610.763	0.0161367
610.841	0.0162494
610.919	0.0162150
610.997	0.0162357
611.075	0.0162984
611.154	0.0162177
611.232	0.0162952
611.310	0.0162531
611.388	0.0163152
611.466	0.0162248
611.544	0.0162018
611.622	0.0161473
611.700	0.0162691
611.779	0.0163030
611.857	0.0162930
611.935	0.0162844
612.013	0.0163715
612.091	0.0162152
612.169	0.0162186
612.247	0.0163692
612.325	0.0163826
612.404	0.0162914
612.482	0.0162474
612.560	0.0163331
612.638	0.0163037
612.716	0.0161221
612.794	0.0162068
612.872	0.0162965
612.950	0.0162129
613.029	0.0162248
613.107	0.0162270
613.185	0.0162928
613.263	0.0162363
613.341	0.0162180
613.419	0.0162799
613.497	0.0162520
613.575	0.0162186
613.654	0.0161622
613.732	0.0162810
613.810	0.0161732
613.888	0.0163667
613.966	0.0163820
614.044	0.0162453
614.122	0.0162361
614.200	0.0163049
614.279	0.0162978
614.357	0.0161390
614.435	0.0162343
614.513	0.0163386
614.591	0.0163503
614.669	0.0162877
614.747	0.0163251
614.825	0.0161417
614.904	0.0162087
614.982	0.0161980
615.060	0.0163878
615.138	0.0162660
615.216	0.0163194
615.294	0.0161659
615.372	0.0162839
615.450	0.0162285
615.529	0.0163187
615.607	0.0162888
615.685	0.0162584
615.763	0.0161912
615.841	0.0161855
615.919	0.0162101
615.997	0.0161356
616.075	0.0161679
616.154	0.0162450
616.232	0.0161935
616.310	0.0160905
616.388	0.0162132
616.466	0.0161477
616.544	0.0160208
616.622	0.0162354
616.700	0.0161498
616.779	0.0162400
616.857	0.0162157
616.935	0.0161419
617.013	0.0163190
617.091	0.0162291
617.169	0.0162056
617.247	0.0162351
617.325	0.0162272
617.404	0.0162865
617.482	0.0162322
617.560	0.0163070
617.638	0.0162646
617.716	0.0162379
617.794	0.0162814
617.872	0.0163143
617.950	0.0161351
618.029	0.0162155
618.107	0.0162862
618.185	0.0163380
618.263	0.0161777
618.341	0.0161946
618.419	0.0163478
618.497	0.0161716
618.575	0.0162312
618.654	0.0163180
618.732	0.0162328
618.810	0.0161844
618.888	0.0163638
618.966	0.0162913
619.044	0.0162519
619.122	0.0162689
619.200	0.0162848
619.279	0.0161196
619.357	0.0161043
619.435	0.0162300
619.513	0.0162474
619.591	0.0162875
619.669	0.0162434
619.747	0.0162401
619.825	0.0161717
619.904	0.0161099
619.982	0.0161900
620.060	0.0162342
620.138	0.0160841
620.216	0.0162341
620.294	0.0161366
620.372	0.0163862
620.450	0.0162344
620.529	0.0162164
620.607	0.0162864
620.685	0.0162122
620.763	0.0162136
620.841	0.0162399
620.919	0.0162651
620.997	0.0162203
621.075	0.0162163
621.154	0.0161958
621.232	0.0162534
621.310	0.0159671
621.388	0.0162349
621.466	0.0162508
621.544	0.0161549
621.622	0.0162711
621.700	0.0162261
621.779	0.0162003
621.857	0.0161944
621.935	0.0162920
622.013	0.0164211
622.091	0.0163322
622.169	0.0163270
622.247	0.0162765
622.325	0.0161591
622.404	0.0163152
622.482	0.0163324
622.560	0.0161790
622.638	0.0163375
622.716	0.0162794
622.794	0.0162164
622.872	0.0162051
622.950	0.0162633
623.029	0.0163212
623.107	0.0164595
623.185	0.0162627
623.263	0.0162206
623.341	0.0162154
623.419	0.0161616
623.497	0.0162637
623.575	0.0161181
623.654	0.0160796
623.732	0.0161469
623.810	0.0162373
623.888	0.0161932
623.966	0.0162525
624.044	0.0163042
624.122	0.0163021
624.200	0.0160993
624.279	0.0162897
624.357	0.0163427
624.435	0.0163253
624.513	0.0162169
624.591	0.0161560
624.669	0.0163459
624.747	0.0162464
624.825	0.0161485
624.904	0.0162286
624.982	0.0163227
625.060	0.0162679
625.138	0.0163036
625.216	0.0162556
625.294	0.0162793
625.372	0.0161801
625.450	0.0161844
625.529	0.0161641
625.607	0.0163892
625.685	0.0162550
625.763	0.0161057
625.841	0.0162389
625.919	0.0162733
625.997	0.0161961
626.075	0.0163533
626.154	0.0162000
626.232	0.0162210
626.310	0.0162648
626.388	0.0162860
626.466	0.0162048
626.544	0.0162656
626.622	0.0162672
626.700	0.0162141
626.779	0.0163198
626.857	0.0162312
626.935	0.0164167
627.013	0.0162814
627.091	0.0162501
627.169	0.0162965
627.247	0.0162918
627.325	0.0162389
627.404	0.0162994
627.482	0.0163153
627.560	0.0163408
627.638	0.0162564
627.716	0.0161576
627.794	0.0162241
627.872	0.0162669
627.950	0.0161545
628.029	0.0161534
628.107	0.0162019
628.185	0.0161090
628.263	0.0161826
628.341	0.0161992
628.419	0.0161795
628.497	0.0162974
628.575	0.0161390
628.654	0.0162321
628.732	0.0161990
628.810	0.0160529
628.888	0.0160843
628.966	0.0162352
629.044	0.0162004
629.122	0.0161980
629.200	0.0161232
629.279	0.0161246
629.357	0.0160912
629.435	0.0162048
629.513	0.0163294
629.591	0.0161677
629.669	0.0162554
629.747	0.0162792
629.825	0.0162799
629.904	0.0161494
629.982	0.0162807
630.060	0.0163110
630.138	0.0163598
630.216	0.0162881
630.294	0.0163010
630.372	0.0163776
630.450	0.0163705
630.529	0.0162742
630.607	0.0161736
630.685	0.0162161
630.763	0.0161591
630.841	0.0163084
630.919	0.0162032
630.997	0.0162543
631.075	0.0162736
631.154	0.0161936
631.232	0.0162310
631.310	0.0163142
631.388	0.0162362
631.466	0.0161914
631.544	0.0163570
631.622	0.0162715
631.700	0.0163877
631.779	0.0162064
631.857	0.0162982
631.935	0.0161864
632.013	0.0162144
632.091	0.0163278
632.169	0.0160780
632.247	0.0162945
632.325	0.0163383
632.404	0.0162785
632.482	0.0161960
632.560	0.0162240
632.638	0.0163494
632.716	0.0162121
632.794	0.0162293
632.872	0.0162747
632.950	0.0161524
633.029	0.0161807
633.107	0.0161740
633.185	0.0162205
633.263	0.0160822
633.341	0.0161208
633.419	0.0163061
633.497	0.0162426
633.575	0.0160314
633.654	0.0161729
633.732	0.0161673
633.810	0.0162030
633.888	0.0163097
633.966	0.0162723
634.044	0.0160874
634.122	0.0162607
634.200	0.0162022
634.279	0.0162808
634.357	0.0162448
634.435	0.0161266
634.513	0.0162865
634.591	0.0162617
634.669	0.0163502
634.747	0.0162677
634.825	0.0161600
634.904	0.0160968
634.982	0.0162707
635.060	0.0163060
635.138	0.0163305
635.216	0.0161800
635.294	0.0161300
635.372	0.0162019
635.450	0.0162106
635.529	0.0161902
635.607	0.0162230
635.685	0.0162417
635.763	0.0163132
635.841	0.0163068
635.919	0.0161324
635.997	0.0161192
636.075	0.0162027
636.154	0.0161741
636.232	0.0163198
636.310	0.0163010
636.388	0.0162539
636.466	0.0162280
636.544	0.0160585
636.622	0.0162526
636.700	0.0162520
636.779	0.0161293
636.857	0.0164368
636.935	0.0162344
637.013	0.0161840
637.091	0.0161920
637.169	0.0161664
637.247	0.0162330
637.325	0.0162185
637.404	0.0162394
637.482	0.0161175
637.560	0.0161298
637.638	0.0161823
637.716	0.0161708
637.794	0.0161908
637.872	0.0162273
637.950	0.0162619
638.029	0.0162931
638.107	0.0163088
638.185	0.0161107
638.263	0.0162215
638.341	0.0162706
638.419	0.0162009
638.497	0.0162201
638.575	0.0162220
638.654	0.0162856
638.732	0.0163780
638.810	0.0162155
638.888	0.0160482
638.966	0.0161926
639.044	0.0161556
639.122	0.0162476
639.200	0.0161446
639.279	0.0161026
639.357	0.0161724
639.435	0.0162286
639.513	0.0162040
639.591	0.0161880
639.669	0.0162399
639.747	0.0162247
639.825	0.0162175
639.904	0.0161067
639.982	0.0162181
640.060	0.0162399
640.138	0.0161301
640.216	0.0160615
640.294	0.0161733
640.372	0.0161510
640.450	0.0162834
640.529	0.0162730
640.607	0.0162747
640.685	0.0161922
640.763	0.0161845
640.841	0.0162212
640.919	0.0164311
640.997	0.0161838
641.075	0.0161420
641.154	0.0162666
641.232	0.0163065
641.310	0.0163258
641.388	0.0162666
641.466	0.0163326
641.544	0.0162233
641.622	0.0162287
641.700	0.0162962
641.779	0.0161600
641.857	0.0163715
641.935	0.0160670
642.013	0.0163031
642.091	0.0162306
642.169	0.0161940
642.247	0.0162585
642.325	0.0163226
642.404	0.0161958
642.482	0.0161720
642.560	0.0161121
642.638	0.0161455
642.716	0.0162297
642.794	0.0162659
642.872	0.0161900
642.950	0.0162070
643.029	0.0162180
643.107	0.0161693
643.185	0.0162727
643.263	0.0161697
643.341	0.0162149
643.419	0.0162554
643.497	0.0162222
643.575	0.0163235
643.654	0.0163283
643.732	0.0160256
643.810	0.0161504
643.888	0.0160896
643.966	0.0162615
644.044	0.0162855
644.122	0.0162508
644.200	0.0162007
644.279	0.0161894
644.357	0.0162050
644.435	0.0161504
644.513	0.0164088
644.591	0.0163042
644.669	0.0162248
644.747	0.0161497
644.825	0.0162022
644.904	0.0163358
644.982	0.0161911
645.060	0.0161829
645.138	0.0162868
645.216	0.0161070
645.294	0.0161707
645.372	0.0162933
645.450	0.0163477
645.529	0.0164318
645.607	0.0163484
645.685	0.0163226
645.763	0.0161682
645.841	0.0163052
645.919	0.0161905
645.997	0.0162435
646.075	0.0162972
646.154	0.0163091
646.232	0.0162336
646.310	0.0161582
646.388	0.0162991
646.466	0.0161597
646.544	0.0163039
646.622	0.0163406
646.700	0.0162418
646.779	0.0160556
646.857	0.0162709
646.935	0.0161664
647.013	0.0163099
647.091	0.0162557
647.169	0.0163206
647.247	0.0162942
647.325	0.0162601
647.404	0.0161379
647.482	0.0162991
647.560	0.0162904
647.638	0.0162540
647.716	0.0162468
647.794	0.0161797
647.872	0.0163453
647.950	0.0162994
648.029	0.0162321
648.107	0.0162048
648.185	0.0160744
648.263	0.0162478
648.341	0.0162666
648.419	0.0161860
648.497	0.0162863
648.575	0.0161832
648.654	0.0162321
648.732	0.0160561
648.810	0.0162099
648.888	0.0162436
648.966	0.0161688
649.044	0.0161553
649.122	0.0162789
649.200	0.0161226
649.279	0.0162214
649.357	0.0161719
649.435	0.0161607
649.513	0.0162530
649.591	0.0162359
649.669	0.0162323
649.747	0.0163024
649.825	0.0163058
649.904	0.0162371
649.982	0.0162369
650.060	0.0161872
650.138	0.0161494
650.216	0.0162473
650.294	0.0162171
650.372	0.0161385
650.450	0.0162263
650.529	0.0162868
650.607	0.0160545
650.685	0.0161483
650.763	0.0162176
650.841	0.0161186
650.919	0.0162254
650.997	0.0162089
651.075	0.0161893
651.154	0.0162208
651.232	0.0161584
651.310	0.0161883
651.388	0.0163316
651.466	0.0162724
651.544	0.0161467
651.622	0.0160593
651.700	0.0162897
651.779	0.0161958
651.857	0.0162558
651.935	0.0161776
652.013	0.0163016
652.091	0.0162398
652.169	0.0164156
652.247	0.0162778
652.325	0.0162227
652.404	0.0162840
652.482	0.0162372
652.560	0.0162354
652.638	0.0162366
652.716	0.0162287
652.794	0.0161560
652.872	0.0161115
652.950	0.0162453
653.029	0.0163404
653.107	0.0162670
653.185	0.0161357
653.263	0.0161441
653.341	0.0161714
653.419	0.0162753
653.497	0.0160927
653.575	0.0161150
653.654	0.0161032
653.732	0.0162160
653.810	0.0162830
653.888	0.0163321
653.966	0.0162061
654.044	0.0162519
654.122	0.0161674
654.200	0.0162216
654.279	0.0161150
654.357	0.0162583
654.435	0.0161291
654.513	0.0163390
654.591	0.0161134
654.669	0.0161806
654.747	0.0162167
654.825	0.0162854
654.904	0.0162649
654.982	0.0161982
655.060	0.0163329
655.138	0.0162473
655.216	0.0161346
655.294	0.0161993
655.372	0.0161288
655.450	0.0161409
655.529	0.0162775
655.607	0.0163229
655.685	0.0162585
655.763	0.0161574
655.841	0.0161583
655.919	0.0161143
655.997	0.0161774
656.075	0.0162463
656.154	0.0161544
656.232	0.0162935
656.310	0.0162502
656.388	0.0161836
656.466	0.0161320
656.544	0.0162387
656.622	0.0162174
656.700	0.0162831
656.779	0.0161285
656.857	0.0161956
656.935	0.0162304
657.013	0.0160882
657.091	0.0161578
657.169	0.0161890
657.247	0.0161867
657.325	0.0161278
657.404	0.0161598
657.482	0.0161668
657.560	0.0163822
657.638	0.0161716
657.716	0.0161919
657.794	0.0162358
657.872	0.0163130
657.950	0.0162994
658.029	0.0161625
658.107	0.0160888
658.185	0.0162496
658.263	0.0162733
658.341	0.0162592
658.419	0.0162611
658.497	0.0161927
658.575	0.0162258
658.654	0.0160680
658.732	0.0160615
658.810	0.0162704
658.888	0.0161956
658.966	0.0161595
659.044	0.0160859
659.122	0.0161652
659.200	0.0162052
659.279	0.0161609
659.357	0.0162743
659.435	0.0163014
659.513	0.0160663
659.591	0.0162222
659.669	0.0161887
659.747	0.0162704
659.825	0.0161238
659.904	0.0161972
659.982	0.0162836
660.060	0.0162302
660.138	0.0162578
660.216	0.0161808
660.294	0.0162846
660.372	0.0161709
660.450	0.0162723
660.529	0.0162994
660.607	0.0161922
660.685	0.0161433
660.763	0.0161838
660.841	0.0161102
660.919	0.0162157
660.997	0.0160844
661.075	0.0161173
661.154	0.0161048
661.232	0.0161197
661.310	0.0162962
661.388	0.0161848
661.466	0.0161518
661.544	0.0161921
661.622	0.0161703
661.700	0.0161614
661.779	0.0162961
661.857	0.0162759
661.935	0.0162589
662.013	0.0162079
662.091	0.0162076
662.169	0.0162436
662.247	0.0159925
662.325	0.0162659
662.404	0.0162652
662.482	0.0162333
662.560	0.0162353
662.638	0.0161693
662.716	0.0161823
662.794	0.0162276
662.872	0.0161392
662.950	0.0162061
663.029	0.0162028
663.107	0.0163290
663.185	0.0163187
663.263	0.0161781
663.341	0.0162699
663.419	0.0162741
663.497	0.0163069
663.575	0.0163063
663.654	0.0162777
663.732	0.0161649
663.810	0.0161259
663.888	0.0162879
663.966	0.0163085
664.044	0.0162573
664.122	0.0161713
664.200	0.0162427
664.279	0.0162639
664.357	0.0162021
664.435	0.0162836
664.513	0.0162418
664.591	0.0162921
664.669	0.0162087
664.747	0.0161610
664.825	0.0163953
664.904	0.0163490
664.982	0.0163026
665.060	0.0161836
665.138	0.0163369
665.216	0.0162691
665.294	0.0161584
665.372	0.0163052
665.450	0.0163528
665.529	0.0163039
665.607	0.0162760
665.685	0.0160920
665.763	0.0161623
665.841	0.0163024
665.919	0.0162054
665.997	0.0163559
666.075	0.0163148
666.154	0.0163039
666.232	0.0162988
666.310	0.0162305
666.388	0.0162962
666.466	0.0162756
666.544	0.0162779
666.622	0.0162198
666.700	0.0163169
666.779	0.0163367
666.857	0.0162144
666.935	0.0162715
667.013	0.0163390
667.091	0.0162427
667.169	0.0161539
667.247	0.0163438
667.325	0.0162730
667.404	0.0162557
667.482	0.0162454
667.560	0.0163063
667.638	0.0162003
667.716	0.0162123
667.794	0.0161641
667.872	0.0162046
667.950	0.0162535
668.029	0.0162222
668.107	0.0162142
668.185	0.0161147
668.263	0.0164175
668.341	0.0162688
668.419	0.0160738
668.497	0.0162354
668.575	0.0162712
668.654	0.0161533
668.732	0.0162653
668.810	0.0161983
668.888	0.0160529
668.966	0.0161143
669.044	0.0162003
669.122	0.0161958
669.200	0.0162355
669.279	0.0161954
669.357	0.0162389
669.435	0.0161099
669.513	0.0162659
669.591	0.0162709
669.669	0.0161762
669.747	0.0161056
669.825	0.0162341
669.904	0.0162351
669.982	0.0161690
670.060	0.0162483
670.138	0.0163004
670.216	0.0163200
670.294	0.0161651
670.372	0.0162064
670.450	0.0163097
670.529	0.0161773
670.607	0.0161307
670.685	0.0161635
670.763	0.0163055
670.841	0.0162748
670.919	0.0162302
670.997	0.0160832
671.075	0.0162457
671.154	0.0164052
671.232	0.0162822
671.310	0.0162067
671.388	0.0161500
671.466	0.0161453
671.544	0.0162476
671.622	0.0162811
671.700	0.0163032
671.779	0.0161294
671.857	0.0162199
671.935	0.0162799
672.013	0.0162683
672.091	0.0161665
672.169	0.0161800
672.247	0.0162120
672.325	0.0161589
672.404	0.0162398
672.482	0.0161917
672.560	0.0162309
672.638	0.0162946
672.716	0.0161279
672.794	0.0161178
672.872	0.0163463
672.950	0.0161773
673.029	0.0161842
673.107	0.0162880
673.185	0.0162671
673.263	0.0161609
673.341	0.0165151
673.419	0.0162397
673.497	0.0161880
673.575	0.0162086
673.654	0.0163360
673.732	0.0162807
673.810	0.0162407
673.888	0.0162997
673.966	0.0162612
674.044	0.0161842
674.122	0.0162713
674.200	0.0161972
674.279	0.0162318
674.357	0.0163995
674.435	0.0162995
674.513	0.0162788
674.591	0.0160587
674.669	0.0161022
674.747	0.0163062
674.825	0.0162183
674.904	0.0161978
674.982	0.0163133
675.060	0.0161699
675.138	0.0160867
675.216	0.0162231
675.294	0.0162045
675.372	0.0162395
675.450	0.0163477
675.529	0.0162896
675.607	0.0161102
675.685	0.0161501
675.763	0.0163864
675.841	0.0163334
675.919	0.0162735
675.997	0.0163898
676.075	0.0161810
676.154	0.0162524
676.232	0.0163422
676.310	0.0162192
676.388	0.0163126
676.466	0.0163824
676.544	0.0161878
676.622	0.0161651
676.700	0.0162546
676.779	0.0163028
676.857	0.0163220
676.935	0.0161642
677.013	0.0162907
677.091	0.0162884
677.169	0.0161680
677.247	0.0162328
677.325	0.0162037
677.404	0.0162675
677.482	0.0162517
677.560	0.0161764
677.638	0.0164038
677.716	0.0162784
677.794	0.0160294
677.872	0.0162103
677.950	0.0163493
678.029	0.0162455
678.107	0.0163567
678.185	0.0161759
678.263	0.0163039
678.341	0.0162079
678.419	0.0162192
678.497	0.0161506
678.575	0.0163009
678.654	0.0163098
678.732	0.0161676
678.810	0.0162334
678.888	0.0162216
678.966	0.0161269
679.044	0.0162481
679.122	0.0162379
679.200	0.0161063
679.279	0.0162766
679.357	0.0163499
679.435	0.0162543
679.513	0.0162020
679.591	0.0163537
679.669	0.0161238
679.747	0.0162410
679.825	0.0160374
679.904	0.0161817
679.982	0.0161610
680.060	0.0161848
680.138	0.0162525
680.216	0.0161892
680.294	0.0161320
680.372	0.0163089
680.450	0.0163021
680.529	0.0163014
680.607	0.0160645
680.685	0.0161768
680.763	0.0162398
680.841	0.0162075
680.919	0.0161757
680.997	0.0162450
681.075	0.0162810
681.154	0.0162546
681.232	0.0160958
681.310	0.0162062
681.388	0.0163078
681.466	0.0161816
681.544	0.0162851
681.622	0.0162600
681.700	0.0162379
681.779	0.0161696
681.857	0.0162948
681.935	0.0163156
682.013	0.0161332
682.091	0.0163244
682.169	0.0162253
682.247	0.0161602
682.325	0.0163587
682.404	0.0163045
682.482	0.0163878
682.560	0.0162325
682.638	0.0162415
682.716	0.0162572
682.794	0.0163654
682.872	0.0162380
682.950	0.0162543
683.029	0.0161773
683.107	0.0163402
683.185	0.0163190
683.263	0.0163006
683.341	0.0163304
683.419	0.0161445
683.497	0.0162560
683.575	0.0163162
683.654	0.0162611
683.732	0.0162939
683.810	0.0163861
683.888	0.0162479
683.966	0.0162844
684.044	0.0163280
684.122	0.0163102
684.200	0.0162391
684.279	0.0161646
684.357	0.0161959
684.435	0.0161807
684.513	0.0160452
684.591	0.0161410
684.669	0.0162363
684.747	0.0161913
684.825	0.0162545
684.904	0.0162417
684.982	0.0160909
685.060	0.0160445
685.138	0.0162000
685.216	0.0162625
685.294	0.0163523
685.372	0.0161611
685.450	0.0162280
685.529	0.0164172
685.607	0.0163002
685.685	0.0163140
685.763	0.0163779
685.841	0.0164046
685.919	0.0164285
685.997	0.0164146
686.075	0.0165567
686.154	0.0163780
686.232	0.0164529
686.310	0.0164216
686.388	0.0164642
686.466	0.0164846
686.544	0.0164638
686.622	0.0163219
686.700	0.0162724
686.779	0.0163383
686.857	0.0162818
686.935	0.0160068
687.013	0.0160520
687.091	0.0159811
687.169	0.0159122
687.247	0.0158178
687.325	0.0157108
687.404	0.0157444
687.482	0.0158006
687.560	0.0158649
687.638	0.0159615
687.716	0.0160465
687.794	0.0160696
687.872	0.0163276
687.950	0.0163559
688.029	0.0164307
688.107	0.0164988
688.185	0.0165411
688.263	0.0165895
688.341	0.0166227
688.419	0.0165314
688.497	0.0165754
688.575	0.0165119
688.654	0.0164395
688.732	0.0163011
688.810	0.0160073
688.888	0.0159754
688.966	0.0159047
689.044	0.0157728
689.122	0.0157394
689.200	0.0157130
689.279	0.0156716
689.357	0.0156200
689.435	0.0156312
689.513	0.0158095
689.591	0.0159351
689.669	0.0160957
689.747	0.0162734
689.825	0.0164053
689.904	0.0166062
689.982	0.0167175
690.060	0.0166804
690.138	0.0168429
690.216	0.0169343
690.294	0.0169708
690.372	0.0169913
690.450	0.0169439
690.529	0.0168826
690.607	0.0168867
690.685	0.0171108
690.763	0.0170253
690.841	0.0169633
690.919	0.0169862
690.997	0.0168925
691.075	0.0168280
691.154	0.0167844
691.232	0.0167010
691.310	0.0163414
691.388	0.0161811
691.466	0.0158651
691.544	0.0156369
691.622	0.0152786
691.700	0.0150130
691.779	0.0148104
691.857	0.0147224
691.935	0.0143797
692.013	0.0141457
692.091	0.0142390
692.169	0.0143320
692.247	0.0143699
692.325	0.0142990
692.404	0.0143336
692.482	0.0145104
692.560	0.0144762
692.638	0.0147619
692.716	0.0150822
692.794	0.0153607
692.872	0.0157555
692.950	0.0160789
693.029	0.0166297
693.107	0.0171127
693.185	0.0177766
693.263	0.0181255
693.341	0.0186774
693.419	0.0191569
693.497	0.0194765
693.575	0.0198055
693.654	0.0202387
693.732	0.0203791
693.810	0.0203696
693.888	0.0204418
693.966	0.0204073
694.044	0.0202573
694.122	0.0198270
694.200	0.0195467
694.279	0.0188999
694.357	0.0181829
694.435	0.0176402
694.513	0.0169130
694.591	0.0160215
694.669	0.0151830
694.747	0.0143578
694.825	0.0133933
694.904	0.0125843
694.982	0.0119817
695.060	0.0110880
695.138	0.0106028
695.216	0.00997620
695.294	0.00966629
695.372	0.00953423
695.450	0.00948257
695.529	0.00965157
695.607	0.00986427
695.685	0.0102605
695.763	0.0108750
695.841	0.0116168
695.919	0.0124319
695.997	0.0133646
696.075	0.0144536
696.154	0.0156315
696.232	0.0167486
696.310	0.0178809
696.388	0.0188942
696.466	0.0199746
696.544	0.0211091
696.622	0.0220473
696.700	0.0227195
696.779	0.0231391
696.857	0.0237100
696.935	0.0238869
697.013	0.0239035
697.091	0.0236903
697.169	0.0231734
697.247	0.0225801
697.325	0.0218487
697.404	0.0210839
697.482	0.0202360
697.560	0.0193360
697.638	0.0186120
697.716	0.0178822
697.794	0.0172425
697.872	0.0165524
697.950	0.0161057
698.029	0.0156392
698.107	0.0151539
698.185	0.0144077
698.263	0.0141566
698.341	0.0135715
698.419	0.0131428
698.497	0.0125873
698.575	0.0123368
698.654	0.0120659
698.732	0.0118112
698.810	0.0116086
698.888	0.0116279
698.966	0.0117757
699.044	0.0118718
699.122	0.0119600
699.200	0.0124289
699.279	0.0126195
699.357	0.0129733
699.435	0.0133610
699.513	0.0134061
699.591	0.0135801
699.669	0.0135319
699.747	0.0133822
699.825	0.0133028
699.904	0.0131860
699.982	0.0128808
700.060	0.0128092
700.138	0.0127861
700.216	0.0125732
700.294	0.0128422
700.372	0.0131682
700.450	0.0136007
700.529	0.0143139
700.607	0.0151147
700.685	0.0160646
700.763	0.0170387
700.841	0.0184207
700.919	0.0194527
700.997	0.0205221
701.075	0.0215044
701.154	0.0225176
701.232	0.0233504
701.310	0.0243005
701.388	0.0249502
701.466	0.0255852
701.544	0.0261371
701.622	0.0266817
701.700	0.0270043
701.779	0.0270311
701.857	0.0268726
701.935	0.0265531
702.013	0.0257997
702.091	0.0248869
702.169	0.0234237
702.247	0.0217380
702.325	0.0199082
702.404	0.0178700
702.482	0.0158710
702.560	0.0138932
702.638	0.0117986
702.716	0.0100407
702.794	0.00871910
702.872	0.00753166
702.950	0.00681442
703.029	0.00638977
703.107	0.00648270
703.185	0.00674767
703.263	0.00705566
703.341	0.00792191
703.419	0.00834724
703.497	0.00920334
703.575	0.00989555
703.654	0.0104727
703.732	0.0112153
703.810	0.0114268
703.888	0.0118539
703.966	0.0120939
704.044	0.0123839
704.122	0.0124860
704.200	0.0126146
704.279	0.0126255
704.357	0.0127852
704.435	0.0130862
704.513	0.0131461
704.591	0.0131611
704.669	0.0133932
704.747	0.0135881
704.825	0.0137422
704.904	0.0139146
704.982	0.0140053
705.060	0.0141630
705.138	0.0145410
705.216	0.0150312
705.294	0.0155294
705.372	0.0163966
705.450	0.0174370
705.529	0.0185557
705.607	0.0200256
705.685	0.0216152
705.763	0.0234155
705.841	0.0252303
705.919	0.0267610
705.997	0.0284140
706.075	0.0298603
706.154	0.0308871
706.232	0.0317577
706.310	0.0323445
706.388	0.0321951
706.466	0.0320081
706.544	0.0314293
706.622	0.0303653
706.700	0.0291607
706.779	0.0275001
706.857	0.0259349
706.935	0.0239455
707.013	0.0219728
707.091	0.0197116
707.169	0.0176015
707.247	0.0153625
707.325	0.0129074
707.404	0.0106403
707.482	0.00817039
707.560	0.00590309
707.638	0.00370811
707.716	0.00173660
707.794	0.000131454
707.872	-0.00136276
707.950	-0.00222801
708.029	-0.00263123
708.107	-0.00266899
708.185	-0.00191803
708.263	-0.000866165
708.341	0.000508804
708.419	0.00224564
708.497	0.00444382
708.575	0.00641975
708.654	0.00878860
708.732	0.0108937
708.810	0.0129491
708.888	0.0148450
708.966	0.0165616
709.044	0.0179645
709.122	0.0191912
709.200	0.0202576
709.279	0.0210087
709.357	0.0216000
709.435	0.0220654
709.513	0.0222863
709.591	0.0223629
709.669	0.0223446
709.747	0.0221780
709.825	0.0218506
709.904	0.0213867
709.982	0.0208760
710.060	0.0203415
710.138	0.0201049
710.216	0.0198695
710.294	0.0195776
710.372	0.0196373
710.450	0.0199377
710.529	0.0201640
710.607	0.0205582
710.685	0.0211802
710.763	0.0218811
710.841	0.0224862
710.919	0.0228632
710.997	0.0233503
711.075	0.0238184
711.154	0.0239170
711.232	0.0236739
711.310	0.0232364
711.388	0.0228978
711.466	0.0223002
711.544	0.0213951
711.622	0.0204630
711.700	0.0195866
711.779	0.0189060
711.857	0.0177880
711.935	0.0168742
712.013	0.0158562
712.091	0.0150893
712.169	0.0141089
712.247	0.0130932
712.325	0.0123138
712.404	0.0115158
712.482	0.0106470
712.560	0.0100492
712.638	0.00936897
712.716	0.00903152
712.794	0.00882507
712.872	0.00868599
712.950	0.00883392
713.029	0.00900169
713.107	0.00921158
713.185	0.00958984
713.263	0.0101766
713.341	0.0108078
713.419	0.0110330
713.497	0.0116602
713.575	0.0121124
713.654	0.0125715
713.732	0.0128207
713.810	0.0131949
713.888	0.0135134
713.966	0.0136121
714.044	0.0141139
714.122	0.0145582
714.200	0.0147952
714.279	0.0152905
714.357	0.0157619
714.435	0.0160746
714.513	0.0165427
714.591	0.0170649
714.669	0.0173864
714.747	0.0177809
714.825	0.0180367
714.904	0.0183597
714.982	0.0183802
715.060	0.0186559
715.138	0.0188600
715.216	0.0191307
715.294	0.0192112
715.372	0.0196422
715.450	0.0199228
715.529	0.0201030
715.607	0.0203327
715.685	0.0205392
715.763	0.0206923
715.841	0.0206506
715.919	0.0206599
715.997	0.0204858
716.075	0.0200966
716.154	0.0199615
716.232	0.0194592
716.310	0.0189839
716.388	0.0185425
716.466	0.0181452
716.544	0.0177557
716.622	0.0172204
716.700	0.0170387
716.779	0.0167616
716.857	0.0163652
716.935	0.0162603
717.013	0.0161754
717.091	0.0160783
717.169	0.0160738
717.247	0.0161053
717.325	0.0160345
717.404	0.0161091
717.482	0.0162353
717.560	0.0163733
717.638	0.0165383
717.716	0.0165942
717.794	0.0166903
717.872	0.0166190
717.950	0.0168513
718.029	0.0168507
718.107	0.0165028
718.185	0.0163342
718.263	0.0158298
718.341	0.0155244
718.419	0.0149348
718.497	0.0142005
718.575	0.0134507
718.654	0.0129752
718.732	0.0122567
718.810	0.0119472
718.888	0.0114399
718.966	0.0112493
719.044	0.0113805
719.122	0.0114813
719.200	0.0116106
719.279	0.0119305
719.357	0.0126025
719.435	0.0133122
719.513	0.0139141
719.591	0.0143691
719.669	0.0152334
719.747	0.0157734
719.825	0.0165618
719.904	0.0170688
719.982	0.0177758
720.060	0.0180962
720.138	0.0182795
720.216	0.0185228
720.294	0.0186443
720.372	0.0186510
720.450	0.0185244
720.529	0.0182350
720.607	0.0177504
720.685	0.0175623
720.763	0.0170794
720.841	0.0167619
720.919	0.0162691
720.997	0.0158929
721.075	0.0153609
721.154	0.0152275
721.232	0.0151249
721.310	0.0150484
721.388	0.0151281
721.466	0.0151463
721.544	0.0153864
721.622	0.0156564
721.700	0.0158779
721.779	0.0163202
721.857	0.0165430
721.935	0.0167998
722.013	0.0171162
722.091	0.0175014
722.169	0.0178961
722.247	0.0180069
722.325	0.0182422
722.404	0.0185909
722.482	0.0187060
722.560	0.0186976
722.638	0.0187212
722.716	0.0187170
722.794	0.0186441
722.872	0.0185101
722.950	0.0185301
723.029	0.0180738
723.107	0.0178107
723.185	0.0177207
723.263	0.0174129
723.341	0.0171385
723.419	0.0169628
723.497	0.0167213
723.575	0.0165598
723.654	0.0162632
723.732	0.0161224
723.810	0.0158829
723.888	0.0156026
723.966	0.0154172
724.044	0.0154037
724.122	0.0151579
724.200	0.0150528
724.279	0.0148535
724.357	0.0146136
724.435	0.0143835
724.513	0.0143245
724.591	0.0141283
724.669	0.0141802
724.747	0.0140634
724.825	0.0142527
724.904	0.0144239
724.982	0.0145617
725.060	0.0148274
725.138	0.0151335
725.216	0.0154485
725.294	0.0156590
725.372	0.0159557
725.450	0.0159995
725.529	0.0161310
725.607	0.0160509
725.685	0.0162501
725.763	0.0162135
725.841	0.0160926
725.919	0.0159628
725.997	0.0157948
726.075	0.0155930
726.154	0.0155972
726.232	0.0154407
726.310	0.0154228
726.388	0.0154527
726.466	0.0153755
726.544	0.0155476
726.622	0.0155969
726.700	0.0155936
726.779	0.0155744
726.857	0.0157964
726.935	0.0158730
727.013	0.0158067
727.091	0.0159032
727.169	0.0159194
727.247	0.0162204
727.325	0.0163359
727.404	0.0162408
727.482	0.0163809
727.560	0.0167169
727.638	0.0168020
727.716	0.0169298
727.794	0.0170378
727.872	0.0170767
727.950	0.0171277
728.029	0.0170667
728.107	0.0170668
728.185	0.0169702
728.263	0.0169038
728.341	0.0168371
728.419	0.0167425
728.497	0.0166695
728.575	0.0166402
728.654	0.0165786
728.732	0.0166505
728.810	0.0166756
728.888	0.0168935
728.966	0.0168933
729.044	0.0169998
729.122	0.0171214
729.200	0.0171851
729.279	0.0173448
729.357	0.0176418
729.435	0.0176846
729.513	0.0176198
729.591	0.0175803
729.669	0.0175356
729.747	0.0175857
729.825	0.0173379
729.904	0.0173361
729.982	0.0173021
730.060	0.0168617
730.138	0.0166127
730.216	0.0165930
730.294	0.0164145
730.372	0.0163673
730.450	0.0161895
730.529	0.0161412
730.607	0.0158577
730.685	0.0156346
730.763	0.0154237
730.841	0.0152804
730.919	0.0151763
730.997	0.0152261
731.075	0.0149839
731.154	0.0148964
731.232	0.0151155
731.310	0.0151126
731.388	0.0150754
731.466	0.0153632
731.544	0.0153457
731.622	0.0153552
731.700	0.0156269
731.779	0.0157513
731.857	0.0158707
731.935	0.0160600
732.013	0.0161494
732.091	0.0158483
732.169	0.0157606
732.247	0.0158442
732.325	0.0156123
732.404	0.0153544
732.482	0.0154298
732.560	0.0151759
732.638	0.0152422
732.716	0.0153485
732.794	0.0153726
732.872	0.0156654
732.950	0.0157980
733.029	0.0160531
733.107	0.0161758
733.185	0.0164259
733.263	0.0166208
733.341	0.0168655
733.419	0.0167503
733.497	0.0168105
733.575	0.0167216
733.654	0.0166584
733.732	0.0166129
733.810	0.0166631
733.888	0.0164513
733.966	0.0164164
734.044	0.0165220
734.122	0.0164974
734.200	0.0163375
734.279	0.0165745
734.357	0.0167587
734.435	0.0168620
734.513	0.0169588
734.591	0.0170653
734.669	0.0172009
734.747	0.0174361
734.825	0.0175005
734.904	0.0172388
734.982	0.0172058
735.060	0.0172501
735.138	0.0171171
735.216	0.0168555
735.294	0.0166884
735.372	0.0166527
735.450	0.0163589
735.529	0.0161686
735.607	0.0160696
735.685	0.0158749
735.763	0.0159008
735.841	0.0158703
735.919	0.0157644
735.997	0.0156893
736.075	0.0157768
736.154	0.0158464
736.232	0.0157647
736.310	0.0158658
736.388	0.0157505
736.466	0.0158333
736.544	0.0157744
736.622	0.0154434
736.700	0.0156523
736.779	0.0158434
736.857	0.0158047
736.935	0.0157818
737.013	0.0156737
737.091	0.0158609
737.169	0.0160495
737.247	0.0162406
737.325	0.0162756
737.404	0.0164272
737.482	0.0167458
737.560	0.0168533
737.638	0.0168195
737.716	0.0170051
737.794	0.0170608
737.872	0.0170720
737.950	0.0170187
738.029	0.0170425
738.107	0.0169759
738.185	0.0169613
738.263	0.0168650
738.341	0.0167578
738.419	0.0167542
738.497	0.0166510
738.575	0.0165851
738.654	0.0164391
738.732	0.0164387
738.810	0.0163835
738.888	0.0162498
738.966	0.0162876
739.044	0.0161690
739.122	0.0161067
739.200	0.0159653
739.279	0.0160941
739.357	0.0158070
739.435	0.0157549
739.513	0.0156827
739.591	0.0157023
739.669	0.0156803
739.747	0.0155483
739.825	0.0154738
739.904	0.0155649
739.982	0.0155978
740.060	0.0155894
740.138	0.0156624
740.216	0.0156878
740.294	0.0157657
740.372	0.0157185
740.450	0.0156641
740.529	0.0158506
740.607	0.0159206
740.685	0.0159965
740.763	0.0160819
740.841	0.0161752
740.919	0.0162487
740.997	0.0162737
741.075	0.0163485
741.154	0.0162867
741.232	0.0163491
741.310	0.0164830
741.388	0.0165393
741.466	0.0165867
741.544	0.0164690
741.622	0.0165495
741.700	0.0167088
741.779	0.0165285
741.857	0.0164503
741.935	0.0165739
742.013	0.0165731
742.091	0.0166548
742.169	0.0168466
742.247	0.0167228
742.325	0.0167635
742.404	0.0165582
742.482	0.0165793
742.560	0.0164010
742.638	0.0163844
742.716	0.0162051
742.794	0.0159643
742.872	0.0157533
742.950	0.0158456
743.029	0.0156390
743.107	0.0154865
743.185	0.0153293
743.263	0.0152237
743.341	0.0153046
743.419	0.0153457
743.497	0.0153614
743.575	0.0154768
743.654	0.0156048
743.732	0.0157915
743.810	0.0159034
743.888	0.0161019
743.966	0.0161953
744.044	0.0164458
744.122	0.0165635
744.200	0.0165926
744.279	0.0166570
744.357	0.0164676
744.435	0.0164510
744.513	0.0165633
744.591	0.0163356
744.669	0.0162788
744.747	0.0163503
744.825	0.0161333
744.904	0.0161000
744.982	0.0160973
745.060	0.0162407
745.138	0.0162911
745.216	0.0163391
745.294	0.0164864
745.372	0.0165677
745.450	0.0167924
745.529	0.0168751
745.607	0.0169595
745.685	0.0171047
745.763	0.0168848
745.841	0.0169859
745.919	0.0168823
745.997	0.0167783
746.075	0.0166181
746.154	0.0165924
746.232	0.0164537
746.310	0.0164307
746.388	0.0164072
746.466	0.0163515
746.544	0.0161784
746.622	0.0159937
746.700	0.0160434
746.779	0.0158216
746.857	0.0159616
746.935	0.0157866
747.013	0.0158659
747.091	0.0156683
747.169	0.0157120
747.247	0.0156458
747.325	0.0157611
747.404	0.0156880
747.482	0.0156462
747.560	0.0158070
747.638	0.0158348
747.716	0.0156664
747.794	0.0156259
747.872	0.0157497
747.950	0.0156025
748.029	0.0155258
748.107	0.0153706
748.185	0.0154610
748.263	0.0154079
748.341	0.0153948
748.419	0.0153384
748.497	0.0151025
748.575	0.0153564
748.654	0.0155337
748.732	0.0155695
748.810	0.0157904
748.888	0.0159750
748.966	0.0161192
749.044	0.0162586
749.122	0.0164149
749.200	0.0166727
749.279	0.0167693
749.357	0.0166351
749.435	0.0166904
749.513	0.0166729
749.591	0.0166430
749.669	0.0166140
749.747	0.0165163
749.825	0.0165141
749.904	0.0164001
749.982	0.0162430
750.060	0.0161291
750.138	0.0159837
750.216	0.0161715
750.294	0.0161045
750.372	0.0158999
750.450	0.0158826
750.529	0.0161117
750.607	0.0159386
750.685	0.0160104
750.763	0.0161279
750.841	0.0160845
750.919	0.0163204
750.997	0.0162013
751.075	0.0162242
751.154	0.0163922
751.232	0.0164682
751.310	0.0165129
751.388	0.0167008
751.466	0.0166467
751.544	0.0169786
751.622	0.0170157
751.700	0.0171351
751.779	0.0171384
751.857	0.0171263
751.935	0.0172776
752.013	0.0172858
752.091	0.0171619
752.169	0.0170824
752.247	0.0171161
752.325	0.0170323
752.404	0.0168633
752.482	0.0166235
752.560	0.0164459
752.638	0.0164230
752.716	0.0162276
752.794	0.0161176
752.872	0.0160069
752.950	0.0159753
753.029	0.0159890
753.107	0.0158842
753.185	0.0159978
753.263	0.0160284
753.341	0.0158715
753.419	0.0160046
753.497	0.0159748
753.575	0.0158945
753.654	0.0156931
753.732	0.0155407
753.810	0.0155419
753.888	0.0154530
753.966	0.0154105
754.044	0.0154061
754.122	0.0154643
754.200	0.0156686
754.279	0.0156554
754.357	0.0158551
754.435	0.0159687
754.513	0.0160265
754.591	0.0162204
754.669	0.0163632
754.747	0.0164996
754.825	0.0164826
754.904	0.0168124
754.982	0.0165918
755.060	0.0167596
755.138	0.0167574
755.216	0.0167767
755.294	0.0166682
755.372	0.0164478
755.450	0.0164401
755.529	0.0163665
755.607	0.0162343
755.685	0.0161121
755.763	0.0159895
755.841	0.0156809
755.919	0.0157338
755.997	0.0156255
756.075	0.0156024
756.154	0.0154828
756.232	0.0154958
756.310	0.0156812
756.388	0.0156255
756.466	0.0158192
756.544	0.0158548
756.622	0.0160990
756.700	0.0162834
756.779	0.0166903
756.857	0.0166281
756.935	0.0167949
757.013	0.0168715
757.091	0.0169611
757.169	0.0170441
757.247	0.0169404
757.325	0.0169157
757.404	0.0167258
757.482	0.0166038
757.560	0.0165263
757.638	0.0162884
757.716	0.0162430
757.794	0.0162160
757.872	0.0160632
757.950	0.0158953
758.029	0.0158488
758.107	0.0159072
758.185	0.0157816
758.263	0.0158355
758.341	0.0159422
758.419	0.0159507
758.497	0.0161098
758.575	0.0159332
758.654	0.0158829
758.732	0.0160386
758.810	0.0161060
758.888	0.0160976
758.966	0.0161700
759.044	0.0161401
759.122	0.0161819
759.200	0.0162537
759.279	0.0165046
759.357	0.0166168
759.435	0.0165889
759.513	0.0167647
759.591	0.0167648
759.669	0.0168657
759.747	0.0169061
759.825	0.0169382
759.904	0.0171002
759.982	0.0170041
760.060	0.0170212
760.138	0.0170484
760.216	0.0169681
760.294	0.0168481
760.372	0.0168621
760.450	0.0166158
760.529	0.0164685
760.607	0.0164656
760.685	0.0162728
760.763	0.0162347
760.841	0.0158453
760.919	0.0158925
760.997	0.0157024
761.075	0.0156433
761.154	0.0155608
761.232	0.0156869
761.310	0.0157262
761.388	0.0157173
761.466	0.0156356
761.544	0.0157890
761.622	0.0158749
761.700	0.0161535
761.779	0.0161415
761.857	0.0161974
761.935	0.0162317
762.013	0.0162530
762.091	0.0165205
762.169	0.0164590
762.247	0.0164339
762.325	0.0164529
762.404	0.0165025
762.482	0.0165378
762.560	0.0165483
762.638	0.0165154
762.716	0.0164106
762.794	0.0163421
762.872	0.0161996
762.950	0.0162077
763.029	0.0161105
763.107	0.0161411
763.185	0.0161942
763.263	0.0159891
763.341	0.0158147
763.419	0.0159132
763.497	0.0158469
763.575	0.0157711
763.654	0.0157988
763.732	0.0157269
763.810	0.0155926
763.888	0.0156343
763.966	0.0156239
764.044	0.0156845
764.122	0.0155334
764.200	0.0158022
764.279	0.0156397
764.357	0.0157527
764.435	0.0158562
764.513	0.0159890
764.591	0.0160814
764.669	0.0162688
764.747	0.0163351
764.825	0.0163579
764.904	0.0164437
764.982	0.0164690
765.060	0.0167747
765.138	0.0168851
765.216	0.0168752
765.294	0.0167340
765.372	0.0167510
765.450	0.0168176
765.529	0.0167777
765.607	0.0166229
765.685	0.0165434
765.763	0.0163942
765.841	0.0165599
765.919	0.0163759
765.997	0.0161345
766.075	0.0163519
766.154	0.0162023
766.232	0.0160602
766.310	0.0159624
766.388	0.0160407
766.466	0.0159464
766.544	0.0159628
766.622	0.0160439
766.700	0.0159361
766.779	0.0160969
766.857	0.0159728
766.935	0.0161176
767.013	0.0161976
767.091	0.0164328
767.169	0.0164513
767.247	0.0164803
767.325	0.0164777
767.404	0.0165636
767.482	0.0166933
767.560	0.0166131
767.638	0.0168050
767.716	0.0167323
767.794	0.0167297
767.872	0.0166688
767.950	0.0166516
768.029	0.0166251
768.107	0.0165360
768.185	0.0162546
768.263	0.0162167
768.341	0.0162479
768.419	0.0159959
768.497	0.0158540
768.575	0.0157383
768.654	0.0155470
768.732	0.0155816
768.810	0.0156955
768.888	0.0155954
768.966	0.0156808
769.044	0.0156654
769.122	0.0157174
769.200	0.0157620
769.279	0.0157809
769.357	0.0161446
769.435	0.0159341
769.513	0.0161612
769.591	0.0162497
769.669	0.0163304
769.747	0.0162900
769.825	0.0164181
769.904	0.0164906
769.982	0.0165565
770.060	0.0165660
770.138	0.0164211
770.216	0.0164595
770.294	0.0164378
770.372	0.0162679
770.450	0.0165033
770.529	0.0163168
770.607	0.0161872
770.685	0.0162125
770.763	0.0163055
770.841	0.0161877
770.919	0.0160136
770.997	0.0159739
771.075	0.0160094
771.154	0.0158281
771.232	0.0159300
771.310	0.0159380
771.388	0.0159793
771.466	0.0158748
771.544	0.0158541
771.622	0.0160423
771.700	0.0159223
771.779	0.0159061
771.857	0.0159450
771.935	0.0160210
772.013	0.0161007
772.091	0.0161162
772.169	0.0161944
772.247	0.0161749
772.325	0.0162115
772.404	0.0162824
772.482	0.0160963
772.560	0.0161534
772.638	0.0163185
772.716	0.0162258
772.794	0.0162842
772.872	0.0162813
772.950	0.0163271
773.029	0.0163206
773.107	0.0162962
773.185	0.0162914
773.263	0.0162489
773.341	0.0161559
773.419	0.0162521
773.497	0.0160921
773.575	0.0160862
773.654	0.0160784
773.732	0.0160914
773.810	0.0159847
773.888	0.0160420
773.966	0.0160058
774.044	0.0161600
774.122	0.0160521
774.200	0.0160115
774.279	0.0161245
774.357	0.0162192
774.435	0.0163616
774.513	0.0163824
774.591	0.0163975
774.669	0.0165435
774.747	0.0166695
774.825	0.0166499
774.904	0.0167506
774.982	0.0167852
775.060	0.0168906
775.138	0.0168187
775.216	0.0168795
775.294	0.0167805
775.372	0.0166502
775.450	0.0166447
775.529	0.0167282
775.607	0.0165781
775.685	0.0165725
775.763	0.0163126
775.841	0.0163335
775.919	0.0163603
775.997	0.0164410
776.075	0.0163663
776.154	0.0162328
776.232	0.0161607
776.310	0.0161219
776.388	0.0161344
776.466	0.0159840
776.544	0.0159935
776.622	0.0159772
776.700	0.0158881
776.779	0.0157900
776.857	0.0158842
776.935	0.0158928
777.013	0.0158111
777.091	0.0156700
777.169	0.0158515
777.247	0.0158927
777.325	0.0159769
777.404	0.0159103
777.482	0.0161658
777.560	0.0162077
777.638	0.0163144
777.716	0.0163654
777.794	0.0163419
777.872	0.0163630
777.950	0.0165193
778.029	0.0165611
778.107	0.0166319
778.185	0.0165634
778.263	0.0165421
778.341	0.0164306
778.419	0.0163448
778.497	0.0162415
778.575	0.0162753
778.654	0.0161382
778.732	0.0160432
778.810	0.0158913
778.888	0.0159615
778.966	0.0158895
779.044	0.0158462
779.122	0.0156734
779.200	0.0156491
779.279	0.0157139
779.357	0.0157906
779.435	0.0158460
779.513	0.0159423
779.591	0.0159691
779.669	0.0158559
779.747	0.0159921
779.825	0.0162274
779.904	0.0161322
779.982	0.0161823
780.060	0.0162882
780.138	0.0163287
780.216	0.0164967
780.294	0.0165643
780.372	0.0165467
780.450	0.0165392
780.529	0.0166786
780.607	0.0166624
780.685	0.0164566
780.763	0.0165598
780.841	0.0165751
780.919	0.0164490
780.997	0.0164536
781.075	0.0163034
781.154	0.0163681
781.232	0.0162800
781.310	0.0162360
781.388	0.0162611
781.466	0.0160393
781.544	0.0162504
781.622	0.0162151
781.700	0.0159945
781.779	0.0163036
781.857	0.0162409
781.935	0.0162305
782.013	0.0163271
782.091	0.0163924
782.169	0.0164325
782.247	0.0164510
782.325	0.0164783
782.404	0.0165900
782.482	0.0163634
782.560	0.0165031
782.638	0.0165115
782.716	0.0165708
782.794	0.0166886
782.872	0.0165634
782.950	0.0164836
783.029	0.0164503
783.107	0.0164735
783.185	0.0164184
783.263	0.0164184
783.341	0.0164297
783.419	0.0163708
783.497	0.0163027
783.575	0.0163343
783.654	0.0161970
783.732	0.0162955
783.810	0.0160928
783.888	0.0160706
783.966	0.0160618
784.044	0.0158131
784.122	0.0157894
784.200	0.0158782
784.279	0.0157147
784.357	0.0158822
784.435	0.0159344
784.513	0.0158488
784.591	0.0160181
784.669	0.0159597
784.747	0.0159838
784.825	0.0160320
784.904	0.0162643
784.982	0.0163464
785.060	0.0161984
785.138	0.0162036
785.216	0.0163313
785.294	0.0162728
785.372	0.0163948
785.450	0.0165714
785.529	0.0163135
785.607	0.0163447
785.685	0.0163014
785.763	0.0162975
785.841	0.0163957
785.919	0.0162790
785.997	0.0162482
786.075	0.0163083
786.154	0.0162611
786.232	0.0162078
786.310	0.0163206
786.388	0.0163229
786.466	0.0162699
786.544	0.0162686
786.622	0.0162423
786.700	0.0162220
786.779	0.0162479
786.857	0.0163402
786.935	0.0163337
787.013	0.0161412
787.091	0.0162086
787.169	0.0162183
787.247	0.0162313
787.325	0.0161549
787.404	0.0160249
787.482	0.0160983
787.560	0.0160901
787.638	0.0161078
787.716	0.0161457
787.794	0.0160545
787.872	0.0161198
787.950	0.0161095
788.029	0.0160011
788.107	0.0160590
788.185	0.0160707
788.263	0.0160639
788.341	0.0160356
788.419	0.0160307
788.497	0.0160447
788.575	0.0159914
788.654	0.0160457
788.732	0.0160460
788.810	0.0161832
788.888	0.0161405
788.966	0.0163074
789.044	0.0162929
789.122	0.0162487
789.200	0.0163769
789.279	0.0163951
789.357	0.0165748
789.435	0.0165025
789.513	0.0164577
789.591	0.0164799
789.669	0.0164688
789.747	0.0166040
789.825	0.0164618
789.904	0.0165636
789.982	0.0164957
790.060	0.0164654
790.138	0.0166614
790.216	0.0164993
790.294	0.0166129
790.372	0.0165085
790.450	0.0165813
790.529	0.0167741
790.607	0.0165618
790.685	0.0166052
790.763	0.0166386
790.841	0.0166633
790.919	0.0164723
790.997	0.0163778
791.075	0.0165800
791.154	0.0164283
791.232	0.0160642
791.310	0.0159687
791.388	0.0160055
791.466	0.0158314
791.544	0.0156131
791.622	0.0156715
791.700	0.0156682
791.779	0.0154543
791.857	0.0156489
791.935	0.0156248
792.013	0.0156727
792.091	0.0156044
792.169	0.0156827
792.247	0.0156491
792.325	0.0158827
792.404	0.0157908
792.482	0.0157803
792.560	0.0160342
792.638	0.0160461
792.716	0.0162125
792.794	0.0161546
792.872	0.0162255
792.950	0.0162232
793.029	0.0162999
793.107	0.0166035
793.185	0.0166160
793.263	0.0166871
793.341	0.0167862
793.419	0.0170979
793.497	0.0170190
793.575	0.0169640
793.654	0.0170530
793.732	0.0170751
793.810	0.0171512
793.888	0.0171022
793.966	0.0171928
794.044	0.0170589
794.122	0.0169894
794.200	0.0169848
794.279	0.0167138
794.357	0.0166959
794.435	0.0165742
794.513	0.0164917
794.591	0.0162817
794.669	0.0160806
794.747	0.0160102
794.825	0.0156471
794.904	0.0156213
794.982	0.0156245
795.060	0.0155725
795.138	0.0154220
795.216	0.0152113
795.294	0.0153638
795.372	0.0154356
795.450	0.0153935
795.529	0.0155618
795.607	0.0154380
795.685	0.0153572
795.763	0.0155260
795.841	0.0155002
795.919	0.0155811
795.997	0.0156357
796.075	0.0154943
796.154	0.0155090
796.232	0.0155935
796.310	0.0157027
796.388	0.0156693
796.466	0.0158129
796.544	0.0156684
796.622	0.0158044
796.700	0.0158584
796.779	0.0160276
796.857	0.0159944
796.935	0.0161092
797.013	0.0163208
797.091	0.0164052
797.169	0.0165872
797.247	0.0166550
797.325	0.0167772
797.404	0.0170741
797.482	0.0170186
797.560	0.0171449
797.638	0.0173175
797.716	0.0173542
797.794	0.0174467
797.872	0.0174709
797.950	0.0175528
798.029	0.0176143
798.107	0.0176380
798.185	0.0176887
798.263	0.0177184
798.341	0.0174168
798.419	0.0172793
798.497	0.0174220
798.575	0.0171395
798.654	0.0169907
798.732	0.0168093
798.810	0.0166708
798.888	0.0164579
798.966	0.0161805
799.044	0.0161851
799.122	0.0158930
799.200	0.0156299
799.279	0.0154079
799.357	0.0154597
799.435	0.0153062
799.513	0.0152740
799.591	0.0152692
799.669	0.0152347
799.747	0.0152064
799.825	0.0152654
799.904	0.0150591
799.982	0.0151986
800.060	0.0152504
800.138	0.0152872
800.216	0.0151524
800.294	0.0151627
800.372	0.0153150
800.450	0.0153471
800.529	0.0155088
800.607	0.0154439
800.685	0.0156269
800.763	0.0156868
800.841	0.0157874
800.919	0.0156765
800.997	0.0158042
801.075	0.0157820
801.154	0.0158778
801.232	0.0159245
801.310	0.0159203
801.388	0.0158999
801.466	0.0158446
801.544	0.0160310
801.622	0.0161048
801.700	0.0161949
801.779	0.0162943
801.857	0.0164900
801.935	0.0165548
802.013	0.0167494
802.091	0.0170200
802.169	0.0171941
802.247	0.0173785
802.325	0.0177113
802.404	0.0178325
802.482	0.0180786
802.560	0.0181633
802.638	0.0182121
802.716	0.0183268
802.794	0.0183998
802.872	0.0182662
802.950	0.0180548
803.029	0.0180762
803.107	0.0178870
803.185	0.0177277
803.263	0.0177474
803.341	0.0174458
803.419	0.0171496
803.497	0.0170442
803.575	0.0166964
803.654	0.0165279
803.732	0.0161743
803.810	0.0158340
803.888	0.0156390
803.966	0.0154790
804.044	0.0153111
804.122	0.0150392
804.200	0.0148489
804.279	0.0144848
804.357	0.0144243
804.435	0.0141937
804.513	0.0142995
804.591	0.0142321
804.669	0.0140108
804.747	0.0140432
804.825	0.0140577
804.904	0.0142538
804.982	0.0141831
805.060	0.0143398
805.138	0.0144640
805.216	0.0146461
805.294	0.0147997
805.372	0.0149745
805.450	0.0152049
805.529	0.0152511
805.607	0.0154377
805.685	0.0156532
805.763	0.0159141
805.841	0.0161340
805.919	0.0163078
805.997	0.0164509
806.075	0.0165580
806.154	0.0170449
806.232	0.0170431
806.310	0.0170992
806.388	0.0171844
806.466	0.0172950
806.544	0.0174980
806.622	0.0174853
806.700	0.0174625
806.779	0.0175604
806.857	0.0175405
806.935	0.0176006
807.013	0.0176897
807.091	0.0176698
807.169	0.0175755
807.247	0.0174902
807.325	0.0175546
807.404	0.0175320
807.482	0.0172894
807.560	0.0172939
807.638	0.0172653
807.716	0.0171314
807.794	0.0171546
807.872	0.0169806
807.950	0.0168060
808.029	0.0167255
808.107	0.0167402
808.185	0.0167525
808.263	0.0165336
808.341	0.0164848
808.419	0.0165114
808.497	0.0164702
808.575	0.0162843
808.654	0.0163318
808.732	0.0162408
808.810	0.0161774
808.888	0.0159417
808.966	0.0157663
809.044	0.0156767
809.122	0.0156078
809.200	0.0157188
809.279	0.0155335
809.357	0.0154339
809.435	0.0154100
809.513	0.0153603
809.591	0.0152772
809.669	0.0153344
809.747	0.0153314
809.825	0.0154903
809.904	0.0156334
809.982	0.0155241
810.060	0.0155811
810.138	0.0156000
810.216	0.0155080
810.294	0.0155998
810.372	0.0155627
810.450	0.0155624
810.529	0.0154739
810.607	0.0156120
810.685	0.0155952
810.763	0.0156509
810.841	0.0157437
810.919	0.0157179
810.997	0.0158423
811.075	0.0159663
811.154	0.0161317
811.232	0.0162023
811.310	0.0162889
811.388	0.0163233
811.466	0.0164419
811.544	0.0165137
811.622	0.0166808
811.700	0.0165523
811.779	0.0168015
811.857	0.0166880
811.935	0.0167643
812.013	0.0167346
812.091	0.0166884
812.169	0.0168172
812.247	0.0168356
812.325	0.0167765
812.404	0.0168726
812.482	0.0168391
812.560	0.0169129
812.638	0.0168713
812.716	0.0168831
812.794	0.0169910
812.872	0.0168488
812.950	0.0169074
813.029	0.0169432
813.107	0.0168904
813.185	0.0167701
813.263	0.0168211
813.341	0.0169078
813.419	0.0170174
813.497	0.0169847
813.575	0.0168064
813.654	0.0166827
813.732	0.0167931
813.810	0.0166959
813.888	0.0165913
813.966	0.0165373
814.044	0.0165125
814.122	0.0164441
814.200	0.0164458
814.279	0.0164162
814.357	0.0163564
814.435	0.0161919
814.513	0.0160540
814.591	0.0161877
814.669	0.0160152
814.747	0.0159278
814.825	0.0158859
814.904	0.0158340
814.982	0.0157148
815.060	0.0156523
815.138	0.0154192
815.216	0.0154831
815.294	0.0155268
815.372	0.0154890
815.450	0.0153481
815.529	0.0155246
815.607	0.0155773
815.685	0.0156511
815.763	0.0156010
815.841	0.0156465
815.919	0.0156839
815.997	0.0157406
816.075	0.0157520
816.154	0.0156714
816.232	0.0158775
816.310	0.0159985
816.388	0.0158327
816.466	0.0158993
816.544	0.0159353
816.622	0.0160835
816.700	0.0160360
816.779	0.0159714
816.857	0.0158922
816.935	0.0161443
817.013	0.0160254
817.091	0.0161060
817.169	0.0161001
817.247	0.0160987
817.325	0.0162213
817.404	0.0162513
817.482	0.0162193
817.560	0.0162644
817.638	0.0163731
817.716	0.0166268
817.794	0.0165604
817.872	0.0165738
817.950	0.0167004
818.029	0.0168424
818.107	0.0169325
818.185	0.0169298
818.263	0.0170457
818.341	0.0172330
818.419	0.0172147
818.497	0.0171777
818.575	0.0171727
818.654	0.0171645
818.732	0.0171402
818.810	0.0171864
818.888	0.0172083
818.966	0.0170583
819.044	0.0169244
819.122	0.0166862
819.200	0.0169288
819.279	0.0167655
819.357	0.0165720
819.435	0.0165175
819.513	0.0164399
819.591	0.0162873
819.669	0.0163196
819.747	0.0162365
819.825	0.0163137
819.904	0.0161880
819.982	0.0160792
820.060	0.0161650
820.138	0.0161659
820.216	0.0162208
820.294	0.0160586
820.372	0.0159962
820.450	0.0158758
820.529	0.0159663
820.607	0.0156807
820.685	0.0156979
820.763	0.0157946
820.841	0.0156870
820.919	0.0156150
820.997	0.0155254
821.075	0.0155025
821.154	0.0156049
821.232	0.0155242
821.310	0.0154321
821.388	0.0156636
821.466	0.0155727
821.544	0.0155094
821.622	0.0155872
821.700	0.0156247
821.779	0.0157881
821.857	0.0158505
821.935	0.0159255
822.013	0.0159011
822.091	0.0159081
822.169	0.0160590
822.247	0.0159821
822.325	0.0159778
822.404	0.0160797
822.482	0.0160504
822.560	0.0161172
822.638	0.0161036
822.716	0.0163386
822.794	0.0162119
822.872	0.0162149
822.950	0.0163120
823.029	0.0162634
823.107	0.0164518
823.185	0.0163538
823.263	0.0165513
823.341	0.0165968
823.419	0.0166064
823.497	0.0166351
823.575	0.0166572
823.654	0.0166386
823.732	0.0168050
823.810	0.0166966
823.888	0.0166678
823.966	0.0168345
824.044	0.0168424
824.122	0.0167941
824.200	0.0168313
824.279	0.0167792
824.357	0.0166080
824.435	0.0166031
824.513	0.0167801
824.591	0.0168240
824.669	0.0167085
824.747	0.0167003
824.825	0.0165913
824.904	0.0166162
824.982	0.0165601
825.060	0.0165444
825.138	0.0164671
825.216	0.0164980
825.294	0.0163828
825.372	0.0164291
825.450	0.0164171
825.529	0.0163080
825.607	0.0162424
825.685	0.0161703
825.763	0.0161309
825.841	0.0162988
825.919	0.0162698
825.997	0.0161214
826.075	0.0161751
826.154	0.0160130
826.232	0.0160500
826.310	0.0161044
826.388	0.0162258
826.466	0.0161588
826.544	0.0162448
826.622	0.0162246
826.700	0.0162292
826.779	0.0161607
826.857	0.0159575
826.935	0.0161853
827.013	0.0162421
827.091	0.0161098
827.169	0.0159907
827.247	0.0159425
827.325	0.0158185
827.404	0.0159432
827.482	0.0157046
827.560	0.0158233
827.638	0.0158537
827.716	0.0159200
827.794	0.0157719
827.872	0.0157537
827.950	0.0159288
828.029	0.0157561
828.107	0.0154443
828.185	0.0158498
828.263	0.0157879
828.341	0.0157843
828.419	0.0158031
828.497	0.0157359
828.575	0.0157660
828.654	0.0159774
828.732	0.0160706
828.810	0.0160898
828.888	0.0160580
828.966	0.0162333
829.044	0.0163865
829.122	0.0165407
829.200	0.0164825
829.279	0.0164607
829.357	0.0166091
829.435	0.0166206
829.513	0.0166534
829.591	0.0166763
829.669	0.0166881
829.747	0.0167258
829.825	0.0166879
829.904	0.0165940
829.982	0.0166360
830.060	0.0166682
830.138	0.0166083
830.216	0.0165259
830.294	0.0165903
830.372	0.0165725
830.450	0.0163586
830.529	0.0164902
830.607	0.0163801
830.685	0.0164907
830.763	0.0163184
830.841	0.0164114
830.919	0.0162374
830.997	0.0163068
831.075	0.0164092
831.154	0.0163777
831.232	0.0162485
831.310	0.0162229
831.388	0.0162973
831.466	0.0163078
831.544	0.0162967
831.622	0.0161763
831.700	0.0161712
831.779	0.0162299
831.857	0.0162090
831.935	0.0162939
832.013	0.0161288
832.091	0.0161200
832.169	0.0159822
832.247	0.0161912
832.325	0.0162810
832.404	0.0161810
832.482	0.0161333
832.560	0.0163337
832.638	0.0162888
832.716	0.0163977
832.794	0.0163847
832.872	0.0160073
832.950	0.0160740
833.029	0.0161749
833.107	0.0162448
833.185	0.0161730
833.263	0.0162492
833.341	0.0162804
833.419	0.0161510
833.497	0.0160751
833.575	0.0162116
833.654	0.0161890
833.732	0.0160254
833.810	0.0161103
833.888	0.0161417
833.966	0.0161436
834.044	0.0161179
834.122	0.0161173
834.200	0.0162383
834.279	0.0162259
834.357	0.0163036
834.435	0.0163381
834.513	0.0163049
834.591	0.0163192
834.669	0.0163978
834.747	0.0162897
834.825	0.0164103
834.904	0.0164159
834.982	0.0163177
835.060	0.0163409
835.138	0.0163231
835.216	0.0164320
835.294	0.0163996
835.372	0.0163591
835.450	0.0164020
835.529	0.0164356
835.607	0.0163634
835.685	0.0162761
835.763	0.0162458
835.841	0.0165028
835.919	0.0164137
835.997	0.0162196
836.075	0.0162852
836.154	0.0161517
836.232	0.0162564
836.310	0.0162183
836.388	0.0162418
836.466	0.0163305
836.544	0.0161687
836.622	0.0161720
836.700	0.0161984
836.779	0.0161857
836.857	0.0161436
836.935	0.0160943
837.013	0.0161141
837.091	0.0161526
837.169	0.0161179
837.247	0.0160585
837.325	0.0160208
837.404	0.0161258
837.482	0.0159951
837.560	0.0160011
837.638	0.0160800
837.716	0.0160346
837.794	0.0161762
837.872	0.0161830
837.950	0.0161829
838.029	0.0161535
838.107	0.0162883
838.185	0.0162405
838.263	0.0161384
838.341	0.0162547
838.419	0.0162326
838.497	0.0161873
838.575	0.0162108
838.654	0.0162634
838.732	0.0162194
838.810	0.0162128
838.888	0.0161015
838.966	0.0162221
839.044	0.0162117
839.122	0.0162766
839.200	0.0163601
839.279	0.0164253
839.357	0.0164744
839.435	0.0164285
839.513	0.0165675
839.591	0.0166074
839.669	0.0164711
839.747	0.0166134
839.825	0.0166354
839.904	0.0165281
839.982	0.0166078
840.060	0.0164887
840.138	0.0164709
840.216	0.0164162
840.294	0.0164418
840.372	0.0161919
840.450	0.0162936
840.529	0.0161966
840.607	0.0160213
840.685	0.0160757
840.763	0.0159645
840.841	0.0158428
840.919	0.0159431
840.997	0.0158417
841.075	0.0159864
841.154	0.0158222
841.232	0.0157541
841.310	0.0157830
841.388	0.0158569
841.466	0.0157650
841.544	0.0159090
841.622	0.0161459
841.700	0.0159312
841.779	0.0160632
841.857	0.0162109
841.935	0.0161298
842.013	0.0161469
842.091	0.0162407
842.169	0.0162334
842.247	0.0162093
842.325	0.0161777
842.404	0.0162563
842.482	0.0164988
842.560	0.0163574
842.638	0.0161509
842.716	0.0163324
842.794	0.0164404
842.872	0.0162898
842.950	0.0162783
843.029	0.0162805
843.107	0.0163282
843.185	0.0164190
843.263	0.0163586
843.341	0.0162906
843.419	0.0161893
843.497	0.0161873
843.575	0.0161859
843.654	0.0161839
843.732	0.0161507
843.810	0.0162170
843.888	0.0161316
843.966	0.0160521
844.044	0.0162036
844.122	0.0160403
844.200	0.0161498
844.279	0.0161240
844.357	0.0162312
844.435	0.0161662
844.513	0.0163390
844.591	0.0163675
844.669	0.0162657
844.747	0.0163248
844.825	0.0164192
844.904	0.0163378
844.982	0.0162482
845.060	0.0162560
845.138	0.0163454
845.216	0.0162261
845.294	0.0162164
845.372	0.0162003
845.450	0.0161426
845.529	0.0161956
845.607	0.0160182
845.685	0.0160799
845.763	0.0161668
845.841	0.0159479
845.919	0.0159377
845.997	0.0158717
846.075	0.0159193
846.154	0.0158761
846.232	0.0158939
846.310	0.0158749
846.388	0.0157006
846.466	0.0157755
846.544	0.0158775
846.622	0.0159370
846.700	0.0160210
846.779	0.0159805
846.857	0.0161066
846.935	0.0160014
847.013	0.0160287
847.091	0.0160472
847.169	0.0162094
847.247	0.0164095
847.325	0.0163206
847.404	0.0164221
847.482	0.0163956
847.560	0.0164780
847.638	0.0164551
847.716	0.0163389
847.794	0.0164050
847.872	0.0162878
847.950	0.0163671
848.029	0.0164700
848.107	0.0165409
848.185	0.0163504
848.263	0.0162405
848.341	0.0164461
848.419	0.0162566
848.497	0.0162018
848.575	0.0162973
848.654	0.0163477
848.732	0.0163657
848.810	0.0162914
848.888	0.0163406
848.966	0.0162984
849.044	0.0162097
849.122	0.0162276
849.200	0.0162432
849.279	0.0163088
849.357	0.0162354
849.435	0.0160902
849.513	0.0162426
849.591	0.0163366
849.669	0.0160299
849.747	0.0161396
849.825	0.0161133
849.904	0.0161026
849.982	0.0159729
850.060	0.0159672
850.138	0.0159486
850.216	0.0160316
850.294	0.0159962
850.372	0.0158659
850.450	0.0158832
850.529	0.0158824
850.607	0.0158967
850.685	0.0159682
850.763	0.0159381
850.841	0.0159817
850.919	0.0160273
850.997	0.0160270
851.075	0.0161378
851.154	0.0161080
851.232	0.0162751
851.310	0.0162382
851.388	0.0162810
851.466	0.0162404
851.544	0.0162520
851.622	0.0164089
851.700	0.0164096
851.779	0.0162795
851.857	0.0164305
851.935	0.0163178
852.013	0.0163226
852.091	0.0164239
852.169	0.0164319
852.247	0.0163737
852.325	0.0163410
852.404	0.0164573
852.482	0.0163277
852.560	0.0162193
852.638	0.0163342
852.716	0.0162717
852.794	0.0163564
852.872	0.0163866
852.950	0.0164126
853.029	0.0163000
853.107	0.0162003
853.185	0.0161000
853.263	0.0162074
853.341	0.0163452
853.419	0.0161135
853.497	0.0161173
853.575	0.0161366
853.654	0.0161435
853.732	0.0161981
853.810	0.0161377
853.888	0.0161819
853.966	0.0162149
854.044	0.0162854
854.122	0.0161662
854.200	0.0161533
854.279	0.0161645
854.357	0.0161471
854.435	0.0160489
854.513	0.0160993
854.591	0.0160870
854.669	0.0160624
854.747	0.0159966
854.825	0.0159878
854.904	0.0160121
854.982	0.0161240
855.060	0.0159682
855.138	0.0159910
855.216	0.0159585
855.294	0.0158646
855.372	0.0160221
855.450	0.0159822
855.529	0.0160094
855.607	0.0160721
855.685	0.0160235
855.763	0.0159920
855.841	0.0160320
855.919	0.0161158
855.997	0.0161055
856.075	0.0161938
856.154	0.0163536
856.232	0.0163493
856.310	0.0164308
856.388	0.0165999
856.466	0.0165713
856.544	0.0164834
856.622	0.0166234
856.700	0.0165714
856.779	0.0166743
856.857	0.0166464
856.935	0.0165231
857.013	0.0165978
857.091	0.0163914
857.169	0.0165794
857.247	0.0164920
857.325	0.0163937
857.404	0.0162839
857.482	0.0162775
857.560	0.0163660
857.638	0.0163899
857.716	0.0162075
857.794	0.0160789
857.872	0.0161732
857.950	0.0161885
858.029	0.0161565
858.107	0.0162705
858.185	0.0161673
858.263	0.0163422
858.341	0.0163489
858.419	0.0162366
858.497	0.0162047
858.575	0.0162459
858.654	0.0162212
858.732	0.0160982
858.810	0.0160566
858.888	0.0160826
858.966	0.0160358
859.044	0.0160566
859.122	0.0159100
859.200	0.0159892
859.279	0.0159409
859.357	0.0160440
859.435	0.0159540
859.513	0.0160141
859.591	0.0158643
859.669	0.0158482
859.747	0.0160277
859.825	0.0158535
859.904	0.0158834
859.982	0.0159616
860.060	0.0158489
860.138	0.0160141
860.216	0.0160740
860.294	0.0160413
860.372	0.0161377
860.450	0.0160139
860.529	0.0161919
860.607	0.0162521
860.685	0.0163292
860.763	0.0163013
860.841	0.0165041
860.919	0.0164757
860.997	0.0163593
861.075	0.0165293
861.154	0.0165894
861.232	0.0165016
861.310	0.0165393
861.388	0.0164317
861.466	0.0165860
861.544	0.0164166
861.622	0.0165390
861.700	0.0164853
861.779	0.0166174
861.857	0.0164661
861.935	0.0164607
862.013	0.0164002
862.091	0.0163994
862.169	0.0163344
862.247	0.0163744
862.325	0.0162064
862.404	0.0162310
862.482	0.0161854
862.560	0.0161345
862.638	0.0160786
862.716	0.0161445
862.794	0.0159561
862.872	0.0161768
862.950	0.0160263
863.029	0.0160535
863.107	0.0161357
863.185	0.0160274
863.263	0.0159768
863.341	0.0160983
863.419	0.0160569
863.497	0.0160967
863.575	0.0162123
863.654	0.0162619
863.732	0.0160082
863.810	0.0159728
863.888	0.0161114
863.966	0.0161336
864.044	0.0162040
864.122	0.0162115
864.200	0.0161650
864.279	0.0162234
864.357	0.0162476
864.435	0.0161588
864.513	0.0162096
864.591	0.0162397
864.669	0.0160201
864.747	0.0161893
864.825	0.0162067
864.904	0.0161767
864.982	0.0161996
865.060	0.0160970
865.138	0.0161571
865.216	0.0161719
865.294	0.0161537
865.372	0.0160755
865.450	0.0161617
865.529	0.0162203
865.607	0.0162629
865.685	0.0162377
865.763	0.0162161
865.841	0.0161700
865.919	0.0162798
865.997	0.0160755
866.075	0.0162122
866.154	0.0161332
866.232	0.0161448
866.310	0.0162212
866.388	0.0160961
866.466	0.0162365
866.544	0.0162168
866.622	0.0161462
866.700	0.0163136
866.779	0.0161414
866.857	0.0163010
866.935	0.0163121
867.013	0.0162875
867.091	0.0162405
867.169	0.0163391
867.247	0.0163864
867.325	0.0162202
867.404	0.0162586
867.482	0.0165184
867.560	0.0162916
867.638	0.0163674
867.716	0.0163992
867.794	0.0162730
867.872	0.0163287
867.950	0.0162841
868.029	0.0160522
868.107	0.0161802
868.185	0.0161326
868.263	0.0162862
868.341	0.0161569
868.419	0.0160676
868.497	0.0160141
868.575	0.0161118
868.654	0.0159126
868.732	0.0160477
868.810	0.0161287
868.888	0.0160119
868.966	0.0162167
869.044	0.0159789
869.122	0.0161040
869.200	0.0159961
869.279	0.0160123
869.357	0.0161913
869.435	0.0159512
869.513	0.0161488
869.591	0.0163188
869.669	0.0163384
869.747	0.0161467
869.825	0.0160968
869.904	0.0160994
869.982	0.0162825
870.060	0.0161216
870.138	0.0161865
870.216	0.0162750
870.294	0.0161828
870.372	0.0161366
870.450	0.0160715
870.529	0.0160599
870.607	0.0159581
870.685	0.0158883
870.763	0.0158243
870.841	0.0158796
870.919	0.0160143
870.997	0.0159994
871.075	0.0159756
871.154	0.0160217
871.232	0.0160406
871.310	0.0160533
871.388	0.0160776
871.466	0.0162402
871.544	0.0161053
871.622	0.0163954
871.700	0.0164278
871.779	0.0163448
871.857	0.0163482
871.935	0.0166273
872.013	0.0165837
872.091	0.0166957
872.169	0.0165920
872.247	0.0166505
872.325	0.0166388
872.404	0.0166714
872.482	0.0166299
872.560	0.0166475
872.638	0.0165379
872.716	0.0164980
872.794	0.0164973
872.872	0.0165005
872.950	0.0163802
873.029	0.0163461
873.107	0.0163564
873.185	0.0162598
873.263	0.0162637
873.341	0.0163184
873.419	0.0160793
873.497	0.0162130
873.575	0.0160744
873.654	0.0160310
873.732	0.0160056
873.810	0.0160291
873.888	0.0161759
873.966	0.0160129
874.044	0.0159145
874.122	0.0159586
874.200	0.0160407
874.279	0.0159001
874.357	0.0159460
874.435	0.0160189
874.513	0.0159120
874.591	0.0159878
874.669	0.0158820
874.747	0.0157786
874.825	0.0157881
874.904	0.0159561
874.982	0.0158955
875.060	0.0159605
875.138	0.0159226
875.216	0.0158756
875.294	0.0158784
875.372	0.0158073
875.450	0.0157679
875.529	0.0158043
875.607	0.0159304
875.685	0.0157964
875.763	0.0158431
875.841	0.0159650
875.919	0.0160713
875.997	0.0159248
876.075	0.0159518
876.154	0.0162280
876.232	0.0163375
876.310	0.0163986
876.388	0.0163060
876.466	0.0164082
876.544	0.0164842
876.622	0.0165601
876.700	0.0166917
876.779	0.0166187
876.857	0.0169067
876.935	0.0167963
877.013	0.0167265
877.091	0.0166807
877.169	0.0169913
877.247	0.0166582
877.325	0.0167284
877.404	0.0167081
877.482	0.0167137
877.560	0.0166638
877.638	0.0163914
877.716	0.0164365
877.794	0.0163687
877.872	0.0164020
877.950	0.0161792
878.029	0.0162762
878.107	0.0162178
878.185	0.0159965
878.263	0.0160464
878.341	0.0160030
878.419	0.0160297
878.497	0.0160915
878.575	0.0160830
878.654	0.0159946
878.732	0.0160719
878.810	0.0162464
878.888	0.0160318
878.966	0.0162549
879.044	0.0161748
879.122	0.0163224
879.200	0.0164086
879.279	0.0162000
879.357	0.0162414
879.435	0.0163132
879.513	0.0163506
879.591	0.0163419
879.669	0.0162389
879.747	0.0162541
879.825	0.0162661
879.904	0.0160418
879.982	0.0161178
880.060	0.0161504
880.138	0.0160825
880.216	0.0159293
880.294	0.0159132
880.372	0.0157916
880.450	0.0156533
880.529	0.0157095
880.607	0.0157594
880.685	0.0156281
880.763	0.0157767
880.841	0.0157317
880.919	0.0158045
880.997	0.0159288
881.075	0.0159427
881.154	0.0160167
881.232	0.0160824
881.310	0.0163557
881.388	0.0163154
881.466	0.0163824
881.544	0.0165012
881.622	0.0165547
881.700	0.0167097
881.779	0.0166898
881.857	0.0167663
881.935	0.0167484
882.013	0.0168526
882.091	0.0167532
882.169	0.0167785
882.247	0.0167582
882.325	0.0165968
882.404	0.0167635
882.482	0.0166026
882.560	0.0165591
882.638	0.0166031
882.716	0.0165044
882.794	0.0163332
882.872	0.0162934
882.950	0.0162771
883.029	0.0161449
883.107	0.0161442
883.185	0.0160967
883.263	0.0161621
883.341	0.0160876
883.419	0.0161431
883.497	0.0160085
883.575	0.0160291
883.654	0.0161317
883.732	0.0160427
883.810	0.0162351
883.888	0.0161487
883.966	0.0163198
884.044	0.0162885
884.122	0.0162086
884.200	0.0163133
884.279	0.0163268
884.357	0.0161546
884.435	0.0161848
884.513	0.0163103
884.591	0.0161224
884.669	0.0160842
884.747	0.0161885
884.825	0.0160614
884.904	0.0161229
884.982	0.0161253
885.060	0.0160432
885.138	0.0162302
885.216	0.0164767
885.294	0.0163077
885.372	0.0163338
885.450	0.0163105
885.529	0.0161987
885.607	0.0162099
885.685	0.0162846
885.763	0.0162467
885.841	0.0160905
885.919	0.0161211
885.997	0.0162402
886.075	0.0161531
886.154	0.0160526
886.232	0.0161086
886.310	0.0158887
886.388	0.0160146
886.466	0.0160343
886.544	0.0158297
886.622	0.0157456
886.700	0.0157145
886.779	0.0156738
886.857	0.0158038
886.935	0.0158047
887.013	0.0158868
887.091	0.0159066
887.169	0.0159940
887.247	0.0161214
887.325	0.0161579
887.404	0.0162674
887.482	0.0161708
887.560	0.0163320
887.638	0.0164728
887.716	0.0164591
887.794	0.0166460
887.872	0.0164899
887.950	0.0165237
888.029	0.0165639
888.107	0.0167165
888.185	0.0167345
888.263	0.0167130
888.341	0.0167679
888.419	0.0167645
888.497	0.0165373
888.575	0.0166835
888.654	0.0166977
888.732	0.0164796
888.810	0.0164665
888.888	0.0165369
888.966	0.0164815
889.044	0.0163398
889.122	0.0162373
889.200	0.0162235
889.279	0.0162607
889.357	0.0161118
889.435	0.0160846
889.513	0.0160032
889.591	0.0159625
889.669	0.0160332
889.747	0.0158036
889.825	0.0158976
889.904	0.0159261
889.982	0.0159881
890.060	0.0159245
890.138	0.0159351
890.216	0.0160867
890.294	0.0159448
890.372	0.0158779
890.450	0.0159544
890.529	0.0160670
890.607	0.0160629
890.685	0.0161202
890.763	0.0160696
890.841	0.0160578
890.919	0.0162199
890.997	0.0163284
891.075	0.0162790
891.154	0.0163084
891.232	0.0160913
891.310	0.0161805
891.388	0.0163251
891.466	0.0161539
891.544	0.0159634
891.622	0.0160285
891.700	0.0159907
891.779	0.0160120
891.857	0.0159295
891.935	0.0158771
892.013	0.0159197
892.091	0.0158518
892.169	0.0158376
892.247	0.0159975
892.325	0.0160822
892.404	0.0162543
892.482	0.0163808
892.560	0.0165350
892.638	0.0164683
892.716	0.0166055
892.794	0.0166958
892.872	0.0169219
892.950	0.0170039
893.029	0.0169318
893.107	0.0169289
893.185	0.0169556
893.263	0.0168999
893.341	0.0169856
893.419	0.0168948
893.497	0.0169481
893.575	0.0168314
893.654	0.0167017
893.732	0.0166498
893.810	0.0162996
893.888	0.0163979
893.966	0.0161158
894.044	0.0158875
894.122	0.0157514
894.200	0.0155764
894.279	0.0156015
894.357	0.0154258
894.435	0.0153255
894.513	0.0154777
894.591	0.0152264
894.669	0.0153581
894.747	0.0153560
894.825	0.0154651
894.904	0.0156278
894.982	0.0158876
895.060	0.0160347
895.138	0.0161691
895.216	0.0163913
895.294	0.0165674
895.372	0.0166907
895.450	0.0167078
895.529	0.0167260
895.607	0.0166834
895.685	0.0166851
895.763	0.0166814
895.841	0.0164687
895.919	0.0164459
895.997	0.0164451
896.075	0.0162034
896.154	0.0161852
896.232	0.0162138
896.310	0.0160363
896.388	0.0160803
896.466	0.0159293
896.544	0.0159013
896.622	0.0157854
896.700	0.0157387
896.779	0.0158241
896.857	0.0159836
896.935	0.0158505
897.013	0.0158188
897.091	0.0159655
897.169	0.0159525
897.247	0.0161336
897.325	0.0161946
897.404	0.0163772
897.482	0.0165275
897.560	0.0165239
897.638	0.0167505
897.716	0.0168345
897.794	0.0171111
897.872	0.0170690
897.950	0.0169721
898.029	0.0169268
898.107	0.0171316
898.185	0.0169926
898.263	0.0170525
898.341	0.0168623
898.419	0.0166703
898.497	0.0164696
898.575	0.0164511
898.654	0.0162637
898.732	0.0161439
898.810	0.0159602
898.888	0.0157119
898.966	0.0156828
899.044	0.0154737
899.122	0.0154259
899.200	0.0153601
899.279	0.0153664
899.357	0.0152333
899.435	0.0152066
899.513	0.0151940
899.591	0.0151196
899.669	0.0152442
899.747	0.0154160
899.825	0.0154122
899.904	0.0156558
899.982	0.0159615
900.060	0.0161139
900.138	0.0162119
900.216	0.0165469
900.294	0.0167336
900.372	0.0170303
900.450	0.0170616
900.529	0.0172446
900.607	0.0174344
900.685	0.0173373
900.763	0.0172731
900.841	0.0173699
900.919	0.0173821
900.997	0.0172446
901.075	0.0170042
901.154	0.0167637
901.232	0.0166801
901.310	0.0164133
901.388	0.0161671
901.466	0.0160973
901.544	0.0159898
901.622	0.0158573
901.700	0.0156441
901.779	0.0155618
901.857	0.0155946
901.935	0.0155421
902.013	0.0154913
902.091	0.0155431
902.169	0.0155801
902.247	0.0157944
902.325	0.0157571
902.404	0.0159064
902.482	0.0159212
902.560	0.0161016
902.638	0.0160559
902.716	0.0162918
902.794	0.0163750
902.872	0.0163259
902.950	0.0162840
903.029	0.0163470
903.107	0.0163932
903.185	0.0162637
903.263	0.0163532
903.341	0.0162898
903.419	0.0162440
903.497	0.0161655
903.575	0.0162462
903.654	0.0161926
903.732	0.0161937
903.810	0.0163349
903.888	0.0163506
903.966	0.0162376
904.044	0.0162753
904.122	0.0161774
904.200	0.0161860
904.279	0.0163380
904.357	0.0161896
904.435	0.0161334
904.513	0.0162785
904.591	0.0163137
904.669	0.0163817
904.747	0.0162270
904.825	0.0163152
904.904	0.0164439
904.982	0.0166525
905.060	0.0166522
905.138	0.0167752
905.216	0.0167351
905.294	0.0165475
905.372	0.0167073
905.450	0.0166409
905.529	0.0165302
905.607	0.0165833
905.685	0.0163840
905.763	0.0165302
905.841	0.0164607
905.919	0.0162624
905.997	0.0163623
906.075	0.0161905
906.154	0.0161501
906.232	0.0160710
906.310	0.0160742
906.388	0.0160558
906.466	0.0161283
906.544	0.0161154
906.622	0.0159874
906.700	0.0160337
906.779	0.0162045
906.857	0.0160233
906.935	0.0159579
907.013	0.0160096
907.091	0.0159909
907.169	0.0161401
907.247	0.0161426
907.325	0.0160961
907.404	0.0160300
907.482	0.0159918
907.560	0.0160261
907.638	0.0161153
907.716	0.0159526
907.794	0.0161268
907.872	0.0160014
907.950	0.0158179
908.029	0.0159535
908.107	0.0159763
908.185	0.0159298
908.263	0.0157840
908.341	0.0160084
908.419	0.0160390
908.497	0.0160339
908.575	0.0161106
908.654	0.0162373
908.732	0.0161903
908.810	0.0162685
908.888	0.0162597
908.966	0.0162967
909.044	0.0163539
909.122	0.0162807
909.200	0.0163230
909.279	0.0162090
909.357	0.0163235
909.435	0.0164628
909.513	0.0165037
909.591	0.0164632
909.669	0.0165357
909.747	0.0165234
909.825	0.0163844
909.904	0.0165155
909.982	0.0163946
910.060	0.0164674
910.138	0.0163838
910.216	0.0164740
910.294	0.0163901
910.372	0.0162849
910.450	0.0163746
910.529	0.0163489
910.607	0.0161591
910.685	0.0161269
910.763	0.0161433
910.841	0.0162237
910.919	0.0162323
910.997	0.0161317
911.075	0.0162090
911.154	0.0163165
911.232	0.0162843
911.310	0.0162707
911.388	0.0163299
911.466	0.0165028
911.544	0.0164582
911.622	0.0165644
911.700	0.0165220
911.779	0.0164948
911.857	0.0164845
911.935	0.0164000
912.013	0.0165453
912.091	0.0164429
912.169	0.0163219
912.247	0.0161899
912.325	0.0161162
912.404	0.0161839
912.482	0.0159791
912.560	0.0159314
912.638	0.0158443
912.716	0.0157569
912.794	0.0157410
912.872	0.0158226
912.950	0.0157394
913.029	0.0157613
913.107	0.0157545
913.185	0.0158794
913.263	0.0159721
913.341	0.0160767
913.419	0.0159636
913.497	0.0160989
913.575	0.0162698
913.654	0.0162563
913.732	0.0163047
913.810	0.0163167
913.888	0.0161996
913.966	0.0163052
914.044	0.0165245
914.122	0.0164291
914.200	0.0162960
914.279	0.0163587
914.357	0.0163388
914.435	0.0163169
914.513	0.0163950
914.591	0.0164258
914.669	0.0163374
914.747	0.0162244
914.825	0.0163176
914.904	0.0162920
914.982	0.0162592
915.060	0.0161961
915.138	0.0162038
915.216	0.0161329
915.294	0.0161972
915.372	0.0161411
915.450	0.0162115
915.529	0.0160359
915.607	0.0160751
915.685	0.0161134
915.763	0.0162253
915.841	0.0162384
915.919	0.0162212
915.997	0.0161481
916.075	0.0162804
916.154	0.0161437
916.232	0.0161967
916.310	0.0162233
916.388	0.0162865
916.466	0.0165330
916.544	0.0164348
916.622	0.0164210
916.700	0.0163452
916.779	0.0164254
916.857	0.0165086
916.935	0.0165395
917.013	0.0164933
917.091	0.0164635
917.169	0.0165106
917.247	0.0163450
917.325	0.0161958
917.404	0.0163857
917.482	0.0163579
917.560	0.0162966
917.638	0.0160806
917.716	0.0161945
917.794	0.0161578
917.872	0.0161414
917.950	0.0159347
918.029	0.0160336
918.107	0.0159621
918.185	0.0160221
918.263	0.0159927
918.341	0.0159585
918.419	0.0158849
918.497	0.0159821
918.575	0.0161127
918.654	0.0160238
918.732	0.0160847
918.810	0.0160874
918.888	0.0162424
918.966	0.0161808
919.044	0.0162736
919.122	0.0161798
919.200	0.0162104
919.279	0.0164343
919.357	0.0165383
919.435	0.0163279
919.513	0.0164325
919.591	0.0164941
919.669	0.0164809
919.747	0.0164233
919.825	0.0163575
919.904	0.0164305
