05/20/2022	20:52:27	Ver.	4.1	UNKNOWN
Optical Delay	599.981738	Delta X		0.078125	Sweeps	1	Scan Rate	0/0
Coordinates	Axis 1	NaN	Axis 2	NaN	Axis 3	NaN	Axis 4	NaN	Axis 5	NaN	Axis 6	0.000000
TX Power	0.000000	RX Power	0.000000

599.982	0.0154630
600.060	0.0154378
600.138	0.0154621
600.216	0.0153817
600.294	0.0155122
600.372	0.0154354
600.450	0.0152813
600.529	0.0154213
600.607	0.0154597
600.685	0.0153763
600.763	0.0153741
600.841	0.0153962
600.919	0.0155390
600.997	0.0154129
601.075	0.0154044
601.154	0.0153970
601.232	0.0155056
601.310	0.0155551
601.388	0.0153568
601.466	0.0153424
601.544	0.0153596
601.622	0.0153892
601.700	0.0154445
601.779	0.0154254
601.857	0.0154168
601.935	0.0153983
602.013	0.0154385
602.091	0.0154904
602.169	0.0155017
602.247	0.0154144
602.325	0.0154370
602.404	0.0154479
602.482	0.0154989
602.560	0.0154086
602.638	0.0155611
602.716	0.0154478
602.794	0.0153960
602.872	0.0154705
602.950	0.0153613
603.029	0.0153618
603.107	0.0155299
603.185	0.0153626
603.263	0.0154128
603.341	0.0154629
603.419	0.0153739
603.497	0.0154660
603.575	0.0154767
603.654	0.0154208
603.732	0.0154950
603.810	0.0154008
603.888	0.0154281
603.966	0.0154420
604.044	0.0156253
604.122	0.0155862
604.200	0.0154221
604.279	0.0154367
604.357	0.0155405
604.435	0.0155050
604.513	0.0154934
604.591	0.0153527
604.669	0.0153378
604.747	0.0153738
604.825	0.0154807
604.904	0.0154649
604.982	0.0155019
605.060	0.0155084
605.138	0.0153954
605.216	0.0153790
605.294	0.0154801
605.372	0.0155346
605.450	0.0153888
605.529	0.0154354
605.607	0.0154156
605.685	0.0154214
605.763	0.0155864
605.841	0.0154258
605.919	0.0153846
605.997	0.0154372
606.075	0.0154586
606.154	0.0154925
606.232	0.0155136
606.310	0.0154353
606.388	0.0153548
606.466	0.0154222
606.544	0.0154185
606.622	0.0156054
606.700	0.0155215
606.779	0.0153442
606.857	0.0155073
606.935	0.0154961
607.013	0.0154162
607.091	0.0153766
607.169	0.0155374
607.247	0.0155383
607.325	0.0155106
607.404	0.0154807
607.482	0.0155489
607.560	0.0155525
607.638	0.0153678
607.716	0.0153167
607.794	0.0154073
607.872	0.0155661
607.950	0.0154577
608.029	0.0154432
608.107	0.0154440
608.185	0.0154884
608.263	0.0154290
608.341	0.0154842
608.419	0.0154887
608.497	0.0153590
608.575	0.0153907
608.654	0.0155005
608.732	0.0154713
608.810	0.0155184
608.888	0.0153323
608.966	0.0154702
609.044	0.0155332
609.122	0.0153791
609.200	0.0155332
609.279	0.0155315
609.357	0.0154684
609.435	0.0155429
609.513	0.0154736
609.591	0.0155362
609.669	0.0155458
609.747	0.0154671
609.825	0.0156071
609.904	0.0153857
609.982	0.0153625
610.060	0.0155829
610.138	0.0153958
610.216	0.0153841
610.294	0.0153591
610.372	0.0156674
610.450	0.0154453
610.529	0.0152695
610.607	0.0154774
610.685	0.0155527
610.763	0.0154862
610.841	0.0154988
610.919	0.0154589
610.997	0.0153638
611.075	0.0154206
611.154	0.0153175
611.232	0.0155424
611.310	0.0155423
611.388	0.0155617
611.466	0.0154136
611.544	0.0155030
611.622	0.0154104
611.700	0.0154764
611.779	0.0154975
611.857	0.0153461
611.935	0.0156390
612.013	0.0155561
612.091	0.0154615
612.169	0.0154101
612.247	0.0153818
612.325	0.0153317
612.404	0.0153310
612.482	0.0154479
612.560	0.0154250
612.638	0.0153893
612.716	0.0154887
612.794	0.0154299
612.872	0.0155304
612.950	0.0154422
613.029	0.0153962
613.107	0.0154902
613.185	0.0155030
613.263	0.0155223
613.341	0.0154282
613.419	0.0154073
613.497	0.0154134
613.575	0.0154919
613.654	0.0154165
613.732	0.0154733
613.810	0.0155414
613.888	0.0154440
613.966	0.0155735
614.044	0.0153990
614.122	0.0155334
614.200	0.0154114
614.279	0.0154192
614.357	0.0154879
614.435	0.0154951
614.513	0.0153605
614.591	0.0154492
614.669	0.0153384
614.747	0.0154749
614.825	0.0154712
614.904	0.0155049
614.982	0.0154797
615.060	0.0154704
615.138	0.0154279
615.216	0.0154522
615.294	0.0154437
615.372	0.0154708
615.450	0.0153578
615.529	0.0154257
615.607	0.0154887
615.685	0.0154395
615.763	0.0154640
615.841	0.0154158
615.919	0.0153798
615.997	0.0153263
616.075	0.0153111
616.154	0.0154209
616.232	0.0154570
616.310	0.0155154
616.388	0.0155542
616.466	0.0154004
616.544	0.0154034
616.622	0.0154618
616.700	0.0152999
616.779	0.0154133
616.857	0.0154668
616.935	0.0154640
617.013	0.0153770
617.091	0.0153493
617.169	0.0155345
617.247	0.0154929
617.325	0.0153564
617.404	0.0155619
617.482	0.0153904
617.560	0.0154043
617.638	0.0155210
617.716	0.0152760
617.794	0.0154990
617.872	0.0155364
617.950	0.0154720
618.029	0.0154820
618.107	0.0155019
618.185	0.0153477
618.263	0.0154109
618.341	0.0155254
618.419	0.0155267
618.497	0.0155284
618.575	0.0154862
618.654	0.0153472
618.732	0.0154861
618.810	0.0155560
618.888	0.0154692
618.966	0.0154529
619.044	0.0154774
619.122	0.0153254
619.200	0.0154051
619.279	0.0154169
619.357	0.0154018
619.435	0.0153200
619.513	0.0153750
619.591	0.0153133
619.669	0.0154401
619.747	0.0153613
619.825	0.0154417
619.904	0.0155519
619.982	0.0154108
620.060	0.0153701
620.138	0.0154066
620.216	0.0154824
620.294	0.0154326
620.372	0.0154739
620.450	0.0155037
620.529	0.0154435
620.607	0.0154857
620.685	0.0153700
620.763	0.0154158
620.841	0.0154568
620.919	0.0154703
620.997	0.0155710
621.075	0.0154350
621.154	0.0155373
621.232	0.0155030
621.310	0.0153566
621.388	0.0154879
621.466	0.0154543
621.544	0.0154375
621.622	0.0155945
621.700	0.0156342
621.779	0.0154964
621.857	0.0153400
621.935	0.0155270
622.013	0.0154838
622.091	0.0154507
622.169	0.0154463
622.247	0.0155032
622.325	0.0154130
622.404	0.0155504
622.482	0.0154896
622.560	0.0156348
622.638	0.0155975
622.716	0.0153828
622.794	0.0153625
622.872	0.0154084
622.950	0.0153590
623.029	0.0155376
623.107	0.0153368
623.185	0.0153790
623.263	0.0154939
623.341	0.0154295
623.419	0.0154185
623.497	0.0153742
623.575	0.0154002
623.654	0.0153934
623.732	0.0154223
623.810	0.0155228
623.888	0.0154218
623.966	0.0154111
624.044	0.0153926
624.122	0.0153477
624.200	0.0153496
624.279	0.0153757
624.357	0.0155001
624.435	0.0153384
624.513	0.0153022
624.591	0.0153683
624.669	0.0154239
624.747	0.0154371
624.825	0.0154050
624.904	0.0153664
624.982	0.0153455
625.060	0.0154116
625.138	0.0155508
625.216	0.0156376
625.294	0.0153931
625.372	0.0153373
625.450	0.0153872
625.529	0.0153481
625.607	0.0154698
625.685	0.0154279
625.763	0.0155233
625.841	0.0153703
625.919	0.0153763
625.997	0.0153508
626.075	0.0154226
626.154	0.0153063
626.232	0.0154114
626.310	0.0153803
626.388	0.0153240
626.466	0.0154672
626.544	0.0155724
626.622	0.0154393
626.700	0.0154866
626.779	0.0154038
626.857	0.0153957
626.935	0.0155347
627.013	0.0154849
627.091	0.0154838
627.169	0.0155053
627.247	0.0153677
627.325	0.0154920
627.404	0.0154316
627.482	0.0154553
627.560	0.0154431
627.638	0.0154383
627.716	0.0154343
627.794	0.0154050
627.872	0.0155437
627.950	0.0154092
628.029	0.0155605
628.107	0.0155468
628.185	0.0154375
628.263	0.0154343
628.341	0.0153709
628.419	0.0154527
628.497	0.0154211
628.575	0.0154025
628.654	0.0154855
628.732	0.0155029
628.810	0.0154644
628.888	0.0153508
628.966	0.0152453
629.044	0.0152866
629.122	0.0154013
629.200	0.0154201
629.279	0.0154150
629.357	0.0154712
629.435	0.0153398
629.513	0.0155094
629.591	0.0155624
629.669	0.0155696
629.747	0.0154998
629.825	0.0152100
629.904	0.0154063
629.982	0.0154648
630.060	0.0153977
630.138	0.0154683
630.216	0.0154743
630.294	0.0154416
630.372	0.0154672
630.450	0.0154587
630.529	0.0153661
630.607	0.0153668
630.685	0.0154607
630.763	0.0154443
630.841	0.0153059
630.919	0.0156163
630.997	0.0154825
631.075	0.0154388
631.154	0.0154499
631.232	0.0155196
631.310	0.0154179
631.388	0.0153216
631.466	0.0155369
631.544	0.0154820
631.622	0.0155081
631.700	0.0154697
631.779	0.0154252
631.857	0.0155584
631.935	0.0155797
632.013	0.0155528
632.091	0.0154990
632.169	0.0154034
632.247	0.0154102
632.325	0.0154483
632.404	0.0154269
632.482	0.0154622
632.560	0.0154758
632.638	0.0155003
632.716	0.0153749
632.794	0.0153957
632.872	0.0155746
632.950	0.0155251
633.029	0.0154061
633.107	0.0154303
633.185	0.0155044
633.263	0.0155506
633.341	0.0154952
633.419	0.0154317
633.497	0.0154794
633.575	0.0155680
633.654	0.0154314
633.732	0.0154500
633.810	0.0154367
633.888	0.0154446
633.966	0.0155582
634.044	0.0153938
634.122	0.0154668
634.200	0.0154376
634.279	0.0152999
634.357	0.0152592
634.435	0.0152746
634.513	0.0154449
634.591	0.0154237
634.669	0.0154012
634.747	0.0153532
634.825	0.0153947
634.904	0.0155434
634.982	0.0154012
635.060	0.0154023
635.138	0.0153403
635.216	0.0153838
635.294	0.0154541
635.372	0.0155428
635.450	0.0154447
635.529	0.0154955
635.607	0.0153848
635.685	0.0154456
635.763	0.0154648
635.841	0.0156307
635.919	0.0155132
635.997	0.0154607
636.075	0.0155080
636.154	0.0155105
636.232	0.0154265
636.310	0.0155271
636.388	0.0154809
636.466	0.0153973
636.544	0.0155045
636.622	0.0154897
636.700	0.0154153
636.779	0.0154367
636.857	0.0154984
636.935	0.0154757
637.013	0.0155017
637.091	0.0154683
637.169	0.0154527
637.247	0.0154683
637.325	0.0155410
637.404	0.0154019
637.482	0.0155116
637.560	0.0155244
637.638	0.0155328
637.716	0.0154778
637.794	0.0153439
637.872	0.0153613
637.950	0.0156010
638.029	0.0155016
638.107	0.0154797
638.185	0.0154903
638.263	0.0154176
638.341	0.0155295
638.419	0.0153825
638.497	0.0154401
638.575	0.0155077
638.654	0.0153983
638.732	0.0154773
638.810	0.0154441
638.888	0.0154814
638.966	0.0155010
639.044	0.0154565
639.122	0.0154189
639.200	0.0154920
639.279	0.0153806
639.357	0.0153925
639.435	0.0154624
639.513	0.0154210
639.591	0.0153029
639.669	0.0153220
639.747	0.0153210
639.825	0.0153754
639.904	0.0154440
639.982	0.0154085
640.060	0.0155181
640.138	0.0154679
640.216	0.0154138
640.294	0.0153481
640.372	0.0155231
640.450	0.0153958
640.529	0.0153649
640.607	0.0154593
640.685	0.0154796
640.763	0.0154812
640.841	0.0155656
640.919	0.0154830
640.997	0.0153167
641.075	0.0155238
641.154	0.0155575
641.232	0.0153247
641.310	0.0153356
641.388	0.0155136
641.466	0.0154671
641.544	0.0154340
641.622	0.0154470
641.700	0.0154255
641.779	0.0153001
641.857	0.0154419
641.935	0.0155222
642.013	0.0154095
642.091	0.0154570
642.169	0.0154575
642.247	0.0154385
642.325	0.0153654
642.404	0.0155436
642.482	0.0155173
642.560	0.0154642
642.638	0.0154939
642.716	0.0154083
642.794	0.0154426
642.872	0.0156036
642.950	0.0154060
643.029	0.0154619
643.107	0.0154504
643.185	0.0155402
643.263	0.0155805
643.341	0.0154753
643.419	0.0153035
643.497	0.0155083
643.575	0.0155281
643.654	0.0153923
643.732	0.0153815
643.810	0.0154972
643.888	0.0154874
643.966	0.0154306
644.044	0.0155723
644.122	0.0154508
644.200	0.0153259
644.279	0.0154883
644.357	0.0154222
644.435	0.0154991
644.513	0.0154251
644.591	0.0153506
644.669	0.0155503
644.747	0.0155793
644.825	0.0155134
644.904	0.0154484
644.982	0.0153577
645.060	0.0153913
645.138	0.0154802
645.216	0.0154487
645.294	0.0153864
645.372	0.0155454
645.450	0.0154733
645.529	0.0154806
645.607	0.0154732
645.685	0.0155489
645.763	0.0154656
645.841	0.0155127
645.919	0.0154761
645.997	0.0153790
646.075	0.0155452
646.154	0.0154472
646.232	0.0154656
646.310	0.0154519
646.388	0.0154648
646.466	0.0153488
646.544	0.0154629
646.622	0.0154598
646.700	0.0153749
646.779	0.0154775
646.857	0.0154272
646.935	0.0154060
647.013	0.0153862
647.091	0.0155168
647.169	0.0154977
647.247	0.0155485
647.325	0.0153352
647.404	0.0154838
647.482	0.0154401
647.560	0.0155242
647.638	0.0154601
647.716	0.0154575
647.794	0.0154559
647.872	0.0155120
647.950	0.0153909
648.029	0.0153139
648.107	0.0152679
648.185	0.0155209
648.263	0.0155153
648.341	0.0154254
648.419	0.0155170
648.497	0.0153690
648.575	0.0154502
648.654	0.0154937
648.732	0.0155092
648.810	0.0153889
648.888	0.0153796
648.966	0.0155069
649.044	0.0153947
649.122	0.0153808
649.200	0.0154613
649.279	0.0154295
649.357	0.0153844
649.435	0.0154089
649.513	0.0154456
649.591	0.0154902
649.669	0.0154642
649.747	0.0153415
649.825	0.0153685
649.904	0.0154966
649.982	0.0154642
650.060	0.0153680
650.138	0.0153806
650.216	0.0154179
650.294	0.0155305
650.372	0.0153820
650.450	0.0154102
650.529	0.0155043
650.607	0.0153640
650.685	0.0154297
650.763	0.0153805
650.841	0.0153135
650.919	0.0154146
650.997	0.0154708
651.075	0.0154530
651.154	0.0155071
651.232	0.0154375
651.310	0.0153658
651.388	0.0153545
651.466	0.0154336
651.544	0.0154203
651.622	0.0153873
651.700	0.0154583
651.779	0.0153938
651.857	0.0151864
651.935	0.0154070
652.013	0.0154677
652.091	0.0153417
652.169	0.0154314
652.247	0.0154597
652.325	0.0154327
652.404	0.0154219
652.482	0.0153754
652.560	0.0152807
652.638	0.0155578
652.716	0.0155055
652.794	0.0154013
652.872	0.0154656
652.950	0.0155328
653.029	0.0154243
653.107	0.0153805
653.185	0.0154419
653.263	0.0154832
653.341	0.0155213
653.419	0.0153923
653.497	0.0153955
653.575	0.0153700
653.654	0.0154588
653.732	0.0153932
653.810	0.0153584
653.888	0.0153631
653.966	0.0152757
654.044	0.0153455
654.122	0.0154968
654.200	0.0154861
654.279	0.0154447
654.357	0.0153771
654.435	0.0153009
654.513	0.0152673
654.591	0.0153144
654.669	0.0153133
654.747	0.0155022
654.825	0.0153692
654.904	0.0153279
654.982	0.0153439
655.060	0.0154626
655.138	0.0154390
655.216	0.0153847
655.294	0.0153412
655.372	0.0153104
655.450	0.0155672
655.529	0.0155495
655.607	0.0154814
655.685	0.0154252
655.763	0.0153778
655.841	0.0152896
655.919	0.0154514
655.997	0.0155329
656.075	0.0153928
656.154	0.0154453
656.232	0.0154777
656.310	0.0154382
656.388	0.0154671
656.466	0.0154063
656.544	0.0152776
656.622	0.0155077
656.700	0.0154443
656.779	0.0154051
656.857	0.0152918
656.935	0.0153735
657.013	0.0155455
657.091	0.0155101
657.169	0.0154515
657.247	0.0154783
657.325	0.0153234
657.404	0.0154579
657.482	0.0155481
657.560	0.0154840
657.638	0.0153942
657.716	0.0154832
657.794	0.0155975
657.872	0.0154503
657.950	0.0154267
658.029	0.0154005
658.107	0.0154312
658.185	0.0154143
658.263	0.0153968
658.341	0.0154244
658.419	0.0154528
658.497	0.0154597
658.575	0.0153787
658.654	0.0154247
658.732	0.0154623
658.810	0.0153897
658.888	0.0153226
658.966	0.0155183
659.044	0.0153547
659.122	0.0154285
659.200	0.0155270
659.279	0.0153802
659.357	0.0154649
659.435	0.0154568
659.513	0.0154107
659.591	0.0154855
659.669	0.0152749
659.747	0.0154617
659.825	0.0154689
659.904	0.0154672
659.982	0.0155587
660.060	0.0155087
660.138	0.0154162
660.216	0.0153835
660.294	0.0155352
660.372	0.0154222
660.450	0.0155036
660.529	0.0154926
660.607	0.0154148
660.685	0.0153782
660.763	0.0154104
660.841	0.0156054
660.919	0.0154682
660.997	0.0154327
661.075	0.0153080
661.154	0.0155325
661.232	0.0154816
661.310	0.0154520
661.388	0.0155863
661.466	0.0153934
661.544	0.0153373
661.622	0.0155510
661.700	0.0154356
661.779	0.0154169
661.857	0.0153571
661.935	0.0153826
662.013	0.0155048
662.091	0.0153873
662.169	0.0155817
662.247	0.0153687
662.325	0.0154839
662.404	0.0154194
662.482	0.0153948
662.560	0.0154134
662.638	0.0154344
662.716	0.0153708
662.794	0.0155445
662.872	0.0155875
662.950	0.0154038
663.029	0.0153996
663.107	0.0154465
663.185	0.0154008
663.263	0.0154681
663.341	0.0154681
663.419	0.0154435
663.497	0.0155869
663.575	0.0155373
663.654	0.0154759
663.732	0.0154495
663.810	0.0154999
663.888	0.0154765
663.966	0.0155592
664.044	0.0154927
664.122	0.0153477
664.200	0.0154160
664.279	0.0155468
664.357	0.0154175
664.435	0.0155691
664.513	0.0156368
664.591	0.0155143
664.669	0.0154862
664.747	0.0155813
664.825	0.0155111
664.904	0.0154984
664.982	0.0155936
665.060	0.0154968
665.138	0.0154066
665.216	0.0154241
665.294	0.0155736
665.372	0.0154429
665.450	0.0154759
665.529	0.0154697
665.607	0.0154910
665.685	0.0154005
665.763	0.0155147
665.841	0.0155630
665.919	0.0154155
665.997	0.0154527
666.075	0.0153567
666.154	0.0152996
666.232	0.0152961
666.310	0.0154689
666.388	0.0153897
666.466	0.0154667
666.544	0.0153405
666.622	0.0153748
666.700	0.0153848
666.779	0.0155011
666.857	0.0154672
666.935	0.0155013
667.013	0.0154340
667.091	0.0153783
667.169	0.0154841
667.247	0.0154534
667.325	0.0155180
667.404	0.0154095
667.482	0.0153500
667.560	0.0154858
667.638	0.0153066
667.716	0.0154642
667.794	0.0155410
667.872	0.0154137
667.950	0.0153353
668.029	0.0152617
668.107	0.0153644
668.185	0.0153661
668.263	0.0153981
668.341	0.0154333
668.419	0.0155953
668.497	0.0154849
668.575	0.0155357
668.654	0.0154388
668.732	0.0153352
668.810	0.0156139
668.888	0.0154552
668.966	0.0154731
669.044	0.0154810
669.122	0.0154596
669.200	0.0153877
669.279	0.0155128
669.357	0.0154033
669.435	0.0154559
669.513	0.0154066
669.591	0.0154155
669.669	0.0153963
669.747	0.0155022
669.825	0.0155189
669.904	0.0154360
669.982	0.0153700
670.060	0.0153728
670.138	0.0154539
670.216	0.0154471
670.294	0.0154173
670.372	0.0156480
670.450	0.0154282
670.529	0.0154318
670.607	0.0154150
670.685	0.0155512
670.763	0.0154520
670.841	0.0153773
670.919	0.0153888
670.997	0.0155023
671.075	0.0153806
671.154	0.0153572
671.232	0.0155177
671.310	0.0154454
671.388	0.0154537
671.466	0.0155317
671.544	0.0154742
671.622	0.0154288
671.700	0.0152422
671.779	0.0155478
671.857	0.0155038
671.935	0.0154863
672.013	0.0154076
672.091	0.0154356
672.169	0.0154359
672.247	0.0155056
672.325	0.0154828
672.404	0.0154566
672.482	0.0154565
672.560	0.0154991
672.638	0.0154025
672.716	0.0154039
672.794	0.0155683
672.872	0.0154885
672.950	0.0154780
673.029	0.0153749
673.107	0.0154252
673.185	0.0153941
673.263	0.0154714
673.341	0.0155650
673.419	0.0154948
673.497	0.0152622
673.575	0.0153820
673.654	0.0154073
673.732	0.0156678
673.810	0.0153973
673.888	0.0154509
673.966	0.0153556
674.044	0.0152526
674.122	0.0154989
674.200	0.0155069
674.279	0.0153872
674.357	0.0152709
674.435	0.0154127
674.513	0.0154227
674.591	0.0153694
674.669	0.0153646
674.747	0.0155502
674.825	0.0153969
674.904	0.0154626
674.982	0.0153361
675.060	0.0154773
675.138	0.0154357
675.216	0.0154703
675.294	0.0153880
675.372	0.0154962
675.450	0.0152711
675.529	0.0153260
675.607	0.0153609
675.685	0.0153704
675.763	0.0153529
675.841	0.0154638
675.919	0.0155017
675.997	0.0154079
676.075	0.0154205
676.154	0.0154157
676.232	0.0152882
676.310	0.0152313
676.388	0.0154115
676.466	0.0153686
676.544	0.0153165
676.622	0.0153174
676.700	0.0153420
676.779	0.0154321
676.857	0.0154417
676.935	0.0154398
677.013	0.0153572
677.091	0.0153363
677.169	0.0154910
677.247	0.0153215
677.325	0.0152888
677.404	0.0154364
677.482	0.0154096
677.560	0.0152019
677.638	0.0153477
677.716	0.0155300
677.794	0.0153602
677.872	0.0154165
677.950	0.0153909
678.029	0.0153799
678.107	0.0153388
678.185	0.0154214
678.263	0.0154373
678.341	0.0152390
678.419	0.0153888
678.497	0.0155243
678.575	0.0154039
678.654	0.0153652
678.732	0.0154515
678.810	0.0152845
678.888	0.0152579
678.966	0.0154327
679.044	0.0153795
679.122	0.0153081
679.200	0.0154768
679.279	0.0154002
679.357	0.0153648
679.435	0.0153632
679.513	0.0155116
679.591	0.0154328
679.669	0.0153614
679.747	0.0153767
679.825	0.0154782
679.904	0.0154231
679.982	0.0153474
680.060	0.0153702
680.138	0.0155119
680.216	0.0153011
680.294	0.0155256
680.372	0.0154781
680.450	0.0153125
680.529	0.0152376
680.607	0.0152478
680.685	0.0152823
680.763	0.0153445
680.841	0.0154056
680.919	0.0153461
680.997	0.0152785
681.075	0.0153961
681.154	0.0151885
681.232	0.0153066
681.310	0.0153938
681.388	0.0153105
681.466	0.0153085
681.544	0.0152991
681.622	0.0151732
681.700	0.0153694
681.779	0.0153715
681.857	0.0153757
681.935	0.0153599
682.013	0.0153742
682.091	0.0153162
682.169	0.0154298
682.247	0.0155830
682.325	0.0154263
682.404	0.0154871
682.482	0.0155550
682.560	0.0155774
682.638	0.0154399
682.716	0.0155040
682.794	0.0154251
682.872	0.0154667
682.950	0.0155152
683.029	0.0154145
683.107	0.0156255
683.185	0.0156833
683.263	0.0155307
683.341	0.0155057
683.419	0.0155574
683.497	0.0154103
683.575	0.0153546
683.654	0.0152164
683.732	0.0153696
683.810	0.0153195
683.888	0.0152336
683.966	0.0151518
684.044	0.0150974
684.122	0.0151811
684.200	0.0150472
684.279	0.0152819
684.357	0.0151514
684.435	0.0151285
684.513	0.0151604
684.591	0.0152470
684.669	0.0152416
684.747	0.0153226
684.825	0.0151543
684.904	0.0153673
684.982	0.0154205
685.060	0.0154620
685.138	0.0154817
685.216	0.0156869
685.294	0.0155646
685.372	0.0156902
685.450	0.0157361
685.529	0.0156027
685.607	0.0158114
685.685	0.0157549
685.763	0.0157743
685.841	0.0157039
685.919	0.0157082
685.997	0.0156092
686.075	0.0156207
686.154	0.0155217
686.232	0.0154635
686.310	0.0154839
686.388	0.0153729
686.466	0.0153191
686.544	0.0152018
686.622	0.0152173
686.700	0.0152433
686.779	0.0151353
686.857	0.0152036
686.935	0.0151323
687.013	0.0151545
687.091	0.0151653
687.169	0.0154597
687.247	0.0155145
687.325	0.0155759
687.404	0.0154943
687.482	0.0157396
687.560	0.0158484
687.638	0.0159919
687.716	0.0159172
687.794	0.0156890
687.872	0.0157417
687.950	0.0155510
688.029	0.0153875
688.107	0.0154040
688.185	0.0153235
688.263	0.0152995
688.341	0.0151009
688.419	0.0152538
688.497	0.0149750
688.575	0.0148099
688.654	0.0148640
688.732	0.0147816
688.810	0.0146567
688.888	0.0148734
688.966	0.0150198
689.044	0.0150277
689.122	0.0151643
689.200	0.0153668
689.279	0.0155390
689.357	0.0156692
689.435	0.0159296
689.513	0.0162125
689.591	0.0163213
689.669	0.0163456
689.747	0.0163885
689.825	0.0165776
689.904	0.0163579
689.982	0.0164574
690.060	0.0163427
690.138	0.0163489
690.216	0.0159412
690.294	0.0157193
690.372	0.0156512
690.450	0.0153065
690.529	0.0151976
690.607	0.0148812
690.685	0.0147041
690.763	0.0145728
690.841	0.0145657
690.919	0.0144971
690.997	0.0144299
691.075	0.0143661
691.154	0.0145231
691.232	0.0147133
691.310	0.0146650
691.388	0.0148689
691.466	0.0149941
691.544	0.0151547
691.622	0.0152613
691.700	0.0154527
691.779	0.0153617
691.857	0.0154298
691.935	0.0154578
692.013	0.0154510
692.091	0.0153457
692.169	0.0152986
692.247	0.0154900
692.325	0.0154461
692.404	0.0154171
692.482	0.0155972
692.560	0.0156135
692.638	0.0157571
692.716	0.0158354
692.794	0.0159737
692.872	0.0159807
692.950	0.0160220
693.029	0.0161958
693.107	0.0162750
693.185	0.0164494
693.263	0.0162612
693.341	0.0162428
693.419	0.0162196
693.497	0.0160399
693.575	0.0159867
693.654	0.0159845
693.732	0.0160593
693.810	0.0157007
693.888	0.0158710
693.966	0.0160199
694.044	0.0161234
694.122	0.0163030
694.200	0.0164187
694.279	0.0164969
694.357	0.0164955
694.435	0.0165414
694.513	0.0162395
694.591	0.0160532
694.669	0.0157690
694.747	0.0151994
694.825	0.0147404
694.904	0.0141825
694.982	0.0135058
695.060	0.0128506
695.138	0.0121574
695.216	0.0117030
695.294	0.0113357
695.372	0.0113232
695.450	0.0113274
695.529	0.0114269
695.607	0.0118956
695.685	0.0124104
695.763	0.0130911
695.841	0.0135378
695.919	0.0139679
695.997	0.0145599
696.075	0.0152247
696.154	0.0157705
696.232	0.0162935
696.310	0.0168163
696.388	0.0171903
696.466	0.0175524
696.544	0.0180587
696.622	0.0183501
696.700	0.0187023
696.779	0.0191587
696.857	0.0194644
696.935	0.0200573
697.013	0.0201529
697.091	0.0203275
697.169	0.0204758
697.247	0.0203728
697.325	0.0202637
697.404	0.0200555
697.482	0.0195696
697.560	0.0192419
697.638	0.0188060
697.716	0.0184674
697.794	0.0178822
697.872	0.0171107
697.950	0.0165836
698.029	0.0158313
698.107	0.0150240
698.185	0.0142754
698.263	0.0133468
698.341	0.0125195
698.419	0.0116452
698.497	0.0108679
698.575	0.0101680
698.654	0.00964066
698.732	0.00911453
698.810	0.00878403
698.888	0.00866341
698.966	0.00858490
699.044	0.00866714
699.122	0.00919228
699.200	0.00931740
699.279	0.00987549
699.357	0.0103078
699.435	0.0108199
699.513	0.0113788
699.591	0.0119484
699.669	0.0126586
699.747	0.0135282
699.825	0.0141813
699.904	0.0150470
699.982	0.0158198
700.060	0.0163575
700.138	0.0172791
700.216	0.0180682
700.294	0.0187823
700.372	0.0193310
700.450	0.0201476
700.529	0.0207503
700.607	0.0211939
700.685	0.0215974
700.763	0.0219298
700.841	0.0221005
700.919	0.0222557
700.997	0.0222539
701.075	0.0220784
701.154	0.0218338
701.232	0.0215945
701.310	0.0211690
701.388	0.0206785
701.466	0.0202743
701.544	0.0197229
701.622	0.0191882
701.700	0.0184228
701.779	0.0178004
701.857	0.0168977
701.935	0.0160011
702.013	0.0150597
702.091	0.0139221
702.169	0.0130063
702.247	0.0119365
702.325	0.0109157
702.404	0.00999702
702.482	0.00944283
702.560	0.00898766
702.638	0.00877106
702.716	0.00885826
702.794	0.00903961
702.872	0.00917091
702.950	0.00997200
703.029	0.0106927
703.107	0.0114100
703.185	0.0121038
703.263	0.0130566
703.341	0.0137346
703.419	0.0142219
703.497	0.0150166
703.575	0.0156094
703.654	0.0158292
703.732	0.0161228
703.810	0.0161513
703.888	0.0160686
703.966	0.0160022
704.044	0.0159589
704.122	0.0156304
704.200	0.0153403
704.279	0.0150601
704.357	0.0146915
704.435	0.0144278
704.513	0.0141243
704.591	0.0139165
704.669	0.0137933
704.747	0.0136835
704.825	0.0134467
704.904	0.0136365
704.982	0.0136318
705.060	0.0137753
705.138	0.0140178
705.216	0.0141571
705.294	0.0144915
705.372	0.0149222
705.450	0.0152620
705.529	0.0156711
705.607	0.0160330
705.685	0.0165222
705.763	0.0171788
705.841	0.0178551
705.919	0.0184277
705.997	0.0189082
706.075	0.0195148
706.154	0.0200417
706.232	0.0204508
706.310	0.0210001
706.388	0.0212716
706.466	0.0214434
706.544	0.0215911
706.622	0.0217635
706.700	0.0219051
706.779	0.0222216
706.857	0.0220677
706.935	0.0219905
707.013	0.0217834
707.091	0.0215853
707.169	0.0213057
707.247	0.0206895
707.325	0.0200831
707.404	0.0192435
707.482	0.0178412
707.560	0.0164500
707.638	0.0148321
707.716	0.0131885
707.794	0.0115624
707.872	0.00961220
707.950	0.00797714
708.029	0.00643829
708.107	0.00518433
708.185	0.00441254
708.263	0.00392670
708.341	0.00371826
708.419	0.00380302
708.497	0.00438782
708.575	0.00520576
708.654	0.00597816
708.732	0.00704689
708.810	0.00847656
708.888	0.00969063
708.966	0.0110570
709.044	0.0125702
709.122	0.0137405
709.200	0.0149565
709.279	0.0159406
709.357	0.0167337
709.435	0.0173577
709.513	0.0177190
709.591	0.0181680
709.669	0.0179948
709.747	0.0178525
709.825	0.0175387
709.904	0.0169974
709.982	0.0165446
710.060	0.0160592
710.138	0.0155528
710.216	0.0153014
710.294	0.0149833
710.372	0.0149505
710.450	0.0151376
710.529	0.0154203
710.607	0.0160445
710.685	0.0167639
710.763	0.0176131
710.841	0.0182587
710.919	0.0188168
710.997	0.0195561
711.075	0.0201057
711.154	0.0203868
711.232	0.0204692
711.310	0.0205650
711.388	0.0206666
711.466	0.0206720
711.544	0.0207304
711.622	0.0208577
711.700	0.0207682
711.779	0.0209674
711.857	0.0213433
711.935	0.0214735
712.013	0.0217376
712.091	0.0219580
712.169	0.0218176
712.247	0.0216487
712.325	0.0213947
712.404	0.0209015
712.482	0.0203531
712.560	0.0198254
712.638	0.0190681
712.716	0.0183050
712.794	0.0174685
712.872	0.0165960
712.950	0.0154335
713.029	0.0144355
713.107	0.0132258
713.185	0.0121257
713.263	0.0106924
713.341	0.00914948
713.419	0.00758064
713.497	0.00602066
713.575	0.00445923
713.654	0.00301064
713.732	0.00168938
713.810	0.000625000
713.888	-0.0000326538
713.966	-0.000197296
714.044	0.000150681
714.122	0.000977936
714.200	0.00225845
714.279	0.00365700
714.357	0.00561806
714.435	0.00775162
714.513	0.0102222
714.591	0.0124544
714.669	0.0149529
714.747	0.0171163
714.825	0.0190945
714.904	0.0207627
714.982	0.0222228
715.060	0.0233578
715.138	0.0241906
715.216	0.0245258
715.294	0.0247000
715.372	0.0244848
715.450	0.0240335
715.529	0.0232173
715.607	0.0224073
715.685	0.0213863
715.763	0.0202252
715.841	0.0190108
715.919	0.0178497
715.997	0.0166252
716.075	0.0155192
716.154	0.0147955
716.232	0.0142639
716.310	0.0138643
716.388	0.0137195
716.466	0.0138070
716.544	0.0144583
716.622	0.0152178
716.700	0.0159371
716.779	0.0169652
716.857	0.0179976
716.935	0.0187931
717.013	0.0197032
717.091	0.0204691
717.169	0.0212313
717.247	0.0215253
717.325	0.0218909
717.404	0.0218314
717.482	0.0217480
717.560	0.0215351
717.638	0.0209084
717.716	0.0203882
717.794	0.0197831
717.872	0.0191006
717.950	0.0181411
718.029	0.0173622
718.107	0.0165910
718.185	0.0157779
718.263	0.0149733
718.341	0.0141481
718.419	0.0134910
718.497	0.0129745
718.575	0.0125071
718.654	0.0116872
718.732	0.0113553
718.810	0.0108780
718.888	0.0106208
718.966	0.0103085
719.044	0.0100445
719.122	0.00959923
719.200	0.00929291
719.279	0.00907890
719.357	0.00890213
719.435	0.00886932
719.513	0.00891006
719.591	0.00888023
719.669	0.00911446
719.747	0.00941429
719.825	0.00996674
719.904	0.0106513
719.982	0.0114023
720.060	0.0121852
720.138	0.0131127
720.216	0.0139812
720.294	0.0148141
720.372	0.0156007
720.450	0.0163763
720.529	0.0168118
720.607	0.0172782
720.685	0.0175568
720.763	0.0177171
720.841	0.0177953
720.919	0.0177677
720.997	0.0177171
721.075	0.0174347
721.154	0.0172948
721.232	0.0167725
721.310	0.0165752
721.388	0.0163213
721.466	0.0160378
721.544	0.0158968
721.622	0.0156229
721.700	0.0155168
721.779	0.0154836
721.857	0.0155611
721.935	0.0156892
722.013	0.0158875
722.091	0.0160889
722.169	0.0165297
722.247	0.0169613
722.325	0.0173948
722.404	0.0177361
722.482	0.0181071
722.560	0.0186910
722.638	0.0189162
722.716	0.0192870
722.794	0.0196768
722.872	0.0199467
722.950	0.0200632
723.029	0.0202795
723.107	0.0203014
723.185	0.0203008
723.263	0.0202253
723.341	0.0200566
723.419	0.0199129
723.497	0.0195647
723.575	0.0192197
723.654	0.0188085
723.732	0.0180616
723.810	0.0174403
723.888	0.0166725
723.966	0.0157614
724.044	0.0151529
724.122	0.0145786
724.200	0.0139433
724.279	0.0134486
724.357	0.0129464
724.435	0.0124954
724.513	0.0124204
724.591	0.0123186
724.669	0.0122091
724.747	0.0122626
724.825	0.0122747
724.904	0.0124337
724.982	0.0125151
725.060	0.0124873
725.138	0.0124738
725.216	0.0125429
725.294	0.0123554
725.372	0.0122039
725.450	0.0123162
725.529	0.0120348
725.607	0.0119754
725.685	0.0120457
725.763	0.0120509
725.841	0.0121484
725.919	0.0121674
725.997	0.0122968
726.075	0.0123226
726.154	0.0125754
726.232	0.0126987
726.310	0.0128726
726.388	0.0131122
726.466	0.0132984
726.544	0.0135509
726.622	0.0137475
726.700	0.0139528
726.779	0.0142818
726.857	0.0144431
726.935	0.0149272
727.013	0.0152069
727.091	0.0155827
727.169	0.0161338
727.247	0.0164426
727.325	0.0167297
727.404	0.0171481
727.482	0.0175928
727.560	0.0179538
727.638	0.0182129
727.716	0.0186372
727.794	0.0186491
727.872	0.0188998
727.950	0.0190819
728.029	0.0192215
728.107	0.0194511
728.185	0.0192625
728.263	0.0192749
728.341	0.0191292
728.419	0.0190417
728.497	0.0186075
728.575	0.0184500
728.654	0.0179758
728.732	0.0176826
728.810	0.0173666
728.888	0.0169753
728.966	0.0167344
729.044	0.0164457
729.122	0.0160317
729.200	0.0158124
729.279	0.0156158
729.357	0.0153458
729.435	0.0152115
729.513	0.0150638
729.591	0.0149358
729.669	0.0147670
729.747	0.0144533
729.825	0.0144160
729.904	0.0144342
729.982	0.0142551
730.060	0.0142896
730.138	0.0143830
730.216	0.0141476
730.294	0.0144167
730.372	0.0146304
730.450	0.0146207
730.529	0.0147482
730.607	0.0149159
730.685	0.0149729
730.763	0.0151481
730.841	0.0151991
730.919	0.0152827
730.997	0.0154062
731.075	0.0153319
731.154	0.0153274
731.232	0.0151398
731.310	0.0149198
731.388	0.0147173
731.466	0.0144702
731.544	0.0142670
731.622	0.0136497
731.700	0.0137022
731.779	0.0135100
731.857	0.0133700
731.935	0.0132520
732.013	0.0132608
732.091	0.0132298
732.169	0.0132442
732.247	0.0132401
732.325	0.0133371
732.404	0.0134933
732.482	0.0138386
732.560	0.0141029
732.638	0.0144724
732.716	0.0148976
732.794	0.0151748
732.872	0.0157216
732.950	0.0159973
733.029	0.0164085
733.107	0.0166068
733.185	0.0168343
733.263	0.0171563
733.341	0.0171807
733.419	0.0172207
733.497	0.0172815
733.575	0.0169551
733.654	0.0167096
733.732	0.0163152
733.810	0.0161626
733.888	0.0158406
733.966	0.0157430
734.044	0.0154696
734.122	0.0151903
734.200	0.0148309
734.279	0.0148294
734.357	0.0147018
734.435	0.0146767
734.513	0.0147161
734.591	0.0148508
734.669	0.0147818
734.747	0.0150181
734.825	0.0151115
734.904	0.0153541
734.982	0.0157387
735.060	0.0158821
735.138	0.0160623
735.216	0.0163917
735.294	0.0165285
735.372	0.0164671
735.450	0.0166021
735.529	0.0165846
735.607	0.0164787
735.685	0.0163300
735.763	0.0162685
735.841	0.0160004
735.919	0.0157946
735.997	0.0156217
736.075	0.0153162
736.154	0.0152657
736.232	0.0150938
736.310	0.0151279
736.388	0.0151094
736.466	0.0151444
736.544	0.0153008
736.622	0.0155987
736.700	0.0157039
736.779	0.0158540
736.857	0.0158649
736.935	0.0161463
737.013	0.0161675
737.091	0.0163912
737.169	0.0164077
737.247	0.0162639
737.325	0.0162212
737.404	0.0161611
737.482	0.0159650
737.560	0.0156818
737.638	0.0155426
737.716	0.0153049
737.794	0.0153114
737.872	0.0151054
737.950	0.0151064
738.029	0.0149635
738.107	0.0150111
738.185	0.0150275
738.263	0.0152178
738.341	0.0153989
738.419	0.0155019
738.497	0.0157206
738.575	0.0156624
738.654	0.0158163
738.732	0.0159859
738.810	0.0159457
738.888	0.0160223
738.966	0.0158178
739.044	0.0156547
739.122	0.0155444
739.200	0.0152655
739.279	0.0150237
739.357	0.0146980
739.435	0.0145329
739.513	0.0142652
739.591	0.0141331
739.669	0.0140297
739.747	0.0140420
739.825	0.0139127
739.904	0.0137857
739.982	0.0137570
740.060	0.0139523
740.138	0.0138258
740.216	0.0140157
740.294	0.0140646
740.372	0.0140359
740.450	0.0142860
740.529	0.0145263
740.607	0.0147199
740.685	0.0147749
740.763	0.0148946
740.841	0.0150247
740.919	0.0152439
740.997	0.0153975
741.075	0.0156794
741.154	0.0156841
741.232	0.0159693
741.310	0.0160814
741.388	0.0161885
741.466	0.0162848
741.544	0.0163622
741.622	0.0163344
741.700	0.0165006
741.779	0.0164432
741.857	0.0164870
741.935	0.0164628
742.013	0.0163918
742.091	0.0164637
742.169	0.0165761
742.247	0.0164233
742.325	0.0165089
742.404	0.0165762
742.482	0.0163406
742.560	0.0164182
742.638	0.0163878
742.716	0.0164484
742.794	0.0164790
742.872	0.0163747
742.950	0.0161316
743.029	0.0159562
743.107	0.0159261
743.185	0.0157131
743.263	0.0153223
743.341	0.0153594
743.419	0.0150330
743.497	0.0148985
743.575	0.0148942
743.654	0.0148486
743.732	0.0148069
743.810	0.0148814
743.888	0.0150115
743.966	0.0149409
744.044	0.0149599
744.122	0.0151182
744.200	0.0153373
744.279	0.0153621
744.357	0.0152690
744.435	0.0155367
744.513	0.0155231
744.591	0.0155473
744.669	0.0155272
744.747	0.0155012
744.825	0.0155136
744.904	0.0154385
744.982	0.0153761
745.060	0.0155854
745.138	0.0153407
745.216	0.0152715
745.294	0.0151865
745.372	0.0153221
745.450	0.0152296
745.529	0.0152930
745.607	0.0154395
745.685	0.0152693
745.763	0.0153121
745.841	0.0154407
745.919	0.0154533
745.997	0.0153709
746.075	0.0155703
746.154	0.0157014
746.232	0.0155989
746.310	0.0156387
746.388	0.0155847
746.466	0.0155886
746.544	0.0154033
746.622	0.0155295
746.700	0.0155183
746.779	0.0154819
746.857	0.0152997
746.935	0.0152251
747.013	0.0151008
747.091	0.0150877
747.169	0.0151044
747.247	0.0147690
747.325	0.0147991
747.404	0.0147482
747.482	0.0147974
747.560	0.0145602
747.638	0.0146452
747.716	0.0147917
747.794	0.0147126
747.872	0.0149092
747.950	0.0148219
748.029	0.0149065
748.107	0.0149251
748.185	0.0150807
748.263	0.0151233
748.341	0.0150648
748.419	0.0153419
748.497	0.0153957
748.575	0.0154957
748.654	0.0154701
748.732	0.0155952
748.810	0.0157961
748.888	0.0158492
748.966	0.0157327
749.044	0.0157354
749.122	0.0157301
749.200	0.0158797
749.279	0.0159380
749.357	0.0158402
749.435	0.0158768
749.513	0.0159499
749.591	0.0159499
749.669	0.0159539
749.747	0.0158177
749.825	0.0159103
749.904	0.0158970
749.982	0.0159900
750.060	0.0159079
750.138	0.0157552
750.216	0.0158703
750.294	0.0157252
750.372	0.0156509
750.450	0.0156583
750.529	0.0153485
750.607	0.0153252
750.685	0.0153371
750.763	0.0151481
750.841	0.0151073
750.919	0.0150831
750.997	0.0151245
751.075	0.0151798
751.154	0.0150548
751.232	0.0151821
751.310	0.0150590
751.388	0.0152364
751.466	0.0152326
751.544	0.0153413
751.622	0.0153447
751.700	0.0155487
751.779	0.0157011
751.857	0.0156756
751.935	0.0157175
752.013	0.0157571
752.091	0.0157175
752.169	0.0158717
752.247	0.0158531
752.325	0.0158559
752.404	0.0160041
752.482	0.0159881
752.560	0.0158820
752.638	0.0158971
752.716	0.0156438
752.794	0.0158202
752.872	0.0157518
752.950	0.0157867
753.029	0.0156821
753.107	0.0155822
753.185	0.0154653
753.263	0.0155272
753.341	0.0154851
753.419	0.0153594
753.497	0.0154086
753.575	0.0155610
753.654	0.0154591
753.732	0.0153201
753.810	0.0152544
753.888	0.0152979
753.966	0.0150179
754.044	0.0149745
754.122	0.0149390
754.200	0.0148988
754.279	0.0150138
754.357	0.0149836
754.435	0.0149767
754.513	0.0149626
754.591	0.0149861
754.669	0.0149012
754.747	0.0149747
754.825	0.0149861
754.904	0.0148517
754.982	0.0148103
755.060	0.0147501
755.138	0.0145956
755.216	0.0145200
755.294	0.0145362
755.372	0.0144215
755.450	0.0146475
755.529	0.0144224
755.607	0.0143921
755.685	0.0142966
755.763	0.0145657
755.841	0.0146017
755.919	0.0144798
755.997	0.0146632
756.075	0.0147025
756.154	0.0148387
756.232	0.0151714
756.310	0.0154783
756.388	0.0155283
756.466	0.0155993
756.544	0.0158723
756.622	0.0159992
756.700	0.0163463
756.779	0.0165404
756.857	0.0165382
756.935	0.0167331
757.013	0.0167016
757.091	0.0167659
757.169	0.0166953
757.247	0.0165261
757.325	0.0165136
757.404	0.0161752
757.482	0.0162217
757.560	0.0162177
757.638	0.0160298
757.716	0.0158177
757.794	0.0158412
757.872	0.0156607
757.950	0.0154784
758.029	0.0154308
758.107	0.0154401
758.185	0.0152026
758.263	0.0153400
758.341	0.0152032
758.419	0.0151620
758.497	0.0152486
758.575	0.0152171
758.654	0.0151949
758.732	0.0151456
758.810	0.0152647
758.888	0.0154150
758.966	0.0153768
759.044	0.0153999
759.122	0.0154140
759.200	0.0154672
759.279	0.0154193
759.357	0.0154533
759.435	0.0153476
759.513	0.0155459
759.591	0.0156939
759.669	0.0155871
759.747	0.0155628
759.825	0.0157230
759.904	0.0158405
759.982	0.0157633
760.060	0.0159138
760.138	0.0159135
760.216	0.0159791
760.294	0.0160404
760.372	0.0159947
760.450	0.0160859
760.529	0.0160236
760.607	0.0160143
760.685	0.0157206
760.763	0.0157097
760.841	0.0154347
760.919	0.0153694
760.997	0.0152242
761.075	0.0152074
761.154	0.0150208
761.232	0.0150421
761.310	0.0148692
761.388	0.0146489
761.466	0.0145233
761.544	0.0144260
761.622	0.0143666
761.700	0.0145083
761.779	0.0143381
761.857	0.0143906
761.935	0.0144592
762.013	0.0143974
762.091	0.0144466
762.169	0.0144695
762.247	0.0148065
762.325	0.0148617
762.404	0.0149770
762.482	0.0150700
762.560	0.0151233
762.638	0.0153141
762.716	0.0154381
762.794	0.0155846
762.872	0.0155824
762.950	0.0155618
763.029	0.0157040
763.107	0.0158264
763.185	0.0157349
763.263	0.0156512
763.341	0.0156093
763.419	0.0156615
763.497	0.0155848
763.575	0.0155550
763.654	0.0153900
763.732	0.0155127
763.810	0.0154239
763.888	0.0154208
763.966	0.0154366
764.044	0.0155840
764.122	0.0156110
764.200	0.0158125
764.279	0.0157359
764.357	0.0158693
764.435	0.0159177
764.513	0.0160157
764.591	0.0159753
764.669	0.0160101
764.747	0.0160155
764.825	0.0158733
764.904	0.0160515
764.982	0.0160201
765.060	0.0160129
765.138	0.0159281
765.216	0.0157737
765.294	0.0158503
765.372	0.0156694
765.450	0.0156982
765.529	0.0156239
765.607	0.0155476
765.685	0.0154950
765.763	0.0154540
765.841	0.0153326
765.919	0.0152686
765.997	0.0152182
766.075	0.0151587
766.154	0.0150646
766.232	0.0152292
766.310	0.0152856
766.388	0.0151517
766.466	0.0152220
766.544	0.0152388
766.622	0.0151714
766.700	0.0153038
766.779	0.0152171
766.857	0.0151085
766.935	0.0152789
767.013	0.0152092
767.091	0.0152622
767.169	0.0153509
767.247	0.0153207
767.325	0.0154245
767.404	0.0153766
767.482	0.0155457
767.560	0.0154993
767.638	0.0156002
767.716	0.0155492
767.794	0.0157020
767.872	0.0156811
767.950	0.0159264
768.029	0.0158302
768.107	0.0157693
768.185	0.0157083
768.263	0.0158285
768.341	0.0157658
768.419	0.0157455
768.497	0.0155412
768.575	0.0157215
768.654	0.0155712
768.732	0.0155997
768.810	0.0154401
768.888	0.0153508
768.966	0.0152146
769.044	0.0152762
769.122	0.0151079
769.200	0.0151078
769.279	0.0150860
769.357	0.0150776
769.435	0.0150738
769.513	0.0150666
769.591	0.0149191
769.669	0.0149659
769.747	0.0150800
769.825	0.0149812
769.904	0.0150806
769.982	0.0149727
770.060	0.0150626
770.138	0.0150028
770.216	0.0152322
770.294	0.0153049
770.372	0.0152563
770.450	0.0153748
770.529	0.0154156
770.607	0.0156216
770.685	0.0155679
770.763	0.0156155
770.841	0.0156364
770.919	0.0158716
770.997	0.0159077
771.075	0.0159016
771.154	0.0159679
771.232	0.0159128
771.310	0.0159058
771.388	0.0157815
771.466	0.0157202
771.544	0.0156939
771.622	0.0154948
771.700	0.0154990
771.779	0.0153995
771.857	0.0153215
771.935	0.0154420
772.013	0.0153007
772.091	0.0152856
772.169	0.0150817
772.247	0.0152012
772.325	0.0152486
772.404	0.0152408
772.482	0.0151825
772.560	0.0154227
772.638	0.0154194
772.716	0.0154698
772.794	0.0154871
772.872	0.0155524
772.950	0.0156541
773.029	0.0157543
773.107	0.0156822
773.185	0.0157638
773.263	0.0158808
773.341	0.0158675
773.419	0.0158686
773.497	0.0157216
773.575	0.0159326
773.654	0.0158419
773.732	0.0157030
773.810	0.0157248
773.888	0.0155783
773.966	0.0156116
774.044	0.0155761
774.122	0.0153779
774.200	0.0155405
774.279	0.0153706
774.357	0.0152056
774.435	0.0152580
774.513	0.0154578
774.591	0.0151900
774.669	0.0152298
774.747	0.0154732
774.825	0.0153959
774.904	0.0152469
774.982	0.0153241
775.060	0.0154784
775.138	0.0155572
775.216	0.0154942
775.294	0.0154830
775.372	0.0153456
775.450	0.0153998
775.529	0.0154251
775.607	0.0153246
775.685	0.0152300
775.763	0.0152270
775.841	0.0154359
775.919	0.0153232
775.997	0.0154996
776.075	0.0155637
776.154	0.0155930
776.232	0.0156091
776.310	0.0155605
776.388	0.0156232
776.466	0.0157310
776.544	0.0156300
776.622	0.0154102
776.700	0.0154991
776.779	0.0155841
776.857	0.0154456
776.935	0.0152818
777.013	0.0152805
777.091	0.0151286
777.169	0.0150694
777.247	0.0149399
777.325	0.0150061
777.404	0.0150214
777.482	0.0149044
777.560	0.0147919
777.638	0.0148094
777.716	0.0147483
777.794	0.0148388
777.872	0.0149742
777.950	0.0149114
778.029	0.0150324
778.107	0.0149567
778.185	0.0152895
778.263	0.0154230
778.341	0.0153723
778.419	0.0155061
778.497	0.0155208
778.575	0.0155451
778.654	0.0157127
778.732	0.0158494
778.810	0.0158198
778.888	0.0157791
778.966	0.0157195
779.044	0.0158935
779.122	0.0156944
779.200	0.0156232
779.279	0.0157292
779.357	0.0156261
779.435	0.0155740
779.513	0.0155028
779.591	0.0155005
779.669	0.0153906
779.747	0.0154129
779.825	0.0153513
779.904	0.0156098
779.982	0.0154312
780.060	0.0154776
780.138	0.0154140
780.216	0.0154409
780.294	0.0156809
780.372	0.0156149
780.450	0.0155596
780.529	0.0155129
780.607	0.0155955
780.685	0.0154480
780.763	0.0154776
780.841	0.0154462
780.919	0.0153710
780.997	0.0153760
781.075	0.0153203
781.154	0.0153394
781.232	0.0153185
781.310	0.0153505
781.388	0.0151839
781.466	0.0153875
781.544	0.0155526
781.622	0.0155577
781.700	0.0153615
781.779	0.0154709
781.857	0.0152927
781.935	0.0155283
782.013	0.0154625
782.091	0.0152691
782.169	0.0153545
782.247	0.0153459
782.325	0.0152457
782.404	0.0153130
782.482	0.0151798
782.560	0.0152103
782.638	0.0152065
782.716	0.0153062
782.794	0.0151362
782.872	0.0152991
782.950	0.0152758
783.029	0.0154993
783.107	0.0153421
783.185	0.0154102
783.263	0.0155711
783.341	0.0154748
783.419	0.0155221
783.497	0.0156374
783.575	0.0157049
783.654	0.0155417
783.732	0.0156662
783.810	0.0156203
783.888	0.0156117
783.966	0.0156418
784.044	0.0155107
784.122	0.0153855
784.200	0.0155776
784.279	0.0153931
784.357	0.0153738
784.435	0.0153206
784.513	0.0153037
784.591	0.0152471
784.669	0.0153549
784.747	0.0154247
784.825	0.0153104
784.904	0.0152516
784.982	0.0154015
785.060	0.0152520
785.138	0.0151865
785.216	0.0152750
785.294	0.0153489
785.372	0.0153195
785.450	0.0152013
785.529	0.0152498
785.607	0.0155251
785.685	0.0154427
785.763	0.0153835
785.841	0.0154193
785.919	0.0154579
785.997	0.0156126
786.075	0.0157614
786.154	0.0156948
786.232	0.0155817
786.310	0.0157670
786.388	0.0158527
786.466	0.0158833
786.544	0.0159586
786.622	0.0159825
786.700	0.0158804
786.779	0.0157426
786.857	0.0158713
786.935	0.0157935
787.013	0.0156783
787.091	0.0154701
787.169	0.0154198
787.247	0.0153980
787.325	0.0150953
787.404	0.0150694
787.482	0.0151008
787.560	0.0149774
787.638	0.0149885
787.716	0.0149715
787.794	0.0151530
787.872	0.0151101
787.950	0.0151063
788.029	0.0150772
788.107	0.0152820
788.185	0.0153827
788.263	0.0153579
788.341	0.0155088
788.419	0.0152818
788.497	0.0153970
788.575	0.0153699
788.654	0.0156974
788.732	0.0155497
788.810	0.0154131
788.888	0.0156258
788.966	0.0156082
789.044	0.0156396
789.122	0.0157918
789.200	0.0158154
789.279	0.0156583
789.357	0.0155808
789.435	0.0156564
789.513	0.0157359
789.591	0.0155787
789.669	0.0154484
789.747	0.0152902
789.825	0.0154174
789.904	0.0154961
789.982	0.0153684
790.060	0.0151972
790.138	0.0153268
790.216	0.0152888
790.294	0.0153922
790.372	0.0152951
790.450	0.0154297
790.529	0.0154364
790.607	0.0154640
790.685	0.0155386
790.763	0.0155993
790.841	0.0154663
790.919	0.0155399
790.997	0.0157449
791.075	0.0153965
791.154	0.0155902
791.232	0.0156783
791.310	0.0157104
791.388	0.0156194
791.466	0.0154508
791.544	0.0154620
791.622	0.0155903
791.700	0.0155743
791.779	0.0154759
791.857	0.0154581
791.935	0.0154743
792.013	0.0153476
792.091	0.0154410
792.169	0.0155263
792.247	0.0153296
792.325	0.0155149
792.404	0.0154383
792.482	0.0154175
792.560	0.0152478
792.638	0.0152780
792.716	0.0155018
792.794	0.0154604
792.872	0.0154665
792.950	0.0153685
793.029	0.0155101
793.107	0.0155647
793.185	0.0156553
793.263	0.0156667
793.341	0.0157843
793.419	0.0158662
793.497	0.0157903
793.575	0.0159772
793.654	0.0158445
793.732	0.0159155
793.810	0.0160066
793.888	0.0160748
793.966	0.0160036
794.044	0.0160134
794.122	0.0158719
794.200	0.0158671
794.279	0.0160694
794.357	0.0158209
794.435	0.0157870
794.513	0.0158033
794.591	0.0155801
794.669	0.0155961
794.747	0.0152964
794.825	0.0152975
794.904	0.0152354
794.982	0.0152231
795.060	0.0149735
795.138	0.0149490
795.216	0.0147887
795.294	0.0148000
795.372	0.0146755
795.450	0.0146273
795.529	0.0146128
795.607	0.0146799
795.685	0.0146032
795.763	0.0145947
795.841	0.0146481
795.919	0.0145038
795.997	0.0146786
796.075	0.0148889
796.154	0.0148657
796.232	0.0149093
796.310	0.0149723
796.388	0.0151756
796.466	0.0153203
796.544	0.0154419
796.622	0.0155132
796.700	0.0157191
796.779	0.0158411
796.857	0.0157965
796.935	0.0161053
797.013	0.0161516
797.091	0.0161073
797.169	0.0162833
797.247	0.0163996
797.325	0.0164954
797.404	0.0163637
797.482	0.0163573
797.560	0.0164634
797.638	0.0166064
797.716	0.0166114
797.794	0.0166064
797.872	0.0165028
797.950	0.0164533
798.029	0.0163381
798.107	0.0163509
798.185	0.0162260
798.263	0.0160801
798.341	0.0158392
798.419	0.0157089
798.497	0.0153889
798.575	0.0152370
798.654	0.0150621
798.732	0.0151312
798.810	0.0149226
798.888	0.0146485
798.966	0.0146137
799.044	0.0146507
799.122	0.0146088
799.200	0.0145717
799.279	0.0146699
799.357	0.0145383
799.435	0.0145531
799.513	0.0147918
799.591	0.0147123
799.669	0.0147468
799.747	0.0148414
799.825	0.0149849
799.904	0.0149934
799.982	0.0149679
800.060	0.0152168
800.138	0.0152979
800.216	0.0152326
800.294	0.0153236
800.372	0.0154128
800.450	0.0154986
800.529	0.0156567
800.607	0.0155979
800.685	0.0154254
800.763	0.0155946
800.841	0.0157079
800.919	0.0155097
800.997	0.0154617
801.075	0.0153741
801.154	0.0153351
801.232	0.0154161
801.310	0.0152345
801.388	0.0153293
801.466	0.0152840
801.544	0.0152832
801.622	0.0153561
801.700	0.0152673
801.779	0.0153262
801.857	0.0154835
801.935	0.0154277
802.013	0.0154189
802.091	0.0155976
802.169	0.0155214
802.247	0.0157932
802.325	0.0158488
802.404	0.0159448
802.482	0.0161491
802.560	0.0160670
802.638	0.0160989
802.716	0.0162039
802.794	0.0163259
802.872	0.0162714
802.950	0.0162798
803.029	0.0162621
803.107	0.0162843
803.185	0.0160791
803.263	0.0161395
803.341	0.0162093
803.419	0.0161883
803.497	0.0161049
803.575	0.0160026
803.654	0.0160866
803.732	0.0158782
803.810	0.0157066
803.888	0.0157552
803.966	0.0156895
804.044	0.0155657
804.122	0.0153807
804.200	0.0152095
804.279	0.0149343
804.357	0.0148256
804.435	0.0147337
804.513	0.0146160
804.591	0.0143772
804.669	0.0141930
804.747	0.0142245
804.825	0.0141740
804.904	0.0139541
804.982	0.0139904
805.060	0.0139587
805.138	0.0139919
805.216	0.0141216
805.294	0.0141364
805.372	0.0143491
805.450	0.0144069
805.529	0.0146304
805.607	0.0147564
805.685	0.0147776
805.763	0.0149036
805.841	0.0151223
805.919	0.0151921
805.997	0.0153992
806.075	0.0154809
806.154	0.0155691
806.232	0.0157020
806.310	0.0156052
806.388	0.0157902
806.466	0.0159004
806.544	0.0160819
806.622	0.0162208
806.700	0.0162009
806.779	0.0161430
806.857	0.0162759
806.935	0.0160793
807.013	0.0161550
807.091	0.0161922
807.169	0.0161801
807.247	0.0159420
807.325	0.0160865
807.404	0.0162524
807.482	0.0160360
807.560	0.0160719
807.638	0.0161260
807.716	0.0161182
807.794	0.0161710
807.872	0.0161942
807.950	0.0162007
808.029	0.0163775
808.107	0.0164002
808.185	0.0164640
808.263	0.0164913
808.341	0.0165175
808.419	0.0164311
808.497	0.0164581
808.575	0.0164832
808.654	0.0164198
808.732	0.0164086
808.810	0.0163846
808.888	0.0161543
808.966	0.0160201
809.044	0.0158187
809.122	0.0158688
809.200	0.0156611
809.279	0.0154810
809.357	0.0153394
809.435	0.0152293
809.513	0.0151316
809.591	0.0149805
809.669	0.0147402
809.747	0.0146998
809.825	0.0145499
809.904	0.0141530
809.982	0.0139082
810.060	0.0138276
810.138	0.0138318
810.216	0.0136781
810.294	0.0136975
810.372	0.0136187
810.450	0.0137315
810.529	0.0136641
810.607	0.0137424
810.685	0.0138288
810.763	0.0140689
810.841	0.0140985
810.919	0.0142937
810.997	0.0145140
811.075	0.0145686
811.154	0.0148904
811.232	0.0149992
811.310	0.0150565
811.388	0.0151822
811.466	0.0155101
811.544	0.0156939
811.622	0.0155413
811.700	0.0159291
811.779	0.0158804
811.857	0.0159828
811.935	0.0161625
812.013	0.0162892
812.091	0.0163081
812.169	0.0161461
812.247	0.0162531
812.325	0.0163103
812.404	0.0163407
812.482	0.0163902
812.560	0.0165168
812.638	0.0164017
812.716	0.0162231
812.794	0.0163602
812.872	0.0163643
812.950	0.0163100
813.029	0.0163145
813.107	0.0163232
813.185	0.0162852
813.263	0.0161469
813.341	0.0161791
813.419	0.0162154
813.497	0.0161810
813.575	0.0161196
813.654	0.0161695
813.732	0.0162068
813.810	0.0161723
813.888	0.0161911
813.966	0.0159481
814.044	0.0162257
814.122	0.0160610
814.200	0.0159468
814.279	0.0159715
814.357	0.0158418
814.435	0.0157757
814.513	0.0157795
814.591	0.0155650
814.669	0.0155161
814.747	0.0152920
814.825	0.0152194
814.904	0.0151481
814.982	0.0149538
815.060	0.0149127
815.138	0.0150056
815.216	0.0148646
815.294	0.0148378
815.372	0.0147985
815.450	0.0147980
815.529	0.0148074
815.607	0.0146929
815.685	0.0146859
815.763	0.0146400
815.841	0.0146848
815.919	0.0147746
815.997	0.0146391
816.075	0.0146082
816.154	0.0145776
816.232	0.0145679
816.310	0.0145963
816.388	0.0146994
816.466	0.0146374
816.544	0.0146652
816.622	0.0147567
816.700	0.0147016
816.779	0.0148399
816.857	0.0149658
816.935	0.0148571
817.013	0.0149226
817.091	0.0150817
817.169	0.0151601
817.247	0.0152396
817.325	0.0153079
817.404	0.0153868
817.482	0.0155567
817.560	0.0155968
817.638	0.0158477
817.716	0.0158356
817.794	0.0159564
817.872	0.0161473
817.950	0.0160679
818.029	0.0163482
818.107	0.0164010
818.185	0.0163573
818.263	0.0164775
818.341	0.0165107
818.419	0.0166689
818.497	0.0165929
818.575	0.0163950
818.654	0.0164237
818.732	0.0164573
818.810	0.0164232
818.888	0.0162852
818.966	0.0161296
819.044	0.0159755
819.122	0.0160451
819.200	0.0159716
819.279	0.0159303
819.357	0.0157771
819.435	0.0159003
819.513	0.0157418
819.591	0.0158070
819.669	0.0158549
819.747	0.0157217
819.825	0.0158720
819.904	0.0158305
819.982	0.0155669
820.060	0.0156810
820.138	0.0156747
820.216	0.0155321
820.294	0.0155357
820.372	0.0156277
820.450	0.0153535
820.529	0.0153892
820.607	0.0152501
820.685	0.0152828
820.763	0.0151639
820.841	0.0150962
820.919	0.0150603
820.997	0.0149715
821.075	0.0149097
821.154	0.0148260
821.232	0.0148340
821.310	0.0149953
821.388	0.0146952
821.466	0.0146661
821.544	0.0149677
821.622	0.0148528
821.700	0.0148718
821.779	0.0148505
821.857	0.0149558
821.935	0.0148942
822.013	0.0149986
822.091	0.0149581
822.169	0.0150616
822.247	0.0151175
822.325	0.0151467
822.404	0.0149942
822.482	0.0150002
822.560	0.0149541
822.638	0.0149678
822.716	0.0149407
822.794	0.0149704
822.872	0.0151541
822.950	0.0150985
823.029	0.0151973
823.107	0.0151496
823.185	0.0150761
823.263	0.0152558
823.341	0.0151130
823.419	0.0153270
823.497	0.0154467
823.575	0.0155827
823.654	0.0155473
823.732	0.0156290
823.810	0.0157863
823.888	0.0158365
823.966	0.0158755
824.044	0.0161393
824.122	0.0161768
824.200	0.0161712
824.279	0.0162274
824.357	0.0163271
824.435	0.0163199
824.513	0.0163065
824.591	0.0163864
824.669	0.0162127
824.747	0.0161981
824.825	0.0163049
824.904	0.0161431
824.982	0.0159384
825.060	0.0157684
825.138	0.0157293
825.216	0.0156346
825.294	0.0153880
825.372	0.0154616
825.450	0.0153337
825.529	0.0152902
825.607	0.0152911
825.685	0.0153158
825.763	0.0153217
825.841	0.0152500
825.919	0.0153246
825.997	0.0152976
826.075	0.0153387
826.154	0.0152869
826.232	0.0153920
826.310	0.0153867
826.388	0.0154872
826.466	0.0154072
826.544	0.0153159
826.622	0.0154095
826.700	0.0153879
826.779	0.0153462
826.857	0.0153615
826.935	0.0152891
827.013	0.0152774
827.091	0.0152000
827.169	0.0153013
827.247	0.0150923
827.325	0.0151255
827.404	0.0150604
827.482	0.0149551
827.560	0.0152541
827.638	0.0148968
827.716	0.0150616
827.794	0.0149742
827.872	0.0149717
827.950	0.0147738
828.029	0.0146387
828.107	0.0148988
828.185	0.0148866
828.263	0.0148136
828.341	0.0149113
828.419	0.0149751
828.497	0.0148894
828.575	0.0149688
828.654	0.0149503
828.732	0.0151584
828.810	0.0151584
828.888	0.0151979
828.966	0.0152771
829.044	0.0152851
829.122	0.0154013
829.200	0.0154492
829.279	0.0155318
829.357	0.0155280
829.435	0.0155717
829.513	0.0154768
829.591	0.0156622
829.669	0.0155246
829.747	0.0155767
829.825	0.0155835
829.904	0.0155643
829.982	0.0156430
830.060	0.0156501
830.138	0.0156390
830.216	0.0156229
830.294	0.0157963
830.372	0.0157674
830.450	0.0157621
830.529	0.0157731
830.607	0.0156633
830.685	0.0157314
830.763	0.0156978
830.841	0.0157520
830.919	0.0157925
830.997	0.0156283
831.075	0.0157243
831.154	0.0156172
831.232	0.0155455
831.310	0.0155998
831.388	0.0155734
831.466	0.0155557
831.544	0.0155327
831.622	0.0155238
831.700	0.0154410
831.779	0.0153475
831.857	0.0153333
831.935	0.0154279
832.013	0.0152393
832.091	0.0152890
832.169	0.0153699
832.247	0.0152471
832.325	0.0150700
832.404	0.0151295
832.482	0.0153028
832.560	0.0151777
832.638	0.0151343
832.716	0.0150806
832.794	0.0150536
832.872	0.0151029
832.950	0.0151132
833.029	0.0151590
833.107	0.0150966
833.185	0.0151879
833.263	0.0152618
833.341	0.0154206
833.419	0.0155615
833.497	0.0155366
833.575	0.0156799
833.654	0.0156425
833.732	0.0156965
833.810	0.0157309
833.888	0.0159116
833.966	0.0157709
834.044	0.0156010
834.122	0.0156656
834.200	0.0157187
834.279	0.0156377
834.357	0.0154761
834.435	0.0153654
834.513	0.0154503
834.591	0.0153642
834.669	0.0154461
834.747	0.0154739
834.825	0.0153905
834.904	0.0152278
834.982	0.0153371
835.060	0.0154133
835.138	0.0153220
835.216	0.0154131
835.294	0.0153723
835.372	0.0152071
835.450	0.0151766
835.529	0.0151590
835.607	0.0152303
835.685	0.0152262
835.763	0.0152169
835.841	0.0150555
835.919	0.0152700
835.997	0.0153098
836.075	0.0154181
836.154	0.0153902
836.232	0.0155450
836.310	0.0153957
836.388	0.0153396
836.466	0.0153989
836.544	0.0154346
836.622	0.0152705
836.700	0.0152505
836.779	0.0153062
836.857	0.0151681
836.935	0.0152695
837.013	0.0152997
837.091	0.0152135
837.169	0.0152589
837.247	0.0151804
837.325	0.0153481
837.404	0.0151234
837.482	0.0153049
837.560	0.0152866
837.638	0.0153783
837.716	0.0152942
837.794	0.0153490
837.872	0.0154150
837.950	0.0154725
838.029	0.0154937
838.107	0.0154172
838.185	0.0154705
838.263	0.0154865
838.341	0.0155051
838.419	0.0153794
838.497	0.0155930
838.575	0.0156330
838.654	0.0155144
838.732	0.0154489
838.810	0.0156082
838.888	0.0157149
838.966	0.0157050
839.044	0.0156732
839.122	0.0158072
839.200	0.0157312
839.279	0.0157111
839.357	0.0158602
839.435	0.0158228
839.513	0.0158002
839.591	0.0158311
839.669	0.0158598
839.747	0.0157497
839.825	0.0157762
839.904	0.0158185
839.982	0.0155720
840.060	0.0155634
840.138	0.0155776
840.216	0.0155499
840.294	0.0153740
840.372	0.0152839
840.450	0.0153085
840.529	0.0151977
840.607	0.0151589
840.685	0.0150536
840.763	0.0150302
840.841	0.0149567
840.919	0.0149148
840.997	0.0149895
841.075	0.0150046
841.154	0.0148461
841.232	0.0149822
841.310	0.0150555
841.388	0.0149751
841.466	0.0150424
841.544	0.0151418
841.622	0.0151805
841.700	0.0151473
841.779	0.0151035
841.857	0.0152748
841.935	0.0153908
842.013	0.0154951
842.091	0.0155688
842.169	0.0155517
842.247	0.0156016
842.325	0.0157465
842.404	0.0157536
842.482	0.0158605
842.560	0.0157656
842.638	0.0158482
842.716	0.0158830
842.794	0.0157764
842.872	0.0159159
842.950	0.0158490
843.029	0.0157826
843.107	0.0157574
843.185	0.0157050
843.263	0.0157090
843.341	0.0154009
843.419	0.0153903
843.497	0.0155472
843.575	0.0154542
843.654	0.0154041
843.732	0.0153481
843.810	0.0151887
843.888	0.0154351
843.966	0.0154660
844.044	0.0154535
844.122	0.0154031
844.200	0.0154557
844.279	0.0152635
844.357	0.0152263
844.435	0.0154859
844.513	0.0152929
844.591	0.0152199
844.669	0.0152969
844.747	0.0153050
844.825	0.0155039
844.904	0.0154499
844.982	0.0152853
845.060	0.0153828
845.138	0.0154922
845.216	0.0154057
845.294	0.0155842
845.372	0.0155812
845.450	0.0154871
845.529	0.0154740
845.607	0.0155527
845.685	0.0154205
845.763	0.0154041
845.841	0.0153168
845.919	0.0152863
845.997	0.0152273
846.075	0.0151038
846.154	0.0151805
846.232	0.0152428
846.310	0.0152884
846.388	0.0152225
846.466	0.0150671
846.544	0.0149315
846.622	0.0150129
846.700	0.0151352
846.779	0.0151639
846.857	0.0151482
846.935	0.0151923
847.013	0.0155048
847.091	0.0153649
847.169	0.0152613
847.247	0.0154687
847.325	0.0155122
847.404	0.0155424
847.482	0.0155319
847.560	0.0156489
847.638	0.0154412
847.716	0.0156187
847.794	0.0156377
847.872	0.0157351
847.950	0.0156858
848.029	0.0156535
848.107	0.0155712
848.185	0.0157132
848.263	0.0158324
848.341	0.0156671
848.419	0.0156022
848.497	0.0156864
848.575	0.0158413
848.654	0.0158929
848.732	0.0158609
848.810	0.0158005
848.888	0.0157770
848.966	0.0157685
849.044	0.0158575
849.122	0.0157704
849.200	0.0157858
849.279	0.0159730
849.357	0.0156819
849.435	0.0157214
849.513	0.0157236
849.591	0.0157391
849.669	0.0155954
849.747	0.0156024
849.825	0.0157143
849.904	0.0155217
849.982	0.0155133
850.060	0.0154816
850.138	0.0154233
850.216	0.0154053
850.294	0.0154702
850.372	0.0153297
850.450	0.0153647
850.529	0.0153909
850.607	0.0151662
850.685	0.0151796
850.763	0.0152762
850.841	0.0150553
850.919	0.0151569
850.997	0.0151545
851.075	0.0151655
851.154	0.0152015
851.232	0.0151572
851.310	0.0151176
851.388	0.0150234
851.466	0.0151742
851.544	0.0149863
851.622	0.0150112
851.700	0.0150417
851.779	0.0150182
851.857	0.0150623
851.935	0.0150273
852.013	0.0150516
852.091	0.0150301
852.169	0.0149886
852.247	0.0149345
852.325	0.0150504
852.404	0.0150014
852.482	0.0150177
852.560	0.0149265
852.638	0.0149499
852.716	0.0151104
852.794	0.0152438
852.872	0.0152609
852.950	0.0153169
853.029	0.0153355
853.107	0.0155232
853.185	0.0155269
853.263	0.0155134
853.341	0.0155204
853.419	0.0156429
853.497	0.0157700
853.575	0.0158281
853.654	0.0159747
853.732	0.0158699
853.810	0.0158389
853.888	0.0159537
853.966	0.0158718
854.044	0.0159208
854.122	0.0157627
854.200	0.0159715
854.279	0.0159233
854.357	0.0160136
854.435	0.0158454
854.513	0.0159253
854.591	0.0157590
854.669	0.0157150
854.747	0.0156255
854.825	0.0155733
854.904	0.0155232
854.982	0.0156869
855.060	0.0155324
855.138	0.0153944
855.216	0.0153157
855.294	0.0154346
855.372	0.0155048
855.450	0.0154544
855.529	0.0154658
855.607	0.0155092
855.685	0.0153165
855.763	0.0154961
855.841	0.0156194
855.919	0.0155347
855.997	0.0155547
856.075	0.0153134
856.154	0.0155434
856.232	0.0155920
856.310	0.0154559
856.388	0.0155468
856.466	0.0154009
856.544	0.0153293
856.622	0.0152910
856.700	0.0154031
856.779	0.0154081
856.857	0.0153123
856.935	0.0152825
857.013	0.0153437
857.091	0.0150835
857.169	0.0153682
857.247	0.0153271
857.325	0.0151088
857.404	0.0152110
857.482	0.0152030
857.560	0.0152727
857.638	0.0153103
857.716	0.0152725
857.794	0.0153375
857.872	0.0151715
857.950	0.0153481
858.029	0.0152515
858.107	0.0151311
858.185	0.0153436
858.263	0.0152165
858.341	0.0150808
858.419	0.0153257
858.497	0.0151928
858.575	0.0151732
858.654	0.0152269
858.732	0.0152244
858.810	0.0151288
858.888	0.0151944
858.966	0.0152261
859.044	0.0152019
859.122	0.0152954
859.200	0.0153987
859.279	0.0153047
859.357	0.0152781
859.435	0.0152967
859.513	0.0154697
859.591	0.0155414
859.669	0.0152469
859.747	0.0155034
859.825	0.0155843
859.904	0.0155267
859.982	0.0156107
860.060	0.0155529
860.138	0.0155684
860.216	0.0156680
860.294	0.0156189
860.372	0.0156435
860.450	0.0156557
860.529	0.0157213
860.607	0.0156350
860.685	0.0156852
860.763	0.0156119
860.841	0.0157928
860.919	0.0157711
860.997	0.0157074
861.075	0.0156397
861.154	0.0158124
861.232	0.0156254
861.310	0.0157482
861.388	0.0157169
861.466	0.0157041
861.544	0.0155632
861.622	0.0155785
861.700	0.0155324
861.779	0.0154776
861.857	0.0153544
861.935	0.0155402
862.013	0.0153881
862.091	0.0152921
862.169	0.0153999
862.247	0.0154440
862.325	0.0154471
862.404	0.0153761
862.482	0.0152348
862.560	0.0153812
862.638	0.0153828
862.716	0.0153187
862.794	0.0154371
862.872	0.0152470
862.950	0.0153978
863.029	0.0155125
863.107	0.0153588
863.185	0.0154887
863.263	0.0155169
863.341	0.0154453
863.419	0.0153697
863.497	0.0153863
863.575	0.0154815
863.654	0.0154021
863.732	0.0154212
863.810	0.0154453
863.888	0.0154025
863.966	0.0153818
864.044	0.0155056
864.122	0.0153836
864.200	0.0154298
864.279	0.0155386
864.357	0.0155124
864.435	0.0154069
864.513	0.0154383
864.591	0.0154819
864.669	0.0154951
864.747	0.0154992
864.825	0.0154123
864.904	0.0155499
864.982	0.0155143
865.060	0.0154952
865.138	0.0154552
865.216	0.0156067
865.294	0.0153929
865.372	0.0154967
865.450	0.0154613
865.529	0.0154812
865.607	0.0155354
865.685	0.0154334
865.763	0.0152984
865.841	0.0153916
865.919	0.0153803
865.997	0.0154327
866.075	0.0154400
866.154	0.0153233
866.232	0.0153213
866.310	0.0154411
866.388	0.0153593
866.466	0.0153138
866.544	0.0155650
866.622	0.0153414
866.700	0.0153562
866.779	0.0154431
866.857	0.0154227
866.935	0.0154161
867.013	0.0154385
867.091	0.0155254
867.169	0.0154807
867.247	0.0153852
867.325	0.0154381
867.404	0.0153458
867.482	0.0154451
867.560	0.0154980
867.638	0.0155359
867.716	0.0155435
867.794	0.0154596
867.872	0.0154251
867.950	0.0154921
868.029	0.0154433
868.107	0.0153006
868.185	0.0153568
868.263	0.0154249
868.341	0.0154137
868.419	0.0155089
868.497	0.0154134
868.575	0.0154785
868.654	0.0154088
868.732	0.0153532
868.810	0.0155205
868.888	0.0155076
868.966	0.0153637
869.044	0.0154813
869.122	0.0155113
869.200	0.0153059
869.279	0.0153825
869.357	0.0154207
869.435	0.0154908
869.513	0.0153836
869.591	0.0155215
869.669	0.0155888
869.747	0.0154664
869.825	0.0155796
869.904	0.0155508
869.982	0.0155714
870.060	0.0155373
870.138	0.0155656
870.216	0.0155778
870.294	0.0154926
870.372	0.0154707
870.450	0.0154181
870.529	0.0154053
870.607	0.0154060
870.685	0.0153900
870.763	0.0154012
870.841	0.0152670
870.919	0.0152677
870.997	0.0152277
871.075	0.0153099
871.154	0.0152399
871.232	0.0152731
871.310	0.0155322
871.388	0.0152245
871.466	0.0153732
871.544	0.0156394
871.622	0.0156919
871.700	0.0155093
871.779	0.0156594
871.857	0.0156048
871.935	0.0156089
872.013	0.0155846
872.091	0.0155505
872.169	0.0157383
872.247	0.0156508
872.325	0.0156120
872.404	0.0155462
872.482	0.0154322
872.560	0.0153757
872.638	0.0154444
872.716	0.0153210
872.794	0.0155985
872.872	0.0154328
872.950	0.0153796
873.029	0.0153638
873.107	0.0153967
873.185	0.0153984
873.263	0.0153502
873.341	0.0153809
873.419	0.0154055
873.497	0.0153549
873.575	0.0153925
873.654	0.0154252
873.732	0.0154514
873.810	0.0153356
873.888	0.0153860
873.966	0.0153706
874.044	0.0153543
874.122	0.0154807
874.200	0.0154356
874.279	0.0153938
874.357	0.0154145
874.435	0.0153730
874.513	0.0154440
874.591	0.0152575
874.669	0.0153860
874.747	0.0154668
874.825	0.0151994
874.904	0.0152151
874.982	0.0150975
875.060	0.0151559
875.138	0.0151472
875.216	0.0150717
875.294	0.0150782
875.372	0.0149843
875.450	0.0151537
875.529	0.0151373
875.607	0.0152323
875.685	0.0152455
875.763	0.0153434
875.841	0.0153817
875.919	0.0152434
875.997	0.0154349
876.075	0.0156662
876.154	0.0155531
876.232	0.0155051
876.310	0.0156385
876.388	0.0157337
876.466	0.0157513
876.544	0.0156606
876.622	0.0156470
876.700	0.0157482
876.779	0.0158113
876.857	0.0158119
876.935	0.0157139
877.013	0.0157143
877.091	0.0158109
877.169	0.0157665
877.247	0.0157153
877.325	0.0157783
877.404	0.0156953
877.482	0.0156332
877.560	0.0157017
877.638	0.0156323
877.716	0.0155811
877.794	0.0155537
877.872	0.0155602
877.950	0.0155799
878.029	0.0155003
878.107	0.0152704
878.185	0.0152386
878.263	0.0154198
878.341	0.0154634
878.419	0.0152228
878.497	0.0152789
878.575	0.0154633
878.654	0.0155061
878.732	0.0154919
878.810	0.0154636
878.888	0.0156012
878.966	0.0154080
879.044	0.0156038
879.122	0.0156741
879.200	0.0155707
879.279	0.0156583
879.357	0.0154597
879.435	0.0154588
879.513	0.0155342
879.591	0.0155732
879.669	0.0156430
879.747	0.0153725
879.825	0.0153396
879.904	0.0152927
879.982	0.0152885
880.060	0.0154006
880.138	0.0152721
880.216	0.0152353
880.294	0.0151456
880.372	0.0150775
880.450	0.0152406
880.529	0.0151730
880.607	0.0151014
880.685	0.0152263
880.763	0.0151994
880.841	0.0150680
880.919	0.0152139
880.997	0.0152982
881.075	0.0152981
881.154	0.0153175
881.232	0.0153589
881.310	0.0154628
881.388	0.0155090
881.466	0.0154454
881.544	0.0155007
881.622	0.0156102
881.700	0.0155735
881.779	0.0155304
881.857	0.0155143
881.935	0.0155381
882.013	0.0154176
882.091	0.0154746
882.169	0.0156956
882.247	0.0155148
882.325	0.0155607
882.404	0.0153477
882.482	0.0153851
882.560	0.0154618
882.638	0.0154476
882.716	0.0154072
882.794	0.0155357
882.872	0.0155254
882.950	0.0156366
883.029	0.0156727
883.107	0.0156173
883.185	0.0155936
883.263	0.0156892
883.341	0.0157344
883.419	0.0158391
883.497	0.0156670
883.575	0.0157142
883.654	0.0156578
883.732	0.0156269
883.810	0.0156608
883.888	0.0154418
883.966	0.0154075
884.044	0.0155995
884.122	0.0154350
884.200	0.0153432
884.279	0.0153960
884.357	0.0154709
884.435	0.0153087
884.513	0.0152728
884.591	0.0151445
884.669	0.0154592
884.747	0.0156098
884.825	0.0155293
884.904	0.0155107
884.982	0.0154430
885.060	0.0155132
885.138	0.0155079
885.216	0.0155021
885.294	0.0154997
885.372	0.0153745
885.450	0.0152959
885.529	0.0154787
885.607	0.0155116
885.685	0.0153993
885.763	0.0153477
885.841	0.0152918
885.919	0.0153061
885.997	0.0153667
886.075	0.0154826
886.154	0.0155232
886.232	0.0153733
886.310	0.0153446
886.388	0.0152294
886.466	0.0153271
886.544	0.0152132
886.622	0.0150078
886.700	0.0151228
886.779	0.0151800
886.857	0.0151818
886.935	0.0151665
887.013	0.0151172
887.091	0.0152435
887.169	0.0153155
887.247	0.0152292
887.325	0.0154736
887.404	0.0155983
887.482	0.0156179
887.560	0.0157726
887.638	0.0158022
887.716	0.0157671
887.794	0.0159232
887.872	0.0158669
887.950	0.0158631
888.029	0.0157368
888.107	0.0158752
888.185	0.0157176
888.263	0.0157585
888.341	0.0158728
888.419	0.0157404
888.497	0.0157733
888.575	0.0157552
888.654	0.0158355
888.732	0.0158235
888.810	0.0158382
888.888	0.0157580
888.966	0.0156907
889.044	0.0157783
889.122	0.0155004
889.200	0.0153358
889.279	0.0153179
889.357	0.0152654
889.435	0.0152446
889.513	0.0151875
889.591	0.0150085
889.669	0.0150865
889.747	0.0151283
889.825	0.0151479
889.904	0.0149405
889.982	0.0149618
890.060	0.0150155
890.138	0.0151119
890.216	0.0150578
890.294	0.0151058
890.372	0.0152003
890.450	0.0150543
890.529	0.0151625
890.607	0.0153785
890.685	0.0151898
890.763	0.0152091
890.841	0.0153754
890.919	0.0154998
890.997	0.0155309
891.075	0.0154433
891.154	0.0155808
891.232	0.0156551
891.310	0.0156942
891.388	0.0157355
891.466	0.0155566
891.544	0.0156395
891.622	0.0156062
891.700	0.0155833
891.779	0.0155898
891.857	0.0155274
891.935	0.0155087
892.013	0.0154771
892.091	0.0155614
892.169	0.0155791
892.247	0.0154736
892.325	0.0154320
892.404	0.0156378
892.482	0.0154857
892.560	0.0154414
892.638	0.0154219
892.716	0.0155492
892.794	0.0154922
892.872	0.0155797
892.950	0.0154427
893.029	0.0154863
893.107	0.0155857
893.185	0.0155714
893.263	0.0155953
893.341	0.0155502
893.419	0.0155294
893.497	0.0155107
893.575	0.0154039
893.654	0.0154588
893.732	0.0152923
893.810	0.0151908
893.888	0.0153389
893.966	0.0152333
894.044	0.0150606
894.122	0.0150941
894.200	0.0151204
894.279	0.0150107
894.357	0.0150947
894.435	0.0149654
894.513	0.0152489
894.591	0.0154386
894.669	0.0154949
894.747	0.0155081
894.825	0.0155978
894.904	0.0156109
894.982	0.0158654
895.060	0.0158892
895.138	0.0157381
895.216	0.0157456
895.294	0.0157691
895.372	0.0157590
895.450	0.0158428
895.529	0.0155679
895.607	0.0155497
895.685	0.0155364
895.763	0.0153072
895.841	0.0152834
895.919	0.0150227
895.997	0.0151127
896.075	0.0152137
896.154	0.0150966
896.232	0.0148419
896.310	0.0149521
896.388	0.0150327
896.466	0.0148806
896.544	0.0149746
896.622	0.0150565
896.700	0.0150005
896.779	0.0151237
896.857	0.0150368
896.935	0.0150302
897.013	0.0153068
897.091	0.0152885
897.169	0.0154908
897.247	0.0155000
897.325	0.0156059
897.404	0.0156066
897.482	0.0157446
897.560	0.0157100
897.638	0.0156840
897.716	0.0158970
897.794	0.0160603
897.872	0.0158749
897.950	0.0158040
898.029	0.0157657
898.107	0.0157754
898.185	0.0158525
898.263	0.0157713
898.341	0.0158255
898.419	0.0156157
898.497	0.0157281
898.575	0.0157001
898.654	0.0156177
898.732	0.0156194
898.810	0.0156596
898.888	0.0155527
898.966	0.0154983
899.044	0.0153902
899.122	0.0153365
899.200	0.0153602
899.279	0.0152934
899.357	0.0150125
899.435	0.0149120
899.513	0.0149210
899.591	0.0148597
899.669	0.0148000
899.747	0.0145247
899.825	0.0147378
899.904	0.0147079
899.982	0.0147852
900.060	0.0149355
900.138	0.0150441
900.216	0.0153242
900.294	0.0154153
900.372	0.0156752
900.450	0.0158701
900.529	0.0159526
900.607	0.0162775
900.685	0.0162666
900.763	0.0163728
900.841	0.0165133
900.919	0.0163217
900.997	0.0164059
901.075	0.0163692
901.154	0.0161839
901.232	0.0159897
901.310	0.0158640
901.388	0.0158367
901.466	0.0155614
901.544	0.0154581
901.622	0.0152100
901.700	0.0151563
901.779	0.0149453
901.857	0.0148833
901.935	0.0147562
902.013	0.0147871
902.091	0.0147089
902.169	0.0146494
902.247	0.0147911
902.325	0.0148611
902.404	0.0149521
902.482	0.0148939
902.560	0.0150033
902.638	0.0150564
902.716	0.0151855
902.794	0.0152560
902.872	0.0152033
902.950	0.0152880
903.029	0.0153857
903.107	0.0154748
903.185	0.0155151
903.263	0.0156148
903.341	0.0157061
903.419	0.0158017
903.497	0.0157790
903.575	0.0157572
903.654	0.0159291
903.732	0.0159399
903.810	0.0160837
903.888	0.0162026
903.966	0.0162114
904.044	0.0161815
904.122	0.0160217
904.200	0.0161442
904.279	0.0160722
904.357	0.0158412
904.435	0.0159221
904.513	0.0157804
904.591	0.0156051
904.669	0.0157249
904.747	0.0155374
904.825	0.0154241
904.904	0.0153373
904.982	0.0152876
905.060	0.0151405
905.138	0.0151269
905.216	0.0151186
905.294	0.0150811
905.372	0.0150735
905.450	0.0147682
905.529	0.0147117
905.607	0.0147989
905.685	0.0147488
905.763	0.0147287
905.841	0.0148032
905.919	0.0147977
905.997	0.0151301
906.075	0.0152023
906.154	0.0153814
906.232	0.0153603
906.310	0.0157623
906.388	0.0158928
906.466	0.0160385
906.544	0.0158707
906.622	0.0161559
906.700	0.0162072
906.779	0.0161230
906.857	0.0159570
906.935	0.0160474
907.013	0.0158513
907.091	0.0157191
907.169	0.0156594
907.247	0.0153197
907.325	0.0152687
907.404	0.0150828
907.482	0.0149396
907.560	0.0148537
907.638	0.0147408
907.716	0.0148972
907.794	0.0145821
907.872	0.0147006
907.950	0.0148640
908.029	0.0148392
908.107	0.0149805
908.185	0.0150516
908.263	0.0151221
908.341	0.0153023
908.419	0.0156562
908.497	0.0156313
908.575	0.0157532
908.654	0.0159335
908.732	0.0160219
908.810	0.0159672
908.888	0.0160934
908.966	0.0161848
909.044	0.0161910
909.122	0.0161182
909.200	0.0159583
909.279	0.0160263
909.357	0.0161220
909.435	0.0159199
909.513	0.0157337
909.591	0.0156382
909.669	0.0155360
909.747	0.0154345
909.825	0.0152825
909.904	0.0152173
909.982	0.0154160
910.060	0.0151524
910.138	0.0150542
910.216	0.0152206
910.294	0.0150880
910.372	0.0150995
910.450	0.0151561
910.529	0.0150671
910.607	0.0151485
910.685	0.0152245
910.763	0.0152116
910.841	0.0151817
910.919	0.0151611
910.997	0.0152557
911.075	0.0152091
911.154	0.0153717
911.232	0.0152649
911.310	0.0153934
911.388	0.0153468
911.466	0.0154623
911.544	0.0154145
911.622	0.0154341
911.700	0.0156047
911.779	0.0154536
911.857	0.0155830
911.935	0.0156381
912.013	0.0157280
912.091	0.0157407
912.169	0.0157382
912.247	0.0157872
912.325	0.0158320
912.404	0.0158208
912.482	0.0156726
912.560	0.0157907
912.638	0.0155186
912.716	0.0155113
912.794	0.0153787
912.872	0.0152109
912.950	0.0153130
913.029	0.0151910
913.107	0.0150200
913.185	0.0150845
913.263	0.0149702
913.341	0.0147964
913.419	0.0150352
913.497	0.0150420
913.575	0.0149137
913.654	0.0151281
913.732	0.0150541
913.810	0.0152171
913.888	0.0150790
913.966	0.0151884
914.044	0.0153828
914.122	0.0154290
914.200	0.0153870
914.279	0.0155701
914.357	0.0155712
914.435	0.0155783
914.513	0.0155948
914.591	0.0155914
914.669	0.0156240
914.747	0.0157829
914.825	0.0157310
914.904	0.0156393
914.982	0.0157692
915.060	0.0156477
915.138	0.0155988
915.216	0.0156593
915.294	0.0157169
915.372	0.0155749
915.450	0.0155392
915.529	0.0155854
915.607	0.0156161
915.685	0.0155849
915.763	0.0155521
915.841	0.0155532
915.919	0.0154104
915.997	0.0155049
916.075	0.0154853
916.154	0.0154425
916.232	0.0155359
916.310	0.0156007
916.388	0.0155087
916.466	0.0154694
916.544	0.0155360
916.622	0.0155431
916.700	0.0155637
916.779	0.0156004
916.857	0.0156721
916.935	0.0155897
917.013	0.0154705
917.091	0.0156644
917.169	0.0155430
917.247	0.0154020
917.325	0.0153510
917.404	0.0154202
917.482	0.0154478
917.560	0.0153626
917.638	0.0154626
917.716	0.0153643
917.794	0.0154420
917.872	0.0154964
917.950	0.0152538
918.029	0.0152673
918.107	0.0154456
918.185	0.0153570
918.263	0.0154403
918.341	0.0154163
918.419	0.0152868
918.497	0.0152037
918.575	0.0152183
918.654	0.0154936
918.732	0.0153170
918.810	0.0153484
918.888	0.0152378
918.966	0.0152615
919.044	0.0152529
919.122	0.0153836
919.200	0.0154768
919.279	0.0153957
919.357	0.0154311
919.435	0.0155338
919.513	0.0154099
919.591	0.0154621
919.669	0.0154038
919.747	0.0153652
919.825	0.0152644
919.904	0.0154642
