05/20/2022	20:54:43	Ver.	4.1	UNKNOWN
Optical Delay	599.981738	Delta X		0.078125	Sweeps	1	Scan Rate	0/0
Coordinates	Axis 1	NaN	Axis 2	NaN	Axis 3	NaN	Axis 4	NaN	Axis 5	NaN	Axis 6	0.000000
TX Power	0.000000	RX Power	0.000000

599.982	0.0162522
600.060	0.0162263
600.138	0.0162603
600.216	0.0162860
600.294	0.0162337
600.372	0.0162945
600.450	0.0162843
600.529	0.0163721
600.607	0.0162269
600.685	0.0163006
600.763	0.0161572
600.841	0.0163139
600.919	0.0161919
600.997	0.0162555
601.075	0.0161137
601.154	0.0161694
601.232	0.0162901
601.310	0.0163146
601.388	0.0161945
601.466	0.0163699
601.544	0.0163064
601.622	0.0161719
601.700	0.0163352
601.779	0.0163078
601.857	0.0161243
601.935	0.0162294
602.013	0.0162807
602.091	0.0163548
602.169	0.0163878
602.247	0.0162601
602.325	0.0163700
602.404	0.0162513
602.482	0.0163239
602.560	0.0161334
602.638	0.0162551
602.716	0.0162117
602.794	0.0162583
602.872	0.0163473
602.950	0.0161188
603.029	0.0161004
603.107	0.0162966
603.185	0.0163310
603.263	0.0163524
603.341	0.0164456
603.419	0.0162789
603.497	0.0162551
603.575	0.0162101
603.654	0.0163248
603.732	0.0163596
603.810	0.0161821
603.888	0.0162595
603.966	0.0162680
604.044	0.0161510
604.122	0.0162224
604.200	0.0163801
604.279	0.0162959
604.357	0.0163271
604.435	0.0163394
604.513	0.0162366
604.591	0.0164697
604.669	0.0163814
604.747	0.0162102
604.825	0.0163338
604.904	0.0162729
604.982	0.0163108
605.060	0.0162291
605.138	0.0163266
605.216	0.0162803
605.294	0.0161095
605.372	0.0162503
605.450	0.0162262
605.529	0.0162481
605.607	0.0164073
605.685	0.0163641
605.763	0.0162452
605.841	0.0161310
605.919	0.0164132
605.997	0.0162943
606.075	0.0162205
606.154	0.0162075
606.232	0.0162924
606.310	0.0162211
606.388	0.0162836
606.466	0.0162670
606.544	0.0162576
606.622	0.0163888
606.700	0.0161625
606.779	0.0162309
606.857	0.0161405
606.935	0.0161832
607.013	0.0162103
607.091	0.0162785
607.169	0.0162934
607.247	0.0164321
607.325	0.0162585
607.404	0.0163960
607.482	0.0161694
607.560	0.0163425
607.638	0.0161766
607.716	0.0163317
607.794	0.0162888
607.872	0.0163049
607.950	0.0162640
608.029	0.0162572
608.107	0.0161185
608.185	0.0163526
608.263	0.0161691
608.341	0.0161285
608.419	0.0162323
608.497	0.0162096
608.575	0.0162493
608.654	0.0162472
608.732	0.0161774
608.810	0.0162772
608.888	0.0162737
608.966	0.0163254
609.044	0.0162691
609.122	0.0162857
609.200	0.0162848
609.279	0.0163190
609.357	0.0164104
609.435	0.0162411
609.513	0.0161217
609.591	0.0163311
609.669	0.0162611
609.747	0.0162412
609.825	0.0162585
609.904	0.0162643
609.982	0.0163569
610.060	0.0162991
610.138	0.0162638
610.216	0.0162571
610.294	0.0161988
610.372	0.0162493
610.450	0.0161703
610.529	0.0163371
610.607	0.0162286
610.685	0.0161921
610.763	0.0163900
610.841	0.0162716
610.919	0.0163271
610.997	0.0162763
611.075	0.0162646
611.154	0.0161951
611.232	0.0162168
611.310	0.0162749
611.388	0.0162817
611.466	0.0161783
611.544	0.0161971
611.622	0.0161933
611.700	0.0163042
611.779	0.0162432
611.857	0.0163206
611.935	0.0162168
612.013	0.0162390
612.091	0.0162436
612.169	0.0161465
612.247	0.0162251
612.325	0.0162450
612.404	0.0162617
612.482	0.0162452
612.560	0.0162570
612.638	0.0164068
612.716	0.0162921
612.794	0.0162435
612.872	0.0162250
612.950	0.0164253
613.029	0.0161694
613.107	0.0161932
613.185	0.0164104
613.263	0.0161720
613.341	0.0161787
613.419	0.0163303
613.497	0.0163010
613.575	0.0161694
613.654	0.0163400
613.732	0.0162432
613.810	0.0162267
613.888	0.0163506
613.966	0.0163068
614.044	0.0162730
614.122	0.0162553
614.200	0.0161936
614.279	0.0162119
614.357	0.0162910
614.435	0.0163017
614.513	0.0163345
614.591	0.0162150
614.669	0.0162696
614.747	0.0163677
614.825	0.0163049
614.904	0.0163834
614.982	0.0162367
615.060	0.0161956
615.138	0.0162604
615.216	0.0161005
615.294	0.0162167
615.372	0.0163107
615.450	0.0162353
615.529	0.0162489
615.607	0.0162444
615.685	0.0161829
615.763	0.0161348
615.841	0.0163254
615.919	0.0163007
615.997	0.0161135
616.075	0.0162778
616.154	0.0163533
616.232	0.0162457
616.310	0.0162056
616.388	0.0162897
616.466	0.0162923
616.544	0.0162706
616.622	0.0161304
616.700	0.0162524
616.779	0.0161742
616.857	0.0162337
616.935	0.0161856
617.013	0.0162508
617.091	0.0163497
617.169	0.0162111
617.247	0.0162614
617.325	0.0161611
617.404	0.0161993
617.482	0.0162823
617.560	0.0163728
617.638	0.0162643
617.716	0.0163175
617.794	0.0162861
617.872	0.0163425
617.950	0.0163749
618.029	0.0163084
618.107	0.0163196
618.185	0.0162817
618.263	0.0161897
618.341	0.0163137
618.419	0.0163306
618.497	0.0163067
618.575	0.0162186
618.654	0.0163319
618.732	0.0162496
618.810	0.0162737
618.888	0.0162583
618.966	0.0162382
619.044	0.0162580
619.122	0.0162462
619.200	0.0164215
619.279	0.0162911
619.357	0.0161658
619.435	0.0161903
619.513	0.0161708
619.591	0.0162538
619.669	0.0163910
619.747	0.0162947
619.825	0.0163733
619.904	0.0163197
619.982	0.0163723
620.060	0.0162646
620.138	0.0162270
620.216	0.0162672
620.294	0.0161421
620.372	0.0161805
620.450	0.0163004
620.529	0.0164159
620.607	0.0163502
620.685	0.0161915
620.763	0.0161923
620.841	0.0162882
620.919	0.0162369
620.997	0.0163423
621.075	0.0162076
621.154	0.0162899
621.232	0.0162623
621.310	0.0163698
621.388	0.0161394
621.466	0.0163392
621.544	0.0161392
621.622	0.0163408
621.700	0.0162198
621.779	0.0164140
621.857	0.0163126
621.935	0.0162708
622.013	0.0163377
622.091	0.0161474
622.169	0.0162201
622.247	0.0163170
622.325	0.0162562
622.404	0.0162985
622.482	0.0161832
622.560	0.0162665
622.638	0.0164725
622.716	0.0162216
622.794	0.0162387
622.872	0.0162633
622.950	0.0162852
623.029	0.0162587
623.107	0.0162883
623.185	0.0162491
623.263	0.0163329
623.341	0.0164331
623.419	0.0162687
623.497	0.0162348
623.575	0.0162973
623.654	0.0162723
623.732	0.0162058
623.810	0.0162513
623.888	0.0160828
623.966	0.0161491
624.044	0.0162633
624.122	0.0162815
624.200	0.0161567
624.279	0.0161617
624.357	0.0163198
624.435	0.0163976
624.513	0.0162962
624.591	0.0162637
624.669	0.0162064
624.747	0.0161743
624.825	0.0162067
624.904	0.0162955
624.982	0.0162688
625.060	0.0163147
625.138	0.0161042
625.216	0.0160808
625.294	0.0162013
625.372	0.0161774
625.450	0.0163194
625.529	0.0162357
625.607	0.0162810
625.685	0.0161882
625.763	0.0162302
625.841	0.0163252
625.919	0.0164141
625.997	0.0162985
626.075	0.0162141
626.154	0.0162655
626.232	0.0162957
626.310	0.0162049
626.388	0.0161488
626.466	0.0163082
626.544	0.0162755
626.622	0.0162062
626.700	0.0162507
626.779	0.0163464
626.857	0.0162465
626.935	0.0162112
627.013	0.0162564
627.091	0.0161948
627.169	0.0161581
627.247	0.0162677
627.325	0.0161554
627.404	0.0162768
627.482	0.0162958
627.560	0.0162618
627.638	0.0161420
627.716	0.0161482
627.794	0.0161977
627.872	0.0161636
627.950	0.0162874
628.029	0.0160757
628.107	0.0161886
628.185	0.0162370
628.263	0.0162336
628.341	0.0162321
628.419	0.0160458
628.497	0.0162571
628.575	0.0162305
628.654	0.0160955
628.732	0.0160638
628.810	0.0162160
628.888	0.0162945
628.966	0.0162369
629.044	0.0161919
629.122	0.0161504
629.200	0.0160971
629.279	0.0162607
629.357	0.0163190
629.435	0.0161730
629.513	0.0162664
629.591	0.0161947
629.669	0.0162551
629.747	0.0162390
629.825	0.0163443
629.904	0.0162834
629.982	0.0161584
630.060	0.0163023
630.138	0.0163320
630.216	0.0162461
630.294	0.0161882
630.372	0.0162600
630.450	0.0162706
630.529	0.0162754
630.607	0.0163504
630.685	0.0163123
630.763	0.0162627
630.841	0.0161762
630.919	0.0162468
630.997	0.0163281
631.075	0.0162525
631.154	0.0162724
631.232	0.0161602
631.310	0.0163177
631.388	0.0163142
631.466	0.0160717
631.544	0.0162057
631.622	0.0162825
631.700	0.0161799
631.779	0.0162101
631.857	0.0162916
631.935	0.0163692
632.013	0.0161974
632.091	0.0162125
632.169	0.0163107
632.247	0.0163017
632.325	0.0163618
632.404	0.0161806
632.482	0.0161504
632.560	0.0162502
632.638	0.0161520
632.716	0.0161897
632.794	0.0162427
632.872	0.0161843
632.950	0.0162116
633.029	0.0163557
633.107	0.0160876
633.185	0.0161056
633.263	0.0162267
633.341	0.0162157
633.419	0.0162189
633.497	0.0162360
633.575	0.0163280
633.654	0.0162764
633.732	0.0162938
633.810	0.0160452
633.888	0.0161990
633.966	0.0161284
634.044	0.0162757
634.122	0.0162025
634.200	0.0162222
634.279	0.0161749
634.357	0.0162324
634.435	0.0163436
634.513	0.0161831
634.591	0.0162129
634.669	0.0162210
634.747	0.0161426
634.825	0.0162840
634.904	0.0162006
634.982	0.0162085
635.060	0.0160938
635.138	0.0161426
635.216	0.0162478
635.294	0.0161277
635.372	0.0161960
635.450	0.0162669
635.529	0.0162463
635.607	0.0161994
635.685	0.0162817
635.763	0.0162012
635.841	0.0163059
635.919	0.0162462
635.997	0.0162051
636.075	0.0163315
636.154	0.0163299
636.232	0.0162247
636.310	0.0161755
636.388	0.0162590
636.466	0.0163132
636.544	0.0162162
636.622	0.0162082
636.700	0.0162170
636.779	0.0162883
636.857	0.0162319
636.935	0.0163584
637.013	0.0161328
637.091	0.0161800
637.169	0.0163044
637.247	0.0162244
637.325	0.0162566
637.404	0.0163309
637.482	0.0162315
637.560	0.0162688
637.638	0.0163767
637.716	0.0163296
637.794	0.0161454
637.872	0.0163937
637.950	0.0160675
638.029	0.0162803
638.107	0.0162159
638.185	0.0162656
638.263	0.0161606
638.341	0.0161860
638.419	0.0162051
638.497	0.0162344
638.575	0.0161944
638.654	0.0162208
638.732	0.0160963
638.810	0.0162299
638.888	0.0163012
638.966	0.0163143
639.044	0.0162637
639.122	0.0162228
639.200	0.0163293
639.279	0.0163042
639.357	0.0162326
639.435	0.0162552
639.513	0.0163404
639.591	0.0162343
639.669	0.0162148
639.747	0.0162406
639.825	0.0162981
639.904	0.0161724
639.982	0.0162656
640.060	0.0162302
640.138	0.0162965
640.216	0.0162223
640.294	0.0160587
640.372	0.0163620
640.450	0.0163222
640.529	0.0162865
640.607	0.0162446
640.685	0.0162323
640.763	0.0162524
640.841	0.0162858
640.919	0.0162930
640.997	0.0162875
641.075	0.0163029
641.154	0.0161526
641.232	0.0161255
641.310	0.0162878
641.388	0.0163539
641.466	0.0163000
641.544	0.0161317
641.622	0.0161423
641.700	0.0162761
641.779	0.0162537
641.857	0.0163783
641.935	0.0162630
642.013	0.0161432
642.091	0.0161570
642.169	0.0161529
642.247	0.0162968
642.325	0.0162325
642.404	0.0162465
642.482	0.0162672
642.560	0.0162250
642.638	0.0162755
642.716	0.0162003
642.794	0.0161768
642.872	0.0163561
642.950	0.0162031
643.029	0.0162165
643.107	0.0162830
643.185	0.0161524
643.263	0.0161842
643.341	0.0162895
643.419	0.0163032
643.497	0.0162333
643.575	0.0162006
643.654	0.0162305
643.732	0.0163062
643.810	0.0163599
643.888	0.0163590
643.966	0.0161907
644.044	0.0163599
644.122	0.0163207
644.200	0.0162771
644.279	0.0162691
644.357	0.0161899
644.435	0.0161946
644.513	0.0162001
644.591	0.0162315
644.669	0.0162866
644.747	0.0162872
644.825	0.0161773
644.904	0.0161433
644.982	0.0162343
645.060	0.0162030
645.138	0.0159925
645.216	0.0162353
645.294	0.0161715
645.372	0.0162164
645.450	0.0161687
645.529	0.0160740
645.607	0.0162116
645.685	0.0163479
645.763	0.0162766
645.841	0.0162001
645.919	0.0162132
645.997	0.0162850
646.075	0.0163368
646.154	0.0163030
646.232	0.0161478
646.310	0.0162373
646.388	0.0161771
646.466	0.0162978
646.544	0.0161275
646.622	0.0161688
646.700	0.0161607
646.779	0.0161623
646.857	0.0161610
646.935	0.0161818
647.013	0.0161453
647.091	0.0162543
647.169	0.0162289
647.247	0.0163802
647.325	0.0161472
647.404	0.0161506
647.482	0.0161559
647.560	0.0162517
647.638	0.0162788
647.716	0.0161829
647.794	0.0161136
647.872	0.0161367
647.950	0.0161895
648.029	0.0162386
648.107	0.0162136
648.185	0.0161952
648.263	0.0162082
648.341	0.0162415
648.419	0.0163512
648.497	0.0162881
648.575	0.0161656
648.654	0.0163824
648.732	0.0162550
648.810	0.0161769
648.888	0.0161195
648.966	0.0163921
649.044	0.0162668
649.122	0.0163249
649.200	0.0162315
649.279	0.0161738
649.357	0.0162133
649.435	0.0162300
649.513	0.0162321
649.591	0.0161905
649.669	0.0162625
649.747	0.0162165
649.825	0.0163443
649.904	0.0162000
649.982	0.0161529
650.060	0.0163683
650.138	0.0160758
650.216	0.0162186
650.294	0.0161174
650.372	0.0161424
650.450	0.0163221
650.529	0.0162394
650.607	0.0162413
650.685	0.0162241
650.763	0.0161626
650.841	0.0162609
650.919	0.0162281
650.997	0.0162044
651.075	0.0163007
651.154	0.0162462
651.232	0.0163738
651.310	0.0164064
651.388	0.0162307
651.466	0.0162386
651.544	0.0161567
651.622	0.0162854
651.700	0.0161301
651.779	0.0162198
651.857	0.0163531
651.935	0.0162265
652.013	0.0162383
652.091	0.0161707
652.169	0.0162691
652.247	0.0162074
652.325	0.0160604
652.404	0.0162781
652.482	0.0162682
652.560	0.0161959
652.638	0.0162618
652.716	0.0162661
652.794	0.0162122
652.872	0.0161793
652.950	0.0162783
653.029	0.0163126
653.107	0.0163061
653.185	0.0162395
653.263	0.0162608
653.341	0.0162695
653.419	0.0162762
653.497	0.0162718
653.575	0.0161870
653.654	0.0162620
653.732	0.0161012
653.810	0.0161114
653.888	0.0162090
653.966	0.0161571
654.044	0.0162699
654.122	0.0161887
654.200	0.0163145
654.279	0.0161923
654.357	0.0161492
654.435	0.0160945
654.513	0.0163854
654.591	0.0163303
654.669	0.0161352
654.747	0.0162479
654.825	0.0162076
654.904	0.0162144
654.982	0.0163272
655.060	0.0162302
655.138	0.0164170
655.216	0.0162415
655.294	0.0163153
655.372	0.0162165
655.450	0.0161596
655.529	0.0163557
655.607	0.0162586
655.685	0.0161982
655.763	0.0162730
655.841	0.0162297
655.919	0.0161565
655.997	0.0162258
656.075	0.0162974
656.154	0.0164799
656.232	0.0163185
656.310	0.0161543
656.388	0.0162846
656.466	0.0163218
656.544	0.0162498
656.622	0.0163706
656.700	0.0163509
656.779	0.0162650
656.857	0.0162484
656.935	0.0161102
657.013	0.0161110
657.091	0.0162487
657.169	0.0162303
657.247	0.0163312
657.325	0.0163202
657.404	0.0163406
657.482	0.0162616
657.560	0.0161898
657.638	0.0161720
657.716	0.0163117
657.794	0.0162433
657.872	0.0162466
657.950	0.0161648
658.029	0.0163930
658.107	0.0161520
658.185	0.0162629
658.263	0.0162578
658.341	0.0162147
658.419	0.0162767
658.497	0.0163868
658.575	0.0162464
658.654	0.0162160
658.732	0.0162271
658.810	0.0162283
658.888	0.0162624
658.966	0.0163459
659.044	0.0162593
659.122	0.0162256
659.200	0.0163023
659.279	0.0161465
659.357	0.0162727
659.435	0.0162652
659.513	0.0162012
659.591	0.0162385
659.669	0.0163852
659.747	0.0162524
659.825	0.0160853
659.904	0.0163342
659.982	0.0162961
660.060	0.0162451
660.138	0.0163161
660.216	0.0162444
660.294	0.0163088
660.372	0.0162816
660.450	0.0162276
660.529	0.0161777
660.607	0.0162654
660.685	0.0161903
660.763	0.0162869
660.841	0.0164171
660.919	0.0162840
660.997	0.0162788
661.075	0.0162706
661.154	0.0163782
661.232	0.0162196
661.310	0.0163293
661.388	0.0162977
661.466	0.0161900
661.544	0.0163208
661.622	0.0162064
661.700	0.0160876
661.779	0.0161529
661.857	0.0163336
661.935	0.0163098
662.013	0.0162331
662.091	0.0163181
662.169	0.0161921
662.247	0.0162728
662.325	0.0162184
662.404	0.0162141
662.482	0.0163399
662.560	0.0162633
662.638	0.0163844
662.716	0.0162687
662.794	0.0163287
662.872	0.0163348
662.950	0.0162627
663.029	0.0161367
663.107	0.0163023
663.185	0.0162674
663.263	0.0162268
663.341	0.0162544
663.419	0.0161975
663.497	0.0162846
663.575	0.0161716
663.654	0.0161104
663.732	0.0161037
663.810	0.0162532
663.888	0.0163074
663.966	0.0161806
664.044	0.0161842
664.122	0.0161784
664.200	0.0163108
664.279	0.0161223
664.357	0.0162913
664.435	0.0161378
664.513	0.0162001
664.591	0.0162515
664.669	0.0161473
664.747	0.0162089
664.825	0.0161776
664.904	0.0162832
664.982	0.0161903
665.060	0.0162465
665.138	0.0161115
665.216	0.0163168
665.294	0.0162977
665.372	0.0161761
665.450	0.0163847
665.529	0.0163047
665.607	0.0162569
665.685	0.0163149
665.763	0.0162356
665.841	0.0162132
665.919	0.0162800
665.997	0.0161391
666.075	0.0162762
666.154	0.0162160
666.232	0.0163369
666.310	0.0162835
666.388	0.0163622
666.466	0.0163976
666.544	0.0161900
666.622	0.0162025
666.700	0.0162565
666.779	0.0161613
666.857	0.0162572
666.935	0.0162431
667.013	0.0162998
667.091	0.0162395
667.169	0.0161343
667.247	0.0161599
667.325	0.0161571
667.404	0.0162965
667.482	0.0162188
667.560	0.0161169
667.638	0.0162772
667.716	0.0162758
667.794	0.0161913
667.872	0.0162280
667.950	0.0162669
668.029	0.0163944
668.107	0.0163274
668.185	0.0162202
668.263	0.0162562
668.341	0.0161604
668.419	0.0161797
668.497	0.0162895
668.575	0.0162614
668.654	0.0162455
668.732	0.0162728
668.810	0.0161591
668.888	0.0162998
668.966	0.0163299
669.044	0.0163582
669.122	0.0163102
669.200	0.0163763
669.279	0.0163544
669.357	0.0164819
669.435	0.0163877
669.513	0.0162151
669.591	0.0162163
669.669	0.0162592
669.747	0.0162669
669.825	0.0164098
669.904	0.0164230
669.982	0.0162467
670.060	0.0162422
670.138	0.0162289
670.216	0.0164189
670.294	0.0162360
670.372	0.0162757
670.450	0.0163937
670.529	0.0162433
670.607	0.0163489
670.685	0.0162739
670.763	0.0163401
670.841	0.0164262
670.919	0.0163415
670.997	0.0162752
671.075	0.0162801
671.154	0.0162750
671.232	0.0162080
671.310	0.0163531
671.388	0.0163383
671.466	0.0163495
671.544	0.0163633
671.622	0.0164076
671.700	0.0164661
671.779	0.0163088
671.857	0.0162747
671.935	0.0163089
672.013	0.0162534
672.091	0.0162659
672.169	0.0162806
672.247	0.0162240
672.325	0.0162486
672.404	0.0161803
672.482	0.0163690
672.560	0.0162160
672.638	0.0161088
672.716	0.0163409
672.794	0.0161646
672.872	0.0162479
672.950	0.0162707
673.029	0.0163010
673.107	0.0162328
673.185	0.0162163
673.263	0.0163142
673.341	0.0162813
673.419	0.0162553
673.497	0.0161195
673.575	0.0161581
673.654	0.0162005
673.732	0.0160719
673.810	0.0161846
673.888	0.0162160
673.966	0.0162510
674.044	0.0163799
674.122	0.0163573
674.200	0.0162193
674.279	0.0163299
674.357	0.0162978
674.435	0.0162096
674.513	0.0161666
674.591	0.0161469
674.669	0.0162818
674.747	0.0163848
674.825	0.0161821
674.904	0.0162671
674.982	0.0162808
675.060	0.0161913
675.138	0.0163916
675.216	0.0163074
675.294	0.0163113
675.372	0.0162706
675.450	0.0162406
675.529	0.0161230
675.607	0.0162206
675.685	0.0162637
675.763	0.0162762
675.841	0.0161526
675.919	0.0162121
675.997	0.0162035
676.075	0.0160614
676.154	0.0161759
676.232	0.0162291
676.310	0.0161993
676.388	0.0162781
676.466	0.0163006
676.544	0.0163763
676.622	0.0164111
676.700	0.0164947
676.779	0.0163390
676.857	0.0163944
676.935	0.0164491
677.013	0.0165036
677.091	0.0163400
677.169	0.0163682
677.247	0.0165706
677.325	0.0164076
677.404	0.0164207
677.482	0.0164761
677.560	0.0164006
677.638	0.0164249
677.716	0.0163477
677.794	0.0162465
677.872	0.0160644
677.950	0.0161856
678.029	0.0162756
678.107	0.0160593
678.185	0.0161369
678.263	0.0159461
678.341	0.0160803
678.419	0.0159989
678.497	0.0159162
678.575	0.0159574
678.654	0.0160358
678.732	0.0160329
678.810	0.0159995
678.888	0.0160901
678.966	0.0161036
679.044	0.0159661
679.122	0.0161138
679.200	0.0161973
679.279	0.0162178
679.357	0.0162379
679.435	0.0163131
679.513	0.0163949
679.591	0.0164911
679.669	0.0165528
679.747	0.0163925
679.825	0.0165407
679.904	0.0166057
679.982	0.0166205
680.060	0.0165003
680.138	0.0165325
680.216	0.0164381
680.294	0.0163821
680.372	0.0164259
680.450	0.0163613
680.529	0.0162014
680.607	0.0161425
680.685	0.0161329
680.763	0.0160431
680.841	0.0160712
680.919	0.0160324
680.997	0.0159586
681.075	0.0160443
681.154	0.0158546
681.232	0.0158159
681.310	0.0157857
681.388	0.0158871
681.466	0.0157954
681.544	0.0158660
681.622	0.0160068
681.700	0.0160194
681.779	0.0161305
681.857	0.0159557
681.935	0.0161397
682.013	0.0162753
682.091	0.0161874
682.169	0.0163461
682.247	0.0163209
682.325	0.0162790
682.404	0.0164841
682.482	0.0163631
682.560	0.0162847
682.638	0.0162561
682.716	0.0164019
682.794	0.0162469
682.872	0.0163272
682.950	0.0162646
683.029	0.0162959
683.107	0.0161927
683.185	0.0162454
683.263	0.0161405
683.341	0.0161942
683.419	0.0160942
683.497	0.0161375
683.575	0.0161902
683.654	0.0160719
683.732	0.0161272
683.810	0.0161588
683.888	0.0162010
683.966	0.0162020
684.044	0.0162259
684.122	0.0161349
684.200	0.0161105
684.279	0.0161826
684.357	0.0163065
684.435	0.0163209
684.513	0.0162294
684.591	0.0162809
684.669	0.0163301
684.747	0.0164908
684.825	0.0165247
684.904	0.0163197
684.982	0.0162511
685.060	0.0163393
685.138	0.0163853
685.216	0.0163770
685.294	0.0163497
685.372	0.0162570
685.450	0.0162067
685.529	0.0159708
685.607	0.0159499
685.685	0.0159295
685.763	0.0159142
685.841	0.0157772
685.919	0.0158511
685.997	0.0159424
686.075	0.0160098
686.154	0.0160458
686.232	0.0161989
686.310	0.0162965
686.388	0.0162864
686.466	0.0164502
686.544	0.0164458
686.622	0.0164215
686.700	0.0165716
686.779	0.0165157
686.857	0.0165713
686.935	0.0165793
687.013	0.0164481
687.091	0.0162781
687.169	0.0160827
687.247	0.0159260
687.325	0.0158270
687.404	0.0157426
687.482	0.0157111
687.560	0.0155892
687.638	0.0156145
687.716	0.0156815
687.794	0.0158765
687.872	0.0160436
687.950	0.0163464
688.029	0.0166283
688.107	0.0169308
688.185	0.0170967
688.263	0.0173026
688.341	0.0175227
688.419	0.0175181
688.497	0.0175476
688.575	0.0174173
688.654	0.0171140
688.732	0.0169387
688.810	0.0167716
688.888	0.0165739
688.966	0.0162476
689.044	0.0157739
689.122	0.0157652
689.200	0.0155216
689.279	0.0154063
689.357	0.0153838
689.435	0.0153580
689.513	0.0154047
689.591	0.0152910
689.669	0.0155800
689.747	0.0156117
689.825	0.0157000
689.904	0.0157837
689.982	0.0158284
690.060	0.0158301
690.138	0.0159774
690.216	0.0159677
690.294	0.0160852
690.372	0.0160063
690.450	0.0160682
690.529	0.0161496
690.607	0.0162930
690.685	0.0163976
690.763	0.0166841
690.841	0.0168094
690.919	0.0169124
690.997	0.0169197
691.075	0.0170442
691.154	0.0171793
691.232	0.0172339
691.310	0.0171181
691.388	0.0172318
691.466	0.0171802
691.544	0.0169613
691.622	0.0167642
691.700	0.0169003
691.779	0.0166891
691.857	0.0167313
691.935	0.0167012
692.013	0.0165886
692.091	0.0167469
692.169	0.0167242
692.247	0.0167063
692.325	0.0167931
692.404	0.0167040
692.482	0.0166723
692.560	0.0165788
692.638	0.0164713
692.716	0.0163508
692.794	0.0161683
692.872	0.0157993
692.950	0.0156289
693.029	0.0151483
693.107	0.0150230
693.185	0.0148259
693.263	0.0145123
693.341	0.0144274
693.419	0.0145296
693.497	0.0144615
693.575	0.0145512
693.654	0.0147793
693.732	0.0149445
693.810	0.0151904
693.888	0.0155978
693.966	0.0158374
694.044	0.0164069
694.122	0.0166858
694.200	0.0171825
694.279	0.0175072
694.357	0.0178189
694.435	0.0179958
694.513	0.0182165
694.591	0.0183881
694.669	0.0183654
694.747	0.0182918
694.825	0.0178827
694.904	0.0176691
694.982	0.0175900
695.060	0.0171777
695.138	0.0168346
695.216	0.0167149
695.294	0.0164318
695.372	0.0163141
695.450	0.0162003
695.529	0.0158637
695.607	0.0157484
695.685	0.0157961
695.763	0.0156969
695.841	0.0155882
695.919	0.0156498
695.997	0.0154769
696.075	0.0154200
696.154	0.0154205
696.232	0.0152805
696.310	0.0154311
696.388	0.0154531
696.466	0.0154903
696.544	0.0156507
696.622	0.0158243
696.700	0.0160880
696.779	0.0163720
696.857	0.0164677
696.935	0.0165904
697.013	0.0166837
697.091	0.0167409
697.169	0.0168532
697.247	0.0168743
697.325	0.0168157
697.404	0.0169749
697.482	0.0169804
697.560	0.0170724
697.638	0.0170997
697.716	0.0171544
697.794	0.0171182
697.872	0.0171375
697.950	0.0170467
698.029	0.0168637
698.107	0.0167772
698.185	0.0165945
698.263	0.0164211
698.341	0.0161919
698.419	0.0158648
698.497	0.0156094
698.575	0.0153954
698.654	0.0151851
698.732	0.0148309
698.810	0.0147202
698.888	0.0145129
698.966	0.0142690
699.044	0.0143327
699.122	0.0142875
699.200	0.0141609
699.279	0.0142831
699.357	0.0142269
699.435	0.0143889
699.513	0.0147292
699.591	0.0149598
699.669	0.0151823
699.747	0.0154820
699.825	0.0157592
699.904	0.0160252
699.982	0.0165953
700.060	0.0167178
700.138	0.0168507
700.216	0.0170213
700.294	0.0173533
700.372	0.0174699
700.450	0.0174937
700.529	0.0176678
700.607	0.0177905
700.685	0.0178889
700.763	0.0179791
700.841	0.0182517
700.919	0.0185237
700.997	0.0184894
701.075	0.0184055
701.154	0.0185612
701.232	0.0186749
701.310	0.0185017
701.388	0.0186152
701.466	0.0185539
701.544	0.0183331
701.622	0.0184727
701.700	0.0183903
701.779	0.0185654
701.857	0.0184783
701.935	0.0184101
702.013	0.0184422
702.091	0.0183166
702.169	0.0179057
702.247	0.0177168
702.325	0.0171787
702.404	0.0165716
702.482	0.0159745
702.560	0.0152318
702.638	0.0145930
702.716	0.0137936
702.794	0.0131711
702.872	0.0125257
702.950	0.0116545
703.029	0.0111249
703.107	0.0106776
703.185	0.0102090
703.263	0.00988197
703.341	0.00962418
703.419	0.00966042
703.497	0.00994659
703.575	0.0100028
703.654	0.0101958
703.732	0.0107094
703.810	0.0113116
703.888	0.0118610
703.966	0.0125321
704.044	0.0133750
704.122	0.0142201
704.200	0.0151180
704.279	0.0157806
704.357	0.0166456
704.435	0.0173957
704.513	0.0179944
704.591	0.0187263
704.669	0.0195054
704.747	0.0201709
704.825	0.0206335
704.904	0.0211927
704.982	0.0217117
705.060	0.0220035
705.138	0.0223884
705.216	0.0225543
705.294	0.0227233
705.372	0.0225843
705.450	0.0225027
705.529	0.0225137
705.607	0.0221478
705.685	0.0218107
705.763	0.0215723
705.841	0.0211613
705.919	0.0206772
705.997	0.0202948
706.075	0.0200289
706.154	0.0193763
706.232	0.0190167
706.310	0.0185022
706.388	0.0179938
706.466	0.0174361
706.544	0.0168140
706.622	0.0162182
706.700	0.0156497
706.779	0.0149625
706.857	0.0141705
706.935	0.0134120
707.013	0.0125904
707.091	0.0118993
707.169	0.0110177
707.247	0.0103356
707.325	0.00949074
707.404	0.00900764
707.482	0.00844772
707.560	0.00805824
707.638	0.00786964
707.716	0.00766434
707.794	0.00796043
707.872	0.00820587
707.950	0.00850647
708.029	0.00927620
708.107	0.0102950
708.185	0.0115103
708.263	0.0125362
708.341	0.0136425
708.419	0.0149337
708.497	0.0161549
708.575	0.0172585
708.654	0.0182092
708.732	0.0191538
708.810	0.0200209
708.888	0.0207066
708.966	0.0211207
709.044	0.0212690
709.122	0.0213409
709.200	0.0213834
709.279	0.0211632
709.357	0.0208317
709.435	0.0206293
709.513	0.0204673
709.591	0.0199607
709.669	0.0198172
709.747	0.0195073
709.825	0.0190493
709.904	0.0186517
709.982	0.0183464
710.060	0.0178635
710.138	0.0173270
710.216	0.0171512
710.294	0.0168288
710.372	0.0164841
710.450	0.0163917
710.529	0.0158875
710.607	0.0157325
710.685	0.0156059
710.763	0.0156770
710.841	0.0156695
710.919	0.0157963
710.997	0.0157790
711.075	0.0158671
711.154	0.0160891
711.232	0.0159892
711.310	0.0162650
711.388	0.0162117
711.466	0.0161517
711.544	0.0161679
711.622	0.0165349
711.700	0.0167860
711.779	0.0165979
711.857	0.0169906
711.935	0.0172155
712.013	0.0171917
712.091	0.0173438
712.169	0.0173263
712.247	0.0172082
712.325	0.0170278
712.404	0.0167899
712.482	0.0166404
712.560	0.0165257
712.638	0.0162888
712.716	0.0161386
712.794	0.0158429
712.872	0.0157283
712.950	0.0156904
713.029	0.0155559
713.107	0.0154238
713.185	0.0153043
713.263	0.0150788
713.341	0.0150606
713.419	0.0150966
713.497	0.0148960
713.575	0.0146494
713.654	0.0142445
713.732	0.0141303
713.810	0.0139423
713.888	0.0137461
713.966	0.0136302
714.044	0.0134473
714.122	0.0137040
714.200	0.0137232
714.279	0.0139644
714.357	0.0142878
714.435	0.0144960
714.513	0.0148399
714.591	0.0151688
714.669	0.0156019
714.747	0.0159867
714.825	0.0162524
714.904	0.0166944
714.982	0.0167821
715.060	0.0171515
715.138	0.0172519
715.216	0.0172607
715.294	0.0173927
715.372	0.0173014
715.450	0.0171806
715.529	0.0171128
715.607	0.0167920
715.685	0.0168005
715.763	0.0165022
715.841	0.0165863
715.919	0.0164406
715.997	0.0163186
716.075	0.0162716
716.154	0.0163213
716.232	0.0164388
716.310	0.0167076
716.388	0.0170570
716.466	0.0172571
716.544	0.0176255
716.622	0.0181734
716.700	0.0185472
716.779	0.0188560
716.857	0.0190405
716.935	0.0192051
717.013	0.0191587
717.091	0.0189161
717.169	0.0186948
717.247	0.0184206
717.325	0.0180448
717.404	0.0174236
717.482	0.0169532
717.560	0.0166973
717.638	0.0162671
717.716	0.0161761
717.794	0.0161048
717.872	0.0160578
717.950	0.0161646
718.029	0.0165605
718.107	0.0167812
718.185	0.0170811
718.263	0.0173885
718.341	0.0175922
718.419	0.0177156
718.497	0.0177641
718.575	0.0178900
718.654	0.0177592
718.732	0.0177776
718.810	0.0173658
718.888	0.0170914
718.966	0.0169207
719.044	0.0165952
719.122	0.0161707
719.200	0.0158070
719.279	0.0154972
719.357	0.0153137
719.435	0.0148866
719.513	0.0146320
719.591	0.0146346
719.669	0.0147221
719.747	0.0144747
719.825	0.0144397
719.904	0.0143185
719.982	0.0140731
720.060	0.0139034
720.138	0.0137749
720.216	0.0136469
720.294	0.0134769
720.372	0.0131531
720.450	0.0129901
720.529	0.0128019
720.607	0.0126005
720.685	0.0126395
720.763	0.0125609
720.841	0.0124121
720.919	0.0124238
720.997	0.0125962
721.075	0.0126938
721.154	0.0127825
721.232	0.0130336
721.310	0.0130959
721.388	0.0135325
721.466	0.0137225
721.544	0.0142163
721.622	0.0148431
721.700	0.0153825
721.779	0.0160614
721.857	0.0166684
721.935	0.0175852
722.013	0.0181314
722.091	0.0187762
722.169	0.0194125
722.247	0.0199187
722.325	0.0202017
722.404	0.0203252
722.482	0.0203739
722.560	0.0204121
722.638	0.0202809
722.716	0.0200759
722.794	0.0199808
722.872	0.0199409
722.950	0.0196193
723.029	0.0196607
723.107	0.0195318
723.185	0.0195606
723.263	0.0196596
723.341	0.0197108
723.419	0.0198139
723.497	0.0199058
723.575	0.0199139
723.654	0.0198344
723.732	0.0196653
723.810	0.0193489
723.888	0.0189857
723.966	0.0185339
724.044	0.0179807
724.122	0.0173753
724.200	0.0167329
724.279	0.0160846
724.357	0.0155962
724.435	0.0152458
724.513	0.0148093
724.591	0.0147680
724.669	0.0146839
724.747	0.0148391
724.825	0.0151611
724.904	0.0154431
724.982	0.0157538
725.060	0.0159142
725.138	0.0162900
725.216	0.0164799
725.294	0.0166144
725.372	0.0166248
725.450	0.0164841
725.529	0.0160334
725.607	0.0157104
725.685	0.0153177
725.763	0.0146718
725.841	0.0137700
725.919	0.0131604
725.997	0.0126237
726.075	0.0120190
726.154	0.0116898
726.232	0.0112658
726.310	0.0110183
726.388	0.0109065
726.466	0.0111481
726.544	0.0112559
726.622	0.0115863
726.700	0.0117660
726.779	0.0121990
726.857	0.0125130
726.935	0.0127702
727.013	0.0129872
727.091	0.0132410
727.169	0.0136437
727.247	0.0137126
727.325	0.0139333
727.404	0.0145412
727.482	0.0146913
727.560	0.0151636
727.638	0.0155553
727.716	0.0162991
727.794	0.0169118
727.872	0.0173763
727.950	0.0179491
728.029	0.0185767
728.107	0.0190134
728.185	0.0193716
728.263	0.0194571
728.341	0.0197379
728.419	0.0199017
728.497	0.0198721
728.575	0.0196785
728.654	0.0195112
728.732	0.0191052
728.810	0.0187782
728.888	0.0184827
728.966	0.0180992
729.044	0.0175887
729.122	0.0175245
729.200	0.0171651
729.279	0.0170702
729.357	0.0171321
729.435	0.0170659
729.513	0.0170857
729.591	0.0174046
729.669	0.0177216
729.747	0.0180640
729.825	0.0187705
729.904	0.0192240
729.982	0.0198131
730.060	0.0202948
730.138	0.0206741
730.216	0.0212378
730.294	0.0214466
730.372	0.0214879
730.450	0.0212444
730.529	0.0208018
730.607	0.0202518
730.685	0.0196696
730.763	0.0187141
730.841	0.0177357
730.919	0.0164188
730.997	0.0153197
731.075	0.0143068
731.154	0.0134262
731.232	0.0125622
731.310	0.0119077
731.388	0.0116007
731.466	0.0113307
731.544	0.0113476
731.622	0.0115870
731.700	0.0118491
731.779	0.0121426
731.857	0.0126272
731.935	0.0132108
732.013	0.0136794
732.091	0.0140736
732.169	0.0144991
732.247	0.0148397
732.325	0.0150938
732.404	0.0151804
732.482	0.0151328
732.560	0.0149458
732.638	0.0147579
732.716	0.0143022
732.794	0.0140295
732.872	0.0136313
732.950	0.0132586
733.029	0.0130062
733.107	0.0127385
733.185	0.0124590
733.263	0.0124111
733.341	0.0125100
733.419	0.0126584
733.497	0.0131418
733.575	0.0134794
733.654	0.0140447
733.732	0.0145631
733.810	0.0149645
733.888	0.0156723
733.966	0.0165141
734.044	0.0170864
734.122	0.0178845
734.200	0.0186806
734.279	0.0191998
734.357	0.0195251
734.435	0.0199323
734.513	0.0202894
734.591	0.0204609
734.669	0.0204086
734.747	0.0201204
734.825	0.0199223
734.904	0.0195855
734.982	0.0190769
735.060	0.0185654
735.138	0.0179781
735.216	0.0175161
735.294	0.0169336
735.372	0.0165652
735.450	0.0159638
735.529	0.0158107
735.607	0.0156169
735.685	0.0153474
735.763	0.0152766
735.841	0.0154470
735.919	0.0153922
735.997	0.0154971
736.075	0.0158567
736.154	0.0160983
736.232	0.0163589
736.310	0.0167844
736.388	0.0173562
736.466	0.0176618
736.544	0.0182256
736.622	0.0184669
736.700	0.0188934
736.779	0.0193668
736.857	0.0195386
736.935	0.0196225
737.013	0.0196049
737.091	0.0197509
737.169	0.0194797
737.247	0.0190450
737.325	0.0187537
737.404	0.0181181
737.482	0.0177200
737.560	0.0170609
737.638	0.0165429
737.716	0.0160329
737.794	0.0157919
737.872	0.0152403
737.950	0.0149881
738.029	0.0150199
738.107	0.0147995
738.185	0.0145924
738.263	0.0145993
738.341	0.0146364
738.419	0.0146600
738.497	0.0145876
738.575	0.0147089
738.654	0.0148188
738.732	0.0147739
738.810	0.0147104
738.888	0.0147865
738.966	0.0145899
739.044	0.0147073
739.122	0.0146066
739.200	0.0143401
739.279	0.0142537
739.357	0.0139980
739.435	0.0138167
739.513	0.0137315
739.591	0.0135751
739.669	0.0135176
739.747	0.0134106
739.825	0.0133404
739.904	0.0135240
739.982	0.0137306
740.060	0.0140163
740.138	0.0142886
740.216	0.0146601
740.294	0.0149828
740.372	0.0152386
740.450	0.0156565
740.529	0.0160152
740.607	0.0162976
740.685	0.0168025
740.763	0.0169214
740.841	0.0170265
740.919	0.0172808
740.997	0.0175243
741.075	0.0175415
741.154	0.0176212
741.232	0.0176945
741.310	0.0178331
741.388	0.0180338
741.466	0.0178979
741.544	0.0178754
741.622	0.0178630
741.700	0.0178490
741.779	0.0178361
741.857	0.0177480
741.935	0.0175967
742.013	0.0176152
742.091	0.0174893
742.169	0.0174409
742.247	0.0173244
742.325	0.0172364
742.404	0.0171879
742.482	0.0170102
742.560	0.0168647
742.638	0.0167406
742.716	0.0167363
742.794	0.0166145
742.872	0.0165457
742.950	0.0164435
743.029	0.0160994
743.107	0.0160665
743.185	0.0160180
743.263	0.0158034
743.341	0.0159395
743.419	0.0158100
743.497	0.0158702
743.575	0.0158854
743.654	0.0159512
743.732	0.0162160
743.810	0.0163647
743.888	0.0167113
743.966	0.0170505
744.044	0.0171693
744.122	0.0176343
744.200	0.0179357
744.279	0.0179823
744.357	0.0181361
744.435	0.0183521
744.513	0.0184669
744.591	0.0183605
744.669	0.0180460
744.747	0.0179334
744.825	0.0177983
744.904	0.0175688
744.982	0.0172276
745.060	0.0169807
745.138	0.0166025
745.216	0.0162751
745.294	0.0160122
745.372	0.0157539
745.450	0.0155283
745.529	0.0155544
745.607	0.0154650
745.685	0.0152773
745.763	0.0152700
745.841	0.0151450
745.919	0.0151164
745.997	0.0149738
746.075	0.0149070
746.154	0.0148707
746.232	0.0147143
746.310	0.0145988
746.388	0.0145824
746.466	0.0146162
746.544	0.0145042
746.622	0.0143121
746.700	0.0144122
746.779	0.0143258
746.857	0.0143410
746.935	0.0144302
747.013	0.0144250
747.091	0.0146009
747.169	0.0146732
747.247	0.0147346
747.325	0.0148300
747.404	0.0150336
747.482	0.0150326
747.560	0.0151521
747.638	0.0152641
747.716	0.0153139
747.794	0.0155296
747.872	0.0155864
747.950	0.0157546
748.029	0.0159454
748.107	0.0162599
748.185	0.0162460
748.263	0.0165231
748.341	0.0166685
748.419	0.0170760
748.497	0.0173645
748.575	0.0174540
748.654	0.0174483
748.732	0.0177831
748.810	0.0179342
748.888	0.0180711
748.966	0.0180063
749.044	0.0181919
749.122	0.0180154
749.200	0.0178432
749.279	0.0178473
749.357	0.0175633
749.435	0.0173853
749.513	0.0173447
749.591	0.0173052
749.669	0.0170790
749.747	0.0170352
749.825	0.0169104
749.904	0.0167354
749.982	0.0166475
750.060	0.0166714
750.138	0.0164709
750.216	0.0163841
750.294	0.0162913
750.372	0.0163662
750.450	0.0161440
750.529	0.0162154
750.607	0.0163177
750.685	0.0162158
750.763	0.0162208
750.841	0.0162492
750.919	0.0160757
750.997	0.0161681
751.075	0.0162775
751.154	0.0163988
751.232	0.0162177
751.310	0.0162469
751.388	0.0163890
751.466	0.0163805
751.544	0.0163769
751.622	0.0165051
751.700	0.0165160
751.779	0.0165159
751.857	0.0165356
751.935	0.0166518
752.013	0.0166405
752.091	0.0166087
752.169	0.0168733
752.247	0.0167786
752.325	0.0168145
752.404	0.0168970
752.482	0.0169647
752.560	0.0168400
752.638	0.0167752
752.716	0.0167031
752.794	0.0166199
752.872	0.0165078
752.950	0.0162345
753.029	0.0160545
753.107	0.0157474
753.185	0.0156044
753.263	0.0153750
753.341	0.0150680
753.419	0.0149756
753.497	0.0148293
753.575	0.0146982
753.654	0.0146315
753.732	0.0148914
753.810	0.0150084
753.888	0.0148831
753.966	0.0148810
754.044	0.0150101
754.122	0.0153712
754.200	0.0154044
754.279	0.0154608
754.357	0.0156166
754.435	0.0160136
754.513	0.0160777
754.591	0.0162799
754.669	0.0163405
754.747	0.0164306
754.825	0.0165383
754.904	0.0164690
754.982	0.0165147
755.060	0.0166785
755.138	0.0165439
755.216	0.0162696
755.294	0.0162422
755.372	0.0161549
755.450	0.0161221
755.529	0.0159768
755.607	0.0158529
755.685	0.0157218
755.763	0.0155879
755.841	0.0155714
755.919	0.0156071
755.997	0.0156194
756.075	0.0153892
756.154	0.0155191
756.232	0.0155576
756.310	0.0156781
756.388	0.0158881
756.466	0.0158635
756.544	0.0160171
756.622	0.0161713
756.700	0.0163359
756.779	0.0164539
756.857	0.0167834
756.935	0.0167553
757.013	0.0170869
757.091	0.0170233
757.169	0.0171185
757.247	0.0173289
757.325	0.0173364
757.404	0.0174165
757.482	0.0173786
757.560	0.0174269
757.638	0.0174930
757.716	0.0173138
757.794	0.0170667
757.872	0.0171702
757.950	0.0170914
758.029	0.0170820
758.107	0.0166469
758.185	0.0166422
758.263	0.0164249
758.341	0.0162766
758.419	0.0162855
758.497	0.0161696
758.575	0.0160324
758.654	0.0159597
758.732	0.0158560
758.810	0.0160859
758.888	0.0160043
758.966	0.0160001
759.044	0.0161420
759.122	0.0162772
759.200	0.0163285
759.279	0.0165794
759.357	0.0166230
759.435	0.0167020
759.513	0.0167525
759.591	0.0168379
759.669	0.0168945
759.747	0.0169582
759.825	0.0170439
759.904	0.0170833
759.982	0.0171077
760.060	0.0171075
760.138	0.0170627
760.216	0.0170119
760.294	0.0168885
760.372	0.0167971
760.450	0.0165594
760.529	0.0164429
760.607	0.0161681
760.685	0.0160426
760.763	0.0157999
760.841	0.0156319
760.919	0.0154742
760.997	0.0153252
761.075	0.0152522
761.154	0.0152052
761.232	0.0151984
761.310	0.0152467
761.388	0.0151958
761.466	0.0153202
761.544	0.0153466
761.622	0.0153584
761.700	0.0155262
761.779	0.0157021
761.857	0.0155844
761.935	0.0157548
762.013	0.0158051
762.091	0.0157377
762.169	0.0156947
762.247	0.0158846
762.325	0.0156355
762.404	0.0156825
762.482	0.0155713
762.560	0.0156060
762.638	0.0155585
762.716	0.0153904
762.794	0.0153461
762.872	0.0153718
762.950	0.0153040
763.029	0.0154404
763.107	0.0155502
763.185	0.0154344
763.263	0.0154591
763.341	0.0155838
763.419	0.0155764
763.497	0.0156420
763.575	0.0158466
763.654	0.0159373
763.732	0.0160586
763.810	0.0160997
763.888	0.0163332
763.966	0.0165044
764.044	0.0165348
764.122	0.0165640
764.200	0.0167598
764.279	0.0169129
764.357	0.0169598
764.435	0.0170345
764.513	0.0171652
764.591	0.0169395
764.669	0.0172359
764.747	0.0174225
764.825	0.0174136
764.904	0.0173676
764.982	0.0172754
765.060	0.0173460
765.138	0.0175304
765.216	0.0174477
765.294	0.0172513
765.372	0.0175214
765.450	0.0173582
765.529	0.0173745
765.607	0.0173180
765.685	0.0172423
765.763	0.0169894
765.841	0.0170205
765.919	0.0167607
765.997	0.0168017
766.075	0.0166718
766.154	0.0164461
766.232	0.0164820
766.310	0.0162356
766.388	0.0162620
766.466	0.0161597
766.544	0.0160460
766.622	0.0159192
766.700	0.0159489
766.779	0.0160855
766.857	0.0161042
766.935	0.0161884
767.013	0.0161736
767.091	0.0162971
767.169	0.0164792
767.247	0.0165483
767.325	0.0166441
767.404	0.0168230
767.482	0.0167052
767.560	0.0169184
767.638	0.0169032
767.716	0.0168960
767.794	0.0167785
767.872	0.0166290
767.950	0.0165714
768.029	0.0163976
768.107	0.0162839
768.185	0.0161118
768.263	0.0160518
768.341	0.0160110
768.419	0.0159505
768.497	0.0156902
768.575	0.0157172
768.654	0.0156118
768.732	0.0154492
768.810	0.0153587
768.888	0.0154662
768.966	0.0152871
769.044	0.0153315
769.122	0.0152903
769.200	0.0152709
769.279	0.0152956
769.357	0.0152354
769.435	0.0154774
769.513	0.0154475
769.591	0.0155418
769.669	0.0156668
769.747	0.0156867
769.825	0.0157922
769.904	0.0158823
769.982	0.0161334
770.060	0.0159714
770.138	0.0161138
770.216	0.0162133
770.294	0.0161298
770.372	0.0161828
770.450	0.0160986
770.529	0.0160702
770.607	0.0161587
770.685	0.0162299
770.763	0.0161231
770.841	0.0161066
770.919	0.0160168
770.997	0.0159834
771.075	0.0160481
771.154	0.0159043
771.232	0.0159525
771.310	0.0160679
771.388	0.0162054
771.466	0.0162007
771.544	0.0161890
771.622	0.0163705
771.700	0.0164986
771.779	0.0164404
771.857	0.0166119
771.935	0.0167825
772.013	0.0166949
772.091	0.0168858
772.169	0.0169607
772.247	0.0170501
772.325	0.0170569
772.404	0.0171257
772.482	0.0171510
772.560	0.0172086
772.638	0.0171733
772.716	0.0171270
772.794	0.0170325
772.872	0.0171892
772.950	0.0171292
773.029	0.0171224
773.107	0.0171329
773.185	0.0168686
773.263	0.0168626
773.341	0.0167821
773.419	0.0168002
773.497	0.0167530
773.575	0.0167451
773.654	0.0167142
773.732	0.0166113
773.810	0.0165676
773.888	0.0165079
773.966	0.0163401
774.044	0.0163686
774.122	0.0164227
774.200	0.0162292
774.279	0.0161993
774.357	0.0163142
774.435	0.0161872
774.513	0.0162077
774.591	0.0163000
774.669	0.0162046
774.747	0.0161263
774.825	0.0161977
774.904	0.0160832
774.982	0.0161893
775.060	0.0160776
775.138	0.0162783
775.216	0.0162572
775.294	0.0161394
775.372	0.0161681
775.450	0.0162091
775.529	0.0160571
775.607	0.0160759
775.685	0.0161072
775.763	0.0159988
775.841	0.0160813
775.919	0.0160062
775.997	0.0161615
776.075	0.0160908
776.154	0.0161944
776.232	0.0162645
776.310	0.0162640
776.388	0.0161147
776.466	0.0160493
776.544	0.0160085
776.622	0.0158902
776.700	0.0158357
776.779	0.0158160
776.857	0.0155614
776.935	0.0155476
777.013	0.0154140
777.091	0.0153999
777.169	0.0155273
777.247	0.0153828
777.325	0.0156203
777.404	0.0156419
777.482	0.0157018
777.560	0.0157849
777.638	0.0159255
777.716	0.0159679
777.794	0.0161436
777.872	0.0161262
777.950	0.0163144
778.029	0.0162959
778.107	0.0162713
778.185	0.0163877
778.263	0.0163521
778.341	0.0163742
778.419	0.0164127
778.497	0.0163297
778.575	0.0163841
778.654	0.0162070
778.732	0.0162839
778.810	0.0162710
778.888	0.0162605
778.966	0.0161803
779.044	0.0160096
779.122	0.0161316
779.200	0.0161880
779.279	0.0160153
779.357	0.0159122
779.435	0.0159995
779.513	0.0161150
779.591	0.0160556
779.669	0.0162298
779.747	0.0163059
779.825	0.0165317
779.904	0.0166379
779.982	0.0168037
780.060	0.0168414
780.138	0.0169858
780.216	0.0170020
780.294	0.0170787
780.372	0.0172694
780.450	0.0172513
780.529	0.0172711
780.607	0.0170780
780.685	0.0171698
780.763	0.0171003
780.841	0.0170374
780.919	0.0168758
780.997	0.0168075
781.075	0.0168141
781.154	0.0165768
781.232	0.0164982
781.310	0.0164125
781.388	0.0163338
781.466	0.0163322
781.544	0.0162621
781.622	0.0161214
781.700	0.0161987
781.779	0.0161839
781.857	0.0161319
781.935	0.0160513
782.013	0.0161179
782.091	0.0159846
782.169	0.0160306
782.247	0.0158806
782.325	0.0158498
782.404	0.0158566
782.482	0.0157716
782.560	0.0159547
782.638	0.0157828
782.716	0.0158681
782.794	0.0160116
782.872	0.0160269
782.950	0.0162093
783.029	0.0164088
783.107	0.0162637
783.185	0.0163501
783.263	0.0165587
783.341	0.0164699
783.419	0.0164375
783.497	0.0165543
783.575	0.0164294
783.654	0.0164452
783.732	0.0164160
783.810	0.0163959
783.888	0.0162553
783.966	0.0161635
784.044	0.0160909
784.122	0.0160953
784.200	0.0161728
784.279	0.0159418
784.357	0.0160157
784.435	0.0160329
784.513	0.0159949
784.591	0.0159349
784.669	0.0160480
784.747	0.0159782
784.825	0.0159966
784.904	0.0160815
784.982	0.0159440
785.060	0.0158977
785.138	0.0159422
785.216	0.0158022
785.294	0.0157841
785.372	0.0158084
785.450	0.0157370
785.529	0.0157702
785.607	0.0156367
785.685	0.0157066
785.763	0.0157694
785.841	0.0158436
785.919	0.0159750
785.997	0.0160050
786.075	0.0160493
786.154	0.0160685
786.232	0.0162964
786.310	0.0164633
786.388	0.0162892
786.466	0.0164017
786.544	0.0165598
786.622	0.0165516
786.700	0.0164848
786.779	0.0163573
786.857	0.0164602
786.935	0.0164275
787.013	0.0163105
787.091	0.0162756
787.169	0.0162199
787.247	0.0162338
787.325	0.0163323
787.404	0.0162132
787.482	0.0161298
787.560	0.0160736
787.638	0.0161886
787.716	0.0162478
787.794	0.0163480
787.872	0.0165443
787.950	0.0165570
788.029	0.0165674
788.107	0.0166093
788.185	0.0168202
788.263	0.0168622
788.341	0.0169061
788.419	0.0168915
788.497	0.0171039
788.575	0.0169415
788.654	0.0171059
788.732	0.0170150
788.810	0.0171027
788.888	0.0170080
788.966	0.0168849
789.044	0.0167252
789.122	0.0166637
789.200	0.0165112
789.279	0.0164500
789.357	0.0163151
789.435	0.0162945
789.513	0.0160985
789.591	0.0159879
789.669	0.0158479
789.747	0.0159867
789.825	0.0158263
789.904	0.0158444
789.982	0.0157585
790.060	0.0159588
790.138	0.0156825
790.216	0.0158830
790.294	0.0161117
790.372	0.0159614
790.450	0.0160377
790.529	0.0160462
790.607	0.0162217
790.685	0.0163976
790.763	0.0163303
790.841	0.0162486
790.919	0.0163010
790.997	0.0164526
791.075	0.0164477
791.154	0.0164677
791.232	0.0162890
791.310	0.0164677
791.388	0.0165367
791.466	0.0163889
791.544	0.0163866
791.622	0.0164264
791.700	0.0164969
791.779	0.0165562
791.857	0.0164693
791.935	0.0165675
792.013	0.0163836
792.091	0.0163112
792.169	0.0164612
792.247	0.0160831
792.325	0.0162969
792.404	0.0161413
792.482	0.0160641
792.560	0.0160507
792.638	0.0159587
792.716	0.0157417
792.794	0.0158294
792.872	0.0158382
792.950	0.0157027
793.029	0.0157422
793.107	0.0157779
793.185	0.0158894
793.263	0.0157491
793.341	0.0158681
793.419	0.0160675
793.497	0.0160513
793.575	0.0161732
793.654	0.0162840
793.732	0.0161388
793.810	0.0163133
793.888	0.0163466
793.966	0.0164130
794.044	0.0162982
794.122	0.0165411
794.200	0.0163437
794.279	0.0163890
794.357	0.0163776
794.435	0.0162948
794.513	0.0162844
794.591	0.0163000
794.669	0.0162948
794.747	0.0162476
794.825	0.0164132
794.904	0.0163784
794.982	0.0163286
795.060	0.0162891
795.138	0.0162758
795.216	0.0162560
795.294	0.0162057
795.372	0.0162785
795.450	0.0162435
795.529	0.0162278
795.607	0.0160919
795.685	0.0160875
795.763	0.0161192
795.841	0.0160433
795.919	0.0161792
795.997	0.0162444
796.075	0.0164011
796.154	0.0163583
796.232	0.0164594
796.310	0.0165471
796.388	0.0165952
796.466	0.0167815
796.544	0.0168259
796.622	0.0168900
796.700	0.0168021
796.779	0.0168314
796.857	0.0168294
796.935	0.0169883
797.013	0.0168288
797.091	0.0167766
797.169	0.0167876
797.247	0.0167789
797.325	0.0168628
797.404	0.0167352
797.482	0.0165347
797.560	0.0167088
797.638	0.0164478
797.716	0.0165787
797.794	0.0165445
797.872	0.0164565
797.950	0.0164171
798.029	0.0164661
798.107	0.0165073
798.185	0.0164787
798.263	0.0163219
798.341	0.0162858
798.419	0.0162647
798.497	0.0161456
798.575	0.0163018
798.654	0.0162386
798.732	0.0161298
798.810	0.0160954
798.888	0.0161775
798.966	0.0160970
799.044	0.0159325
799.122	0.0159261
799.200	0.0159383
799.279	0.0157819
799.357	0.0159113
799.435	0.0159012
799.513	0.0159127
799.591	0.0157973
799.669	0.0156155
799.747	0.0155824
799.825	0.0153975
799.904	0.0154742
799.982	0.0152850
800.060	0.0153355
800.138	0.0153571
800.216	0.0154884
800.294	0.0155162
800.372	0.0154882
800.450	0.0155849
800.529	0.0156211
800.607	0.0157800
800.685	0.0157851
800.763	0.0158646
800.841	0.0160444
800.919	0.0160058
800.997	0.0161268
801.075	0.0161669
801.154	0.0162801
801.232	0.0164837
801.310	0.0167101
801.388	0.0166579
801.466	0.0168151
801.544	0.0168547
801.622	0.0169404
801.700	0.0169314
801.779	0.0171616
801.857	0.0172209
801.935	0.0170616
802.013	0.0171968
802.091	0.0173980
802.169	0.0172626
802.247	0.0173246
802.325	0.0172397
802.404	0.0172809
802.482	0.0172176
802.560	0.0170685
802.638	0.0170380
802.716	0.0168707
802.794	0.0167658
802.872	0.0166220
802.950	0.0165894
803.029	0.0164563
803.107	0.0161694
803.185	0.0161963
803.263	0.0160728
803.341	0.0157464
803.419	0.0158958
803.497	0.0157571
803.575	0.0157108
803.654	0.0155403
803.732	0.0156719
803.810	0.0156213
803.888	0.0155412
803.966	0.0155154
804.044	0.0154807
804.122	0.0155928
804.200	0.0156126
804.279	0.0155222
804.357	0.0154399
804.435	0.0155656
804.513	0.0156606
804.591	0.0155723
804.669	0.0156283
804.747	0.0156573
804.825	0.0157455
804.904	0.0158514
804.982	0.0159391
805.060	0.0161610
805.138	0.0161544
805.216	0.0162737
805.294	0.0164224
805.372	0.0163907
805.450	0.0165887
805.529	0.0167471
805.607	0.0167012
805.685	0.0167253
805.763	0.0167589
805.841	0.0168980
805.919	0.0167129
805.997	0.0166747
806.075	0.0166130
806.154	0.0165314
806.232	0.0167405
806.310	0.0166263
806.388	0.0166678
806.466	0.0165064
806.544	0.0165816
806.622	0.0164040
806.700	0.0164976
806.779	0.0164226
806.857	0.0164127
806.935	0.0163811
807.013	0.0164667
807.091	0.0165756
807.169	0.0164386
807.247	0.0164948
807.325	0.0163922
807.404	0.0164710
807.482	0.0166599
807.560	0.0164497
807.638	0.0165033
807.716	0.0164436
807.794	0.0165308
807.872	0.0164605
807.950	0.0163785
808.029	0.0165374
808.107	0.0163276
808.185	0.0163444
808.263	0.0162874
808.341	0.0161697
808.419	0.0161427
808.497	0.0161718
808.575	0.0160087
808.654	0.0159297
808.732	0.0158658
808.810	0.0158212
808.888	0.0157872
808.966	0.0158670
809.044	0.0158889
809.122	0.0157771
809.200	0.0157899
809.279	0.0159641
809.357	0.0160053
809.435	0.0158492
809.513	0.0160744
809.591	0.0161183
809.669	0.0162222
809.747	0.0163199
809.825	0.0162080
809.904	0.0162566
809.982	0.0162012
810.060	0.0161797
810.138	0.0160210
810.216	0.0160635
810.294	0.0158393
810.372	0.0159372
810.450	0.0158775
810.529	0.0159109
810.607	0.0157365
810.685	0.0157902
810.763	0.0156627
810.841	0.0156882
810.919	0.0157568
810.997	0.0157336
811.075	0.0159139
811.154	0.0157700
811.232	0.0159101
811.310	0.0159159
811.388	0.0160285
811.466	0.0161115
811.544	0.0160284
811.622	0.0161665
811.700	0.0162337
811.779	0.0163111
811.857	0.0163722
811.935	0.0163409
812.013	0.0164789
812.091	0.0165396
812.169	0.0166162
812.247	0.0167094
812.325	0.0167235
812.404	0.0167940
812.482	0.0168485
812.560	0.0168577
812.638	0.0169710
812.716	0.0168273
812.794	0.0168203
812.872	0.0168239
812.950	0.0167221
813.029	0.0167725
813.107	0.0167477
813.185	0.0165984
813.263	0.0165799
813.341	0.0166227
813.419	0.0165701
813.497	0.0165146
813.575	0.0164252
813.654	0.0164044
813.732	0.0163400
813.810	0.0165076
813.888	0.0164971
813.966	0.0164900
814.044	0.0166234
814.122	0.0166232
814.200	0.0165304
814.279	0.0164653
814.357	0.0165108
814.435	0.0164929
814.513	0.0165287
814.591	0.0166110
814.669	0.0164108
814.747	0.0162514
814.825	0.0163421
814.904	0.0162119
814.982	0.0162759
815.060	0.0161749
815.138	0.0162288
815.216	0.0161521
815.294	0.0160040
815.372	0.0159679
815.450	0.0159341
815.529	0.0159869
815.607	0.0158346
815.685	0.0157507
815.763	0.0158589
815.841	0.0159398
815.919	0.0158496
815.997	0.0157892
816.075	0.0158170
816.154	0.0157036
816.232	0.0156684
816.310	0.0156509
816.388	0.0156598
816.466	0.0158299
816.544	0.0156799
816.622	0.0155791
816.700	0.0157555
816.779	0.0154881
816.857	0.0155228
816.935	0.0156458
817.013	0.0156254
817.091	0.0157175
817.169	0.0156759
817.247	0.0157727
817.325	0.0157983
817.404	0.0158871
817.482	0.0158587
817.560	0.0159828
817.638	0.0160262
817.716	0.0160267
817.794	0.0161828
817.872	0.0162813
817.950	0.0163949
818.029	0.0165196
818.107	0.0166964
818.185	0.0168728
818.263	0.0167743
818.341	0.0169788
818.419	0.0169789
818.497	0.0170366
818.575	0.0173270
818.654	0.0172188
818.732	0.0172397
818.810	0.0173061
818.888	0.0171416
818.966	0.0171808
819.044	0.0170966
819.122	0.0168653
819.200	0.0168655
819.279	0.0167841
819.357	0.0167119
819.435	0.0165922
819.513	0.0166720
819.591	0.0166362
819.669	0.0165260
819.747	0.0166513
819.825	0.0164072
819.904	0.0165635
819.982	0.0165987
820.060	0.0166810
820.138	0.0165840
820.216	0.0166154
820.294	0.0166677
820.372	0.0166215
820.450	0.0165826
820.529	0.0165643
820.607	0.0164799
820.685	0.0164565
820.763	0.0163071
820.841	0.0163368
820.919	0.0162941
820.997	0.0162630
821.075	0.0162079
821.154	0.0163359
821.232	0.0162257
821.310	0.0162065
821.388	0.0162146
821.466	0.0161575
821.544	0.0159866
821.622	0.0160783
821.700	0.0159857
821.779	0.0158840
821.857	0.0158315
821.935	0.0158221
822.013	0.0155841
822.091	0.0156055
822.169	0.0155522
822.247	0.0153777
822.325	0.0152701
822.404	0.0151420
822.482	0.0153331
822.560	0.0152632
822.638	0.0152422
822.716	0.0153516
822.794	0.0152151
822.872	0.0152473
822.950	0.0153416
823.029	0.0154595
823.107	0.0155781
823.185	0.0155806
823.263	0.0156750
823.341	0.0157818
823.419	0.0159384
823.497	0.0160530
823.575	0.0160592
823.654	0.0161723
823.732	0.0163547
823.810	0.0162518
823.888	0.0164488
823.966	0.0164388
824.044	0.0166010
824.122	0.0165739
824.200	0.0167271
824.279	0.0166851
824.357	0.0166749
824.435	0.0168960
824.513	0.0168087
824.591	0.0168383
824.669	0.0169142
824.747	0.0168253
824.825	0.0167656
824.904	0.0167160
824.982	0.0167105
825.060	0.0165709
825.138	0.0167064
825.216	0.0167487
825.294	0.0165773
825.372	0.0165337
825.450	0.0166081
825.529	0.0165933
825.607	0.0165503
825.685	0.0165677
825.763	0.0166657
825.841	0.0165311
825.919	0.0163403
825.997	0.0165218
826.075	0.0166406
826.154	0.0165564
826.232	0.0166726
826.310	0.0165672
826.388	0.0164936
826.466	0.0166508
826.544	0.0167812
826.622	0.0165896
826.700	0.0167111
826.779	0.0165923
826.857	0.0165592
826.935	0.0166322
827.013	0.0164077
827.091	0.0163914
827.169	0.0162022
827.247	0.0162346
827.325	0.0161662
827.404	0.0160085
827.482	0.0160027
827.560	0.0160734
827.638	0.0159238
827.716	0.0159129
827.794	0.0157454
827.872	0.0157002
827.950	0.0158790
828.029	0.0157523
828.107	0.0158016
828.185	0.0157031
828.263	0.0157172
828.341	0.0157599
828.419	0.0157219
828.497	0.0157501
828.575	0.0158064
828.654	0.0156012
828.732	0.0157506
828.810	0.0157900
828.888	0.0157657
828.966	0.0157639
829.044	0.0156529
829.122	0.0157139
829.200	0.0155647
829.279	0.0155728
829.357	0.0155489
829.435	0.0154768
829.513	0.0155517
829.591	0.0154486
829.669	0.0155868
829.747	0.0155285
829.825	0.0155017
829.904	0.0157743
829.982	0.0157837
830.060	0.0158675
830.138	0.0160168
830.216	0.0162756
830.294	0.0163154
830.372	0.0163868
830.450	0.0165722
830.529	0.0167398
830.607	0.0168011
830.685	0.0169077
830.763	0.0169441
830.841	0.0169229
830.919	0.0168967
830.997	0.0169975
831.075	0.0169364
831.154	0.0169080
831.232	0.0169591
831.310	0.0168873
831.388	0.0168916
831.466	0.0168108
831.544	0.0167121
831.622	0.0166679
831.700	0.0167291
831.779	0.0166448
831.857	0.0165319
831.935	0.0163977
832.013	0.0163934
832.091	0.0164274
832.169	0.0162930
832.247	0.0162934
832.325	0.0162961
832.404	0.0163727
832.482	0.0164941
832.560	0.0161948
832.638	0.0162502
832.716	0.0162340
832.794	0.0162187
832.872	0.0162829
832.950	0.0161104
833.029	0.0161987
833.107	0.0162302
833.185	0.0161981
833.263	0.0162513
833.341	0.0162901
833.419	0.0162823
833.497	0.0162589
833.575	0.0163994
833.654	0.0164152
833.732	0.0163535
833.810	0.0164886
833.888	0.0164409
833.966	0.0162730
834.044	0.0163490
834.122	0.0163882
834.200	0.0163046
834.279	0.0162546
834.357	0.0161811
834.435	0.0162537
834.513	0.0160777
834.591	0.0159921
834.669	0.0159450
834.747	0.0158547
834.825	0.0159735
834.904	0.0159769
834.982	0.0159043
835.060	0.0158527
835.138	0.0158601
835.216	0.0158594
835.294	0.0157966
835.372	0.0158828
835.450	0.0159000
835.529	0.0159930
835.607	0.0158847
835.685	0.0158260
835.763	0.0160664
835.841	0.0158179
835.919	0.0159248
835.997	0.0159103
836.075	0.0160555
836.154	0.0159028
836.232	0.0159361
836.310	0.0159413
836.388	0.0160170
836.466	0.0160459
836.544	0.0162194
836.622	0.0161780
836.700	0.0162651
836.779	0.0163461
836.857	0.0163828
836.935	0.0163236
837.013	0.0164191
837.091	0.0164075
837.169	0.0164352
837.247	0.0165871
837.325	0.0164769
837.404	0.0164275
837.482	0.0164762
837.560	0.0165572
837.638	0.0165448
837.716	0.0166649
837.794	0.0165426
837.872	0.0167303
837.950	0.0165885
838.029	0.0165836
838.107	0.0165870
838.185	0.0166051
838.263	0.0166175
838.341	0.0165979
838.419	0.0166705
838.497	0.0167494
838.575	0.0163648
838.654	0.0164102
838.732	0.0163256
838.810	0.0164759
838.888	0.0165216
838.966	0.0164262
839.044	0.0162840
839.122	0.0164040
839.200	0.0162364
839.279	0.0162635
839.357	0.0161506
839.435	0.0161540
839.513	0.0162312
839.591	0.0162788
839.669	0.0162938
839.747	0.0162227
839.825	0.0162853
839.904	0.0162389
839.982	0.0163979
840.060	0.0162757
840.138	0.0162876
840.216	0.0163787
840.294	0.0163365
840.372	0.0164017
840.450	0.0162259
840.529	0.0163152
840.607	0.0163899
840.685	0.0163936
840.763	0.0162684
840.841	0.0163799
840.919	0.0162926
840.997	0.0161880
841.075	0.0161717
841.154	0.0162286
841.232	0.0162546
841.310	0.0162424
841.388	0.0161102
841.466	0.0160889
841.544	0.0161593
841.622	0.0162423
841.700	0.0162101
841.779	0.0161079
841.857	0.0162634
841.935	0.0161393
842.013	0.0161353
842.091	0.0161217
842.169	0.0162302
842.247	0.0161195
842.325	0.0161897
842.404	0.0162425
842.482	0.0162212
842.560	0.0162817
842.638	0.0162161
842.716	0.0161806
842.794	0.0162175
842.872	0.0162553
842.950	0.0161964
843.029	0.0161804
843.107	0.0161398
843.185	0.0161121
843.263	0.0159983
843.341	0.0161237
843.419	0.0159914
843.497	0.0161218
843.575	0.0161387
843.654	0.0162058
843.732	0.0162503
843.810	0.0162656
843.888	0.0162778
843.966	0.0162671
844.044	0.0162314
844.122	0.0164013
844.200	0.0163562
844.279	0.0162541
844.357	0.0164953
844.435	0.0164993
844.513	0.0163576
844.591	0.0164114
844.669	0.0164462
844.747	0.0163827
844.825	0.0164725
844.904	0.0163493
844.982	0.0163120
845.060	0.0164038
845.138	0.0163737
845.216	0.0161929
845.294	0.0163912
845.372	0.0163278
845.450	0.0164202
845.529	0.0163683
845.607	0.0162137
845.685	0.0162315
845.763	0.0162556
845.841	0.0162600
845.919	0.0162512
845.997	0.0162442
846.075	0.0162399
846.154	0.0162439
846.232	0.0161449
846.310	0.0161676
846.388	0.0161944
846.466	0.0161000
846.544	0.0161876
846.622	0.0159951
846.700	0.0161147
846.779	0.0161705
846.857	0.0161178
846.935	0.0161849
847.013	0.0162566
847.091	0.0162320
847.169	0.0162524
847.247	0.0162854
847.325	0.0163445
847.404	0.0164595
847.482	0.0164346
847.560	0.0163479
847.638	0.0163660
847.716	0.0165229
847.794	0.0165453
847.872	0.0166182
847.950	0.0164251
848.029	0.0163683
848.107	0.0164304
848.185	0.0164842
848.263	0.0164367
848.341	0.0163525
848.419	0.0165437
848.497	0.0165112
848.575	0.0163920
848.654	0.0164336
848.732	0.0163375
848.810	0.0164587
848.888	0.0163911
848.966	0.0164532
849.044	0.0163615
849.122	0.0163484
849.200	0.0162375
849.279	0.0163426
849.357	0.0162765
849.435	0.0161550
849.513	0.0161549
849.591	0.0161646
849.669	0.0161261
849.747	0.0161739
849.825	0.0162643
849.904	0.0161337
849.982	0.0161515
850.060	0.0161069
850.138	0.0160825
850.216	0.0161255
850.294	0.0161494
850.372	0.0160886
850.450	0.0161060
850.529	0.0160704
850.607	0.0161622
850.685	0.0161092
850.763	0.0161852
850.841	0.0161941
850.919	0.0161801
850.997	0.0162934
851.075	0.0162182
851.154	0.0162788
851.232	0.0163416
851.310	0.0162175
851.388	0.0163248
851.466	0.0163344
851.544	0.0162675
851.622	0.0161895
851.700	0.0163432
851.779	0.0163181
851.857	0.0160989
851.935	0.0160745
852.013	0.0162846
852.091	0.0161415
852.169	0.0161747
852.247	0.0160341
852.325	0.0160883
852.404	0.0161449
852.482	0.0161057
852.560	0.0161603
852.638	0.0162370
852.716	0.0160233
852.794	0.0160388
852.872	0.0160953
852.950	0.0161050
853.029	0.0159657
853.107	0.0160368
853.185	0.0162549
853.263	0.0162289
853.341	0.0160946
853.419	0.0160675
853.497	0.0161620
853.575	0.0162939
853.654	0.0162020
853.732	0.0162111
853.810	0.0162502
853.888	0.0163007
853.966	0.0165026
854.044	0.0163841
854.122	0.0164010
854.200	0.0163676
854.279	0.0164940
854.357	0.0163239
854.435	0.0163147
854.513	0.0165054
854.591	0.0166134
854.669	0.0164330
854.747	0.0165818
854.825	0.0166165
854.904	0.0165816
854.982	0.0165908
855.060	0.0165631
855.138	0.0166420
855.216	0.0166581
855.294	0.0167520
855.372	0.0165958
855.450	0.0168149
855.529	0.0167796
855.607	0.0166570
855.685	0.0165234
855.763	0.0164667
855.841	0.0163441
855.919	0.0166076
855.997	0.0165487
856.075	0.0163662
856.154	0.0164021
856.232	0.0163814
856.310	0.0164001
856.388	0.0163082
856.466	0.0162911
856.544	0.0162713
856.622	0.0163292
856.700	0.0161581
856.779	0.0162494
856.857	0.0160480
856.935	0.0162794
857.013	0.0161971
857.091	0.0161377
857.169	0.0161430
857.247	0.0161790
857.325	0.0161673
857.404	0.0160582
857.482	0.0159338
857.560	0.0159026
857.638	0.0159626
857.716	0.0159947
857.794	0.0160708
857.872	0.0159431
857.950	0.0159759
858.029	0.0159030
858.107	0.0160993
858.185	0.0159697
858.263	0.0159619
858.341	0.0159389
858.419	0.0159853
858.497	0.0159288
858.575	0.0158968
858.654	0.0160345
858.732	0.0159478
858.810	0.0158669
858.888	0.0160704
858.966	0.0159901
859.044	0.0161789
859.122	0.0160614
859.200	0.0160675
859.279	0.0160909
859.357	0.0161625
859.435	0.0162577
859.513	0.0162952
859.591	0.0162789
859.669	0.0162827
859.747	0.0163451
859.825	0.0163498
859.904	0.0165038
859.982	0.0164970
860.060	0.0164935
860.138	0.0164626
860.216	0.0164661
860.294	0.0164919
860.372	0.0165775
860.450	0.0165996
860.529	0.0166663
860.607	0.0167006
860.685	0.0166660
860.763	0.0166348
860.841	0.0164714
860.919	0.0166331
860.997	0.0166975
861.075	0.0165946
861.154	0.0165263
861.232	0.0165791
861.310	0.0166372
861.388	0.0165471
861.466	0.0165233
861.544	0.0164801
861.622	0.0164642
861.700	0.0165403
861.779	0.0163242
861.857	0.0163261
861.935	0.0164703
862.013	0.0162647
862.091	0.0164538
862.169	0.0161726
862.247	0.0162627
862.325	0.0163242
862.404	0.0164648
862.482	0.0162083
862.560	0.0161790
862.638	0.0162578
862.716	0.0161416
862.794	0.0161064
862.872	0.0160586
862.950	0.0161327
863.029	0.0160278
863.107	0.0158897
863.185	0.0159212
863.263	0.0159630
863.341	0.0162551
863.419	0.0160880
863.497	0.0160068
863.575	0.0161147
863.654	0.0162502
863.732	0.0163180
863.810	0.0161966
863.888	0.0162291
863.966	0.0161551
864.044	0.0163329
864.122	0.0162755
864.200	0.0163260
864.279	0.0161031
864.357	0.0160460
864.435	0.0161779
864.513	0.0161900
864.591	0.0162720
864.669	0.0163071
864.747	0.0161072
864.825	0.0161368
864.904	0.0161232
864.982	0.0161964
865.060	0.0162398
865.138	0.0162056
865.216	0.0162454
865.294	0.0161905
865.372	0.0162622
865.450	0.0164435
865.529	0.0164656
865.607	0.0163406
865.685	0.0163434
865.763	0.0163683
865.841	0.0164025
865.919	0.0164366
865.997	0.0163120
866.075	0.0164936
866.154	0.0165359
866.232	0.0164492
866.310	0.0164500
866.388	0.0163079
866.466	0.0162562
866.544	0.0163417
866.622	0.0163457
866.700	0.0162701
866.779	0.0162119
866.857	0.0161423
866.935	0.0161376
867.013	0.0160656
867.091	0.0160488
867.169	0.0161404
867.247	0.0161513
867.325	0.0160297
867.404	0.0161315
867.482	0.0160572
867.560	0.0160840
867.638	0.0160913
867.716	0.0160655
867.794	0.0161038
867.872	0.0161416
867.950	0.0160351
868.029	0.0162695
868.107	0.0162240
868.185	0.0163321
868.263	0.0161334
868.341	0.0161533
868.419	0.0162304
868.497	0.0161498
868.575	0.0163122
868.654	0.0162465
868.732	0.0162505
868.810	0.0162503
868.888	0.0163210
868.966	0.0162529
869.044	0.0162761
869.122	0.0162151
869.200	0.0161911
869.279	0.0161647
869.357	0.0161858
869.435	0.0163390
869.513	0.0161496
869.591	0.0161456
869.669	0.0163103
869.747	0.0161705
869.825	0.0163866
869.904	0.0162963
869.982	0.0163186
870.060	0.0161995
870.138	0.0162280
870.216	0.0163222
870.294	0.0161948
870.372	0.0161716
870.450	0.0162293
870.529	0.0161725
870.607	0.0160540
870.685	0.0162505
870.763	0.0163166
870.841	0.0162574
870.919	0.0162604
870.997	0.0161896
871.075	0.0161992
871.154	0.0162695
871.232	0.0162388
871.310	0.0162699
871.388	0.0163250
871.466	0.0164585
871.544	0.0164197
871.622	0.0164743
871.700	0.0165308
871.779	0.0164952
871.857	0.0164960
871.935	0.0164306
872.013	0.0164876
872.091	0.0164171
872.169	0.0163607
872.247	0.0163399
872.325	0.0165231
872.404	0.0164275
872.482	0.0165151
872.560	0.0164638
872.638	0.0164983
872.716	0.0162590
872.794	0.0163986
872.872	0.0163286
872.950	0.0163100
873.029	0.0163409
873.107	0.0163203
873.185	0.0163306
873.263	0.0162374
873.341	0.0162556
873.419	0.0162071
873.497	0.0162386
873.575	0.0162810
873.654	0.0162156
873.732	0.0162263
873.810	0.0161408
873.888	0.0160319
873.966	0.0161369
874.044	0.0161101
874.122	0.0159744
874.200	0.0160631
874.279	0.0160635
874.357	0.0160519
874.435	0.0160487
874.513	0.0159126
874.591	0.0160380
874.669	0.0161732
874.747	0.0159507
874.825	0.0159580
874.904	0.0160023
874.982	0.0159499
875.060	0.0159254
875.138	0.0158611
875.216	0.0159963
875.294	0.0160543
875.372	0.0160728
875.450	0.0159294
875.529	0.0159263
875.607	0.0160488
875.685	0.0159839
875.763	0.0160221
875.841	0.0161482
875.919	0.0161392
875.997	0.0160605
876.075	0.0162978
876.154	0.0163210
876.232	0.0165260
876.310	0.0163763
876.388	0.0163887
876.466	0.0165697
876.544	0.0164386
876.622	0.0165511
876.700	0.0165479
876.779	0.0165927
876.857	0.0165865
876.935	0.0164957
877.013	0.0164922
877.091	0.0165556
877.169	0.0165155
877.247	0.0164864
877.325	0.0166627
877.404	0.0164861
877.482	0.0164478
877.560	0.0164647
877.638	0.0164881
877.716	0.0164456
877.794	0.0165043
877.872	0.0164503
877.950	0.0164875
878.029	0.0164686
878.107	0.0163705
878.185	0.0164282
878.263	0.0164230
878.341	0.0163451
878.419	0.0163950
878.497	0.0163076
878.575	0.0162854
878.654	0.0162892
878.732	0.0163264
878.810	0.0161424
878.888	0.0161351
878.966	0.0161740
879.044	0.0160181
879.122	0.0160623
879.200	0.0160516
879.279	0.0158744
879.357	0.0160157
879.435	0.0159897
879.513	0.0160977
879.591	0.0161501
879.669	0.0161730
879.747	0.0161202
879.825	0.0159785
879.904	0.0161390
879.982	0.0162184
880.060	0.0161591
880.138	0.0161476
880.216	0.0162226
880.294	0.0162914
880.372	0.0161560
880.450	0.0162508
880.529	0.0161386
880.607	0.0160501
880.685	0.0161788
880.763	0.0161118
880.841	0.0161049
880.919	0.0162131
880.997	0.0161965
881.075	0.0163168
881.154	0.0163973
881.232	0.0164330
881.310	0.0162717
881.388	0.0162855
881.466	0.0165401
881.544	0.0163783
881.622	0.0163976
881.700	0.0162764
881.779	0.0163681
881.857	0.0164042
881.935	0.0162938
882.013	0.0163071
882.091	0.0161470
882.169	0.0162772
882.247	0.0163252
882.325	0.0162056
882.404	0.0161931
882.482	0.0162201
882.560	0.0162370
882.638	0.0161421
882.716	0.0161462
882.794	0.0161584
882.872	0.0161340
882.950	0.0160992
883.029	0.0160697
883.107	0.0160044
883.185	0.0160120
883.263	0.0160552
883.341	0.0161775
883.419	0.0160329
883.497	0.0162443
883.575	0.0162333
883.654	0.0161833
883.732	0.0160957
883.810	0.0163120
883.888	0.0162092
883.966	0.0162534
884.044	0.0161443
884.122	0.0162325
884.200	0.0164718
884.279	0.0162493
884.357	0.0163880
884.435	0.0166171
884.513	0.0164655
884.591	0.0166467
884.669	0.0166069
884.747	0.0164413
884.825	0.0164320
884.904	0.0164325
884.982	0.0165307
885.060	0.0165736
885.138	0.0165234
885.216	0.0164380
885.294	0.0165451
885.372	0.0165508
885.450	0.0165656
885.529	0.0166287
885.607	0.0165699
885.685	0.0165472
885.763	0.0164666
885.841	0.0164919
885.919	0.0163364
885.997	0.0163622
886.075	0.0164294
886.154	0.0163388
886.232	0.0162892
886.310	0.0163412
886.388	0.0162798
886.466	0.0160838
886.544	0.0160886
886.622	0.0159715
886.700	0.0160001
886.779	0.0158384
886.857	0.0159663
886.935	0.0160599
887.013	0.0159824
887.091	0.0160069
887.169	0.0160307
887.247	0.0159142
887.325	0.0161751
887.404	0.0160761
887.482	0.0159507
887.560	0.0161090
887.638	0.0162635
887.716	0.0160632
887.794	0.0162364
887.872	0.0161395
887.950	0.0162442
888.029	0.0162865
888.107	0.0162997
888.185	0.0161327
888.263	0.0163005
888.341	0.0163365
888.419	0.0162496
888.497	0.0162279
888.575	0.0162630
888.654	0.0161807
888.732	0.0162596
888.810	0.0161106
888.888	0.0161790
888.966	0.0162545
889.044	0.0162102
889.122	0.0162250
889.200	0.0162132
889.279	0.0162808
889.357	0.0162145
889.435	0.0162325
889.513	0.0162825
889.591	0.0162749
889.669	0.0163129
889.747	0.0164284
889.825	0.0162227
889.904	0.0162148
889.982	0.0162894
890.060	0.0161842
890.138	0.0161916
890.216	0.0162493
890.294	0.0160750
890.372	0.0162394
890.450	0.0162787
890.529	0.0160609
890.607	0.0161253
890.685	0.0162129
890.763	0.0160717
890.841	0.0162067
890.919	0.0161433
890.997	0.0160953
891.075	0.0160737
891.154	0.0160943
891.232	0.0162883
891.310	0.0161744
891.388	0.0161205
891.466	0.0161815
891.544	0.0162592
891.622	0.0161563
891.700	0.0162302
891.779	0.0162918
891.857	0.0163187
891.935	0.0162720
892.013	0.0161749
892.091	0.0162264
892.169	0.0162933
892.247	0.0162938
892.325	0.0161553
892.404	0.0163836
892.482	0.0161974
892.560	0.0163998
892.638	0.0162707
892.716	0.0162958
892.794	0.0163186
892.872	0.0163607
892.950	0.0164193
893.029	0.0165076
893.107	0.0165172
893.185	0.0163665
893.263	0.0165106
893.341	0.0165057
893.419	0.0164658
893.497	0.0163357
893.575	0.0164490
893.654	0.0164004
893.732	0.0165612
893.810	0.0162174
893.888	0.0161449
893.966	0.0162617
894.044	0.0162315
894.122	0.0161892
894.200	0.0161474
894.279	0.0159808
894.357	0.0159129
894.435	0.0159462
894.513	0.0158144
894.591	0.0159342
894.669	0.0160297
894.747	0.0159682
894.825	0.0159838
894.904	0.0159803
894.982	0.0161199
895.060	0.0160954
895.138	0.0160801
895.216	0.0162444
895.294	0.0160862
895.372	0.0161574
895.450	0.0162590
895.529	0.0162878
895.607	0.0161499
895.685	0.0163441
895.763	0.0163132
895.841	0.0163008
895.919	0.0163687
895.997	0.0162843
896.075	0.0164423
896.154	0.0164095
896.232	0.0164030
896.310	0.0165432
896.388	0.0165213
896.466	0.0166927
896.544	0.0166183
896.622	0.0164088
896.700	0.0165455
896.779	0.0166461
896.857	0.0165366
896.935	0.0166604
897.013	0.0165866
897.091	0.0164328
897.169	0.0162550
897.247	0.0164137
897.325	0.0162540
897.404	0.0163212
897.482	0.0162631
897.560	0.0161023
897.638	0.0161777
897.716	0.0161720
897.794	0.0160338
897.872	0.0160621
897.950	0.0159955
898.029	0.0161337
898.107	0.0161092
898.185	0.0160928
898.263	0.0160995
898.341	0.0161069
898.419	0.0160471
898.497	0.0159884
898.575	0.0159884
898.654	0.0160915
898.732	0.0160472
898.810	0.0160029
898.888	0.0160000
898.966	0.0159805
899.044	0.0160124
899.122	0.0160960
899.200	0.0160921
899.279	0.0160506
899.357	0.0160252
899.435	0.0162003
899.513	0.0161160
899.591	0.0162623
899.669	0.0162485
899.747	0.0163036
899.825	0.0164339
899.904	0.0164436
899.982	0.0164304
900.060	0.0165172
900.138	0.0164969
900.216	0.0166065
900.294	0.0165429
900.372	0.0165730
900.450	0.0165507
900.529	0.0166728
900.607	0.0168438
900.685	0.0165585
900.763	0.0167112
900.841	0.0164436
900.919	0.0164250
900.997	0.0165631
901.075	0.0164057
901.154	0.0162746
901.232	0.0162641
901.310	0.0163012
901.388	0.0160783
901.466	0.0159816
901.544	0.0159373
901.622	0.0160233
901.700	0.0158318
901.779	0.0159198
901.857	0.0160132
901.935	0.0159459
902.013	0.0160300
902.091	0.0159650
902.169	0.0160358
902.247	0.0159891
902.325	0.0160223
902.404	0.0161471
902.482	0.0162749
902.560	0.0162319
902.638	0.0163941
902.716	0.0162965
902.794	0.0163744
902.872	0.0164087
902.950	0.0163435
903.029	0.0162333
903.107	0.0162830
903.185	0.0164517
903.263	0.0162727
903.341	0.0161195
903.419	0.0162183
903.497	0.0162301
903.575	0.0162498
903.654	0.0161817
903.732	0.0162061
903.810	0.0160558
903.888	0.0161995
903.966	0.0162170
904.044	0.0162259
904.122	0.0160733
904.200	0.0160570
904.279	0.0161623
904.357	0.0160911
904.435	0.0160774
904.513	0.0161451
904.591	0.0162897
904.669	0.0163278
904.747	0.0163426
904.825	0.0164075
904.904	0.0165359
904.982	0.0163739
905.060	0.0164916
905.138	0.0165410
905.216	0.0165605
905.294	0.0163517
905.372	0.0164624
905.450	0.0162833
905.529	0.0162280
905.607	0.0162965
905.685	0.0161372
905.763	0.0161850
905.841	0.0162342
905.919	0.0161021
905.997	0.0160115
906.075	0.0160065
906.154	0.0160291
906.232	0.0159807
906.310	0.0160773
906.388	0.0161124
906.466	0.0161559
906.544	0.0161595
906.622	0.0162374
906.700	0.0161771
906.779	0.0161895
906.857	0.0162229
906.935	0.0162454
907.013	0.0160170
907.091	0.0160467
907.169	0.0159315
907.247	0.0161125
907.325	0.0160178
907.404	0.0159256
907.482	0.0159598
907.560	0.0158910
907.638	0.0158838
907.716	0.0160983
907.794	0.0159421
907.872	0.0158331
907.950	0.0158827
908.029	0.0159470
908.107	0.0161369
908.185	0.0160318
908.263	0.0161117
908.341	0.0161952
908.419	0.0163042
908.497	0.0163129
908.575	0.0162946
908.654	0.0163159
908.732	0.0164897
908.810	0.0165726
908.888	0.0163999
908.966	0.0163714
909.044	0.0165338
909.122	0.0164515
909.200	0.0162881
909.279	0.0164263
909.357	0.0163994
909.435	0.0164551
909.513	0.0164705
909.591	0.0163801
909.669	0.0163534
909.747	0.0165581
909.825	0.0164580
909.904	0.0163954
909.982	0.0165237
910.060	0.0163970
910.138	0.0164528
910.216	0.0163467
910.294	0.0162496
910.372	0.0162032
910.450	0.0163074
910.529	0.0160641
910.607	0.0159990
910.685	0.0160722
910.763	0.0162320
910.841	0.0159835
910.919	0.0158810
910.997	0.0160848
911.075	0.0159316
911.154	0.0159731
911.232	0.0161057
911.310	0.0160018
911.388	0.0160878
911.466	0.0161483
911.544	0.0161309
911.622	0.0163100
911.700	0.0161834
911.779	0.0162096
911.857	0.0163140
911.935	0.0161372
912.013	0.0161592
912.091	0.0162399
912.169	0.0162167
912.247	0.0161318
912.325	0.0161317
912.404	0.0161610
912.482	0.0160854
912.560	0.0159972
912.638	0.0159766
912.716	0.0161717
912.794	0.0160048
912.872	0.0160918
912.950	0.0162435
913.029	0.0160902
913.107	0.0162635
913.185	0.0163058
913.263	0.0163263
913.341	0.0163256
913.419	0.0162750
913.497	0.0163574
913.575	0.0164333
913.654	0.0164199
913.732	0.0163362
913.810	0.0164091
913.888	0.0164292
913.966	0.0163493
914.044	0.0161934
914.122	0.0163380
914.200	0.0161472
914.279	0.0158729
914.357	0.0159988
914.435	0.0159875
914.513	0.0159411
914.591	0.0158787
914.669	0.0158466
914.747	0.0159479
914.825	0.0159704
914.904	0.0160535
914.982	0.0160580
915.060	0.0161789
915.138	0.0162703
915.216	0.0163132
915.294	0.0163212
915.372	0.0164822
915.450	0.0164677
915.529	0.0164446
915.607	0.0166801
915.685	0.0167432
915.763	0.0165765
915.841	0.0165403
915.919	0.0165169
915.997	0.0164967
916.075	0.0163626
916.154	0.0162941
916.232	0.0162682
916.310	0.0163089
916.388	0.0163544
916.466	0.0164933
916.544	0.0163719
916.622	0.0163769
916.700	0.0162848
916.779	0.0163877
916.857	0.0165365
916.935	0.0165670
917.013	0.0163687
917.091	0.0163633
917.169	0.0165081
917.247	0.0164141
917.325	0.0163484
917.404	0.0164352
917.482	0.0163415
917.560	0.0165242
917.638	0.0162498
917.716	0.0163011
917.794	0.0160363
917.872	0.0160885
917.950	0.0161905
918.029	0.0161319
918.107	0.0161725
918.185	0.0161726
918.263	0.0161110
918.341	0.0162706
918.419	0.0163695
918.497	0.0164304
918.575	0.0162411
918.654	0.0161473
918.732	0.0163142
918.810	0.0165289
918.888	0.0163925
918.966	0.0163218
919.044	0.0161837
919.122	0.0162859
919.200	0.0162020
919.279	0.0161620
919.357	0.0161724
919.435	0.0160921
919.513	0.0160885
919.591	0.0161053
919.669	0.0161179
919.747	0.0159742
919.825	0.0161046
919.904	0.0161201
