05/20/2022	20:56:48	Ver.	4.1	UNKNOWN
Optical Delay	599.975067	Delta X		0.078125	Sweeps	1	Scan Rate	0/0
Coordinates	Axis 1	NaN	Axis 2	NaN	Axis 3	NaN	Axis 4	NaN	Axis 5	NaN	Axis 6	0.000000
TX Power	0.000000	RX Power	0.000000

599.975	0.0157288
600.053	0.0157105
600.131	0.0156580
600.209	0.0156884
600.288	0.0156902
600.366	0.0156281
600.444	0.0157800
600.522	0.0158062
600.600	0.0157949
600.678	0.0156298
600.756	0.0157631
600.834	0.0157192
600.913	0.0157578
600.991	0.0156429
601.069	0.0158440
601.147	0.0157219
601.225	0.0157478
601.303	0.0157137
601.381	0.0157291
601.459	0.0157851
601.538	0.0156951
601.616	0.0156969
601.694	0.0159050
601.772	0.0157083
601.850	0.0156890
601.928	0.0156182
602.006	0.0156680
602.084	0.0157183
602.163	0.0157838
602.241	0.0155468
602.319	0.0156363
602.397	0.0157608
602.475	0.0157201
602.553	0.0156891
602.631	0.0156295
602.709	0.0157343
602.788	0.0156257
602.866	0.0157668
602.944	0.0157420
603.022	0.0156869
603.100	0.0156320
603.178	0.0157262
603.256	0.0156425
603.334	0.0157163
603.413	0.0158215
603.491	0.0157455
603.569	0.0155821
603.647	0.0156796
603.725	0.0157334
603.803	0.0157581
603.881	0.0155021
603.959	0.0157105
604.038	0.0157658
604.116	0.0157643
604.194	0.0157615
604.272	0.0157336
604.350	0.0157433
604.428	0.0156187
604.506	0.0156225
604.584	0.0156954
604.663	0.0156706
604.741	0.0156339
604.819	0.0157053
604.897	0.0156789
604.975	0.0156787
605.053	0.0158124
605.131	0.0156885
605.209	0.0157700
605.288	0.0157351
605.366	0.0156167
605.444	0.0156349
605.522	0.0157392
605.600	0.0158102
605.678	0.0155309
605.756	0.0156999
605.834	0.0157131
605.913	0.0157435
605.991	0.0157230
606.069	0.0158028
606.147	0.0157813
606.225	0.0156203
606.303	0.0156915
606.381	0.0155803
606.459	0.0157315
606.538	0.0158594
606.616	0.0155664
606.694	0.0155948
606.772	0.0158544
606.850	0.0157211
606.928	0.0156187
607.006	0.0156089
607.084	0.0157777
607.163	0.0157518
607.241	0.0157744
607.319	0.0155978
607.397	0.0155305
607.475	0.0157191
607.553	0.0156932
607.631	0.0156297
607.709	0.0155632
607.788	0.0158323
607.866	0.0157418
607.944	0.0157039
608.022	0.0156155
608.100	0.0157531
608.178	0.0158587
608.256	0.0157448
608.334	0.0156062
608.413	0.0156176
608.491	0.0155790
608.569	0.0156680
608.647	0.0156908
608.725	0.0157359
608.803	0.0157712
608.881	0.0156223
608.959	0.0157462
609.038	0.0156830
609.116	0.0156544
609.194	0.0157587
609.272	0.0157249
609.350	0.0157247
609.428	0.0157430
609.506	0.0156572
609.584	0.0156860
609.663	0.0156847
609.741	0.0157395
609.819	0.0157625
609.897	0.0155936
609.975	0.0157512
610.053	0.0158929
610.131	0.0157310
610.209	0.0157733
610.288	0.0156832
610.366	0.0156762
610.444	0.0157378
610.522	0.0158940
610.600	0.0157931
610.678	0.0156552
610.756	0.0157368
610.834	0.0158271
610.913	0.0157430
610.991	0.0157458
611.069	0.0158546
611.147	0.0156924
611.225	0.0157457
611.303	0.0157940
611.381	0.0156667
611.459	0.0157874
611.538	0.0157829
611.616	0.0158660
611.694	0.0158318
611.772	0.0157151
611.850	0.0158138
611.928	0.0157453
612.006	0.0157163
612.084	0.0157790
612.163	0.0157944
612.241	0.0156602
612.319	0.0157924
612.397	0.0159194
612.475	0.0158743
612.553	0.0157222
612.631	0.0158282
612.709	0.0157183
612.788	0.0158796
612.866	0.0158179
612.944	0.0158648
613.022	0.0156635
613.100	0.0157710
613.178	0.0156998
613.256	0.0158255
613.334	0.0159025
613.413	0.0157616
613.491	0.0157592
613.569	0.0157430
613.647	0.0157040
613.725	0.0158836
613.803	0.0157569
613.881	0.0157487
613.959	0.0156130
614.038	0.0156443
614.116	0.0157969
614.194	0.0156843
614.272	0.0157755
614.350	0.0158025
614.428	0.0157191
614.506	0.0157868
614.584	0.0158273
614.663	0.0157751
614.741	0.0159174
614.819	0.0157796
614.897	0.0156907
614.975	0.0157519
615.053	0.0156864
615.131	0.0157543
615.209	0.0158199
615.288	0.0157165
615.366	0.0158784
615.444	0.0158500
615.522	0.0156706
615.600	0.0157174
615.678	0.0158083
615.756	0.0157628
615.834	0.0156950
615.913	0.0157764
615.991	0.0158836
616.069	0.0157983
616.147	0.0157305
616.225	0.0156485
616.303	0.0157455
616.381	0.0158438
616.459	0.0158011
616.538	0.0157771
616.616	0.0157009
616.694	0.0156055
616.772	0.0157466
616.850	0.0156743
616.928	0.0157589
617.006	0.0157439
617.084	0.0156332
617.163	0.0156860
617.241	0.0156183
617.319	0.0157835
617.397	0.0158170
617.475	0.0157402
617.553	0.0157794
617.631	0.0158858
617.709	0.0157740
617.788	0.0157847
617.866	0.0156326
617.944	0.0157796
618.022	0.0157605
618.100	0.0158418
618.178	0.0157735
618.256	0.0158015
618.334	0.0157131
618.413	0.0156371
618.491	0.0157446
618.569	0.0157227
618.647	0.0158425
618.725	0.0157980
618.803	0.0156801
618.881	0.0157822
618.959	0.0157377
619.038	0.0156859
619.116	0.0157543
619.194	0.0157661
619.272	0.0156972
619.350	0.0156969
619.428	0.0159213
619.506	0.0157462
619.584	0.0156388
619.663	0.0156361
619.741	0.0157884
619.819	0.0158277
619.897	0.0157812
619.975	0.0158403
620.053	0.0157639
620.131	0.0157340
620.209	0.0156657
620.288	0.0158215
620.366	0.0158137
620.444	0.0157600
620.522	0.0157574
620.600	0.0156530
620.678	0.0157801
620.756	0.0157669
620.834	0.0157428
620.913	0.0156610
620.991	0.0157740
621.069	0.0158025
621.147	0.0157436
621.225	0.0158006
621.303	0.0157779
621.381	0.0158177
621.459	0.0157300
621.538	0.0156316
621.616	0.0158060
621.694	0.0156815
621.772	0.0155845
621.850	0.0158685
621.928	0.0157439
622.006	0.0156651
622.084	0.0157032
622.163	0.0158600
622.241	0.0158461
622.319	0.0156942
622.397	0.0157105
622.475	0.0157875
622.553	0.0157663
622.631	0.0157801
622.709	0.0157774
622.788	0.0156957
622.866	0.0157813
622.944	0.0158419
623.022	0.0156892
623.100	0.0156532
623.178	0.0158138
623.256	0.0156732
623.334	0.0156944
623.413	0.0158353
623.491	0.0158156
623.569	0.0156419
623.647	0.0156246
623.725	0.0157542
623.803	0.0158577
623.881	0.0157292
623.959	0.0156306
624.038	0.0156837
624.116	0.0156785
624.194	0.0157715
624.272	0.0158447
624.350	0.0157473
624.428	0.0156256
624.506	0.0156982
624.584	0.0157803
624.663	0.0158492
624.741	0.0156361
624.819	0.0156453
624.897	0.0158739
624.975	0.0156999
625.053	0.0157294
625.131	0.0159958
625.209	0.0156612
625.288	0.0155730
625.366	0.0157292
625.444	0.0157857
625.522	0.0159228
625.600	0.0157987
625.678	0.0156885
625.756	0.0157183
625.834	0.0157549
625.913	0.0158717
625.991	0.0156908
626.069	0.0157738
626.147	0.0157358
626.225	0.0156102
626.303	0.0156726
626.381	0.0157966
626.459	0.0157166
626.538	0.0156839
626.616	0.0156709
626.694	0.0157033
626.772	0.0158003
626.850	0.0156369
626.928	0.0157381
627.006	0.0158163
627.084	0.0156872
627.163	0.0156174
627.241	0.0157987
627.319	0.0157611
627.397	0.0158150
627.475	0.0157113
627.553	0.0157290
627.631	0.0157700
627.709	0.0157262
627.788	0.0157277
627.866	0.0157317
627.944	0.0156714
628.022	0.0156241
628.100	0.0157249
628.178	0.0156702
628.256	0.0157703
628.334	0.0157344
628.413	0.0155713
628.491	0.0157487
628.569	0.0156973
628.647	0.0157554
628.725	0.0156922
628.803	0.0156396
628.881	0.0157800
628.959	0.0156731
629.038	0.0155830
629.116	0.0157979
629.194	0.0156104
629.272	0.0156478
629.350	0.0158151
629.428	0.0157639
629.506	0.0156564
629.584	0.0156023
629.663	0.0156027
629.741	0.0156454
629.819	0.0157467
629.897	0.0158033
629.975	0.0157594
630.053	0.0157519
630.131	0.0156958
630.209	0.0158401
630.288	0.0156966
630.366	0.0158282
630.444	0.0156628
630.522	0.0156336
630.600	0.0156304
630.678	0.0157288
630.756	0.0157990
630.834	0.0155904
630.913	0.0157579
630.991	0.0158917
631.069	0.0156660
631.147	0.0155962
631.225	0.0158664
631.303	0.0156628
631.381	0.0157765
631.459	0.0156787
631.538	0.0156822
631.616	0.0156406
631.694	0.0158843
631.772	0.0157083
631.850	0.0157179
631.928	0.0158025
632.006	0.0156793
632.084	0.0156561
632.163	0.0157626
632.241	0.0156514
632.319	0.0156755
632.397	0.0156631
632.475	0.0158493
632.553	0.0157323
632.631	0.0157497
632.709	0.0157303
632.788	0.0157938
632.866	0.0157204
632.944	0.0157107
633.022	0.0157353
633.100	0.0157710
633.178	0.0156610
633.256	0.0156051
633.334	0.0156744
633.413	0.0157802
633.491	0.0156543
633.569	0.0157251
633.647	0.0156445
633.725	0.0157619
633.803	0.0157773
633.881	0.0156171
633.959	0.0156676
634.038	0.0157521
634.116	0.0156557
634.194	0.0157050
634.272	0.0155927
634.350	0.0158688
634.428	0.0157499
634.506	0.0157025
634.584	0.0156368
634.663	0.0157146
634.741	0.0156538
634.819	0.0156802
634.897	0.0157658
634.975	0.0157326
635.053	0.0158049
635.131	0.0157095
635.209	0.0156361
635.288	0.0158196
635.366	0.0157827
635.444	0.0157952
635.522	0.0158191
635.600	0.0156676
635.678	0.0157056
635.756	0.0156525
635.834	0.0157816
635.913	0.0156776
635.991	0.0156390
636.069	0.0156619
636.147	0.0157448
636.225	0.0157693
636.303	0.0157455
636.381	0.0156849
636.459	0.0156556
636.538	0.0156688
636.616	0.0157275
636.694	0.0157755
636.772	0.0157391
636.850	0.0155421
636.928	0.0157040
637.006	0.0156793
637.084	0.0157241
637.163	0.0156403
637.241	0.0156026
637.319	0.0158199
637.397	0.0156145
637.475	0.0156965
637.553	0.0157045
637.631	0.0156438
637.709	0.0156660
637.788	0.0156520
637.866	0.0157346
637.944	0.0156623
638.022	0.0155555
638.100	0.0156891
638.178	0.0157296
638.256	0.0156421
638.334	0.0157551
638.413	0.0158292
638.491	0.0158160
638.569	0.0157015
638.647	0.0156556
638.725	0.0156197
638.803	0.0156264
638.881	0.0156874
638.959	0.0157998
639.038	0.0158004
639.116	0.0156682
639.194	0.0156172
639.272	0.0155962
639.350	0.0155695
639.428	0.0158772
639.506	0.0157495
639.584	0.0157542
639.663	0.0157649
639.741	0.0155612
639.819	0.0155654
639.897	0.0157282
639.975	0.0156363
640.053	0.0154917
640.131	0.0156824
640.209	0.0156911
640.288	0.0156487
640.366	0.0157991
640.444	0.0157664
640.522	0.0156528
640.600	0.0156555
640.678	0.0157723
640.756	0.0156832
640.834	0.0155098
640.913	0.0156271
640.991	0.0156604
641.069	0.0158294
641.147	0.0157712
641.225	0.0157511
641.303	0.0157634
641.381	0.0156948
641.459	0.0155839
641.538	0.0155408
641.616	0.0156280
641.694	0.0156882
641.772	0.0156349
641.850	0.0156133
641.928	0.0157920
642.006	0.0157433
642.084	0.0157658
642.163	0.0157406
642.241	0.0156410
642.319	0.0156988
642.397	0.0156842
642.475	0.0156261
642.553	0.0156603
642.631	0.0158332
642.709	0.0157983
642.788	0.0156498
642.866	0.0156843
642.944	0.0157097
643.022	0.0156969
643.100	0.0156378
643.178	0.0156194
643.256	0.0157179
643.334	0.0157488
643.413	0.0156767
643.491	0.0157256
643.569	0.0156870
643.647	0.0156620
643.725	0.0157833
643.803	0.0156126
643.881	0.0156551
643.959	0.0158730
644.038	0.0157004
644.116	0.0157668
644.194	0.0157789
644.272	0.0156503
644.350	0.0157237
644.428	0.0157275
644.506	0.0157944
644.584	0.0156510
644.663	0.0158877
644.741	0.0157814
644.819	0.0158051
644.897	0.0157265
644.975	0.0156940
645.053	0.0158315
645.131	0.0156563
645.209	0.0156643
645.288	0.0158678
645.366	0.0158070
645.444	0.0156829
645.522	0.0157301
645.600	0.0158155
645.678	0.0157040
645.756	0.0156197
645.834	0.0156647
645.913	0.0157690
645.991	0.0157409
646.069	0.0158366
646.147	0.0156184
646.225	0.0156403
646.303	0.0157360
646.381	0.0157381
646.459	0.0156932
646.538	0.0158108
646.616	0.0157767
646.694	0.0156481
646.772	0.0157536
646.850	0.0156068
646.928	0.0156984
647.006	0.0157835
647.084	0.0156018
647.163	0.0158728
647.241	0.0157160
647.319	0.0157552
647.397	0.0156821
647.475	0.0157590
647.553	0.0157439
647.631	0.0156895
647.709	0.0157637
647.788	0.0157802
647.866	0.0156410
647.944	0.0156384
648.022	0.0158628
648.100	0.0156633
648.178	0.0155629
648.256	0.0158237
648.334	0.0157542
648.413	0.0158310
648.491	0.0156995
648.569	0.0157224
648.647	0.0158265
648.725	0.0157189
648.803	0.0157836
648.881	0.0157404
648.959	0.0158738
649.038	0.0158170
649.116	0.0158557
649.194	0.0159020
649.272	0.0158176
649.350	0.0158194
649.428	0.0156805
649.506	0.0158122
649.584	0.0158531
649.663	0.0158536
649.741	0.0157771
649.819	0.0157981
649.897	0.0157784
649.975	0.0158276
650.053	0.0158221
650.131	0.0156100
650.209	0.0156855
650.288	0.0158904
650.366	0.0158942
650.444	0.0158308
650.522	0.0158494
650.600	0.0157663
650.678	0.0157909
650.756	0.0157648
650.834	0.0156664
650.913	0.0159058
650.991	0.0158688
651.069	0.0157269
651.147	0.0157909
651.225	0.0157658
651.303	0.0158111
651.381	0.0158149
651.459	0.0157100
651.538	0.0156787
651.616	0.0157345
651.694	0.0158075
651.772	0.0158035
651.850	0.0157068
651.928	0.0158038
652.006	0.0158330
652.084	0.0157229
652.163	0.0156831
652.241	0.0157688
652.319	0.0157594
652.397	0.0158331
652.475	0.0157491
652.553	0.0158571
652.631	0.0158183
652.709	0.0157359
652.788	0.0157895
652.866	0.0157044
652.944	0.0158363
653.022	0.0157308
653.100	0.0155880
653.178	0.0157767
653.256	0.0158017
653.334	0.0158182
653.413	0.0158548
653.491	0.0158011
653.569	0.0156860
653.647	0.0156782
653.725	0.0157591
653.803	0.0157864
653.881	0.0158270
653.959	0.0158140
654.038	0.0157323
654.116	0.0157397
654.194	0.0158638
654.272	0.0158026
654.350	0.0156399
654.428	0.0157224
654.506	0.0158496
654.584	0.0155749
654.663	0.0155800
654.741	0.0158075
654.819	0.0156636
654.897	0.0157390
654.975	0.0156940
655.053	0.0156145
655.131	0.0156955
655.209	0.0157456
655.288	0.0158241
655.366	0.0157426
655.444	0.0156782
655.522	0.0157376
655.600	0.0156576
655.678	0.0156714
655.756	0.0157560
655.834	0.0157532
655.913	0.0156396
655.991	0.0157081
656.069	0.0157331
656.147	0.0158086
656.225	0.0157433
656.303	0.0156042
656.381	0.0155784
656.459	0.0157402
656.538	0.0155854
656.616	0.0157098
656.694	0.0156467
656.772	0.0157203
656.850	0.0156732
656.928	0.0156701
657.006	0.0156893
657.084	0.0156920
657.163	0.0156014
657.241	0.0156270
657.319	0.0155656
657.397	0.0156129
657.475	0.0156487
657.553	0.0157551
657.631	0.0156297
657.709	0.0156738
657.788	0.0155397
657.866	0.0156202
657.944	0.0157123
658.022	0.0156870
658.100	0.0156005
658.178	0.0155597
658.256	0.0155066
658.334	0.0155723
658.413	0.0156664
658.491	0.0156177
658.569	0.0155184
658.647	0.0155811
658.725	0.0156569
658.803	0.0156253
658.881	0.0155025
658.959	0.0156523
659.038	0.0156369
659.116	0.0156333
659.194	0.0155824
659.272	0.0156116
659.350	0.0154539
659.428	0.0156727
659.506	0.0156701
659.584	0.0156937
659.663	0.0157178
659.741	0.0156352
659.819	0.0155080
659.897	0.0156306
659.975	0.0155061
660.053	0.0155468
660.131	0.0156448
660.209	0.0156874
660.288	0.0157278
660.366	0.0157284
660.444	0.0156845
660.522	0.0155177
660.600	0.0155774
660.678	0.0155859
660.756	0.0156105
660.834	0.0155384
660.913	0.0156387
660.991	0.0157364
661.069	0.0157200
661.147	0.0156017
661.225	0.0156304
661.303	0.0155264
661.381	0.0156706
661.459	0.0157747
661.538	0.0158504
661.616	0.0157070
661.694	0.0156910
661.772	0.0157032
661.850	0.0156206
661.928	0.0155540
662.006	0.0156793
662.084	0.0156551
662.163	0.0157246
662.241	0.0156572
662.319	0.0157231
662.397	0.0157201
662.475	0.0156593
662.553	0.0155685
662.631	0.0155840
662.709	0.0156503
662.788	0.0155735
662.866	0.0156223
662.944	0.0157606
663.022	0.0155818
663.100	0.0157215
663.178	0.0158747
663.256	0.0157054
663.334	0.0156107
663.413	0.0155759
663.491	0.0157877
663.569	0.0157201
663.647	0.0156501
663.725	0.0155638
663.803	0.0156597
663.881	0.0156505
663.959	0.0157036
664.038	0.0157405
664.116	0.0156042
664.194	0.0157095
664.272	0.0156918
664.350	0.0156925
664.428	0.0156712
664.506	0.0157410
664.584	0.0157516
664.663	0.0157703
664.741	0.0156976
664.819	0.0158047
664.897	0.0156821
664.975	0.0156195
665.053	0.0157920
665.131	0.0156467
665.209	0.0157288
665.288	0.0156847
665.366	0.0157166
665.444	0.0157049
665.522	0.0157489
665.600	0.0157560
665.678	0.0156726
665.756	0.0155830
665.834	0.0157671
665.913	0.0158037
665.991	0.0156818
666.069	0.0156700
666.147	0.0158256
666.225	0.0157914
666.303	0.0157099
666.381	0.0157407
666.459	0.0156448
666.538	0.0157678
666.616	0.0156541
666.694	0.0157543
666.772	0.0156316
666.850	0.0156531
666.928	0.0158208
667.006	0.0157987
667.084	0.0158179
667.163	0.0155755
667.241	0.0157391
667.319	0.0158140
667.397	0.0157471
667.475	0.0156500
667.553	0.0156447
667.631	0.0156869
667.709	0.0158226
667.788	0.0156898
667.866	0.0156597
667.944	0.0158430
668.022	0.0159468
668.100	0.0158415
668.178	0.0157848
668.256	0.0158193
668.334	0.0159087
668.413	0.0158842
668.491	0.0158504
668.569	0.0158369
668.647	0.0157574
668.725	0.0158221
668.803	0.0157995
668.881	0.0159372
668.959	0.0159146
669.038	0.0157803
669.116	0.0157354
669.194	0.0158255
669.272	0.0158913
669.350	0.0157728
669.428	0.0158224
669.506	0.0157319
669.584	0.0157968
669.663	0.0157528
669.741	0.0156858
669.819	0.0159010
669.897	0.0157570
669.975	0.0156554
670.053	0.0157188
670.131	0.0155878
670.209	0.0156787
670.288	0.0157815
670.366	0.0158147
670.444	0.0157472
670.522	0.0158148
670.600	0.0157016
670.678	0.0158127
670.756	0.0158867
670.834	0.0160406
670.913	0.0158727
670.991	0.0159001
671.069	0.0159731
671.147	0.0159858
671.225	0.0159882
671.303	0.0159996
671.381	0.0158859
671.459	0.0160241
671.538	0.0160328
671.616	0.0159697
671.694	0.0159180
671.772	0.0160301
671.850	0.0159613
671.928	0.0158189
672.006	0.0158765
672.084	0.0157891
672.163	0.0156390
672.241	0.0157037
672.319	0.0156821
672.397	0.0157146
672.475	0.0157980
672.553	0.0156530
672.631	0.0155006
672.709	0.0154056
672.788	0.0154828
672.866	0.0156498
672.944	0.0157018
673.022	0.0156319
673.100	0.0156072
673.178	0.0157370
673.256	0.0158286
673.334	0.0159061
673.413	0.0157658
673.491	0.0158121
673.569	0.0158872
673.647	0.0159831
673.725	0.0160645
673.803	0.0160159
673.881	0.0159705
673.959	0.0160630
674.038	0.0161547
674.116	0.0161225
674.194	0.0161219
674.272	0.0161026
674.350	0.0160435
674.428	0.0159844
674.506	0.0159226
674.584	0.0157699
674.663	0.0158623
674.741	0.0159164
674.819	0.0158026
674.897	0.0158686
674.975	0.0156968
675.053	0.0155977
675.131	0.0156125
675.209	0.0156856
675.288	0.0154916
675.366	0.0154845
675.444	0.0155294
675.522	0.0156201
675.600	0.0156280
675.678	0.0154887
675.756	0.0155672
675.834	0.0154911
675.913	0.0156190
675.991	0.0157147
676.069	0.0157268
676.147	0.0157076
676.225	0.0157568
676.303	0.0157439
676.381	0.0156589
676.459	0.0157504
676.538	0.0158905
676.616	0.0157868
676.694	0.0157880
676.772	0.0157837
676.850	0.0158217
676.928	0.0158222
677.006	0.0157893
677.084	0.0158233
677.163	0.0157008
677.241	0.0158129
677.319	0.0157256
677.397	0.0156685
677.475	0.0157478
677.553	0.0158763
677.631	0.0157126
677.709	0.0158582
677.788	0.0158463
677.866	0.0157600
677.944	0.0157392
678.022	0.0156818
678.100	0.0158714
678.178	0.0158590
678.256	0.0157452
678.334	0.0157244
678.413	0.0157280
678.491	0.0157093
678.569	0.0157413
678.647	0.0157916
678.725	0.0156060
678.803	0.0158806
678.881	0.0157755
678.959	0.0157577
679.038	0.0156799
679.116	0.0157621
679.194	0.0156468
679.272	0.0156989
679.350	0.0156075
679.428	0.0157297
679.506	0.0155685
679.584	0.0156876
679.663	0.0153754
679.741	0.0154324
679.819	0.0153794
679.897	0.0155147
679.975	0.0154072
680.053	0.0154832
680.131	0.0153149
680.209	0.0154011
680.288	0.0155185
680.366	0.0155793
680.444	0.0155063
680.522	0.0154699
680.600	0.0156037
680.678	0.0156261
680.756	0.0155408
680.834	0.0156610
680.913	0.0156455
680.991	0.0156203
681.069	0.0157385
681.147	0.0155729
681.225	0.0155727
681.303	0.0158292
681.381	0.0157434
681.459	0.0156894
681.538	0.0157758
681.616	0.0157645
681.694	0.0159126
681.772	0.0159651
681.850	0.0159932
681.928	0.0159122
682.006	0.0160046
682.084	0.0160369
682.163	0.0158613
682.241	0.0159394
682.319	0.0159580
682.397	0.0159000
682.475	0.0159607
682.553	0.0158528
682.631	0.0156810
682.709	0.0157145
682.788	0.0156257
682.866	0.0155751
682.944	0.0154316
683.022	0.0154873
683.100	0.0152544
683.178	0.0152932
683.256	0.0152915
683.334	0.0152264
683.413	0.0151455
683.491	0.0151274
683.569	0.0151450
683.647	0.0151952
683.725	0.0152954
683.803	0.0152367
683.881	0.0150833
683.959	0.0152464
684.038	0.0152997
684.116	0.0152609
684.194	0.0152244
684.272	0.0153620
684.350	0.0154902
684.428	0.0155939
684.506	0.0156563
684.584	0.0158887
684.663	0.0160046
684.741	0.0161517
684.819	0.0161622
684.897	0.0161686
684.975	0.0162334
685.053	0.0163644
685.131	0.0162865
685.209	0.0163123
685.288	0.0162150
685.366	0.0159895
685.444	0.0159689
685.522	0.0159315
685.600	0.0157509
685.678	0.0156667
685.756	0.0156713
685.834	0.0155412
685.913	0.0156006
685.991	0.0154701
686.069	0.0154598
686.147	0.0152707
686.225	0.0151197
686.303	0.0152206
686.381	0.0152853
686.459	0.0152354
686.538	0.0153300
686.616	0.0153941
686.694	0.0155319
686.772	0.0156432
686.850	0.0157869
686.928	0.0157585
687.006	0.0159889
687.084	0.0162489
687.163	0.0162383
687.241	0.0163509
687.319	0.0164248
687.397	0.0163742
687.475	0.0162135
687.553	0.0161600
687.631	0.0161745
687.709	0.0158966
687.788	0.0157030
687.866	0.0155122
687.944	0.0153690
688.022	0.0152966
688.100	0.0149237
688.178	0.0147376
688.256	0.0147213
688.334	0.0145824
688.413	0.0147153
688.491	0.0145837
688.569	0.0146734
688.647	0.0146432
688.725	0.0149729
688.803	0.0150932
688.881	0.0154942
688.959	0.0156660
689.038	0.0158106
689.116	0.0161633
689.194	0.0163950
689.272	0.0164667
689.350	0.0167456
689.428	0.0167672
689.506	0.0168832
689.584	0.0167278
689.663	0.0168096
689.741	0.0166507
689.819	0.0166413
689.897	0.0164986
689.975	0.0163390
690.053	0.0162248
690.131	0.0161140
690.209	0.0159082
690.288	0.0158781
690.366	0.0158157
690.444	0.0158691
690.522	0.0158397
690.600	0.0156887
690.678	0.0156693
690.756	0.0155544
690.834	0.0155377
690.913	0.0154509
690.991	0.0153004
691.069	0.0150980
691.147	0.0150473
691.225	0.0149890
691.303	0.0148750
691.381	0.0145769
691.459	0.0147368
691.538	0.0146281
691.616	0.0147606
691.694	0.0147066
691.772	0.0148341
691.850	0.0150028
691.928	0.0151330
692.006	0.0152705
692.084	0.0156152
692.163	0.0157777
692.241	0.0159635
692.319	0.0161592
692.397	0.0163058
692.475	0.0164729
692.553	0.0165363
692.631	0.0165697
692.709	0.0163166
692.788	0.0161625
692.866	0.0160860
692.944	0.0158391
693.022	0.0154549
693.100	0.0152378
693.178	0.0151344
693.256	0.0150956
693.334	0.0150089
693.413	0.0148997
693.491	0.0152390
693.569	0.0152570
693.647	0.0154837
693.725	0.0158227
693.803	0.0160578
693.881	0.0161874
693.959	0.0164701
694.038	0.0165286
694.116	0.0167811
694.194	0.0167809
694.272	0.0166505
694.350	0.0165163
694.428	0.0164574
694.506	0.0164690
694.584	0.0160585
694.663	0.0161295
694.741	0.0162383
694.819	0.0162643
694.897	0.0163285
694.975	0.0164877
695.053	0.0165971
695.131	0.0167655
695.209	0.0167524
695.288	0.0166498
695.366	0.0164641
695.444	0.0163106
695.522	0.0160626
695.600	0.0155711
695.678	0.0150980
695.756	0.0147513
695.834	0.0143179
695.913	0.0141470
695.991	0.0139048
696.069	0.0136159
696.147	0.0137741
696.225	0.0139304
696.303	0.0140288
696.381	0.0141222
696.459	0.0142439
696.538	0.0144607
696.616	0.0144450
696.694	0.0145966
696.772	0.0147327
696.850	0.0147129
696.928	0.0148591
697.006	0.0150519
697.084	0.0151377
697.163	0.0151492
697.241	0.0154029
697.319	0.0158141
697.397	0.0160876
697.475	0.0164362
697.553	0.0168452
697.631	0.0172942
697.709	0.0177698
697.788	0.0179364
697.866	0.0181425
697.944	0.0182759
698.022	0.0182121
698.100	0.0179973
698.178	0.0178502
698.256	0.0175761
698.334	0.0170395
698.413	0.0167142
698.491	0.0163895
698.569	0.0159516
698.647	0.0156679
698.725	0.0155058
698.803	0.0155724
698.881	0.0154579
698.959	0.0155050
699.038	0.0156499
699.116	0.0157955
699.194	0.0157648
699.272	0.0156724
699.350	0.0156963
699.428	0.0154953
699.506	0.0152386
699.584	0.0148598
699.663	0.0144947
699.741	0.0142383
699.819	0.0140052
699.897	0.0138492
699.975	0.0137348
700.053	0.0135431
700.131	0.0137960
700.209	0.0140875
700.288	0.0141903
700.366	0.0144617
700.444	0.0149057
700.522	0.0151395
700.600	0.0156435
700.678	0.0158453
700.756	0.0162344
700.834	0.0163680
700.913	0.0166337
700.991	0.0167548
701.069	0.0167427
701.147	0.0168667
701.225	0.0168726
701.303	0.0168105
701.381	0.0169807
701.459	0.0169634
701.538	0.0168575
701.616	0.0168752
701.694	0.0167571
701.772	0.0167645
701.850	0.0165105
701.928	0.0165007
702.006	0.0159806
702.084	0.0157218
702.163	0.0156760
702.241	0.0154015
702.319	0.0150616
702.397	0.0148269
702.475	0.0146138
702.553	0.0145435
702.631	0.0145972
702.709	0.0146523
702.788	0.0148342
702.866	0.0148877
702.944	0.0152757
703.022	0.0155589
703.100	0.0157252
703.178	0.0157322
703.256	0.0158415
703.334	0.0158389
703.413	0.0157871
703.491	0.0155560
703.569	0.0154823
703.647	0.0153390
703.725	0.0151991
703.803	0.0151669
703.881	0.0147772
703.959	0.0147798
704.038	0.0147932
704.116	0.0146891
704.194	0.0148604
704.272	0.0151359
704.350	0.0153320
704.428	0.0154353
704.506	0.0157800
704.584	0.0159341
704.663	0.0161534
704.741	0.0165427
704.819	0.0167786
704.897	0.0166917
704.975	0.0166227
705.053	0.0164961
705.131	0.0163264
705.209	0.0161916
705.288	0.0159288
705.366	0.0157941
705.444	0.0157825
705.522	0.0156541
705.600	0.0158778
705.678	0.0160694
705.756	0.0164996
705.834	0.0167982
705.913	0.0171255
705.991	0.0174869
706.069	0.0178777
706.147	0.0178996
706.225	0.0181352
706.303	0.0178868
706.381	0.0177486
706.459	0.0174992
706.538	0.0173738
706.616	0.0169178
706.694	0.0166266
706.772	0.0163339
706.850	0.0159472
706.928	0.0156222
707.006	0.0154589
707.084	0.0151890
707.163	0.0150202
707.241	0.0148330
707.319	0.0143427
707.397	0.0140904
707.475	0.0140324
707.553	0.0135455
707.631	0.0129526
707.709	0.0125666
707.788	0.0120965
707.866	0.0117676
707.944	0.0112843
708.022	0.0109373
708.100	0.0108308
708.178	0.0108251
708.256	0.0109979
708.334	0.0111286
708.413	0.0116620
708.491	0.0121289
708.569	0.0127887
708.647	0.0134872
708.725	0.0141332
708.803	0.0147648
708.881	0.0153470
708.959	0.0159885
709.038	0.0166941
709.116	0.0171796
709.194	0.0174979
709.272	0.0179070
709.350	0.0182987
709.428	0.0185916
709.506	0.0187047
709.584	0.0190591
709.663	0.0191889
709.741	0.0193230
709.819	0.0194371
709.897	0.0194926
709.975	0.0195248
710.053	0.0195712
710.131	0.0196235
710.209	0.0194626
710.288	0.0196295
710.366	0.0196362
710.444	0.0195879
710.522	0.0194733
710.600	0.0193407
710.678	0.0190471
710.756	0.0189414
710.834	0.0185654
710.913	0.0181521
710.991	0.0177171
711.069	0.0173268
711.147	0.0165956
711.225	0.0162202
711.303	0.0157712
711.381	0.0152045
711.459	0.0150260
711.538	0.0147390
711.616	0.0143204
711.694	0.0141665
711.772	0.0141035
711.850	0.0138487
711.928	0.0135777
712.006	0.0131668
712.084	0.0127964
712.163	0.0125222
712.241	0.0121146
712.319	0.0116711
712.397	0.0111958
712.475	0.0111906
712.553	0.0109615
712.631	0.0106689
712.709	0.0108598
712.788	0.0107017
712.866	0.0106532
712.944	0.0108028
713.022	0.0110835
713.100	0.0113289
713.178	0.0115575
713.256	0.0118502
713.334	0.0121259
713.413	0.0125155
713.491	0.0129917
713.569	0.0133537
713.647	0.0137798
713.725	0.0143816
713.803	0.0149132
713.881	0.0155117
713.959	0.0160193
714.038	0.0168301
714.116	0.0173457
714.194	0.0181760
714.272	0.0188261
714.350	0.0194071
714.428	0.0199377
714.506	0.0203757
714.584	0.0208539
714.663	0.0211630
714.741	0.0213111
714.819	0.0213696
714.897	0.0215990
714.975	0.0216000
715.053	0.0215619
715.131	0.0213506
715.209	0.0212458
715.288	0.0210375
715.366	0.0207009
715.444	0.0201934
715.522	0.0195713
715.600	0.0191773
715.678	0.0181667
715.756	0.0174803
715.834	0.0167689
715.913	0.0158066
715.991	0.0150267
716.069	0.0142984
716.147	0.0135353
716.225	0.0129180
716.303	0.0124919
716.381	0.0119934
716.459	0.0114878
716.538	0.0113517
716.616	0.0114169
716.694	0.0112418
716.772	0.0114287
716.850	0.0117204
716.928	0.0121111
717.006	0.0123586
717.084	0.0127289
717.163	0.0132030
717.241	0.0136554
717.319	0.0140285
717.397	0.0143484
717.475	0.0147824
717.553	0.0150922
717.631	0.0152612
717.709	0.0152547
717.788	0.0156041
717.866	0.0159251
717.944	0.0159000
718.022	0.0160571
718.100	0.0160436
718.178	0.0162343
718.256	0.0164927
718.334	0.0166642
718.413	0.0169366
718.491	0.0171042
718.569	0.0172655
718.647	0.0173569
718.725	0.0173356
718.803	0.0174600
718.881	0.0173149
718.959	0.0171880
719.038	0.0170268
719.116	0.0166383
719.194	0.0164622
719.272	0.0162679
719.350	0.0159610
719.428	0.0157110
719.506	0.0156207
719.584	0.0155125
719.663	0.0153118
719.741	0.0152577
719.819	0.0151862
719.897	0.0152232
719.975	0.0151046
720.053	0.0151593
720.131	0.0149899
720.209	0.0148978
720.288	0.0146906
720.366	0.0145778
720.444	0.0146018
720.522	0.0144235
720.600	0.0143612
720.678	0.0144975
720.756	0.0146275
720.834	0.0144714
720.913	0.0146952
720.991	0.0151313
721.069	0.0152655
721.147	0.0155594
721.225	0.0157873
721.303	0.0159447
721.381	0.0161262
721.459	0.0164132
721.538	0.0163691
721.616	0.0165122
721.694	0.0164896
721.772	0.0164792
721.850	0.0164800
721.928	0.0163773
722.006	0.0163132
722.084	0.0162643
722.163	0.0163947
722.241	0.0164034
722.319	0.0164356
722.397	0.0164534
722.475	0.0166634
722.553	0.0167315
722.631	0.0166943
722.709	0.0167659
722.788	0.0168456
722.866	0.0169697
722.944	0.0169690
723.022	0.0169556
723.100	0.0169956
723.178	0.0169278
723.256	0.0169957
723.334	0.0169772
723.413	0.0167218
723.491	0.0166608
723.569	0.0166756
723.647	0.0165571
723.725	0.0164122
723.803	0.0163258
723.881	0.0161745
723.959	0.0162064
724.038	0.0161129
724.116	0.0160548
724.194	0.0160802
724.272	0.0162474
724.350	0.0162148
724.428	0.0163363
724.506	0.0163168
724.584	0.0161042
724.663	0.0159517
724.741	0.0156239
724.819	0.0154762
724.897	0.0151676
724.975	0.0146631
725.053	0.0139969
725.131	0.0137542
725.209	0.0133875
725.288	0.0130037
725.366	0.0128079
725.444	0.0128741
725.522	0.0127925
725.600	0.0129030
725.678	0.0131508
725.756	0.0136067
725.834	0.0140359
725.913	0.0145625
725.991	0.0148000
726.069	0.0152572
726.147	0.0155269
726.225	0.0157848
726.303	0.0158759
726.381	0.0156794
726.459	0.0157695
726.538	0.0155326
726.616	0.0154003
726.694	0.0152345
726.772	0.0151044
726.850	0.0148267
726.928	0.0148413
727.006	0.0148695
727.084	0.0149335
727.163	0.0150011
727.241	0.0149432
727.319	0.0151673
727.397	0.0152293
727.475	0.0154286
727.553	0.0153799
727.631	0.0154094
727.709	0.0153490
727.788	0.0152220
727.866	0.0149863
727.944	0.0148517
728.022	0.0146851
728.100	0.0146324
728.178	0.0148464
728.256	0.0150665
728.334	0.0153117
728.413	0.0156405
728.491	0.0160770
728.569	0.0166952
728.647	0.0172527
728.725	0.0176452
728.803	0.0183583
728.881	0.0185201
728.959	0.0187730
729.038	0.0190838
729.116	0.0191518
729.194	0.0192417
729.272	0.0193327
729.350	0.0189749
729.428	0.0187511
729.506	0.0187338
729.584	0.0186265
729.663	0.0184460
729.741	0.0180445
729.819	0.0180134
729.897	0.0176275
729.975	0.0173257
730.053	0.0169664
730.131	0.0165419
730.209	0.0160777
730.288	0.0157975
730.366	0.0153825
730.444	0.0150385
730.522	0.0147212
730.600	0.0143766
730.678	0.0143008
730.756	0.0141808
730.834	0.0140882
730.913	0.0140198
730.991	0.0141298
731.069	0.0140538
731.147	0.0140875
731.225	0.0140894
731.303	0.0141628
731.381	0.0142773
731.459	0.0144140
731.538	0.0143727
731.616	0.0143104
731.694	0.0145187
731.772	0.0145548
731.850	0.0145590
731.928	0.0144715
732.006	0.0145903
732.084	0.0143953
732.163	0.0143068
732.241	0.0143723
732.319	0.0141634
732.397	0.0141074
732.475	0.0140549
732.553	0.0140311
732.631	0.0139282
732.709	0.0139864
732.788	0.0139750
732.866	0.0141559
732.944	0.0143050
733.022	0.0146223
733.100	0.0149064
733.178	0.0153190
733.256	0.0156963
733.334	0.0159644
733.413	0.0164635
733.491	0.0164431
733.569	0.0166793
733.647	0.0169199
733.725	0.0169872
733.803	0.0171358
733.881	0.0170800
733.959	0.0170889
734.038	0.0169825
734.116	0.0167821
734.194	0.0168413
734.272	0.0166959
734.350	0.0166195
734.428	0.0164857
734.506	0.0161596
734.584	0.0158758
734.663	0.0156647
734.741	0.0152471
734.819	0.0149307
734.897	0.0144904
734.975	0.0140025
735.053	0.0137790
735.131	0.0133460
735.209	0.0132703
735.288	0.0131928
735.366	0.0131068
735.444	0.0131129
735.522	0.0133947
735.600	0.0137788
735.678	0.0143146
735.756	0.0150185
735.834	0.0157109
735.913	0.0163333
735.991	0.0170085
736.069	0.0177661
736.147	0.0184377
736.225	0.0188772
736.303	0.0194836
736.381	0.0197568
736.459	0.0198300
736.538	0.0199939
736.616	0.0200664
736.694	0.0199916
736.772	0.0196406
736.850	0.0192335
736.928	0.0191294
737.006	0.0187203
737.084	0.0183257
737.163	0.0180952
737.241	0.0175739
737.319	0.0172614
737.397	0.0169650
737.475	0.0166211
737.553	0.0163520
737.631	0.0158304
737.709	0.0157539
737.788	0.0154715
737.866	0.0151808
737.944	0.0147157
738.022	0.0145457
738.100	0.0143024
738.178	0.0139935
738.256	0.0139400
738.334	0.0138089
738.413	0.0137677
738.491	0.0136668
738.569	0.0135466
738.647	0.0135081
738.725	0.0131712
738.803	0.0131239
738.881	0.0129251
738.959	0.0129417
739.038	0.0128541
739.116	0.0127286
739.194	0.0129237
739.272	0.0128409
739.350	0.0130029
739.428	0.0134348
739.506	0.0136641
739.584	0.0138644
739.663	0.0140071
739.741	0.0142427
739.819	0.0144817
739.897	0.0145428
739.975	0.0146304
740.053	0.0146439
740.131	0.0143620
740.209	0.0144070
740.288	0.0142559
740.366	0.0142278
740.444	0.0141055
740.522	0.0145148
740.600	0.0145569
740.678	0.0148521
740.756	0.0154919
740.834	0.0159292
740.913	0.0165930
740.991	0.0168668
741.069	0.0175738
741.147	0.0181017
741.225	0.0183980
741.303	0.0186157
741.381	0.0189103
741.459	0.0187659
741.538	0.0184325
741.616	0.0182245
741.694	0.0178911
741.772	0.0173775
741.850	0.0167840
741.928	0.0162579
742.006	0.0157743
742.084	0.0152316
742.163	0.0149007
742.241	0.0146129
742.319	0.0143491
742.397	0.0142598
742.475	0.0142067
742.553	0.0142338
742.631	0.0144461
742.709	0.0145044
742.788	0.0147269
742.866	0.0151172
742.944	0.0153070
743.022	0.0155950
743.100	0.0161039
743.178	0.0164499
743.256	0.0168563
743.334	0.0174424
743.413	0.0178729
743.491	0.0185056
743.569	0.0185405
743.647	0.0190555
743.725	0.0193751
743.803	0.0195211
743.881	0.0197562
743.959	0.0196340
744.038	0.0196830
744.116	0.0193532
744.194	0.0189213
744.272	0.0184084
744.350	0.0178072
744.428	0.0172045
744.506	0.0166283
744.584	0.0161234
744.663	0.0155534
744.741	0.0150741
744.819	0.0147372
744.897	0.0144498
744.975	0.0142533
745.053	0.0140596
745.131	0.0139133
745.209	0.0140804
745.288	0.0140027
745.366	0.0138363
745.444	0.0137689
745.522	0.0138803
745.600	0.0137659
745.678	0.0136934
745.756	0.0136595
745.834	0.0136592
745.913	0.0137182
745.991	0.0138777
746.069	0.0139497
746.147	0.0141386
746.225	0.0140575
746.303	0.0141604
746.381	0.0142577
746.459	0.0144769
746.538	0.0143980
746.616	0.0145459
746.694	0.0145335
746.772	0.0145872
746.850	0.0144168
746.928	0.0142700
747.006	0.0143111
747.084	0.0142841
747.163	0.0140282
747.241	0.0140477
747.319	0.0140284
747.397	0.0140495
747.475	0.0141400
747.553	0.0141149
747.631	0.0143757
747.709	0.0146935
747.788	0.0149035
747.866	0.0152781
747.944	0.0156308
748.022	0.0160622
748.100	0.0163406
748.178	0.0167068
748.256	0.0171843
748.334	0.0174290
748.413	0.0176769
748.491	0.0180144
748.569	0.0181721
748.647	0.0185537
748.725	0.0185467
748.803	0.0186494
748.881	0.0186103
748.959	0.0185608
749.038	0.0183588
749.116	0.0180801
749.194	0.0176433
749.272	0.0173365
749.350	0.0168989
749.428	0.0163512
749.506	0.0158283
749.584	0.0152631
749.663	0.0148735
749.741	0.0144125
749.819	0.0139575
749.897	0.0135078
749.975	0.0132145
750.053	0.0131426
750.131	0.0129821
750.209	0.0130257
750.288	0.0131890
750.366	0.0134421
750.444	0.0139905
750.522	0.0145153
750.600	0.0151749
750.678	0.0158298
750.756	0.0167696
750.834	0.0175970
750.913	0.0182358
750.991	0.0192369
751.069	0.0199096
751.147	0.0202331
751.225	0.0207541
751.303	0.0209341
751.381	0.0208237
751.459	0.0208568
751.538	0.0205037
751.616	0.0199426
751.694	0.0192164
751.772	0.0184901
751.850	0.0179308
751.928	0.0170253
752.006	0.0160145
752.084	0.0153880
752.163	0.0147175
752.241	0.0140878
752.319	0.0134902
752.397	0.0128971
752.475	0.0127245
752.553	0.0122358
752.631	0.0124426
752.709	0.0121980
752.788	0.0123506
752.866	0.0124982
752.944	0.0127546
753.022	0.0131094
753.100	0.0134418
753.178	0.0137569
753.256	0.0142862
753.334	0.0146564
753.413	0.0152027
753.491	0.0154019
753.569	0.0156847
753.647	0.0158262
753.725	0.0157521
753.803	0.0158512
753.881	0.0158162
753.959	0.0156349
754.038	0.0153407
754.116	0.0150054
754.194	0.0147712
754.272	0.0145163
754.350	0.0140115
754.428	0.0136907
754.506	0.0135816
754.584	0.0133096
754.663	0.0130958
754.741	0.0130568
754.819	0.0131833
754.897	0.0132732
754.975	0.0136362
755.053	0.0138557
755.131	0.0143962
755.209	0.0148779
755.288	0.0155572
755.366	0.0160154
755.444	0.0163924
755.522	0.0170363
755.600	0.0173881
755.678	0.0178084
755.756	0.0181287
755.834	0.0184998
755.913	0.0185976
755.991	0.0187639
756.069	0.0187516
756.147	0.0188073
756.225	0.0185349
756.303	0.0183704
756.381	0.0179958
756.459	0.0178619
756.538	0.0175887
756.616	0.0172488
756.694	0.0169714
756.772	0.0164890
756.850	0.0159197
756.928	0.0157059
757.006	0.0153257
757.084	0.0148627
757.163	0.0145765
757.241	0.0141131
757.319	0.0137691
757.397	0.0135800
757.475	0.0133735
757.553	0.0133246
757.631	0.0132305
757.709	0.0132607
757.788	0.0134462
757.866	0.0135368
757.944	0.0138737
758.022	0.0142714
758.100	0.0147714
758.178	0.0152350
758.256	0.0158948
758.334	0.0165673
758.413	0.0171199
758.491	0.0177064
758.569	0.0181563
758.647	0.0185736
758.725	0.0191874
758.803	0.0192942
758.881	0.0193981
758.959	0.0193932
759.038	0.0192138
759.116	0.0190960
759.194	0.0187999
759.272	0.0183347
759.350	0.0178551
759.428	0.0174741
759.506	0.0168662
759.584	0.0163344
759.663	0.0158632
759.741	0.0154227
759.819	0.0150307
759.897	0.0146977
759.975	0.0143983
760.053	0.0141821
760.131	0.0141094
760.209	0.0138507
760.288	0.0136997
760.366	0.0135255
760.444	0.0137895
760.522	0.0137440
760.600	0.0138084
760.678	0.0139771
760.756	0.0142121
760.834	0.0142275
760.913	0.0144319
760.991	0.0145906
761.069	0.0147041
761.147	0.0149260
761.225	0.0152331
761.303	0.0152146
761.381	0.0151645
761.459	0.0153549
761.538	0.0152531
761.616	0.0153927
761.694	0.0150967
761.772	0.0149014
761.850	0.0147150
761.928	0.0145896
762.006	0.0143932
762.084	0.0140049
762.163	0.0139649
762.241	0.0138423
762.319	0.0137579
762.397	0.0137218
762.475	0.0139330
762.553	0.0141296
762.631	0.0142743
762.709	0.0145164
762.788	0.0148507
762.866	0.0150397
762.944	0.0153966
763.022	0.0158937
763.100	0.0162671
763.178	0.0164369
763.256	0.0167948
763.334	0.0170686
763.413	0.0174183
763.491	0.0174387
763.569	0.0175291
763.647	0.0175670
763.725	0.0176646
763.803	0.0174632
763.881	0.0174827
763.959	0.0172597
764.038	0.0172329
764.116	0.0168827
764.194	0.0168115
764.272	0.0165908
764.350	0.0161485
764.428	0.0161639
764.506	0.0159399
764.584	0.0158093
764.663	0.0155806
764.741	0.0154556
764.819	0.0151163
764.897	0.0151861
764.975	0.0147653
765.053	0.0147294
765.131	0.0147984
765.209	0.0148683
765.288	0.0150304
765.366	0.0150653
765.444	0.0150282
765.522	0.0152267
765.600	0.0157697
765.678	0.0159734
765.756	0.0161291
765.834	0.0166368
765.913	0.0167837
765.991	0.0170747
766.069	0.0175185
766.147	0.0176537
766.225	0.0179261
766.303	0.0182429
766.381	0.0185139
766.459	0.0185666
766.538	0.0183441
766.616	0.0181375
766.694	0.0180663
766.772	0.0180384
766.850	0.0176219
766.928	0.0173260
767.006	0.0169924
767.084	0.0166479
767.163	0.0163023
767.241	0.0157830
767.319	0.0154714
767.397	0.0150182
767.475	0.0146895
767.553	0.0145026
767.631	0.0141548
767.709	0.0138276
767.788	0.0137726
767.866	0.0137714
767.944	0.0137550
768.022	0.0136225
768.100	0.0137975
768.178	0.0139766
768.256	0.0141456
768.334	0.0141779
768.413	0.0142896
768.491	0.0145728
768.569	0.0148137
768.647	0.0147910
768.725	0.0151032
768.803	0.0151798
768.881	0.0152615
768.959	0.0154594
769.038	0.0154714
769.116	0.0154581
769.194	0.0154844
769.272	0.0154057
769.350	0.0154692
769.428	0.0154345
769.506	0.0151506
769.584	0.0150648
769.663	0.0148295
769.741	0.0148762
769.819	0.0148153
769.897	0.0146609
769.975	0.0145957
770.053	0.0146691
770.131	0.0145837
770.209	0.0145388
770.288	0.0147013
770.366	0.0149212
770.444	0.0149849
770.522	0.0153285
770.600	0.0154119
770.678	0.0157429
770.756	0.0159155
770.834	0.0161909
770.913	0.0165302
770.991	0.0165754
771.069	0.0166943
771.147	0.0170316
771.225	0.0170152
771.303	0.0171316
771.381	0.0172526
771.459	0.0172556
771.538	0.0172150
771.616	0.0171610
771.694	0.0170033
771.772	0.0169385
771.850	0.0167397
771.928	0.0165477
772.006	0.0164438
772.084	0.0162309
772.163	0.0160381
772.241	0.0159270
772.319	0.0156185
772.397	0.0156390
772.475	0.0155124
772.553	0.0152906
772.631	0.0151316
772.709	0.0152080
772.788	0.0152837
772.866	0.0152085
772.944	0.0153158
773.022	0.0154147
773.100	0.0156333
773.178	0.0157127
773.256	0.0158547
773.334	0.0159171
773.413	0.0161462
773.491	0.0163023
773.569	0.0164683
773.647	0.0166728
773.725	0.0167202
773.803	0.0170511
773.881	0.0170921
773.959	0.0171523
774.038	0.0172418
774.116	0.0173251
774.194	0.0171966
774.272	0.0173650
774.350	0.0174597
774.428	0.0171975
774.506	0.0170500
774.584	0.0169054
774.663	0.0167315
774.741	0.0166572
774.819	0.0163416
774.897	0.0159407
774.975	0.0158865
775.053	0.0154996
775.131	0.0152158
775.209	0.0150608
775.288	0.0149503
775.366	0.0147458
775.444	0.0146145
775.522	0.0141862
775.600	0.0142944
775.678	0.0141865
775.756	0.0142427
775.834	0.0140797
775.913	0.0141945
775.991	0.0143279
776.069	0.0142733
776.147	0.0144221
776.225	0.0146546
776.303	0.0147060
776.381	0.0148856
776.459	0.0149240
776.538	0.0151534
776.616	0.0153032
776.694	0.0151979
776.772	0.0152204
776.850	0.0152708
776.928	0.0152168
777.006	0.0153432
777.084	0.0154338
777.163	0.0153037
777.241	0.0154119
777.319	0.0152262
777.397	0.0151991
777.475	0.0151035
777.553	0.0149500
777.631	0.0150274
777.709	0.0149400
777.788	0.0149045
777.866	0.0148598
777.944	0.0150005
778.022	0.0150056
778.100	0.0150925
778.178	0.0149085
778.256	0.0151906
778.334	0.0150105
778.413	0.0153153
778.491	0.0153725
778.569	0.0154299
778.647	0.0155663
778.725	0.0159362
778.803	0.0160918
778.881	0.0161801
778.959	0.0164796
779.038	0.0166087
779.116	0.0167402
779.194	0.0169801
779.272	0.0169836
779.350	0.0171851
779.428	0.0170984
779.506	0.0171038
779.584	0.0171328
779.663	0.0169997
779.741	0.0169439
779.819	0.0167897
779.897	0.0165844
779.975	0.0165219
780.053	0.0163071
780.131	0.0162539
780.209	0.0159313
780.288	0.0158862
780.366	0.0158072
780.444	0.0156410
780.522	0.0154687
780.600	0.0154010
780.678	0.0152967
780.756	0.0153403
780.834	0.0153842
780.913	0.0152248
780.991	0.0154004
781.069	0.0154850
781.147	0.0156783
781.225	0.0157701
781.303	0.0156715
781.381	0.0157692
781.459	0.0159475
781.538	0.0163069
781.616	0.0163530
781.694	0.0164719
781.772	0.0164576
781.850	0.0165604
781.928	0.0165579
782.006	0.0167952
782.084	0.0167130
782.163	0.0168217
782.241	0.0166275
782.319	0.0165873
782.397	0.0166245
782.475	0.0163651
782.553	0.0163599
782.631	0.0161229
782.709	0.0160731
782.788	0.0160004
782.866	0.0157404
782.944	0.0157339
783.022	0.0156479
783.100	0.0155254
783.178	0.0152768
783.256	0.0151358
783.334	0.0150645
783.413	0.0149342
783.491	0.0148991
783.569	0.0148009
783.647	0.0145928
783.725	0.0144711
783.803	0.0145007
783.881	0.0145352
783.959	0.0142576
784.038	0.0141816
784.116	0.0142957
784.194	0.0144473
784.272	0.0144083
784.350	0.0144254
784.428	0.0146945
784.506	0.0148254
784.584	0.0148715
784.663	0.0150437
784.741	0.0150932
784.819	0.0151781
784.897	0.0153200
784.975	0.0155228
785.053	0.0154417
785.131	0.0155246
785.209	0.0154584
785.288	0.0154163
785.366	0.0154697
785.444	0.0154603
785.522	0.0155921
785.600	0.0154465
785.678	0.0155614
785.756	0.0155290
785.834	0.0154235
785.913	0.0154548
785.991	0.0154458
786.069	0.0155212
786.147	0.0156981
786.225	0.0159243
786.303	0.0157739
786.381	0.0161073
786.459	0.0161753
786.538	0.0162978
786.616	0.0161881
786.694	0.0162115
786.772	0.0162997
786.850	0.0162640
786.928	0.0162728
787.006	0.0163264
787.084	0.0163217
787.163	0.0162032
787.241	0.0162612
787.319	0.0162101
787.397	0.0160710
787.475	0.0159679
787.553	0.0159837
787.631	0.0159830
787.709	0.0160472
787.788	0.0159388
787.866	0.0158387
787.944	0.0158265
788.022	0.0158573
788.100	0.0157780
788.178	0.0157607
788.256	0.0157872
788.334	0.0158297
788.413	0.0159055
788.491	0.0157756
788.569	0.0157802
788.647	0.0156216
788.725	0.0156042
788.803	0.0156818
788.881	0.0155502
788.959	0.0155336
789.038	0.0155772
789.116	0.0155656
789.194	0.0155704
789.272	0.0155260
789.350	0.0153808
789.428	0.0155100
789.506	0.0156471
789.584	0.0156593
789.663	0.0157889
789.741	0.0158614
789.819	0.0159345
789.897	0.0158421
789.975	0.0160766
790.053	0.0161132
790.131	0.0163416
790.209	0.0162311
790.288	0.0163635
790.366	0.0162567
790.444	0.0161607
790.522	0.0162976
790.600	0.0162337
790.678	0.0162242
790.756	0.0159245
790.834	0.0158974
790.913	0.0159933
790.991	0.0158577
791.069	0.0156402
791.147	0.0155615
791.225	0.0154180
791.303	0.0152712
791.381	0.0152208
791.459	0.0150102
791.538	0.0150583
791.616	0.0149810
791.694	0.0147990
791.772	0.0148198
791.850	0.0147253
791.928	0.0145467
792.006	0.0147144
792.084	0.0145673
792.163	0.0146140
792.241	0.0146730
792.319	0.0149164
792.397	0.0149922
792.475	0.0148843
792.553	0.0150504
792.631	0.0153076
792.709	0.0152496
792.788	0.0154180
792.866	0.0154178
792.944	0.0156419
793.022	0.0156295
793.100	0.0156078
793.178	0.0156470
793.256	0.0157587
793.334	0.0157674
793.413	0.0157107
793.491	0.0156474
793.569	0.0158085
793.647	0.0157478
793.725	0.0157825
793.803	0.0157743
793.881	0.0158536
793.959	0.0159128
794.038	0.0157820
794.116	0.0158624
794.194	0.0160079
794.272	0.0159337
794.350	0.0158578
794.428	0.0160168
794.506	0.0159707
794.584	0.0160439
794.663	0.0160272
794.741	0.0161805
794.819	0.0162689
794.897	0.0161506
794.975	0.0162024
795.053	0.0163712
795.131	0.0165439
795.209	0.0163959
795.288	0.0164146
795.366	0.0163392
795.444	0.0165109
795.522	0.0163931
795.600	0.0162917
795.678	0.0161856
795.756	0.0161634
795.834	0.0159399
795.913	0.0158351
795.991	0.0157758
796.069	0.0158028
796.147	0.0156498
796.225	0.0156526
796.303	0.0155934
796.381	0.0156357
796.459	0.0156093
796.538	0.0155508
796.616	0.0156414
796.694	0.0155898
796.772	0.0156666
796.850	0.0157040
796.928	0.0154542
797.006	0.0156578
797.084	0.0155601
797.163	0.0155085
797.241	0.0156027
797.319	0.0156424
797.397	0.0156617
797.475	0.0158014
797.553	0.0156413
797.631	0.0157384
797.709	0.0158354
797.788	0.0158095
797.866	0.0161176
797.944	0.0161436
798.022	0.0161426
798.100	0.0160941
798.178	0.0160692
798.256	0.0162914
798.334	0.0163401
798.413	0.0162121
798.491	0.0159721
798.569	0.0159424
798.647	0.0160640
798.725	0.0159261
798.803	0.0158326
798.881	0.0158050
798.959	0.0156815
799.038	0.0154490
799.116	0.0154473
799.194	0.0154895
799.272	0.0152627
799.350	0.0152560
799.428	0.0151779
799.506	0.0150480
799.584	0.0150776
799.663	0.0149026
799.741	0.0150761
799.819	0.0148157
799.897	0.0150047
799.975	0.0148309
800.053	0.0147701
800.131	0.0150597
800.209	0.0150584
800.288	0.0151914
800.366	0.0152040
800.444	0.0153709
800.522	0.0154639
800.600	0.0156052
800.678	0.0156850
800.756	0.0157935
800.834	0.0159151
800.913	0.0158522
800.991	0.0157381
801.069	0.0159361
801.147	0.0159094
801.225	0.0158727
801.303	0.0158125
801.381	0.0158057
801.459	0.0156672
801.538	0.0156216
801.616	0.0156388
801.694	0.0156738
801.772	0.0157790
801.850	0.0157161
801.928	0.0156232
802.006	0.0156773
802.084	0.0156817
802.163	0.0157848
802.241	0.0156490
802.319	0.0157985
802.397	0.0157902
802.475	0.0158751
802.553	0.0158345
802.631	0.0159302
802.709	0.0160758
802.788	0.0159965
802.866	0.0160477
802.944	0.0160532
803.022	0.0160763
803.100	0.0161388
803.178	0.0161145
803.256	0.0159988
803.334	0.0160770
803.413	0.0160046
803.491	0.0159492
803.569	0.0160371
803.647	0.0158832
803.725	0.0158714
803.803	0.0160375
803.881	0.0158185
803.959	0.0157141
804.038	0.0157114
804.116	0.0156332
804.194	0.0154796
804.272	0.0154559
804.350	0.0153430
804.428	0.0152094
804.506	0.0152610
804.584	0.0152203
804.663	0.0151288
804.741	0.0152543
804.819	0.0151267
804.897	0.0151362
804.975	0.0151485
805.053	0.0151584
805.131	0.0153293
805.209	0.0152058
805.288	0.0152998
805.366	0.0155656
805.444	0.0155171
805.522	0.0156595
805.600	0.0157858
805.678	0.0158080
805.756	0.0160033
805.834	0.0162405
805.913	0.0162366
805.991	0.0162861
806.069	0.0164447
806.147	0.0164676
806.225	0.0164931
806.303	0.0166770
806.381	0.0165809
806.459	0.0165569
806.538	0.0167728
806.616	0.0163663
806.694	0.0164563
806.772	0.0165398
806.850	0.0164693
806.928	0.0163351
807.006	0.0161389
807.084	0.0160942
807.163	0.0159962
807.241	0.0157845
807.319	0.0155047
807.397	0.0155165
807.475	0.0155476
807.553	0.0155626
807.631	0.0153967
807.709	0.0153069
807.788	0.0151913
807.866	0.0151651
807.944	0.0152191
808.022	0.0151945
808.100	0.0151945
808.178	0.0151679
808.256	0.0151746
808.334	0.0153295
808.413	0.0152541
808.491	0.0153203
808.569	0.0151116
808.647	0.0152100
808.725	0.0153104
808.803	0.0151097
808.881	0.0150729
808.959	0.0149922
809.038	0.0149925
809.116	0.0149386
809.194	0.0148596
809.272	0.0148592
809.350	0.0147491
809.428	0.0146983
809.506	0.0148425
809.584	0.0148796
809.663	0.0147250
809.741	0.0147524
809.819	0.0147887
809.897	0.0149891
809.975	0.0149818
810.053	0.0151067
810.131	0.0151338
810.209	0.0153442
810.288	0.0153985
810.366	0.0154617
810.444	0.0156982
810.522	0.0159234
810.600	0.0160725
810.678	0.0161803
810.756	0.0162476
810.834	0.0163102
810.913	0.0166225
810.991	0.0164861
811.069	0.0164619
811.147	0.0167323
811.225	0.0168325
811.303	0.0167742
811.381	0.0168353
811.459	0.0169145
811.538	0.0167753
811.616	0.0167657
811.694	0.0166649
811.772	0.0165868
811.850	0.0167333
811.928	0.0166506
812.006	0.0164228
812.084	0.0164783
812.163	0.0163194
812.241	0.0161989
812.319	0.0161642
812.397	0.0160634
812.475	0.0159814
812.553	0.0160536
812.631	0.0160387
812.709	0.0158598
812.788	0.0158016
812.866	0.0157398
812.944	0.0156996
813.022	0.0154695
813.100	0.0152390
813.178	0.0154392
813.256	0.0153265
813.334	0.0153468
813.413	0.0151983
813.491	0.0151555
813.569	0.0152467
813.647	0.0150818
813.725	0.0152627
813.803	0.0152871
813.881	0.0152888
813.959	0.0150943
814.038	0.0152843
814.116	0.0153761
814.194	0.0153986
814.272	0.0155779
814.350	0.0155508
814.428	0.0154031
814.506	0.0154700
814.584	0.0154141
814.663	0.0157290
814.741	0.0156258
814.819	0.0156696
814.897	0.0156960
814.975	0.0157321
815.053	0.0157845
815.131	0.0157175
815.209	0.0156813
815.288	0.0158710
815.366	0.0157125
815.444	0.0158002
815.522	0.0156741
815.600	0.0156612
815.678	0.0156150
815.756	0.0156128
815.834	0.0155473
815.913	0.0155368
815.991	0.0155518
816.069	0.0155339
816.147	0.0155359
816.225	0.0154816
816.303	0.0154641
816.381	0.0154269
816.459	0.0154758
816.538	0.0154216
816.616	0.0155589
816.694	0.0155634
816.772	0.0155736
816.850	0.0155542
816.928	0.0157465
817.006	0.0157895
817.084	0.0156922
817.163	0.0158060
817.241	0.0158458
817.319	0.0159084
817.397	0.0158229
817.475	0.0158066
817.553	0.0157705
817.631	0.0158962
817.709	0.0156844
817.788	0.0157070
817.866	0.0156758
817.944	0.0156359
818.022	0.0156824
818.100	0.0155693
818.178	0.0157710
818.256	0.0155481
818.334	0.0156866
818.413	0.0156632
818.491	0.0155865
818.569	0.0158022
818.647	0.0157516
818.725	0.0158362
818.803	0.0158595
818.881	0.0159615
818.959	0.0159320
819.038	0.0159138
819.116	0.0161601
819.194	0.0160904
819.272	0.0161639
819.350	0.0161198
819.428	0.0162533
819.506	0.0161873
819.584	0.0162765
819.663	0.0162221
819.741	0.0161791
819.819	0.0161514
819.897	0.0161703
819.975	0.0161232
820.053	0.0159543
820.131	0.0162297
820.209	0.0159385
820.288	0.0158939
820.366	0.0158469
820.444	0.0157392
820.522	0.0155595
820.600	0.0154253
820.678	0.0155342
820.756	0.0156015
820.834	0.0155160
820.913	0.0155852
820.991	0.0155244
821.069	0.0155056
821.147	0.0155959
821.225	0.0154553
821.303	0.0153812
821.381	0.0154999
821.459	0.0155625
821.538	0.0154558
821.616	0.0156306
821.694	0.0157162
821.772	0.0156104
821.850	0.0155216
821.928	0.0155563
822.006	0.0156690
822.084	0.0156246
822.163	0.0155267
822.241	0.0156449
822.319	0.0155855
822.397	0.0156522
822.475	0.0157331
822.553	0.0156823
822.631	0.0157651
822.709	0.0155405
822.788	0.0154872
822.866	0.0155663
822.944	0.0155596
823.022	0.0155491
823.100	0.0156573
823.178	0.0157001
823.256	0.0154956
823.334	0.0154668
823.413	0.0156734
823.491	0.0155416
823.569	0.0154811
823.647	0.0155299
823.725	0.0156165
823.803	0.0154939
823.881	0.0154698
823.959	0.0155861
824.038	0.0156499
824.116	0.0155447
824.194	0.0157004
824.272	0.0157146
824.350	0.0157481
824.428	0.0157024
824.506	0.0156244
824.584	0.0156760
824.663	0.0157500
824.741	0.0157766
824.819	0.0159904
824.897	0.0159253
824.975	0.0159258
825.053	0.0160823
825.131	0.0160175
825.209	0.0158905
825.288	0.0159239
825.366	0.0159380
825.444	0.0160559
825.522	0.0160914
825.600	0.0159357
825.678	0.0160255
825.756	0.0160133
825.834	0.0160092
825.913	0.0159843
825.991	0.0160046
826.069	0.0159451
826.147	0.0160397
826.225	0.0160155
826.303	0.0157963
826.381	0.0158166
826.459	0.0155629
826.538	0.0157358
826.616	0.0157783
826.694	0.0156026
826.772	0.0156059
826.850	0.0156416
826.928	0.0155494
827.006	0.0156372
827.084	0.0155467
827.163	0.0154830
827.241	0.0156933
827.319	0.0157897
827.397	0.0156638
827.475	0.0155956
827.553	0.0157181
827.631	0.0157327
827.709	0.0156627
827.788	0.0157475
827.866	0.0156377
827.944	0.0157498
828.022	0.0155985
828.100	0.0157984
828.178	0.0156569
828.256	0.0156423
828.334	0.0156725
828.413	0.0155298
828.491	0.0154692
828.569	0.0153875
828.647	0.0154478
828.725	0.0153976
828.803	0.0153829
828.881	0.0155553
828.959	0.0154237
829.038	0.0153062
829.116	0.0152691
829.194	0.0153618
829.272	0.0152065
829.350	0.0152469
829.428	0.0153613
829.506	0.0152502
829.584	0.0155813
829.663	0.0154925
829.741	0.0155746
829.819	0.0158250
829.897	0.0158229
829.975	0.0159279
830.053	0.0160996
830.131	0.0161873
830.209	0.0162057
830.288	0.0162073
830.366	0.0162122
830.444	0.0163085
830.522	0.0163271
830.600	0.0162024
830.678	0.0161631
830.756	0.0161183
830.834	0.0160812
830.913	0.0159185
830.991	0.0159412
831.069	0.0156689
831.147	0.0156257
831.225	0.0155223
831.303	0.0154183
831.381	0.0153656
831.459	0.0153889
831.538	0.0153986
831.616	0.0152652
831.694	0.0152802
831.772	0.0153023
831.850	0.0152232
831.928	0.0152180
832.006	0.0152830
832.084	0.0153590
832.163	0.0151891
832.241	0.0153696
832.319	0.0153900
832.397	0.0154736
832.475	0.0156647
832.553	0.0158149
832.631	0.0158952
832.709	0.0159539
832.788	0.0159798
832.866	0.0160854
832.944	0.0161571
833.022	0.0163283
833.100	0.0163909
833.178	0.0163024
833.256	0.0164323
833.334	0.0164629
833.413	0.0163291
833.491	0.0163416
833.569	0.0163147
833.647	0.0162543
833.725	0.0161114
833.803	0.0159662
833.881	0.0159287
833.959	0.0156747
834.038	0.0157915
834.116	0.0156829
834.194	0.0155695
834.272	0.0154946
834.350	0.0155257
834.428	0.0155172
834.506	0.0153711
834.584	0.0153403
834.663	0.0154940
834.741	0.0155145
834.819	0.0153454
834.897	0.0154008
834.975	0.0155170
835.053	0.0155942
835.131	0.0155534
835.209	0.0154480
835.288	0.0154829
835.366	0.0156078
835.444	0.0155243
835.522	0.0156624
835.600	0.0156226
835.678	0.0155288
835.756	0.0155160
835.834	0.0156800
835.913	0.0157945
835.991	0.0156620
836.069	0.0156416
836.147	0.0156096
836.225	0.0155643
836.303	0.0156918
836.381	0.0155562
836.459	0.0156212
836.538	0.0155922
836.616	0.0155377
836.694	0.0156586
836.772	0.0156110
836.850	0.0157539
836.928	0.0157605
837.006	0.0157389
837.084	0.0155788
837.163	0.0156354
837.241	0.0158246
837.319	0.0157481
837.397	0.0158344
837.475	0.0157926
837.553	0.0159199
837.631	0.0160554
837.709	0.0160464
837.788	0.0160691
837.866	0.0160423
837.944	0.0157606
838.022	0.0158760
838.100	0.0160525
838.178	0.0159975
838.256	0.0156104
838.334	0.0156666
838.413	0.0157850
838.491	0.0158173
838.569	0.0156674
838.647	0.0157062
838.725	0.0156837
838.803	0.0156968
838.881	0.0156903
838.959	0.0156546
839.038	0.0157209
839.116	0.0157100
839.194	0.0157480
839.272	0.0157193
839.350	0.0158594
839.428	0.0158884
839.506	0.0157464
839.584	0.0156640
839.663	0.0157768
839.741	0.0158780
839.819	0.0157854
839.897	0.0159244
839.975	0.0160342
840.053	0.0160654
840.131	0.0159321
840.209	0.0159622
840.288	0.0160438
840.366	0.0159795
840.444	0.0158724
840.522	0.0159708
840.600	0.0160356
840.678	0.0158472
840.756	0.0158527
840.834	0.0158109
840.913	0.0158521
840.991	0.0158724
841.069	0.0156753
841.147	0.0157054
841.225	0.0157407
841.303	0.0156602
841.381	0.0156541
841.459	0.0157952
841.538	0.0156761
841.616	0.0156310
841.694	0.0155148
841.772	0.0155592
841.850	0.0155803
841.928	0.0155913
842.006	0.0155050
842.084	0.0154583
842.163	0.0154832
842.241	0.0155132
842.319	0.0156057
842.397	0.0154601
842.475	0.0154920
842.553	0.0155045
842.631	0.0154353
842.709	0.0154640
842.788	0.0155005
842.866	0.0153414
842.944	0.0154511
843.022	0.0155659
843.100	0.0153977
843.178	0.0155357
843.256	0.0154584
843.334	0.0154298
843.413	0.0155131
843.491	0.0154297
843.569	0.0155340
843.647	0.0156731
843.725	0.0155678
843.803	0.0155444
843.881	0.0156102
843.959	0.0154559
844.038	0.0156759
844.116	0.0157787
844.194	0.0158211
844.272	0.0157359
844.350	0.0158964
844.428	0.0158373
844.506	0.0157725
844.584	0.0158045
844.663	0.0157441
844.741	0.0158852
844.819	0.0158774
844.897	0.0158093
844.975	0.0157906
845.053	0.0158404
845.131	0.0160161
845.209	0.0157747
845.288	0.0157145
845.366	0.0157657
845.444	0.0157440
845.522	0.0157591
845.600	0.0156908
845.678	0.0155891
845.756	0.0155021
845.834	0.0154749
845.913	0.0155898
845.991	0.0156006
846.069	0.0154018
846.147	0.0156268
846.225	0.0154733
846.303	0.0156140
846.381	0.0157198
846.459	0.0156199
846.538	0.0157172
846.616	0.0157745
846.694	0.0156770
846.772	0.0157832
846.850	0.0158643
846.928	0.0157865
847.006	0.0158049
847.084	0.0160427
847.163	0.0159481
847.241	0.0160958
847.319	0.0160246
847.397	0.0159539
847.475	0.0162174
847.553	0.0161709
847.631	0.0160228
847.709	0.0161099
847.788	0.0161812
847.866	0.0161298
847.944	0.0160192
848.022	0.0160674
848.100	0.0159866
848.178	0.0160823
848.256	0.0160768
848.334	0.0159873
848.413	0.0160672
848.491	0.0159478
848.569	0.0158796
848.647	0.0158386
848.725	0.0158820
848.803	0.0156467
848.881	0.0158002
848.959	0.0156454
849.038	0.0156360
849.116	0.0155736
849.194	0.0156880
849.272	0.0156950
849.350	0.0153683
849.428	0.0153513
849.506	0.0153811
849.584	0.0154639
849.663	0.0151996
849.741	0.0151640
849.819	0.0153825
849.897	0.0152650
849.975	0.0153130
850.053	0.0152731
850.131	0.0152280
850.209	0.0151753
850.288	0.0152219
850.366	0.0152795
850.444	0.0151836
850.522	0.0151823
850.600	0.0152579
850.678	0.0153264
850.756	0.0153208
850.834	0.0153358
850.913	0.0153966
850.991	0.0152062
851.069	0.0153748
851.147	0.0153767
851.225	0.0154749
851.303	0.0154185
851.381	0.0153412
851.459	0.0155665
851.538	0.0154855
851.616	0.0154406
851.694	0.0156377
851.772	0.0158465
851.850	0.0158693
851.928	0.0158921
852.006	0.0159859
852.084	0.0159480
852.163	0.0161515
852.241	0.0160615
852.319	0.0160941
852.397	0.0160886
852.475	0.0160904
852.553	0.0162196
852.631	0.0161057
852.709	0.0162366
852.788	0.0161090
852.866	0.0160882
852.944	0.0161109
853.022	0.0161040
853.100	0.0159951
853.178	0.0159999
853.256	0.0158739
853.334	0.0160162
853.413	0.0158262
853.491	0.0157059
853.569	0.0156783
853.647	0.0158308
853.725	0.0157868
853.803	0.0156303
853.881	0.0156030
853.959	0.0157974
854.038	0.0155991
854.116	0.0156310
854.194	0.0156152
854.272	0.0156791
854.350	0.0155942
854.428	0.0156263
854.506	0.0157262
854.584	0.0156871
854.663	0.0157856
854.741	0.0157184
854.819	0.0156715
854.897	0.0158521
854.975	0.0159063
855.053	0.0157223
855.131	0.0159084
855.209	0.0159586
855.288	0.0159555
855.366	0.0158279
855.444	0.0158718
855.522	0.0159081
855.600	0.0160372
855.678	0.0158383
855.756	0.0158466
855.834	0.0158923
855.913	0.0157633
855.991	0.0157036
856.069	0.0157571
856.147	0.0157877
856.225	0.0157425
856.303	0.0157137
856.381	0.0155456
856.459	0.0156940
856.538	0.0157732
856.616	0.0157551
856.694	0.0156408
856.772	0.0155423
856.850	0.0156741
856.928	0.0158367
857.006	0.0156191
857.084	0.0156885
857.163	0.0157330
857.241	0.0154280
857.319	0.0156020
857.397	0.0156691
857.475	0.0155593
857.553	0.0155858
857.631	0.0155335
857.709	0.0155497
857.788	0.0155920
857.866	0.0155558
857.944	0.0155372
858.022	0.0155638
858.100	0.0154392
858.178	0.0154303
858.256	0.0153925
858.334	0.0154055
858.413	0.0155074
858.491	0.0153863
858.569	0.0154368
858.647	0.0154498
858.725	0.0153646
858.803	0.0154842
858.881	0.0154748
858.959	0.0154272
859.038	0.0155201
859.116	0.0154002
859.194	0.0154136
859.272	0.0155618
859.350	0.0156564
859.428	0.0156832
859.506	0.0155967
859.584	0.0155552
859.663	0.0156132
859.741	0.0158756
859.819	0.0157329
859.897	0.0158436
859.975	0.0158416
860.053	0.0159554
860.131	0.0158659
860.209	0.0159666
860.288	0.0160902
860.366	0.0161144
860.444	0.0160049
860.522	0.0160233
860.600	0.0159982
860.678	0.0160418
860.756	0.0161052
860.834	0.0160149
860.913	0.0160228
860.991	0.0159279
861.069	0.0158982
861.147	0.0159947
861.225	0.0158427
861.303	0.0157619
861.381	0.0157591
861.459	0.0158159
861.538	0.0158508
861.616	0.0158486
861.694	0.0158211
861.772	0.0157271
861.850	0.0158938
861.928	0.0158801
862.006	0.0158224
862.084	0.0158932
862.163	0.0158083
862.241	0.0158469
862.319	0.0159343
862.397	0.0158873
862.475	0.0158418
862.553	0.0158378
862.631	0.0159040
862.709	0.0159937
862.788	0.0159155
862.866	0.0160777
862.944	0.0159849
863.022	0.0158020
863.100	0.0157079
863.178	0.0157332
863.256	0.0157730
863.334	0.0156007
863.413	0.0157516
863.491	0.0156004
863.569	0.0155927
863.647	0.0155517
863.725	0.0154171
863.803	0.0154695
863.881	0.0155206
863.959	0.0155740
864.038	0.0154261
864.116	0.0154039
864.194	0.0154166
864.272	0.0154173
864.350	0.0155588
864.428	0.0155827
864.506	0.0155075
864.584	0.0153951
864.663	0.0155363
864.741	0.0155161
864.819	0.0154799
864.897	0.0154335
864.975	0.0155537
865.053	0.0154636
865.131	0.0155656
865.209	0.0155340
865.288	0.0156934
865.366	0.0156307
865.444	0.0156881
865.522	0.0157677
865.600	0.0158185
865.678	0.0157162
865.756	0.0158191
865.834	0.0157413
865.913	0.0158251
865.991	0.0159966
866.069	0.0159089
866.147	0.0158063
866.225	0.0158619
866.303	0.0157307
866.381	0.0158247
866.459	0.0157613
866.538	0.0156880
866.616	0.0155926
866.694	0.0156594
866.772	0.0156517
866.850	0.0158208
866.928	0.0155949
867.006	0.0157001
867.084	0.0157526
867.163	0.0155237
867.241	0.0154646
867.319	0.0156734
867.397	0.0155711
867.475	0.0156452
867.553	0.0156474
867.631	0.0155803
867.709	0.0158053
867.788	0.0156683
867.866	0.0156741
867.944	0.0157523
868.022	0.0158022
868.100	0.0157413
868.178	0.0156451
868.256	0.0159779
868.334	0.0159279
868.413	0.0157487
868.491	0.0157209
868.569	0.0157778
868.647	0.0157280
868.725	0.0158609
868.803	0.0157100
868.881	0.0157404
868.959	0.0156224
869.038	0.0157389
869.116	0.0156694
869.194	0.0157590
869.272	0.0156408
869.350	0.0155522
869.428	0.0157698
869.506	0.0155962
869.584	0.0157154
869.663	0.0155927
869.741	0.0156913
869.819	0.0156346
869.897	0.0155484
869.975	0.0156465
870.053	0.0156110
870.131	0.0157926
870.209	0.0158675
870.288	0.0156179
870.366	0.0157267
870.444	0.0156509
870.522	0.0157169
870.600	0.0156679
870.678	0.0156950
870.756	0.0156739
870.834	0.0157151
870.913	0.0157702
870.991	0.0156938
871.069	0.0156605
871.147	0.0158905
871.225	0.0156258
871.303	0.0155447
871.381	0.0155938
871.459	0.0156530
871.538	0.0156711
871.616	0.0155385
871.694	0.0155456
871.772	0.0157650
871.850	0.0155724
871.928	0.0156107
872.006	0.0155487
872.084	0.0155074
872.163	0.0155464
872.241	0.0156084
872.319	0.0157048
872.397	0.0155953
872.475	0.0155550
872.553	0.0155379
872.631	0.0157134
872.709	0.0156638
872.788	0.0155080
872.866	0.0156307
872.944	0.0155202
873.022	0.0154865
873.100	0.0155524
873.178	0.0156516
873.256	0.0156781
873.334	0.0155789
873.413	0.0156937
873.491	0.0156935
873.569	0.0154631
873.647	0.0156223
873.725	0.0156301
873.803	0.0157861
873.881	0.0156608
873.959	0.0156675
874.038	0.0157118
874.116	0.0157507
874.194	0.0156210
874.272	0.0156501
874.350	0.0156327
874.428	0.0154778
874.506	0.0155266
874.584	0.0154704
874.663	0.0153690
874.741	0.0154146
874.819	0.0155333
874.897	0.0154935
874.975	0.0154644
875.053	0.0154622
875.131	0.0155981
875.209	0.0155224
875.288	0.0155615
875.366	0.0156606
875.444	0.0156053
875.522	0.0156664
875.600	0.0156010
875.678	0.0157903
875.756	0.0157294
875.834	0.0158569
875.913	0.0157810
875.991	0.0159103
876.069	0.0159686
876.147	0.0158833
876.225	0.0161240
876.303	0.0160844
876.381	0.0160442
876.459	0.0162418
876.538	0.0161590
876.616	0.0162113
876.694	0.0160896
876.772	0.0159164
876.850	0.0159722
876.928	0.0159399
877.006	0.0158962
877.084	0.0158254
877.163	0.0159225
877.241	0.0159836
877.319	0.0156506
877.397	0.0157098
877.475	0.0156564
877.553	0.0156483
877.631	0.0155531
877.709	0.0154804
877.788	0.0155503
877.866	0.0154309
877.944	0.0155850
878.022	0.0155437
878.100	0.0155128
878.178	0.0155528
878.256	0.0154664
878.334	0.0156982
878.413	0.0157604
878.491	0.0157023
878.569	0.0157796
878.647	0.0157961
878.725	0.0158657
878.803	0.0158379
878.881	0.0158294
878.959	0.0159441
879.038	0.0159173
879.116	0.0158420
879.194	0.0159515
879.272	0.0158723
879.350	0.0159253
879.428	0.0159580
879.506	0.0158268
879.584	0.0158028
879.663	0.0158778
879.741	0.0157401
879.819	0.0156214
879.897	0.0156469
879.975	0.0156024
880.053	0.0154905
880.131	0.0154398
880.209	0.0154661
880.288	0.0154838
880.366	0.0156771
880.444	0.0155172
880.522	0.0154697
880.600	0.0155578
880.678	0.0154694
880.756	0.0156454
880.834	0.0154995
880.913	0.0155495
880.991	0.0154785
881.069	0.0156532
881.147	0.0156235
881.225	0.0156900
881.303	0.0156208
881.381	0.0155074
881.459	0.0155505
881.538	0.0156752
881.616	0.0156708
881.694	0.0156048
881.772	0.0153931
881.850	0.0155320
881.928	0.0155148
882.006	0.0154494
882.084	0.0155097
882.163	0.0155218
882.241	0.0154213
882.319	0.0155566
882.397	0.0154702
882.475	0.0155264
882.553	0.0153056
882.631	0.0155168
882.709	0.0154275
882.788	0.0154550
882.866	0.0155032
882.944	0.0155876
883.022	0.0155344
883.100	0.0156305
883.178	0.0155765
883.256	0.0155394
883.334	0.0156133
883.413	0.0156544
883.491	0.0158150
883.569	0.0158988
883.647	0.0160188
883.725	0.0158234
883.803	0.0158735
883.881	0.0157509
883.959	0.0159190
884.038	0.0159689
884.116	0.0160506
884.194	0.0161555
884.272	0.0158591
884.350	0.0159976
884.428	0.0159034
884.506	0.0157339
884.584	0.0158183
884.663	0.0157788
884.741	0.0158089
884.819	0.0155599
884.897	0.0154903
884.975	0.0155688
885.053	0.0154259
885.131	0.0155462
885.209	0.0155061
885.288	0.0156405
885.366	0.0155420
885.444	0.0155487
885.522	0.0157601
885.600	0.0156160
885.678	0.0157885
885.756	0.0158242
885.834	0.0158271
885.913	0.0158204
885.991	0.0158639
886.069	0.0157748
886.147	0.0157661
886.225	0.0157409
886.303	0.0159462
886.381	0.0158488
886.459	0.0156983
886.538	0.0157733
886.616	0.0157239
886.694	0.0156760
886.772	0.0156634
886.850	0.0157916
886.928	0.0157841
887.006	0.0156989
887.084	0.0157609
887.163	0.0157323
887.241	0.0156078
887.319	0.0154726
887.397	0.0155338
887.475	0.0155707
887.553	0.0154565
887.631	0.0153732
887.709	0.0153747
887.788	0.0152652
887.866	0.0155239
887.944	0.0154072
888.022	0.0153913
888.100	0.0154604
888.178	0.0155846
888.256	0.0157008
888.334	0.0156023
888.413	0.0154875
888.491	0.0156979
888.569	0.0156658
888.647	0.0156601
888.725	0.0157438
888.803	0.0156950
888.881	0.0158035
888.959	0.0157013
889.038	0.0157328
889.116	0.0157760
889.194	0.0158921
889.272	0.0157995
889.350	0.0157585
889.428	0.0158043
889.506	0.0157784
889.584	0.0159395
889.663	0.0157645
889.741	0.0157056
889.819	0.0158056
889.897	0.0157497
889.975	0.0155618
890.053	0.0155914
890.131	0.0155289
890.209	0.0154290
890.288	0.0154674
890.366	0.0154360
890.444	0.0155920
890.522	0.0154473
890.600	0.0154713
890.678	0.0154330
890.756	0.0155275
890.834	0.0156353
890.913	0.0156583
890.991	0.0157255
891.069	0.0155962
891.147	0.0156155
891.225	0.0155968
891.303	0.0155533
891.381	0.0155722
891.459	0.0156222
891.538	0.0156115
891.616	0.0156181
891.694	0.0157090
891.772	0.0156816
891.850	0.0157288
891.928	0.0157968
892.006	0.0157229
892.084	0.0158638
892.163	0.0158797
892.241	0.0159420
892.319	0.0160494
892.397	0.0160679
892.475	0.0160135
892.553	0.0159830
892.631	0.0160742
892.709	0.0158716
892.788	0.0159683
892.866	0.0160533
892.944	0.0158086
893.022	0.0158442
893.100	0.0158568
893.178	0.0158447
893.256	0.0157335
893.334	0.0156954
893.413	0.0157654
893.491	0.0157290
893.569	0.0155865
893.647	0.0156517
893.725	0.0155533
893.803	0.0155389
893.881	0.0156591
893.959	0.0155743
894.038	0.0154926
894.116	0.0154765
894.194	0.0154341
894.272	0.0153133
894.350	0.0154092
894.428	0.0153344
894.506	0.0154025
894.584	0.0155174
894.663	0.0154391
894.741	0.0155030
894.819	0.0155134
894.897	0.0155680
894.975	0.0156293
895.053	0.0156847
895.131	0.0156389
895.209	0.0156831
895.288	0.0156554
895.366	0.0156713
895.444	0.0156920
895.522	0.0156805
895.600	0.0157562
895.678	0.0157926
895.756	0.0158020
895.834	0.0157370
895.913	0.0157559
895.991	0.0158411
896.069	0.0157105
896.147	0.0157952
896.225	0.0157516
896.303	0.0158196
896.381	0.0158212
896.459	0.0157829
896.538	0.0157668
896.616	0.0158126
896.694	0.0157430
896.772	0.0156638
896.850	0.0157260
896.928	0.0158491
897.006	0.0156202
897.084	0.0157240
897.163	0.0156663
897.241	0.0156899
897.319	0.0157603
897.397	0.0156864
897.475	0.0158418
897.553	0.0156951
897.631	0.0156020
897.709	0.0156953
897.788	0.0157762
897.866	0.0157590
897.944	0.0156873
898.022	0.0158257
898.100	0.0157373
898.178	0.0157834
898.256	0.0157024
898.334	0.0155330
898.413	0.0155949
898.491	0.0156148
898.569	0.0155727
898.647	0.0154936
898.725	0.0154961
898.803	0.0155486
898.881	0.0156564
898.959	0.0157629
899.038	0.0158195
899.116	0.0157093
899.194	0.0156780
899.272	0.0157332
899.350	0.0157561
899.428	0.0158257
899.506	0.0157559
899.584	0.0156461
899.663	0.0155739
899.741	0.0157004
899.819	0.0157089
899.897	0.0155357
899.975	0.0157281
900.053	0.0157843
900.131	0.0156606
900.209	0.0157669
900.288	0.0156013
900.366	0.0155642
900.444	0.0156416
900.522	0.0156878
900.600	0.0156794
900.678	0.0154604
900.756	0.0155593
900.834	0.0155619
900.913	0.0156202
900.991	0.0156199
901.069	0.0155772
901.147	0.0154037
901.225	0.0155489
901.303	0.0156480
901.381	0.0156326
901.459	0.0156831
901.538	0.0156931
901.616	0.0156722
901.694	0.0157571
901.772	0.0157478
901.850	0.0158356
901.928	0.0159095
902.006	0.0158318
902.084	0.0158826
902.163	0.0157998
902.241	0.0157439
902.319	0.0158236
902.397	0.0157900
902.475	0.0156944
902.553	0.0155939
902.631	0.0156754
902.709	0.0157934
902.788	0.0155637
902.866	0.0156611
902.944	0.0155086
903.022	0.0155477
903.100	0.0155671
903.178	0.0155511
903.256	0.0155789
903.334	0.0156392
903.413	0.0156624
903.491	0.0155695
903.569	0.0154826
903.647	0.0155669
903.725	0.0154812
903.803	0.0155912
903.881	0.0155621
903.959	0.0157368
904.038	0.0156474
904.116	0.0155441
904.194	0.0156958
904.272	0.0155932
904.350	0.0156153
904.428	0.0156242
904.506	0.0155719
904.584	0.0156208
904.663	0.0156943
904.741	0.0156772
904.819	0.0156871
904.897	0.0156003
904.975	0.0157433
905.053	0.0156540
905.131	0.0157057
905.209	0.0155484
905.288	0.0156503
905.366	0.0155682
905.444	0.0154832
905.522	0.0155111
905.600	0.0156460
905.678	0.0156247
905.756	0.0156557
905.834	0.0156004
905.913	0.0157104
905.991	0.0156220
906.069	0.0156905
906.147	0.0157072
906.225	0.0157699
906.303	0.0157143
906.381	0.0158785
906.459	0.0158505
906.538	0.0158066
906.616	0.0158764
906.694	0.0156786
906.772	0.0157936
906.850	0.0158334
906.928	0.0156959
907.006	0.0156450
907.084	0.0156522
907.163	0.0156025
907.241	0.0156006
907.319	0.0156172
907.397	0.0156464
907.475	0.0155367
907.553	0.0154624
907.631	0.0154504
907.709	0.0154684
907.788	0.0153643
907.866	0.0154719
907.944	0.0154433
908.022	0.0154054
908.100	0.0154187
908.178	0.0153476
908.256	0.0154691
908.334	0.0155152
908.413	0.0154424
908.491	0.0157155
908.569	0.0157224
908.647	0.0156938
908.725	0.0158297
908.803	0.0158447
908.881	0.0159546
908.959	0.0159699
909.038	0.0160178
909.116	0.0160728
909.194	0.0161001
909.272	0.0160117
909.350	0.0159374
909.428	0.0159502
909.506	0.0158365
909.584	0.0158430
909.663	0.0157961
909.741	0.0157961
909.819	0.0157188
909.897	0.0159111
909.975	0.0159415
910.053	0.0158772
910.131	0.0157661
910.209	0.0157128
910.288	0.0158019
910.366	0.0158998
910.444	0.0158333
910.522	0.0158198
910.600	0.0157764
910.678	0.0158105
910.756	0.0158557
910.834	0.0157269
910.913	0.0156583
910.991	0.0153551
911.069	0.0155058
911.147	0.0153757
911.225	0.0154253
911.303	0.0155262
911.381	0.0153056
911.459	0.0155142
911.538	0.0156436
911.616	0.0155935
911.694	0.0155505
911.772	0.0157246
911.850	0.0157209
911.928	0.0157255
912.006	0.0156694
912.084	0.0157281
912.163	0.0158213
912.241	0.0157492
912.319	0.0157510
912.397	0.0158028
912.475	0.0156646
912.553	0.0156552
912.631	0.0156876
912.709	0.0156204
912.788	0.0157916
912.866	0.0157090
912.944	0.0157674
913.022	0.0157523
913.100	0.0157696
913.178	0.0157128
913.256	0.0157324
913.334	0.0156574
913.413	0.0157438
913.491	0.0156807
913.569	0.0156535
913.647	0.0156287
913.725	0.0155251
913.803	0.0155775
913.881	0.0156248
913.959	0.0155680
914.038	0.0156521
914.116	0.0157176
914.194	0.0155733
914.272	0.0155305
914.350	0.0157407
914.428	0.0155730
914.506	0.0156643
914.584	0.0156744
914.663	0.0156552
914.741	0.0157803
914.819	0.0156747
914.897	0.0158317
914.975	0.0157855
915.053	0.0157751
915.131	0.0157545
915.209	0.0158702
915.288	0.0157614
915.366	0.0158977
915.444	0.0158327
915.522	0.0160233
915.600	0.0158003
915.678	0.0158414
915.756	0.0160091
915.834	0.0160055
915.913	0.0159436
915.991	0.0160000
916.069	0.0159869
916.147	0.0161343
916.225	0.0158955
916.303	0.0160194
916.381	0.0160156
916.459	0.0159718
916.538	0.0159756
916.616	0.0159532
916.694	0.0158624
916.772	0.0156770
916.850	0.0157227
916.928	0.0155569
917.006	0.0156171
917.084	0.0154893
917.163	0.0153463
917.241	0.0154863
917.319	0.0154598
917.397	0.0154410
917.475	0.0156024
917.553	0.0155934
917.631	0.0155834
917.709	0.0154905
917.788	0.0155542
917.866	0.0156387
917.944	0.0156511
918.022	0.0157101
918.100	0.0157019
918.178	0.0156364
918.256	0.0156807
918.334	0.0155650
918.413	0.0155919
918.491	0.0156271
918.569	0.0155575
918.647	0.0157523
918.725	0.0157824
918.803	0.0157002
918.881	0.0157546
918.959	0.0157484
919.038	0.0157110
919.116	0.0156076
919.194	0.0159053
919.272	0.0158215
919.350	0.0157748
919.428	0.0158474
919.506	0.0157696
919.584	0.0156693
919.663	0.0156905
919.741	0.0156598
919.819	0.0156175
919.897	0.0155801
