05/20/2022	20:58:23	Ver.	4.1	UNKNOWN
Optical Delay	599.975067	Delta X		0.078125	Sweeps	1	Scan Rate	0/0
Coordinates	Axis 1	NaN	Axis 2	NaN	Axis 3	NaN	Axis 4	NaN	Axis 5	NaN	Axis 6	0.000000
TX Power	0.000000	RX Power	0.000000

599.975	0.0156039
600.053	0.0155165
600.131	0.0156528
600.209	0.0156293
600.288	0.0156827
600.366	0.0155066
600.444	0.0156660
600.522	0.0156293
600.600	0.0156045
600.678	0.0156989
600.756	0.0155788
600.834	0.0154984
600.913	0.0156675
600.991	0.0155487
601.069	0.0155196
601.147	0.0156993
601.225	0.0157336
601.303	0.0155910
601.381	0.0155794
601.459	0.0153812
601.538	0.0155482
601.616	0.0156606
601.694	0.0156544
601.772	0.0155544
601.850	0.0154990
601.928	0.0155923
602.006	0.0155084
602.084	0.0156541
602.163	0.0155329
602.241	0.0154890
602.319	0.0155389
602.397	0.0154789
602.475	0.0155018
602.553	0.0156504
602.631	0.0155221
602.709	0.0154941
602.788	0.0156091
602.866	0.0157030
602.944	0.0155891
603.022	0.0156824
603.100	0.0155156
603.178	0.0155432
603.256	0.0156483
603.334	0.0155797
603.413	0.0156362
603.491	0.0156048
603.569	0.0156594
603.647	0.0157092
603.725	0.0155396
603.803	0.0156966
603.881	0.0155909
603.959	0.0156676
604.038	0.0156509
604.116	0.0156431
604.194	0.0156603
604.272	0.0156425
604.350	0.0155711
604.428	0.0156703
604.506	0.0155909
604.584	0.0155751
604.663	0.0156017
604.741	0.0156023
604.819	0.0156173
604.897	0.0155664
604.975	0.0156412
605.053	0.0155507
605.131	0.0156104
605.209	0.0155244
605.288	0.0155626
605.366	0.0156722
605.444	0.0156025
605.522	0.0155641
605.600	0.0155796
605.678	0.0156503
605.756	0.0155935
605.834	0.0157062
605.913	0.0155558
605.991	0.0155149
606.069	0.0155196
606.147	0.0155473
606.225	0.0156182
606.303	0.0156050
606.381	0.0154748
606.459	0.0156650
606.538	0.0155997
606.616	0.0156121
606.694	0.0155171
606.772	0.0154272
606.850	0.0154994
606.928	0.0155803
607.006	0.0156096
607.084	0.0155446
607.163	0.0156169
607.241	0.0154867
607.319	0.0156276
607.397	0.0156224
607.475	0.0155351
607.553	0.0154370
607.631	0.0156112
607.709	0.0156921
607.788	0.0154840
607.866	0.0154609
607.944	0.0156886
608.022	0.0154855
608.100	0.0154849
608.178	0.0154457
608.256	0.0155952
608.334	0.0156303
608.413	0.0156274
608.491	0.0155816
608.569	0.0154755
608.647	0.0155373
608.725	0.0155138
608.803	0.0155514
608.881	0.0155844
608.959	0.0156021
609.038	0.0155540
609.116	0.0156117
609.194	0.0156390
609.272	0.0156749
609.350	0.0155041
609.428	0.0157143
609.506	0.0156522
609.584	0.0156072
609.663	0.0156527
609.741	0.0156941
609.819	0.0156213
609.897	0.0156458
609.975	0.0156794
610.053	0.0156264
610.131	0.0155984
610.209	0.0153893
610.288	0.0155736
610.366	0.0155210
610.444	0.0156254
610.522	0.0155189
610.600	0.0155341
610.678	0.0155630
610.756	0.0156497
610.834	0.0153715
610.913	0.0155671
610.991	0.0156004
611.069	0.0156219
611.147	0.0155345
611.225	0.0154709
611.303	0.0155154
611.381	0.0156238
611.459	0.0154814
611.538	0.0156256
611.616	0.0155724
611.694	0.0155229
611.772	0.0155418
611.850	0.0155998
611.928	0.0156535
612.006	0.0156142
612.084	0.0156733
612.163	0.0156888
612.241	0.0156622
612.319	0.0156100
612.397	0.0154849
612.475	0.0157296
612.553	0.0157319
612.631	0.0155607
612.709	0.0155236
612.788	0.0156065
612.866	0.0156572
612.944	0.0154481
613.022	0.0155021
613.100	0.0155608
613.178	0.0155833
613.256	0.0156677
613.334	0.0156615
613.413	0.0154879
613.491	0.0156316
613.569	0.0156596
613.647	0.0155253
613.725	0.0154390
613.803	0.0156016
613.881	0.0155138
613.959	0.0155301
614.038	0.0155314
614.116	0.0158027
614.194	0.0156051
614.272	0.0155273
614.350	0.0156714
614.428	0.0155327
614.506	0.0155548
614.584	0.0154780
614.663	0.0155472
614.741	0.0157511
614.819	0.0156344
614.897	0.0156243
614.975	0.0155969
615.053	0.0154437
615.131	0.0157139
615.209	0.0156569
615.288	0.0156342
615.366	0.0157129
615.444	0.0155289
615.522	0.0156065
615.600	0.0155907
615.678	0.0156151
615.756	0.0155790
615.834	0.0155322
615.913	0.0156663
615.991	0.0155856
616.069	0.0155938
616.147	0.0155583
616.225	0.0156264
616.303	0.0155627
616.381	0.0156461
616.459	0.0155994
616.538	0.0155479
616.616	0.0155708
616.694	0.0156102
616.772	0.0156745
616.850	0.0154847
616.928	0.0154165
617.006	0.0156904
617.084	0.0156702
617.163	0.0155643
617.241	0.0155343
617.319	0.0156215
617.397	0.0155386
617.475	0.0155867
617.553	0.0156184
617.631	0.0154645
617.709	0.0155693
617.788	0.0156624
617.866	0.0156902
617.944	0.0157184
618.022	0.0155241
618.100	0.0155761
618.178	0.0156804
618.256	0.0156306
618.334	0.0155832
618.413	0.0154782
618.491	0.0155668
618.569	0.0156779
618.647	0.0156721
618.725	0.0156538
618.803	0.0156711
618.881	0.0155090
618.959	0.0154829
619.038	0.0155494
619.116	0.0155532
619.194	0.0156013
619.272	0.0156041
619.350	0.0156209
619.428	0.0155967
619.506	0.0155387
619.584	0.0155843
619.663	0.0154523
619.741	0.0156579
619.819	0.0155384
619.897	0.0154665
619.975	0.0154665
620.053	0.0155556
620.131	0.0154849
620.209	0.0155582
620.288	0.0156616
620.366	0.0155658
620.444	0.0154495
620.522	0.0157052
620.600	0.0156015
620.678	0.0155817
620.756	0.0156931
620.834	0.0156504
620.913	0.0156844
620.991	0.0153582
621.069	0.0155494
621.147	0.0156120
621.225	0.0155567
621.303	0.0155825
621.381	0.0156248
621.459	0.0156539
621.538	0.0156088
621.616	0.0156282
621.694	0.0154868
621.772	0.0156151
621.850	0.0156898
621.928	0.0156557
622.006	0.0156290
622.084	0.0156627
622.163	0.0155652
622.241	0.0155543
622.319	0.0155404
622.397	0.0155655
622.475	0.0155677
622.553	0.0155501
622.631	0.0156496
622.709	0.0154987
622.788	0.0156367
622.866	0.0154299
622.944	0.0155649
623.022	0.0156601
623.100	0.0156213
623.178	0.0156886
623.256	0.0155396
623.334	0.0155494
623.413	0.0155874
623.491	0.0154533
623.569	0.0155419
623.647	0.0154346
623.725	0.0155926
623.803	0.0155989
623.881	0.0156019
623.959	0.0155615
624.038	0.0155321
624.116	0.0155721
624.194	0.0155502
624.272	0.0156659
624.350	0.0155841
624.428	0.0157179
624.506	0.0155746
624.584	0.0156594
624.663	0.0156361
624.741	0.0155666
624.819	0.0154451
624.897	0.0156783
624.975	0.0155781
625.053	0.0154096
625.131	0.0155453
625.209	0.0156210
625.288	0.0155924
625.366	0.0155932
625.444	0.0155183
625.522	0.0157790
625.600	0.0156912
625.678	0.0154765
625.756	0.0155724
625.834	0.0155759
625.913	0.0155919
625.991	0.0155819
626.069	0.0157462
626.147	0.0156579
626.225	0.0156936
626.303	0.0155865
626.381	0.0156964
626.459	0.0156747
626.538	0.0158324
626.616	0.0156249
626.694	0.0156393
626.772	0.0157388
626.850	0.0155072
626.928	0.0156367
627.006	0.0156145
627.084	0.0155964
627.163	0.0156600
627.241	0.0155872
627.319	0.0155836
627.397	0.0156046
627.475	0.0156646
627.553	0.0156371
627.631	0.0155996
627.709	0.0156490
627.788	0.0155362
627.866	0.0156226
627.944	0.0156329
628.022	0.0156818
628.100	0.0156701
628.178	0.0155244
628.256	0.0155835
628.334	0.0156628
628.413	0.0157068
628.491	0.0157019
628.569	0.0157253
628.647	0.0156889
628.725	0.0156483
628.803	0.0155699
628.881	0.0156596
628.959	0.0155559
629.038	0.0156021
629.116	0.0156304
629.194	0.0157955
629.272	0.0155639
629.350	0.0156966
629.428	0.0156708
629.506	0.0156410
629.584	0.0155934
629.663	0.0158295
629.741	0.0157910
629.819	0.0156355
629.897	0.0154916
629.975	0.0156855
630.053	0.0156396
630.131	0.0157226
630.209	0.0156615
630.288	0.0155470
630.366	0.0154649
630.444	0.0156662
630.522	0.0155767
630.600	0.0154879
630.678	0.0155807
630.756	0.0157738
630.834	0.0156414
630.913	0.0155410
630.991	0.0156588
631.069	0.0157970
631.147	0.0156961
631.225	0.0155525
631.303	0.0156590
631.381	0.0155898
631.459	0.0156808
631.538	0.0156461
631.616	0.0156778
631.694	0.0156206
631.772	0.0156545
631.850	0.0156668
631.928	0.0157267
632.006	0.0155853
632.084	0.0156581
632.163	0.0158406
632.241	0.0156408
632.319	0.0157525
632.397	0.0157591
632.475	0.0156525
632.553	0.0156819
632.631	0.0157801
632.709	0.0156880
632.788	0.0157037
632.866	0.0155158
632.944	0.0157120
633.022	0.0156680
633.100	0.0156744
633.178	0.0156238
633.256	0.0155179
633.334	0.0156227
633.413	0.0157306
633.491	0.0156446
633.569	0.0156136
633.647	0.0155656
633.725	0.0156641
633.803	0.0156789
633.881	0.0157079
633.959	0.0156665
634.038	0.0155937
634.116	0.0156521
634.194	0.0156076
634.272	0.0156541
634.350	0.0156326
634.428	0.0155616
634.506	0.0156532
634.584	0.0156099
634.663	0.0156097
634.741	0.0154649
634.819	0.0155402
634.897	0.0156979
634.975	0.0156944
635.053	0.0156847
635.131	0.0157005
635.209	0.0157536
635.288	0.0156047
635.366	0.0155029
635.444	0.0155914
635.522	0.0155579
635.600	0.0155689
635.678	0.0157066
635.756	0.0155336
635.834	0.0157795
635.913	0.0157005
635.991	0.0155495
636.069	0.0155666
636.147	0.0155160
636.225	0.0154261
636.303	0.0154436
636.381	0.0155603
636.459	0.0155692
636.538	0.0156754
636.616	0.0154703
636.694	0.0153701
636.772	0.0155154
636.850	0.0155225
636.928	0.0155434
637.006	0.0154880
637.084	0.0154374
637.163	0.0156207
637.241	0.0154906
637.319	0.0156402
637.397	0.0154939
637.475	0.0155785
637.553	0.0155862
637.631	0.0154292
637.709	0.0154086
637.788	0.0154571
637.866	0.0153824
637.944	0.0155424
638.022	0.0155450
638.100	0.0156272
638.178	0.0154849
638.256	0.0153435
638.334	0.0154224
638.413	0.0154414
638.491	0.0154440
638.569	0.0154668
638.647	0.0154671
638.725	0.0154075
638.803	0.0154135
638.881	0.0154505
638.959	0.0154219
639.038	0.0153883
639.116	0.0154041
639.194	0.0154435
639.272	0.0154051
639.350	0.0154357
639.428	0.0155198
639.506	0.0154969
639.584	0.0154195
639.663	0.0154519
639.741	0.0154128
639.819	0.0154651
639.897	0.0154749
639.975	0.0155022
640.053	0.0154501
640.131	0.0153394
640.209	0.0154504
640.288	0.0155537
640.366	0.0155511
640.444	0.0155186
640.522	0.0155376
640.600	0.0154993
640.678	0.0153551
640.756	0.0154742
640.834	0.0155362
640.913	0.0155504
640.991	0.0154849
641.069	0.0155331
641.147	0.0154495
641.225	0.0154434
641.303	0.0155279
641.381	0.0154588
641.459	0.0154443
641.538	0.0154625
641.616	0.0155165
641.694	0.0156300
641.772	0.0155764
641.850	0.0154816
641.928	0.0154817
642.006	0.0156086
642.084	0.0154977
642.163	0.0155940
642.241	0.0155841
642.319	0.0154783
642.397	0.0154606
642.475	0.0155299
642.553	0.0156426
642.631	0.0155074
642.709	0.0156080
642.788	0.0155807
642.866	0.0155682
642.944	0.0157317
643.022	0.0154954
643.100	0.0155531
643.178	0.0156309
643.256	0.0156342
643.334	0.0155833
643.413	0.0155773
643.491	0.0155437
643.569	0.0154708
643.647	0.0154797
643.725	0.0153928
643.803	0.0155086
643.881	0.0156718
643.959	0.0154768
644.038	0.0155154
644.116	0.0156418
644.194	0.0156541
644.272	0.0155769
644.350	0.0155724
644.428	0.0156680
644.506	0.0154360
644.584	0.0155833
644.663	0.0156298
644.741	0.0156819
644.819	0.0156184
644.897	0.0156513
644.975	0.0156064
645.053	0.0156151
645.131	0.0155019
645.209	0.0155862
645.288	0.0155444
645.366	0.0156004
645.444	0.0155551
645.522	0.0155560
645.600	0.0155759
645.678	0.0155465
645.756	0.0155944
645.834	0.0155034
645.913	0.0155720
645.991	0.0155515
646.069	0.0156205
646.147	0.0155399
646.225	0.0155345
646.303	0.0156017
646.381	0.0156457
646.459	0.0156539
646.538	0.0155069
646.616	0.0156055
646.694	0.0156521
646.772	0.0155762
646.850	0.0157281
646.928	0.0156467
647.006	0.0156068
647.084	0.0156454
647.163	0.0155403
647.241	0.0157134
647.319	0.0156091
647.397	0.0157001
647.475	0.0156606
647.553	0.0155446
647.631	0.0157430
647.709	0.0157561
647.788	0.0155973
647.866	0.0155524
647.944	0.0157381
648.022	0.0156490
648.100	0.0156509
648.178	0.0157160
648.256	0.0156578
648.334	0.0156655
648.413	0.0156213
648.491	0.0156815
648.569	0.0156269
648.647	0.0156519
648.725	0.0156461
648.803	0.0156950
648.881	0.0156897
648.959	0.0157124
649.038	0.0157023
649.116	0.0157496
649.194	0.0156623
649.272	0.0157827
649.350	0.0155946
649.428	0.0156841
649.506	0.0157957
649.584	0.0156342
649.663	0.0156687
649.741	0.0156265
649.819	0.0157467
649.897	0.0158004
649.975	0.0156639
650.053	0.0158067
650.131	0.0157604
650.209	0.0155921
650.288	0.0156384
650.366	0.0157108
650.444	0.0157476
650.522	0.0158004
650.600	0.0156856
650.678	0.0157404
650.756	0.0158292
650.834	0.0157189
650.913	0.0157072
650.991	0.0156327
651.069	0.0157114
651.147	0.0156561
651.225	0.0157693
651.303	0.0157809
651.381	0.0156045
651.459	0.0157123
651.538	0.0156770
651.616	0.0157258
651.694	0.0157973
651.772	0.0157272
651.850	0.0157935
651.928	0.0158701
652.006	0.0157711
652.084	0.0156713
652.163	0.0156056
652.241	0.0157700
652.319	0.0156860
652.397	0.0159006
652.475	0.0158701
652.553	0.0157355
652.631	0.0157855
652.709	0.0157072
652.788	0.0156921
652.866	0.0156693
652.944	0.0158111
653.022	0.0157004
653.100	0.0157118
653.178	0.0156381
653.256	0.0158121
653.334	0.0156651
653.413	0.0156020
653.491	0.0156710
653.569	0.0157263
653.647	0.0157762
653.725	0.0157423
653.803	0.0158379
653.881	0.0159560
653.959	0.0158637
654.038	0.0157544
654.116	0.0156445
654.194	0.0157170
654.272	0.0158154
654.350	0.0158270
654.428	0.0158279
654.506	0.0156672
654.584	0.0158083
654.663	0.0156812
654.741	0.0157150
654.819	0.0157536
654.897	0.0158346
654.975	0.0156281
655.053	0.0156413
655.131	0.0156982
655.209	0.0157099
655.288	0.0157921
655.366	0.0157520
655.444	0.0156011
655.522	0.0157707
655.600	0.0157144
655.678	0.0155775
655.756	0.0156378
655.834	0.0157482
655.913	0.0157500
655.991	0.0156718
656.069	0.0156963
656.147	0.0156055
656.225	0.0155747
656.303	0.0155927
656.381	0.0156730
656.459	0.0157861
656.538	0.0157908
656.616	0.0155960
656.694	0.0156668
656.772	0.0156820
656.850	0.0155326
656.928	0.0157941
657.006	0.0156591
657.084	0.0156130
657.163	0.0156753
657.241	0.0155901
657.319	0.0156733
657.397	0.0155444
657.475	0.0155981
657.553	0.0154291
657.631	0.0155244
657.709	0.0156748
657.788	0.0155847
657.866	0.0156767
657.944	0.0155466
658.022	0.0156259
658.100	0.0157362
658.178	0.0155025
658.256	0.0154209
658.334	0.0156039
658.413	0.0156689
658.491	0.0155504
658.569	0.0155421
658.647	0.0156020
658.725	0.0157375
658.803	0.0154902
658.881	0.0155384
658.959	0.0154776
659.038	0.0155219
659.116	0.0155473
659.194	0.0155513
659.272	0.0154551
659.350	0.0154883
659.428	0.0156227
659.506	0.0153684
659.584	0.0155764
659.663	0.0154335
659.741	0.0154899
659.819	0.0155713
659.897	0.0154771
659.975	0.0154812
660.053	0.0154629
660.131	0.0155351
660.209	0.0155435
660.288	0.0156218
660.366	0.0155596
660.444	0.0154384
660.522	0.0153458
660.600	0.0155043
660.678	0.0154388
660.756	0.0155676
660.834	0.0154911
660.913	0.0154242
660.991	0.0154343
661.069	0.0155164
661.147	0.0155883
661.225	0.0156118
661.303	0.0153648
661.381	0.0153434
661.459	0.0154670
661.538	0.0155784
661.616	0.0154664
661.694	0.0154343
661.772	0.0154962
661.850	0.0156046
661.928	0.0154337
662.006	0.0154854
662.084	0.0154543
662.163	0.0153570
662.241	0.0153830
662.319	0.0153737
662.397	0.0154318
662.475	0.0155382
662.553	0.0154639
662.631	0.0153481
662.709	0.0155420
662.788	0.0154988
662.866	0.0155002
662.944	0.0155038
663.022	0.0155508
663.100	0.0154662
663.178	0.0155995
663.256	0.0154945
663.334	0.0153581
663.413	0.0155889
663.491	0.0155373
663.569	0.0155490
663.647	0.0154117
663.725	0.0154881
663.803	0.0155912
663.881	0.0156532
663.959	0.0154353
664.038	0.0153973
664.116	0.0154597
664.194	0.0153719
664.272	0.0154739
664.350	0.0155703
664.428	0.0154305
664.506	0.0153219
664.584	0.0154553
664.663	0.0153384
664.741	0.0154102
664.819	0.0154671
664.897	0.0154828
664.975	0.0155473
665.053	0.0154170
665.131	0.0155840
665.209	0.0155434
665.288	0.0155489
665.366	0.0155546
665.444	0.0155628
665.522	0.0155311
665.600	0.0156763
665.678	0.0156406
665.756	0.0156568
665.834	0.0157172
665.913	0.0157953
665.991	0.0156393
666.069	0.0156688
666.147	0.0156438
666.225	0.0158087
666.303	0.0157827
666.381	0.0156782
666.459	0.0156133
666.538	0.0157346
666.616	0.0156580
666.694	0.0155305
666.772	0.0154790
666.850	0.0155762
666.928	0.0154960
667.006	0.0156492
667.084	0.0154175
667.163	0.0154160
667.241	0.0154924
667.319	0.0155276
667.397	0.0152134
667.475	0.0152749
667.553	0.0153041
667.631	0.0153503
667.709	0.0152893
667.788	0.0154376
667.866	0.0153456
667.944	0.0154192
668.022	0.0154299
668.100	0.0155833
668.178	0.0155505
668.256	0.0155564
668.334	0.0157486
668.413	0.0156725
668.491	0.0157796
668.569	0.0158389
668.647	0.0157150
668.725	0.0158860
668.803	0.0157963
668.881	0.0158784
668.959	0.0158704
669.038	0.0159177
669.116	0.0158436
669.194	0.0158683
669.272	0.0160254
669.350	0.0156657
669.428	0.0158580
669.506	0.0159281
669.584	0.0156200
669.663	0.0156931
669.741	0.0155232
669.819	0.0155666
669.897	0.0155161
669.975	0.0154054
670.053	0.0156100
670.131	0.0155348
670.209	0.0154215
670.288	0.0152768
670.366	0.0154019
670.444	0.0154563
670.522	0.0154551
670.600	0.0154853
670.678	0.0154948
670.756	0.0153868
670.834	0.0156020
670.913	0.0155895
670.991	0.0154922
671.069	0.0154906
671.147	0.0155402
671.225	0.0156962
671.303	0.0155228
671.381	0.0155909
671.459	0.0156337
671.538	0.0156426
671.616	0.0156573
671.694	0.0157913
671.772	0.0155482
671.850	0.0155505
671.928	0.0155406
672.006	0.0156978
672.084	0.0157433
672.163	0.0156769
672.241	0.0156948
672.319	0.0157952
672.397	0.0158056
672.475	0.0158858
672.553	0.0158887
672.631	0.0158849
672.709	0.0157736
672.788	0.0157684
672.866	0.0158871
672.944	0.0158319
673.022	0.0158568
673.100	0.0157376
673.178	0.0155293
673.256	0.0157250
673.334	0.0158511
673.413	0.0158600
673.491	0.0156413
673.569	0.0157757
673.647	0.0157778
673.725	0.0157633
673.803	0.0157685
673.881	0.0156763
673.959	0.0157734
674.038	0.0156916
674.116	0.0157709
674.194	0.0156751
674.272	0.0155910
674.350	0.0155221
674.428	0.0155435
674.506	0.0155438
674.584	0.0154733
674.663	0.0153488
674.741	0.0153976
674.819	0.0153187
674.897	0.0154278
674.975	0.0153688
675.053	0.0153136
675.131	0.0153938
675.209	0.0154842
675.288	0.0152839
675.366	0.0154354
675.444	0.0154881
675.522	0.0154560
675.600	0.0155168
675.678	0.0156498
675.756	0.0155551
675.834	0.0155216
675.913	0.0156944
675.991	0.0156870
676.069	0.0157042
676.147	0.0156839
676.225	0.0158004
676.303	0.0159015
676.381	0.0159971
676.459	0.0159890
676.538	0.0159081
676.616	0.0161076
676.694	0.0160181
676.772	0.0160471
676.850	0.0160514
676.928	0.0160334
677.006	0.0160857
677.084	0.0161316
677.163	0.0160963
677.241	0.0160823
677.319	0.0157623
677.397	0.0157986
677.475	0.0158527
677.553	0.0158264
677.631	0.0156855
677.709	0.0155479
677.788	0.0155898
677.866	0.0155162
677.944	0.0153202
678.022	0.0152660
678.100	0.0152845
678.178	0.0152053
678.256	0.0152998
678.334	0.0150742
678.413	0.0152318
678.491	0.0152419
678.569	0.0151476
678.647	0.0151489
678.725	0.0151672
678.803	0.0152705
678.881	0.0153751
678.959	0.0154087
679.038	0.0153158
679.116	0.0155575
679.194	0.0155307
679.272	0.0154874
679.350	0.0156754
679.428	0.0157639
679.506	0.0157888
679.584	0.0158821
679.663	0.0159152
679.741	0.0159369
679.819	0.0159151
679.897	0.0159470
679.975	0.0161384
680.053	0.0159895
680.131	0.0159752
680.209	0.0160488
680.288	0.0161167
680.366	0.0160143
680.444	0.0158759
680.522	0.0159607
680.600	0.0159300
680.678	0.0158418
680.756	0.0157357
680.834	0.0158994
680.913	0.0157775
680.991	0.0157533
681.069	0.0158942
681.147	0.0156801
681.225	0.0156846
681.303	0.0156150
681.381	0.0157314
681.459	0.0156011
681.538	0.0153890
681.616	0.0155115
681.694	0.0155313
681.772	0.0153683
681.850	0.0153260
681.928	0.0154872
682.006	0.0153603
682.084	0.0153001
682.163	0.0153695
682.241	0.0153928
682.319	0.0151908
682.397	0.0150230
682.475	0.0150882
682.553	0.0150933
682.631	0.0151057
682.709	0.0151160
682.788	0.0150945
682.866	0.0151926
682.944	0.0153697
683.022	0.0153683
683.100	0.0154614
683.178	0.0156134
683.256	0.0158572
683.334	0.0160324
683.413	0.0160461
683.491	0.0163155
683.569	0.0163522
683.647	0.0164082
683.725	0.0164504
683.803	0.0164987
683.881	0.0163586
683.959	0.0163165
684.038	0.0160878
684.116	0.0160308
684.194	0.0158691
684.272	0.0157348
684.350	0.0155601
684.428	0.0153195
684.506	0.0152077
684.584	0.0152066
684.663	0.0149804
684.741	0.0149499
684.819	0.0150120
684.897	0.0149822
684.975	0.0151354
685.053	0.0152502
685.131	0.0152289
685.209	0.0151756
685.288	0.0153923
685.366	0.0154721
685.444	0.0156336
685.522	0.0156890
685.600	0.0158306
685.678	0.0158691
685.756	0.0159048
685.834	0.0161058
685.913	0.0161234
685.991	0.0159439
686.069	0.0159814
686.147	0.0160859
686.225	0.0159203
686.303	0.0159457
686.381	0.0158622
686.459	0.0157220
686.538	0.0158994
686.616	0.0157247
686.694	0.0155557
686.772	0.0155425
686.850	0.0153880
686.928	0.0152808
687.006	0.0151987
687.084	0.0147570
687.163	0.0147070
687.241	0.0144320
687.319	0.0144003
687.397	0.0143736
687.475	0.0141375
687.553	0.0142667
687.631	0.0143365
687.709	0.0145136
687.788	0.0147205
687.866	0.0149586
687.944	0.0152007
688.022	0.0155045
688.100	0.0158163
688.178	0.0160558
688.256	0.0164258
688.334	0.0167353
688.413	0.0168341
688.491	0.0169532
688.569	0.0170699
688.647	0.0171794
688.725	0.0169862
688.803	0.0170374
688.881	0.0168987
688.959	0.0169910
689.038	0.0166442
689.116	0.0165179
689.194	0.0164838
689.272	0.0162401
689.350	0.0158984
689.428	0.0156641
689.506	0.0154787
689.584	0.0152673
689.663	0.0148172
689.741	0.0146209
689.819	0.0144839
689.897	0.0142754
689.975	0.0139594
690.053	0.0138419
690.131	0.0137939
690.209	0.0138979
690.288	0.0137850
690.366	0.0138712
690.444	0.0139709
690.522	0.0141265
690.600	0.0143526
690.678	0.0145084
690.756	0.0148217
690.834	0.0150197
690.913	0.0152647
690.991	0.0156483
691.069	0.0159102
691.147	0.0160258
691.225	0.0161386
691.303	0.0163306
691.381	0.0165368
691.459	0.0165962
691.538	0.0167788
691.616	0.0168780
691.694	0.0167379
691.772	0.0167638
691.850	0.0166862
691.928	0.0167994
692.006	0.0167468
692.084	0.0165481
692.163	0.0164394
692.241	0.0164064
692.319	0.0162746
692.397	0.0163529
692.475	0.0163381
692.553	0.0161062
692.631	0.0159237
692.709	0.0156516
692.788	0.0154852
692.866	0.0151144
692.944	0.0147660
693.022	0.0145080
693.100	0.0141355
693.178	0.0137743
693.256	0.0133710
693.334	0.0132212
693.413	0.0129739
693.491	0.0129910
693.569	0.0131460
693.647	0.0135841
693.725	0.0141719
693.803	0.0147329
693.881	0.0154964
693.959	0.0160674
694.038	0.0166766
694.116	0.0172482
694.194	0.0179089
694.272	0.0183133
694.350	0.0184943
694.428	0.0186337
694.506	0.0185111
694.584	0.0182320
694.663	0.0177686
694.741	0.0174012
694.819	0.0169711
694.897	0.0163632
694.975	0.0159881
695.053	0.0155510
695.131	0.0152918
695.209	0.0148519
695.288	0.0148220
695.366	0.0145811
695.444	0.0143185
695.522	0.0143387
695.600	0.0140720
695.678	0.0138101
695.756	0.0137157
695.834	0.0134769
695.913	0.0132442
695.991	0.0130428
696.069	0.0127352
696.147	0.0126913
696.225	0.0127972
696.303	0.0128576
696.381	0.0131075
696.459	0.0134254
696.538	0.0139656
696.616	0.0146152
696.694	0.0153823
696.772	0.0159705
696.850	0.0165778
696.928	0.0171769
697.006	0.0175115
697.084	0.0181248
697.163	0.0186803
697.241	0.0189979
697.319	0.0192631
697.397	0.0194318
697.475	0.0195346
697.553	0.0195446
697.631	0.0194010
697.709	0.0193828
697.788	0.0190437
697.866	0.0187981
697.944	0.0183518
698.022	0.0180853
698.100	0.0173874
698.178	0.0167281
698.256	0.0162647
698.334	0.0158609
698.413	0.0151710
698.491	0.0144766
698.569	0.0139963
698.647	0.0135819
698.725	0.0132222
698.803	0.0128552
698.881	0.0125600
698.959	0.0122894
699.038	0.0122797
699.116	0.0122070
699.194	0.0122662
699.272	0.0123830
699.350	0.0121672
699.428	0.0125455
699.506	0.0127250
699.584	0.0128671
699.663	0.0130862
699.741	0.0134092
699.819	0.0136141
699.897	0.0139803
699.975	0.0143208
700.053	0.0147347
700.131	0.0152103
700.209	0.0156557
700.288	0.0161831
700.366	0.0164986
700.444	0.0171040
700.522	0.0174980
700.600	0.0179930
700.678	0.0182452
700.756	0.0186594
700.834	0.0188886
700.913	0.0191132
700.991	0.0192420
701.069	0.0192059
701.147	0.0190977
701.225	0.0191148
701.303	0.0188926
701.381	0.0186591
701.459	0.0182584
701.538	0.0176883
701.616	0.0172250
701.694	0.0166194
701.772	0.0160311
701.850	0.0153891
701.928	0.0149058
702.006	0.0143764
702.084	0.0138871
702.163	0.0134652
702.241	0.0133286
702.319	0.0130883
702.397	0.0130006
702.475	0.0131274
702.553	0.0129990
702.631	0.0131493
702.709	0.0131979
702.788	0.0132003
702.866	0.0134473
702.944	0.0138037
703.022	0.0140564
703.100	0.0142322
703.178	0.0145225
703.256	0.0147794
703.334	0.0152229
703.413	0.0156119
703.491	0.0160152
703.569	0.0164561
703.647	0.0168134
703.725	0.0173202
703.803	0.0177039
703.881	0.0179491
703.959	0.0182304
704.038	0.0182550
704.116	0.0183377
704.194	0.0183865
704.272	0.0180130
704.350	0.0177280
704.428	0.0173386
704.506	0.0169083
704.584	0.0164126
704.663	0.0158095
704.741	0.0153270
704.819	0.0148769
704.897	0.0144099
704.975	0.0141322
705.053	0.0137185
705.131	0.0134051
705.209	0.0131506
705.288	0.0131042
705.366	0.0130212
705.444	0.0128452
705.522	0.0128064
705.600	0.0129932
705.678	0.0130432
705.756	0.0130080
705.834	0.0132461
705.913	0.0137624
705.991	0.0142831
706.069	0.0148264
706.147	0.0153485
706.225	0.0160375
706.303	0.0168027
706.381	0.0172549
706.459	0.0178014
706.538	0.0182889
706.616	0.0183326
706.694	0.0184554
706.772	0.0184083
706.850	0.0182020
706.928	0.0180080
707.006	0.0176109
707.084	0.0172604
707.163	0.0169962
707.241	0.0165344
707.319	0.0162294
707.397	0.0159352
707.475	0.0157613
707.553	0.0154728
707.631	0.0152197
707.709	0.0150291
707.788	0.0148127
707.866	0.0147395
707.944	0.0146057
708.022	0.0145735
708.100	0.0144176
708.178	0.0144908
708.256	0.0147919
708.334	0.0151363
708.413	0.0152674
708.491	0.0157269
708.569	0.0159805
708.647	0.0161989
708.725	0.0162564
708.803	0.0162498
708.881	0.0162635
708.959	0.0160719
709.038	0.0157125
709.116	0.0154360
709.194	0.0150676
709.272	0.0148064
709.350	0.0145188
709.428	0.0141986
709.506	0.0139341
709.584	0.0139824
709.663	0.0138535
709.741	0.0138389
709.819	0.0137480
709.897	0.0138503
709.975	0.0139036
710.053	0.0136761
710.131	0.0138113
710.209	0.0138444
710.288	0.0137731
710.366	0.0139545
710.444	0.0143048
710.522	0.0145049
710.600	0.0149062
710.678	0.0154673
710.756	0.0158888
710.834	0.0167392
710.913	0.0175816
710.991	0.0183302
711.069	0.0189846
711.147	0.0194767
711.225	0.0199319
711.303	0.0201485
711.381	0.0203040
711.459	0.0200111
711.538	0.0197079
711.616	0.0192104
711.694	0.0184845
711.772	0.0180347
711.850	0.0174646
711.928	0.0167963
712.006	0.0162907
712.084	0.0158880
712.163	0.0155800
712.241	0.0151524
712.319	0.0150046
712.397	0.0146634
712.475	0.0145544
712.553	0.0142651
712.631	0.0141141
712.709	0.0135078
712.788	0.0130274
712.866	0.0125645
712.944	0.0122635
713.022	0.0115999
713.100	0.0113173
713.178	0.0110780
713.256	0.0110229
713.334	0.0109301
713.413	0.0110429
713.491	0.0112129
713.569	0.0114903
713.647	0.0121029
713.725	0.0126241
713.803	0.0132917
713.881	0.0139538
713.959	0.0147057
714.038	0.0151756
714.116	0.0158513
714.194	0.0161954
714.272	0.0167077
714.350	0.0172364
714.428	0.0175893
714.506	0.0177480
714.584	0.0177938
714.663	0.0180516
714.741	0.0182884
714.819	0.0182788
714.897	0.0182850
714.975	0.0184846
715.053	0.0185029
715.131	0.0184814
715.209	0.0185089
715.288	0.0184821
715.366	0.0185381
715.444	0.0184842
715.522	0.0183620
715.600	0.0182250
715.678	0.0178078
715.756	0.0175893
715.834	0.0175185
715.913	0.0172980
715.991	0.0170053
716.069	0.0168153
716.147	0.0168114
716.225	0.0166795
716.303	0.0164012
716.381	0.0163007
716.459	0.0160771
716.538	0.0158355
716.616	0.0156377
716.694	0.0152663
716.772	0.0150866
716.850	0.0147926
716.928	0.0145804
717.006	0.0142039
717.084	0.0139357
717.163	0.0136092
717.241	0.0135390
717.319	0.0135670
717.397	0.0134225
717.475	0.0135126
717.553	0.0136991
717.631	0.0137112
717.709	0.0137985
717.788	0.0142128
717.866	0.0142034
717.944	0.0143710
718.022	0.0146033
718.100	0.0146647
718.178	0.0148086
718.256	0.0150098
718.334	0.0149213
718.413	0.0147118
718.491	0.0145065
718.569	0.0143971
718.647	0.0140067
718.725	0.0140147
718.803	0.0136556
718.881	0.0136776
718.959	0.0136243
719.038	0.0135691
719.116	0.0135140
719.194	0.0137258
719.272	0.0138557
719.350	0.0140520
719.428	0.0142979
719.506	0.0146175
719.584	0.0150735
719.663	0.0155264
719.741	0.0159002
719.819	0.0160863
719.897	0.0165965
719.975	0.0167760
720.053	0.0170898
720.131	0.0173761
720.209	0.0176180
720.288	0.0176938
720.366	0.0180228
720.444	0.0179063
720.522	0.0179633
720.600	0.0180998
720.678	0.0180498
720.756	0.0180000
720.834	0.0178497
720.913	0.0178274
720.991	0.0175404
721.069	0.0175820
721.147	0.0171637
721.225	0.0169147
721.303	0.0167711
721.381	0.0166471
721.459	0.0164692
721.538	0.0163578
721.616	0.0162119
721.694	0.0161355
721.772	0.0161570
721.850	0.0160658
721.928	0.0160814
722.006	0.0161369
722.084	0.0161485
722.163	0.0160534
722.241	0.0160034
722.319	0.0159080
722.397	0.0159538
722.475	0.0156934
722.553	0.0155246
722.631	0.0154338
722.709	0.0151620
722.788	0.0150414
722.866	0.0150938
722.944	0.0148627
723.022	0.0147974
723.100	0.0145758
723.178	0.0144061
723.256	0.0144358
723.334	0.0142238
723.413	0.0141241
723.491	0.0140355
723.569	0.0138590
723.647	0.0137873
723.725	0.0137789
723.803	0.0136965
723.881	0.0138354
723.959	0.0138821
724.038	0.0141451
724.116	0.0140998
724.194	0.0144222
724.272	0.0145419
724.350	0.0147841
724.428	0.0150392
724.506	0.0154343
724.584	0.0157246
724.663	0.0160613
724.741	0.0161549
724.819	0.0163168
724.897	0.0164352
724.975	0.0164539
725.053	0.0164641
725.131	0.0163786
725.209	0.0163389
725.288	0.0163462
725.366	0.0161425
725.444	0.0159301
725.522	0.0156806
725.600	0.0155193
725.678	0.0155493
725.756	0.0152816
725.834	0.0150048
725.913	0.0147781
725.991	0.0146391
726.069	0.0144463
726.147	0.0142687
726.225	0.0141568
726.303	0.0139794
726.381	0.0141114
726.459	0.0141050
726.538	0.0142166
726.616	0.0143130
726.694	0.0145840
726.772	0.0149419
726.850	0.0151797
726.928	0.0156150
727.006	0.0159180
727.084	0.0164315
727.163	0.0166479
727.241	0.0171249
727.319	0.0176310
727.397	0.0177348
727.475	0.0177676
727.553	0.0178713
727.631	0.0179590
727.709	0.0180125
727.788	0.0178550
727.866	0.0177637
727.944	0.0176319
728.022	0.0175335
728.100	0.0174705
728.178	0.0173425
728.256	0.0172646
728.334	0.0171215
728.413	0.0171225
728.491	0.0170450
728.569	0.0171333
728.647	0.0170221
728.725	0.0169447
728.803	0.0168457
728.881	0.0165948
728.959	0.0163303
729.038	0.0162173
729.116	0.0162245
729.194	0.0158041
729.272	0.0155663
729.350	0.0153854
729.428	0.0151823
729.506	0.0149827
729.584	0.0147626
729.663	0.0145506
729.741	0.0144328
729.819	0.0140627
729.897	0.0139613
729.975	0.0137755
730.053	0.0135733
730.131	0.0134647
730.209	0.0134396
730.288	0.0132497
730.366	0.0134724
730.444	0.0135321
730.522	0.0138156
730.600	0.0140490
730.678	0.0143440
730.756	0.0147695
730.834	0.0149632
730.913	0.0152492
730.991	0.0155824
731.069	0.0155948
731.147	0.0158324
731.225	0.0158318
731.303	0.0157762
731.381	0.0158573
731.459	0.0157432
731.538	0.0156731
731.616	0.0154601
731.694	0.0155027
731.772	0.0153807
731.850	0.0152832
731.928	0.0151481
732.006	0.0152100
732.084	0.0153640
732.163	0.0153393
732.241	0.0154532
732.319	0.0154581
732.397	0.0155072
732.475	0.0157001
732.553	0.0156638
732.631	0.0155623
732.709	0.0158209
732.788	0.0157760
732.866	0.0157335
732.944	0.0159053
733.022	0.0158274
733.100	0.0159515
733.178	0.0159624
733.256	0.0159429
733.334	0.0159853
733.413	0.0159020
733.491	0.0158492
733.569	0.0159048
733.647	0.0157037
733.725	0.0157103
733.803	0.0157353
733.881	0.0155943
733.959	0.0155229
734.038	0.0155118
734.116	0.0154090
734.194	0.0152100
734.272	0.0151185
734.350	0.0150520
734.428	0.0148240
734.506	0.0148621
734.584	0.0148565
734.663	0.0150396
734.741	0.0151534
734.819	0.0151618
734.897	0.0154214
734.975	0.0158138
735.053	0.0160544
735.131	0.0161238
735.209	0.0162091
735.288	0.0163016
735.366	0.0165655
735.444	0.0166238
735.522	0.0164989
735.600	0.0164328
735.678	0.0164151
735.756	0.0162899
735.834	0.0163951
735.913	0.0162093
735.991	0.0165088
736.069	0.0166463
736.147	0.0166787
736.225	0.0168248
736.303	0.0170488
736.381	0.0172891
736.459	0.0173335
736.538	0.0174240
736.616	0.0175094
736.694	0.0174984
736.772	0.0173164
736.850	0.0171297
736.928	0.0168446
737.006	0.0166899
737.084	0.0163945
737.163	0.0160852
737.241	0.0156897
737.319	0.0155396
737.397	0.0152177
737.475	0.0148271
737.553	0.0145409
737.631	0.0141587
737.709	0.0138017
737.788	0.0136214
737.866	0.0135835
737.944	0.0132323
738.022	0.0131271
738.100	0.0131254
738.178	0.0129813
738.256	0.0130881
738.334	0.0131827
738.413	0.0132316
738.491	0.0135469
738.569	0.0137648
738.647	0.0140308
738.725	0.0142416
738.803	0.0145840
738.881	0.0147604
738.959	0.0149140
739.038	0.0150940
739.116	0.0152413
739.194	0.0154160
739.272	0.0152611
739.350	0.0151283
739.428	0.0152700
739.506	0.0151881
739.584	0.0151763
739.663	0.0151780
739.741	0.0151176
739.819	0.0153211
739.897	0.0154876
739.975	0.0155770
740.053	0.0156940
740.131	0.0159550
740.209	0.0160409
740.288	0.0161720
740.366	0.0164670
740.444	0.0165360
740.522	0.0165846
740.600	0.0165797
740.678	0.0164708
740.756	0.0166144
740.834	0.0163762
740.913	0.0161712
740.991	0.0158927
741.069	0.0157530
741.147	0.0158020
741.225	0.0157069
741.303	0.0155470
741.381	0.0155142
741.459	0.0154462
741.538	0.0154408
741.616	0.0156722
741.694	0.0157487
741.772	0.0159800
741.850	0.0162125
741.928	0.0163567
742.006	0.0165922
742.084	0.0167103
742.163	0.0168603
742.241	0.0168282
742.319	0.0167012
742.397	0.0167973
742.475	0.0167587
742.553	0.0166012
742.631	0.0167091
742.709	0.0166195
742.788	0.0165170
742.866	0.0163881
742.944	0.0162479
743.022	0.0162418
743.100	0.0159674
743.178	0.0159361
743.256	0.0159526
743.334	0.0158257
743.413	0.0156593
743.491	0.0154585
743.569	0.0153735
743.647	0.0151988
743.725	0.0151162
743.803	0.0151701
743.881	0.0151206
743.959	0.0150083
744.038	0.0149545
744.116	0.0151963
744.194	0.0153522
744.272	0.0153753
744.350	0.0156976
744.428	0.0158955
744.506	0.0160467
744.584	0.0159823
744.663	0.0159135
744.741	0.0161383
744.819	0.0160024
744.897	0.0160062
744.975	0.0158897
745.053	0.0156832
745.131	0.0155912
745.209	0.0151940
745.288	0.0151360
745.366	0.0148438
745.444	0.0146574
745.522	0.0144542
745.600	0.0142861
745.678	0.0141190
745.756	0.0137928
745.834	0.0136169
745.913	0.0135497
745.991	0.0134464
746.069	0.0131415
746.147	0.0131933
746.225	0.0130813
746.303	0.0132374
746.381	0.0135998
746.459	0.0138450
746.538	0.0143039
746.616	0.0145650
746.694	0.0150424
746.772	0.0154240
746.850	0.0159114
746.928	0.0162785
747.006	0.0166313
747.084	0.0167908
747.163	0.0171030
747.241	0.0173834
747.319	0.0174891
747.397	0.0175452
747.475	0.0175230
747.553	0.0176567
747.631	0.0174780
747.709	0.0173856
747.788	0.0173880
747.866	0.0172384
747.944	0.0169188
748.022	0.0167265
748.100	0.0165302
748.178	0.0163169
748.256	0.0159969
748.334	0.0156586
748.413	0.0154610
748.491	0.0154350
748.569	0.0150460
748.647	0.0149393
748.725	0.0146406
748.803	0.0146047
748.881	0.0145264
748.959	0.0144878
749.038	0.0144273
749.116	0.0145419
749.194	0.0145271
749.272	0.0145300
749.350	0.0144669
749.428	0.0145844
749.506	0.0147997
749.584	0.0150698
749.663	0.0152073
749.741	0.0154873
749.819	0.0158813
749.897	0.0160085
749.975	0.0164529
750.053	0.0169207
750.131	0.0171975
750.209	0.0174412
750.288	0.0176368
750.366	0.0176652
750.444	0.0178752
750.522	0.0178040
750.600	0.0176727
750.678	0.0175333
750.756	0.0172775
750.834	0.0169583
750.913	0.0167526
750.991	0.0165016
751.069	0.0160771
751.147	0.0159177
751.225	0.0156811
751.303	0.0154579
751.381	0.0152118
751.459	0.0151996
751.538	0.0151020
751.616	0.0148830
751.694	0.0148724
751.772	0.0150050
751.850	0.0150993
751.928	0.0152486
752.006	0.0151021
752.084	0.0154665
752.163	0.0156898
752.241	0.0158164
752.319	0.0160152
752.397	0.0160806
752.475	0.0161354
752.553	0.0163304
752.631	0.0164065
752.709	0.0163071
752.788	0.0163365
752.866	0.0161804
752.944	0.0159129
753.022	0.0156196
753.100	0.0154119
753.178	0.0150861
753.256	0.0146262
753.334	0.0142747
753.413	0.0139284
753.491	0.0136525
753.569	0.0134289
753.647	0.0131523
753.725	0.0129823
753.803	0.0130443
753.881	0.0129474
753.959	0.0130840
754.038	0.0130402
754.116	0.0131351
754.194	0.0134164
754.272	0.0136907
754.350	0.0137480
754.428	0.0142274
754.506	0.0145935
754.584	0.0148578
754.663	0.0153362
754.741	0.0154616
754.819	0.0160194
754.897	0.0163616
754.975	0.0165862
755.053	0.0167322
755.131	0.0169732
755.209	0.0172764
755.288	0.0174329
755.366	0.0173920
755.444	0.0172925
755.522	0.0174157
755.600	0.0172618
755.678	0.0172074
755.756	0.0170451
755.834	0.0169849
755.913	0.0168916
755.991	0.0165192
756.069	0.0163783
756.147	0.0162221
756.225	0.0160276
756.303	0.0157417
756.381	0.0156732
756.459	0.0155343
756.538	0.0152475
756.616	0.0149923
756.694	0.0150426
756.772	0.0152041
756.850	0.0150831
756.928	0.0150733
757.006	0.0150932
757.084	0.0151855
757.163	0.0152811
757.241	0.0153104
757.319	0.0155099
757.397	0.0154653
757.475	0.0155529
757.553	0.0155396
757.631	0.0156215
757.709	0.0156610
757.788	0.0159226
757.866	0.0160563
757.944	0.0163084
758.022	0.0163336
758.100	0.0165359
758.178	0.0168640
758.256	0.0169346
758.334	0.0171697
758.413	0.0172316
758.491	0.0171248
758.569	0.0171902
758.647	0.0172251
758.725	0.0168935
758.803	0.0167915
758.881	0.0166351
758.959	0.0165868
759.038	0.0163120
759.116	0.0160928
759.194	0.0160099
759.272	0.0158672
759.350	0.0156696
759.428	0.0154893
759.506	0.0152735
759.584	0.0152055
759.663	0.0149974
759.741	0.0146779
759.819	0.0145035
759.897	0.0145446
759.975	0.0143130
760.053	0.0140517
760.131	0.0140145
760.209	0.0138333
760.288	0.0141661
760.366	0.0143741
760.444	0.0146369
760.522	0.0147998
760.600	0.0152358
760.678	0.0151414
760.756	0.0154762
760.834	0.0156367
760.913	0.0157752
760.991	0.0158732
761.069	0.0159109
761.147	0.0157117
761.225	0.0156266
761.303	0.0154348
761.381	0.0151407
761.459	0.0147625
761.538	0.0144078
761.616	0.0140170
761.694	0.0138100
761.772	0.0136372
761.850	0.0134454
761.928	0.0133881
762.006	0.0133517
762.084	0.0133685
762.163	0.0133537
762.241	0.0135833
762.319	0.0137995
762.397	0.0141474
762.475	0.0145940
762.553	0.0149101
762.631	0.0153056
762.709	0.0155350
762.788	0.0159183
762.866	0.0164178
762.944	0.0167147
763.022	0.0169102
763.100	0.0170770
763.178	0.0173630
763.256	0.0174122
763.334	0.0173294
763.413	0.0174317
763.491	0.0172868
763.569	0.0172264
763.647	0.0170808
763.725	0.0167643
763.803	0.0165895
763.881	0.0165452
763.959	0.0164716
764.038	0.0162299
764.116	0.0161195
764.194	0.0159709
764.272	0.0157429
764.350	0.0156617
764.428	0.0155587
764.506	0.0153930
764.584	0.0153931
764.663	0.0151044
764.741	0.0151451
764.819	0.0149500
764.897	0.0149384
764.975	0.0149143
765.053	0.0148268
765.131	0.0148814
765.209	0.0150328
765.288	0.0151685
765.366	0.0152969
765.444	0.0156081
765.522	0.0156146
765.600	0.0160153
765.678	0.0160637
765.756	0.0162299
765.834	0.0165071
765.913	0.0166057
765.991	0.0167545
766.069	0.0168639
766.147	0.0169215
766.225	0.0170504
766.303	0.0170238
766.381	0.0172215
766.459	0.0173019
766.538	0.0173528
766.616	0.0172871
766.694	0.0171493
766.772	0.0171223
766.850	0.0169182
766.928	0.0165950
767.006	0.0164883
767.084	0.0160291
767.163	0.0158712
767.241	0.0155165
767.319	0.0152059
767.397	0.0148491
767.475	0.0146925
767.553	0.0144505
767.631	0.0142842
767.709	0.0138762
767.788	0.0136224
767.866	0.0134142
767.944	0.0134547
768.022	0.0132723
768.100	0.0131667
768.178	0.0131154
768.256	0.0131216
768.334	0.0131937
768.413	0.0134006
768.491	0.0137225
768.569	0.0139031
768.647	0.0142601
768.725	0.0146585
768.803	0.0147707
768.881	0.0151863
768.959	0.0155892
769.038	0.0157415
769.116	0.0158074
769.194	0.0160042
769.272	0.0159828
769.350	0.0158801
769.428	0.0157164
769.506	0.0155876
769.584	0.0154243
769.663	0.0152971
769.741	0.0149590
769.819	0.0146781
769.897	0.0146066
769.975	0.0145776
770.053	0.0144109
770.131	0.0144772
770.209	0.0145864
770.288	0.0146052
770.366	0.0148319
770.444	0.0150989
770.522	0.0151851
770.600	0.0155957
770.678	0.0160248
770.756	0.0163503
770.834	0.0166695
770.913	0.0171677
770.991	0.0173483
771.069	0.0177032
771.147	0.0177600
771.225	0.0178029
771.303	0.0177903
771.381	0.0178677
771.459	0.0177425
771.538	0.0175215
771.616	0.0173154
771.694	0.0170417
771.772	0.0165757
771.850	0.0161407
771.928	0.0159008
772.006	0.0153547
772.084	0.0151166
772.163	0.0148309
772.241	0.0144689
772.319	0.0141332
772.397	0.0140777
772.475	0.0139754
772.553	0.0140129
772.631	0.0141454
772.709	0.0141218
772.788	0.0142503
772.866	0.0145087
772.944	0.0148242
773.022	0.0151154
773.100	0.0154733
773.178	0.0157527
773.256	0.0159384
773.334	0.0162776
773.413	0.0166396
773.491	0.0168897
773.569	0.0171426
773.647	0.0173286
773.725	0.0176075
773.803	0.0176623
773.881	0.0177889
773.959	0.0179442
774.038	0.0178796
774.116	0.0177629
774.194	0.0175986
774.272	0.0175729
774.350	0.0173709
774.428	0.0170100
774.506	0.0167928
774.584	0.0163608
774.663	0.0159645
774.741	0.0154664
774.819	0.0152615
774.897	0.0148470
774.975	0.0144904
775.053	0.0142703
775.131	0.0142199
775.209	0.0138964
775.288	0.0138789
775.366	0.0138628
775.444	0.0137532
775.522	0.0138344
775.600	0.0139447
775.678	0.0142680
775.756	0.0143722
775.834	0.0146304
775.913	0.0150076
775.991	0.0151443
776.069	0.0152457
776.147	0.0154165
776.225	0.0155276
776.303	0.0156125
776.381	0.0155885
776.459	0.0155908
776.538	0.0156290
776.616	0.0156966
776.694	0.0155264
776.772	0.0153917
776.850	0.0152650
776.928	0.0153046
777.006	0.0151961
777.084	0.0149403
777.163	0.0148909
777.241	0.0147820
777.319	0.0146641
777.397	0.0144657
777.475	0.0143618
777.553	0.0142512
777.631	0.0141639
777.709	0.0142211
777.788	0.0142625
777.866	0.0142329
777.944	0.0144399
778.022	0.0147025
778.100	0.0148878
778.178	0.0152473
778.256	0.0154700
778.334	0.0157026
778.413	0.0161751
778.491	0.0163640
778.569	0.0164334
778.647	0.0167548
778.725	0.0169146
778.803	0.0169740
778.881	0.0172499
778.959	0.0173732
779.038	0.0173608
779.116	0.0175047
779.194	0.0175010
779.272	0.0174432
779.350	0.0171923
779.428	0.0169669
779.506	0.0169756
779.584	0.0168076
779.663	0.0166651
779.741	0.0163144
779.819	0.0161304
779.897	0.0158624
779.975	0.0155879
780.053	0.0152731
780.131	0.0149706
780.209	0.0146687
780.288	0.0145799
780.366	0.0143407
780.444	0.0141712
780.522	0.0141645
780.600	0.0141512
780.678	0.0143775
780.756	0.0144797
780.834	0.0145401
780.913	0.0149245
780.991	0.0152171
781.069	0.0155564
781.147	0.0159978
781.225	0.0162973
781.303	0.0167606
781.381	0.0169398
781.459	0.0173415
781.538	0.0176093
781.616	0.0177877
781.694	0.0178026
781.772	0.0178603
781.850	0.0178656
781.928	0.0177996
782.006	0.0175513
782.084	0.0174210
782.163	0.0170795
782.241	0.0167215
782.319	0.0163944
782.397	0.0161728
782.475	0.0157273
782.553	0.0152431
782.631	0.0150395
782.709	0.0146014
782.788	0.0141741
782.866	0.0138409
782.944	0.0135583
783.022	0.0133981
783.100	0.0132326
783.178	0.0131976
783.256	0.0131659
783.334	0.0131726
783.413	0.0132365
783.491	0.0134344
783.569	0.0136112
783.647	0.0140862
783.725	0.0142187
783.803	0.0145454
783.881	0.0148186
783.959	0.0150873
784.038	0.0153609
784.116	0.0158166
784.194	0.0159738
784.272	0.0162113
784.350	0.0162591
784.428	0.0165750
784.506	0.0164754
784.584	0.0165800
784.663	0.0165318
784.741	0.0164272
784.819	0.0160596
784.897	0.0158656
784.975	0.0156441
785.053	0.0154382
785.131	0.0151034
785.209	0.0149013
785.288	0.0146146
785.366	0.0144165
785.444	0.0142917
785.522	0.0142104
785.600	0.0142091
785.678	0.0143721
785.756	0.0144282
785.834	0.0143509
785.913	0.0146506
785.991	0.0147921
786.069	0.0151199
786.147	0.0151321
786.225	0.0154694
786.303	0.0157850
786.381	0.0160013
786.459	0.0163595
786.538	0.0164582
786.616	0.0165225
786.694	0.0167767
786.772	0.0167807
786.850	0.0167709
786.928	0.0169125
787.006	0.0167626
787.084	0.0166477
787.163	0.0167935
787.241	0.0166395
787.319	0.0163563
787.397	0.0163692
787.475	0.0162032
787.553	0.0161989
787.631	0.0159362
787.709	0.0156800
787.788	0.0154372
787.866	0.0152280
787.944	0.0152637
788.022	0.0151328
788.100	0.0148700
788.178	0.0147959
788.256	0.0146601
788.334	0.0146726
788.413	0.0146180
788.491	0.0148548
788.569	0.0147482
788.647	0.0147196
788.725	0.0148586
788.803	0.0151917
788.881	0.0153649
788.959	0.0155587
789.038	0.0157659
789.116	0.0161286
789.194	0.0164137
789.272	0.0166092
789.350	0.0167070
789.428	0.0170008
789.506	0.0171155
789.584	0.0172456
789.663	0.0172038
789.741	0.0171764
789.819	0.0172166
789.897	0.0170592
789.975	0.0169639
790.053	0.0168676
790.131	0.0165714
790.209	0.0162630
790.288	0.0160633
790.366	0.0157832
790.444	0.0154967
790.522	0.0152009
790.600	0.0149915
790.678	0.0148134
790.756	0.0145239
790.834	0.0142364
790.913	0.0141803
790.991	0.0140668
791.069	0.0140750
791.147	0.0142126
791.225	0.0142010
791.303	0.0142816
791.381	0.0142813
791.459	0.0145267
791.538	0.0146397
791.616	0.0147952
791.694	0.0150357
791.772	0.0151588
791.850	0.0153817
791.928	0.0154282
792.006	0.0154884
792.084	0.0155737
792.163	0.0157063
792.241	0.0156744
792.319	0.0157452
792.397	0.0157510
792.475	0.0157123
792.553	0.0156785
792.631	0.0155359
792.709	0.0155355
792.788	0.0156625
792.866	0.0153986
792.944	0.0151904
793.022	0.0152324
793.100	0.0152782
793.178	0.0151051
793.256	0.0150475
793.334	0.0149103
793.413	0.0147839
793.491	0.0147511
793.569	0.0150706
793.647	0.0150266
793.725	0.0149534
793.803	0.0151683
793.881	0.0154423
793.959	0.0155991
794.038	0.0155647
794.116	0.0158382
794.194	0.0159928
794.272	0.0162273
794.350	0.0163332
794.428	0.0166796
794.506	0.0166503
794.584	0.0166057
794.663	0.0167440
794.741	0.0168227
794.819	0.0166456
794.897	0.0166288
794.975	0.0166365
795.053	0.0162591
795.131	0.0162912
795.209	0.0160861
795.288	0.0160657
795.366	0.0158383
795.444	0.0157167
795.522	0.0156484
795.600	0.0156012
795.678	0.0153896
795.756	0.0153114
795.834	0.0150743
795.913	0.0150727
795.991	0.0150138
796.069	0.0148623
796.147	0.0148225
796.225	0.0147164
796.303	0.0146714
796.381	0.0147303
796.459	0.0148190
796.538	0.0148965
796.616	0.0150001
796.694	0.0151899
796.772	0.0153700
796.850	0.0154750
796.928	0.0158784
797.006	0.0160642
797.084	0.0161761
797.163	0.0165117
797.241	0.0167268
797.319	0.0169943
797.397	0.0171535
797.475	0.0170865
797.553	0.0172249
797.631	0.0173634
797.709	0.0172205
797.788	0.0172245
797.866	0.0170261
797.944	0.0169006
798.022	0.0167799
798.100	0.0165004
798.178	0.0161920
798.256	0.0160586
798.334	0.0155824
798.413	0.0153384
798.491	0.0151375
798.569	0.0149857
798.647	0.0146762
798.725	0.0143911
798.803	0.0143019
798.881	0.0143368
798.959	0.0141943
799.038	0.0141354
799.116	0.0141429
799.194	0.0142695
799.272	0.0141801
799.350	0.0144691
799.428	0.0146446
799.506	0.0146941
799.584	0.0148841
799.663	0.0150509
799.741	0.0152359
799.819	0.0155544
799.897	0.0154459
799.975	0.0156337
800.053	0.0158287
800.131	0.0159933
800.209	0.0161463
800.288	0.0161029
800.366	0.0160929
800.444	0.0161498
800.522	0.0160725
800.600	0.0159390
800.678	0.0158352
800.756	0.0156707
800.834	0.0156292
800.913	0.0154048
800.991	0.0152385
801.069	0.0151936
801.147	0.0150168
801.225	0.0149807
801.303	0.0149420
801.381	0.0147928
801.459	0.0148067
801.538	0.0148437
801.616	0.0149145
801.694	0.0149837
801.772	0.0151118
801.850	0.0148656
801.928	0.0151389
802.006	0.0154836
802.084	0.0153988
802.163	0.0156025
802.241	0.0156889
802.319	0.0158123
802.397	0.0159691
802.475	0.0160505
802.553	0.0161801
802.631	0.0162038
802.709	0.0162614
802.788	0.0162877
802.866	0.0163889
802.944	0.0164240
803.022	0.0163573
803.100	0.0164401
803.178	0.0164711
803.256	0.0162685
803.334	0.0162236
803.413	0.0160235
803.491	0.0160242
803.569	0.0160229
803.647	0.0158569
803.725	0.0157736
803.803	0.0156024
803.881	0.0155321
803.959	0.0155261
804.038	0.0155495
804.116	0.0153085
804.194	0.0152240
804.272	0.0153550
804.350	0.0151775
804.428	0.0151373
804.506	0.0151584
804.584	0.0152502
804.663	0.0154877
804.741	0.0154756
804.819	0.0155606
804.897	0.0154729
804.975	0.0157780
805.053	0.0158163
805.131	0.0160857
805.209	0.0162046
805.288	0.0162717
805.366	0.0163532
805.444	0.0163219
805.522	0.0164714
805.600	0.0165029
805.678	0.0165232
805.756	0.0164622
805.834	0.0163242
805.913	0.0162753
805.991	0.0161333
806.069	0.0158460
806.147	0.0156978
806.225	0.0156793
806.303	0.0153732
806.381	0.0152996
806.459	0.0152648
806.538	0.0149538
806.616	0.0147845
806.694	0.0147178
806.772	0.0146741
806.850	0.0144618
806.928	0.0145273
807.006	0.0146808
807.084	0.0146487
807.163	0.0147306
807.241	0.0147525
807.319	0.0149639
807.397	0.0151678
807.475	0.0152339
807.553	0.0154884
807.631	0.0157813
807.709	0.0157484
807.788	0.0158780
807.866	0.0161377
807.944	0.0163100
808.022	0.0161895
808.100	0.0160555
808.178	0.0163002
808.256	0.0162226
808.334	0.0161607
808.413	0.0161201
808.491	0.0159692
808.569	0.0158329
808.647	0.0157497
808.725	0.0156940
808.803	0.0156031
808.881	0.0152897
808.959	0.0151948
809.038	0.0150626
809.116	0.0148260
809.194	0.0147346
809.272	0.0145457
809.350	0.0145039
809.428	0.0144275
809.506	0.0145222
809.584	0.0144906
809.663	0.0144743
809.741	0.0144743
809.819	0.0147285
809.897	0.0147124
809.975	0.0150113
810.053	0.0150647
810.131	0.0152742
810.209	0.0156189
810.288	0.0157713
810.366	0.0159160
810.444	0.0160574
810.522	0.0162267
810.600	0.0163839
810.678	0.0163184
810.756	0.0165283
810.834	0.0163926
810.913	0.0164320
810.991	0.0164815
811.069	0.0164210
811.147	0.0164677
811.225	0.0163902
811.303	0.0163304
811.381	0.0163999
811.459	0.0163734
811.538	0.0163461
811.616	0.0162659
811.694	0.0161167
811.772	0.0160271
811.850	0.0158479
811.928	0.0159485
812.006	0.0158276
812.084	0.0156915
812.163	0.0156051
812.241	0.0155739
812.319	0.0154617
812.397	0.0153725
812.475	0.0154034
812.553	0.0153526
812.631	0.0153174
812.709	0.0153902
812.788	0.0155097
812.866	0.0154320
812.944	0.0156207
813.022	0.0157964
813.100	0.0158000
813.178	0.0157812
813.256	0.0159012
813.334	0.0160788
813.413	0.0162421
813.491	0.0161414
813.569	0.0161543
813.647	0.0163747
813.725	0.0162066
813.803	0.0160066
813.881	0.0160443
813.959	0.0161933
814.038	0.0160303
814.116	0.0157751
814.194	0.0158447
814.272	0.0157977
814.350	0.0155501
814.428	0.0154132
814.506	0.0154120
814.584	0.0152159
814.663	0.0150013
814.741	0.0148076
814.819	0.0147549
814.897	0.0146280
814.975	0.0146287
815.053	0.0145166
815.131	0.0144974
815.209	0.0146165
815.288	0.0145786
815.366	0.0145877
815.444	0.0146930
815.522	0.0148323
815.600	0.0150163
815.678	0.0152524
815.756	0.0154133
815.834	0.0155276
815.913	0.0156383
815.991	0.0158757
816.069	0.0159116
816.147	0.0161526
816.225	0.0161190
816.303	0.0160850
816.381	0.0163091
816.459	0.0163293
816.538	0.0162845
816.616	0.0161840
816.694	0.0162002
816.772	0.0159800
816.850	0.0159665
816.928	0.0159197
817.006	0.0156404
817.084	0.0156503
817.163	0.0155778
817.241	0.0156702
817.319	0.0154536
817.397	0.0154296
817.475	0.0154227
817.553	0.0152859
817.631	0.0152766
817.709	0.0154571
817.788	0.0153177
817.866	0.0154196
817.944	0.0154690
818.022	0.0155286
818.100	0.0155975
818.178	0.0156787
818.256	0.0157797
818.334	0.0158712
818.413	0.0161683
818.491	0.0160140
818.569	0.0160091
818.647	0.0160876
818.725	0.0161165
818.803	0.0159699
818.881	0.0159644
818.959	0.0161694
819.038	0.0160124
819.116	0.0161037
819.194	0.0160835
819.272	0.0160397
819.350	0.0159350
819.428	0.0160586
819.506	0.0159186
819.584	0.0157111
819.663	0.0157143
819.741	0.0155042
819.819	0.0155518
819.897	0.0153808
819.975	0.0153547
820.053	0.0153390
820.131	0.0151089
820.209	0.0150614
820.288	0.0150857
820.366	0.0149301
820.444	0.0151662
820.522	0.0152791
820.600	0.0152410
820.678	0.0153105
820.756	0.0153654
820.834	0.0153176
820.913	0.0154234
820.991	0.0156242
821.069	0.0154492
821.147	0.0157479
821.225	0.0158597
821.303	0.0157343
821.381	0.0158160
821.459	0.0158555
821.538	0.0160158
821.616	0.0159560
821.694	0.0160454
821.772	0.0159843
821.850	0.0159602
821.928	0.0160945
822.006	0.0159846
822.084	0.0158334
822.163	0.0158682
822.241	0.0157874
822.319	0.0156187
822.397	0.0156465
822.475	0.0155573
822.553	0.0153548
822.631	0.0153603
822.709	0.0154821
822.788	0.0152468
822.866	0.0150098
822.944	0.0150533
823.022	0.0149941
823.100	0.0150578
823.178	0.0152380
823.256	0.0151315
823.334	0.0151883
823.413	0.0153620
823.491	0.0154890
823.569	0.0154581
823.647	0.0154759
823.725	0.0157547
823.803	0.0157961
823.881	0.0158648
823.959	0.0158691
824.038	0.0159672
824.116	0.0159421
824.194	0.0160697
824.272	0.0161910
824.350	0.0160856
824.428	0.0161517
824.506	0.0161184
824.584	0.0162807
824.663	0.0161058
824.741	0.0158916
824.819	0.0159866
824.897	0.0160092
824.975	0.0157966
825.053	0.0157146
825.131	0.0156433
825.209	0.0154890
825.288	0.0155521
825.366	0.0153519
825.444	0.0153181
825.522	0.0152701
825.600	0.0151146
825.678	0.0150494
825.756	0.0150536
825.834	0.0150554
825.913	0.0148947
825.991	0.0150151
826.069	0.0151159
826.147	0.0151417
826.225	0.0152021
826.303	0.0152356
826.381	0.0152697
826.459	0.0152753
826.538	0.0154999
826.616	0.0155771
826.694	0.0155946
826.772	0.0157767
826.850	0.0157880
826.928	0.0157721
827.006	0.0158317
827.084	0.0157925
827.163	0.0158163
827.241	0.0157735
827.319	0.0158558
827.397	0.0158232
827.475	0.0157818
827.553	0.0158098
827.631	0.0157349
827.709	0.0156161
827.788	0.0156818
827.866	0.0154563
827.944	0.0154789
828.022	0.0156092
828.100	0.0154375
828.178	0.0153235
828.256	0.0153244
828.334	0.0153879
828.413	0.0152785
828.491	0.0153299
828.569	0.0153560
828.647	0.0153301
828.725	0.0154503
828.803	0.0154404
828.881	0.0154950
828.959	0.0156023
829.038	0.0157653
829.116	0.0158327
829.194	0.0158488
829.272	0.0159496
829.350	0.0159877
829.428	0.0161811
829.506	0.0162468
829.584	0.0163287
829.663	0.0163614
829.741	0.0163416
829.819	0.0163159
829.897	0.0162879
829.975	0.0162849
830.053	0.0163378
830.131	0.0160917
830.209	0.0160217
830.288	0.0159837
830.366	0.0158437
830.444	0.0157553
830.522	0.0156416
830.600	0.0154793
830.678	0.0153338
830.756	0.0153092
830.834	0.0152499
830.913	0.0151192
830.991	0.0150349
831.069	0.0150005
831.147	0.0150478
831.225	0.0149606
831.303	0.0149317
831.381	0.0150437
831.459	0.0151428
831.538	0.0152354
831.616	0.0153374
831.694	0.0154044
831.772	0.0153934
831.850	0.0156382
831.928	0.0155735
832.006	0.0156230
832.084	0.0157495
832.163	0.0157161
832.241	0.0157447
832.319	0.0159372
832.397	0.0158952
832.475	0.0157934
832.553	0.0158591
832.631	0.0157894
832.709	0.0157909
832.788	0.0157084
832.866	0.0157774
832.944	0.0157417
833.022	0.0157198
833.100	0.0155857
833.178	0.0154628
833.256	0.0155688
833.334	0.0155276
833.413	0.0154210
833.491	0.0153491
833.569	0.0153172
833.647	0.0154245
833.725	0.0154026
833.803	0.0153342
833.881	0.0154669
833.959	0.0154315
834.038	0.0155167
834.116	0.0154038
834.194	0.0154717
834.272	0.0155564
834.350	0.0157929
834.428	0.0155659
834.506	0.0155791
834.584	0.0156081
834.663	0.0156731
834.741	0.0155072
834.819	0.0156178
834.897	0.0153988
834.975	0.0157074
835.053	0.0156834
835.131	0.0157468
835.209	0.0157481
835.288	0.0156284
835.366	0.0156296
835.444	0.0157185
835.522	0.0157092
835.600	0.0157664
835.678	0.0156744
835.756	0.0156896
835.834	0.0156204
835.913	0.0156142
835.991	0.0156194
836.069	0.0155650
836.147	0.0155787
836.225	0.0154446
836.303	0.0155013
836.381	0.0155045
836.459	0.0155216
836.538	0.0155916
836.616	0.0155022
836.694	0.0154585
836.772	0.0155807
836.850	0.0156245
836.928	0.0156995
837.006	0.0156429
837.084	0.0157584
837.163	0.0158404
837.241	0.0157248
837.319	0.0159108
837.397	0.0159283
837.475	0.0160036
837.553	0.0159312
837.631	0.0159012
837.709	0.0160745
837.788	0.0160595
837.866	0.0158901
837.944	0.0160365
838.022	0.0159082
838.100	0.0159293
838.178	0.0160095
838.256	0.0158516
838.334	0.0159426
838.413	0.0158440
838.491	0.0156939
838.569	0.0157471
838.647	0.0156506
838.725	0.0155261
838.803	0.0155622
838.881	0.0154309
838.959	0.0152839
839.038	0.0154201
839.116	0.0151554
839.194	0.0152967
839.272	0.0153767
839.350	0.0152205
839.428	0.0153603
839.506	0.0149783
839.584	0.0152079
839.663	0.0152328
839.741	0.0152779
839.819	0.0155079
839.897	0.0155042
839.975	0.0153845
840.053	0.0155508
840.131	0.0156181
840.209	0.0157538
840.288	0.0157143
840.366	0.0158683
840.444	0.0158624
840.522	0.0158422
840.600	0.0159479
840.678	0.0158844
840.756	0.0158437
840.834	0.0158514
840.913	0.0157162
840.991	0.0156091
841.069	0.0157224
841.147	0.0157238
841.225	0.0155438
841.303	0.0155453
841.381	0.0155795
841.459	0.0154537
841.538	0.0153741
841.616	0.0155633
841.694	0.0153099
841.772	0.0154039
841.850	0.0152855
841.928	0.0152328
842.006	0.0153172
842.084	0.0152081
842.163	0.0152428
842.241	0.0153526
842.319	0.0153233
842.397	0.0152922
842.475	0.0154453
842.553	0.0155628
842.631	0.0155647
842.709	0.0156177
842.788	0.0157526
842.866	0.0158507
842.944	0.0158257
843.022	0.0158441
843.100	0.0159426
843.178	0.0159751
843.256	0.0158760
843.334	0.0158904
843.413	0.0159334
843.491	0.0159457
843.569	0.0159188
843.647	0.0157655
843.725	0.0158755
843.803	0.0157068
843.881	0.0156873
843.959	0.0157357
844.038	0.0156022
844.116	0.0155092
844.194	0.0156123
844.272	0.0154562
844.350	0.0154279
844.428	0.0155503
844.506	0.0154353
844.584	0.0154196
844.663	0.0153435
844.741	0.0154005
844.819	0.0154629
844.897	0.0154857
844.975	0.0153999
845.053	0.0155701
845.131	0.0153980
845.209	0.0155567
845.288	0.0156561
845.366	0.0157351
845.444	0.0156364
845.522	0.0157104
845.600	0.0158089
845.678	0.0157539
845.756	0.0158970
845.834	0.0158219
845.913	0.0158492
845.991	0.0159995
846.069	0.0159319
846.147	0.0159362
846.225	0.0159758
846.303	0.0159243
846.381	0.0158591
846.459	0.0158360
846.538	0.0158574
846.616	0.0157785
846.694	0.0155953
846.772	0.0155635
846.850	0.0155811
846.928	0.0154704
847.006	0.0153387
847.084	0.0153578
847.163	0.0154154
847.241	0.0153163
847.319	0.0153337
847.397	0.0153310
847.475	0.0154261
847.553	0.0152924
847.631	0.0153497
847.709	0.0154865
847.788	0.0154424
847.866	0.0155249
847.944	0.0156743
848.022	0.0156341
848.100	0.0155113
848.178	0.0155561
848.256	0.0156535
848.334	0.0157468
848.413	0.0157504
848.491	0.0156715
848.569	0.0156017
848.647	0.0155959
848.725	0.0156061
848.803	0.0156706
848.881	0.0154975
848.959	0.0155657
849.038	0.0155861
849.116	0.0155136
849.194	0.0155098
849.272	0.0154488
849.350	0.0154221
849.428	0.0153605
849.506	0.0154102
849.584	0.0152852
849.663	0.0153294
849.741	0.0152447
849.819	0.0152764
849.897	0.0152520
849.975	0.0152202
850.053	0.0154187
850.131	0.0153774
850.209	0.0152872
850.288	0.0152528
850.366	0.0154375
850.444	0.0154964
850.522	0.0153922
850.600	0.0154321
850.678	0.0155782
850.756	0.0155743
850.834	0.0155312
850.913	0.0155099
850.991	0.0156718
851.069	0.0155638
851.147	0.0156763
851.225	0.0156008
851.303	0.0157358
851.381	0.0155609
851.459	0.0155835
851.538	0.0155544
851.616	0.0155166
851.694	0.0155060
851.772	0.0156113
851.850	0.0156360
851.928	0.0155107
852.006	0.0155033
852.084	0.0156171
852.163	0.0154858
852.241	0.0155502
852.319	0.0154529
852.397	0.0154930
852.475	0.0155226
852.553	0.0156181
852.631	0.0153682
852.709	0.0155473
852.788	0.0156075
852.866	0.0154865
852.944	0.0154013
853.022	0.0155156
853.100	0.0154572
853.178	0.0156036
853.256	0.0155412
853.334	0.0157247
853.413	0.0156049
853.491	0.0157044
853.569	0.0157328
853.647	0.0157371
853.725	0.0158443
853.803	0.0156907
853.881	0.0158017
853.959	0.0157320
854.038	0.0158054
854.116	0.0159383
854.194	0.0157027
854.272	0.0158213
854.350	0.0157914
854.428	0.0157558
854.506	0.0156966
854.584	0.0157268
854.663	0.0157878
854.741	0.0156136
854.819	0.0155729
854.897	0.0155118
854.975	0.0155444
855.053	0.0153398
855.131	0.0154047
855.209	0.0154898
855.288	0.0155082
855.366	0.0154556
855.444	0.0154794
855.522	0.0153906
855.600	0.0152832
855.678	0.0154650
855.756	0.0155040
855.834	0.0155000
855.913	0.0153658
855.991	0.0155727
856.069	0.0154042
856.147	0.0154874
856.225	0.0154415
856.303	0.0154408
856.381	0.0154057
856.459	0.0153658
856.538	0.0155625
856.616	0.0153413
856.694	0.0155955
856.772	0.0154679
856.850	0.0154483
856.928	0.0155431
857.006	0.0156161
857.084	0.0155975
857.163	0.0155455
857.241	0.0155438
857.319	0.0155252
857.397	0.0157066
857.475	0.0155820
857.553	0.0155979
857.631	0.0155204
857.709	0.0154519
857.788	0.0154725
857.866	0.0155096
857.944	0.0155024
858.022	0.0153951
858.100	0.0155265
858.178	0.0153747
858.256	0.0155399
858.334	0.0154628
858.413	0.0154345
858.491	0.0152890
858.569	0.0152949
858.647	0.0153334
858.725	0.0155813
858.803	0.0156008
858.881	0.0155215
858.959	0.0154682
859.038	0.0154854
859.116	0.0157108
859.194	0.0156160
859.272	0.0155489
859.350	0.0157633
859.428	0.0157294
859.506	0.0157139
859.584	0.0157852
859.663	0.0156286
859.741	0.0157989
859.819	0.0158257
859.897	0.0158655
859.975	0.0155688
860.053	0.0157094
860.131	0.0157406
860.209	0.0155923
860.288	0.0156360
860.366	0.0155110
860.444	0.0154813
860.522	0.0156348
860.600	0.0154578
860.678	0.0153733
860.756	0.0156000
860.834	0.0156281
860.913	0.0153916
860.991	0.0154568
861.069	0.0154930
861.147	0.0156445
861.225	0.0155901
861.303	0.0156572
861.381	0.0156946
861.459	0.0156036
861.538	0.0156396
861.616	0.0156828
861.694	0.0157413
861.772	0.0157558
861.850	0.0158529
861.928	0.0158099
862.006	0.0158776
862.084	0.0157703
862.163	0.0158062
862.241	0.0157615
862.319	0.0156545
862.397	0.0157621
862.475	0.0156860
862.553	0.0157904
862.631	0.0157761
862.709	0.0156886
862.788	0.0155758
862.866	0.0156389
862.944	0.0155621
863.022	0.0155415
863.100	0.0155862
863.178	0.0156200
863.256	0.0155731
863.334	0.0153880
863.413	0.0154581
863.491	0.0155286
863.569	0.0154476
863.647	0.0153180
863.725	0.0153259
863.803	0.0153216
863.881	0.0154163
863.959	0.0153667
864.038	0.0152747
864.116	0.0152597
864.194	0.0154131
864.272	0.0154350
864.350	0.0152862
864.428	0.0153340
864.506	0.0154034
864.584	0.0153223
864.663	0.0153297
864.741	0.0153653
864.819	0.0154456
864.897	0.0154669
864.975	0.0154399
865.053	0.0154027
865.131	0.0155363
865.209	0.0154707
865.288	0.0153714
865.366	0.0154296
865.444	0.0154264
865.522	0.0154740
865.600	0.0153621
865.678	0.0153901
865.756	0.0154871
865.834	0.0154201
865.913	0.0152773
865.991	0.0153622
866.069	0.0153856
866.147	0.0154285
866.225	0.0153526
866.303	0.0152807
866.381	0.0153519
866.459	0.0154934
866.538	0.0152992
866.616	0.0153616
866.694	0.0152869
866.772	0.0155050
866.850	0.0155989
866.928	0.0157249
867.006	0.0157179
867.084	0.0157446
867.163	0.0158028
867.241	0.0158474
867.319	0.0158466
867.397	0.0159616
867.475	0.0159669
867.553	0.0158840
867.631	0.0158394
867.709	0.0158070
867.788	0.0159199
867.866	0.0157910
867.944	0.0158575
868.022	0.0158699
868.100	0.0157442
868.178	0.0156371
868.256	0.0157062
868.334	0.0155494
868.413	0.0154411
868.491	0.0156972
868.569	0.0154746
868.647	0.0154853
868.725	0.0153934
868.803	0.0153730
868.881	0.0154070
868.959	0.0152249
869.038	0.0153587
869.116	0.0154580
869.194	0.0153387
869.272	0.0154222
869.350	0.0153728
869.428	0.0154473
869.506	0.0154004
869.584	0.0154988
869.663	0.0155166
869.741	0.0155792
869.819	0.0156159
869.897	0.0156641
869.975	0.0156580
870.053	0.0156881
870.131	0.0157760
870.209	0.0157661
870.288	0.0158189
870.366	0.0157602
870.444	0.0158575
870.522	0.0157609
870.600	0.0157586
870.678	0.0158404
870.756	0.0156561
870.834	0.0157436
870.913	0.0156653
870.991	0.0156604
871.069	0.0156915
871.147	0.0156818
871.225	0.0155344
871.303	0.0156474
871.381	0.0153614
871.459	0.0154218
871.538	0.0154515
871.616	0.0154675
871.694	0.0154771
871.772	0.0153033
871.850	0.0155691
871.928	0.0154692
872.006	0.0154517
872.084	0.0154716
872.163	0.0154405
872.241	0.0155567
872.319	0.0155436
872.397	0.0155521
872.475	0.0155584
872.553	0.0155491
872.631	0.0156769
872.709	0.0155830
872.788	0.0154928
872.866	0.0154330
872.944	0.0156135
873.022	0.0153767
873.100	0.0154401
873.178	0.0154184
873.256	0.0154090
873.334	0.0154278
873.413	0.0153791
873.491	0.0154445
873.569	0.0154805
873.647	0.0153852
873.725	0.0154317
873.803	0.0153029
873.881	0.0155111
873.959	0.0152391
874.038	0.0153379
874.116	0.0153754
874.194	0.0154400
874.272	0.0154991
874.350	0.0155563
874.428	0.0155488
874.506	0.0154890
874.584	0.0154795
874.663	0.0156317
874.741	0.0156818
874.819	0.0157641
874.897	0.0157200
874.975	0.0158708
875.053	0.0156918
875.131	0.0158374
875.209	0.0157777
875.288	0.0158933
875.366	0.0159645
875.444	0.0159779
875.522	0.0157286
875.600	0.0158319
875.678	0.0158231
875.756	0.0157845
875.834	0.0158041
875.913	0.0157450
875.991	0.0155855
876.069	0.0156647
876.147	0.0155258
876.225	0.0155482
876.303	0.0154893
876.381	0.0154782
876.459	0.0154753
876.538	0.0154680
876.616	0.0153449
876.694	0.0154297
876.772	0.0155111
876.850	0.0154205
876.928	0.0153903
877.006	0.0155000
877.084	0.0155155
877.163	0.0153678
877.241	0.0154379
877.319	0.0153786
877.397	0.0155707
877.475	0.0156475
877.553	0.0156827
877.631	0.0157716
877.709	0.0157134
877.788	0.0156540
877.866	0.0156856
877.944	0.0157766
878.022	0.0159042
878.100	0.0157491
878.178	0.0157946
878.256	0.0156400
878.334	0.0158305
878.413	0.0158168
878.491	0.0157564
878.569	0.0156469
878.647	0.0156158
878.725	0.0158597
878.803	0.0156609
878.881	0.0156470
878.959	0.0154570
879.038	0.0152694
879.116	0.0154050
879.194	0.0152700
879.272	0.0152902
879.350	0.0152242
879.428	0.0153584
879.506	0.0153207
879.584	0.0151528
879.663	0.0152414
879.741	0.0154327
879.819	0.0153949
879.897	0.0152752
879.975	0.0153223
880.053	0.0153336
880.131	0.0154151
880.209	0.0155360
880.288	0.0156306
880.366	0.0156693
880.444	0.0154656
880.522	0.0155644
880.600	0.0156087
880.678	0.0154382
880.756	0.0154783
880.834	0.0156005
880.913	0.0155309
880.991	0.0156001
881.069	0.0155540
881.147	0.0156385
881.225	0.0154435
881.303	0.0156073
881.381	0.0155812
881.459	0.0155639
881.538	0.0153886
881.616	0.0153484
881.694	0.0152737
881.772	0.0151939
881.850	0.0151881
881.928	0.0151196
882.006	0.0152694
882.084	0.0152687
882.163	0.0150597
882.241	0.0153081
882.319	0.0152950
882.397	0.0152487
882.475	0.0152847
882.553	0.0154107
882.631	0.0155579
882.709	0.0156087
882.788	0.0157008
882.866	0.0155221
882.944	0.0155322
883.022	0.0157507
883.100	0.0158027
883.178	0.0157277
883.256	0.0157730
883.334	0.0158155
883.413	0.0158719
883.491	0.0158425
883.569	0.0157436
883.647	0.0156797
883.725	0.0156676
883.803	0.0156843
883.881	0.0156117
883.959	0.0156994
884.038	0.0156053
884.116	0.0156613
884.194	0.0156086
884.272	0.0155338
884.350	0.0155076
884.428	0.0156142
884.506	0.0153735
884.584	0.0154521
884.663	0.0154328
884.741	0.0154398
884.819	0.0153941
884.897	0.0152664
884.975	0.0152581
885.053	0.0154637
885.131	0.0153655
885.209	0.0154172
885.288	0.0154739
885.366	0.0153900
885.444	0.0154204
885.522	0.0154430
885.600	0.0156050
885.678	0.0156164
885.756	0.0158198
885.834	0.0157247
885.913	0.0157848
885.991	0.0158082
886.069	0.0158804
886.147	0.0158735
886.225	0.0158275
886.303	0.0157220
886.381	0.0157355
886.459	0.0156660
886.538	0.0155259
886.616	0.0155815
886.694	0.0155899
886.772	0.0153780
886.850	0.0154730
886.928	0.0154160
887.006	0.0154668
887.084	0.0154359
887.163	0.0153568
887.241	0.0154781
887.319	0.0155126
887.397	0.0154691
887.475	0.0155170
887.553	0.0154777
887.631	0.0154452
887.709	0.0155166
887.788	0.0154442
887.866	0.0154127
887.944	0.0154948
888.022	0.0155322
888.100	0.0154701
888.178	0.0155843
888.256	0.0154632
888.334	0.0155471
888.413	0.0157305
888.491	0.0157110
888.569	0.0158338
888.647	0.0157682
888.725	0.0159863
888.803	0.0159248
888.881	0.0158691
888.959	0.0158767
889.038	0.0158598
889.116	0.0157143
889.194	0.0155872
889.272	0.0157304
889.350	0.0156355
889.428	0.0155064
889.506	0.0155551
889.584	0.0154694
889.663	0.0153741
889.741	0.0153516
889.819	0.0152950
889.897	0.0153619
889.975	0.0151910
890.053	0.0152197
890.131	0.0152384
890.209	0.0153313
890.288	0.0152401
890.366	0.0150249
890.444	0.0152194
890.522	0.0153825
890.600	0.0153954
890.678	0.0154392
890.756	0.0156090
890.834	0.0155198
890.913	0.0155459
890.991	0.0156423
891.069	0.0157442
891.147	0.0157801
891.225	0.0159071
891.303	0.0158073
891.381	0.0159950
891.459	0.0160664
891.538	0.0159571
891.616	0.0159987
891.694	0.0158884
891.772	0.0158711
891.850	0.0160594
891.928	0.0159904
892.006	0.0159230
892.084	0.0160002
892.163	0.0158343
892.241	0.0159068
892.319	0.0158372
892.397	0.0158427
892.475	0.0157169
892.553	0.0157752
892.631	0.0157324
892.709	0.0156775
892.788	0.0156706
892.866	0.0154044
892.944	0.0154757
893.022	0.0155477
893.100	0.0153397
893.178	0.0154456
893.256	0.0153557
893.334	0.0153094
893.413	0.0152209
893.491	0.0153206
893.569	0.0151543
893.647	0.0152600
893.725	0.0153177
893.803	0.0154435
893.881	0.0153359
893.959	0.0153321
894.038	0.0153543
894.116	0.0155588
894.194	0.0156422
894.272	0.0157828
894.350	0.0156726
894.428	0.0155976
894.506	0.0156828
894.584	0.0158320
894.663	0.0157244
894.741	0.0157465
894.819	0.0158030
894.897	0.0157270
894.975	0.0157007
895.053	0.0156342
895.131	0.0155144
895.209	0.0156404
895.288	0.0156649
895.366	0.0156049
895.444	0.0156373
895.522	0.0155567
895.600	0.0157324
895.678	0.0157350
895.756	0.0155412
895.834	0.0157146
895.913	0.0156601
895.991	0.0156279
896.069	0.0156074
896.147	0.0156856
896.225	0.0157272
896.303	0.0155373
896.381	0.0155742
896.459	0.0155991
896.538	0.0155036
896.616	0.0155959
896.694	0.0156003
896.772	0.0155565
896.850	0.0155721
896.928	0.0154937
897.006	0.0154926
897.084	0.0154756
897.163	0.0154138
897.241	0.0154583
897.319	0.0153754
897.397	0.0152959
897.475	0.0153970
897.553	0.0155009
897.631	0.0155108
897.709	0.0153861
897.788	0.0155549
897.866	0.0156429
897.944	0.0155882
898.022	0.0158048
898.100	0.0158059
898.178	0.0157266
898.256	0.0157699
898.334	0.0158247
898.413	0.0158791
898.491	0.0159179
898.569	0.0157795
898.647	0.0155859
898.725	0.0155721
898.803	0.0154605
898.881	0.0155458
898.959	0.0155312
899.038	0.0154542
899.116	0.0154069
899.194	0.0155882
899.272	0.0154675
899.350	0.0155754
899.428	0.0154820
899.506	0.0155440
899.584	0.0155046
899.663	0.0155585
899.741	0.0156904
899.819	0.0156065
899.897	0.0155230
899.975	0.0156026
900.053	0.0156256
900.131	0.0155720
900.209	0.0155989
900.288	0.0156744
900.366	0.0156007
900.444	0.0155647
900.522	0.0156290
900.600	0.0156595
900.678	0.0156454
900.756	0.0156415
900.834	0.0156167
900.913	0.0155898
900.991	0.0155905
901.069	0.0156023
901.147	0.0156228
901.225	0.0156449
901.303	0.0155831
901.381	0.0155738
901.459	0.0155630
901.538	0.0155911
901.616	0.0156898
901.694	0.0157241
901.772	0.0156775
901.850	0.0158963
901.928	0.0156653
902.006	0.0156453
902.084	0.0156918
902.163	0.0156231
902.241	0.0156413
902.319	0.0157568
902.397	0.0156152
902.475	0.0157026
902.553	0.0158242
902.631	0.0156770
902.709	0.0157097
902.788	0.0157670
902.866	0.0157699
902.944	0.0157539
903.022	0.0156724
903.100	0.0156709
903.178	0.0156021
903.256	0.0155589
903.334	0.0153996
903.413	0.0153279
903.491	0.0153260
903.569	0.0152630
903.647	0.0152602
903.725	0.0154190
903.803	0.0153040
903.881	0.0153426
903.959	0.0154282
904.038	0.0154712
904.116	0.0154108
904.194	0.0156760
904.272	0.0158072
904.350	0.0156434
904.428	0.0156932
904.506	0.0157399
904.584	0.0157877
904.663	0.0157536
904.741	0.0157343
904.819	0.0156229
904.897	0.0157385
904.975	0.0155554
905.053	0.0156886
905.131	0.0158986
905.209	0.0156334
905.288	0.0156437
905.366	0.0158691
905.444	0.0156326
905.522	0.0158176
905.600	0.0157752
905.678	0.0157438
905.756	0.0157761
905.834	0.0156110
905.913	0.0155089
905.991	0.0154899
906.069	0.0155562
906.147	0.0154935
906.225	0.0153676
906.303	0.0153208
906.381	0.0153363
906.459	0.0153656
906.538	0.0154031
906.616	0.0152573
906.694	0.0152652
906.772	0.0153136
906.850	0.0154026
906.928	0.0153403
907.006	0.0153473
907.084	0.0154427
907.163	0.0156020
907.241	0.0155159
907.319	0.0154778
907.397	0.0154723
907.475	0.0156364
907.553	0.0157713
907.631	0.0157797
907.709	0.0156894
907.788	0.0157012
907.866	0.0157587
907.944	0.0158585
908.022	0.0158707
908.100	0.0157030
908.178	0.0158333
908.256	0.0159220
908.334	0.0158602
908.413	0.0158508
908.491	0.0158986
908.569	0.0157002
908.647	0.0156979
908.725	0.0156281
908.803	0.0155334
908.881	0.0154572
908.959	0.0153974
909.038	0.0153886
909.116	0.0154169
909.194	0.0154054
909.272	0.0154182
909.350	0.0152932
909.428	0.0154576
909.506	0.0155189
909.584	0.0154963
909.663	0.0155921
909.741	0.0156794
909.819	0.0154654
909.897	0.0156052
909.975	0.0157787
910.053	0.0156744
910.131	0.0156231
910.209	0.0155869
910.288	0.0156417
910.366	0.0156422
910.444	0.0156765
910.522	0.0157224
910.600	0.0156046
910.678	0.0155286
910.756	0.0155270
910.834	0.0155845
910.913	0.0155950
910.991	0.0154603
911.069	0.0156037
911.147	0.0155761
911.225	0.0155847
911.303	0.0156244
911.381	0.0155638
911.459	0.0156187
911.538	0.0155788
911.616	0.0156075
911.694	0.0154370
911.772	0.0155901
911.850	0.0154402
911.928	0.0153547
912.006	0.0156192
912.084	0.0156554
912.163	0.0155859
912.241	0.0155573
912.319	0.0156007
912.397	0.0156770
912.475	0.0156746
912.553	0.0156264
912.631	0.0156137
912.709	0.0156931
912.788	0.0156036
912.866	0.0156568
912.944	0.0155880
913.022	0.0156011
913.100	0.0156563
913.178	0.0155759
913.256	0.0153555
913.334	0.0154867
913.413	0.0155727
913.491	0.0153619
913.569	0.0154431
913.647	0.0154131
913.725	0.0153572
913.803	0.0154269
913.881	0.0154974
913.959	0.0153846
914.038	0.0154778
914.116	0.0154369
914.194	0.0154777
914.272	0.0155394
914.350	0.0155207
914.428	0.0155929
914.506	0.0156545
914.584	0.0158152
914.663	0.0157420
914.741	0.0157888
914.819	0.0158329
914.897	0.0156939
914.975	0.0158630
915.053	0.0157862
915.131	0.0156889
915.209	0.0157746
915.288	0.0157096
915.366	0.0159580
915.444	0.0158147
915.522	0.0157410
915.600	0.0156876
915.678	0.0157140
915.756	0.0158375
915.834	0.0156548
915.913	0.0156635
915.991	0.0155827
916.069	0.0156725
916.147	0.0156608
916.225	0.0155467
916.303	0.0155852
916.381	0.0156049
916.459	0.0155183
916.538	0.0155892
916.616	0.0156592
916.694	0.0154618
916.772	0.0153805
916.850	0.0154060
916.928	0.0154077
917.006	0.0154013
917.084	0.0153168
917.163	0.0153712
917.241	0.0153571
917.319	0.0154382
917.397	0.0154030
917.475	0.0154027
917.553	0.0154196
917.631	0.0153536
917.709	0.0153792
917.788	0.0151984
917.866	0.0153887
917.944	0.0154120
918.022	0.0153858
918.100	0.0154691
918.178	0.0154216
918.256	0.0155312
918.334	0.0155566
918.413	0.0154319
918.491	0.0155309
918.569	0.0155464
918.647	0.0156416
918.725	0.0157226
918.803	0.0157172
918.881	0.0157057
918.959	0.0157018
919.038	0.0157681
919.116	0.0157589
919.194	0.0158926
919.272	0.0158923
919.350	0.0157244
919.428	0.0157893
919.506	0.0157497
919.584	0.0157479
919.663	0.0155726
919.741	0.0156055
919.819	0.0156696
919.897	0.0155437
