05/20/2022	20:58:38	Ver.	4.1	UNKNOWN
Optical Delay	599.975067	Delta X		0.078125	Sweeps	1	Scan Rate	0/0
Coordinates	Axis 1	NaN	Axis 2	NaN	Axis 3	NaN	Axis 4	NaN	Axis 5	NaN	Axis 6	0.000000
TX Power	0.000000	RX Power	0.000000

599.975	0.0151725
600.053	0.0150444
600.131	0.0151839
600.209	0.0153696
600.288	0.0152938
600.366	0.0152182
600.444	0.0152628
600.522	0.0151682
600.600	0.0152328
600.678	0.0151094
600.756	0.0150756
600.834	0.0152668
600.913	0.0151901
600.991	0.0152089
601.069	0.0151920
601.147	0.0150881
601.225	0.0150590
601.303	0.0151243
601.381	0.0151086
601.459	0.0151885
601.538	0.0152147
601.616	0.0152531
601.694	0.0150623
601.772	0.0149641
601.850	0.0150449
601.928	0.0151114
602.006	0.0151156
602.084	0.0151687
602.163	0.0152965
602.241	0.0152547
602.319	0.0151842
602.397	0.0150582
602.475	0.0152403
602.553	0.0150909
602.631	0.0150640
602.709	0.0152499
602.788	0.0151892
602.866	0.0151343
602.944	0.0151786
603.022	0.0150353
603.100	0.0150405
603.178	0.0151672
603.256	0.0150878
603.334	0.0152507
603.413	0.0151023
603.491	0.0152046
603.569	0.0152077
603.647	0.0150964
603.725	0.0151016
603.803	0.0151916
603.881	0.0152666
603.959	0.0152028
604.038	0.0152499
604.116	0.0152897
604.194	0.0152340
604.272	0.0151854
604.350	0.0151595
604.428	0.0151719
604.506	0.0152160
604.584	0.0153088
604.663	0.0150662
604.741	0.0151361
604.819	0.0150970
604.897	0.0150967
604.975	0.0150557
605.053	0.0151539
605.131	0.0152563
605.209	0.0151127
605.288	0.0151424
605.366	0.0150928
605.444	0.0152419
605.522	0.0151888
605.600	0.0151242
605.678	0.0151472
605.756	0.0152480
605.834	0.0152711
605.913	0.0153188
605.991	0.0152306
606.069	0.0150886
606.147	0.0150671
606.225	0.0151899
606.303	0.0151231
606.381	0.0150624
606.459	0.0152686
606.538	0.0151357
606.616	0.0151412
606.694	0.0152529
606.772	0.0152131
606.850	0.0151836
606.928	0.0151811
607.006	0.0152419
607.084	0.0152028
607.163	0.0152462
607.241	0.0151921
607.319	0.0151298
607.397	0.0152212
607.475	0.0150407
607.553	0.0151447
607.631	0.0151984
607.709	0.0151048
607.788	0.0150370
607.866	0.0151252
607.944	0.0151620
608.022	0.0151311
608.100	0.0152150
608.178	0.0150069
608.256	0.0150391
608.334	0.0151513
608.413	0.0150505
608.491	0.0151740
608.569	0.0151387
608.647	0.0151326
608.725	0.0150504
608.803	0.0151389
608.881	0.0151991
608.959	0.0151223
609.038	0.0152562
609.116	0.0151121
609.194	0.0150048
609.272	0.0150562
609.350	0.0152058
609.428	0.0151574
609.506	0.0151704
609.584	0.0151736
609.663	0.0150780
609.741	0.0150064
609.819	0.0150948
609.897	0.0151550
609.975	0.0150701
610.053	0.0151736
610.131	0.0153308
610.209	0.0151456
610.288	0.0151894
610.366	0.0153049
610.444	0.0152526
610.522	0.0150820
610.600	0.0151556
610.678	0.0151333
610.756	0.0151050
610.834	0.0151591
610.913	0.0152619
610.991	0.0151597
611.069	0.0152455
611.147	0.0151917
611.225	0.0151996
611.303	0.0151653
611.381	0.0152418
611.459	0.0152586
611.538	0.0152966
611.616	0.0150592
611.694	0.0151167
611.772	0.0152263
611.850	0.0152007
611.928	0.0151852
612.006	0.0151072
612.084	0.0151756
612.163	0.0152073
612.241	0.0150832
612.319	0.0150856
612.397	0.0151714
612.475	0.0152067
612.553	0.0152448
612.631	0.0152173
612.709	0.0152155
612.788	0.0151202
612.866	0.0150986
612.944	0.0152758
613.022	0.0152751
613.100	0.0151973
613.178	0.0149911
613.256	0.0152486
613.334	0.0152438
613.413	0.0152374
613.491	0.0152171
613.569	0.0152324
613.647	0.0151471
613.725	0.0151651
613.803	0.0152224
613.881	0.0150740
613.959	0.0152077
614.038	0.0151257
614.116	0.0151308
614.194	0.0150664
614.272	0.0151530
614.350	0.0152030
614.428	0.0150056
614.506	0.0152480
614.584	0.0152242
614.663	0.0151195
614.741	0.0150860
614.819	0.0152593
614.897	0.0152663
614.975	0.0150957
615.053	0.0150349
615.131	0.0151602
615.209	0.0152110
615.288	0.0150330
615.366	0.0151375
615.444	0.0152187
615.522	0.0152172
615.600	0.0150237
615.678	0.0151799
615.756	0.0152509
615.834	0.0151647
615.913	0.0151637
615.991	0.0150525
616.069	0.0151207
616.147	0.0150999
616.225	0.0150041
616.303	0.0152330
616.381	0.0151536
616.459	0.0151260
616.538	0.0151625
616.616	0.0150711
616.694	0.0150206
616.772	0.0152909
616.850	0.0151402
616.928	0.0151501
617.006	0.0150851
617.084	0.0151154
617.163	0.0152345
617.241	0.0150684
617.319	0.0151733
617.397	0.0151678
617.475	0.0150762
617.553	0.0151683
617.631	0.0153025
617.709	0.0151060
617.788	0.0153314
617.866	0.0151583
617.944	0.0152083
618.022	0.0150395
618.100	0.0150572
618.178	0.0151750
618.256	0.0152611
618.334	0.0151928
618.413	0.0152077
618.491	0.0150601
618.569	0.0150932
618.647	0.0150700
618.725	0.0151929
618.803	0.0152616
618.881	0.0151382
618.959	0.0150399
619.038	0.0152765
619.116	0.0151639
619.194	0.0152339
619.272	0.0150965
619.350	0.0151093
619.428	0.0150370
619.506	0.0152116
619.584	0.0150700
619.663	0.0151031
619.741	0.0150026
619.819	0.0151283
619.897	0.0151553
619.975	0.0151728
620.053	0.0151648
620.131	0.0149822
620.209	0.0151972
620.288	0.0151511
620.366	0.0151410
620.444	0.0151815
620.522	0.0150417
620.600	0.0151812
620.678	0.0152822
620.756	0.0151202
620.834	0.0151114
620.913	0.0151125
620.991	0.0153166
621.069	0.0150833
621.147	0.0151625
621.225	0.0152839
621.303	0.0152612
621.381	0.0152125
621.459	0.0151663
621.538	0.0152023
621.616	0.0152302
621.694	0.0153079
621.772	0.0152633
621.850	0.0151878
621.928	0.0151936
622.006	0.0152431
622.084	0.0153131
622.163	0.0152821
622.241	0.0152076
622.319	0.0152585
622.397	0.0152509
622.475	0.0151486
622.553	0.0152786
622.631	0.0152389
622.709	0.0151905
622.788	0.0152324
622.866	0.0151749
622.944	0.0151802
623.022	0.0150709
623.100	0.0150674
623.178	0.0151936
623.256	0.0150735
623.334	0.0152183
623.413	0.0152151
623.491	0.0152019
623.569	0.0152359
623.647	0.0153217
623.725	0.0151345
623.803	0.0151715
623.881	0.0152313
623.959	0.0152123
624.038	0.0151944
624.116	0.0152037
624.194	0.0152226
624.272	0.0151579
624.350	0.0153511
624.428	0.0152324
624.506	0.0152431
624.584	0.0152465
624.663	0.0151328
624.741	0.0151650
624.819	0.0151339
624.897	0.0152332
624.975	0.0153053
625.053	0.0151662
625.131	0.0152732
625.209	0.0151733
625.288	0.0153059
625.366	0.0152499
625.444	0.0151702
625.522	0.0151888
625.600	0.0152119
625.678	0.0152341
625.756	0.0152796
625.834	0.0152487
625.913	0.0152699
625.991	0.0151959
626.069	0.0152850
626.147	0.0151208
626.225	0.0151958
626.303	0.0152424
626.381	0.0152020
626.459	0.0153116
626.538	0.0150994
626.616	0.0152907
626.694	0.0152786
626.772	0.0152354
626.850	0.0152952
626.928	0.0152402
627.006	0.0152898
627.084	0.0151793
627.163	0.0152290
627.241	0.0151436
627.319	0.0152202
627.397	0.0153210
627.475	0.0153275
627.553	0.0151248
627.631	0.0152454
627.709	0.0153783
627.788	0.0152761
627.866	0.0153049
627.944	0.0153167
628.022	0.0152799
628.100	0.0152672
628.178	0.0153902
628.256	0.0152293
628.334	0.0152450
628.413	0.0151028
628.491	0.0153471
628.569	0.0153265
628.647	0.0152254
628.725	0.0153439
628.803	0.0153444
628.881	0.0151721
628.959	0.0153101
629.038	0.0152673
629.116	0.0152532
629.194	0.0153796
629.272	0.0153175
629.350	0.0152456
629.428	0.0151642
629.506	0.0152797
629.584	0.0154158
629.663	0.0151913
629.741	0.0152354
629.819	0.0152311
629.897	0.0152829
629.975	0.0153452
630.053	0.0152341
630.131	0.0152381
630.209	0.0151649
630.288	0.0152064
630.366	0.0151545
630.444	0.0152955
630.522	0.0152544
630.600	0.0151356
630.678	0.0152783
630.756	0.0152238
630.834	0.0152897
630.913	0.0152410
630.991	0.0152170
631.069	0.0151096
631.147	0.0152216
631.225	0.0150713
631.303	0.0152007
631.381	0.0152755
631.459	0.0153293
631.538	0.0151263
631.616	0.0151146
631.694	0.0152686
631.772	0.0152401
631.850	0.0152191
631.928	0.0152007
632.006	0.0152217
632.084	0.0152073
632.163	0.0151748
632.241	0.0151228
632.319	0.0152606
632.397	0.0153831
632.475	0.0152022
632.553	0.0151259
632.631	0.0152102
632.709	0.0151071
632.788	0.0151331
632.866	0.0152080
632.944	0.0150793
633.022	0.0151204
633.100	0.0151344
633.178	0.0151756
633.256	0.0151163
633.334	0.0150785
633.413	0.0151881
633.491	0.0152161
633.569	0.0150870
633.647	0.0151430
633.725	0.0149923
633.803	0.0150074
633.881	0.0150536
633.959	0.0150764
634.038	0.0150964
634.116	0.0151295
634.194	0.0149653
634.272	0.0149866
634.350	0.0150956
634.428	0.0150114
634.506	0.0150522
634.584	0.0150343
634.663	0.0149270
634.741	0.0150570
634.819	0.0150130
634.897	0.0150157
634.975	0.0149486
635.053	0.0148712
635.131	0.0150617
635.209	0.0150064
635.288	0.0150327
635.366	0.0150517
635.444	0.0150311
635.522	0.0148999
635.600	0.0149819
635.678	0.0149754
635.756	0.0148893
635.834	0.0150205
635.913	0.0150787
635.991	0.0151454
636.069	0.0150648
636.147	0.0150700
636.225	0.0150655
636.303	0.0150421
636.381	0.0149574
636.459	0.0149684
636.538	0.0150552
636.616	0.0148917
636.694	0.0149687
636.772	0.0151041
636.850	0.0150255
636.928	0.0150295
637.006	0.0150969
637.084	0.0148158
637.163	0.0150407
637.241	0.0151353
637.319	0.0150150
637.397	0.0150269
637.475	0.0151286
637.553	0.0150491
637.631	0.0149750
637.709	0.0151395
637.788	0.0151746
637.866	0.0151074
637.944	0.0150507
638.022	0.0151819
638.100	0.0151516
638.178	0.0152515
638.256	0.0151164
638.334	0.0151440
638.413	0.0150646
638.491	0.0151101
638.569	0.0150475
638.647	0.0149886
638.725	0.0151507
638.803	0.0151361
638.881	0.0151154
638.959	0.0151884
639.038	0.0151454
639.116	0.0151116
639.194	0.0151048
639.272	0.0150874
639.350	0.0150814
639.428	0.0150996
639.506	0.0150047
639.584	0.0150200
639.663	0.0150692
639.741	0.0151746
639.819	0.0151107
639.897	0.0151460
639.975	0.0150363
640.053	0.0150275
640.131	0.0151118
640.209	0.0151384
640.288	0.0152039
640.366	0.0151982
640.444	0.0151974
640.522	0.0150519
640.600	0.0151021
640.678	0.0150144
640.756	0.0151363
640.834	0.0150927
640.913	0.0151068
640.991	0.0152279
641.069	0.0152576
641.147	0.0151167
641.225	0.0151904
641.303	0.0151521
641.381	0.0152745
641.459	0.0151048
641.538	0.0151781
641.616	0.0153602
641.694	0.0152615
641.772	0.0152280
641.850	0.0152560
641.928	0.0151080
642.006	0.0152691
642.084	0.0153053
642.163	0.0151955
642.241	0.0152576
642.319	0.0153153
642.397	0.0151759
642.475	0.0152108
642.553	0.0152467
642.631	0.0151272
642.709	0.0152480
642.788	0.0152592
642.866	0.0152612
642.944	0.0152499
643.022	0.0151649
643.100	0.0152623
643.178	0.0151942
643.256	0.0151479
643.334	0.0150505
643.413	0.0151684
643.491	0.0153170
643.569	0.0152345
643.647	0.0151411
643.725	0.0151659
643.803	0.0153716
643.881	0.0152513
643.959	0.0152565
644.038	0.0151637
644.116	0.0152485
644.194	0.0152829
644.272	0.0153817
644.350	0.0153307
644.428	0.0151696
644.506	0.0150741
644.584	0.0152006
644.663	0.0151974
644.741	0.0154792
644.819	0.0153522
644.897	0.0152281
644.975	0.0152767
645.053	0.0152254
645.131	0.0152260
645.209	0.0153571
645.288	0.0152718
645.366	0.0152242
645.444	0.0153245
645.522	0.0152348
645.600	0.0152702
645.678	0.0152898
645.756	0.0153030
645.834	0.0152887
645.913	0.0154502
645.991	0.0152840
646.069	0.0152699
646.147	0.0153749
646.225	0.0152646
646.303	0.0152549
646.381	0.0153726
646.459	0.0153461
646.538	0.0154233
646.616	0.0152792
646.694	0.0153395
646.772	0.0153268
646.850	0.0152643
646.928	0.0152899
647.006	0.0153375
647.084	0.0154442
647.163	0.0153059
647.241	0.0151780
647.319	0.0152945
647.397	0.0153712
647.475	0.0152918
647.553	0.0153619
647.631	0.0153744
647.709	0.0153836
647.788	0.0153380
647.866	0.0153129
647.944	0.0152554
648.022	0.0153461
648.100	0.0154798
648.178	0.0152658
648.256	0.0153718
648.334	0.0153409
648.413	0.0152114
648.491	0.0153861
648.569	0.0154780
648.647	0.0153384
648.725	0.0152083
648.803	0.0152608
648.881	0.0152835
648.959	0.0153542
649.038	0.0151553
649.116	0.0153126
649.194	0.0152412
649.272	0.0153359
649.350	0.0153712
649.428	0.0153007
649.506	0.0152997
649.584	0.0153568
649.663	0.0152790
649.741	0.0153268
649.819	0.0153400
649.897	0.0154280
649.975	0.0152712
650.053	0.0153341
650.131	0.0154186
650.209	0.0153494
650.288	0.0151508
650.366	0.0152156
650.444	0.0152921
650.522	0.0153580
650.600	0.0153172
650.678	0.0154234
650.756	0.0152764
650.834	0.0153393
650.913	0.0153477
650.991	0.0152783
651.069	0.0152106
651.147	0.0151897
651.225	0.0153446
651.303	0.0152689
651.381	0.0152388
651.459	0.0153431
651.538	0.0153815
651.616	0.0152939
651.694	0.0153224
651.772	0.0152470
651.850	0.0153596
651.928	0.0152312
652.006	0.0152203
652.084	0.0152421
652.163	0.0153040
652.241	0.0153217
652.319	0.0152438
652.397	0.0151043
652.475	0.0152444
652.553	0.0152460
652.631	0.0152074
652.709	0.0151954
652.788	0.0150985
652.866	0.0152367
652.944	0.0151272
653.022	0.0151939
653.100	0.0152687
653.178	0.0151701
653.256	0.0153475
653.334	0.0150957
653.413	0.0151559
653.491	0.0152710
653.569	0.0152409
653.647	0.0151519
653.725	0.0151391
653.803	0.0151204
653.881	0.0151749
653.959	0.0150423
654.038	0.0150809
654.116	0.0151668
654.194	0.0151917
654.272	0.0151477
654.350	0.0150504
654.428	0.0150992
654.506	0.0151921
654.584	0.0151477
654.663	0.0151129
654.741	0.0150800
654.819	0.0150386
654.897	0.0151384
654.975	0.0150307
655.053	0.0150923
655.131	0.0150760
655.209	0.0150941
655.288	0.0150841
655.366	0.0151157
655.444	0.0150193
655.522	0.0151559
655.600	0.0151041
655.678	0.0150042
655.756	0.0150245
655.834	0.0150027
655.913	0.0150048
655.991	0.0149816
656.069	0.0150649
656.147	0.0151222
656.225	0.0151921
656.303	0.0151674
656.381	0.0150551
656.459	0.0150259
656.538	0.0151035
656.616	0.0149973
656.694	0.0152164
656.772	0.0151318
656.850	0.0149574
656.928	0.0150001
657.006	0.0150178
657.084	0.0150252
657.163	0.0150412
657.241	0.0150930
657.319	0.0150677
657.397	0.0150318
657.475	0.0150344
657.553	0.0149029
657.631	0.0149320
657.709	0.0150269
657.788	0.0150523
657.866	0.0150261
657.944	0.0149364
658.022	0.0149835
658.100	0.0151058
658.178	0.0150185
658.256	0.0150137
658.334	0.0149430
658.413	0.0150877
658.491	0.0151490
658.569	0.0150152
658.647	0.0149645
658.725	0.0149950
658.803	0.0148428
658.881	0.0151065
658.959	0.0150742
659.038	0.0149474
659.116	0.0150357
659.194	0.0149847
659.272	0.0150534
659.350	0.0151486
659.428	0.0150690
659.506	0.0150414
659.584	0.0150437
659.663	0.0150399
659.741	0.0150746
659.819	0.0150266
659.897	0.0151093
659.975	0.0152314
660.053	0.0149818
660.131	0.0151128
660.209	0.0149162
660.288	0.0149648
660.366	0.0151485
660.444	0.0151922
660.522	0.0150352
660.600	0.0149666
660.678	0.0149645
660.756	0.0151018
660.834	0.0151653
660.913	0.0150872
660.991	0.0151526
661.069	0.0151237
661.147	0.0152148
661.225	0.0151225
661.303	0.0152615
661.381	0.0152706
661.459	0.0151322
661.538	0.0151765
661.616	0.0150031
661.694	0.0150813
661.772	0.0151611
661.850	0.0151289
661.928	0.0152366
662.006	0.0151743
662.084	0.0150679
662.163	0.0152595
662.241	0.0151882
662.319	0.0153085
662.397	0.0151639
662.475	0.0151454
662.553	0.0151336
662.631	0.0151400
662.709	0.0151987
662.788	0.0151208
662.866	0.0150543
662.944	0.0151700
663.022	0.0152214
663.100	0.0150343
663.178	0.0150626
663.256	0.0151277
663.334	0.0152174
663.413	0.0152939
663.491	0.0151333
663.569	0.0151122
663.647	0.0150296
663.725	0.0151136
663.803	0.0150486
663.881	0.0149990
663.959	0.0150954
664.038	0.0152880
664.116	0.0151709
664.194	0.0151714
664.272	0.0152818
664.350	0.0153503
664.428	0.0151691
664.506	0.0153623
664.584	0.0153767
664.663	0.0152607
664.741	0.0153266
664.819	0.0153989
664.897	0.0152994
664.975	0.0152357
665.053	0.0152933
665.131	0.0154531
665.209	0.0152209
665.288	0.0152980
665.366	0.0152817
665.444	0.0151730
665.522	0.0152883
665.600	0.0151997
665.678	0.0151104
665.756	0.0152007
665.834	0.0150497
665.913	0.0150097
665.991	0.0151480
666.069	0.0150642
666.147	0.0149294
666.225	0.0149340
666.303	0.0148862
666.381	0.0148866
666.459	0.0150321
666.538	0.0149865
666.616	0.0149937
666.694	0.0149982
666.772	0.0151421
666.850	0.0151976
666.928	0.0150814
667.006	0.0152758
667.084	0.0152380
667.163	0.0152686
667.241	0.0152596
667.319	0.0152953
667.397	0.0153631
667.475	0.0153587
667.553	0.0155771
667.631	0.0155543
667.709	0.0155200
667.788	0.0153307
667.866	0.0153745
667.944	0.0155800
668.022	0.0154830
668.100	0.0154876
668.178	0.0155628
668.256	0.0153813
668.334	0.0153117
668.413	0.0152282
668.491	0.0152009
668.569	0.0152424
668.647	0.0152262
668.725	0.0152100
668.803	0.0150926
668.881	0.0151170
668.959	0.0151775
669.038	0.0150930
669.116	0.0150212
669.194	0.0150047
669.272	0.0150913
669.350	0.0151118
669.428	0.0150605
669.506	0.0150582
669.584	0.0151771
669.663	0.0151769
669.741	0.0153009
669.819	0.0152468
669.897	0.0151678
669.975	0.0152423
670.053	0.0151262
670.131	0.0151351
670.209	0.0153073
670.288	0.0152235
670.366	0.0151817
670.444	0.0152397
670.522	0.0151093
670.600	0.0151505
670.678	0.0153080
670.756	0.0151849
670.834	0.0152948
670.913	0.0154276
670.991	0.0154115
671.069	0.0152426
671.147	0.0152978
671.225	0.0153797
671.303	0.0153535
671.381	0.0153159
671.459	0.0154369
671.538	0.0153209
671.616	0.0153770
671.694	0.0154198
671.772	0.0152245
671.850	0.0154023
671.928	0.0154631
672.006	0.0154656
672.084	0.0154353
672.163	0.0154267
672.241	0.0153368
672.319	0.0153589
672.397	0.0152568
672.475	0.0153578
672.553	0.0154139
672.631	0.0153423
672.709	0.0153145
672.788	0.0153024
672.866	0.0151966
672.944	0.0153165
673.022	0.0152826
673.100	0.0150436
673.178	0.0150880
673.256	0.0149980
673.334	0.0150750
673.413	0.0150312
673.491	0.0149053
673.569	0.0149250
673.647	0.0149484
673.725	0.0148930
673.803	0.0149277
673.881	0.0150019
673.959	0.0150109
674.038	0.0149686
674.116	0.0149078
674.194	0.0149148
674.272	0.0149221
674.350	0.0151122
674.428	0.0150650
674.506	0.0150783
674.584	0.0151811
674.663	0.0152332
674.741	0.0151506
674.819	0.0153783
674.897	0.0154560
674.975	0.0155474
675.053	0.0154248
675.131	0.0154630
675.209	0.0154382
675.288	0.0155596
675.366	0.0156904
675.444	0.0156388
675.522	0.0156995
675.600	0.0155972
675.678	0.0157150
675.756	0.0157063
675.834	0.0155461
675.913	0.0156416
675.991	0.0156950
676.069	0.0154933
676.147	0.0154713
676.225	0.0154710
676.303	0.0152630
676.381	0.0153109
676.459	0.0151839
676.538	0.0150610
676.616	0.0150040
676.694	0.0149129
676.772	0.0148793
676.850	0.0146529
676.928	0.0148110
677.006	0.0149055
677.084	0.0147660
677.163	0.0147012
677.241	0.0146883
677.319	0.0145906
677.397	0.0147777
677.475	0.0146812
677.553	0.0147579
677.631	0.0148814
677.709	0.0148452
677.788	0.0149524
677.866	0.0148535
677.944	0.0149722
678.022	0.0151559
678.100	0.0150544
678.178	0.0151811
678.256	0.0152762
678.334	0.0152969
678.413	0.0154307
678.491	0.0154487
678.569	0.0155073
678.647	0.0155584
678.725	0.0154786
678.803	0.0155093
678.881	0.0154267
678.959	0.0154335
679.038	0.0155768
679.116	0.0155681
679.194	0.0156553
679.272	0.0155386
679.350	0.0156663
679.428	0.0153558
679.506	0.0153311
679.584	0.0155103
679.663	0.0153890
679.741	0.0153114
679.819	0.0153152
679.897	0.0153161
679.975	0.0152178
680.053	0.0151873
680.131	0.0151974
680.209	0.0151435
680.288	0.0150716
680.366	0.0152043
680.444	0.0150633
680.522	0.0149747
680.600	0.0149320
680.678	0.0147101
680.756	0.0147049
680.834	0.0147631
680.913	0.0146693
680.991	0.0147414
681.069	0.0147640
681.147	0.0145489
681.225	0.0146210
681.303	0.0146939
681.381	0.0147023
681.459	0.0148273
681.538	0.0148311
681.616	0.0147960
681.694	0.0148529
681.772	0.0151105
681.850	0.0150333
681.928	0.0151073
682.006	0.0150954
682.084	0.0151704
682.163	0.0154231
682.241	0.0153310
682.319	0.0153423
682.397	0.0153947
682.475	0.0154545
682.553	0.0153891
682.631	0.0153981
682.709	0.0154644
682.788	0.0157561
682.866	0.0156760
682.944	0.0155945
683.022	0.0156293
683.100	0.0157811
683.178	0.0158212
683.256	0.0156342
683.334	0.0155087
683.413	0.0153090
683.491	0.0153300
683.569	0.0151160
683.647	0.0150017
683.725	0.0147988
683.803	0.0146217
683.881	0.0143790
683.959	0.0143413
684.038	0.0143229
684.116	0.0144189
684.194	0.0142313
684.272	0.0143584
684.350	0.0144467
684.428	0.0144054
684.506	0.0145514
684.584	0.0147604
684.663	0.0149047
684.741	0.0148949
684.819	0.0149393
684.897	0.0152135
684.975	0.0152477
685.053	0.0155653
685.131	0.0155141
685.209	0.0155158
685.288	0.0156762
685.366	0.0157196
685.444	0.0156667
685.522	0.0157210
685.600	0.0156310
685.678	0.0155994
685.756	0.0154485
685.834	0.0153326
685.913	0.0153880
685.991	0.0153773
686.069	0.0152844
686.147	0.0151781
686.225	0.0151911
686.303	0.0152029
686.381	0.0150517
686.459	0.0150590
686.538	0.0150462
686.616	0.0150257
686.694	0.0146989
686.772	0.0145344
686.850	0.0144806
686.928	0.0142707
687.006	0.0141574
687.084	0.0140119
687.163	0.0140970
687.241	0.0139272
687.319	0.0140405
687.397	0.0142627
687.475	0.0144201
687.553	0.0147042
687.631	0.0148654
687.709	0.0153074
687.788	0.0155771
687.866	0.0155898
687.944	0.0157905
688.022	0.0161834
688.100	0.0162688
688.178	0.0164292
688.256	0.0164023
688.334	0.0164986
688.413	0.0165238
688.491	0.0165064
688.569	0.0164171
688.647	0.0162582
688.725	0.0162035
688.803	0.0160637
688.881	0.0158564
688.959	0.0154810
689.038	0.0153922
689.116	0.0151641
689.194	0.0148792
689.272	0.0146939
689.350	0.0145206
689.428	0.0143993
689.506	0.0140904
689.584	0.0140112
689.663	0.0137450
689.741	0.0135863
689.819	0.0133810
689.897	0.0132543
689.975	0.0132815
690.053	0.0133711
690.131	0.0133158
690.209	0.0133057
690.288	0.0135911
690.366	0.0139594
690.444	0.0141811
690.522	0.0144668
690.600	0.0148663
690.678	0.0151266
690.756	0.0154332
690.834	0.0157423
690.913	0.0161176
690.991	0.0163903
691.069	0.0164431
691.147	0.0165716
691.225	0.0167551
691.303	0.0168948
691.381	0.0168132
691.459	0.0167870
691.538	0.0167988
691.616	0.0165903
691.694	0.0164358
691.772	0.0163374
691.850	0.0162432
691.928	0.0162346
692.006	0.0161105
692.084	0.0160332
692.163	0.0158690
692.241	0.0158216
692.319	0.0156738
692.397	0.0154850
692.475	0.0151049
692.553	0.0149540
692.631	0.0146489
692.709	0.0140386
692.788	0.0135918
692.866	0.0133393
692.944	0.0130025
693.022	0.0126971
693.100	0.0124760
693.178	0.0124168
693.256	0.0126013
693.334	0.0127419
693.413	0.0130584
693.491	0.0136977
693.569	0.0142130
693.647	0.0148905
693.725	0.0155840
693.803	0.0163081
693.881	0.0168663
693.959	0.0174690
694.038	0.0179624
694.116	0.0183111
694.194	0.0182671
694.272	0.0181726
694.350	0.0179754
694.428	0.0176277
694.506	0.0172043
694.584	0.0167702
694.663	0.0162939
694.741	0.0158904
694.819	0.0152303
694.897	0.0148588
694.975	0.0146683
695.053	0.0143946
695.131	0.0141595
695.209	0.0139764
695.288	0.0138205
695.366	0.0137055
695.444	0.0136308
695.522	0.0134128
695.600	0.0131674
695.678	0.0131761
695.756	0.0129764
695.834	0.0126006
695.913	0.0124723
695.991	0.0126411
696.069	0.0126962
696.147	0.0127995
696.225	0.0131285
696.303	0.0135383
696.381	0.0142036
696.459	0.0147010
696.538	0.0153281
696.616	0.0158931
696.694	0.0165564
696.772	0.0171040
696.850	0.0176752
696.928	0.0181496
697.006	0.0185966
697.084	0.0189065
697.163	0.0190231
697.241	0.0190852
697.319	0.0191373
697.397	0.0189821
697.475	0.0187135
697.553	0.0185337
697.631	0.0182143
697.709	0.0177267
697.788	0.0174058
697.866	0.0168384
697.944	0.0165185
698.022	0.0158872
698.100	0.0152609
698.178	0.0147980
698.256	0.0143631
698.334	0.0137789
698.413	0.0132622
698.491	0.0128576
698.569	0.0124180
698.647	0.0120939
698.725	0.0119960
698.803	0.0116237
698.881	0.0115269
698.959	0.0116001
699.038	0.0116873
699.116	0.0118559
699.194	0.0118508
699.272	0.0122316
699.350	0.0124775
699.428	0.0128786
699.506	0.0131082
699.584	0.0135640
699.663	0.0138557
699.741	0.0141808
699.819	0.0143827
699.897	0.0148252
699.975	0.0151630
700.053	0.0155391
700.131	0.0158759
700.209	0.0161105
700.288	0.0165694
700.366	0.0168826
700.444	0.0172215
700.522	0.0177384
700.600	0.0179093
700.678	0.0182225
700.756	0.0185160
700.834	0.0188398
700.913	0.0189626
700.991	0.0190471
701.069	0.0189898
701.147	0.0187807
701.225	0.0187254
701.303	0.0185888
701.381	0.0179568
701.459	0.0172254
701.538	0.0167971
701.616	0.0160638
701.694	0.0155000
701.772	0.0147852
701.850	0.0140237
701.928	0.0135739
702.006	0.0130068
702.084	0.0124140
702.163	0.0121221
702.241	0.0117412
702.319	0.0118996
702.397	0.0117228
702.475	0.0117680
702.553	0.0118434
702.631	0.0122058
702.709	0.0126318
702.788	0.0129720
702.866	0.0133323
702.944	0.0137446
703.022	0.0140282
703.100	0.0144162
703.178	0.0148123
703.256	0.0153022
703.334	0.0156028
703.413	0.0160635
703.491	0.0165611
703.569	0.0168615
703.647	0.0172144
703.725	0.0173033
703.803	0.0174650
703.881	0.0173991
703.959	0.0172845
704.038	0.0172544
704.116	0.0170607
704.194	0.0167225
704.272	0.0163618
704.350	0.0161023
704.428	0.0157681
704.506	0.0152757
704.584	0.0149336
704.663	0.0147017
704.741	0.0144997
704.819	0.0142271
704.897	0.0139792
704.975	0.0137623
705.053	0.0136936
705.131	0.0135988
705.209	0.0133730
705.288	0.0133639
705.366	0.0134868
705.444	0.0130915
705.522	0.0132334
705.600	0.0131926
705.678	0.0134046
705.756	0.0134902
705.834	0.0137905
705.913	0.0139881
705.991	0.0142940
706.069	0.0144035
706.147	0.0150000
706.225	0.0155338
706.303	0.0158538
706.381	0.0162698
706.459	0.0167430
706.538	0.0172809
706.616	0.0174334
706.694	0.0176081
706.772	0.0178437
706.850	0.0179063
706.928	0.0178219
707.006	0.0177093
707.084	0.0176353
707.163	0.0170999
707.241	0.0168026
707.319	0.0165816
707.397	0.0162446
707.475	0.0158158
707.553	0.0153519
707.631	0.0149625
707.709	0.0145300
707.788	0.0142089
707.866	0.0141115
707.944	0.0139500
708.022	0.0138946
708.100	0.0139148
708.178	0.0139629
708.256	0.0141750
708.334	0.0144942
708.413	0.0148523
708.491	0.0153338
708.569	0.0153973
708.647	0.0157133
708.725	0.0157370
708.803	0.0156220
708.881	0.0154659
708.959	0.0153712
709.038	0.0151157
709.116	0.0146291
709.194	0.0142398
709.272	0.0139500
709.350	0.0137270
709.428	0.0135172
709.506	0.0132907
709.584	0.0132374
709.663	0.0132639
709.741	0.0133828
709.819	0.0133195
709.897	0.0133858
709.975	0.0135189
710.053	0.0135328
710.131	0.0135184
710.209	0.0138109
710.288	0.0138569
710.366	0.0140618
710.444	0.0142857
710.522	0.0147354
710.600	0.0153155
710.678	0.0156941
710.756	0.0162343
710.834	0.0168363
710.913	0.0176483
710.991	0.0180786
711.069	0.0187095
711.147	0.0189792
711.225	0.0191751
711.303	0.0193020
711.381	0.0192563
711.459	0.0192273
711.538	0.0188365
711.616	0.0184060
711.694	0.0179502
711.772	0.0174392
711.850	0.0168500
711.928	0.0163573
712.006	0.0159998
712.084	0.0155259
712.163	0.0151389
712.241	0.0147835
712.319	0.0145507
712.397	0.0142699
712.475	0.0140375
712.553	0.0135721
712.631	0.0133598
712.709	0.0129098
712.788	0.0125362
712.866	0.0122237
712.944	0.0118778
713.022	0.0116363
713.100	0.0113980
713.178	0.0112709
713.256	0.0112695
713.334	0.0114500
713.413	0.0113699
713.491	0.0117169
713.569	0.0120593
713.647	0.0124660
713.725	0.0127773
713.803	0.0132491
713.881	0.0135613
713.959	0.0139845
714.038	0.0145019
714.116	0.0149248
714.194	0.0154461
714.272	0.0159084
714.350	0.0162143
714.428	0.0166474
714.506	0.0168941
714.584	0.0172102
714.663	0.0174815
714.741	0.0177212
714.819	0.0177643
714.897	0.0176875
714.975	0.0178949
715.053	0.0178255
715.131	0.0176559
715.209	0.0175335
715.288	0.0174491
715.366	0.0174271
715.444	0.0173852
715.522	0.0172639
715.600	0.0170985
715.678	0.0171320
715.756	0.0170966
715.834	0.0170082
715.913	0.0169583
715.991	0.0167693
716.069	0.0166486
716.147	0.0165989
716.225	0.0163595
716.303	0.0161807
716.381	0.0159994
716.459	0.0157428
716.538	0.0153029
716.616	0.0149966
716.694	0.0147957
716.772	0.0145272
716.850	0.0142862
716.928	0.0141045
717.006	0.0140646
717.084	0.0138178
717.163	0.0139370
717.241	0.0139342
717.319	0.0137477
717.397	0.0138339
717.475	0.0136977
717.553	0.0137540
717.631	0.0138113
717.709	0.0137167
717.788	0.0138987
717.866	0.0138642
717.944	0.0139837
718.022	0.0140391
718.100	0.0140007
718.178	0.0139398
718.256	0.0139715
718.334	0.0140231
718.413	0.0140414
718.491	0.0137851
718.569	0.0136765
718.647	0.0134830
718.725	0.0132854
718.803	0.0131680
718.881	0.0127334
718.959	0.0127395
719.038	0.0127338
719.116	0.0128941
719.194	0.0130915
719.272	0.0133877
719.350	0.0136555
719.428	0.0140137
719.506	0.0145795
719.584	0.0148969
719.663	0.0154490
719.741	0.0159418
719.819	0.0163762
719.897	0.0168559
719.975	0.0170258
720.053	0.0174995
720.131	0.0177607
720.209	0.0178046
720.288	0.0181741
720.366	0.0181888
720.444	0.0181367
720.522	0.0179620
720.600	0.0180869
720.678	0.0179613
720.756	0.0177151
720.834	0.0174847
720.913	0.0172162
720.991	0.0168995
721.069	0.0166829
721.147	0.0163480
721.225	0.0159724
721.303	0.0158709
721.381	0.0154855
721.459	0.0152728
721.538	0.0152229
721.616	0.0149989
721.694	0.0151223
721.772	0.0151539
721.850	0.0151795
721.928	0.0153944
722.006	0.0155103
722.084	0.0156943
722.163	0.0158189
722.241	0.0161138
722.319	0.0160518
722.397	0.0158644
722.475	0.0158932
722.553	0.0156675
722.631	0.0154427
722.709	0.0152657
722.788	0.0150643
722.866	0.0147323
722.944	0.0144284
723.022	0.0141975
723.100	0.0140714
723.178	0.0139990
723.256	0.0137258
723.334	0.0136626
723.413	0.0136040
723.491	0.0135917
723.569	0.0136091
723.647	0.0135463
723.725	0.0136639
723.803	0.0136922
723.881	0.0136141
723.959	0.0135611
724.038	0.0138918
724.116	0.0140780
724.194	0.0141795
724.272	0.0144406
724.350	0.0146154
724.428	0.0147011
724.506	0.0148019
724.584	0.0149764
724.663	0.0149310
724.741	0.0151512
724.819	0.0151796
724.897	0.0151382
724.975	0.0152101
725.053	0.0154183
725.131	0.0153973
725.209	0.0153416
725.288	0.0154044
725.366	0.0153992
725.444	0.0153672
725.522	0.0152329
725.600	0.0150602
725.678	0.0149911
725.756	0.0146927
725.834	0.0144712
725.913	0.0143908
725.991	0.0142468
726.069	0.0139399
726.147	0.0138000
726.225	0.0139191
726.303	0.0140773
726.381	0.0142243
726.459	0.0144009
726.538	0.0147754
726.616	0.0152007
726.694	0.0153255
726.772	0.0158057
726.850	0.0162862
726.928	0.0165852
727.006	0.0168875
727.084	0.0170305
727.163	0.0174473
727.241	0.0175016
727.319	0.0176194
727.397	0.0177468
727.475	0.0176805
727.553	0.0177442
727.631	0.0176495
727.709	0.0177582
727.788	0.0174650
727.866	0.0174521
727.944	0.0173701
728.022	0.0171512
728.100	0.0172268
728.178	0.0170474
728.256	0.0167040
728.334	0.0166429
728.413	0.0162602
728.491	0.0162978
728.569	0.0158566
728.647	0.0157864
728.725	0.0156193
728.803	0.0153828
728.881	0.0150806
728.959	0.0149899
729.038	0.0147182
729.116	0.0146012
729.194	0.0144122
729.272	0.0141531
729.350	0.0138055
729.428	0.0136794
729.506	0.0134948
729.584	0.0132643
729.663	0.0129458
729.741	0.0127586
729.819	0.0126509
729.897	0.0126871
729.975	0.0126456
730.053	0.0126535
730.131	0.0127335
730.209	0.0128297
730.288	0.0131013
730.366	0.0134936
730.444	0.0135795
730.522	0.0140031
730.600	0.0143726
730.678	0.0146390
730.756	0.0149216
730.834	0.0152388
730.913	0.0153024
730.991	0.0155740
731.069	0.0156511
731.147	0.0157365
731.225	0.0158336
731.303	0.0157761
731.381	0.0156678
731.459	0.0156611
731.538	0.0156124
731.616	0.0156082
731.694	0.0154025
731.772	0.0154656
731.850	0.0152606
731.928	0.0151051
732.006	0.0151852
732.084	0.0151823
732.163	0.0151794
732.241	0.0152419
732.319	0.0152116
732.397	0.0152608
732.475	0.0153145
732.553	0.0152008
732.631	0.0152473
732.709	0.0151796
732.788	0.0154515
732.866	0.0153133
732.944	0.0152017
733.022	0.0153951
733.100	0.0153855
733.178	0.0154405
733.256	0.0156032
733.334	0.0156630
733.413	0.0156305
733.491	0.0156963
733.569	0.0158148
733.647	0.0158387
733.725	0.0156831
733.803	0.0155370
733.881	0.0154460
733.959	0.0152230
734.038	0.0151551
734.116	0.0151959
734.194	0.0149876
734.272	0.0148194
734.350	0.0147670
734.428	0.0148148
734.506	0.0148680
734.584	0.0149657
734.663	0.0151067
734.741	0.0151958
734.819	0.0153815
734.897	0.0155478
734.975	0.0154022
735.053	0.0155432
735.131	0.0155526
735.209	0.0155883
735.288	0.0155427
735.366	0.0153345
735.444	0.0153568
735.522	0.0154853
735.600	0.0155442
735.678	0.0155962
735.756	0.0157455
735.834	0.0157925
735.913	0.0158857
735.991	0.0161959
736.069	0.0161176
736.147	0.0164034
736.225	0.0166326
736.303	0.0164551
736.381	0.0165336
736.459	0.0166048
736.538	0.0165134
736.616	0.0163729
736.694	0.0162744
736.772	0.0160943
736.850	0.0158958
736.928	0.0155333
737.006	0.0151995
737.084	0.0148738
737.163	0.0146142
737.241	0.0142313
737.319	0.0140088
737.397	0.0136846
737.475	0.0134239
737.553	0.0129901
737.631	0.0130148
737.709	0.0128983
737.788	0.0127863
737.866	0.0128601
737.944	0.0128539
738.022	0.0129853
738.100	0.0132569
738.178	0.0135487
738.256	0.0139631
738.334	0.0138853
738.413	0.0143826
738.491	0.0145464
738.569	0.0147746
738.647	0.0148563
738.725	0.0149103
738.803	0.0149973
738.881	0.0151078
738.959	0.0150248
739.038	0.0150031
739.116	0.0149433
739.194	0.0148936
739.272	0.0150497
739.350	0.0149097
739.428	0.0148714
739.506	0.0150285
739.584	0.0149757
739.663	0.0150568
739.741	0.0152919
739.819	0.0152322
739.897	0.0153439
739.975	0.0154449
740.053	0.0155038
740.131	0.0154668
740.209	0.0156854
740.288	0.0157573
740.366	0.0157976
740.444	0.0156625
740.522	0.0157018
740.600	0.0155575
740.678	0.0154757
740.756	0.0153846
740.834	0.0154370
740.913	0.0153692
740.991	0.0151830
741.069	0.0153540
741.147	0.0152422
741.225	0.0151953
741.303	0.0153825
741.381	0.0156440
741.459	0.0158095
741.538	0.0161315
741.616	0.0162312
741.694	0.0165479
741.772	0.0166463
741.850	0.0167454
741.928	0.0167599
742.006	0.0168414
742.084	0.0169875
742.163	0.0170292
742.241	0.0169149
742.319	0.0168565
742.397	0.0167390
742.475	0.0164773
742.553	0.0162916
742.631	0.0160649
742.709	0.0159070
742.788	0.0157482
742.866	0.0155389
742.944	0.0152500
743.022	0.0151263
743.100	0.0149956
743.178	0.0148130
743.256	0.0146907
743.334	0.0146455
743.413	0.0146239
743.491	0.0146237
743.569	0.0147002
743.647	0.0147742
743.725	0.0147874
743.803	0.0148898
743.881	0.0148906
743.959	0.0150603
744.038	0.0150418
744.116	0.0151089
744.194	0.0151083
744.272	0.0151447
744.350	0.0150199
744.428	0.0149695
744.506	0.0149496
744.584	0.0146703
744.663	0.0145980
744.741	0.0145142
744.819	0.0143311
744.897	0.0140959
744.975	0.0141801
745.053	0.0140266
745.131	0.0139111
745.209	0.0138575
745.288	0.0137334
745.366	0.0137379
745.444	0.0135606
745.522	0.0135897
745.600	0.0136215
745.678	0.0136102
745.756	0.0137747
745.834	0.0138985
745.913	0.0141141
745.991	0.0142794
746.069	0.0142513
746.147	0.0146053
746.225	0.0147984
746.303	0.0151624
746.381	0.0152688
746.459	0.0153675
746.538	0.0155791
746.616	0.0157841
746.694	0.0157816
746.772	0.0160665
746.850	0.0162554
746.928	0.0163961
747.006	0.0162807
747.084	0.0164026
747.163	0.0165429
747.241	0.0165759
747.319	0.0167436
747.397	0.0167632
747.475	0.0169181
747.553	0.0168633
747.631	0.0165196
747.709	0.0164900
747.788	0.0164429
747.866	0.0162374
747.944	0.0157223
748.022	0.0156660
748.100	0.0152258
748.178	0.0150129
748.256	0.0146958
748.334	0.0146237
748.413	0.0143415
748.491	0.0142156
748.569	0.0139882
748.647	0.0137966
748.725	0.0136348
748.803	0.0136678
748.881	0.0138055
748.959	0.0138062
749.038	0.0139016
749.116	0.0141585
749.194	0.0144356
749.272	0.0145052
749.350	0.0149208
749.428	0.0151890
749.506	0.0157594
749.584	0.0159693
749.663	0.0162684
749.741	0.0166521
749.819	0.0169331
749.897	0.0170790
749.975	0.0171137
750.053	0.0171980
750.131	0.0172875
750.209	0.0172348
750.288	0.0171048
750.366	0.0169638
750.444	0.0168666
750.522	0.0164870
750.600	0.0162606
750.678	0.0161189
750.756	0.0157277
750.834	0.0152272
750.913	0.0151080
750.991	0.0147074
751.069	0.0141692
751.147	0.0139776
751.225	0.0137469
751.303	0.0137492
751.381	0.0138197
751.459	0.0137300
751.538	0.0138824
751.616	0.0140392
751.694	0.0142751
751.772	0.0147507
751.850	0.0150682
751.928	0.0154501
752.006	0.0157666
752.084	0.0160955
752.163	0.0163190
752.241	0.0165319
752.319	0.0168367
752.397	0.0164947
752.475	0.0165382
752.553	0.0163605
752.631	0.0161179
752.709	0.0156362
752.788	0.0151635
752.866	0.0147877
752.944	0.0144077
753.022	0.0138913
753.100	0.0135424
753.178	0.0132619
753.256	0.0129124
753.334	0.0127732
753.413	0.0126397
753.491	0.0127031
753.569	0.0126381
753.647	0.0128458
753.725	0.0128744
753.803	0.0128897
753.881	0.0132302
753.959	0.0133989
754.038	0.0135722
754.116	0.0139349
754.194	0.0141136
754.272	0.0145216
754.350	0.0148505
754.428	0.0151647
754.506	0.0155698
754.584	0.0156216
754.663	0.0158761
754.741	0.0160280
754.819	0.0161657
754.897	0.0162533
754.975	0.0163142
755.053	0.0164229
755.131	0.0163158
755.209	0.0163591
755.288	0.0163680
755.366	0.0163416
755.444	0.0162228
755.522	0.0163975
755.600	0.0163222
755.678	0.0160621
755.756	0.0160448
755.834	0.0157904
755.913	0.0155609
755.991	0.0153342
756.069	0.0151639
756.147	0.0149876
756.225	0.0146650
756.303	0.0145533
756.381	0.0144473
756.459	0.0144581
756.538	0.0144922
756.616	0.0145679
756.694	0.0145335
756.772	0.0147834
756.850	0.0149387
756.928	0.0151279
757.006	0.0151486
757.084	0.0151101
757.163	0.0152740
757.241	0.0154328
757.319	0.0155588
757.397	0.0156771
757.475	0.0156068
757.553	0.0157026
757.631	0.0158766
757.709	0.0160210
757.788	0.0162878
757.866	0.0162886
757.944	0.0164220
758.022	0.0166837
758.100	0.0165232
758.178	0.0164853
758.256	0.0164621
758.334	0.0164824
758.413	0.0162511
758.491	0.0161062
758.569	0.0159221
758.647	0.0157793
758.725	0.0155536
758.803	0.0154419
758.881	0.0152336
758.959	0.0148372
759.038	0.0147734
759.116	0.0146815
759.194	0.0146367
759.272	0.0143786
759.350	0.0142937
759.428	0.0142765
759.506	0.0142554
759.584	0.0140753
759.663	0.0140882
759.741	0.0141279
759.819	0.0141429
759.897	0.0141837
759.975	0.0143747
760.053	0.0144497
760.131	0.0145364
760.209	0.0148009
760.288	0.0149187
760.366	0.0150472
760.444	0.0150990
760.522	0.0152911
760.600	0.0153014
760.678	0.0152650
760.756	0.0153004
760.834	0.0152201
760.913	0.0150983
760.991	0.0147984
761.069	0.0145645
761.147	0.0142677
761.225	0.0140305
761.303	0.0137583
761.381	0.0136755
761.459	0.0134950
761.538	0.0133089
761.616	0.0130974
761.694	0.0130259
761.772	0.0130015
761.850	0.0131718
761.928	0.0132782
762.006	0.0134393
762.084	0.0136822
762.163	0.0140123
762.241	0.0144606
762.319	0.0149128
762.397	0.0151660
762.475	0.0153909
762.553	0.0158314
762.631	0.0161902
762.709	0.0163699
762.788	0.0166312
762.866	0.0168877
762.944	0.0167811
763.022	0.0168508
763.100	0.0166481
763.178	0.0164738
763.256	0.0164328
763.334	0.0161979
763.413	0.0159838
763.491	0.0157156
763.569	0.0154878
763.647	0.0153954
763.725	0.0153603
763.803	0.0152273
763.881	0.0151662
763.959	0.0151616
764.038	0.0152784
764.116	0.0153680
764.194	0.0152106
764.272	0.0153835
764.350	0.0153930
764.428	0.0152837
764.506	0.0152479
764.584	0.0151904
764.663	0.0152750
764.741	0.0152681
764.819	0.0152370
764.897	0.0152464
764.975	0.0153831
765.053	0.0153582
765.131	0.0152875
765.209	0.0152578
765.288	0.0152824
765.366	0.0154467
765.444	0.0153622
765.522	0.0153822
765.600	0.0153669
765.678	0.0154304
765.756	0.0154492
765.834	0.0156115
765.913	0.0155081
765.991	0.0156802
766.069	0.0157539
766.147	0.0158785
766.225	0.0160521
766.303	0.0161842
766.381	0.0162644
766.459	0.0163177
766.538	0.0163354
766.616	0.0163461
766.694	0.0162655
766.772	0.0160890
766.850	0.0161193
766.928	0.0160278
767.006	0.0157213
767.084	0.0157051
767.163	0.0154388
767.241	0.0150803
767.319	0.0149371
767.397	0.0147073
767.475	0.0143872
767.553	0.0140316
767.631	0.0138411
767.709	0.0134792
767.788	0.0131705
767.866	0.0129039
767.944	0.0128635
768.022	0.0127575
768.100	0.0127103
768.178	0.0127206
768.256	0.0128912
768.334	0.0131616
768.413	0.0134666
768.491	0.0138198
768.569	0.0141431
768.647	0.0144118
768.725	0.0147038
768.803	0.0150190
768.881	0.0152328
768.959	0.0155093
769.038	0.0155015
769.116	0.0157640
769.194	0.0156566
769.272	0.0156267
769.350	0.0155251
769.428	0.0154459
769.506	0.0152834
769.584	0.0151789
769.663	0.0149762
769.741	0.0147913
769.819	0.0146110
769.897	0.0144894
769.975	0.0144264
770.053	0.0143502
770.131	0.0143214
770.209	0.0143109
770.288	0.0145569
770.366	0.0148357
770.444	0.0151088
770.522	0.0153017
770.600	0.0155762
770.678	0.0160165
770.756	0.0164041
770.834	0.0165910
770.913	0.0168319
770.991	0.0171396
771.069	0.0172166
771.147	0.0171495
771.225	0.0172103
771.303	0.0172408
771.381	0.0168971
771.459	0.0167600
771.538	0.0163681
771.616	0.0160835
771.694	0.0157431
771.772	0.0153194
771.850	0.0147908
771.928	0.0147174
772.006	0.0144746
772.084	0.0144057
772.163	0.0143423
772.241	0.0143509
772.319	0.0142657
772.397	0.0144467
772.475	0.0144958
772.553	0.0145748
772.631	0.0147768
772.709	0.0148678
772.788	0.0150249
772.866	0.0151863
772.944	0.0154205
773.022	0.0154801
773.100	0.0156668
773.178	0.0156945
773.256	0.0157783
773.334	0.0160332
773.413	0.0160401
773.491	0.0161873
773.569	0.0162157
773.647	0.0162653
773.725	0.0161866
773.803	0.0162865
773.881	0.0162316
773.959	0.0162701
774.038	0.0163706
774.116	0.0162292
774.194	0.0161224
774.272	0.0161110
774.350	0.0157936
774.428	0.0156580
774.506	0.0154687
774.584	0.0152748
774.663	0.0150057
774.741	0.0147983
774.819	0.0146667
774.897	0.0145931
774.975	0.0145210
775.053	0.0145229
775.131	0.0143292
775.209	0.0144009
775.288	0.0143997
775.366	0.0142841
775.444	0.0143107
775.522	0.0144516
775.600	0.0144555
775.678	0.0144721
775.756	0.0144082
775.834	0.0142846
775.913	0.0145492
775.991	0.0144336
776.069	0.0143661
776.147	0.0142448
776.225	0.0141026
776.303	0.0143005
776.381	0.0141146
776.459	0.0141959
776.538	0.0142681
776.616	0.0140846
776.694	0.0143221
776.772	0.0143721
776.850	0.0144138
776.928	0.0144757
777.006	0.0145274
777.084	0.0147219
777.163	0.0147103
777.241	0.0146444
777.319	0.0148019
777.397	0.0147371
777.475	0.0147585
777.553	0.0146889
777.631	0.0146969
777.709	0.0147019
777.788	0.0146008
777.866	0.0146009
777.944	0.0148090
778.022	0.0148717
778.100	0.0148405
778.178	0.0150538
778.256	0.0153729
778.334	0.0153275
778.413	0.0154800
778.491	0.0156600
778.569	0.0158659
778.647	0.0162135
778.725	0.0163354
778.803	0.0164894
778.881	0.0166735
778.959	0.0167331
779.038	0.0167125
779.116	0.0167139
779.194	0.0166464
779.272	0.0166370
779.350	0.0165133
779.428	0.0163836
779.506	0.0161330
779.584	0.0159764
779.663	0.0155785
779.741	0.0153297
779.819	0.0149056
779.897	0.0146636
779.975	0.0143376
780.053	0.0140832
780.131	0.0139029
780.209	0.0137236
780.288	0.0135737
780.366	0.0136459
780.444	0.0138014
780.522	0.0140312
780.600	0.0140862
780.678	0.0144827
780.756	0.0148046
780.834	0.0152848
780.913	0.0154494
780.991	0.0157887
781.069	0.0161675
781.147	0.0163205
781.225	0.0166453
781.303	0.0168835
781.381	0.0170013
781.459	0.0169833
781.538	0.0169589
781.616	0.0169658
781.694	0.0167646
781.772	0.0167968
781.850	0.0165026
781.928	0.0164229
782.006	0.0161872
782.084	0.0159722
782.163	0.0156950
782.241	0.0152500
782.319	0.0149992
782.397	0.0145214
782.475	0.0143841
782.553	0.0141070
782.631	0.0137400
782.709	0.0135799
782.788	0.0135040
782.866	0.0132983
782.944	0.0130934
783.022	0.0130870
783.100	0.0130592
783.178	0.0132885
783.256	0.0133402
783.334	0.0135589
783.413	0.0137794
783.491	0.0140336
783.569	0.0143011
783.647	0.0144910
783.725	0.0147704
783.803	0.0151263
783.881	0.0153599
783.959	0.0156094
784.038	0.0156749
784.116	0.0156937
784.194	0.0158469
784.272	0.0156265
784.350	0.0158569
784.428	0.0158158
784.506	0.0156040
784.584	0.0155500
784.663	0.0152193
784.741	0.0149682
784.819	0.0148333
784.897	0.0145530
784.975	0.0143383
785.053	0.0141966
785.131	0.0141120
785.209	0.0139465
785.288	0.0139188
785.366	0.0140788
785.444	0.0139467
785.522	0.0141093
785.600	0.0141853
785.678	0.0144468
785.756	0.0145794
785.834	0.0147354
785.913	0.0150827
785.991	0.0152142
786.069	0.0153815
786.147	0.0156048
786.225	0.0158553
786.303	0.0159404
786.381	0.0160247
786.459	0.0163083
786.538	0.0162846
786.616	0.0163054
786.694	0.0163879
786.772	0.0164944
786.850	0.0165285
786.928	0.0163674
787.006	0.0163248
787.084	0.0162011
787.163	0.0160587
787.241	0.0159705
787.319	0.0157908
787.397	0.0156218
787.475	0.0153026
787.553	0.0151527
787.631	0.0150986
787.709	0.0149194
787.788	0.0146361
787.866	0.0145904
787.944	0.0146429
788.022	0.0144827
788.100	0.0144254
788.178	0.0144388
788.256	0.0143829
788.334	0.0143605
788.413	0.0144769
788.491	0.0146316
788.569	0.0146851
788.647	0.0149664
788.725	0.0150862
788.803	0.0152316
788.881	0.0155901
788.959	0.0158372
789.038	0.0159709
789.116	0.0162684
789.194	0.0164936
789.272	0.0166791
789.350	0.0167794
789.428	0.0167339
789.506	0.0168616
789.584	0.0169343
789.663	0.0167083
789.741	0.0165903
789.819	0.0164154
789.897	0.0161590
789.975	0.0160563
790.053	0.0157037
790.131	0.0154486
790.209	0.0153342
790.288	0.0150213
790.366	0.0147723
790.444	0.0145450
790.522	0.0143657
790.600	0.0142296
790.678	0.0139966
790.756	0.0140376
790.834	0.0140026
790.913	0.0139633
790.991	0.0139292
791.069	0.0140595
791.147	0.0140800
791.225	0.0141650
791.303	0.0142297
791.381	0.0142765
791.459	0.0144597
791.538	0.0144484
791.616	0.0146452
791.694	0.0148576
791.772	0.0148335
791.850	0.0151028
791.928	0.0148479
792.006	0.0149557
792.084	0.0152135
792.163	0.0149203
792.241	0.0150422
792.319	0.0150194
792.397	0.0150594
792.475	0.0149525
792.553	0.0148911
792.631	0.0148503
792.709	0.0149401
792.788	0.0149219
792.866	0.0148358
792.944	0.0148011
793.022	0.0147745
793.100	0.0146611
793.178	0.0146456
793.256	0.0145416
793.334	0.0146513
793.413	0.0146461
793.491	0.0148363
793.569	0.0147265
793.647	0.0149394
793.725	0.0151015
793.803	0.0152120
793.881	0.0153553
793.959	0.0155917
794.038	0.0158710
794.116	0.0159430
794.194	0.0161344
794.272	0.0161859
794.350	0.0162005
794.428	0.0164365
794.506	0.0164935
794.584	0.0162629
794.663	0.0165037
794.741	0.0162897
794.819	0.0160537
794.897	0.0159985
794.975	0.0159695
795.053	0.0158102
795.131	0.0156214
795.209	0.0155337
795.288	0.0153273
795.366	0.0152325
795.444	0.0150343
795.522	0.0147507
795.600	0.0146406
795.678	0.0146233
795.756	0.0145081
795.834	0.0143085
795.913	0.0141975
795.991	0.0142265
796.069	0.0140796
796.147	0.0141989
796.225	0.0142891
796.303	0.0144598
796.381	0.0143733
796.459	0.0146516
796.538	0.0147509
796.616	0.0149683
796.694	0.0152869
796.772	0.0155412
796.850	0.0158408
796.928	0.0160173
797.006	0.0163444
797.084	0.0163721
797.163	0.0166875
797.241	0.0169038
797.319	0.0168671
797.397	0.0168349
797.475	0.0168740
797.553	0.0170917
797.631	0.0168214
797.709	0.0167459
797.788	0.0164529
797.866	0.0161429
797.944	0.0159023
798.022	0.0158009
798.100	0.0154288
798.178	0.0151139
798.256	0.0149339
798.334	0.0145473
798.413	0.0142565
798.491	0.0140713
798.569	0.0139711
798.647	0.0138749
798.725	0.0137262
798.803	0.0137047
798.881	0.0136205
798.959	0.0136395
799.038	0.0137564
799.116	0.0138052
799.194	0.0138849
799.272	0.0139781
799.350	0.0142488
799.428	0.0143922
799.506	0.0145733
799.584	0.0147519
799.663	0.0147773
799.741	0.0150521
799.819	0.0150381
799.897	0.0151698
799.975	0.0153815
800.053	0.0151939
800.131	0.0153715
800.209	0.0154927
800.288	0.0153708
800.366	0.0152711
800.444	0.0152434
800.522	0.0152348
800.600	0.0150261
800.678	0.0147578
800.756	0.0147493
800.834	0.0147000
800.913	0.0145858
800.991	0.0145507
801.069	0.0145524
801.147	0.0145162
801.225	0.0144080
801.303	0.0145605
801.381	0.0145930
801.459	0.0146484
801.538	0.0147273
801.616	0.0148300
801.694	0.0149040
801.772	0.0151987
801.850	0.0153014
801.928	0.0151587
802.006	0.0153526
802.084	0.0154345
802.163	0.0154829
802.241	0.0155270
802.319	0.0157654
802.397	0.0157745
802.475	0.0159979
802.553	0.0159163
802.631	0.0159332
802.709	0.0159263
802.788	0.0160036
802.866	0.0159711
802.944	0.0159109
803.022	0.0159889
803.100	0.0158961
803.178	0.0157362
803.256	0.0157603
803.334	0.0156198
803.413	0.0154786
803.491	0.0152661
803.569	0.0153519
803.647	0.0152109
803.725	0.0151960
803.803	0.0150219
803.881	0.0148772
803.959	0.0148413
804.038	0.0148578
804.116	0.0149412
804.194	0.0148409
804.272	0.0149395
804.350	0.0148785
804.428	0.0149317
804.506	0.0149712
804.584	0.0150933
804.663	0.0149799
804.741	0.0151400
804.819	0.0151956
804.897	0.0155795
804.975	0.0156173
805.053	0.0157218
805.131	0.0159170
805.209	0.0157511
805.288	0.0158575
805.366	0.0159254
805.444	0.0160017
805.522	0.0158689
805.600	0.0158099
805.678	0.0156906
805.756	0.0156259
805.834	0.0154408
805.913	0.0152105
805.991	0.0150030
806.069	0.0149424
806.147	0.0146059
806.225	0.0146055
806.303	0.0144812
806.381	0.0143359
806.459	0.0142560
806.538	0.0140996
806.616	0.0139600
806.694	0.0140578
806.772	0.0139511
806.850	0.0141130
806.928	0.0142863
807.006	0.0142434
807.084	0.0145284
807.163	0.0145400
807.241	0.0148866
807.319	0.0151047
807.397	0.0152196
807.475	0.0155574
807.553	0.0158105
807.631	0.0158348
807.709	0.0158822
807.788	0.0162017
807.866	0.0160897
807.944	0.0161366
808.022	0.0161711
808.100	0.0162529
808.178	0.0162128
808.256	0.0161085
808.334	0.0158762
808.413	0.0159867
808.491	0.0156786
808.569	0.0154063
808.647	0.0153027
808.725	0.0151426
808.803	0.0148798
808.881	0.0148827
808.959	0.0146008
809.038	0.0145884
809.116	0.0143179
809.194	0.0142606
809.272	0.0142097
809.350	0.0139891
809.428	0.0141657
809.506	0.0140594
809.584	0.0140790
809.663	0.0142165
809.741	0.0143591
809.819	0.0145231
809.897	0.0145771
809.975	0.0147828
810.053	0.0150044
810.131	0.0151362
810.209	0.0153103
810.288	0.0154546
810.366	0.0155732
810.444	0.0156248
810.522	0.0157832
810.600	0.0159097
810.678	0.0158894
810.756	0.0158976
810.834	0.0159529
810.913	0.0158472
810.991	0.0158344
811.069	0.0158840
811.147	0.0157939
811.225	0.0159383
811.303	0.0158515
811.381	0.0157777
811.459	0.0156665
811.538	0.0155404
811.616	0.0155213
811.694	0.0154476
811.772	0.0154667
811.850	0.0153846
811.928	0.0151702
812.006	0.0151498
812.084	0.0151675
812.163	0.0150890
812.241	0.0149958
812.319	0.0150106
812.397	0.0150660
812.475	0.0150784
812.553	0.0151544
812.631	0.0152548
812.709	0.0152832
812.788	0.0154846
812.866	0.0156213
812.944	0.0155212
813.022	0.0157072
813.100	0.0158231
813.178	0.0158331
813.256	0.0159467
813.334	0.0159736
813.413	0.0159929
813.491	0.0159577
813.569	0.0159647
813.647	0.0159218
813.725	0.0158856
813.803	0.0157294
813.881	0.0157344
813.959	0.0156512
814.038	0.0155484
814.116	0.0152896
814.194	0.0151866
814.272	0.0150597
814.350	0.0147811
814.428	0.0146082
814.506	0.0144282
814.584	0.0142149
814.663	0.0141772
814.741	0.0140284
814.819	0.0138903
814.897	0.0138714
814.975	0.0138157
815.053	0.0138225
815.131	0.0138621
815.209	0.0140697
815.288	0.0139935
815.366	0.0143061
815.444	0.0144765
815.522	0.0146024
815.600	0.0148095
815.678	0.0149867
815.756	0.0151822
815.834	0.0153783
815.913	0.0154783
815.991	0.0155007
816.069	0.0155600
816.147	0.0156608
816.225	0.0157188
816.303	0.0157689
816.381	0.0156870
816.459	0.0156013
816.538	0.0155235
816.616	0.0154673
816.694	0.0155080
816.772	0.0152676
816.850	0.0152067
816.928	0.0150494
817.006	0.0150482
817.084	0.0151377
817.163	0.0150775
817.241	0.0149847
817.319	0.0149260
817.397	0.0150221
817.475	0.0150581
817.553	0.0149646
817.631	0.0151757
817.709	0.0150184
817.788	0.0151846
817.866	0.0153770
817.944	0.0153341
818.022	0.0153707
818.100	0.0154013
818.178	0.0155500
818.256	0.0157625
818.334	0.0155721
818.413	0.0156755
818.491	0.0157050
818.569	0.0156892
818.647	0.0157267
818.725	0.0157000
818.803	0.0157101
818.881	0.0157421
818.959	0.0157271
819.038	0.0156574
819.116	0.0154974
819.194	0.0155229
819.272	0.0154093
819.350	0.0153300
819.428	0.0151892
819.506	0.0151044
819.584	0.0150092
819.663	0.0147890
819.741	0.0148687
819.819	0.0148009
819.897	0.0148047
819.975	0.0145847
820.053	0.0146025
820.131	0.0146066
820.209	0.0146410
820.288	0.0145656
820.366	0.0145283
820.444	0.0146297
820.522	0.0146437
820.600	0.0146998
820.678	0.0147951
820.756	0.0148824
820.834	0.0149483
820.913	0.0150646
820.991	0.0151131
821.069	0.0152636
821.147	0.0154039
821.225	0.0152725
821.303	0.0154997
821.381	0.0154980
821.459	0.0156528
821.538	0.0155974
821.616	0.0156190
821.694	0.0156628
821.772	0.0154937
821.850	0.0155920
821.928	0.0156287
822.006	0.0154734
822.084	0.0153264
822.163	0.0151929
822.241	0.0152139
822.319	0.0150627
822.397	0.0150706
822.475	0.0148505
822.553	0.0147783
822.631	0.0147964
822.709	0.0148053
822.788	0.0147070
822.866	0.0146316
822.944	0.0147092
823.022	0.0147738
823.100	0.0147513
823.178	0.0146297
823.256	0.0147750
823.334	0.0150069
823.413	0.0150370
823.491	0.0150047
823.569	0.0152477
823.647	0.0153589
823.725	0.0154069
823.803	0.0154519
823.881	0.0154935
823.959	0.0156496
824.038	0.0157069
824.116	0.0156451
824.194	0.0158456
824.272	0.0158391
824.350	0.0156284
824.428	0.0157615
824.506	0.0156445
824.584	0.0155913
824.663	0.0154907
824.741	0.0154281
824.819	0.0153908
824.897	0.0152419
824.975	0.0151199
825.053	0.0148997
825.131	0.0147938
825.209	0.0147071
825.288	0.0146629
825.366	0.0146166
825.444	0.0146597
825.522	0.0145210
825.600	0.0144286
825.678	0.0145229
825.756	0.0146613
825.834	0.0147283
825.913	0.0146958
825.991	0.0146653
826.069	0.0147493
826.147	0.0147893
826.225	0.0148868
826.303	0.0147756
826.381	0.0150429
826.459	0.0151794
826.538	0.0149367
826.616	0.0151223
826.694	0.0151936
826.772	0.0150854
826.850	0.0152952
826.928	0.0152947
827.006	0.0153559
827.084	0.0153226
827.163	0.0153333
827.241	0.0154093
827.319	0.0152607
827.397	0.0152490
827.475	0.0152202
827.553	0.0150535
827.631	0.0151924
827.709	0.0150278
827.788	0.0151653
827.866	0.0151654
827.944	0.0151209
828.022	0.0151235
828.100	0.0152267
828.178	0.0150874
828.256	0.0150062
828.334	0.0150024
828.413	0.0150588
828.491	0.0150285
828.569	0.0150135
828.647	0.0151530
828.725	0.0150449
828.803	0.0152525
828.881	0.0152988
828.959	0.0153796
829.038	0.0154850
829.116	0.0155853
829.194	0.0156509
829.272	0.0157433
829.350	0.0158979
829.428	0.0157609
829.506	0.0158747
829.584	0.0159679
829.663	0.0157316
829.741	0.0157758
829.819	0.0157236
829.897	0.0156728
829.975	0.0155579
830.053	0.0154055
830.131	0.0155170
830.209	0.0153292
830.288	0.0152357
830.366	0.0151898
830.444	0.0150127
830.522	0.0149281
830.600	0.0147784
830.678	0.0148074
830.756	0.0147363
830.834	0.0146320
830.913	0.0145226
830.991	0.0147359
831.069	0.0147542
831.147	0.0145853
831.225	0.0147100
831.303	0.0148394
831.381	0.0148601
831.459	0.0147962
831.538	0.0149969
831.616	0.0151685
831.694	0.0151527
831.772	0.0152137
831.850	0.0151811
831.928	0.0151460
832.006	0.0151927
832.084	0.0154356
832.163	0.0154804
832.241	0.0153651
832.319	0.0153459
832.397	0.0153193
832.475	0.0154939
832.553	0.0153617
832.631	0.0152633
832.709	0.0151858
832.788	0.0152387
832.866	0.0151321
832.944	0.0151034
833.022	0.0152177
833.100	0.0149828
833.178	0.0149097
833.256	0.0149203
833.334	0.0149014
833.413	0.0147708
833.491	0.0148232
833.569	0.0149196
833.647	0.0148248
833.725	0.0148152
833.803	0.0149381
833.881	0.0151482
833.959	0.0151437
834.038	0.0151017
834.116	0.0150639
834.194	0.0151527
834.272	0.0152644
834.350	0.0152878
834.428	0.0153439
834.506	0.0152155
834.584	0.0153757
834.663	0.0153144
834.741	0.0153980
834.819	0.0152721
834.897	0.0154803
834.975	0.0154053
835.053	0.0152175
835.131	0.0152390
835.209	0.0152293
835.288	0.0152750
835.366	0.0151818
835.444	0.0151419
835.522	0.0151582
835.600	0.0152208
835.678	0.0151381
835.756	0.0150462
835.834	0.0149265
835.913	0.0150448
835.991	0.0150727
836.069	0.0149741
836.147	0.0149695
836.225	0.0150182
836.303	0.0149294
836.381	0.0150523
836.459	0.0150756
836.538	0.0150811
836.616	0.0151355
836.694	0.0150019
836.772	0.0152404
836.850	0.0153093
836.928	0.0153471
837.006	0.0154641
837.084	0.0153368
837.163	0.0154057
837.241	0.0155273
837.319	0.0154926
837.397	0.0155287
837.475	0.0155961
837.553	0.0155614
837.631	0.0155826
837.709	0.0156567
837.788	0.0156506
837.866	0.0157151
837.944	0.0156993
838.022	0.0155729
838.100	0.0155219
838.178	0.0154568
838.256	0.0153864
838.334	0.0153173
838.413	0.0153764
838.491	0.0152092
838.569	0.0150879
838.647	0.0150716
838.725	0.0150295
838.803	0.0150410
838.881	0.0147826
838.959	0.0149109
839.038	0.0148566
839.116	0.0147486
839.194	0.0148309
839.272	0.0148545
839.350	0.0148713
839.428	0.0148590
839.506	0.0149838
839.584	0.0150555
839.663	0.0151844
839.741	0.0152406
839.819	0.0152065
839.897	0.0152388
839.975	0.0153616
840.053	0.0154707
840.131	0.0155291
840.209	0.0154301
840.288	0.0153954
840.366	0.0153963
840.444	0.0153802
840.522	0.0153963
840.600	0.0153337
840.678	0.0152242
840.756	0.0152303
840.834	0.0151257
840.913	0.0151860
840.991	0.0150577
841.069	0.0149701
841.147	0.0149420
841.225	0.0148901
841.303	0.0148303
841.381	0.0147958
841.459	0.0148409
841.538	0.0147891
841.616	0.0147241
841.694	0.0146619
841.772	0.0148007
841.850	0.0147469
841.928	0.0147725
842.006	0.0148876
842.084	0.0148131
842.163	0.0149073
842.241	0.0150356
842.319	0.0150159
842.397	0.0150306
842.475	0.0151421
842.553	0.0152695
842.631	0.0152084
842.709	0.0153842
842.788	0.0155083
842.866	0.0155724
842.944	0.0155939
843.022	0.0156365
843.100	0.0155457
843.178	0.0154193
843.256	0.0156327
843.334	0.0154320
843.413	0.0154200
843.491	0.0153629
843.569	0.0154571
843.647	0.0154297
843.725	0.0152915
843.803	0.0152348
843.881	0.0151873
843.959	0.0152313
844.038	0.0150957
844.116	0.0150651
844.194	0.0150920
844.272	0.0150125
844.350	0.0150278
844.428	0.0150607
844.506	0.0150745
844.584	0.0150585
844.663	0.0151338
844.741	0.0149179
844.819	0.0149909
844.897	0.0149918
844.975	0.0151053
845.053	0.0150587
845.131	0.0150507
845.209	0.0150573
845.288	0.0151765
845.366	0.0153755
845.444	0.0152710
845.522	0.0152450
845.600	0.0153682
845.678	0.0153891
845.756	0.0154058
845.834	0.0153619
845.913	0.0155883
845.991	0.0154271
846.069	0.0153769
846.147	0.0153676
846.225	0.0153436
846.303	0.0153049
846.381	0.0152791
846.459	0.0153139
846.538	0.0151105
846.616	0.0151595
846.694	0.0149039
846.772	0.0149477
846.850	0.0149396
846.928	0.0149115
847.006	0.0148328
847.084	0.0149129
847.163	0.0149875
847.241	0.0148611
847.319	0.0147476
847.397	0.0148053
847.475	0.0149180
847.553	0.0147136
847.631	0.0148682
847.709	0.0150477
847.788	0.0150762
847.866	0.0148880
847.944	0.0149539
848.022	0.0151131
848.100	0.0152232
848.178	0.0151472
848.256	0.0152427
848.334	0.0151386
848.413	0.0153490
848.491	0.0152934
848.569	0.0151675
848.647	0.0151589
848.725	0.0153593
848.803	0.0153065
848.881	0.0152885
848.959	0.0152424
849.038	0.0151996
849.116	0.0150569
849.194	0.0150990
849.272	0.0150944
849.350	0.0150291
849.428	0.0150766
849.506	0.0149837
849.584	0.0150444
849.663	0.0150175
849.741	0.0149969
849.819	0.0149000
849.897	0.0149417
849.975	0.0150901
850.053	0.0151054
850.131	0.0150897
850.209	0.0150927
850.288	0.0150073
850.366	0.0150765
850.444	0.0152676
850.522	0.0151564
850.600	0.0151988
850.678	0.0152776
850.756	0.0153183
850.834	0.0153275
850.913	0.0153020
850.991	0.0151977
851.069	0.0153461
851.147	0.0152668
851.225	0.0152314
851.303	0.0151041
851.381	0.0152585
851.459	0.0153477
851.538	0.0152072
851.616	0.0151192
851.694	0.0150636
851.772	0.0152405
851.850	0.0151486
851.928	0.0150690
852.006	0.0150631
852.084	0.0150420
852.163	0.0151232
852.241	0.0147904
852.319	0.0149531
852.397	0.0151191
852.475	0.0150406
852.553	0.0149026
852.631	0.0149766
852.709	0.0150252
852.788	0.0150138
852.866	0.0151083
852.944	0.0153354
853.022	0.0152773
853.100	0.0153024
853.178	0.0154012
853.256	0.0154404
853.334	0.0154620
853.413	0.0155241
853.491	0.0155387
853.569	0.0156374
853.647	0.0155225
853.725	0.0155864
853.803	0.0156310
853.881	0.0155725
853.959	0.0156204
854.038	0.0156051
854.116	0.0155256
854.194	0.0154895
854.272	0.0153495
854.350	0.0153772
854.428	0.0155346
854.506	0.0154006
854.584	0.0152521
854.663	0.0151094
854.741	0.0150726
854.819	0.0149562
854.897	0.0150215
854.975	0.0149250
855.053	0.0149310
855.131	0.0149249
855.209	0.0150017
855.288	0.0148037
855.366	0.0147815
855.444	0.0149059
855.522	0.0147768
855.600	0.0147845
855.678	0.0149272
855.756	0.0148682
855.834	0.0148917
855.913	0.0149983
855.991	0.0149554
856.069	0.0150117
856.147	0.0150773
856.225	0.0151848
856.303	0.0151849
856.381	0.0150494
856.459	0.0152099
856.538	0.0152551
856.616	0.0151131
856.694	0.0151841
856.772	0.0151993
856.850	0.0151251
856.928	0.0152444
857.006	0.0151073
857.084	0.0150372
857.163	0.0149895
857.241	0.0150285
857.319	0.0149364
857.397	0.0149391
857.475	0.0149363
857.553	0.0148874
857.631	0.0149461
857.709	0.0148060
857.788	0.0149539
857.866	0.0148387
857.944	0.0151230
858.022	0.0149215
858.100	0.0149529
858.178	0.0151026
858.256	0.0150532
858.334	0.0151557
858.413	0.0151332
858.491	0.0151907
858.569	0.0151294
858.647	0.0151756
858.725	0.0152270
858.803	0.0151840
858.881	0.0153636
858.959	0.0154073
859.038	0.0154360
859.116	0.0153972
859.194	0.0153868
859.272	0.0153048
859.350	0.0152705
859.428	0.0154142
859.506	0.0154094
859.584	0.0153890
859.663	0.0152438
859.741	0.0153191
859.819	0.0153442
859.897	0.0152926
859.975	0.0151995
860.053	0.0151149
860.131	0.0153105
860.209	0.0151538
860.288	0.0151931
860.366	0.0152904
860.444	0.0152151
860.522	0.0151204
860.600	0.0152660
860.678	0.0151722
860.756	0.0152586
860.834	0.0152119
860.913	0.0151899
860.991	0.0152663
861.069	0.0151997
861.147	0.0152270
861.225	0.0153397
861.303	0.0153714
861.381	0.0150713
861.459	0.0152454
861.538	0.0153760
861.616	0.0152986
861.694	0.0152457
861.772	0.0153253
861.850	0.0152818
861.928	0.0152299
862.006	0.0152497
862.084	0.0152024
862.163	0.0151955
862.241	0.0151871
862.319	0.0151189
862.397	0.0150430
862.475	0.0150580
862.553	0.0149153
862.631	0.0151061
862.709	0.0151215
862.788	0.0150730
862.866	0.0151782
862.944	0.0150688
863.022	0.0151505
863.100	0.0150032
863.178	0.0150588
863.256	0.0149381
863.334	0.0150187
863.413	0.0149415
863.491	0.0149513
863.569	0.0149581
863.647	0.0147639
863.725	0.0149294
863.803	0.0151265
863.881	0.0150017
863.959	0.0149046
864.038	0.0149068
864.116	0.0149863
864.194	0.0150866
864.272	0.0150722
864.350	0.0151247
864.428	0.0151563
864.506	0.0150983
864.584	0.0152590
864.663	0.0152750
864.741	0.0152020
864.819	0.0151869
864.897	0.0152631
864.975	0.0152586
865.053	0.0151287
865.131	0.0151235
865.209	0.0151194
865.288	0.0150829
865.366	0.0152288
865.444	0.0152369
865.522	0.0151992
865.600	0.0151785
865.678	0.0150562
865.756	0.0150695
865.834	0.0150609
865.913	0.0150066
865.991	0.0149468
866.069	0.0151530
866.147	0.0151229
866.225	0.0149748
866.303	0.0150978
866.381	0.0150974
866.459	0.0148256
866.538	0.0151228
866.616	0.0150898
866.694	0.0150913
866.772	0.0152140
866.850	0.0151695
866.928	0.0152682
867.006	0.0153848
867.084	0.0153764
867.163	0.0154021
867.241	0.0154365
867.319	0.0153306
867.397	0.0154885
867.475	0.0155177
867.553	0.0154407
867.631	0.0155040
867.709	0.0155896
867.788	0.0155247
867.866	0.0154524
867.944	0.0152946
868.022	0.0153400
868.100	0.0153834
868.178	0.0151869
868.256	0.0152000
868.334	0.0152730
868.413	0.0152319
868.491	0.0151530
868.569	0.0151614
868.647	0.0150954
868.725	0.0150967
868.803	0.0150159
868.881	0.0150616
868.959	0.0149745
869.038	0.0151009
869.116	0.0151369
869.194	0.0151007
869.272	0.0151505
869.350	0.0153230
869.428	0.0154180
869.506	0.0151945
869.584	0.0151804
869.663	0.0152264
869.741	0.0153198
869.819	0.0152663
869.897	0.0154156
869.975	0.0154296
870.053	0.0155177
870.131	0.0156487
870.209	0.0153984
870.288	0.0153883
870.366	0.0154016
870.444	0.0153230
870.522	0.0153287
870.600	0.0153836
870.678	0.0152498
870.756	0.0153466
870.834	0.0153942
870.913	0.0151226
870.991	0.0152208
871.069	0.0151216
871.147	0.0150825
871.225	0.0149612
871.303	0.0150391
871.381	0.0149689
871.459	0.0149488
871.538	0.0150673
871.616	0.0148552
871.694	0.0150420
871.772	0.0149362
871.850	0.0149163
871.928	0.0150089
872.006	0.0150739
872.084	0.0149626
872.163	0.0151421
872.241	0.0149847
872.319	0.0150758
872.397	0.0150867
872.475	0.0150649
872.553	0.0150757
872.631	0.0149776
872.709	0.0150870
872.788	0.0153162
872.866	0.0152418
872.944	0.0151760
873.022	0.0151118
873.100	0.0150872
873.178	0.0151032
873.256	0.0152106
873.334	0.0151105
873.413	0.0151414
873.491	0.0151253
873.569	0.0151608
873.647	0.0150726
873.725	0.0152103
873.803	0.0152464
873.881	0.0151395
873.959	0.0152386
874.038	0.0152847
874.116	0.0151458
874.194	0.0150986
874.272	0.0151383
874.350	0.0151318
874.428	0.0150816
874.506	0.0150814
874.584	0.0151716
874.663	0.0153717
874.741	0.0153481
874.819	0.0152825
874.897	0.0153094
874.975	0.0154004
875.053	0.0153557
875.131	0.0154313
875.209	0.0153347
875.288	0.0154381
875.366	0.0153886
875.444	0.0152495
875.522	0.0152013
875.600	0.0153985
875.678	0.0152719
875.756	0.0153333
875.834	0.0151909
875.913	0.0151813
875.991	0.0152285
876.069	0.0151247
876.147	0.0150859
876.225	0.0150308
876.303	0.0151269
876.381	0.0150147
876.459	0.0149909
876.538	0.0149824
876.616	0.0149638
876.694	0.0150079
876.772	0.0149577
876.850	0.0148694
876.928	0.0149674
877.006	0.0149646
877.084	0.0149749
877.163	0.0150296
877.241	0.0150555
877.319	0.0151001
877.397	0.0151257
877.475	0.0152200
877.553	0.0152827
877.631	0.0152306
877.709	0.0153989
877.788	0.0154668
877.866	0.0153841
877.944	0.0152832
878.022	0.0153258
878.100	0.0153384
878.178	0.0151970
878.256	0.0153826
878.334	0.0153069
878.413	0.0151485
878.491	0.0153366
878.569	0.0151160
878.647	0.0151299
878.725	0.0150458
878.803	0.0149899
878.881	0.0149944
878.959	0.0148891
879.038	0.0148962
879.116	0.0148069
879.194	0.0149194
879.272	0.0148827
879.350	0.0149166
879.428	0.0148978
879.506	0.0150771
879.584	0.0150249
879.663	0.0150784
879.741	0.0151254
879.819	0.0150249
879.897	0.0150840
879.975	0.0151817
880.053	0.0151756
880.131	0.0151303
880.209	0.0149910
880.288	0.0149841
880.366	0.0150985
880.444	0.0152526
880.522	0.0151080
880.600	0.0150647
880.678	0.0152127
880.756	0.0151621
880.834	0.0150311
880.913	0.0149627
880.991	0.0149046
881.069	0.0150134
881.147	0.0149458
881.225	0.0147959
881.303	0.0148872
881.381	0.0149238
881.459	0.0149509
881.538	0.0149828
881.616	0.0148222
881.694	0.0148939
881.772	0.0149346
881.850	0.0148349
881.928	0.0149689
882.006	0.0148926
882.084	0.0148934
882.163	0.0150431
882.241	0.0151238
882.319	0.0151628
882.397	0.0152403
882.475	0.0154465
882.553	0.0154037
882.631	0.0155095
882.709	0.0156109
882.788	0.0154339
882.866	0.0155830
882.944	0.0156956
883.022	0.0155910
883.100	0.0155579
883.178	0.0155147
883.256	0.0153956
883.334	0.0154700
883.413	0.0154156
883.491	0.0153246
883.569	0.0152445
883.647	0.0152415
883.725	0.0153068
883.803	0.0151533
883.881	0.0151695
883.959	0.0151537
884.038	0.0151598
884.116	0.0151453
884.194	0.0151686
884.272	0.0150823
884.350	0.0149821
884.428	0.0150113
884.506	0.0148047
884.584	0.0150135
884.663	0.0150026
884.741	0.0148091
884.819	0.0148984
884.897	0.0148996
884.975	0.0147891
885.053	0.0150313
885.131	0.0150886
885.209	0.0151239
885.288	0.0151105
885.366	0.0152541
885.444	0.0153662
885.522	0.0154737
885.600	0.0155643
885.678	0.0156071
885.756	0.0156327
885.834	0.0155584
885.913	0.0156358
885.991	0.0156358
886.069	0.0156549
886.147	0.0154461
886.225	0.0152790
886.303	0.0153300
886.381	0.0152850
886.459	0.0152386
886.538	0.0151834
886.616	0.0152344
886.694	0.0151684
886.772	0.0151591
886.850	0.0150394
886.928	0.0151299
887.006	0.0150829
887.084	0.0151125
887.163	0.0150740
887.241	0.0152006
887.319	0.0151166
887.397	0.0151283
887.475	0.0150405
887.553	0.0151016
887.631	0.0148611
887.709	0.0149506
887.788	0.0149998
887.866	0.0148188
887.944	0.0150483
888.022	0.0151886
888.100	0.0150788
888.178	0.0150368
888.256	0.0152465
888.334	0.0154204
888.413	0.0154575
888.491	0.0152895
888.569	0.0152664
888.647	0.0153577
888.725	0.0153501
888.803	0.0155342
888.881	0.0151420
888.959	0.0152892
889.038	0.0153069
889.116	0.0151312
889.194	0.0150916
889.272	0.0149831
889.350	0.0151084
889.428	0.0151083
889.506	0.0149736
889.584	0.0148933
889.663	0.0149911
889.741	0.0149303
889.819	0.0148179
889.897	0.0148425
889.975	0.0148686
890.053	0.0149644
890.131	0.0149258
890.209	0.0149692
890.288	0.0149481
890.366	0.0150064
890.444	0.0150740
890.522	0.0152462
890.600	0.0152631
890.678	0.0151208
890.756	0.0152252
890.834	0.0153564
890.913	0.0154600
890.991	0.0153708
891.069	0.0153622
891.147	0.0154311
891.225	0.0155930
891.303	0.0155738
891.381	0.0155465
891.459	0.0154835
891.538	0.0154470
891.616	0.0154866
891.694	0.0155785
891.772	0.0154362
891.850	0.0153951
891.928	0.0154067
892.006	0.0154394
892.084	0.0154136
892.163	0.0152729
892.241	0.0154582
892.319	0.0152682
892.397	0.0153004
892.475	0.0152353
892.553	0.0152177
892.631	0.0151920
892.709	0.0151933
892.788	0.0151356
892.866	0.0150557
892.944	0.0152431
893.022	0.0151608
893.100	0.0149564
893.178	0.0149620
893.256	0.0150774
893.334	0.0149892
893.413	0.0148751
893.491	0.0148790
893.569	0.0148451
893.647	0.0148381
893.725	0.0148696
893.803	0.0150494
893.881	0.0150697
893.959	0.0149812
894.038	0.0150713
894.116	0.0151311
894.194	0.0151659
894.272	0.0151642
894.350	0.0152179
894.428	0.0152847
894.506	0.0151874
894.584	0.0153482
894.663	0.0153791
894.741	0.0153408
894.819	0.0152736
894.897	0.0153539
894.975	0.0153584
895.053	0.0154276
895.131	0.0152867
895.209	0.0151947
895.288	0.0154244
895.366	0.0153202
895.444	0.0153558
895.522	0.0152901
895.600	0.0153071
895.678	0.0153805
895.756	0.0152522
895.834	0.0152065
895.913	0.0153336
895.991	0.0151533
896.069	0.0150864
896.147	0.0151193
896.225	0.0150255
896.303	0.0151015
896.381	0.0150443
896.459	0.0149663
896.538	0.0150848
896.616	0.0150784
896.694	0.0149822
896.772	0.0149040
896.850	0.0150386
896.928	0.0150090
897.006	0.0149310
897.084	0.0147936
897.163	0.0149686
897.241	0.0149333
897.319	0.0148771
897.397	0.0149920
897.475	0.0149246
897.553	0.0151726
897.631	0.0150485
897.709	0.0151472
897.788	0.0152077
897.866	0.0151678
897.944	0.0153770
898.022	0.0154465
898.100	0.0153930
898.178	0.0155038
898.256	0.0154262
898.334	0.0155657
898.413	0.0155331
898.491	0.0153270
898.569	0.0151788
898.647	0.0151974
898.725	0.0151386
898.803	0.0149797
898.881	0.0150671
898.959	0.0151210
899.038	0.0151356
899.116	0.0149403
899.194	0.0150190
899.272	0.0149660
899.350	0.0149377
899.428	0.0150977
899.506	0.0152469
899.584	0.0151212
899.663	0.0151633
899.741	0.0152015
899.819	0.0152679
899.897	0.0152650
899.975	0.0151483
900.053	0.0152225
900.131	0.0152148
900.209	0.0153637
900.288	0.0152845
900.366	0.0151665
900.444	0.0153329
900.522	0.0152694
900.600	0.0152079
900.678	0.0152400
900.756	0.0152933
900.834	0.0151642
900.913	0.0152086
900.991	0.0152524
901.069	0.0150227
901.147	0.0151329
901.225	0.0150967
901.303	0.0149559
901.381	0.0150230
901.459	0.0151993
901.538	0.0150211
901.616	0.0151663
901.694	0.0152736
901.772	0.0152225
901.850	0.0151994
901.928	0.0150908
902.006	0.0151043
902.084	0.0151392
902.163	0.0151752
902.241	0.0152043
902.319	0.0152403
902.397	0.0151830
902.475	0.0151054
902.553	0.0152499
902.631	0.0151391
902.709	0.0154102
902.788	0.0154290
902.866	0.0152673
902.944	0.0152543
903.022	0.0151682
903.100	0.0151201
903.178	0.0151443
903.256	0.0151301
903.334	0.0150613
903.413	0.0150100
903.491	0.0148537
903.569	0.0148705
903.647	0.0148230
903.725	0.0148216
903.803	0.0150003
903.881	0.0149409
903.959	0.0148940
904.038	0.0151431
904.116	0.0153220
904.194	0.0152185
904.272	0.0152061
904.350	0.0152114
904.428	0.0152570
904.506	0.0152769
904.584	0.0151487
904.663	0.0151137
904.741	0.0150740
904.819	0.0153459
904.897	0.0152651
904.975	0.0152538
905.053	0.0151031
905.131	0.0153423
905.209	0.0152538
905.288	0.0152921
905.366	0.0152241
905.444	0.0153017
905.522	0.0152619
905.600	0.0151809
905.678	0.0152309
905.756	0.0151849
905.834	0.0151063
905.913	0.0151878
905.991	0.0151659
906.069	0.0149931
906.147	0.0151242
906.225	0.0150731
906.303	0.0149955
906.381	0.0150970
906.459	0.0150559
906.538	0.0150148
906.616	0.0150141
906.694	0.0149714
906.772	0.0150148
906.850	0.0148907
906.928	0.0150211
907.006	0.0150379
907.084	0.0151200
907.163	0.0150946
907.241	0.0152138
907.319	0.0153067
907.397	0.0151311
907.475	0.0153326
907.553	0.0153159
907.631	0.0152612
907.709	0.0153052
907.788	0.0152017
907.866	0.0153190
907.944	0.0154171
908.022	0.0152329
908.100	0.0152525
908.178	0.0153878
908.256	0.0153984
908.334	0.0154514
908.413	0.0153177
908.491	0.0152130
908.569	0.0153261
908.647	0.0154055
908.725	0.0152299
908.803	0.0151664
908.881	0.0152705
908.959	0.0151728
909.038	0.0151999
909.116	0.0151807
909.194	0.0150388
909.272	0.0151978
909.350	0.0151129
909.428	0.0152362
909.506	0.0152807
909.584	0.0152943
909.663	0.0151922
909.741	0.0151864
909.819	0.0151662
909.897	0.0152514
909.975	0.0152480
910.053	0.0153186
910.131	0.0153405
910.209	0.0152222
910.288	0.0152623
910.366	0.0152314
910.444	0.0151151
910.522	0.0150790
910.600	0.0150172
910.678	0.0151389
910.756	0.0150288
910.834	0.0150833
910.913	0.0150729
910.991	0.0152363
911.069	0.0152279
911.147	0.0153684
911.225	0.0151881
911.303	0.0152168
911.381	0.0154491
911.459	0.0152916
911.538	0.0153432
911.616	0.0152866
911.694	0.0151960
911.772	0.0152235
911.850	0.0152052
911.928	0.0151743
912.006	0.0153004
912.084	0.0152442
912.163	0.0150898
912.241	0.0150332
912.319	0.0150325
912.397	0.0151029
912.475	0.0150492
912.553	0.0151770
912.631	0.0151762
912.709	0.0149728
912.788	0.0150750
912.866	0.0150742
912.944	0.0150193
913.022	0.0151044
913.100	0.0150180
913.178	0.0149872
913.256	0.0150716
913.334	0.0150726
913.413	0.0150182
913.491	0.0150765
913.569	0.0152624
913.647	0.0152021
913.725	0.0150375
913.803	0.0153334
913.881	0.0153384
913.959	0.0152773
914.038	0.0153590
914.116	0.0154333
914.194	0.0153192
914.272	0.0152859
914.350	0.0152040
914.428	0.0154701
914.506	0.0152078
914.584	0.0152927
914.663	0.0152254
914.741	0.0152943
914.819	0.0152160
914.897	0.0152419
914.975	0.0152997
915.053	0.0153420
915.131	0.0152013
915.209	0.0152604
915.288	0.0152176
915.366	0.0151638
915.444	0.0151285
915.522	0.0153278
915.600	0.0153066
915.678	0.0152197
915.756	0.0151968
915.834	0.0151927
915.913	0.0152402
915.991	0.0151555
916.069	0.0152840
916.147	0.0152669
916.225	0.0151564
916.303	0.0150760
916.381	0.0152992
916.459	0.0150465
916.538	0.0149599
916.616	0.0151095
916.694	0.0151294
916.772	0.0150223
916.850	0.0150455
916.928	0.0151064
917.006	0.0152719
917.084	0.0153030
917.163	0.0150797
917.241	0.0151384
917.319	0.0153096
917.397	0.0152100
917.475	0.0151226
917.553	0.0151613
917.631	0.0149734
917.709	0.0151534
917.788	0.0151676
917.866	0.0151358
917.944	0.0149461
918.022	0.0150818
918.100	0.0151075
918.178	0.0151190
918.256	0.0151524
918.334	0.0151892
918.413	0.0152464
918.491	0.0152892
918.569	0.0152540
918.647	0.0152644
918.725	0.0152673
918.803	0.0153070
918.881	0.0153782
918.959	0.0153069
919.038	0.0152883
919.116	0.0154516
919.194	0.0151985
919.272	0.0152633
919.350	0.0152412
919.428	0.0153254
919.506	0.0152051
919.584	0.0151502
919.663	0.0152247
919.741	0.0152145
919.819	0.0150931
919.897	0.0150423
