05/20/2022	20:59:33	Ver.	4.1	UNKNOWN
Optical Delay	599.975067	Delta X		0.078125	Sweeps	1	Scan Rate	0/0
Coordinates	Axis 1	NaN	Axis 2	NaN	Axis 3	NaN	Axis 4	NaN	Axis 5	NaN	Axis 6	0.000000
TX Power	0.000000	RX Power	0.000000

599.975	0.0153815
600.053	0.0155215
600.131	0.0153412
600.209	0.0153791
600.288	0.0153505
600.366	0.0153468
600.444	0.0154620
600.522	0.0153396
600.600	0.0154353
600.678	0.0153720
600.756	0.0152928
600.834	0.0154340
600.913	0.0155492
600.991	0.0153294
601.069	0.0153695
601.147	0.0152435
601.225	0.0153237
601.303	0.0154036
601.381	0.0154568
601.459	0.0152735
601.538	0.0154371
601.616	0.0154402
601.694	0.0154144
601.772	0.0154193
601.850	0.0154178
601.928	0.0154911
602.006	0.0153813
602.084	0.0154592
602.163	0.0153342
602.241	0.0152744
602.319	0.0153716
602.397	0.0154256
602.475	0.0154379
602.553	0.0153690
602.631	0.0153521
602.709	0.0154680
602.788	0.0153805
602.866	0.0153682
602.944	0.0154982
603.022	0.0154836
603.100	0.0153233
603.178	0.0155067
603.256	0.0153133
603.334	0.0153527
603.413	0.0154537
603.491	0.0153045
603.569	0.0152221
603.647	0.0154110
603.725	0.0153177
603.803	0.0154127
603.881	0.0153428
603.959	0.0153403
604.038	0.0153475
604.116	0.0154297
604.194	0.0152888
604.272	0.0154447
604.350	0.0152462
604.428	0.0153309
604.506	0.0153236
604.584	0.0155882
604.663	0.0154922
604.741	0.0154687
604.819	0.0153498
604.897	0.0154668
604.975	0.0154330
605.053	0.0155650
605.131	0.0153404
605.209	0.0153806
605.288	0.0154478
605.366	0.0154807
605.444	0.0153931
605.522	0.0152068
605.600	0.0153692
605.678	0.0153552
605.756	0.0155733
605.834	0.0154046
605.913	0.0152277
605.991	0.0155109
606.069	0.0154171
606.147	0.0153996
606.225	0.0154679
606.303	0.0153642
606.381	0.0153588
606.459	0.0153468
606.538	0.0153822
606.616	0.0154227
606.694	0.0155907
606.772	0.0154559
606.850	0.0153529
606.928	0.0153402
607.006	0.0154012
607.084	0.0153978
607.163	0.0152949
607.241	0.0152747
607.319	0.0153712
607.397	0.0153526
607.475	0.0152686
607.553	0.0155042
607.631	0.0155969
607.709	0.0155183
607.788	0.0155297
607.866	0.0153795
607.944	0.0154276
608.022	0.0154598
608.100	0.0154447
608.178	0.0154471
608.256	0.0154017
608.334	0.0154316
608.413	0.0154307
608.491	0.0154397
608.569	0.0153511
608.647	0.0154086
608.725	0.0153901
608.803	0.0154461
608.881	0.0153878
608.959	0.0153743
609.038	0.0153744
609.116	0.0154249
609.194	0.0155578
609.272	0.0153829
609.350	0.0154566
609.428	0.0154959
609.506	0.0153166
609.584	0.0154145
609.663	0.0154394
609.741	0.0154173
609.819	0.0154151
609.897	0.0154954
609.975	0.0155127
610.053	0.0156676
610.131	0.0153410
610.209	0.0154017
610.288	0.0154056
610.366	0.0154111
610.444	0.0153143
610.522	0.0154202
610.600	0.0153205
610.678	0.0154739
610.756	0.0154827
610.834	0.0153969
610.913	0.0152878
610.991	0.0154134
611.069	0.0153217
611.147	0.0154192
611.225	0.0155326
611.303	0.0154678
611.381	0.0153023
611.459	0.0153017
611.538	0.0154599
611.616	0.0153141
611.694	0.0152845
611.772	0.0154580
611.850	0.0154184
611.928	0.0153997
612.006	0.0154658
612.084	0.0154070
612.163	0.0153487
612.241	0.0154062
612.319	0.0152817
612.397	0.0153243
612.475	0.0154380
612.553	0.0154420
612.631	0.0153145
612.709	0.0154264
612.788	0.0153797
612.866	0.0153528
612.944	0.0153654
613.022	0.0153682
613.100	0.0154890
613.178	0.0153105
613.256	0.0153601
613.334	0.0154228
613.413	0.0154031
613.491	0.0155673
613.569	0.0156165
613.647	0.0155513
613.725	0.0154292
613.803	0.0154026
613.881	0.0154745
613.959	0.0155154
614.038	0.0154633
614.116	0.0155752
614.194	0.0155811
614.272	0.0155245
614.350	0.0155576
614.428	0.0155817
614.506	0.0156320
614.584	0.0153874
614.663	0.0153307
614.741	0.0155698
614.819	0.0156168
614.897	0.0153400
614.975	0.0155055
615.053	0.0154965
615.131	0.0154821
615.209	0.0154956
615.288	0.0155569
615.366	0.0154726
615.444	0.0154752
615.522	0.0154179
615.600	0.0154917
615.678	0.0153757
615.756	0.0155135
615.834	0.0154886
615.913	0.0155082
615.991	0.0154324
616.069	0.0154060
616.147	0.0154102
616.225	0.0155322
616.303	0.0154123
616.381	0.0154315
616.459	0.0155037
616.538	0.0154284
616.616	0.0155365
616.694	0.0155172
616.772	0.0155451
616.850	0.0155650
616.928	0.0154620
617.006	0.0155010
617.084	0.0154874
617.163	0.0155513
617.241	0.0154836
617.319	0.0155460
617.397	0.0155962
617.475	0.0154240
617.553	0.0154008
617.631	0.0154109
617.709	0.0155466
617.788	0.0154652
617.866	0.0155196
617.944	0.0154858
618.022	0.0155064
618.100	0.0155128
618.178	0.0154919
618.256	0.0154943
618.334	0.0156443
618.413	0.0155084
618.491	0.0155318
618.569	0.0154816
618.647	0.0155820
618.725	0.0155531
618.803	0.0154044
618.881	0.0154987
618.959	0.0155666
619.038	0.0155451
619.116	0.0153842
619.194	0.0152823
619.272	0.0154018
619.350	0.0155700
619.428	0.0155636
619.506	0.0154057
619.584	0.0154170
619.663	0.0154492
619.741	0.0154504
619.819	0.0155359
619.897	0.0155077
619.975	0.0154710
620.053	0.0155552
620.131	0.0156380
620.209	0.0154254
620.288	0.0156140
620.366	0.0156656
620.444	0.0156313
620.522	0.0154372
620.600	0.0156306
620.678	0.0156609
620.756	0.0156104
620.834	0.0156893
620.913	0.0155606
620.991	0.0155175
621.069	0.0156025
621.147	0.0155785
621.225	0.0155263
621.303	0.0155539
621.381	0.0155113
621.459	0.0155709
621.538	0.0155693
621.616	0.0155519
621.694	0.0156362
621.772	0.0153928
621.850	0.0154782
621.928	0.0156194
622.006	0.0155775
622.084	0.0155190
622.163	0.0154449
622.241	0.0155401
622.319	0.0154978
622.397	0.0153701
622.475	0.0155529
622.553	0.0156312
622.631	0.0155350
622.709	0.0155385
622.788	0.0154577
622.866	0.0156191
622.944	0.0155418
623.022	0.0155219
623.100	0.0154626
623.178	0.0154517
623.256	0.0154575
623.334	0.0154269
623.413	0.0154539
623.491	0.0155122
623.569	0.0154279
623.647	0.0155458
623.725	0.0154248
623.803	0.0154119
623.881	0.0154339
623.959	0.0153638
624.038	0.0154537
624.116	0.0155142
624.194	0.0155550
624.272	0.0153585
624.350	0.0154810
624.428	0.0154205
624.506	0.0153108
624.584	0.0153755
624.663	0.0155618
624.741	0.0154588
624.819	0.0153606
624.897	0.0154437
624.975	0.0154331
625.053	0.0153326
625.131	0.0153644
625.209	0.0154092
625.288	0.0153336
625.366	0.0152306
625.444	0.0152757
625.522	0.0152961
625.600	0.0153794
625.678	0.0153831
625.756	0.0153093
625.834	0.0153603
625.913	0.0153362
625.991	0.0153188
626.069	0.0153795
626.147	0.0151601
626.225	0.0153382
626.303	0.0153443
626.381	0.0151418
626.459	0.0151642
626.538	0.0153041
626.616	0.0152154
626.694	0.0152911
626.772	0.0153563
626.850	0.0151831
626.928	0.0153106
627.006	0.0153860
627.084	0.0151334
627.163	0.0152300
627.241	0.0152864
627.319	0.0153479
627.397	0.0152090
627.475	0.0152086
627.553	0.0152696
627.631	0.0153083
627.709	0.0152437
627.788	0.0151429
627.866	0.0153167
627.944	0.0152052
628.022	0.0151331
628.100	0.0153004
628.178	0.0152906
628.256	0.0152855
628.334	0.0153008
628.413	0.0153347
628.491	0.0151513
628.569	0.0151768
628.647	0.0152701
628.725	0.0152222
628.803	0.0151675
628.881	0.0154313
628.959	0.0153973
629.038	0.0152953
629.116	0.0153371
629.194	0.0152048
629.272	0.0153029
629.350	0.0153077
629.428	0.0153565
629.506	0.0154809
629.584	0.0152269
629.663	0.0152876
629.741	0.0153397
629.819	0.0154496
629.897	0.0153777
629.975	0.0152431
630.053	0.0153065
630.131	0.0152938
630.209	0.0153568
630.288	0.0152783
630.366	0.0152505
630.444	0.0153365
630.522	0.0153144
630.600	0.0151968
630.678	0.0153467
630.756	0.0152714
630.834	0.0153467
630.913	0.0153660
630.991	0.0154971
631.069	0.0154288
631.147	0.0153412
631.225	0.0153096
631.303	0.0154830
631.381	0.0155912
631.459	0.0154050
631.538	0.0152809
631.616	0.0153749
631.694	0.0155817
631.772	0.0152794
631.850	0.0153687
631.928	0.0154884
632.006	0.0152745
632.084	0.0154655
632.163	0.0153387
632.241	0.0153327
632.319	0.0155242
632.397	0.0153740
632.475	0.0153433
632.553	0.0153136
632.631	0.0152836
632.709	0.0154358
632.788	0.0154733
632.866	0.0154836
632.944	0.0153133
633.022	0.0153748
633.100	0.0152899
633.178	0.0153829
633.256	0.0153916
633.334	0.0152554
633.413	0.0153712
633.491	0.0153831
633.569	0.0155103
633.647	0.0154916
633.725	0.0154298
633.803	0.0154059
633.881	0.0152965
633.959	0.0152964
634.038	0.0155341
634.116	0.0155392
634.194	0.0154796
634.272	0.0154616
634.350	0.0155115
634.428	0.0155209
634.506	0.0154185
634.584	0.0154643
634.663	0.0154673
634.741	0.0154644
634.819	0.0154592
634.897	0.0154909
634.975	0.0155672
635.053	0.0155070
635.131	0.0154620
635.209	0.0154854
635.288	0.0154792
635.366	0.0154953
635.444	0.0154689
635.522	0.0153914
635.600	0.0153998
635.678	0.0155351
635.756	0.0156554
635.834	0.0154797
635.913	0.0155543
635.991	0.0155026
636.069	0.0155177
636.147	0.0155729
636.225	0.0154714
636.303	0.0154445
636.381	0.0154715
636.459	0.0154961
636.538	0.0155603
636.616	0.0154713
636.694	0.0154359
636.772	0.0156518
636.850	0.0155481
636.928	0.0155025
637.006	0.0155177
637.084	0.0154486
637.163	0.0154600
637.241	0.0155388
637.319	0.0155729
637.397	0.0156020
637.475	0.0155309
637.553	0.0156332
637.631	0.0155727
637.709	0.0155391
637.788	0.0154118
637.866	0.0155269
637.944	0.0154393
638.022	0.0155153
638.100	0.0155521
638.178	0.0154683
638.256	0.0156052
638.334	0.0155170
638.413	0.0155420
638.491	0.0156222
638.569	0.0156226
638.647	0.0154692
638.725	0.0155213
638.803	0.0155164
638.881	0.0154776
638.959	0.0155021
639.038	0.0154834
639.116	0.0156335
639.194	0.0156107
639.272	0.0156223
639.350	0.0155341
639.428	0.0153839
639.506	0.0153970
639.584	0.0154713
639.663	0.0155517
639.741	0.0154636
639.819	0.0154953
639.897	0.0155786
639.975	0.0157505
640.053	0.0155563
640.131	0.0156695
640.209	0.0155712
640.288	0.0155756
640.366	0.0155732
640.444	0.0155617
640.522	0.0152839
640.600	0.0155067
640.678	0.0156770
640.756	0.0155591
640.834	0.0155936
640.913	0.0155886
640.991	0.0156258
641.069	0.0156901
641.147	0.0157578
641.225	0.0155552
641.303	0.0155518
641.381	0.0156560
641.459	0.0155518
641.538	0.0155895
641.616	0.0154007
641.694	0.0156862
641.772	0.0154640
641.850	0.0154161
641.928	0.0156131
642.006	0.0156531
642.084	0.0157561
642.163	0.0155613
642.241	0.0155914
642.319	0.0157116
642.397	0.0155727
642.475	0.0155864
642.553	0.0157272
642.631	0.0155408
642.709	0.0154996
642.788	0.0156159
642.866	0.0155997
642.944	0.0155873
643.022	0.0155095
643.100	0.0155489
643.178	0.0156181
643.256	0.0156225
643.334	0.0154443
643.413	0.0155845
643.491	0.0156466
643.569	0.0155215
643.647	0.0155072
643.725	0.0154138
643.803	0.0155875
643.881	0.0156678
643.959	0.0154933
644.038	0.0155506
644.116	0.0154859
644.194	0.0154347
644.272	0.0154553
644.350	0.0153970
644.428	0.0155876
644.506	0.0154997
644.584	0.0155190
644.663	0.0154752
644.741	0.0154314
644.819	0.0154574
644.897	0.0155423
644.975	0.0154758
645.053	0.0155042
645.131	0.0154740
645.209	0.0154836
645.288	0.0155551
645.366	0.0154492
645.444	0.0155317
645.522	0.0154142
645.600	0.0154211
645.678	0.0154485
645.756	0.0153320
645.834	0.0154282
645.913	0.0154534
645.991	0.0153593
646.069	0.0153576
646.147	0.0152353
646.225	0.0153789
646.303	0.0154453
646.381	0.0153932
646.459	0.0153770
646.538	0.0153625
646.616	0.0154343
646.694	0.0153889
646.772	0.0153204
646.850	0.0154524
646.928	0.0153372
647.006	0.0152634
647.084	0.0153961
647.163	0.0153185
647.241	0.0153917
647.319	0.0153639
647.397	0.0154090
647.475	0.0153593
647.553	0.0153038
647.631	0.0153136
647.709	0.0152682
647.788	0.0152350
647.866	0.0153473
647.944	0.0153278
648.022	0.0153192
648.100	0.0153267
648.178	0.0152986
648.256	0.0153547
648.334	0.0152567
648.413	0.0153186
648.491	0.0153724
648.569	0.0152745
648.647	0.0152570
648.725	0.0153594
648.803	0.0154626
648.881	0.0153265
648.959	0.0152117
649.038	0.0153127
649.116	0.0153283
649.194	0.0153658
649.272	0.0153284
649.350	0.0152731
649.428	0.0154765
649.506	0.0153125
649.584	0.0152480
649.663	0.0151717
649.741	0.0153416
649.819	0.0153596
649.897	0.0152314
649.975	0.0152033
650.053	0.0151917
650.131	0.0151441
650.209	0.0152489
650.288	0.0153553
650.366	0.0153003
650.444	0.0152536
650.522	0.0152020
650.600	0.0152535
650.678	0.0153218
650.756	0.0154399
650.834	0.0153942
650.913	0.0151624
650.991	0.0152777
651.069	0.0153065
651.147	0.0152673
651.225	0.0153776
651.303	0.0153495
651.381	0.0152937
651.459	0.0153204
651.538	0.0153638
651.616	0.0153619
651.694	0.0153156
651.772	0.0153586
651.850	0.0152435
651.928	0.0152412
652.006	0.0154247
652.084	0.0152203
652.163	0.0151557
652.241	0.0152814
652.319	0.0153029
652.397	0.0151442
652.475	0.0153851
652.553	0.0152024
652.631	0.0153533
652.709	0.0154456
652.788	0.0153519
652.866	0.0154503
652.944	0.0153857
653.022	0.0154404
653.100	0.0153556
653.178	0.0153254
653.256	0.0152807
653.334	0.0153777
653.413	0.0153082
653.491	0.0152939
653.569	0.0154649
653.647	0.0153044
653.725	0.0153102
653.803	0.0153635
653.881	0.0154287
653.959	0.0154107
654.038	0.0153369
654.116	0.0154819
654.194	0.0154134
654.272	0.0153031
654.350	0.0154591
654.428	0.0152605
654.506	0.0153005
654.584	0.0154362
654.663	0.0154398
654.741	0.0153382
654.819	0.0153738
654.897	0.0154489
654.975	0.0154041
655.053	0.0153620
655.131	0.0154082
655.209	0.0153434
655.288	0.0153865
655.366	0.0153753
655.444	0.0154034
655.522	0.0153799
655.600	0.0153210
655.678	0.0154799
655.756	0.0154430
655.834	0.0153531
655.913	0.0153908
655.991	0.0154237
656.069	0.0155047
656.147	0.0155109
656.225	0.0153814
656.303	0.0154170
656.381	0.0154827
656.459	0.0154804
656.538	0.0154195
656.616	0.0153899
656.694	0.0154357
656.772	0.0156413
656.850	0.0152854
656.928	0.0154455
657.006	0.0154282
657.084	0.0153135
657.163	0.0155758
657.241	0.0154135
657.319	0.0153616
657.397	0.0155165
657.475	0.0154272
657.553	0.0155261
657.631	0.0154570
657.709	0.0155548
657.788	0.0155475
657.866	0.0154286
657.944	0.0153886
658.022	0.0155292
658.100	0.0155596
658.178	0.0154900
658.256	0.0155001
658.334	0.0153922
658.413	0.0154736
658.491	0.0155270
658.569	0.0154929
658.647	0.0155536
658.725	0.0155014
658.803	0.0154012
658.881	0.0154948
658.959	0.0154884
659.038	0.0154411
659.116	0.0154758
659.194	0.0155107
659.272	0.0155865
659.350	0.0154818
659.428	0.0154744
659.506	0.0155702
659.584	0.0155641
659.663	0.0155447
659.741	0.0155444
659.819	0.0155074
659.897	0.0155563
659.975	0.0155014
660.053	0.0154764
660.131	0.0154599
660.209	0.0156580
660.288	0.0154103
660.366	0.0155129
660.444	0.0154874
660.522	0.0153895
660.600	0.0154534
660.678	0.0155348
660.756	0.0155214
660.834	0.0155702
660.913	0.0154752
660.991	0.0154630
661.069	0.0154987
661.147	0.0154293
661.225	0.0154189
661.303	0.0153327
661.381	0.0154125
661.459	0.0153281
661.538	0.0155245
661.616	0.0157159
661.694	0.0155127
661.772	0.0154762
661.850	0.0155673
661.928	0.0155103
662.006	0.0155847
662.084	0.0155253
662.163	0.0156731
662.241	0.0157092
662.319	0.0157426
662.397	0.0155946
662.475	0.0155740
662.553	0.0155748
662.631	0.0157122
662.709	0.0156490
662.788	0.0157322
662.866	0.0156093
662.944	0.0156052
663.022	0.0156842
663.100	0.0155563
663.178	0.0155460
663.256	0.0154523
663.334	0.0154135
663.413	0.0154053
663.491	0.0153982
663.569	0.0152579
663.647	0.0151369
663.725	0.0150520
663.803	0.0151546
663.881	0.0152542
663.959	0.0151717
664.038	0.0152390
664.116	0.0152107
664.194	0.0151846
664.272	0.0153703
664.350	0.0152240
664.428	0.0153445
664.506	0.0153039
664.584	0.0153155
664.663	0.0155316
664.741	0.0156325
664.819	0.0156297
664.897	0.0156361
664.975	0.0155976
665.053	0.0157583
665.131	0.0157258
665.209	0.0156281
665.288	0.0157198
665.366	0.0157553
665.444	0.0157910
665.522	0.0157317
665.600	0.0157021
665.678	0.0156377
665.756	0.0157362
665.834	0.0156120
665.913	0.0155347
665.991	0.0156832
666.069	0.0155457
666.147	0.0155700
666.225	0.0154617
666.303	0.0154961
666.381	0.0152998
666.459	0.0154891
666.538	0.0153970
666.616	0.0152609
666.694	0.0153744
666.772	0.0153416
666.850	0.0152282
666.928	0.0154097
667.006	0.0152245
667.084	0.0153744
667.163	0.0152287
667.241	0.0154008
667.319	0.0153396
667.397	0.0153248
667.475	0.0152539
667.553	0.0154417
667.631	0.0155198
667.709	0.0154603
667.788	0.0153646
667.866	0.0153571
667.944	0.0154778
668.022	0.0155034
668.100	0.0154556
668.178	0.0154436
668.256	0.0153151
668.334	0.0155225
668.413	0.0154250
668.491	0.0154119
668.569	0.0155685
668.647	0.0155015
668.725	0.0154996
668.803	0.0155428
668.881	0.0156095
668.959	0.0155325
669.038	0.0154982
669.116	0.0156097
669.194	0.0156686
669.272	0.0155287
669.350	0.0154689
669.428	0.0156991
669.506	0.0155988
669.584	0.0156925
669.663	0.0155187
669.741	0.0154974
669.819	0.0156379
669.897	0.0155334
669.975	0.0155923
670.053	0.0155193
670.131	0.0155280
670.209	0.0155244
670.288	0.0154842
670.366	0.0155616
670.444	0.0153715
670.522	0.0155069
670.600	0.0154896
670.678	0.0153749
670.756	0.0151331
670.834	0.0152753
670.913	0.0153185
670.991	0.0151727
671.069	0.0151598
671.147	0.0151017
671.225	0.0150161
671.303	0.0151502
671.381	0.0151650
671.459	0.0149701
671.538	0.0150968
671.616	0.0150792
671.694	0.0151947
671.772	0.0152063
671.850	0.0152737
671.928	0.0152060
672.006	0.0152148
672.084	0.0152423
672.163	0.0152222
672.241	0.0154237
672.319	0.0154183
672.397	0.0155620
672.475	0.0156470
672.553	0.0155476
672.631	0.0155804
672.709	0.0156545
672.788	0.0157056
672.866	0.0157956
672.944	0.0157633
673.022	0.0158765
673.100	0.0159278
673.178	0.0160150
673.256	0.0160808
673.334	0.0158639
673.413	0.0158526
673.491	0.0157955
673.569	0.0159570
673.647	0.0158963
673.725	0.0157332
673.803	0.0155095
673.881	0.0154011
673.959	0.0155035
674.038	0.0152436
674.116	0.0152076
674.194	0.0152705
674.272	0.0150977
674.350	0.0150394
674.428	0.0149586
674.506	0.0148885
674.584	0.0149002
674.663	0.0149503
674.741	0.0149274
674.819	0.0147919
674.897	0.0148293
674.975	0.0148786
675.053	0.0149261
675.131	0.0148948
675.209	0.0148991
675.288	0.0150658
675.366	0.0150799
675.444	0.0150628
675.522	0.0150221
675.600	0.0151267
675.678	0.0151904
675.756	0.0152390
675.834	0.0153849
675.913	0.0154530
675.991	0.0155477
676.069	0.0156624
676.147	0.0156086
676.225	0.0157114
676.303	0.0157143
676.381	0.0157854
676.459	0.0158138
676.538	0.0157185
676.616	0.0158722
676.694	0.0157850
676.772	0.0156334
676.850	0.0157941
676.928	0.0157467
677.006	0.0156713
677.084	0.0157232
677.163	0.0157639
677.241	0.0157397
677.319	0.0156641
677.397	0.0155117
677.475	0.0153482
677.553	0.0154435
677.631	0.0153729
677.709	0.0154503
677.788	0.0153943
677.866	0.0154607
677.944	0.0152214
678.022	0.0151405
678.100	0.0151563
678.178	0.0150730
678.256	0.0150583
678.334	0.0150144
678.413	0.0148553
678.491	0.0149648
678.569	0.0149519
678.647	0.0147572
678.725	0.0148406
678.803	0.0149490
678.881	0.0149957
678.959	0.0148796
679.038	0.0150484
679.116	0.0151326
679.194	0.0150209
679.272	0.0151589
679.350	0.0151255
679.428	0.0152317
679.506	0.0154039
679.584	0.0154276
679.663	0.0154121
679.741	0.0157082
679.819	0.0156697
679.897	0.0158286
679.975	0.0156761
680.053	0.0158413
680.131	0.0159088
680.209	0.0158431
680.288	0.0158678
680.366	0.0158552
680.444	0.0156921
680.522	0.0157296
680.600	0.0156728
680.678	0.0156461
680.756	0.0155896
680.834	0.0155770
680.913	0.0154915
680.991	0.0154083
681.069	0.0154736
681.147	0.0152420
681.225	0.0153201
681.303	0.0151537
681.381	0.0151654
681.459	0.0150568
681.538	0.0149743
681.616	0.0150008
681.694	0.0149731
681.772	0.0150657
681.850	0.0150149
681.928	0.0153040
682.006	0.0153889
682.084	0.0154734
682.163	0.0155649
682.241	0.0156474
682.319	0.0157761
682.397	0.0158393
682.475	0.0156471
682.553	0.0156631
682.631	0.0156786
682.709	0.0154555
682.788	0.0152775
682.866	0.0151914
682.944	0.0151543
683.022	0.0150882
683.100	0.0149110
683.178	0.0146751
683.256	0.0148560
683.334	0.0148135
683.413	0.0148920
683.491	0.0148873
683.569	0.0150040
683.647	0.0151237
683.725	0.0152532
683.803	0.0155092
683.881	0.0155367
683.959	0.0157036
684.038	0.0158867
684.116	0.0160387
684.194	0.0159898
684.272	0.0161127
684.350	0.0160499
684.428	0.0163605
684.506	0.0161607
684.584	0.0160389
684.663	0.0159624
684.741	0.0159308
684.819	0.0158179
684.897	0.0156756
684.975	0.0156448
685.053	0.0154796
685.131	0.0153383
685.209	0.0152559
685.288	0.0153432
685.366	0.0152628
685.444	0.0150331
685.522	0.0152369
685.600	0.0150674
685.678	0.0150969
685.756	0.0151436
685.834	0.0149937
685.913	0.0149265
685.991	0.0148456
686.069	0.0149416
686.147	0.0148134
686.225	0.0146219
686.303	0.0146604
686.381	0.0145205
686.459	0.0144918
686.538	0.0146478
686.616	0.0147703
686.694	0.0149090
686.772	0.0151348
686.850	0.0154679
686.928	0.0156536
687.006	0.0157509
687.084	0.0160506
687.163	0.0162056
687.241	0.0166372
687.319	0.0167015
687.397	0.0169928
687.475	0.0170451
687.553	0.0170876
687.631	0.0170804
687.709	0.0170644
687.788	0.0168587
687.866	0.0168105
687.944	0.0165600
688.022	0.0162855
688.100	0.0160400
688.178	0.0158782
688.256	0.0154176
688.334	0.0151346
688.413	0.0149074
688.491	0.0147287
688.569	0.0144500
688.647	0.0143626
688.725	0.0141546
688.803	0.0142307
688.881	0.0141470
688.959	0.0140391
689.038	0.0137376
689.116	0.0137996
689.194	0.0135369
689.272	0.0136785
689.350	0.0137786
689.428	0.0136469
689.506	0.0136034
689.584	0.0138446
689.663	0.0142100
689.741	0.0143643
689.819	0.0147921
689.897	0.0153310
689.975	0.0157801
690.053	0.0161204
690.131	0.0167274
690.209	0.0170956
690.288	0.0174486
690.366	0.0178026
690.444	0.0179757
690.522	0.0181612
690.600	0.0179835
690.678	0.0178124
690.756	0.0176762
690.834	0.0174832
690.913	0.0170293
690.991	0.0166226
691.069	0.0163578
691.147	0.0160246
691.225	0.0156729
691.303	0.0154361
691.381	0.0153508
691.459	0.0153809
691.538	0.0152393
691.616	0.0149892
691.694	0.0150355
691.772	0.0147077
691.850	0.0145770
691.928	0.0143319
692.006	0.0141190
692.084	0.0138647
692.163	0.0135416
692.241	0.0133437
692.319	0.0132262
692.397	0.0130337
692.475	0.0130456
692.553	0.0131380
692.631	0.0131936
692.709	0.0133942
692.788	0.0137727
692.866	0.0140661
692.944	0.0145995
693.022	0.0152240
693.100	0.0154450
693.178	0.0158289
693.256	0.0163828
693.334	0.0172422
693.413	0.0175173
693.491	0.0178871
693.569	0.0180749
693.647	0.0183588
693.725	0.0184056
693.803	0.0183825
693.881	0.0182594
693.959	0.0178744
694.038	0.0176793
694.116	0.0171110
694.194	0.0166556
694.272	0.0160075
694.350	0.0155788
694.428	0.0150430
694.506	0.0146012
694.584	0.0142278
694.663	0.0139249
694.741	0.0135397
694.819	0.0132126
694.897	0.0131778
694.975	0.0128600
695.053	0.0129133
695.131	0.0128822
695.209	0.0130330
695.288	0.0130174
695.366	0.0130824
695.444	0.0131333
695.522	0.0132213
695.600	0.0134600
695.678	0.0139730
695.756	0.0143331
695.834	0.0146553
695.913	0.0151237
695.991	0.0155435
696.069	0.0160512
696.147	0.0164906
696.225	0.0168187
696.303	0.0172890
696.381	0.0176360
696.459	0.0179672
696.538	0.0182519
696.616	0.0182964
696.694	0.0182601
696.772	0.0180526
696.850	0.0179747
696.928	0.0179530
697.006	0.0176915
697.084	0.0175656
697.163	0.0173106
697.241	0.0170191
697.319	0.0168346
697.397	0.0167101
697.475	0.0164307
697.553	0.0161123
697.631	0.0159016
697.709	0.0156207
697.788	0.0155484
697.866	0.0150942
697.944	0.0147089
698.022	0.0143489
698.100	0.0137865
698.178	0.0133046
698.256	0.0128181
698.334	0.0125896
698.413	0.0122192
698.491	0.0119121
698.569	0.0115874
698.647	0.0116106
698.725	0.0115851
698.803	0.0116886
698.881	0.0118735
698.959	0.0121976
699.038	0.0123878
699.116	0.0128332
699.194	0.0133106
699.272	0.0136887
699.350	0.0141752
699.428	0.0147496
699.506	0.0153035
699.584	0.0157745
699.663	0.0163658
699.741	0.0168223
699.819	0.0172852
699.897	0.0177664
699.975	0.0182465
700.053	0.0184534
700.131	0.0187663
700.209	0.0188448
700.288	0.0189825
700.366	0.0189977
700.444	0.0188914
700.522	0.0188458
700.600	0.0188610
700.678	0.0186457
700.756	0.0185889
700.834	0.0184358
700.913	0.0183173
700.991	0.0181268
701.069	0.0178696
701.147	0.0176047
701.225	0.0172094
701.303	0.0164809
701.381	0.0160440
701.459	0.0152919
701.538	0.0146770
701.616	0.0140620
701.694	0.0132647
701.772	0.0126318
701.850	0.0119984
701.928	0.0115098
702.006	0.0110211
702.084	0.0109551
702.163	0.0110746
702.241	0.0112314
702.319	0.0113926
702.397	0.0118832
702.475	0.0125391
702.553	0.0129312
702.631	0.0134196
702.709	0.0140694
702.788	0.0146068
702.866	0.0152048
702.944	0.0155366
703.022	0.0160088
703.100	0.0162498
703.178	0.0167097
703.256	0.0166687
703.334	0.0171188
703.413	0.0173380
703.491	0.0175643
703.569	0.0175323
703.647	0.0176615
703.725	0.0179460
703.803	0.0178412
703.881	0.0178246
703.959	0.0177236
704.038	0.0173538
704.116	0.0171133
704.194	0.0166582
704.272	0.0160648
704.350	0.0155846
704.428	0.0150663
704.506	0.0145468
704.584	0.0140180
704.663	0.0137216
704.741	0.0134632
704.819	0.0132410
704.897	0.0131721
704.975	0.0132369
705.053	0.0133209
705.131	0.0136594
705.209	0.0139602
705.288	0.0143391
705.366	0.0147480
705.444	0.0150588
705.522	0.0153748
705.600	0.0155785
705.678	0.0158060
705.756	0.0160211
705.834	0.0161926
705.913	0.0163245
705.991	0.0162486
706.069	0.0164361
706.147	0.0162508
706.225	0.0165845
706.303	0.0164440
706.381	0.0162848
706.459	0.0162785
706.538	0.0163996
706.616	0.0164915
706.694	0.0164307
706.772	0.0163937
706.850	0.0163901
706.928	0.0165095
707.006	0.0164820
707.084	0.0165046
707.163	0.0167180
707.241	0.0166860
707.319	0.0168606
707.397	0.0165810
707.475	0.0165379
707.553	0.0162040
707.631	0.0160964
707.709	0.0157692
707.788	0.0152055
707.866	0.0148026
707.944	0.0144236
708.022	0.0140363
708.100	0.0136447
708.178	0.0134151
708.256	0.0132451
708.334	0.0133634
708.413	0.0132915
708.491	0.0135088
708.569	0.0137830
708.647	0.0141328
708.725	0.0144434
708.803	0.0147392
708.881	0.0149984
708.959	0.0149841
709.038	0.0150562
709.116	0.0149335
709.194	0.0147680
709.272	0.0144799
709.350	0.0142265
709.428	0.0139633
709.506	0.0137881
709.584	0.0136815
709.663	0.0136443
709.741	0.0136559
709.819	0.0138346
709.897	0.0141727
709.975	0.0143703
710.053	0.0147843
710.131	0.0151457
710.209	0.0155233
710.288	0.0158104
710.366	0.0160993
710.444	0.0163325
710.522	0.0166882
710.600	0.0168977
710.678	0.0173622
710.756	0.0176743
710.834	0.0177596
710.913	0.0181841
710.991	0.0184419
711.069	0.0186538
711.147	0.0187396
711.225	0.0189059
711.303	0.0189718
711.381	0.0187824
711.459	0.0188531
711.538	0.0184583
711.616	0.0180464
711.694	0.0176145
711.772	0.0171760
711.850	0.0164063
711.928	0.0158723
712.006	0.0152490
712.084	0.0148569
712.163	0.0142309
712.241	0.0139954
712.319	0.0135309
712.397	0.0131882
712.475	0.0130143
712.553	0.0128883
712.631	0.0128876
712.709	0.0127885
712.788	0.0127549
712.866	0.0126914
712.944	0.0127462
713.022	0.0128380
713.100	0.0130946
713.178	0.0132295
713.256	0.0133760
713.334	0.0137238
713.413	0.0138384
713.491	0.0141909
713.569	0.0144175
713.647	0.0146233
713.725	0.0149046
713.803	0.0151865
713.881	0.0153054
713.959	0.0154689
714.038	0.0155058
714.116	0.0155820
714.194	0.0155318
714.272	0.0155317
714.350	0.0154414
714.428	0.0154302
714.506	0.0154985
714.584	0.0155158
714.663	0.0155408
714.741	0.0157257
714.819	0.0158932
714.897	0.0157980
714.975	0.0162228
715.053	0.0163964
715.131	0.0164799
715.209	0.0167998
715.288	0.0171013
715.366	0.0169812
715.444	0.0171832
715.522	0.0174540
715.600	0.0173933
715.678	0.0175095
715.756	0.0176235
715.834	0.0176895
715.913	0.0176396
715.991	0.0178353
716.069	0.0177491
716.147	0.0178730
716.225	0.0177932
716.303	0.0176886
716.381	0.0176747
716.459	0.0172750
716.538	0.0170841
716.616	0.0166930
716.694	0.0163329
716.772	0.0159624
716.850	0.0156029
716.928	0.0152487
717.006	0.0148355
717.084	0.0145132
717.163	0.0142912
717.241	0.0139491
717.319	0.0136929
717.397	0.0135216
717.475	0.0133484
717.553	0.0130406
717.631	0.0128944
717.709	0.0127435
717.788	0.0127314
717.866	0.0125901
717.944	0.0127430
718.022	0.0127725
718.100	0.0127254
718.178	0.0130339
718.256	0.0130636
718.334	0.0133318
718.413	0.0135230
718.491	0.0137928
718.569	0.0141065
718.647	0.0141698
718.725	0.0144090
718.803	0.0147256
718.881	0.0148392
718.959	0.0147948
719.038	0.0150484
719.116	0.0153130
719.194	0.0151935
719.272	0.0152892
719.350	0.0155779
719.428	0.0156562
719.506	0.0159549
719.584	0.0160316
719.663	0.0161958
719.741	0.0164103
719.819	0.0164407
719.897	0.0167011
719.975	0.0168826
720.053	0.0171369
720.131	0.0172372
720.209	0.0172289
720.288	0.0174517
720.366	0.0175131
720.444	0.0177100
720.522	0.0176233
720.600	0.0173053
720.678	0.0172544
720.756	0.0170905
720.834	0.0169389
720.913	0.0168137
720.991	0.0165588
721.069	0.0162975
721.147	0.0161851
721.225	0.0161661
721.303	0.0160671
721.381	0.0158501
721.459	0.0159740
721.538	0.0159515
721.616	0.0161184
721.694	0.0162120
721.772	0.0160645
721.850	0.0162046
721.928	0.0163898
722.006	0.0163663
722.084	0.0163612
722.163	0.0160983
722.241	0.0159763
722.319	0.0158406
722.397	0.0157238
722.475	0.0154685
722.553	0.0153773
722.631	0.0153393
722.709	0.0152239
722.788	0.0150975
722.866	0.0150682
722.944	0.0147997
723.022	0.0148072
723.100	0.0145452
723.178	0.0144664
723.256	0.0141925
723.334	0.0142384
723.413	0.0141111
723.491	0.0140574
723.569	0.0137022
723.647	0.0137138
723.725	0.0136285
723.803	0.0137707
723.881	0.0139010
723.959	0.0140321
724.038	0.0139884
724.116	0.0138950
724.194	0.0141213
724.272	0.0139948
724.350	0.0141318
724.428	0.0140934
724.506	0.0140852
724.584	0.0141347
724.663	0.0139500
724.741	0.0140923
724.819	0.0141051
724.897	0.0143333
724.975	0.0143550
725.053	0.0144456
725.131	0.0146610
725.209	0.0146942
725.288	0.0146772
725.366	0.0149796
725.444	0.0150156
725.522	0.0153522
725.600	0.0155252
725.678	0.0156248
725.756	0.0158630
725.834	0.0160043
725.913	0.0161746
725.991	0.0165218
726.069	0.0166408
726.147	0.0166814
726.225	0.0169269
726.303	0.0168901
726.381	0.0169718
726.459	0.0170018
726.538	0.0169460
726.616	0.0170930
726.694	0.0169288
726.772	0.0170411
726.850	0.0173421
726.928	0.0173472
727.006	0.0172782
727.084	0.0172263
727.163	0.0175269
727.241	0.0175479
727.319	0.0175638
727.397	0.0176115
727.475	0.0176909
727.553	0.0174353
727.631	0.0174580
727.709	0.0174603
727.788	0.0174802
727.866	0.0171689
727.944	0.0170416
728.022	0.0169917
728.100	0.0167599
728.178	0.0164399
728.256	0.0163264
728.334	0.0161068
728.413	0.0158574
728.491	0.0154692
728.569	0.0151348
728.647	0.0148017
728.725	0.0142654
728.803	0.0138758
728.881	0.0136092
728.959	0.0131521
729.038	0.0129001
729.116	0.0126880
729.194	0.0127513
729.272	0.0126236
729.350	0.0123322
729.428	0.0123959
729.506	0.0127431
729.584	0.0127705
729.663	0.0129120
729.741	0.0131220
729.819	0.0134093
729.897	0.0135219
729.975	0.0135868
730.053	0.0137573
730.131	0.0139635
730.209	0.0140686
730.288	0.0142651
730.366	0.0145021
730.444	0.0148373
730.522	0.0146033
730.600	0.0148536
730.678	0.0151951
730.756	0.0151425
730.834	0.0154327
730.913	0.0155931
730.991	0.0155560
731.069	0.0157687
731.147	0.0157944
731.225	0.0158680
731.303	0.0157720
731.381	0.0158729
731.459	0.0156874
731.538	0.0158792
731.616	0.0156747
731.694	0.0157009
731.772	0.0157150
731.850	0.0155750
731.928	0.0156703
732.006	0.0156234
732.084	0.0157911
732.163	0.0158329
732.241	0.0158719
732.319	0.0159261
732.397	0.0160298
732.475	0.0162138
732.553	0.0162592
732.631	0.0162476
732.709	0.0164587
732.788	0.0164481
732.866	0.0163770
732.944	0.0166034
733.022	0.0165961
733.100	0.0165797
733.178	0.0164357
733.256	0.0162595
733.334	0.0163410
733.413	0.0161718
733.491	0.0162809
733.569	0.0162518
733.647	0.0159363
733.725	0.0159827
733.803	0.0161603
733.881	0.0160262
733.959	0.0159262
734.038	0.0159454
734.116	0.0160206
734.194	0.0157915
734.272	0.0159325
734.350	0.0157940
734.428	0.0155269
734.506	0.0155839
734.584	0.0156510
734.663	0.0154468
734.741	0.0155575
734.819	0.0155748
734.897	0.0156129
734.975	0.0157289
735.053	0.0156423
735.131	0.0157505
735.209	0.0159011
735.288	0.0158692
735.366	0.0156142
735.444	0.0158285
735.522	0.0156193
735.600	0.0154315
735.678	0.0153149
735.756	0.0150600
735.834	0.0146947
735.913	0.0146272
735.991	0.0144240
736.069	0.0143279
736.147	0.0142569
736.225	0.0142442
736.303	0.0142547
736.381	0.0143124
736.459	0.0144903
736.538	0.0145231
736.616	0.0145379
736.694	0.0146582
736.772	0.0147846
736.850	0.0148761
736.928	0.0148589
737.006	0.0149202
737.084	0.0149786
737.163	0.0150341
737.241	0.0151458
737.319	0.0152602
737.397	0.0152022
737.475	0.0152338
737.553	0.0152050
737.631	0.0151735
737.709	0.0152679
737.788	0.0152207
737.866	0.0154602
737.944	0.0156351
738.022	0.0157318
738.100	0.0157111
738.178	0.0157920
738.256	0.0157845
738.334	0.0157932
738.413	0.0158349
738.491	0.0159710
738.569	0.0159726
738.647	0.0158685
738.725	0.0159213
738.803	0.0158283
738.881	0.0155466
738.959	0.0155263
739.038	0.0155183
739.116	0.0153018
739.194	0.0152357
739.272	0.0150331
739.350	0.0149813
739.428	0.0148436
739.506	0.0147903
739.584	0.0148132
739.663	0.0146432
739.741	0.0147970
739.819	0.0147131
739.897	0.0147564
739.975	0.0148473
740.053	0.0149683
740.131	0.0149850
740.209	0.0154228
740.288	0.0153941
740.366	0.0155926
740.444	0.0158060
740.522	0.0160180
740.600	0.0162185
740.678	0.0164093
740.756	0.0165527
740.834	0.0167274
740.913	0.0167856
740.991	0.0168839
741.069	0.0168884
741.147	0.0168491
741.225	0.0168595
741.303	0.0166837
741.381	0.0168324
741.459	0.0168161
741.538	0.0168252
741.616	0.0167178
741.694	0.0166522
741.772	0.0164594
741.850	0.0163407
741.928	0.0163762
742.006	0.0161715
742.084	0.0162321
742.163	0.0162199
742.241	0.0160199
742.319	0.0158668
742.397	0.0159322
742.475	0.0159154
742.553	0.0156853
742.631	0.0157623
742.709	0.0157883
742.788	0.0156364
742.866	0.0156177
742.944	0.0157849
743.022	0.0157360
743.100	0.0155647
743.178	0.0155659
743.256	0.0155743
743.334	0.0152951
743.413	0.0152912
743.491	0.0150053
743.569	0.0147498
743.647	0.0146874
743.725	0.0143275
743.803	0.0140451
743.881	0.0140385
743.959	0.0138361
744.038	0.0139065
744.116	0.0137965
744.194	0.0136810
744.272	0.0137895
744.350	0.0138541
744.428	0.0137875
744.506	0.0137997
744.584	0.0140899
744.663	0.0141392
744.741	0.0140558
744.819	0.0142916
744.897	0.0142488
744.975	0.0144494
745.053	0.0144038
745.131	0.0146046
745.209	0.0147052
745.288	0.0148548
745.366	0.0148650
745.444	0.0150940
745.522	0.0152941
745.600	0.0153225
745.678	0.0154842
745.756	0.0157463
745.834	0.0159485
745.913	0.0161306
745.991	0.0162292
746.069	0.0163670
746.147	0.0164726
746.225	0.0165244
746.303	0.0167258
746.381	0.0168665
746.459	0.0167835
746.538	0.0169127
746.616	0.0169012
746.694	0.0168021
746.772	0.0167207
746.850	0.0167223
746.928	0.0164811
747.006	0.0163278
747.084	0.0162171
747.163	0.0161192
747.241	0.0159393
747.319	0.0157483
747.397	0.0156634
747.475	0.0156962
747.553	0.0154189
747.631	0.0153631
747.709	0.0151165
747.788	0.0150966
747.866	0.0149248
747.944	0.0148708
748.022	0.0146291
748.100	0.0145601
748.178	0.0144336
748.256	0.0144839
748.334	0.0143979
748.413	0.0144042
748.491	0.0143602
748.569	0.0145067
748.647	0.0146396
748.725	0.0148576
748.803	0.0150043
748.881	0.0153694
748.959	0.0157059
749.038	0.0157867
749.116	0.0161256
749.194	0.0164003
749.272	0.0165502
749.350	0.0166239
749.428	0.0166575
749.506	0.0167901
749.584	0.0167558
749.663	0.0167189
749.741	0.0167246
749.819	0.0164780
749.897	0.0163792
749.975	0.0162054
750.053	0.0160620
750.131	0.0158412
750.209	0.0155222
750.288	0.0153402
750.366	0.0151176
750.444	0.0149766
750.522	0.0149039
750.600	0.0146725
750.678	0.0145153
750.756	0.0143901
750.834	0.0144225
750.913	0.0142861
750.991	0.0144292
751.069	0.0144973
751.147	0.0145691
751.225	0.0148788
751.303	0.0148829
751.381	0.0151203
751.459	0.0153337
751.538	0.0154340
751.616	0.0155270
751.694	0.0157381
751.772	0.0156663
751.850	0.0156115
751.928	0.0157001
752.006	0.0154960
752.084	0.0153740
752.163	0.0153369
752.241	0.0152199
752.319	0.0150243
752.397	0.0150177
752.475	0.0147935
752.553	0.0146040
752.631	0.0146518
752.709	0.0146407
752.788	0.0147642
752.866	0.0146014
752.944	0.0144949
753.022	0.0144868
753.100	0.0145047
753.178	0.0146055
753.256	0.0147012
753.334	0.0146561
753.413	0.0148351
753.491	0.0149023
753.569	0.0151075
753.647	0.0150941
753.725	0.0150901
753.803	0.0153269
753.881	0.0154719
753.959	0.0154482
754.038	0.0155296
754.116	0.0156357
754.194	0.0156803
754.272	0.0158027
754.350	0.0158384
754.428	0.0159144
754.506	0.0160069
754.584	0.0159814
754.663	0.0161261
754.741	0.0162000
754.819	0.0163059
754.897	0.0161699
754.975	0.0161870
755.053	0.0161086
755.131	0.0161106
755.209	0.0159251
755.288	0.0157718
755.366	0.0154952
755.444	0.0153688
755.522	0.0152227
755.600	0.0151704
755.678	0.0149396
755.756	0.0148249
755.834	0.0149265
755.913	0.0148024
755.991	0.0147427
756.069	0.0147998
756.147	0.0149583
756.225	0.0148785
756.303	0.0149776
756.381	0.0150932
756.459	0.0152796
756.538	0.0154182
756.616	0.0155886
756.694	0.0157609
756.772	0.0158794
756.850	0.0163052
756.928	0.0164859
757.006	0.0166149
757.084	0.0167457
757.163	0.0168133
757.241	0.0169228
757.319	0.0170921
757.397	0.0170744
757.475	0.0169537
757.553	0.0171240
757.631	0.0168195
757.709	0.0167337
757.788	0.0165529
757.866	0.0164463
757.944	0.0161825
758.022	0.0158826
758.100	0.0156042
758.178	0.0152423
758.256	0.0150106
758.334	0.0147224
758.413	0.0146011
758.491	0.0144812
758.569	0.0139820
758.647	0.0138100
758.725	0.0139288
758.803	0.0138341
758.881	0.0138004
758.959	0.0138392
759.038	0.0140436
759.116	0.0141536
759.194	0.0143224
759.272	0.0147688
759.350	0.0148544
759.428	0.0152208
759.506	0.0153465
759.584	0.0157954
759.663	0.0160634
759.741	0.0160799
759.819	0.0162440
759.897	0.0162258
759.975	0.0162527
760.053	0.0162419
760.131	0.0161639
760.209	0.0161812
760.288	0.0158942
760.366	0.0155946
760.444	0.0154906
760.522	0.0150864
760.600	0.0148611
760.678	0.0145638
760.756	0.0142638
760.834	0.0141466
760.913	0.0142097
760.991	0.0139530
761.069	0.0140541
761.147	0.0140813
761.225	0.0140749
761.303	0.0143000
761.381	0.0144936
761.459	0.0145217
761.538	0.0147379
761.616	0.0148924
761.694	0.0151325
761.772	0.0154076
761.850	0.0154217
761.928	0.0155470
762.006	0.0156660
762.084	0.0158011
762.163	0.0160679
762.241	0.0161836
762.319	0.0162934
762.397	0.0161271
762.475	0.0162171
762.553	0.0161731
762.631	0.0162623
762.709	0.0161135
762.788	0.0160779
762.866	0.0163004
762.944	0.0162636
763.022	0.0161202
763.100	0.0160732
763.178	0.0160529
763.256	0.0161479
763.334	0.0160725
763.413	0.0159911
763.491	0.0158771
763.569	0.0157884
763.647	0.0157825
763.725	0.0156975
763.803	0.0156635
763.881	0.0156634
763.959	0.0155511
764.038	0.0156608
764.116	0.0155939
764.194	0.0156316
764.272	0.0158695
764.350	0.0159807
764.428	0.0159615
764.506	0.0161052
764.584	0.0162849
764.663	0.0162098
764.741	0.0162374
764.819	0.0162143
764.897	0.0160555
764.975	0.0160072
765.053	0.0159139
765.131	0.0156844
765.209	0.0156429
765.288	0.0154510
765.366	0.0151827
765.444	0.0153672
765.522	0.0153493
765.600	0.0153388
765.678	0.0154202
765.756	0.0153507
765.834	0.0155021
765.913	0.0155415
765.991	0.0156158
766.069	0.0159196
766.147	0.0159715
766.225	0.0160636
766.303	0.0160600
766.381	0.0160317
766.459	0.0162640
766.538	0.0161348
766.616	0.0159995
766.694	0.0158294
766.772	0.0156693
766.850	0.0152833
766.928	0.0152622
767.006	0.0149835
767.084	0.0147455
767.163	0.0144007
767.241	0.0140482
767.319	0.0139479
767.397	0.0137350
767.475	0.0136715
767.553	0.0137964
767.631	0.0137844
767.709	0.0139610
767.788	0.0140386
767.866	0.0142646
767.944	0.0143351
768.022	0.0146830
768.100	0.0147277
768.178	0.0148199
768.256	0.0150802
768.334	0.0154247
768.413	0.0156081
768.491	0.0157356
768.569	0.0157934
768.647	0.0159558
768.725	0.0158315
768.803	0.0159249
768.881	0.0157782
768.959	0.0158244
769.038	0.0157441
769.116	0.0154524
769.194	0.0153462
769.272	0.0152585
769.350	0.0150616
769.428	0.0150176
769.506	0.0148864
769.584	0.0148634
769.663	0.0149957
769.741	0.0149747
769.819	0.0151188
769.897	0.0153333
769.975	0.0153957
770.053	0.0155540
770.131	0.0158191
770.209	0.0160501
770.288	0.0162122
770.366	0.0162142
770.444	0.0162616
770.522	0.0162274
770.600	0.0162125
770.678	0.0161924
770.756	0.0160399
770.834	0.0161110
770.913	0.0157229
770.991	0.0155081
771.069	0.0153632
771.147	0.0152351
771.225	0.0151875
771.303	0.0151009
771.381	0.0150865
771.459	0.0151523
771.538	0.0152425
771.616	0.0154432
771.694	0.0154377
771.772	0.0157540
771.850	0.0157809
771.928	0.0160682
772.006	0.0162229
772.084	0.0161775
772.163	0.0162231
772.241	0.0163177
772.319	0.0163223
772.397	0.0161823
772.475	0.0160619
772.553	0.0160026
772.631	0.0158442
772.709	0.0157320
772.788	0.0156825
772.866	0.0154987
772.944	0.0152265
773.022	0.0152263
773.100	0.0151540
773.178	0.0150203
773.256	0.0147984
773.334	0.0148206
773.413	0.0148916
773.491	0.0148409
773.569	0.0147529
773.647	0.0148110
773.725	0.0149031
773.803	0.0149968
773.881	0.0152068
773.959	0.0154409
774.038	0.0155588
774.116	0.0157883
774.194	0.0160356
774.272	0.0159881
774.350	0.0162661
774.428	0.0165627
774.506	0.0166036
774.584	0.0167413
774.663	0.0165526
774.741	0.0165708
774.819	0.0166870
774.897	0.0163094
774.975	0.0160750
775.053	0.0157419
775.131	0.0157903
775.209	0.0151875
775.288	0.0147337
775.366	0.0144141
775.444	0.0139942
775.522	0.0137468
775.600	0.0134591
775.678	0.0131612
775.756	0.0128338
775.834	0.0129667
775.913	0.0128802
775.991	0.0130656
776.069	0.0131892
776.147	0.0134877
776.225	0.0137699
776.303	0.0142065
776.381	0.0145070
776.459	0.0147238
776.538	0.0151797
776.616	0.0156084
776.694	0.0159178
776.772	0.0161637
776.850	0.0165164
776.928	0.0164646
777.006	0.0164269
777.084	0.0165337
777.163	0.0165167
777.241	0.0163294
777.319	0.0161746
777.397	0.0158994
777.475	0.0155670
777.553	0.0153670
777.631	0.0150586
777.709	0.0148782
777.788	0.0148827
777.866	0.0147086
777.944	0.0144608
778.022	0.0145157
778.100	0.0148201
778.178	0.0148200
778.256	0.0150154
778.334	0.0153264
778.413	0.0155024
778.491	0.0158486
778.569	0.0162455
778.647	0.0163907
778.725	0.0167393
778.803	0.0169422
778.881	0.0169474
778.959	0.0169205
779.038	0.0168484
779.116	0.0168005
779.194	0.0164876
779.272	0.0161966
779.350	0.0159342
779.428	0.0157468
779.506	0.0155061
779.584	0.0152102
779.663	0.0153476
779.741	0.0149939
779.819	0.0150938
779.897	0.0150452
779.975	0.0151334
780.053	0.0151602
780.131	0.0153978
780.209	0.0155762
780.288	0.0156827
780.366	0.0159750
780.444	0.0162338
780.522	0.0161750
780.600	0.0163376
780.678	0.0163596
780.756	0.0164307
780.834	0.0162106
780.913	0.0162061
780.991	0.0161337
781.069	0.0160065
781.147	0.0158586
781.225	0.0156554
781.303	0.0156029
781.381	0.0154533
781.459	0.0153165
781.538	0.0154263
781.616	0.0153066
781.694	0.0153590
781.772	0.0151795
781.850	0.0152605
781.928	0.0151717
782.006	0.0151991
782.084	0.0149944
782.163	0.0149241
782.241	0.0149696
782.319	0.0149260
782.397	0.0149155
782.475	0.0149170
782.553	0.0147240
782.631	0.0146312
782.709	0.0144897
782.788	0.0145937
782.866	0.0145847
782.944	0.0147083
783.022	0.0146262
783.100	0.0148408
783.178	0.0149397
783.256	0.0150024
783.334	0.0152115
783.413	0.0152802
783.491	0.0154723
783.569	0.0156078
783.647	0.0154518
783.725	0.0154310
783.803	0.0153994
783.881	0.0151917
783.959	0.0151912
784.038	0.0150733
784.116	0.0150297
784.194	0.0150429
784.272	0.0148783
784.350	0.0148143
784.428	0.0148042
784.506	0.0148172
784.584	0.0148714
784.663	0.0150938
784.741	0.0151644
784.819	0.0151891
784.897	0.0154361
784.975	0.0154531
785.053	0.0155484
785.131	0.0157049
785.209	0.0156525
785.288	0.0156564
785.366	0.0157699
785.444	0.0157861
785.522	0.0156896
785.600	0.0156687
785.678	0.0156953
785.756	0.0156187
785.834	0.0156308
785.913	0.0156804
785.991	0.0156236
786.069	0.0155792
786.147	0.0157614
786.225	0.0158085
786.303	0.0159336
786.381	0.0158820
786.459	0.0161469
786.538	0.0160849
786.616	0.0159849
786.694	0.0162538
786.772	0.0160627
786.850	0.0159734
786.928	0.0159569
787.006	0.0159515
787.084	0.0159120
787.163	0.0157352
787.241	0.0157245
787.319	0.0157378
787.397	0.0156062
787.475	0.0154745
787.553	0.0155991
787.631	0.0153549
787.709	0.0152866
787.788	0.0150618
787.866	0.0150462
787.944	0.0150506
788.022	0.0149438
788.100	0.0149030
788.178	0.0150935
788.256	0.0149827
788.334	0.0151255
788.413	0.0152597
788.491	0.0154432
788.569	0.0156535
788.647	0.0158090
788.725	0.0161241
788.803	0.0162479
788.881	0.0164145
788.959	0.0165668
789.038	0.0166040
789.116	0.0167889
789.194	0.0166533
789.272	0.0166321
789.350	0.0163649
789.428	0.0163056
789.506	0.0162914
789.584	0.0161115
789.663	0.0157176
789.741	0.0156920
789.819	0.0153834
789.897	0.0153030
789.975	0.0151332
790.053	0.0148112
790.131	0.0147504
790.209	0.0146768
790.288	0.0145750
790.366	0.0145215
790.444	0.0144318
790.522	0.0144251
790.600	0.0144229
790.678	0.0143583
790.756	0.0143002
790.834	0.0144314
790.913	0.0144698
790.991	0.0145965
791.069	0.0145621
791.147	0.0145750
791.225	0.0147984
791.303	0.0148626
791.381	0.0148711
791.459	0.0150465
791.538	0.0150613
791.616	0.0151721
791.694	0.0153442
791.772	0.0153922
791.850	0.0155080
791.928	0.0154352
792.006	0.0154762
792.084	0.0156327
792.163	0.0156393
792.241	0.0157436
792.319	0.0156424
792.397	0.0155656
792.475	0.0153902
792.553	0.0154385
792.631	0.0153407
792.709	0.0152525
792.788	0.0151488
792.866	0.0150707
792.944	0.0148388
793.022	0.0149537
793.100	0.0150280
793.178	0.0149494
793.256	0.0149821
793.334	0.0151904
793.413	0.0152255
793.491	0.0153974
793.569	0.0155348
793.647	0.0158011
793.725	0.0158979
793.803	0.0161745
793.881	0.0162298
793.959	0.0162174
794.038	0.0164123
794.116	0.0163173
794.194	0.0164204
794.272	0.0164171
794.350	0.0164630
794.428	0.0162600
794.506	0.0162218
794.584	0.0162561
794.663	0.0159460
794.741	0.0157643
794.819	0.0156661
794.897	0.0155099
794.975	0.0153506
795.053	0.0152750
795.131	0.0150571
795.209	0.0147710
795.288	0.0146324
795.366	0.0146943
795.444	0.0144894
795.522	0.0145127
795.600	0.0144948
795.678	0.0145008
795.756	0.0146215
795.834	0.0147082
795.913	0.0149556
795.991	0.0150000
796.069	0.0152997
796.147	0.0154324
796.225	0.0157825
796.303	0.0158052
796.381	0.0160087
796.459	0.0162591
796.538	0.0164497
796.616	0.0165286
796.694	0.0165253
796.772	0.0167899
796.850	0.0167386
796.928	0.0168080
797.006	0.0166335
797.084	0.0168164
797.163	0.0167406
797.241	0.0165648
797.319	0.0165948
797.397	0.0164015
797.475	0.0164902
797.553	0.0161772
797.631	0.0158707
797.709	0.0157207
797.788	0.0156175
797.866	0.0154396
797.944	0.0150959
798.022	0.0149839
798.100	0.0147903
798.178	0.0146130
798.256	0.0144028
798.334	0.0143499
798.413	0.0141976
798.491	0.0141851
798.569	0.0139725
798.647	0.0140679
798.725	0.0142901
798.803	0.0142942
798.881	0.0144092
798.959	0.0144481
799.038	0.0146646
799.116	0.0148027
799.194	0.0148191
799.272	0.0150319
799.350	0.0151785
799.428	0.0152684
799.506	0.0153784
799.584	0.0153891
799.663	0.0154553
799.741	0.0156416
799.819	0.0155836
799.897	0.0156224
799.975	0.0156464
800.053	0.0157610
800.131	0.0156291
800.209	0.0155658
800.288	0.0155765
800.366	0.0155584
800.444	0.0155677
800.522	0.0155634
800.600	0.0154876
800.678	0.0155304
800.756	0.0154210
800.834	0.0152850
800.913	0.0154984
800.991	0.0155356
801.069	0.0154612
801.147	0.0154342
801.225	0.0153921
801.303	0.0154549
801.381	0.0154774
801.459	0.0153333
801.538	0.0152985
801.616	0.0154182
801.694	0.0154050
801.772	0.0153556
801.850	0.0153465
801.928	0.0153889
802.006	0.0154824
802.084	0.0155631
802.163	0.0155669
802.241	0.0157603
802.319	0.0157156
802.397	0.0157398
802.475	0.0158246
802.553	0.0159512
802.631	0.0159229
802.709	0.0158958
802.788	0.0159100
802.866	0.0159434
802.944	0.0157185
803.022	0.0157883
803.100	0.0155761
803.178	0.0155656
803.256	0.0155555
803.334	0.0156339
803.413	0.0156285
803.491	0.0155716
803.569	0.0154108
803.647	0.0155888
803.725	0.0155959
803.803	0.0154433
803.881	0.0156491
803.959	0.0155589
804.038	0.0155463
804.116	0.0156104
804.194	0.0155219
804.272	0.0154543
804.350	0.0154454
804.428	0.0154311
804.506	0.0154553
804.584	0.0154916
804.663	0.0156061
804.741	0.0156071
804.819	0.0157102
804.897	0.0157405
804.975	0.0158657
805.053	0.0158359
805.131	0.0158238
805.209	0.0158913
805.288	0.0158340
805.366	0.0157381
805.444	0.0158062
805.522	0.0155392
805.600	0.0154259
805.678	0.0153367
805.756	0.0152131
805.834	0.0151135
805.913	0.0151433
805.991	0.0148232
806.069	0.0148458
806.147	0.0146902
806.225	0.0148516
806.303	0.0148220
806.381	0.0146806
806.459	0.0148009
806.538	0.0150701
806.616	0.0150396
806.694	0.0150226
806.772	0.0151585
806.850	0.0152444
806.928	0.0152074
807.006	0.0153733
807.084	0.0154977
807.163	0.0154925
807.241	0.0156760
807.319	0.0157183
807.397	0.0159400
807.475	0.0158355
807.553	0.0157348
807.631	0.0158855
807.709	0.0157520
807.788	0.0157709
807.866	0.0158204
807.944	0.0158732
808.022	0.0157887
808.100	0.0155381
808.178	0.0155849
808.256	0.0152752
808.334	0.0152565
808.413	0.0151186
808.491	0.0150571
808.569	0.0149410
808.647	0.0149587
808.725	0.0145570
808.803	0.0147305
808.881	0.0146770
808.959	0.0145174
809.038	0.0145493
809.116	0.0145911
809.194	0.0145369
809.272	0.0146996
809.350	0.0146468
809.428	0.0148783
809.506	0.0150256
809.584	0.0150946
809.663	0.0150591
809.741	0.0154053
809.819	0.0154204
809.897	0.0155704
809.975	0.0157738
810.053	0.0158488
810.131	0.0158928
810.209	0.0158722
810.288	0.0159881
810.366	0.0160335
810.444	0.0157975
810.522	0.0157760
810.600	0.0157877
810.678	0.0156252
810.756	0.0155666
810.834	0.0155179
810.913	0.0155051
810.991	0.0154025
811.069	0.0154738
811.147	0.0152792
811.225	0.0152232
811.303	0.0154007
811.381	0.0153786
811.459	0.0152952
811.538	0.0154312
811.616	0.0154577
811.694	0.0155296
811.772	0.0155619
811.850	0.0156972
811.928	0.0157549
812.006	0.0157175
812.084	0.0158186
812.163	0.0157519
812.241	0.0158451
812.319	0.0159110
812.397	0.0161973
812.475	0.0159693
812.553	0.0160590
812.631	0.0161356
812.709	0.0161948
812.788	0.0162362
812.866	0.0162518
812.944	0.0161481
813.022	0.0161100
813.100	0.0159547
813.178	0.0161814
813.256	0.0159589
813.334	0.0159641
813.413	0.0159315
813.491	0.0158125
813.569	0.0156418
813.647	0.0155381
813.725	0.0152505
813.803	0.0153814
813.881	0.0151851
813.959	0.0150931
814.038	0.0148381
814.116	0.0149495
814.194	0.0146844
814.272	0.0146821
814.350	0.0145444
814.428	0.0144389
814.506	0.0145483
814.584	0.0143670
814.663	0.0143512
814.741	0.0144897
814.819	0.0144409
814.897	0.0143971
814.975	0.0144453
815.053	0.0146473
815.131	0.0147819
815.209	0.0147417
815.288	0.0148589
815.366	0.0150406
815.444	0.0152083
815.522	0.0151981
815.600	0.0153443
815.678	0.0154715
815.756	0.0154872
815.834	0.0155305
815.913	0.0155704
815.991	0.0156415
816.069	0.0156546
816.147	0.0156810
816.225	0.0157128
816.303	0.0156612
816.381	0.0156925
816.459	0.0158007
816.538	0.0157954
816.616	0.0155650
816.694	0.0157482
816.772	0.0157529
816.850	0.0157290
816.928	0.0156728
817.006	0.0157194
817.084	0.0156509
817.163	0.0155774
817.241	0.0155911
817.319	0.0155281
817.397	0.0155088
817.475	0.0155449
817.553	0.0155042
817.631	0.0155196
817.709	0.0154401
817.788	0.0155815
817.866	0.0155563
817.944	0.0154710
818.022	0.0156068
818.100	0.0156281
818.178	0.0156972
818.256	0.0158094
818.334	0.0158517
818.413	0.0157633
818.491	0.0158134
818.569	0.0158684
818.647	0.0159151
818.725	0.0158183
818.803	0.0158339
818.881	0.0157378
818.959	0.0158176
819.038	0.0156014
819.116	0.0155429
819.194	0.0155312
819.272	0.0154830
819.350	0.0153718
819.428	0.0152394
819.506	0.0152903
819.584	0.0150164
819.663	0.0151567
819.741	0.0150853
819.819	0.0149876
819.897	0.0150004
819.975	0.0150303
820.053	0.0151659
820.131	0.0150274
820.209	0.0150680
820.288	0.0152271
820.366	0.0151308
820.444	0.0152850
820.522	0.0152577
820.600	0.0153260
820.678	0.0153500
820.756	0.0154794
820.834	0.0155105
820.913	0.0155044
820.991	0.0153917
821.069	0.0155971
821.147	0.0156353
821.225	0.0156319
821.303	0.0156846
821.381	0.0155305
821.459	0.0157354
821.538	0.0156224
821.616	0.0157132
821.694	0.0155634
821.772	0.0154832
821.850	0.0156478
821.928	0.0155404
822.006	0.0153580
822.084	0.0153888
822.163	0.0153498
822.241	0.0153751
822.319	0.0153346
822.397	0.0154215
822.475	0.0151867
822.553	0.0152749
822.631	0.0153538
822.709	0.0152166
822.788	0.0152618
822.866	0.0153492
822.944	0.0154054
823.022	0.0154991
823.100	0.0154372
823.178	0.0155804
823.256	0.0157046
823.334	0.0156440
823.413	0.0156701
823.491	0.0157665
823.569	0.0158698
823.647	0.0157664
823.725	0.0159007
823.803	0.0159660
823.881	0.0157980
823.959	0.0158050
824.038	0.0158052
824.116	0.0156700
824.194	0.0158028
824.272	0.0157518
824.350	0.0155813
824.428	0.0154221
824.506	0.0153696
824.584	0.0153479
824.663	0.0154607
824.741	0.0152007
824.819	0.0151134
824.897	0.0150371
824.975	0.0150166
825.053	0.0149769
825.131	0.0147771
825.209	0.0148892
825.288	0.0148092
825.366	0.0149508
825.444	0.0148679
825.522	0.0149519
825.600	0.0149870
825.678	0.0149690
825.756	0.0151462
825.834	0.0152121
825.913	0.0152489
825.991	0.0151814
826.069	0.0152487
826.147	0.0154079
826.225	0.0153225
826.303	0.0152731
826.381	0.0153593
826.459	0.0154409
826.538	0.0152885
826.616	0.0153138
826.694	0.0155167
826.772	0.0154636
826.850	0.0155293
826.928	0.0153446
827.006	0.0155130
827.084	0.0154668
827.163	0.0155740
827.241	0.0156191
827.319	0.0155747
827.397	0.0155269
827.475	0.0156511
827.553	0.0157167
827.631	0.0156988
827.709	0.0156448
827.788	0.0156498
827.866	0.0156532
827.944	0.0156214
828.022	0.0157781
828.100	0.0156725
828.178	0.0159050
828.256	0.0156493
828.334	0.0157773
828.413	0.0156538
828.491	0.0155786
828.569	0.0154601
828.647	0.0157582
828.725	0.0156878
828.803	0.0157603
828.881	0.0156231
828.959	0.0155489
829.038	0.0156926
829.116	0.0156683
829.194	0.0156770
829.272	0.0158638
829.350	0.0156987
829.428	0.0157859
829.506	0.0157397
829.584	0.0155989
829.663	0.0155616
829.741	0.0156900
829.819	0.0155539
829.897	0.0154875
829.975	0.0154421
830.053	0.0154933
830.131	0.0152486
830.209	0.0153295
830.288	0.0153904
830.366	0.0152935
830.444	0.0153075
830.522	0.0153381
830.600	0.0153578
830.678	0.0152862
830.756	0.0152676
830.834	0.0152473
830.913	0.0151059
830.991	0.0152415
831.069	0.0153547
831.147	0.0153554
831.225	0.0152830
831.303	0.0151934
831.381	0.0152575
831.459	0.0153334
831.538	0.0153252
831.616	0.0154647
831.694	0.0151705
831.772	0.0153669
831.850	0.0154476
831.928	0.0154213
832.006	0.0152223
832.084	0.0152711
832.163	0.0152993
832.241	0.0152998
832.319	0.0152595
832.397	0.0152470
832.475	0.0152534
832.553	0.0153366
832.631	0.0151820
832.709	0.0153487
832.788	0.0152204
832.866	0.0151328
832.944	0.0152260
833.022	0.0152842
833.100	0.0150967
833.178	0.0153072
833.256	0.0152771
833.334	0.0152035
833.413	0.0152455
833.491	0.0152887
833.569	0.0152239
833.647	0.0155083
833.725	0.0154089
833.803	0.0154668
833.881	0.0155402
833.959	0.0155443
834.038	0.0156492
834.116	0.0156302
834.194	0.0156238
834.272	0.0157068
834.350	0.0156504
834.428	0.0157901
834.506	0.0157433
834.584	0.0157216
834.663	0.0156510
834.741	0.0156698
834.819	0.0155167
834.897	0.0155727
834.975	0.0155426
835.053	0.0156371
835.131	0.0155634
835.209	0.0153926
835.288	0.0153606
835.366	0.0153941
835.444	0.0153127
835.522	0.0153034
835.600	0.0152125
835.678	0.0153271
835.756	0.0153567
835.834	0.0153907
835.913	0.0153237
835.991	0.0152677
836.069	0.0153887
836.147	0.0154786
836.225	0.0154120
836.303	0.0154973
836.381	0.0156068
836.459	0.0156492
836.538	0.0155686
836.616	0.0157508
836.694	0.0156755
836.772	0.0158477
836.850	0.0158790
836.928	0.0159634
837.006	0.0159576
837.084	0.0159353
837.163	0.0158388
837.241	0.0159237
837.319	0.0157185
837.397	0.0158434
837.475	0.0158534
837.553	0.0156653
837.631	0.0156997
837.709	0.0155003
837.788	0.0155287
837.866	0.0153522
837.944	0.0154832
838.022	0.0153828
838.100	0.0152673
838.178	0.0150991
838.256	0.0151485
838.334	0.0151199
838.413	0.0150455
838.491	0.0149606
838.569	0.0150488
838.647	0.0151021
838.725	0.0150726
838.803	0.0149995
838.881	0.0151128
838.959	0.0149973
839.038	0.0151066
839.116	0.0151989
839.194	0.0152763
839.272	0.0151955
839.350	0.0153809
839.428	0.0153387
839.506	0.0154673
839.584	0.0155562
839.663	0.0154070
839.741	0.0154659
839.819	0.0153667
839.897	0.0155399
839.975	0.0154362
840.053	0.0153955
840.131	0.0153024
840.209	0.0152996
840.288	0.0150977
840.366	0.0152257
840.444	0.0152884
840.522	0.0152121
840.600	0.0152558
840.678	0.0151245
840.756	0.0150744
840.834	0.0153118
840.913	0.0151406
840.991	0.0149670
841.069	0.0152095
841.147	0.0151152
841.225	0.0150808
841.303	0.0152358
841.381	0.0151562
841.459	0.0153209
841.538	0.0153051
841.616	0.0152627
841.694	0.0151931
841.772	0.0153061
841.850	0.0155088
841.928	0.0154076
842.006	0.0154337
842.084	0.0155489
842.163	0.0155326
842.241	0.0156323
842.319	0.0156250
842.397	0.0156853
842.475	0.0157066
842.553	0.0157870
842.631	0.0156640
842.709	0.0156924
842.788	0.0157539
842.866	0.0158677
842.944	0.0157786
843.022	0.0156449
843.100	0.0157947
843.178	0.0158382
843.256	0.0158547
843.334	0.0157272
843.413	0.0155730
843.491	0.0156812
843.569	0.0156235
843.647	0.0155204
843.725	0.0155314
843.803	0.0154543
843.881	0.0155003
843.959	0.0153330
844.038	0.0151932
844.116	0.0153720
844.194	0.0152572
844.272	0.0152642
844.350	0.0153800
844.428	0.0153886
844.506	0.0152306
844.584	0.0153124
844.663	0.0152819
844.741	0.0153795
844.819	0.0153156
844.897	0.0154250
844.975	0.0154613
845.053	0.0155784
845.131	0.0154638
845.209	0.0155455
845.288	0.0155431
845.366	0.0156106
845.444	0.0156347
845.522	0.0155360
845.600	0.0156707
845.678	0.0156537
845.756	0.0155854
845.834	0.0157863
845.913	0.0155341
845.991	0.0156219
846.069	0.0156369
846.147	0.0155026
846.225	0.0153725
846.303	0.0153329
846.381	0.0153083
846.459	0.0153648
846.538	0.0151897
846.616	0.0152728
846.694	0.0153213
846.772	0.0152391
846.850	0.0151281
846.928	0.0151241
847.006	0.0152591
847.084	0.0153284
847.163	0.0151462
847.241	0.0151218
847.319	0.0150169
847.397	0.0152184
847.475	0.0152451
847.553	0.0153207
847.631	0.0151736
847.709	0.0152039
847.788	0.0152613
847.866	0.0153677
847.944	0.0153130
848.022	0.0154166
848.100	0.0154732
848.178	0.0154490
848.256	0.0154011
848.334	0.0154166
848.413	0.0154926
848.491	0.0155863
848.569	0.0155069
848.647	0.0154472
848.725	0.0155476
848.803	0.0155112
848.881	0.0153715
848.959	0.0154582
849.038	0.0154045
849.116	0.0153078
849.194	0.0154288
849.272	0.0152652
849.350	0.0152043
849.428	0.0153040
849.506	0.0153683
849.584	0.0154507
849.663	0.0152094
849.741	0.0152715
849.819	0.0153780
849.897	0.0153843
849.975	0.0152633
850.053	0.0152768
850.131	0.0154308
850.209	0.0154034
850.288	0.0153106
850.366	0.0154659
850.444	0.0153824
850.522	0.0154295
850.600	0.0153593
850.678	0.0154045
850.756	0.0155399
850.834	0.0154373
850.913	0.0155138
850.991	0.0154856
851.069	0.0153886
851.147	0.0155611
851.225	0.0155037
851.303	0.0154042
851.381	0.0153367
851.459	0.0154328
851.538	0.0153916
851.616	0.0154546
851.694	0.0154094
851.772	0.0152374
851.850	0.0154581
851.928	0.0152529
852.006	0.0152386
852.084	0.0153024
852.163	0.0153030
852.241	0.0153307
852.319	0.0154556
852.397	0.0154092
852.475	0.0154221
852.553	0.0152926
852.631	0.0154795
852.709	0.0155100
852.788	0.0154327
852.866	0.0154330
852.944	0.0154423
853.022	0.0154649
853.100	0.0155991
853.178	0.0155748
853.256	0.0155871
853.334	0.0156939
853.413	0.0155361
853.491	0.0155969
853.569	0.0156012
853.647	0.0155556
853.725	0.0155443
853.803	0.0156965
853.881	0.0156440
853.959	0.0156859
854.038	0.0156020
854.116	0.0155752
854.194	0.0154137
854.272	0.0154159
854.350	0.0154861
854.428	0.0152987
854.506	0.0152526
854.584	0.0153905
854.663	0.0151990
854.741	0.0152250
854.819	0.0150500
854.897	0.0150993
854.975	0.0150818
855.053	0.0149840
855.131	0.0149709
855.209	0.0151106
855.288	0.0151953
855.366	0.0151045
855.444	0.0151027
855.522	0.0152422
855.600	0.0151598
855.678	0.0151965
855.756	0.0152876
855.834	0.0152730
855.913	0.0153065
855.991	0.0152887
856.069	0.0153246
856.147	0.0151604
856.225	0.0152161
856.303	0.0153392
856.381	0.0152293
856.459	0.0151893
856.538	0.0150574
856.616	0.0151432
856.694	0.0151460
856.772	0.0151653
856.850	0.0150681
856.928	0.0150598
857.006	0.0150446
857.084	0.0151425
857.163	0.0151920
857.241	0.0152129
857.319	0.0151413
857.397	0.0151338
857.475	0.0153165
857.553	0.0152665
857.631	0.0152528
857.709	0.0153630
857.788	0.0153653
857.866	0.0156961
857.944	0.0155499
858.022	0.0155994
858.100	0.0156999
858.178	0.0157804
858.256	0.0157838
858.334	0.0156723
858.413	0.0157740
858.491	0.0156400
858.569	0.0157787
858.647	0.0156413
858.725	0.0157707
858.803	0.0156634
858.881	0.0155836
858.959	0.0156186
859.038	0.0153913
859.116	0.0155266
859.194	0.0154942
859.272	0.0153794
859.350	0.0154590
859.428	0.0154714
859.506	0.0155106
859.584	0.0154395
859.663	0.0153549
859.741	0.0155152
859.819	0.0153840
859.897	0.0154365
859.975	0.0155454
860.053	0.0154594
860.131	0.0154050
860.209	0.0155730
860.288	0.0154980
860.366	0.0155888
860.444	0.0154971
860.522	0.0155462
860.600	0.0155518
860.678	0.0156500
860.756	0.0156041
860.834	0.0155178
860.913	0.0156908
860.991	0.0155283
861.069	0.0155775
861.147	0.0155330
861.225	0.0155409
861.303	0.0156391
861.381	0.0155942
861.459	0.0153914
861.538	0.0153663
861.616	0.0153931
861.694	0.0154549
861.772	0.0152103
861.850	0.0153702
861.928	0.0153216
862.006	0.0153033
862.084	0.0154202
862.163	0.0152859
862.241	0.0153899
862.319	0.0154512
862.397	0.0154015
862.475	0.0152982
862.553	0.0153445
862.631	0.0152790
862.709	0.0152570
862.788	0.0152752
862.866	0.0152148
862.944	0.0153342
863.022	0.0151895
863.100	0.0152147
863.178	0.0153014
863.256	0.0154493
863.334	0.0153681
863.413	0.0153044
863.491	0.0153803
863.569	0.0154501
863.647	0.0155228
863.725	0.0155036
863.803	0.0154822
863.881	0.0154480
863.959	0.0154794
864.038	0.0155527
864.116	0.0154569
864.194	0.0155523
864.272	0.0155891
864.350	0.0155627
864.428	0.0154108
864.506	0.0154228
864.584	0.0154912
864.663	0.0154248
864.741	0.0154214
864.819	0.0152740
864.897	0.0154920
864.975	0.0152924
865.053	0.0152718
865.131	0.0153732
865.209	0.0153233
865.288	0.0152299
865.366	0.0152874
865.444	0.0153415
865.522	0.0151865
865.600	0.0152286
865.678	0.0153465
865.756	0.0153625
865.834	0.0152473
865.913	0.0152213
865.991	0.0154610
866.069	0.0154470
866.147	0.0152712
866.225	0.0152641
866.303	0.0152575
866.381	0.0154105
866.459	0.0154665
866.538	0.0156185
866.616	0.0155836
866.694	0.0156558
866.772	0.0156416
866.850	0.0157391
866.928	0.0157590
867.006	0.0158152
867.084	0.0157463
867.163	0.0158009
867.241	0.0158042
867.319	0.0157580
867.397	0.0157380
867.475	0.0155916
867.553	0.0156174
867.631	0.0156161
867.709	0.0156841
867.788	0.0154750
867.866	0.0155241
867.944	0.0156995
868.022	0.0154704
868.100	0.0153608
868.178	0.0153297
868.256	0.0154762
868.334	0.0153206
868.413	0.0153541
868.491	0.0153912
868.569	0.0153764
868.647	0.0152897
868.725	0.0152374
868.803	0.0152416
868.881	0.0153716
868.959	0.0151834
869.038	0.0151929
869.116	0.0152134
869.194	0.0152637
869.272	0.0153454
869.350	0.0152234
869.428	0.0152811
869.506	0.0152915
869.584	0.0152001
869.663	0.0153426
869.741	0.0153722
869.819	0.0153522
869.897	0.0154201
869.975	0.0154747
870.053	0.0153997
870.131	0.0154070
870.209	0.0153863
870.288	0.0153849
870.366	0.0154985
870.444	0.0155125
870.522	0.0155053
870.600	0.0153175
870.678	0.0153933
870.756	0.0153822
870.834	0.0153591
870.913	0.0152848
870.991	0.0153010
871.069	0.0152842
871.147	0.0152516
871.225	0.0153891
871.303	0.0154296
871.381	0.0153372
871.459	0.0153628
871.538	0.0152110
871.616	0.0153888
871.694	0.0152928
871.772	0.0151971
871.850	0.0151817
871.928	0.0153457
872.006	0.0151517
872.084	0.0151926
872.163	0.0152916
872.241	0.0152297
872.319	0.0150754
872.397	0.0150514
872.475	0.0150459
872.553	0.0149989
872.631	0.0151256
872.709	0.0150961
872.788	0.0153180
872.866	0.0151127
872.944	0.0152501
873.022	0.0152506
873.100	0.0152012
873.178	0.0152844
873.256	0.0152441
873.334	0.0155552
873.413	0.0153101
873.491	0.0151931
873.569	0.0154156
873.647	0.0155180
873.725	0.0153918
873.803	0.0152470
873.881	0.0152373
873.959	0.0153197
874.038	0.0155152
874.116	0.0153648
874.194	0.0154120
874.272	0.0153842
874.350	0.0154387
874.428	0.0153842
874.506	0.0152750
874.584	0.0154161
874.663	0.0153637
874.741	0.0154350
874.819	0.0153864
874.897	0.0155389
874.975	0.0154836
875.053	0.0155951
875.131	0.0156207
875.209	0.0156631
875.288	0.0156277
875.366	0.0156110
875.444	0.0155631
875.522	0.0156769
875.600	0.0156641
875.678	0.0157143
875.756	0.0156116
875.834	0.0155617
875.913	0.0157130
875.991	0.0155178
876.069	0.0156023
876.147	0.0154858
876.225	0.0155608
876.303	0.0152442
876.381	0.0153468
876.459	0.0155741
876.538	0.0153563
876.616	0.0154285
876.694	0.0155128
876.772	0.0153676
876.850	0.0154753
876.928	0.0156520
877.006	0.0155300
877.084	0.0156186
877.163	0.0155608
877.241	0.0155427
877.319	0.0154990
877.397	0.0157292
877.475	0.0154815
877.553	0.0155198
877.631	0.0155421
877.709	0.0153938
877.788	0.0152677
877.866	0.0154047
877.944	0.0152235
878.022	0.0151873
878.100	0.0152472
878.178	0.0151579
878.256	0.0152094
878.334	0.0151791
878.413	0.0151406
878.491	0.0150832
878.569	0.0151777
878.647	0.0152617
878.725	0.0151866
878.803	0.0152225
878.881	0.0151580
878.959	0.0152968
879.038	0.0154924
879.116	0.0154132
879.194	0.0153471
879.272	0.0153476
879.350	0.0153101
879.428	0.0152754
879.506	0.0152891
879.584	0.0152767
879.663	0.0154479
879.741	0.0155187
879.819	0.0153303
879.897	0.0153232
879.975	0.0154200
880.053	0.0153979
880.131	0.0153133
880.209	0.0154386
880.288	0.0154774
880.366	0.0153609
880.444	0.0153062
880.522	0.0153308
880.600	0.0154697
880.678	0.0153340
880.756	0.0153814
880.834	0.0153502
880.913	0.0153694
880.991	0.0152772
881.069	0.0152347
881.147	0.0154097
881.225	0.0151716
881.303	0.0152353
881.381	0.0152329
881.459	0.0153403
881.538	0.0153415
881.616	0.0152984
881.694	0.0154583
881.772	0.0154671
881.850	0.0154996
881.928	0.0154105
882.006	0.0155888
882.084	0.0155179
882.163	0.0156013
882.241	0.0156062
882.319	0.0156613
882.397	0.0155109
882.475	0.0154454
882.553	0.0155261
882.631	0.0156083
882.709	0.0154821
882.788	0.0153783
882.866	0.0154873
882.944	0.0155915
883.022	0.0154540
883.100	0.0155238
883.178	0.0154375
883.256	0.0153435
883.334	0.0155644
883.413	0.0154945
883.491	0.0154728
883.569	0.0154212
883.647	0.0154485
883.725	0.0155065
883.803	0.0155989
883.881	0.0154081
883.959	0.0152932
884.038	0.0153342
884.116	0.0153628
884.194	0.0152969
884.272	0.0152136
884.350	0.0152644
884.428	0.0153843
884.506	0.0155111
884.584	0.0153577
884.663	0.0152584
884.741	0.0156049
884.819	0.0155631
884.897	0.0155119
884.975	0.0157281
885.053	0.0156870
885.131	0.0156471
885.209	0.0157790
885.288	0.0157108
885.366	0.0158280
885.444	0.0159314
885.522	0.0154733
885.600	0.0156306
885.678	0.0156878
885.756	0.0155586
885.834	0.0154852
885.913	0.0154006
885.991	0.0153711
886.069	0.0154383
886.147	0.0153973
886.225	0.0151620
886.303	0.0152168
886.381	0.0152304
886.459	0.0152126
886.538	0.0152228
886.616	0.0151620
886.694	0.0151136
886.772	0.0150711
886.850	0.0150055
886.928	0.0150155
887.006	0.0151360
887.084	0.0151456
887.163	0.0152250
887.241	0.0151866
887.319	0.0152346
887.397	0.0152936
887.475	0.0153290
887.553	0.0153853
887.631	0.0154529
887.709	0.0155199
887.788	0.0155885
887.866	0.0157267
887.944	0.0155969
888.022	0.0156577
888.100	0.0159375
888.178	0.0157372
888.256	0.0158331
888.334	0.0158662
888.413	0.0157948
888.491	0.0157029
888.569	0.0158025
888.647	0.0157409
888.725	0.0155264
888.803	0.0154749
888.881	0.0155009
888.959	0.0155597
889.038	0.0153230
889.116	0.0154659
889.194	0.0153579
889.272	0.0152621
889.350	0.0153011
889.428	0.0151879
889.506	0.0152654
889.584	0.0153358
889.663	0.0152526
889.741	0.0151537
889.819	0.0152026
889.897	0.0150701
889.975	0.0150845
890.053	0.0151578
890.131	0.0152919
890.209	0.0152705
890.288	0.0153556
890.366	0.0153194
890.444	0.0153740
890.522	0.0153362
890.600	0.0155871
890.678	0.0154681
890.756	0.0156618
890.834	0.0155263
890.913	0.0157533
890.991	0.0158016
891.069	0.0156798
891.147	0.0156461
891.225	0.0156973
891.303	0.0157069
891.381	0.0157503
891.459	0.0158148
891.538	0.0156568
891.616	0.0156527
891.694	0.0155827
891.772	0.0155338
891.850	0.0155508
891.928	0.0154228
892.006	0.0155145
892.084	0.0154203
892.163	0.0154623
892.241	0.0153649
892.319	0.0152475
892.397	0.0151752
892.475	0.0153307
892.553	0.0152848
892.631	0.0151351
892.709	0.0152931
892.788	0.0155318
892.866	0.0153078
892.944	0.0152219
893.022	0.0152469
893.100	0.0154018
893.178	0.0154032
893.256	0.0151891
893.334	0.0152337
893.413	0.0152157
893.491	0.0151768
893.569	0.0152153
893.647	0.0152353
893.725	0.0151540
893.803	0.0150124
893.881	0.0152647
893.959	0.0153155
894.038	0.0153013
894.116	0.0153654
894.194	0.0154211
894.272	0.0154700
894.350	0.0155087
894.428	0.0157260
894.506	0.0157191
894.584	0.0156842
894.663	0.0156139
894.741	0.0155882
894.819	0.0156252
894.897	0.0155946
894.975	0.0156132
895.053	0.0153859
895.131	0.0154234
895.209	0.0154843
895.288	0.0154540
895.366	0.0154758
895.444	0.0155503
895.522	0.0153616
895.600	0.0153043
895.678	0.0153727
895.756	0.0151405
895.834	0.0150924
895.913	0.0151694
895.991	0.0150924
896.069	0.0150166
896.147	0.0149806
896.225	0.0150468
896.303	0.0149322
896.381	0.0149588
896.459	0.0148788
896.538	0.0148766
896.616	0.0149843
896.694	0.0151180
896.772	0.0149622
896.850	0.0151614
896.928	0.0152526
897.006	0.0153930
897.084	0.0153970
897.163	0.0155126
897.241	0.0156068
897.319	0.0157299
897.397	0.0156944
897.475	0.0156824
897.553	0.0156100
897.631	0.0156799
897.709	0.0155329
897.788	0.0156773
897.866	0.0157185
897.944	0.0156516
898.022	0.0155715
898.100	0.0154426
898.178	0.0155272
898.256	0.0155608
898.334	0.0155686
898.413	0.0155347
898.491	0.0154082
898.569	0.0155663
898.647	0.0156546
898.725	0.0156328
898.803	0.0155333
898.881	0.0155354
898.959	0.0156542
899.038	0.0156224
899.116	0.0154720
899.194	0.0154387
899.272	0.0154981
899.350	0.0152937
899.428	0.0152840
899.506	0.0152124
899.584	0.0152847
899.663	0.0152020
899.741	0.0152132
899.819	0.0153257
899.897	0.0152201
899.975	0.0151952
900.053	0.0154066
900.131	0.0153465
900.209	0.0155509
900.288	0.0155531
900.366	0.0157034
900.444	0.0155336
900.522	0.0156003
900.600	0.0156958
900.678	0.0157541
900.756	0.0158672
900.834	0.0156429
900.913	0.0156403
900.991	0.0156071
901.069	0.0155526
901.147	0.0154401
901.225	0.0153145
901.303	0.0153067
901.381	0.0153606
901.459	0.0152924
901.538	0.0154539
901.616	0.0153068
901.694	0.0152226
901.772	0.0153027
901.850	0.0154021
901.928	0.0153911
902.006	0.0155226
902.084	0.0152911
902.163	0.0154651
902.241	0.0154727
902.319	0.0154955
902.397	0.0153732
902.475	0.0154425
902.553	0.0153019
902.631	0.0154798
902.709	0.0155972
902.788	0.0152773
902.866	0.0153876
902.944	0.0154085
903.022	0.0156182
903.100	0.0154881
903.178	0.0155459
903.256	0.0154134
903.334	0.0154588
903.413	0.0155627
903.491	0.0154950
903.569	0.0153516
903.647	0.0154430
903.725	0.0155261
903.803	0.0154068
903.881	0.0154123
903.959	0.0153531
904.038	0.0153436
904.116	0.0155113
904.194	0.0155704
904.272	0.0156418
904.350	0.0157023
904.428	0.0156051
904.506	0.0156509
904.584	0.0153432
904.663	0.0155836
904.741	0.0153777
904.819	0.0155102
904.897	0.0155342
904.975	0.0153722
905.053	0.0154051
905.131	0.0153958
905.209	0.0154545
905.288	0.0153994
905.366	0.0153040
905.444	0.0152327
905.522	0.0152782
905.600	0.0152538
905.678	0.0152071
905.756	0.0150874
905.834	0.0151209
905.913	0.0150557
905.991	0.0153439
906.069	0.0153166
906.147	0.0151660
906.225	0.0152687
906.303	0.0153000
906.381	0.0152352
906.459	0.0154002
906.538	0.0153716
906.616	0.0154732
906.694	0.0155475
906.772	0.0155806
906.850	0.0155439
906.928	0.0154984
907.006	0.0156104
907.084	0.0156001
907.163	0.0155720
907.241	0.0156110
907.319	0.0156822
907.397	0.0155335
907.475	0.0156765
907.553	0.0157578
907.631	0.0155556
907.709	0.0155284
907.788	0.0156548
907.866	0.0156494
907.944	0.0156332
908.022	0.0156523
908.100	0.0154912
908.178	0.0156488
908.256	0.0155006
908.334	0.0154530
908.413	0.0154245
908.491	0.0153499
908.569	0.0153267
908.647	0.0153351
908.725	0.0152953
908.803	0.0153421
908.881	0.0152731
908.959	0.0153757
909.038	0.0154149
909.116	0.0153669
909.194	0.0154160
909.272	0.0154395
909.350	0.0156094
909.428	0.0155199
909.506	0.0155193
909.584	0.0154730
909.663	0.0155204
909.741	0.0154936
909.819	0.0154951
909.897	0.0153460
909.975	0.0155170
910.053	0.0155380
910.131	0.0155596
910.209	0.0155603
910.288	0.0155654
910.366	0.0156033
910.444	0.0154789
910.522	0.0155691
910.600	0.0155667
910.678	0.0156326
910.756	0.0155233
910.834	0.0155563
910.913	0.0155434
910.991	0.0155907
911.069	0.0155497
911.147	0.0155719
911.225	0.0154878
911.303	0.0155801
911.381	0.0154167
911.459	0.0154913
911.538	0.0153690
911.616	0.0155502
911.694	0.0154927
911.772	0.0153879
911.850	0.0154026
911.928	0.0153101
912.006	0.0153208
912.084	0.0152958
912.163	0.0153065
912.241	0.0153374
912.319	0.0152399
912.397	0.0151819
912.475	0.0151472
912.553	0.0152721
912.631	0.0150501
912.709	0.0151103
912.788	0.0151568
912.866	0.0152766
912.944	0.0152057
913.022	0.0154675
913.100	0.0152545
913.178	0.0153333
913.256	0.0154018
913.334	0.0154177
913.413	0.0153669
913.491	0.0155331
913.569	0.0155239
913.647	0.0153819
913.725	0.0152738
913.803	0.0156576
913.881	0.0154758
913.959	0.0156250
914.038	0.0156943
914.116	0.0154676
914.194	0.0155286
914.272	0.0156239
914.350	0.0154622
914.428	0.0155724
914.506	0.0155609
914.584	0.0156214
914.663	0.0154146
914.741	0.0154416
914.819	0.0154619
914.897	0.0154520
914.975	0.0156113
915.053	0.0153447
915.131	0.0154602
915.209	0.0154339
915.288	0.0153630
915.366	0.0155009
915.444	0.0154422
915.522	0.0153144
915.600	0.0154079
915.678	0.0154819
915.756	0.0153608
915.834	0.0153799
915.913	0.0153665
915.991	0.0153721
916.069	0.0153351
916.147	0.0151740
916.225	0.0152311
916.303	0.0152448
916.381	0.0151637
916.459	0.0151218
916.538	0.0151617
916.616	0.0151720
916.694	0.0150423
916.772	0.0150869
916.850	0.0151053
916.928	0.0151722
917.006	0.0150681
917.084	0.0151004
917.163	0.0151399
917.241	0.0151619
917.319	0.0152348
917.397	0.0151066
917.475	0.0152389
917.553	0.0151782
917.631	0.0153258
917.709	0.0153780
917.788	0.0154144
917.866	0.0152740
917.944	0.0154337
918.022	0.0154202
918.100	0.0154797
918.178	0.0154250
918.256	0.0156481
918.334	0.0155370
918.413	0.0154404
918.491	0.0156019
918.569	0.0155817
918.647	0.0155381
918.725	0.0156442
918.803	0.0156541
918.881	0.0154799
918.959	0.0155546
919.038	0.0156583
919.116	0.0155946
919.194	0.0154803
919.272	0.0155058
919.350	0.0156448
919.428	0.0154922
919.506	0.0154122
919.584	0.0154937
919.663	0.0156342
919.741	0.0157271
919.819	0.0156168
919.897	0.0153925
