05/20/2022	21:00:23	Ver.	4.1	UNKNOWN
Optical Delay	599.975067	Delta X		0.078125	Sweeps	1	Scan Rate	0/0
Coordinates	Axis 1	NaN	Axis 2	NaN	Axis 3	NaN	Axis 4	NaN	Axis 5	NaN	Axis 6	0.000000
TX Power	0.000000	RX Power	0.000000

599.975	0.0163414
600.053	0.0164387
600.131	0.0163867
600.209	0.0164693
600.288	0.0163431
600.366	0.0163756
600.444	0.0165654
600.522	0.0164071
600.600	0.0163344
600.678	0.0165276
600.756	0.0162220
600.834	0.0166000
600.913	0.0164140
600.991	0.0164095
601.069	0.0164189
601.147	0.0164765
601.225	0.0164732
601.303	0.0163341
601.381	0.0163375
601.459	0.0163007
601.538	0.0163468
601.616	0.0165152
601.694	0.0165281
601.772	0.0164099
601.850	0.0165560
601.928	0.0163760
602.006	0.0164226
602.084	0.0164193
602.163	0.0163992
602.241	0.0163764
602.319	0.0163979
602.397	0.0164701
602.475	0.0163849
602.553	0.0165051
602.631	0.0163671
602.709	0.0163412
602.788	0.0163596
602.866	0.0164617
602.944	0.0164942
603.022	0.0164301
603.100	0.0163828
603.178	0.0164004
603.256	0.0164363
603.334	0.0163368
603.413	0.0164368
603.491	0.0163557
603.569	0.0163380
603.647	0.0163069
603.725	0.0163577
603.803	0.0163752
603.881	0.0162885
603.959	0.0164677
604.038	0.0163670
604.116	0.0163392
604.194	0.0163133
604.272	0.0163297
604.350	0.0163464
604.428	0.0164317
604.506	0.0162745
604.584	0.0164516
604.663	0.0163669
604.741	0.0164927
604.819	0.0163573
604.897	0.0162959
604.975	0.0164717
605.053	0.0163947
605.131	0.0163757
605.209	0.0164488
605.288	0.0164445
605.366	0.0164580
605.444	0.0164576
605.522	0.0164458
605.600	0.0164082
605.678	0.0164314
605.756	0.0165096
605.834	0.0163966
605.913	0.0165346
605.991	0.0163447
606.069	0.0165391
606.147	0.0162917
606.225	0.0164648
606.303	0.0165900
606.381	0.0165178
606.459	0.0164190
606.538	0.0164188
606.616	0.0165028
606.694	0.0163860
606.772	0.0164172
606.850	0.0164463
606.928	0.0166667
607.006	0.0164388
607.084	0.0164177
607.163	0.0164669
607.241	0.0164035
607.319	0.0164890
607.397	0.0164873
607.475	0.0165532
607.553	0.0164560
607.631	0.0164373
607.709	0.0164787
607.788	0.0166513
607.866	0.0164027
607.944	0.0164491
608.022	0.0166025
608.100	0.0166608
608.178	0.0165671
608.256	0.0165054
608.334	0.0165273
608.413	0.0165105
608.491	0.0165378
608.569	0.0166248
608.647	0.0163770
608.725	0.0164652
608.803	0.0166499
608.881	0.0164174
608.959	0.0165441
609.038	0.0164638
609.116	0.0165017
609.194	0.0164693
609.272	0.0165652
609.350	0.0163239
609.428	0.0165221
609.506	0.0164232
609.584	0.0165202
609.663	0.0164368
609.741	0.0164230
609.819	0.0164647
609.897	0.0164052
609.975	0.0162965
610.053	0.0163319
610.131	0.0164442
610.209	0.0163492
610.288	0.0163799
610.366	0.0163847
610.444	0.0164466
610.522	0.0164215
610.600	0.0163692
610.678	0.0164090
610.756	0.0164102
610.834	0.0163054
610.913	0.0161840
610.991	0.0163262
611.069	0.0163679
611.147	0.0162526
611.225	0.0162647
611.303	0.0163012
611.381	0.0162727
611.459	0.0163609
611.538	0.0162287
611.616	0.0163206
611.694	0.0162485
611.772	0.0162820
611.850	0.0163007
611.928	0.0161853
612.006	0.0161800
612.084	0.0162091
612.163	0.0162510
612.241	0.0162836
612.319	0.0162833
612.397	0.0161565
612.475	0.0162347
612.553	0.0161530
612.631	0.0161451
612.709	0.0161422
612.788	0.0161373
612.866	0.0162048
612.944	0.0162756
613.022	0.0161252
613.100	0.0162307
613.178	0.0163024
613.256	0.0161697
613.334	0.0160916
613.413	0.0161464
613.491	0.0161097
613.569	0.0161052
613.647	0.0162251
613.725	0.0161648
613.803	0.0160180
613.881	0.0161353
613.959	0.0163523
614.038	0.0163178
614.116	0.0160951
614.194	0.0160929
614.272	0.0162283
614.350	0.0162102
614.428	0.0161784
614.506	0.0161924
614.584	0.0161662
614.663	0.0163904
614.741	0.0162730
614.819	0.0161982
614.897	0.0161364
614.975	0.0161416
615.053	0.0161539
615.131	0.0161208
615.209	0.0161385
615.288	0.0162345
615.366	0.0162287
615.444	0.0161289
615.522	0.0161857
615.600	0.0161343
615.678	0.0162833
615.756	0.0162543
615.834	0.0162617
615.913	0.0162889
615.991	0.0162356
616.069	0.0162174
616.147	0.0162200
616.225	0.0162423
616.303	0.0160754
616.381	0.0162578
616.459	0.0160774
616.538	0.0162745
616.616	0.0163080
616.694	0.0163134
616.772	0.0162054
616.850	0.0162051
616.928	0.0161974
617.006	0.0162205
617.084	0.0164055
617.163	0.0163238
617.241	0.0162739
617.319	0.0162862
617.397	0.0163280
617.475	0.0165070
617.553	0.0163365
617.631	0.0162383
617.709	0.0162834
617.788	0.0163219
617.866	0.0162801
617.944	0.0163360
618.022	0.0162730
618.100	0.0162440
618.178	0.0162620
618.256	0.0163613
618.334	0.0163042
618.413	0.0163350
618.491	0.0163367
618.569	0.0164001
618.647	0.0162920
618.725	0.0163928
618.803	0.0164632
618.881	0.0162778
618.959	0.0164556
619.038	0.0163206
619.116	0.0163154
619.194	0.0163725
619.272	0.0163476
619.350	0.0162556
619.428	0.0163280
619.506	0.0163206
619.584	0.0164790
619.663	0.0164455
619.741	0.0162878
619.819	0.0162702
619.897	0.0163988
619.975	0.0163903
620.053	0.0163537
620.131	0.0163655
620.209	0.0163676
620.288	0.0164880
620.366	0.0163728
620.444	0.0163651
620.522	0.0164899
620.600	0.0164618
620.678	0.0163469
620.756	0.0164882
620.834	0.0164418
620.913	0.0163842
620.991	0.0164787
621.069	0.0164244
621.147	0.0163565
621.225	0.0165314
621.303	0.0165570
621.381	0.0164833
621.459	0.0162035
621.538	0.0164690
621.616	0.0165157
621.694	0.0165719
621.772	0.0164690
621.850	0.0164857
621.928	0.0164723
622.006	0.0165356
622.084	0.0165672
622.163	0.0164864
622.241	0.0165610
622.319	0.0165199
622.397	0.0164546
622.475	0.0165104
622.553	0.0164478
622.631	0.0164063
622.709	0.0165400
622.788	0.0164626
622.866	0.0164482
622.944	0.0165170
623.022	0.0164954
623.100	0.0165102
623.178	0.0165771
623.256	0.0164069
623.334	0.0164001
623.413	0.0165275
623.491	0.0165872
623.569	0.0166415
623.647	0.0164104
623.725	0.0166090
623.803	0.0165739
623.881	0.0165639
623.959	0.0164934
624.038	0.0165263
624.116	0.0164552
624.194	0.0166451
624.272	0.0166159
624.350	0.0166318
624.428	0.0165833
624.506	0.0165687
624.584	0.0165591
624.663	0.0165221
624.741	0.0165990
624.819	0.0165875
624.897	0.0165932
624.975	0.0164729
625.053	0.0166195
625.131	0.0166385
625.209	0.0164743
625.288	0.0165949
625.366	0.0164966
625.444	0.0166589
625.522	0.0165297
625.600	0.0164679
625.678	0.0166479
625.756	0.0165755
625.834	0.0164893
625.913	0.0164471
625.991	0.0164627
626.069	0.0165048
626.147	0.0165248
626.225	0.0165498
626.303	0.0165904
626.381	0.0165250
626.459	0.0165919
626.538	0.0165283
626.616	0.0165563
626.694	0.0164155
626.772	0.0166280
626.850	0.0164964
626.928	0.0163937
627.006	0.0165427
627.084	0.0166043
627.163	0.0164778
627.241	0.0164264
627.319	0.0165559
627.397	0.0164735
627.475	0.0163908
627.553	0.0164176
627.631	0.0163908
627.709	0.0165678
627.788	0.0166054
627.866	0.0164641
627.944	0.0164156
628.022	0.0165465
628.100	0.0165424
628.178	0.0163872
628.256	0.0164601
628.334	0.0165365
628.413	0.0163380
628.491	0.0165363
628.569	0.0164492
628.647	0.0165289
628.725	0.0164964
628.803	0.0164345
628.881	0.0165616
628.959	0.0164828
629.038	0.0164310
629.116	0.0165498
629.194	0.0165063
629.272	0.0163408
629.350	0.0164974
629.428	0.0165174
629.506	0.0164275
629.584	0.0164597
629.663	0.0164640
629.741	0.0165415
629.819	0.0164970
629.897	0.0163911
629.975	0.0163993
630.053	0.0163937
630.131	0.0165720
630.209	0.0164693
630.288	0.0164125
630.366	0.0164613
630.444	0.0164418
630.522	0.0166026
630.600	0.0164438
630.678	0.0163859
630.756	0.0163094
630.834	0.0164209
630.913	0.0164114
630.991	0.0165450
631.069	0.0163251
631.147	0.0162945
631.225	0.0162942
631.303	0.0163693
631.381	0.0162881
631.459	0.0164428
631.538	0.0163541
631.616	0.0164738
631.694	0.0162445
631.772	0.0164125
631.850	0.0164401
631.928	0.0162612
632.006	0.0163124
632.084	0.0163338
632.163	0.0163367
632.241	0.0163828
632.319	0.0163741
632.397	0.0162964
632.475	0.0163710
632.553	0.0163089
632.631	0.0162460
632.709	0.0162138
632.788	0.0163307
632.866	0.0162552
632.944	0.0162976
633.022	0.0162867
633.100	0.0163518
633.178	0.0163138
633.256	0.0162547
633.334	0.0161342
633.413	0.0162897
633.491	0.0162245
633.569	0.0162690
633.647	0.0163839
633.725	0.0162687
633.803	0.0162572
633.881	0.0162107
633.959	0.0162429
634.038	0.0161277
634.116	0.0162814
634.194	0.0161135
634.272	0.0162251
634.350	0.0161630
634.428	0.0162708
634.506	0.0161810
634.584	0.0161899
634.663	0.0161940
634.741	0.0162319
634.819	0.0163027
634.897	0.0160751
634.975	0.0162575
635.053	0.0162952
635.131	0.0161343
635.209	0.0161856
635.288	0.0162790
635.366	0.0162633
635.444	0.0161510
635.522	0.0161409
635.600	0.0161462
635.678	0.0163499
635.756	0.0161862
635.834	0.0162011
635.913	0.0164022
635.991	0.0161555
636.069	0.0160989
636.147	0.0163378
636.225	0.0162300
636.303	0.0161591
636.381	0.0161587
636.459	0.0161869
636.538	0.0162419
636.616	0.0160773
636.694	0.0162200
636.772	0.0161823
636.850	0.0162500
636.928	0.0162041
637.006	0.0161278
637.084	0.0162189
637.163	0.0162320
637.241	0.0161701
637.319	0.0162029
637.397	0.0162268
637.475	0.0162621
637.553	0.0161440
637.631	0.0162812
637.709	0.0162115
637.788	0.0162365
637.866	0.0163069
637.944	0.0160913
638.022	0.0162454
638.100	0.0161341
638.178	0.0160849
638.256	0.0162489
638.334	0.0162758
638.413	0.0162812
638.491	0.0161559
638.569	0.0162395
638.647	0.0162176
638.725	0.0162033
638.803	0.0162539
638.881	0.0163616
638.959	0.0161829
639.038	0.0162617
639.116	0.0163895
639.194	0.0163354
639.272	0.0162555
639.350	0.0161538
639.428	0.0162820
639.506	0.0162847
639.584	0.0162762
639.663	0.0163235
639.741	0.0162861
639.819	0.0162627
639.897	0.0163861
639.975	0.0161459
640.053	0.0162846
640.131	0.0162328
640.209	0.0162567
640.288	0.0163641
640.366	0.0161750
640.444	0.0162834
640.522	0.0163278
640.600	0.0163245
640.678	0.0164128
640.756	0.0162925
640.834	0.0163460
640.913	0.0163025
640.991	0.0162900
641.069	0.0163249
641.147	0.0162196
641.225	0.0162189
641.303	0.0163988
641.381	0.0162657
641.459	0.0162615
641.538	0.0164613
641.616	0.0163601
641.694	0.0164091
641.772	0.0163675
641.850	0.0161613
641.928	0.0162442
642.006	0.0163610
642.084	0.0163554
642.163	0.0162691
642.241	0.0163519
642.319	0.0162784
642.397	0.0162357
642.475	0.0162777
642.553	0.0163622
642.631	0.0163273
642.709	0.0163400
642.788	0.0162901
642.866	0.0163425
642.944	0.0163154
643.022	0.0162581
643.100	0.0163307
643.178	0.0164997
643.256	0.0163554
643.334	0.0162815
643.413	0.0163140
643.491	0.0163369
643.569	0.0164101
643.647	0.0164922
643.725	0.0163506
643.803	0.0163206
643.881	0.0163519
643.959	0.0163990
644.038	0.0161968
644.116	0.0163072
644.194	0.0164877
644.272	0.0164034
644.350	0.0163474
644.428	0.0162801
644.506	0.0162508
644.584	0.0162218
644.663	0.0163838
644.741	0.0164710
644.819	0.0163255
644.897	0.0163859
644.975	0.0163097
645.053	0.0163679
645.131	0.0164718
645.209	0.0164208
645.288	0.0163248
645.366	0.0164632
645.444	0.0164340
645.522	0.0163713
645.600	0.0163865
645.678	0.0163187
645.756	0.0165321
645.834	0.0163884
645.913	0.0164686
645.991	0.0166119
646.069	0.0162580
646.147	0.0163530
646.225	0.0164945
646.303	0.0163741
646.381	0.0164267
646.459	0.0164740
646.538	0.0164401
646.616	0.0164333
646.694	0.0165640
646.772	0.0163892
646.850	0.0165505
646.928	0.0165321
647.006	0.0165292
647.084	0.0164140
647.163	0.0163763
647.241	0.0164735
647.319	0.0164811
647.397	0.0165835
647.475	0.0164660
647.553	0.0166014
647.631	0.0163461
647.709	0.0162875
647.788	0.0163759
647.866	0.0164704
647.944	0.0163985
648.022	0.0164764
648.100	0.0164056
648.178	0.0162877
648.256	0.0165422
648.334	0.0163678
648.413	0.0164564
648.491	0.0165229
648.569	0.0163319
648.647	0.0164312
648.725	0.0164876
648.803	0.0163937
648.881	0.0164474
648.959	0.0163571
649.038	0.0164925
649.116	0.0163875
649.194	0.0164780
649.272	0.0162885
649.350	0.0164564
649.428	0.0166550
649.506	0.0164006
649.584	0.0163239
649.663	0.0164877
649.741	0.0164116
649.819	0.0163363
649.897	0.0164206
649.975	0.0164535
650.053	0.0164678
650.131	0.0164528
650.209	0.0163536
650.288	0.0163280
650.366	0.0163605
650.444	0.0163838
650.522	0.0163779
650.600	0.0164075
650.678	0.0162769
650.756	0.0163292
650.834	0.0163472
650.913	0.0165533
650.991	0.0164016
651.069	0.0164477
651.147	0.0163628
651.225	0.0162978
651.303	0.0162865
651.381	0.0164455
651.459	0.0164468
651.538	0.0163062
651.616	0.0164516
651.694	0.0163688
651.772	0.0163034
651.850	0.0163999
651.928	0.0162981
652.006	0.0162531
652.084	0.0164778
652.163	0.0164262
652.241	0.0163306
652.319	0.0164468
652.397	0.0164414
652.475	0.0164874
652.553	0.0162366
652.631	0.0164801
652.709	0.0163853
652.788	0.0164720
652.866	0.0164133
652.944	0.0164146
653.022	0.0163737
653.100	0.0163332
653.178	0.0162688
653.256	0.0162743
653.334	0.0165365
653.413	0.0164141
653.491	0.0163202
653.569	0.0163302
653.647	0.0163990
653.725	0.0163845
653.803	0.0164259
653.881	0.0163232
653.959	0.0164536
654.038	0.0165046
654.116	0.0163920
654.194	0.0163331
654.272	0.0163085
654.350	0.0162817
654.428	0.0162170
654.506	0.0163667
654.584	0.0163525
654.663	0.0162818
654.741	0.0161597
654.819	0.0163487
654.897	0.0164120
654.975	0.0164513
655.053	0.0163266
655.131	0.0163348
655.209	0.0163518
655.288	0.0164338
655.366	0.0163826
655.444	0.0163391
655.522	0.0163521
655.600	0.0163785
655.678	0.0162923
655.756	0.0162091
655.834	0.0162180
655.913	0.0164205
655.991	0.0163963
656.069	0.0163992
656.147	0.0163586
656.225	0.0163857
656.303	0.0164133
656.381	0.0162546
656.459	0.0162505
656.538	0.0163018
656.616	0.0163869
656.694	0.0162985
656.772	0.0164392
656.850	0.0162760
656.928	0.0163747
657.006	0.0162902
657.084	0.0163161
657.163	0.0162286
657.241	0.0163213
657.319	0.0163186
657.397	0.0162695
657.475	0.0163072
657.553	0.0162062
657.631	0.0161432
657.709	0.0161549
657.788	0.0162537
657.866	0.0161744
657.944	0.0162080
658.022	0.0162429
658.100	0.0162758
658.178	0.0161980
658.256	0.0163483
658.334	0.0163045
658.413	0.0163789
658.491	0.0163084
658.569	0.0161526
658.647	0.0163727
658.725	0.0165147
658.803	0.0164375
658.881	0.0163811
658.959	0.0166470
659.038	0.0165762
659.116	0.0164545
659.194	0.0164877
659.272	0.0165562
659.350	0.0164252
659.428	0.0163839
659.506	0.0164613
659.584	0.0165063
659.663	0.0163948
659.741	0.0164062
659.819	0.0163438
659.897	0.0163535
659.975	0.0163680
660.053	0.0161171
660.131	0.0161544
660.209	0.0162112
660.288	0.0160080
660.366	0.0160131
660.444	0.0160555
660.522	0.0160548
660.600	0.0159402
660.678	0.0160895
660.756	0.0158289
660.834	0.0160155
660.913	0.0161549
660.991	0.0161171
661.069	0.0161237
661.147	0.0161356
661.225	0.0161742
661.303	0.0163016
661.381	0.0162968
661.459	0.0163281
661.538	0.0164326
661.616	0.0163150
661.694	0.0164790
661.772	0.0164648
661.850	0.0165320
661.928	0.0165923
662.006	0.0163991
662.084	0.0164957
662.163	0.0164977
662.241	0.0164818
662.319	0.0163913
662.397	0.0164355
662.475	0.0164684
662.553	0.0163176
662.631	0.0163080
662.709	0.0163515
662.788	0.0163229
662.866	0.0162148
662.944	0.0161497
663.022	0.0161562
663.100	0.0161885
663.178	0.0161104
663.256	0.0160680
663.334	0.0160836
663.413	0.0160416
663.491	0.0161385
663.569	0.0161533
663.647	0.0161576
663.725	0.0162716
663.803	0.0161407
663.881	0.0161345
663.959	0.0161356
664.038	0.0161530
664.116	0.0162575
664.194	0.0162459
664.272	0.0161410
664.350	0.0161375
664.428	0.0162483
664.506	0.0162435
664.584	0.0160786
664.663	0.0162175
664.741	0.0163052
664.819	0.0162102
664.897	0.0162532
664.975	0.0162151
665.053	0.0163274
665.131	0.0163322
665.209	0.0163431
665.288	0.0163232
665.366	0.0164527
665.444	0.0162946
665.522	0.0163444
665.600	0.0164587
665.678	0.0164139
665.756	0.0164954
665.834	0.0166163
665.913	0.0165323
665.991	0.0164698
666.069	0.0165372
666.147	0.0164331
666.225	0.0164462
666.303	0.0163332
666.381	0.0165210
666.459	0.0163768
666.538	0.0164076
666.616	0.0164121
666.694	0.0163566
666.772	0.0165872
666.850	0.0164606
666.928	0.0165165
667.006	0.0163901
667.084	0.0163299
667.163	0.0161141
667.241	0.0163387
667.319	0.0162945
667.397	0.0160818
667.475	0.0162647
667.553	0.0160084
667.631	0.0159962
667.709	0.0160941
667.788	0.0159845
667.866	0.0160060
667.944	0.0160277
668.022	0.0159266
668.100	0.0160803
668.178	0.0161522
668.256	0.0161053
668.334	0.0160891
668.413	0.0162096
668.491	0.0161840
668.569	0.0161774
668.647	0.0162606
668.725	0.0163223
668.803	0.0163264
668.881	0.0162973
668.959	0.0164050
669.038	0.0165081
669.116	0.0164597
669.194	0.0164301
669.272	0.0166108
669.350	0.0166621
669.428	0.0166722
669.506	0.0168247
669.584	0.0167781
669.663	0.0168518
669.741	0.0169862
669.819	0.0170568
669.897	0.0168841
669.975	0.0168147
670.053	0.0170297
670.131	0.0168519
670.209	0.0169389
670.288	0.0167439
670.366	0.0166769
670.444	0.0167065
670.522	0.0165899
670.600	0.0164339
670.678	0.0164021
670.756	0.0161990
670.834	0.0162505
670.913	0.0161485
670.991	0.0160827
671.069	0.0160438
671.147	0.0159709
671.225	0.0159889
671.303	0.0159337
671.381	0.0158626
671.459	0.0159090
671.538	0.0158125
671.616	0.0159773
671.694	0.0160001
671.772	0.0160065
671.850	0.0159685
671.928	0.0160454
672.006	0.0160877
672.084	0.0161154
672.163	0.0162946
672.241	0.0163114
672.319	0.0163273
672.397	0.0163999
672.475	0.0164285
672.553	0.0165636
672.631	0.0165826
672.709	0.0164517
672.788	0.0166933
672.866	0.0167062
672.944	0.0168029
673.022	0.0167582
673.100	0.0166982
673.178	0.0167913
673.256	0.0169032
673.334	0.0168643
673.413	0.0168231
673.491	0.0169550
673.569	0.0167696
673.647	0.0167835
673.725	0.0167969
673.803	0.0167782
673.881	0.0167380
673.959	0.0168159
674.038	0.0168467
674.116	0.0166405
674.194	0.0164908
674.272	0.0162744
674.350	0.0164258
674.428	0.0163776
674.506	0.0162259
674.584	0.0163686
674.663	0.0161862
674.741	0.0161209
674.819	0.0160353
674.897	0.0160540
674.975	0.0159655
675.053	0.0159764
675.131	0.0158308
675.209	0.0158096
675.288	0.0158513
675.366	0.0158344
675.444	0.0158725
675.522	0.0160456
675.600	0.0159935
675.678	0.0158412
675.756	0.0160330
675.834	0.0160335
675.913	0.0161336
675.991	0.0161967
676.069	0.0163390
676.147	0.0163507
676.225	0.0164938
676.303	0.0165284
676.381	0.0168035
676.459	0.0167046
676.538	0.0168340
676.616	0.0167146
676.694	0.0167438
676.772	0.0168759
676.850	0.0169827
676.928	0.0167646
677.006	0.0169526
677.084	0.0168795
677.163	0.0165901
677.241	0.0165822
677.319	0.0165488
677.397	0.0165986
677.475	0.0164714
677.553	0.0165733
677.631	0.0165179
677.709	0.0164297
677.788	0.0162290
677.866	0.0161492
677.944	0.0163036
678.022	0.0162362
678.100	0.0160738
678.178	0.0161464
678.256	0.0161475
678.334	0.0161342
678.413	0.0160433
678.491	0.0161341
678.569	0.0161250
678.647	0.0161377
678.725	0.0161447
678.803	0.0161186
678.881	0.0160831
678.959	0.0162626
679.038	0.0162016
679.116	0.0162300
679.194	0.0162476
679.272	0.0162840
679.350	0.0162607
679.428	0.0162267
679.506	0.0160661
679.584	0.0161283
679.663	0.0162856
679.741	0.0162491
679.819	0.0162624
679.897	0.0162480
679.975	0.0163021
680.053	0.0163545
680.131	0.0164165
680.209	0.0163169
680.288	0.0162617
680.366	0.0163734
680.444	0.0163342
680.522	0.0162791
680.600	0.0163907
680.678	0.0162904
680.756	0.0162491
680.834	0.0162323
680.913	0.0164209
680.991	0.0164449
681.069	0.0163834
681.147	0.0164156
681.225	0.0164182
681.303	0.0163877
681.381	0.0165726
681.459	0.0167017
681.538	0.0166320
681.616	0.0166978
681.694	0.0166449
681.772	0.0165709
681.850	0.0165193
681.928	0.0165312
682.006	0.0165063
682.084	0.0162352
682.163	0.0159835
682.241	0.0159487
682.319	0.0158475
682.397	0.0157553
682.475	0.0155796
682.553	0.0154256
682.631	0.0153069
682.709	0.0153481
682.788	0.0154549
682.866	0.0154082
682.944	0.0155480
683.022	0.0157898
683.100	0.0158877
683.178	0.0162385
683.256	0.0164114
683.334	0.0165280
683.413	0.0167261
683.491	0.0170555
683.569	0.0171735
683.647	0.0172832
683.725	0.0173007
683.803	0.0173569
683.881	0.0171555
683.959	0.0172730
684.038	0.0171397
684.116	0.0171107
684.194	0.0167892
684.272	0.0165813
684.350	0.0165667
684.428	0.0163085
684.506	0.0161222
684.584	0.0161135
684.663	0.0159284
684.741	0.0158144
684.819	0.0157875
684.897	0.0158270
684.975	0.0157124
685.053	0.0155627
685.131	0.0156979
685.209	0.0156947
685.288	0.0157256
685.366	0.0157501
685.444	0.0157539
685.522	0.0157912
685.600	0.0158768
685.678	0.0160439
685.756	0.0160944
685.834	0.0160716
685.913	0.0159963
685.991	0.0161078
686.069	0.0162183
686.147	0.0162116
686.225	0.0163395
686.303	0.0164474
686.381	0.0165047
686.459	0.0165038
686.538	0.0166872
686.616	0.0169061
686.694	0.0168951
686.772	0.0169087
686.850	0.0171110
686.928	0.0171199
687.006	0.0173040
687.084	0.0173981
687.163	0.0172931
687.241	0.0174332
687.319	0.0173251
687.397	0.0172595
687.475	0.0172282
687.553	0.0170759
687.631	0.0170737
687.709	0.0169565
687.788	0.0167118
687.866	0.0165337
687.944	0.0162840
688.022	0.0162505
688.100	0.0159016
688.178	0.0158604
688.256	0.0157453
688.334	0.0155987
688.413	0.0153886
688.491	0.0152985
688.569	0.0151706
688.647	0.0150677
688.725	0.0150927
688.803	0.0147543
688.881	0.0148298
688.959	0.0147720
689.038	0.0147340
689.116	0.0145747
689.194	0.0145824
689.272	0.0147169
689.350	0.0148653
689.428	0.0148907
689.506	0.0152457
689.584	0.0155692
689.663	0.0161286
689.741	0.0165670
689.819	0.0169995
689.897	0.0173708
689.975	0.0177554
690.053	0.0183734
690.131	0.0186201
690.209	0.0188557
690.288	0.0191231
690.366	0.0192328
690.444	0.0192847
690.522	0.0190575
690.600	0.0190179
690.678	0.0188190
690.756	0.0184920
690.834	0.0181514
690.913	0.0177263
690.991	0.0174358
691.069	0.0170187
691.147	0.0164470
691.225	0.0161314
691.303	0.0157022
691.381	0.0153749
691.459	0.0150425
691.538	0.0145458
691.616	0.0143319
691.694	0.0140128
691.772	0.0140439
691.850	0.0137981
691.928	0.0136098
692.006	0.0136059
692.084	0.0135580
692.163	0.0136964
692.241	0.0138971
692.319	0.0140233
692.397	0.0142671
692.475	0.0146737
692.553	0.0151060
692.631	0.0153857
692.709	0.0157438
692.788	0.0163129
692.866	0.0167571
692.944	0.0172388
693.022	0.0176018
693.100	0.0179280
693.178	0.0183762
693.256	0.0185300
693.334	0.0185971
693.413	0.0187432
693.491	0.0187640
693.569	0.0183417
693.647	0.0184142
693.725	0.0180917
693.803	0.0176870
693.881	0.0176997
693.959	0.0174302
694.038	0.0171243
694.116	0.0169738
694.194	0.0170486
694.272	0.0168389
694.350	0.0167796
694.428	0.0166265
694.506	0.0167348
694.584	0.0166740
694.663	0.0164678
694.741	0.0162080
694.819	0.0158685
694.897	0.0156297
694.975	0.0152632
695.053	0.0149367
695.131	0.0145255
695.209	0.0141293
695.288	0.0138644
695.366	0.0138640
695.444	0.0138599
695.522	0.0139748
695.600	0.0139776
695.678	0.0144237
695.756	0.0149291
695.834	0.0151858
695.913	0.0156380
695.991	0.0160822
696.069	0.0165640
696.147	0.0167608
696.225	0.0171745
696.303	0.0173133
696.381	0.0174281
696.459	0.0175091
696.538	0.0176460
696.616	0.0175898
696.694	0.0175787
696.772	0.0175715
696.850	0.0178001
696.928	0.0178024
697.006	0.0180697
697.084	0.0182609
697.163	0.0184357
697.241	0.0186826
697.319	0.0187446
697.397	0.0186610
697.475	0.0186820
697.553	0.0185862
697.631	0.0182552
697.709	0.0179249
697.788	0.0174763
697.866	0.0170080
697.944	0.0166900
698.022	0.0161810
698.100	0.0155315
698.178	0.0153424
698.256	0.0148736
698.334	0.0146549
698.413	0.0142715
698.491	0.0140086
698.569	0.0137590
698.647	0.0135530
698.725	0.0133526
698.803	0.0131907
698.881	0.0130070
698.959	0.0129593
699.038	0.0127738
699.116	0.0127949
699.194	0.0131329
699.272	0.0131342
699.350	0.0134940
699.428	0.0139037
699.506	0.0143818
699.584	0.0148954
699.663	0.0157449
699.741	0.0164410
699.819	0.0170438
699.897	0.0177464
699.975	0.0183495
700.053	0.0191048
700.131	0.0196938
700.209	0.0201835
700.288	0.0203916
700.366	0.0207199
700.444	0.0207802
700.522	0.0207512
700.600	0.0206573
700.678	0.0205083
700.756	0.0200669
700.834	0.0197547
700.913	0.0195027
700.991	0.0191947
701.069	0.0185738
701.147	0.0183731
701.225	0.0180425
701.303	0.0175282
701.381	0.0169762
701.459	0.0167435
701.538	0.0162315
701.616	0.0157122
701.694	0.0153550
701.772	0.0149956
701.850	0.0146162
701.928	0.0144739
702.006	0.0141228
702.084	0.0140591
702.163	0.0138882
702.241	0.0138400
702.319	0.0138038
702.397	0.0137583
702.475	0.0136351
702.553	0.0137865
702.631	0.0136738
702.709	0.0135620
702.788	0.0136112
702.866	0.0137280
702.944	0.0138425
703.022	0.0140774
703.100	0.0143001
703.178	0.0146913
703.256	0.0149429
703.334	0.0154862
703.413	0.0159809
703.491	0.0163071
703.569	0.0169766
703.647	0.0172964
703.725	0.0176712
703.803	0.0177450
703.881	0.0179554
703.959	0.0179623
704.038	0.0179427
704.116	0.0178549
704.194	0.0176771
704.272	0.0175714
704.350	0.0174028
704.428	0.0171196
704.506	0.0169310
704.584	0.0169633
704.663	0.0170273
704.741	0.0169497
704.819	0.0169647
704.897	0.0169924
704.975	0.0171371
705.053	0.0171242
705.131	0.0172216
705.209	0.0172798
705.288	0.0173052
705.366	0.0172471
705.444	0.0174246
705.522	0.0172897
705.600	0.0172200
705.678	0.0173915
705.756	0.0172220
705.834	0.0172357
705.913	0.0170594
705.991	0.0170754
706.069	0.0171229
706.147	0.0171408
706.225	0.0171192
706.303	0.0171233
706.381	0.0170518
706.459	0.0169984
706.538	0.0166807
706.616	0.0165813
706.694	0.0163309
706.772	0.0162018
706.850	0.0159573
706.928	0.0157533
707.006	0.0153973
707.084	0.0152233
707.163	0.0150403
707.241	0.0150179
707.319	0.0149534
707.397	0.0148302
707.475	0.0149027
707.553	0.0150484
707.631	0.0150119
707.709	0.0153075
707.788	0.0154285
707.866	0.0154128
707.944	0.0155914
708.022	0.0153670
708.100	0.0154433
708.178	0.0153256
708.256	0.0153499
708.334	0.0154617
708.413	0.0153088
708.491	0.0154829
708.569	0.0158053
708.647	0.0158242
708.725	0.0161639
708.803	0.0163608
708.881	0.0166667
708.959	0.0169028
709.038	0.0170992
709.116	0.0175353
709.194	0.0176701
709.272	0.0177618
709.350	0.0179506
709.428	0.0177706
709.506	0.0176950
709.584	0.0172682
709.663	0.0170802
709.741	0.0167230
709.819	0.0163443
709.897	0.0158319
709.975	0.0154446
710.053	0.0150517
710.131	0.0147729
710.209	0.0146056
710.288	0.0145899
710.366	0.0144809
710.444	0.0147523
710.522	0.0149726
710.600	0.0153549
710.678	0.0157813
710.756	0.0163466
710.834	0.0168413
710.913	0.0172861
710.991	0.0178882
711.069	0.0181316
711.147	0.0184833
711.225	0.0187954
711.303	0.0191058
711.381	0.0192383
711.459	0.0190736
711.538	0.0191084
711.616	0.0190359
711.694	0.0188701
711.772	0.0187357
711.850	0.0185064
711.928	0.0183594
712.006	0.0178910
712.084	0.0176207
712.163	0.0172838
712.241	0.0169592
712.319	0.0167274
712.397	0.0164413
712.475	0.0160299
712.553	0.0156925
712.631	0.0152859
712.709	0.0148559
712.788	0.0146721
712.866	0.0142383
712.944	0.0140058
713.022	0.0140687
713.100	0.0138933
713.178	0.0137495
713.256	0.0137750
713.334	0.0140665
713.413	0.0139922
713.491	0.0142867
713.569	0.0146694
713.647	0.0148906
713.725	0.0150240
713.803	0.0153024
713.881	0.0154375
713.959	0.0158358
714.038	0.0157429
714.116	0.0156107
714.194	0.0157455
714.272	0.0156346
714.350	0.0156794
714.428	0.0157010
714.506	0.0155923
714.584	0.0155180
714.663	0.0156016
714.741	0.0156959
714.819	0.0157761
714.897	0.0160584
714.975	0.0162991
715.053	0.0166369
715.131	0.0168477
715.209	0.0173709
715.288	0.0175565
715.366	0.0177493
715.444	0.0178403
715.522	0.0178331
715.600	0.0178819
715.678	0.0177531
715.756	0.0176613
715.834	0.0174109
715.913	0.0172679
715.991	0.0171275
716.069	0.0169133
716.147	0.0169559
716.225	0.0170703
716.303	0.0170071
716.381	0.0171123
716.459	0.0173182
716.538	0.0175963
716.616	0.0177854
716.694	0.0180862
716.772	0.0180645
716.850	0.0183038
716.928	0.0182610
717.006	0.0181744
717.084	0.0180787
717.163	0.0176386
717.241	0.0174582
717.319	0.0171278
717.397	0.0165530
717.475	0.0162081
717.553	0.0159097
717.631	0.0154765
717.709	0.0155159
717.788	0.0155373
717.866	0.0153162
717.944	0.0154807
718.022	0.0156155
718.100	0.0157427
718.178	0.0156321
718.256	0.0155933
718.334	0.0154504
718.413	0.0153811
718.491	0.0151060
718.569	0.0148898
718.647	0.0144814
718.725	0.0143613
718.803	0.0141063
718.881	0.0140971
718.959	0.0138458
719.038	0.0138992
719.116	0.0142383
719.194	0.0144079
719.272	0.0147009
719.350	0.0150816
719.428	0.0152383
719.506	0.0154379
719.584	0.0156956
719.663	0.0159064
719.741	0.0160721
719.819	0.0161721
719.897	0.0163136
719.975	0.0164919
720.053	0.0165699
720.131	0.0168176
720.209	0.0169030
720.288	0.0168423
720.366	0.0169648
720.444	0.0170102
720.522	0.0171442
720.600	0.0169718
720.678	0.0170184
720.756	0.0171278
720.834	0.0170428
720.913	0.0170177
720.991	0.0169120
721.069	0.0169028
721.147	0.0170242
721.225	0.0171675
721.303	0.0170979
721.381	0.0171370
721.459	0.0170990
721.538	0.0172104
721.616	0.0173238
721.694	0.0176035
721.772	0.0178176
721.850	0.0178894
721.928	0.0180384
722.006	0.0181451
722.084	0.0182760
722.163	0.0184299
722.241	0.0184701
722.319	0.0183331
722.397	0.0182962
722.475	0.0183910
722.553	0.0182302
722.631	0.0179202
722.709	0.0178694
722.788	0.0175654
722.866	0.0174310
722.944	0.0171208
723.022	0.0169934
723.100	0.0167221
723.178	0.0165807
723.256	0.0163118
723.334	0.0162196
723.413	0.0160278
723.491	0.0160073
723.569	0.0156969
723.647	0.0154346
723.725	0.0153849
723.803	0.0152580
723.881	0.0149465
723.959	0.0146886
724.038	0.0144363
724.116	0.0141489
724.194	0.0140849
724.272	0.0138103
724.350	0.0136172
724.428	0.0134539
724.506	0.0134245
724.584	0.0133841
724.663	0.0134666
724.741	0.0136266
724.819	0.0137096
724.897	0.0141091
724.975	0.0141661
725.053	0.0145174
725.131	0.0147856
725.209	0.0150056
725.288	0.0152754
725.366	0.0156327
725.444	0.0157815
725.522	0.0160340
725.600	0.0161224
725.678	0.0163903
725.756	0.0166172
725.834	0.0167380
725.913	0.0168662
725.991	0.0169254
726.069	0.0173375
726.147	0.0174857
726.225	0.0175000
726.303	0.0175450
726.381	0.0175069
726.459	0.0177106
726.538	0.0176932
726.616	0.0176096
726.694	0.0176027
726.772	0.0176154
726.850	0.0176192
726.928	0.0176881
727.006	0.0176400
727.084	0.0178587
727.163	0.0179198
727.241	0.0179926
727.319	0.0179362
727.397	0.0182201
727.475	0.0182985
727.553	0.0184242
727.631	0.0182719
727.709	0.0182963
727.788	0.0183794
727.866	0.0182333
727.944	0.0182763
728.022	0.0180303
728.100	0.0178716
728.178	0.0178433
728.256	0.0176662
728.334	0.0175346
728.413	0.0172603
728.491	0.0171278
728.569	0.0170080
728.647	0.0167606
728.725	0.0165868
728.803	0.0165129
728.881	0.0163940
728.959	0.0162042
729.038	0.0160336
729.116	0.0159834
729.194	0.0159489
729.272	0.0157319
729.350	0.0156814
729.428	0.0156027
729.506	0.0153925
729.584	0.0153964
729.663	0.0152199
729.741	0.0150525
729.819	0.0150382
729.897	0.0148299
729.975	0.0147787
730.053	0.0145514
730.131	0.0144053
730.209	0.0142950
730.288	0.0142184
730.366	0.0141653
730.444	0.0141673
730.522	0.0141576
730.600	0.0140014
730.678	0.0141525
730.756	0.0141711
730.834	0.0142411
730.913	0.0143110
730.991	0.0144397
731.069	0.0144069
731.147	0.0146976
731.225	0.0148511
731.303	0.0148127
731.381	0.0149594
731.459	0.0152863
731.538	0.0155299
731.616	0.0156863
731.694	0.0158272
731.772	0.0160423
731.850	0.0163450
731.928	0.0166223
732.006	0.0167941
732.084	0.0168783
732.163	0.0171575
732.241	0.0172485
732.319	0.0172105
732.397	0.0172939
732.475	0.0172115
732.553	0.0172430
732.631	0.0174409
732.709	0.0173340
732.788	0.0174200
732.866	0.0177170
732.944	0.0178919
733.022	0.0179826
733.100	0.0179711
733.178	0.0183115
733.256	0.0185745
733.334	0.0186364
733.413	0.0187896
733.491	0.0186960
733.569	0.0186352
733.647	0.0185537
733.725	0.0184402
733.803	0.0180199
733.881	0.0179691
733.959	0.0176038
734.038	0.0172652
734.116	0.0171967
734.194	0.0170105
734.272	0.0168335
734.350	0.0166564
734.428	0.0165897
734.506	0.0167352
734.584	0.0167294
734.663	0.0167592
734.741	0.0168030
734.819	0.0170910
734.897	0.0172403
734.975	0.0171956
735.053	0.0173359
735.131	0.0172636
735.209	0.0172575
735.288	0.0169994
735.366	0.0167970
735.444	0.0166739
735.522	0.0162501
735.600	0.0159507
735.678	0.0154644
735.756	0.0151802
735.834	0.0148602
735.913	0.0144804
735.991	0.0140701
736.069	0.0138702
736.147	0.0137449
736.225	0.0134892
736.303	0.0133563
736.381	0.0131976
736.459	0.0131381
736.538	0.0132232
736.616	0.0132896
736.694	0.0135488
736.772	0.0135961
736.850	0.0138939
736.928	0.0142017
737.006	0.0144180
737.084	0.0147581
737.163	0.0151361
737.241	0.0155077
737.319	0.0158882
737.397	0.0161385
737.475	0.0163652
737.553	0.0166492
737.631	0.0168447
737.709	0.0169930
737.788	0.0170810
737.866	0.0171176
737.944	0.0170991
738.022	0.0170412
738.100	0.0170808
738.178	0.0170675
738.256	0.0169281
738.334	0.0169494
738.413	0.0169668
738.491	0.0171084
738.569	0.0171162
738.647	0.0169916
738.725	0.0169619
738.803	0.0169845
738.881	0.0171042
738.959	0.0170483
739.038	0.0172040
739.116	0.0170950
739.194	0.0170406
739.272	0.0169180
739.350	0.0171162
739.428	0.0171490
739.506	0.0169025
739.584	0.0169563
739.663	0.0170009
739.741	0.0170779
739.819	0.0169836
739.897	0.0170495
739.975	0.0170133
740.053	0.0169076
740.131	0.0168476
740.209	0.0168375
740.288	0.0169428
740.366	0.0168573
740.444	0.0168765
740.522	0.0167445
740.600	0.0165553
740.678	0.0165842
740.756	0.0164566
740.834	0.0163578
740.913	0.0162753
740.991	0.0161652
741.069	0.0161820
741.147	0.0162259
741.225	0.0160481
741.303	0.0160320
741.381	0.0161035
741.459	0.0161017
741.538	0.0161173
741.616	0.0162302
741.694	0.0161520
741.772	0.0160531
741.850	0.0162544
741.928	0.0162730
742.006	0.0163010
742.084	0.0165042
742.163	0.0164121
742.241	0.0164493
742.319	0.0165536
742.397	0.0164866
742.475	0.0165359
742.553	0.0165961
742.631	0.0167191
742.709	0.0166466
742.788	0.0166248
742.866	0.0167368
742.944	0.0165770
743.022	0.0166638
743.100	0.0166593
743.178	0.0166927
743.256	0.0165474
743.334	0.0163928
743.413	0.0160798
743.491	0.0159172
743.569	0.0157232
743.647	0.0155039
743.725	0.0153912
743.803	0.0152328
743.881	0.0151247
743.959	0.0150677
744.038	0.0147454
744.116	0.0148207
744.194	0.0149307
744.272	0.0150735
744.350	0.0151498
744.428	0.0153208
744.506	0.0154092
744.584	0.0154872
744.663	0.0156319
744.741	0.0158027
744.819	0.0156937
744.897	0.0158381
744.975	0.0158273
745.053	0.0159042
745.131	0.0158761
745.209	0.0158392
745.288	0.0160741
745.366	0.0161331
745.444	0.0160822
745.522	0.0163237
745.600	0.0163126
745.678	0.0164391
745.756	0.0166918
745.834	0.0167820
745.913	0.0168275
745.991	0.0168631
746.069	0.0169128
746.147	0.0169728
746.225	0.0167992
746.303	0.0166828
746.381	0.0167958
746.459	0.0167160
746.538	0.0168361
746.616	0.0167877
746.694	0.0167242
746.772	0.0167310
746.850	0.0167265
746.928	0.0168511
747.006	0.0167339
747.084	0.0169449
747.163	0.0169812
747.241	0.0168515
747.319	0.0168621
747.397	0.0168517
747.475	0.0169122
747.553	0.0168967
747.631	0.0167970
747.709	0.0167750
747.788	0.0169302
747.866	0.0170538
747.944	0.0170469
748.022	0.0169441
748.100	0.0170150
748.178	0.0168899
748.256	0.0168491
748.334	0.0167982
748.413	0.0167839
748.491	0.0168557
748.569	0.0167365
748.647	0.0166383
748.725	0.0166041
748.803	0.0164809
748.881	0.0164188
748.959	0.0163220
749.038	0.0163792
749.116	0.0163357
749.194	0.0162031
749.272	0.0162535
749.350	0.0162472
749.428	0.0161643
749.506	0.0160843
749.584	0.0159518
749.663	0.0160323
749.741	0.0160271
749.819	0.0160748
749.897	0.0160092
749.975	0.0160287
750.053	0.0160655
750.131	0.0160810
750.209	0.0161137
750.288	0.0162064
750.366	0.0162353
750.444	0.0162709
750.522	0.0164272
750.600	0.0164394
750.678	0.0166541
750.756	0.0167350
750.834	0.0168513
750.913	0.0168302
750.991	0.0168819
751.069	0.0168336
751.147	0.0166170
751.225	0.0164954
751.303	0.0162302
751.381	0.0159956
751.459	0.0158180
751.538	0.0155331
751.616	0.0154208
751.694	0.0151832
751.772	0.0151241
751.850	0.0149778
751.928	0.0150661
752.006	0.0149634
752.084	0.0150507
752.163	0.0151295
752.241	0.0154776
752.319	0.0154503
752.397	0.0157184
752.475	0.0157825
752.553	0.0159807
752.631	0.0161694
752.709	0.0163623
752.788	0.0165671
752.866	0.0167162
752.944	0.0167786
753.022	0.0168920
753.100	0.0169720
753.178	0.0171240
753.256	0.0170370
753.334	0.0171037
753.413	0.0171855
753.491	0.0171320
753.569	0.0170052
753.647	0.0168529
753.725	0.0169909
753.803	0.0169946
753.881	0.0168815
753.959	0.0167398
754.038	0.0167454
754.116	0.0166828
754.194	0.0167596
754.272	0.0166102
754.350	0.0166380
754.428	0.0166750
754.506	0.0167286
754.584	0.0166201
754.663	0.0165340
754.741	0.0164745
754.819	0.0164410
754.897	0.0162872
754.975	0.0162491
755.053	0.0162574
755.131	0.0161211
755.209	0.0163383
755.288	0.0162742
755.366	0.0161794
755.444	0.0160950
755.522	0.0160355
755.600	0.0161941
755.678	0.0160162
755.756	0.0160015
755.834	0.0159476
755.913	0.0157597
755.991	0.0156967
756.069	0.0156920
756.147	0.0157632
756.225	0.0157816
756.303	0.0156955
756.381	0.0156980
756.459	0.0159435
756.538	0.0160904
756.616	0.0162475
756.694	0.0164835
756.772	0.0166978
756.850	0.0167895
756.928	0.0169983
757.006	0.0171864
757.084	0.0173843
757.163	0.0176272
757.241	0.0178322
757.319	0.0176797
757.397	0.0179165
757.475	0.0179221
757.553	0.0178762
757.631	0.0178051
757.709	0.0176468
757.788	0.0174659
757.866	0.0171926
757.944	0.0169033
758.022	0.0166113
758.100	0.0162687
758.178	0.0159276
758.256	0.0157777
758.334	0.0155626
758.413	0.0154628
758.491	0.0152785
758.569	0.0152351
758.647	0.0151151
758.725	0.0151875
758.803	0.0151186
758.881	0.0152170
758.959	0.0152500
759.038	0.0153546
759.116	0.0153777
759.194	0.0154903
759.272	0.0156931
759.350	0.0156404
759.428	0.0158474
759.506	0.0158313
759.584	0.0157832
759.663	0.0158609
759.741	0.0160306
759.819	0.0161179
759.897	0.0161247
759.975	0.0161060
760.053	0.0160872
760.131	0.0162248
760.209	0.0161354
760.288	0.0161239
760.366	0.0160831
760.444	0.0161575
760.522	0.0160325
760.600	0.0160579
760.678	0.0160767
760.756	0.0160783
760.834	0.0159439
760.913	0.0158127
760.991	0.0159150
761.069	0.0158581
761.147	0.0159824
761.225	0.0160081
761.303	0.0161546
761.381	0.0160871
761.459	0.0160266
761.538	0.0160709
761.616	0.0160593
761.694	0.0162016
761.772	0.0162669
761.850	0.0162099
761.928	0.0161966
762.006	0.0162106
762.084	0.0161952
762.163	0.0162787
762.241	0.0162351
762.319	0.0162402
762.397	0.0163789
762.475	0.0164734
762.553	0.0164982
762.631	0.0165450
762.709	0.0166617
762.788	0.0169518
762.866	0.0169230
762.944	0.0171622
763.022	0.0170917
763.100	0.0172993
763.178	0.0172443
763.256	0.0173957
763.334	0.0172797
763.413	0.0172876
763.491	0.0170834
763.569	0.0171566
763.647	0.0170803
763.725	0.0169760
763.803	0.0169205
763.881	0.0169097
763.959	0.0168698
764.038	0.0166019
764.116	0.0167745
764.194	0.0165919
764.272	0.0163904
764.350	0.0164320
764.428	0.0163771
764.506	0.0162912
764.584	0.0163388
764.663	0.0162302
764.741	0.0162004
764.819	0.0161729
764.897	0.0162518
764.975	0.0163751
765.053	0.0165722
765.131	0.0164639
765.209	0.0165843
765.288	0.0167700
765.366	0.0168156
765.444	0.0169196
765.522	0.0170060
765.600	0.0170879
765.678	0.0171119
765.756	0.0170644
765.834	0.0170119
765.913	0.0166993
765.991	0.0167080
766.069	0.0166534
766.147	0.0164200
766.225	0.0162420
766.303	0.0158475
766.381	0.0156358
766.459	0.0155865
766.538	0.0152288
766.616	0.0151300
766.694	0.0149569
766.772	0.0149147
766.850	0.0148198
766.928	0.0147802
767.006	0.0149318
767.084	0.0149751
767.163	0.0150910
767.241	0.0151413
767.319	0.0154359
767.397	0.0154508
767.475	0.0155972
767.553	0.0157846
767.631	0.0158574
767.709	0.0161287
767.788	0.0163000
767.866	0.0165807
767.944	0.0165678
768.022	0.0167783
768.100	0.0170051
768.178	0.0170335
768.256	0.0171552
768.334	0.0169998
768.413	0.0170840
768.491	0.0171830
768.569	0.0168095
768.647	0.0166376
768.725	0.0165781
768.803	0.0164610
768.881	0.0163267
768.959	0.0163549
769.038	0.0161172
769.116	0.0161573
769.194	0.0160749
769.272	0.0161765
769.350	0.0162386
769.428	0.0163111
769.506	0.0165449
769.584	0.0165646
769.663	0.0166527
769.741	0.0168459
769.819	0.0169531
769.897	0.0169647
769.975	0.0168890
770.053	0.0168638
770.131	0.0168179
770.209	0.0167715
770.288	0.0167458
770.366	0.0165006
770.444	0.0164018
770.522	0.0162947
770.600	0.0160298
770.678	0.0160764
770.756	0.0158804
770.834	0.0157835
770.913	0.0159400
770.991	0.0158978
771.069	0.0160476
771.147	0.0162496
771.225	0.0162945
771.303	0.0165189
771.381	0.0167722
771.459	0.0169025
771.538	0.0171465
771.616	0.0172884
771.694	0.0174548
771.772	0.0175427
771.850	0.0175462
771.928	0.0176595
772.006	0.0174383
772.084	0.0173125
772.163	0.0173427
772.241	0.0170619
772.319	0.0168933
772.397	0.0166332
772.475	0.0164500
772.553	0.0164696
772.631	0.0162556
772.709	0.0160995
772.788	0.0161147
772.866	0.0158732
772.944	0.0158390
773.022	0.0157862
773.100	0.0156967
773.178	0.0156405
773.256	0.0157081
773.334	0.0157772
773.413	0.0157750
773.491	0.0158241
773.569	0.0158762
773.647	0.0158543
773.725	0.0159509
773.803	0.0160235
773.881	0.0161689
773.959	0.0161555
774.038	0.0161262
774.116	0.0163092
774.194	0.0164351
774.272	0.0166322
774.350	0.0165729
774.428	0.0167346
774.506	0.0169547
774.584	0.0169040
774.663	0.0168147
774.741	0.0168954
774.819	0.0169539
774.897	0.0168736
774.975	0.0166336
775.053	0.0164838
775.131	0.0163789
775.209	0.0162580
775.288	0.0159841
775.366	0.0157439
775.444	0.0155393
775.522	0.0152940
775.600	0.0153603
775.678	0.0153822
775.756	0.0152564
775.834	0.0153448
775.913	0.0152726
775.991	0.0153857
776.069	0.0154885
776.147	0.0156332
776.225	0.0159045
776.303	0.0158825
776.381	0.0159514
776.459	0.0163106
776.538	0.0164700
776.616	0.0165338
776.694	0.0167413
776.772	0.0168871
776.850	0.0170790
776.928	0.0170699
777.006	0.0171120
777.084	0.0170518
777.163	0.0172375
777.241	0.0171264
777.319	0.0169152
777.397	0.0167831
777.475	0.0167123
777.553	0.0166209
777.631	0.0164373
777.709	0.0162514
777.788	0.0161871
777.866	0.0159550
777.944	0.0158840
778.022	0.0159068
778.100	0.0160148
778.178	0.0157116
778.256	0.0157729
778.334	0.0159058
778.413	0.0159042
778.491	0.0160071
778.569	0.0160653
778.647	0.0159586
778.725	0.0160326
778.803	0.0159324
778.881	0.0160931
778.959	0.0160205
779.038	0.0159751
779.116	0.0160324
779.194	0.0159522
779.272	0.0160611
779.350	0.0162540
779.428	0.0161179
779.506	0.0163780
779.584	0.0165154
779.663	0.0166900
779.741	0.0168866
779.819	0.0170564
779.897	0.0171676
779.975	0.0173845
780.053	0.0174311
780.131	0.0175825
780.209	0.0174355
780.288	0.0177200
780.366	0.0176446
780.444	0.0174906
780.522	0.0173866
780.600	0.0172292
780.678	0.0170791
780.756	0.0167971
780.834	0.0164974
780.913	0.0164209
780.991	0.0161732
781.069	0.0159853
781.147	0.0158407
781.225	0.0157892
781.303	0.0156208
781.381	0.0155183
781.459	0.0154920
781.538	0.0153887
781.616	0.0154170
781.694	0.0154984
781.772	0.0155064
781.850	0.0155835
781.928	0.0156213
782.006	0.0155129
782.084	0.0154765
782.163	0.0154750
782.241	0.0156242
782.319	0.0156187
782.397	0.0157855
782.475	0.0158413
782.553	0.0160991
782.631	0.0162509
782.709	0.0163371
782.788	0.0164496
782.866	0.0168269
782.944	0.0169655
783.022	0.0170391
783.100	0.0171786
783.178	0.0173568
783.256	0.0174249
783.334	0.0174123
783.413	0.0173712
783.491	0.0173943
783.569	0.0171840
783.647	0.0168652
783.725	0.0164468
783.803	0.0163777
783.881	0.0162382
783.959	0.0158292
784.038	0.0153773
784.116	0.0152148
784.194	0.0150530
784.272	0.0148142
784.350	0.0148069
784.428	0.0148033
784.506	0.0150383
784.584	0.0150250
784.663	0.0150714
784.741	0.0153852
784.819	0.0157268
784.897	0.0159675
784.975	0.0162090
785.053	0.0164570
785.131	0.0167763
785.209	0.0169176
785.288	0.0169907
785.366	0.0172792
785.444	0.0173943
785.522	0.0175516
785.600	0.0175206
785.678	0.0176762
785.756	0.0174505
785.834	0.0173450
785.913	0.0172745
785.991	0.0173006
786.069	0.0168955
786.147	0.0165665
786.225	0.0163775
786.303	0.0160174
786.381	0.0158241
786.459	0.0156233
786.538	0.0155901
786.616	0.0154861
786.694	0.0154008
786.772	0.0154650
786.850	0.0157030
786.928	0.0158676
787.006	0.0160278
787.084	0.0162365
787.163	0.0163790
787.241	0.0166444
787.319	0.0167873
787.397	0.0170609
787.475	0.0171039
787.553	0.0169283
787.631	0.0170181
787.709	0.0170621
787.788	0.0168593
787.866	0.0167722
787.944	0.0167089
788.022	0.0166283
788.100	0.0164158
788.178	0.0163434
788.256	0.0162952
788.334	0.0163412
788.413	0.0164305
788.491	0.0163697
788.569	0.0163525
788.647	0.0164780
788.725	0.0166676
788.803	0.0167530
788.881	0.0168859
788.959	0.0169109
789.038	0.0169038
789.116	0.0169662
789.194	0.0171732
789.272	0.0170074
789.350	0.0168969
789.428	0.0168124
789.506	0.0167371
789.584	0.0167673
789.663	0.0162726
789.741	0.0162406
789.819	0.0161777
789.897	0.0160229
789.975	0.0160673
790.053	0.0159814
790.131	0.0159367
790.209	0.0159380
790.288	0.0159503
790.366	0.0160874
790.444	0.0161575
790.522	0.0162200
790.600	0.0162112
790.678	0.0162019
790.756	0.0162920
790.834	0.0161873
790.913	0.0162023
790.991	0.0161449
791.069	0.0162395
791.147	0.0161726
791.225	0.0162551
791.303	0.0161670
791.381	0.0161526
791.459	0.0162827
791.538	0.0162846
791.616	0.0165724
791.694	0.0167154
791.772	0.0165198
791.850	0.0167553
791.928	0.0167435
792.006	0.0167981
792.084	0.0167860
792.163	0.0165614
792.241	0.0165844
792.319	0.0163784
792.397	0.0160968
792.475	0.0158825
792.553	0.0157446
792.631	0.0154090
792.709	0.0151447
792.788	0.0150883
792.866	0.0149799
792.944	0.0149664
793.022	0.0148772
793.100	0.0151361
793.178	0.0152486
793.256	0.0155241
793.334	0.0157309
793.413	0.0160805
793.491	0.0163155
793.569	0.0165622
793.647	0.0169404
793.725	0.0170025
793.803	0.0171841
793.881	0.0174194
793.959	0.0174545
794.038	0.0175294
794.116	0.0175830
794.194	0.0175906
794.272	0.0175566
794.350	0.0172955
794.428	0.0172850
794.506	0.0169920
794.584	0.0168095
794.663	0.0166454
794.741	0.0165689
794.819	0.0164315
794.897	0.0161635
794.975	0.0159682
795.053	0.0157926
795.131	0.0155764
795.209	0.0153697
795.288	0.0154151
795.366	0.0155300
795.444	0.0155192
795.522	0.0157305
795.600	0.0158005
795.678	0.0159615
795.756	0.0163415
795.834	0.0164765
795.913	0.0166223
795.991	0.0168110
796.069	0.0169550
796.147	0.0169674
796.225	0.0169974
796.303	0.0171288
796.381	0.0168864
796.459	0.0167295
796.538	0.0167655
796.616	0.0167333
796.694	0.0166474
796.772	0.0166603
796.850	0.0165031
796.928	0.0163982
797.006	0.0164001
797.084	0.0165937
797.163	0.0166299
797.241	0.0164954
797.319	0.0166614
797.397	0.0167683
797.475	0.0169140
797.553	0.0168452
797.631	0.0168753
797.709	0.0168783
797.788	0.0168656
797.866	0.0169013
797.944	0.0169392
798.022	0.0167929
798.100	0.0166757
798.178	0.0165078
798.256	0.0163181
798.334	0.0162521
798.413	0.0160573
798.491	0.0160301
798.569	0.0158363
798.647	0.0156308
798.725	0.0154952
798.803	0.0153016
798.881	0.0153584
798.959	0.0153019
799.038	0.0152122
799.116	0.0152756
799.194	0.0154563
799.272	0.0153748
799.350	0.0154564
799.428	0.0154279
799.506	0.0154561
799.584	0.0155849
799.663	0.0157290
799.741	0.0157732
799.819	0.0155753
799.897	0.0157444
799.975	0.0158002
800.053	0.0160737
800.131	0.0159525
800.209	0.0160840
800.288	0.0164023
800.366	0.0166293
800.444	0.0167868
800.522	0.0169019
800.600	0.0171472
800.678	0.0172316
800.756	0.0173244
800.834	0.0172681
800.913	0.0173885
800.991	0.0172525
801.069	0.0171789
801.147	0.0168472
801.225	0.0168053
801.303	0.0164726
801.381	0.0162948
801.459	0.0158987
801.538	0.0156699
801.616	0.0155873
801.694	0.0154551
801.772	0.0153333
801.850	0.0152917
801.928	0.0154276
802.006	0.0155962
802.084	0.0157129
802.163	0.0158006
802.241	0.0159619
802.319	0.0163758
802.397	0.0164505
802.475	0.0166818
802.553	0.0168228
802.631	0.0169825
802.709	0.0170452
802.788	0.0172033
802.866	0.0172950
802.944	0.0173355
803.022	0.0170515
803.100	0.0170895
803.178	0.0170172
803.256	0.0168622
803.334	0.0169892
803.413	0.0168906
803.491	0.0167498
803.569	0.0166987
803.647	0.0165251
803.725	0.0164760
803.803	0.0163085
803.881	0.0162518
803.959	0.0161873
804.038	0.0159303
804.116	0.0159446
804.194	0.0161201
804.272	0.0158559
804.350	0.0160217
804.428	0.0160190
804.506	0.0161294
804.584	0.0161790
804.663	0.0161422
804.741	0.0160619
804.819	0.0163258
804.897	0.0162603
804.975	0.0162439
805.053	0.0161641
805.131	0.0161656
805.209	0.0161458
805.288	0.0160508
805.366	0.0160504
805.444	0.0162386
805.522	0.0161928
805.600	0.0161194
805.678	0.0160136
805.756	0.0161267
805.834	0.0162041
805.913	0.0162906
805.991	0.0165993
806.069	0.0166944
806.147	0.0167607
806.225	0.0168616
806.303	0.0168304
806.381	0.0171091
806.459	0.0172346
806.538	0.0171598
806.616	0.0171426
806.694	0.0170322
806.772	0.0170610
806.850	0.0168675
806.928	0.0169573
807.006	0.0168504
807.084	0.0166673
807.163	0.0163757
807.241	0.0164719
807.319	0.0162612
807.397	0.0160528
807.475	0.0161123
807.553	0.0159877
807.631	0.0158262
807.709	0.0158089
807.788	0.0157557
807.866	0.0158979
807.944	0.0159116
808.022	0.0160186
808.100	0.0159895
808.178	0.0159772
808.256	0.0160865
808.334	0.0160879
808.413	0.0161397
808.491	0.0161275
808.569	0.0161455
808.647	0.0161456
808.725	0.0160663
808.803	0.0160299
808.881	0.0162710
808.959	0.0162177
809.038	0.0162198
809.116	0.0163312
809.194	0.0164114
809.272	0.0165163
809.350	0.0166281
809.428	0.0167017
809.506	0.0167737
809.584	0.0167582
809.663	0.0167706
809.741	0.0167252
809.819	0.0168951
809.897	0.0165369
809.975	0.0165238
810.053	0.0162723
810.131	0.0163644
810.209	0.0161809
810.288	0.0158362
810.366	0.0158066
810.444	0.0156950
810.522	0.0157393
810.600	0.0156395
810.678	0.0156875
810.756	0.0157235
810.834	0.0157937
810.913	0.0159211
810.991	0.0161591
811.069	0.0161970
811.147	0.0162912
811.225	0.0164745
811.303	0.0166094
811.381	0.0167560
811.459	0.0166993
811.538	0.0168560
811.616	0.0169802
811.694	0.0169095
811.772	0.0169852
811.850	0.0169480
811.928	0.0169927
812.006	0.0168766
812.084	0.0169690
812.163	0.0170191
812.241	0.0170460
812.319	0.0170396
812.397	0.0170362
812.475	0.0169941
812.553	0.0170811
812.631	0.0170235
812.709	0.0169374
812.788	0.0167848
812.866	0.0168187
812.944	0.0167860
813.022	0.0168035
813.100	0.0166042
813.178	0.0164232
813.256	0.0165379
813.334	0.0165816
813.413	0.0164431
813.491	0.0164997
813.569	0.0165175
813.647	0.0165863
813.725	0.0165503
813.803	0.0166391
813.881	0.0165121
813.959	0.0163310
814.038	0.0164577
814.116	0.0163521
814.194	0.0164135
814.272	0.0161973
814.350	0.0162687
814.428	0.0160809
814.506	0.0159591
814.584	0.0161339
814.663	0.0159649
814.741	0.0159746
814.819	0.0160650
814.897	0.0159288
814.975	0.0158542
815.053	0.0157594
815.131	0.0157825
815.209	0.0159689
815.288	0.0156129
815.366	0.0157645
815.444	0.0156661
815.522	0.0157785
815.600	0.0158685
815.678	0.0158150
815.756	0.0156800
815.834	0.0159113
815.913	0.0159621
815.991	0.0159767
816.069	0.0159856
816.147	0.0160094
816.225	0.0161455
816.303	0.0160661
816.381	0.0162275
816.459	0.0161942
816.538	0.0162762
816.616	0.0163896
816.694	0.0162989
816.772	0.0165187
816.850	0.0164933
816.928	0.0166092
817.006	0.0166845
817.084	0.0166249
817.163	0.0165381
817.241	0.0165031
817.319	0.0166218
817.397	0.0166420
817.475	0.0164335
817.553	0.0164431
817.631	0.0165430
817.709	0.0162520
817.788	0.0164220
817.866	0.0164155
817.944	0.0165171
818.022	0.0165303
818.100	0.0167464
818.178	0.0166964
818.256	0.0167470
818.334	0.0169232
818.413	0.0170306
818.491	0.0170306
818.569	0.0172036
818.647	0.0172380
818.725	0.0173324
818.803	0.0172514
818.881	0.0170341
818.959	0.0170213
819.038	0.0169565
819.116	0.0169481
819.194	0.0167214
819.272	0.0165620
819.350	0.0165126
819.428	0.0162685
819.506	0.0163309
819.584	0.0162511
819.663	0.0161172
819.741	0.0161047
819.819	0.0162228
819.897	0.0162872
819.975	0.0162392
820.053	0.0160576
820.131	0.0161691
820.209	0.0161725
820.288	0.0161477
820.366	0.0162141
820.444	0.0162553
820.522	0.0160398
820.600	0.0161848
820.678	0.0161757
820.756	0.0160603
820.834	0.0160120
820.913	0.0159870
820.991	0.0160916
821.069	0.0160479
821.147	0.0161520
821.225	0.0162814
821.303	0.0161683
821.381	0.0162799
821.459	0.0163543
821.538	0.0163258
821.616	0.0163400
821.694	0.0162625
821.772	0.0163821
821.850	0.0163268
821.928	0.0163570
822.006	0.0163595
822.084	0.0161900
822.163	0.0163663
822.241	0.0162719
822.319	0.0163383
822.397	0.0164100
822.475	0.0162750
822.553	0.0164502
822.631	0.0163857
822.709	0.0164484
822.788	0.0165125
822.866	0.0165869
822.944	0.0165557
823.022	0.0165033
823.100	0.0165541
823.178	0.0165926
823.256	0.0165072
823.334	0.0164035
823.413	0.0163154
823.491	0.0162962
823.569	0.0164062
823.647	0.0164498
823.725	0.0164276
823.803	0.0163399
823.881	0.0163714
823.959	0.0165939
824.038	0.0162180
824.116	0.0164220
824.194	0.0164339
824.272	0.0166076
824.350	0.0165005
824.428	0.0166212
824.506	0.0165623
824.584	0.0166527
824.663	0.0166194
824.741	0.0166294
824.819	0.0164259
824.897	0.0165211
824.975	0.0166735
825.053	0.0163804
825.131	0.0164158
825.209	0.0163979
825.288	0.0161650
825.366	0.0160551
825.444	0.0161273
825.522	0.0160635
825.600	0.0159714
825.678	0.0157801
825.756	0.0159674
825.834	0.0156987
825.913	0.0159032
825.991	0.0158113
826.069	0.0159062
826.147	0.0156937
826.225	0.0158480
826.303	0.0159661
826.381	0.0159112
826.459	0.0160027
826.538	0.0160233
826.616	0.0160599
826.694	0.0160155
826.772	0.0160502
826.850	0.0161699
826.928	0.0161916
827.006	0.0163676
827.084	0.0163002
827.163	0.0164924
827.241	0.0165789
827.319	0.0166044
827.397	0.0166529
827.475	0.0166186
827.553	0.0167718
827.631	0.0166788
827.709	0.0168013
827.788	0.0167963
827.866	0.0166425
827.944	0.0165634
828.022	0.0165424
828.100	0.0164986
828.178	0.0163794
828.256	0.0162661
828.334	0.0163567
828.413	0.0162963
828.491	0.0162516
828.569	0.0161827
828.647	0.0162653
828.725	0.0164124
828.803	0.0163261
828.881	0.0164130
828.959	0.0162856
829.038	0.0163721
829.116	0.0165482
829.194	0.0165855
829.272	0.0166492
829.350	0.0165009
829.428	0.0165530
829.506	0.0167876
829.584	0.0167546
829.663	0.0166526
829.741	0.0167434
829.819	0.0166560
829.897	0.0168004
829.975	0.0168112
830.053	0.0168549
830.131	0.0168388
830.209	0.0169782
830.288	0.0169462
830.366	0.0166848
830.444	0.0168259
830.522	0.0167673
830.600	0.0168266
830.678	0.0167673
830.756	0.0165383
830.834	0.0164441
830.913	0.0163847
830.991	0.0163850
831.069	0.0162851
831.147	0.0159122
831.225	0.0160898
831.303	0.0160717
831.381	0.0159145
831.459	0.0159669
831.538	0.0159285
831.616	0.0159847
831.694	0.0160609
831.772	0.0160026
831.850	0.0158674
831.928	0.0160158
832.006	0.0161192
832.084	0.0160052
832.163	0.0160074
832.241	0.0159840
832.319	0.0161834
832.397	0.0159663
832.475	0.0159860
832.553	0.0160826
832.631	0.0159254
832.709	0.0159428
832.788	0.0160703
832.866	0.0160902
832.944	0.0161647
833.022	0.0161076
833.100	0.0162028
833.178	0.0161101
833.256	0.0161169
833.334	0.0162451
833.413	0.0163284
833.491	0.0160927
833.569	0.0162200
833.647	0.0163570
833.725	0.0163696
833.803	0.0162360
833.881	0.0162637
833.959	0.0164088
834.038	0.0163033
834.116	0.0163046
834.194	0.0164836
834.272	0.0164268
834.350	0.0164156
834.428	0.0164010
834.506	0.0164352
834.584	0.0164993
834.663	0.0165454
834.741	0.0165884
834.819	0.0165039
834.897	0.0163913
834.975	0.0165500
835.053	0.0165024
835.131	0.0164719
835.209	0.0165293
835.288	0.0165957
835.366	0.0165237
835.444	0.0164619
835.522	0.0165067
835.600	0.0164664
835.678	0.0165140
835.756	0.0165514
835.834	0.0165229
835.913	0.0164042
835.991	0.0164516
836.069	0.0166592
836.147	0.0166190
836.225	0.0166119
836.303	0.0167987
836.381	0.0168027
836.459	0.0168957
836.538	0.0168635
836.616	0.0168447
836.694	0.0169112
836.772	0.0168622
836.850	0.0168040
836.928	0.0169012
837.006	0.0165607
837.084	0.0166141
837.163	0.0164429
837.241	0.0162048
837.319	0.0163248
837.397	0.0162380
837.475	0.0160436
837.553	0.0159320
837.631	0.0159890
837.709	0.0158897
837.788	0.0159692
837.866	0.0159818
837.944	0.0159458
838.022	0.0159615
838.100	0.0160157
838.178	0.0160827
838.256	0.0160397
838.334	0.0160605
838.413	0.0163021
838.491	0.0163132
838.569	0.0162661
838.647	0.0163840
838.725	0.0163642
838.803	0.0162543
838.881	0.0161821
838.959	0.0164220
839.038	0.0163114
839.116	0.0164953
839.194	0.0164705
839.272	0.0163956
839.350	0.0164682
839.428	0.0164319
839.506	0.0162347
839.584	0.0161866
839.663	0.0163237
839.741	0.0162142
839.819	0.0161424
839.897	0.0161562
839.975	0.0160307
840.053	0.0159950
840.131	0.0159760
840.209	0.0160179
840.288	0.0160222
840.366	0.0158972
840.444	0.0159917
840.522	0.0160134
840.600	0.0160662
840.678	0.0162308
840.756	0.0162731
840.834	0.0163624
840.913	0.0164735
840.991	0.0164072
841.069	0.0165141
841.147	0.0164979
841.225	0.0165898
841.303	0.0164679
841.381	0.0165986
841.459	0.0166493
841.538	0.0165151
841.616	0.0164761
841.694	0.0163584
841.772	0.0163878
841.850	0.0165092
841.928	0.0164381
842.006	0.0163919
842.084	0.0165781
842.163	0.0164770
842.241	0.0162768
842.319	0.0164777
842.397	0.0163605
842.475	0.0163903
842.553	0.0164985
842.631	0.0165144
842.709	0.0165745
842.788	0.0166209
842.866	0.0164847
842.944	0.0166441
843.022	0.0166621
843.100	0.0165749
843.178	0.0167004
843.256	0.0165708
843.334	0.0165428
843.413	0.0166258
843.491	0.0165244
843.569	0.0165466
843.647	0.0166055
843.725	0.0165025
843.803	0.0163589
843.881	0.0164068
843.959	0.0163940
844.038	0.0164539
844.116	0.0164523
844.194	0.0163419
844.272	0.0162552
844.350	0.0164252
844.428	0.0162641
844.506	0.0164471
844.584	0.0162961
844.663	0.0161306
844.741	0.0161504
844.819	0.0162823
844.897	0.0162482
844.975	0.0162703
845.053	0.0161633
845.131	0.0164256
845.209	0.0165443
845.288	0.0164614
845.366	0.0165998
845.444	0.0165031
845.522	0.0164460
845.600	0.0165548
845.678	0.0166401
845.756	0.0164901
845.834	0.0164546
845.913	0.0164914
845.991	0.0164992
846.069	0.0164877
846.147	0.0164879
846.225	0.0163469
846.303	0.0163818
846.381	0.0162305
846.459	0.0162682
846.538	0.0161040
846.616	0.0161177
846.694	0.0162998
846.772	0.0162517
846.850	0.0162365
846.928	0.0162072
847.006	0.0160538
847.084	0.0161088
847.163	0.0163771
847.241	0.0162293
847.319	0.0161623
847.397	0.0160950
847.475	0.0162209
847.553	0.0161716
847.631	0.0161482
847.709	0.0161848
847.788	0.0162804
847.866	0.0161942
847.944	0.0162915
848.022	0.0162755
848.100	0.0164175
848.178	0.0162072
848.256	0.0163268
848.334	0.0163612
848.413	0.0165761
848.491	0.0165519
848.569	0.0165345
848.647	0.0164254
848.725	0.0163861
848.803	0.0165560
848.881	0.0163930
848.959	0.0165085
849.038	0.0162936
849.116	0.0163155
849.194	0.0162557
849.272	0.0162615
849.350	0.0162871
849.428	0.0163029
849.506	0.0163219
849.584	0.0163168
849.663	0.0163010
849.741	0.0164296
849.819	0.0165272
849.897	0.0163995
849.975	0.0164365
850.053	0.0164653
850.131	0.0163862
850.209	0.0164905
850.288	0.0164506
850.366	0.0165578
850.444	0.0165276
850.522	0.0164327
850.600	0.0164406
850.678	0.0164448
850.756	0.0163752
850.834	0.0164057
850.913	0.0163681
850.991	0.0163094
851.069	0.0163213
851.147	0.0162438
851.225	0.0163806
851.303	0.0163755
851.381	0.0162330
851.459	0.0163552
851.538	0.0164340
851.616	0.0163712
851.694	0.0165041
851.772	0.0166109
851.850	0.0166212
851.928	0.0163641
852.006	0.0164203
852.084	0.0164314
852.163	0.0164797
852.241	0.0164584
852.319	0.0164626
852.397	0.0163716
852.475	0.0164537
852.553	0.0164078
852.631	0.0164533
852.709	0.0165294
852.788	0.0163670
852.866	0.0163373
852.944	0.0162805
853.022	0.0164719
853.100	0.0163957
853.178	0.0164876
853.256	0.0163114
853.334	0.0163181
853.413	0.0165285
853.491	0.0163949
853.569	0.0164073
853.647	0.0163896
853.725	0.0163572
853.803	0.0164388
853.881	0.0164260
853.959	0.0164091
854.038	0.0164076
854.116	0.0163983
854.194	0.0165435
854.272	0.0164722
854.350	0.0165260
854.428	0.0164713
854.506	0.0165327
854.584	0.0165139
854.663	0.0166511
854.741	0.0165353
854.819	0.0165655
854.897	0.0166022
854.975	0.0164554
855.053	0.0163986
855.131	0.0162683
855.209	0.0163560
855.288	0.0162246
855.366	0.0162347
855.444	0.0162614
855.522	0.0161121
855.600	0.0159606
855.678	0.0160165
855.756	0.0160577
855.834	0.0160004
855.913	0.0159775
855.991	0.0159823
856.069	0.0160018
856.147	0.0159343
856.225	0.0160570
856.303	0.0160139
856.381	0.0159624
856.459	0.0158291
856.538	0.0159885
856.616	0.0161779
856.694	0.0160828
856.772	0.0161169
856.850	0.0161830
856.928	0.0161793
857.006	0.0161943
857.084	0.0162684
857.163	0.0162656
857.241	0.0161665
857.319	0.0163504
857.397	0.0163567
857.475	0.0163358
857.553	0.0164097
857.631	0.0162218
857.709	0.0164577
857.788	0.0163063
857.866	0.0162735
857.944	0.0162434
858.022	0.0163086
858.100	0.0163716
858.178	0.0162660
858.256	0.0161822
858.334	0.0161607
858.413	0.0161365
858.491	0.0162177
858.569	0.0161407
858.647	0.0161262
858.725	0.0161723
858.803	0.0162778
858.881	0.0161951
858.959	0.0162945
859.038	0.0163403
859.116	0.0165070
859.194	0.0165053
859.272	0.0165776
859.350	0.0165939
859.428	0.0166173
859.506	0.0165402
859.584	0.0166278
859.663	0.0165801
859.741	0.0166306
859.819	0.0166306
859.897	0.0165312
859.975	0.0165784
860.053	0.0165975
860.131	0.0166760
860.209	0.0165920
860.288	0.0165519
860.366	0.0167358
860.444	0.0166486
860.522	0.0165754
860.600	0.0165948
860.678	0.0166473
860.756	0.0166427
860.834	0.0166962
860.913	0.0165149
860.991	0.0165081
861.069	0.0165181
861.147	0.0165639
861.225	0.0163380
861.303	0.0164043
861.381	0.0163858
861.459	0.0164056
861.538	0.0163569
861.616	0.0163713
861.694	0.0162772
861.772	0.0162662
861.850	0.0161673
861.928	0.0162513
862.006	0.0164089
862.084	0.0163783
862.163	0.0161824
862.241	0.0163793
862.319	0.0163425
862.397	0.0162314
862.475	0.0161226
862.553	0.0160794
862.631	0.0162643
862.709	0.0162104
862.788	0.0161261
862.866	0.0160693
862.944	0.0161572
863.022	0.0161168
863.100	0.0161386
863.178	0.0162249
863.256	0.0160511
863.334	0.0160748
863.413	0.0162890
863.491	0.0162852
863.569	0.0162540
863.647	0.0163411
863.725	0.0164131
863.803	0.0164289
863.881	0.0163600
863.959	0.0162721
864.038	0.0163956
864.116	0.0164997
864.194	0.0165971
864.272	0.0164391
864.350	0.0165591
864.428	0.0164280
864.506	0.0163781
864.584	0.0163586
864.663	0.0164397
864.741	0.0163290
864.819	0.0164355
864.897	0.0164004
864.975	0.0163278
865.053	0.0162780
865.131	0.0163246
865.209	0.0163715
865.288	0.0164438
865.366	0.0164133
865.444	0.0162199
865.522	0.0163518
865.600	0.0163140
865.678	0.0162010
865.756	0.0162357
865.834	0.0163143
865.913	0.0162318
865.991	0.0162940
866.069	0.0162650
866.147	0.0163149
866.225	0.0165078
866.303	0.0166805
866.381	0.0166412
866.459	0.0164877
866.538	0.0165251
866.616	0.0164536
866.694	0.0165594
866.772	0.0166249
866.850	0.0165530
866.928	0.0164429
867.006	0.0164690
867.084	0.0164426
867.163	0.0165459
867.241	0.0164614
867.319	0.0163468
867.397	0.0165810
867.475	0.0164930
867.553	0.0163913
867.631	0.0163598
867.709	0.0163524
867.788	0.0165058
867.866	0.0164791
867.944	0.0162679
868.022	0.0165899
868.100	0.0165209
868.178	0.0164188
868.256	0.0164492
868.334	0.0165237
868.413	0.0164140
868.491	0.0164847
868.569	0.0164764
868.647	0.0162544
868.725	0.0162090
868.803	0.0163735
868.881	0.0163790
868.959	0.0161317
869.038	0.0160804
869.116	0.0161938
869.194	0.0160778
869.272	0.0161193
869.350	0.0161221
869.428	0.0160732
869.506	0.0161863
869.584	0.0160211
869.663	0.0161231
869.741	0.0160452
869.819	0.0162582
869.897	0.0162860
869.975	0.0164301
870.053	0.0164857
870.131	0.0165607
870.209	0.0165759
870.288	0.0164032
870.366	0.0166070
870.444	0.0166132
870.522	0.0165792
870.600	0.0165290
870.678	0.0164561
870.756	0.0165484
870.834	0.0165544
870.913	0.0164555
870.991	0.0163527
871.069	0.0164058
871.147	0.0163290
871.225	0.0161851
871.303	0.0162195
871.381	0.0163761
871.459	0.0162975
871.538	0.0161359
871.616	0.0162264
871.694	0.0162320
871.772	0.0162263
871.850	0.0161961
871.928	0.0161376
872.006	0.0162405
872.084	0.0162073
872.163	0.0161742
872.241	0.0162136
872.319	0.0160752
872.397	0.0163183
872.475	0.0162373
872.553	0.0161748
872.631	0.0162347
872.709	0.0161585
872.788	0.0162835
872.866	0.0162659
872.944	0.0162595
873.022	0.0162909
873.100	0.0163432
873.178	0.0164029
873.256	0.0163371
873.334	0.0164536
873.413	0.0165119
873.491	0.0164675
873.569	0.0163398
873.647	0.0163993
873.725	0.0161899
873.803	0.0162830
873.881	0.0162125
873.959	0.0162084
874.038	0.0162915
874.116	0.0162312
874.194	0.0160516
874.272	0.0160331
874.350	0.0160588
874.428	0.0160657
874.506	0.0161478
874.584	0.0161837
874.663	0.0160672
874.741	0.0161028
874.819	0.0161695
874.897	0.0161903
874.975	0.0164045
875.053	0.0164297
875.131	0.0164050
875.209	0.0164568
875.288	0.0164774
875.366	0.0164728
875.444	0.0165531
875.522	0.0164581
875.600	0.0166110
875.678	0.0165848
875.756	0.0165250
875.834	0.0166516
875.913	0.0166567
875.991	0.0164606
876.069	0.0165242
876.147	0.0166085
876.225	0.0166091
876.303	0.0165562
876.381	0.0165955
876.459	0.0165685
876.538	0.0167123
876.616	0.0167026
876.694	0.0167558
876.772	0.0166579
876.850	0.0166438
876.928	0.0167341
877.006	0.0166415
877.084	0.0165266
877.163	0.0165359
877.241	0.0164818
877.319	0.0164660
877.397	0.0165388
877.475	0.0164408
877.553	0.0164574
877.631	0.0163123
877.709	0.0164079
877.788	0.0163551
877.866	0.0163461
877.944	0.0161720
878.022	0.0161960
878.100	0.0161002
878.178	0.0162214
878.256	0.0160590
878.334	0.0161079
878.413	0.0160591
878.491	0.0160892
878.569	0.0160429
878.647	0.0160640
878.725	0.0162354
878.803	0.0161626
878.881	0.0162366
878.959	0.0161736
879.038	0.0162696
879.116	0.0161898
879.194	0.0164233
879.272	0.0163068
879.350	0.0162797
879.428	0.0165365
879.506	0.0163507
879.584	0.0162804
879.663	0.0163654
879.741	0.0164741
879.819	0.0163000
879.897	0.0164217
879.975	0.0164088
880.053	0.0162584
880.131	0.0162482
880.209	0.0161759
880.288	0.0161138
880.366	0.0161722
880.444	0.0162275
880.522	0.0161362
880.600	0.0161929
880.678	0.0161795
880.756	0.0161136
880.834	0.0163634
880.913	0.0162756
880.991	0.0162797
881.069	0.0163660
881.147	0.0163758
881.225	0.0163091
881.303	0.0165612
881.381	0.0164729
881.459	0.0165014
881.538	0.0165411
881.616	0.0166735
881.694	0.0167135
881.772	0.0166849
881.850	0.0167869
881.928	0.0168452
882.006	0.0167073
882.084	0.0166071
882.163	0.0166630
882.241	0.0167146
882.319	0.0165009
882.397	0.0166204
882.475	0.0165728
882.553	0.0164012
882.631	0.0163382
882.709	0.0166202
882.788	0.0163950
882.866	0.0163091
882.944	0.0161838
883.022	0.0162434
883.100	0.0161892
883.178	0.0162121
883.256	0.0160894
883.334	0.0162036
883.413	0.0161584
883.491	0.0160845
883.569	0.0162370
883.647	0.0161398
883.725	0.0162247
883.803	0.0162434
883.881	0.0162812
883.959	0.0165480
884.038	0.0165257
884.116	0.0164445
884.194	0.0164760
884.272	0.0166243
884.350	0.0166738
884.428	0.0166661
884.506	0.0168238
884.584	0.0167794
884.663	0.0168152
884.741	0.0168505
884.819	0.0167235
884.897	0.0166506
884.975	0.0166662
885.053	0.0166575
885.131	0.0165493
885.209	0.0166131
885.288	0.0164603
885.366	0.0165247
885.444	0.0163809
885.522	0.0163165
885.600	0.0162370
885.678	0.0162654
885.756	0.0162503
885.834	0.0162376
885.913	0.0162857
885.991	0.0162677
886.069	0.0162257
886.147	0.0161591
886.225	0.0161478
886.303	0.0162649
886.381	0.0161534
886.459	0.0162137
886.538	0.0162835
886.616	0.0162138
886.694	0.0162017
886.772	0.0161386
886.850	0.0160195
886.928	0.0161263
887.006	0.0160764
887.084	0.0162147
887.163	0.0161600
887.241	0.0161166
887.319	0.0161465
887.397	0.0162396
887.475	0.0162780
887.553	0.0163232
887.631	0.0163847
887.709	0.0164201
887.788	0.0164271
887.866	0.0164371
887.944	0.0166058
888.022	0.0166115
888.100	0.0166574
888.178	0.0165931
888.256	0.0166208
888.334	0.0165514
888.413	0.0166214
888.491	0.0165578
888.569	0.0164848
888.647	0.0165199
888.725	0.0164928
888.803	0.0165375
888.881	0.0166039
888.959	0.0164268
889.038	0.0164677
889.116	0.0164960
889.194	0.0165282
889.272	0.0164505
889.350	0.0163703
889.428	0.0163120
889.506	0.0161785
889.584	0.0161046
889.663	0.0161143
889.741	0.0163463
889.819	0.0160896
889.897	0.0161237
889.975	0.0160953
890.053	0.0161916
890.131	0.0162673
890.209	0.0163509
890.288	0.0162379
890.366	0.0163033
890.444	0.0164146
890.522	0.0163625
890.600	0.0161820
890.678	0.0162827
890.756	0.0162529
890.834	0.0162098
890.913	0.0163574
890.991	0.0162859
891.069	0.0164452
891.147	0.0163757
891.225	0.0164545
891.303	0.0164655
891.381	0.0164439
891.459	0.0165668
891.538	0.0165502
891.616	0.0167325
891.694	0.0166552
891.772	0.0166943
891.850	0.0166317
891.928	0.0167201
892.006	0.0167091
892.084	0.0165068
892.163	0.0166107
892.241	0.0166024
892.319	0.0163966
892.397	0.0163316
892.475	0.0162912
892.553	0.0161502
892.631	0.0161316
892.709	0.0160946
892.788	0.0160485
892.866	0.0160014
892.944	0.0159088
893.022	0.0160566
893.100	0.0161124
893.178	0.0160304
893.256	0.0159118
893.334	0.0158474
893.413	0.0158739
893.491	0.0161953
893.569	0.0160875
893.647	0.0161308
893.725	0.0162209
893.803	0.0161919
893.881	0.0163982
893.959	0.0165000
894.038	0.0165924
894.116	0.0164752
894.194	0.0164704
894.272	0.0166138
894.350	0.0168243
894.428	0.0167558
894.506	0.0166862
894.584	0.0166433
894.663	0.0166913
894.741	0.0166561
894.819	0.0166601
894.897	0.0165021
894.975	0.0166664
895.053	0.0167522
895.131	0.0165714
895.209	0.0164883
895.288	0.0166766
895.366	0.0165157
895.444	0.0164271
895.522	0.0165637
895.600	0.0163376
895.678	0.0163235
895.756	0.0162675
895.834	0.0162326
895.913	0.0160485
895.991	0.0159792
896.069	0.0158671
896.147	0.0159213
896.225	0.0158487
896.303	0.0157024
896.381	0.0157655
896.459	0.0159029
896.538	0.0159234
896.616	0.0159186
896.694	0.0159885
896.772	0.0160820
896.850	0.0162064
896.928	0.0163373
897.006	0.0162609
897.084	0.0162731
897.163	0.0164249
897.241	0.0164210
897.319	0.0166890
897.397	0.0166106
897.475	0.0165623
897.553	0.0166922
897.631	0.0168372
897.709	0.0167950
897.788	0.0168715
897.866	0.0168651
897.944	0.0167401
898.022	0.0167654
898.100	0.0167430
898.178	0.0166936
898.256	0.0167857
898.334	0.0165475
898.413	0.0163760
898.491	0.0164877
898.569	0.0163374
898.647	0.0163012
898.725	0.0163158
898.803	0.0162544
898.881	0.0162756
898.959	0.0161012
899.038	0.0161509
899.116	0.0160776
899.194	0.0162038
899.272	0.0163665
899.350	0.0161249
899.428	0.0159885
899.506	0.0161380
899.584	0.0162166
899.663	0.0162310
899.741	0.0163279
899.819	0.0163885
899.897	0.0163866
899.975	0.0163111
900.053	0.0163205
900.131	0.0163901
900.209	0.0163734
900.288	0.0164792
900.366	0.0164648
900.444	0.0163902
900.522	0.0164933
900.600	0.0164508
900.678	0.0166010
900.756	0.0166063
900.834	0.0166896
900.913	0.0166747
900.991	0.0163677
901.069	0.0164124
901.147	0.0165405
901.225	0.0164917
901.303	0.0162839
901.381	0.0161084
901.459	0.0161969
901.538	0.0162434
901.616	0.0160027
901.694	0.0160468
901.772	0.0158428
901.850	0.0158182
901.928	0.0157855
902.006	0.0158249
902.084	0.0159277
902.163	0.0158451
902.241	0.0158864
902.319	0.0162269
902.397	0.0162598
902.475	0.0162095
902.553	0.0162712
902.631	0.0163985
902.709	0.0164110
902.788	0.0165923
902.866	0.0165696
902.944	0.0165183
903.022	0.0165059
903.100	0.0164264
903.178	0.0166483
903.256	0.0166494
903.334	0.0166449
903.413	0.0165676
903.491	0.0166066
903.569	0.0165822
903.647	0.0166678
903.725	0.0165742
903.803	0.0166134
903.881	0.0166096
903.959	0.0165533
904.038	0.0166592
904.116	0.0165618
904.194	0.0164821
904.272	0.0163446
904.350	0.0163419
904.428	0.0165031
904.506	0.0164738
904.584	0.0164500
904.663	0.0162977
904.741	0.0163421
904.819	0.0164134
904.897	0.0163403
904.975	0.0163383
905.053	0.0162799
905.131	0.0160912
905.209	0.0162036
905.288	0.0163684
905.366	0.0163040
905.444	0.0162294
905.522	0.0162866
905.600	0.0164232
905.678	0.0162837
905.756	0.0163345
905.834	0.0163209
905.913	0.0161290
905.991	0.0161679
906.069	0.0160124
906.147	0.0162401
906.225	0.0162836
906.303	0.0160255
906.381	0.0160185
906.459	0.0160828
906.538	0.0161680
906.616	0.0162779
906.694	0.0163017
906.772	0.0163938
906.850	0.0163665
906.928	0.0163531
907.006	0.0164909
907.084	0.0166064
907.163	0.0164895
907.241	0.0164565
907.319	0.0165720
907.397	0.0163953
907.475	0.0164703
907.553	0.0165794
907.631	0.0166266
907.709	0.0165160
907.788	0.0164449
907.866	0.0165016
907.944	0.0164977
908.022	0.0164008
908.100	0.0164394
908.178	0.0164088
908.256	0.0163997
908.334	0.0164034
908.413	0.0165764
908.491	0.0165639
908.569	0.0165153
908.647	0.0164659
908.725	0.0164751
908.803	0.0164462
908.881	0.0164234
908.959	0.0163077
909.038	0.0162853
909.116	0.0164201
909.194	0.0164051
909.272	0.0162016
909.350	0.0161440
909.428	0.0162503
909.506	0.0162173
909.584	0.0164279
909.663	0.0163885
909.741	0.0164562
909.819	0.0163074
909.897	0.0165983
909.975	0.0166305
910.053	0.0165638
910.131	0.0165297
910.209	0.0165865
910.288	0.0166661
910.366	0.0166410
910.444	0.0165613
910.522	0.0165446
910.600	0.0164796
910.678	0.0165331
910.756	0.0166340
910.834	0.0164793
910.913	0.0164613
910.991	0.0164131
911.069	0.0164939
911.147	0.0164837
911.225	0.0164071
911.303	0.0164481
911.381	0.0164635
911.459	0.0164048
911.538	0.0163688
911.616	0.0163503
911.694	0.0161621
911.772	0.0162574
911.850	0.0163032
911.928	0.0161773
912.006	0.0160793
912.084	0.0162374
912.163	0.0162405
912.241	0.0160068
912.319	0.0162577
912.397	0.0162653
912.475	0.0163747
912.553	0.0163294
912.631	0.0162689
912.709	0.0163899
912.788	0.0163210
912.866	0.0163483
912.944	0.0163122
913.022	0.0164352
913.100	0.0161825
913.178	0.0162943
913.256	0.0162861
913.334	0.0163006
913.413	0.0163506
913.491	0.0163821
913.569	0.0162725
913.647	0.0163983
913.725	0.0164033
913.803	0.0162945
913.881	0.0163450
913.959	0.0162370
914.038	0.0162560
914.116	0.0162205
914.194	0.0162672
914.272	0.0163647
914.350	0.0162897
914.428	0.0163828
914.506	0.0163387
914.584	0.0162151
914.663	0.0161565
914.741	0.0162456
914.819	0.0162358
914.897	0.0162279
914.975	0.0162911
915.053	0.0162601
915.131	0.0163563
915.209	0.0163464
915.288	0.0164554
915.366	0.0163689
915.444	0.0162248
915.522	0.0162658
915.600	0.0162937
915.678	0.0163632
915.756	0.0162650
915.834	0.0163120
915.913	0.0162479
915.991	0.0164252
916.069	0.0163228
916.147	0.0163107
916.225	0.0162822
916.303	0.0164096
916.381	0.0162953
916.459	0.0162621
916.538	0.0164126
916.616	0.0163168
916.694	0.0162572
916.772	0.0163022
916.850	0.0162460
916.928	0.0161942
917.006	0.0162265
917.084	0.0162234
917.163	0.0162756
917.241	0.0162791
917.319	0.0162352
917.397	0.0162826
917.475	0.0162599
917.553	0.0160758
917.631	0.0161714
917.709	0.0161967
917.788	0.0162463
917.866	0.0161200
917.944	0.0162173
918.022	0.0162099
918.100	0.0162608
918.178	0.0162598
918.256	0.0162761
918.334	0.0163056
918.413	0.0163082
918.491	0.0164612
918.569	0.0164719
918.647	0.0165208
918.725	0.0165093
918.803	0.0163885
918.881	0.0164153
918.959	0.0163651
919.038	0.0165443
919.116	0.0165946
919.194	0.0165237
919.272	0.0164742
919.350	0.0164211
919.428	0.0163846
919.506	0.0164294
919.584	0.0163070
919.663	0.0164196
919.741	0.0164074
919.819	0.0164128
919.897	0.0162547
