05/20/2022	21:00:43	Ver.	4.1	UNKNOWN
Optical Delay	599.975067	Delta X		0.078125	Sweeps	1	Scan Rate	0/0
Coordinates	Axis 1	NaN	Axis 2	NaN	Axis 3	NaN	Axis 4	NaN	Axis 5	NaN	Axis 6	0.000000
TX Power	0.000000	RX Power	0.000000

599.975	0.0169513
600.053	0.0169708
600.131	0.0170186
600.209	0.0169384
600.288	0.0168513
600.366	0.0168539
600.444	0.0170077
600.522	0.0169362
600.600	0.0169827
600.678	0.0170477
600.756	0.0170226
600.834	0.0168205
600.913	0.0169473
600.991	0.0170325
601.069	0.0170080
601.147	0.0169267
601.225	0.0169676
601.303	0.0168438
601.381	0.0169990
601.459	0.0169460
601.538	0.0170339
601.616	0.0170617
601.694	0.0169128
601.772	0.0169310
601.850	0.0169984
601.928	0.0170544
602.006	0.0169198
602.084	0.0169821
602.163	0.0169753
602.241	0.0170273
602.319	0.0169488
602.397	0.0168758
602.475	0.0169652
602.553	0.0170211
602.631	0.0171462
602.709	0.0170345
602.788	0.0169842
602.866	0.0170107
602.944	0.0171725
603.022	0.0170401
603.100	0.0168970
603.178	0.0169829
603.256	0.0170586
603.334	0.0170886
603.413	0.0170061
603.491	0.0169389
603.569	0.0170230
603.647	0.0170811
603.725	0.0170998
603.803	0.0170835
603.881	0.0171181
603.959	0.0170424
604.038	0.0170419
604.116	0.0170672
604.194	0.0171105
604.272	0.0170969
604.350	0.0170969
604.428	0.0170501
604.506	0.0169686
604.584	0.0170187
604.663	0.0170084
604.741	0.0169666
604.819	0.0170648
604.897	0.0170948
604.975	0.0170927
605.053	0.0169743
605.131	0.0170177
605.209	0.0170313
605.288	0.0170942
605.366	0.0169108
605.444	0.0169491
605.522	0.0170689
605.600	0.0170473
605.678	0.0171104
605.756	0.0170874
605.834	0.0170249
605.913	0.0170771
605.991	0.0169853
606.069	0.0168894
606.147	0.0168913
606.225	0.0168115
606.303	0.0169003
606.381	0.0170453
606.459	0.0168877
606.538	0.0167928
606.616	0.0168871
606.694	0.0168889
606.772	0.0169695
606.850	0.0168851
606.928	0.0169189
607.006	0.0169881
607.084	0.0168567
607.163	0.0167949
607.241	0.0167851
607.319	0.0167837
607.397	0.0166472
607.475	0.0168139
607.553	0.0167475
607.631	0.0167960
607.709	0.0167439
607.788	0.0167235
607.866	0.0169524
607.944	0.0169158
608.022	0.0167473
608.100	0.0168252
608.178	0.0166833
608.256	0.0167286
608.334	0.0167508
608.413	0.0166675
608.491	0.0168507
608.569	0.0168385
608.647	0.0166822
608.725	0.0167702
608.803	0.0167403
608.881	0.0166431
608.959	0.0166433
609.038	0.0167284
609.116	0.0166753
609.194	0.0167435
609.272	0.0167023
609.350	0.0166655
609.428	0.0166121
609.506	0.0165736
609.584	0.0165912
609.663	0.0166991
609.741	0.0166916
609.819	0.0166795
609.897	0.0168642
609.975	0.0168388
610.053	0.0166598
610.131	0.0167122
610.209	0.0167012
610.288	0.0167499
610.366	0.0167052
610.444	0.0167211
610.522	0.0168015
610.600	0.0167770
610.678	0.0167049
610.756	0.0167558
610.834	0.0167281
610.913	0.0167570
610.991	0.0166952
611.069	0.0166969
611.147	0.0167427
611.225	0.0168349
611.303	0.0167220
611.381	0.0167475
611.459	0.0167066
611.538	0.0167724
611.616	0.0168660
611.694	0.0168082
611.772	0.0167885
611.850	0.0167188
611.928	0.0167587
612.006	0.0167699
612.084	0.0168770
612.163	0.0167503
612.241	0.0168184
612.319	0.0166127
612.397	0.0168190
612.475	0.0168215
612.553	0.0168092
612.631	0.0167797
612.709	0.0168298
612.788	0.0169466
612.866	0.0169047
612.944	0.0167654
613.022	0.0167956
613.100	0.0167922
613.178	0.0167761
613.256	0.0168221
613.334	0.0168567
613.413	0.0168618
613.491	0.0168395
613.569	0.0167323
613.647	0.0168361
613.725	0.0168843
613.803	0.0168507
613.881	0.0169740
613.959	0.0168010
614.038	0.0168950
614.116	0.0169028
614.194	0.0167264
614.272	0.0167374
614.350	0.0168710
614.428	0.0168355
614.506	0.0168065
614.584	0.0167866
614.663	0.0168970
614.741	0.0169393
614.819	0.0169206
614.897	0.0166403
614.975	0.0168382
615.053	0.0169276
615.131	0.0168748
615.209	0.0167330
615.288	0.0168000
615.366	0.0169660
615.444	0.0169450
615.522	0.0168431
615.600	0.0168877
615.678	0.0168740
615.756	0.0169106
615.834	0.0169440
615.913	0.0169965
615.991	0.0169761
616.069	0.0169593
616.147	0.0169291
616.225	0.0170264
616.303	0.0170027
616.381	0.0169986
616.459	0.0169240
616.538	0.0170648
616.616	0.0170470
616.694	0.0169568
616.772	0.0170278
616.850	0.0170000
616.928	0.0169576
617.006	0.0169669
617.084	0.0169226
617.163	0.0170749
617.241	0.0170816
617.319	0.0168239
617.397	0.0171009
617.475	0.0170140
617.553	0.0169224
617.631	0.0170943
617.709	0.0169949
617.788	0.0169892
617.866	0.0170933
617.944	0.0170918
618.022	0.0169531
618.100	0.0170043
618.178	0.0171045
618.256	0.0169226
618.334	0.0169704
618.413	0.0168890
618.491	0.0170676
618.569	0.0169288
618.647	0.0170377
618.725	0.0169801
618.803	0.0169324
618.881	0.0169491
618.959	0.0170171
619.038	0.0170943
619.116	0.0171311
619.194	0.0170750
619.272	0.0170194
619.350	0.0169803
619.428	0.0169601
619.506	0.0171793
619.584	0.0170374
619.663	0.0169492
619.741	0.0169682
619.819	0.0170851
619.897	0.0169312
619.975	0.0170023
620.053	0.0170920
620.131	0.0170070
620.209	0.0170963
620.288	0.0171943
620.366	0.0170605
620.444	0.0170757
620.522	0.0171557
620.600	0.0168039
620.678	0.0169051
620.756	0.0171822
620.834	0.0171378
620.913	0.0171132
620.991	0.0170193
621.069	0.0171490
621.147	0.0169002
621.225	0.0170036
621.303	0.0170177
621.381	0.0168607
621.459	0.0170506
621.538	0.0170964
621.616	0.0170815
621.694	0.0170549
621.772	0.0170026
621.850	0.0169425
621.928	0.0169920
622.006	0.0170343
622.084	0.0169776
622.163	0.0170317
622.241	0.0171293
622.319	0.0170377
622.397	0.0169814
622.475	0.0169199
622.553	0.0168901
622.631	0.0170930
622.709	0.0170550
622.788	0.0169730
622.866	0.0169666
622.944	0.0171719
623.022	0.0170908
623.100	0.0170342
623.178	0.0169478
623.256	0.0169678
623.334	0.0170407
623.413	0.0170358
623.491	0.0170613
623.569	0.0171535
623.647	0.0171989
623.725	0.0170292
623.803	0.0169438
623.881	0.0169376
623.959	0.0172056
624.038	0.0170980
624.116	0.0169776
624.194	0.0170892
624.272	0.0170591
624.350	0.0169807
624.428	0.0170176
624.506	0.0170628
624.584	0.0169778
624.663	0.0170718
624.741	0.0170689
624.819	0.0170203
624.897	0.0171445
624.975	0.0170066
625.053	0.0170782
625.131	0.0171541
625.209	0.0170543
625.288	0.0171134
625.366	0.0170655
625.444	0.0169685
625.522	0.0169990
625.600	0.0170876
625.678	0.0171537
625.756	0.0170658
625.834	0.0170050
625.913	0.0170970
625.991	0.0172187
626.069	0.0170499
626.147	0.0169666
626.225	0.0170242
626.303	0.0170650
626.381	0.0170894
626.459	0.0171236
626.538	0.0170216
626.616	0.0170846
626.694	0.0170580
626.772	0.0169074
626.850	0.0169832
626.928	0.0169810
627.006	0.0170026
627.084	0.0169485
627.163	0.0168964
627.241	0.0169485
627.319	0.0169244
627.397	0.0168658
627.475	0.0169391
627.553	0.0169801
627.631	0.0169585
627.709	0.0168616
627.788	0.0169610
627.866	0.0169599
627.944	0.0168228
628.022	0.0168764
628.100	0.0169522
628.178	0.0169569
628.256	0.0167822
628.334	0.0168909
628.413	0.0167809
628.491	0.0167815
628.569	0.0168618
628.647	0.0168738
628.725	0.0166640
628.803	0.0168263
628.881	0.0167951
628.959	0.0169743
629.038	0.0169508
629.116	0.0168442
629.194	0.0168198
629.272	0.0168866
629.350	0.0167248
629.428	0.0168582
629.506	0.0168098
629.584	0.0168490
629.663	0.0167747
629.741	0.0167132
629.819	0.0168494
629.897	0.0167928
629.975	0.0167601
630.053	0.0167969
630.131	0.0166644
630.209	0.0169068
630.288	0.0167878
630.366	0.0167924
630.444	0.0165559
630.522	0.0166713
630.600	0.0167663
630.678	0.0167822
630.756	0.0166340
630.834	0.0168266
630.913	0.0168079
630.991	0.0167625
631.069	0.0167715
631.147	0.0167490
631.225	0.0168150
631.303	0.0167623
631.381	0.0167844
631.459	0.0168129
631.538	0.0167125
631.616	0.0168002
631.694	0.0168422
631.772	0.0167776
631.850	0.0168983
631.928	0.0166868
632.006	0.0167666
632.084	0.0168904
632.163	0.0166605
632.241	0.0167464
632.319	0.0167922
632.397	0.0167254
632.475	0.0167805
632.553	0.0168222
632.631	0.0168192
632.709	0.0168123
632.788	0.0167591
632.866	0.0166978
632.944	0.0167255
633.022	0.0166905
633.100	0.0167980
633.178	0.0167370
633.256	0.0167510
633.334	0.0167297
633.413	0.0166441
633.491	0.0167793
633.569	0.0167142
633.647	0.0167153
633.725	0.0168394
633.803	0.0168320
633.881	0.0168195
633.959	0.0168488
634.038	0.0166459
634.116	0.0166866
634.194	0.0168082
634.272	0.0167717
634.350	0.0167207
634.428	0.0167971
634.506	0.0167331
634.584	0.0167710
634.663	0.0167299
634.741	0.0166181
634.819	0.0166697
634.897	0.0167273
634.975	0.0167902
635.053	0.0168624
635.131	0.0168226
635.209	0.0169258
635.288	0.0166975
635.366	0.0168522
635.444	0.0168179
635.522	0.0167816
635.600	0.0168294
635.678	0.0169108
635.756	0.0167570
635.834	0.0168987
635.913	0.0168229
635.991	0.0168023
636.069	0.0168579
636.147	0.0168554
636.225	0.0168559
636.303	0.0168911
636.381	0.0169019
636.459	0.0168941
636.538	0.0168432
636.616	0.0166941
636.694	0.0169444
636.772	0.0169799
636.850	0.0167281
636.928	0.0169285
637.006	0.0168620
637.084	0.0168639
637.163	0.0168412
637.241	0.0168436
637.319	0.0169691
637.397	0.0169106
637.475	0.0169268
637.553	0.0168548
637.631	0.0169618
637.709	0.0169379
637.788	0.0169838
637.866	0.0168742
637.944	0.0169643
638.022	0.0169803
638.100	0.0169154
638.178	0.0168130
638.256	0.0168528
638.334	0.0168945
638.413	0.0169567
638.491	0.0169339
638.569	0.0169475
638.647	0.0169619
638.725	0.0169625
638.803	0.0169226
638.881	0.0169188
638.959	0.0170206
639.038	0.0168120
639.116	0.0168610
639.194	0.0170116
639.272	0.0169306
639.350	0.0167861
639.428	0.0169615
639.506	0.0169292
639.584	0.0168697
639.663	0.0170075
639.741	0.0170092
639.819	0.0170367
639.897	0.0169392
639.975	0.0168501
640.053	0.0170480
640.131	0.0170679
640.209	0.0168962
640.288	0.0170480
640.366	0.0170728
640.444	0.0170177
640.522	0.0169790
640.600	0.0169852
640.678	0.0170155
640.756	0.0169936
640.834	0.0170445
640.913	0.0169392
640.991	0.0170412
641.069	0.0170944
641.147	0.0170975
641.225	0.0169207
641.303	0.0170518
641.381	0.0169627
641.459	0.0170444
641.538	0.0170681
641.616	0.0170854
641.694	0.0169351
641.772	0.0168939
641.850	0.0171144
641.928	0.0170813
642.006	0.0170533
642.084	0.0171346
642.163	0.0169891
642.241	0.0170015
642.319	0.0170563
642.397	0.0170952
642.475	0.0169682
642.553	0.0169607
642.631	0.0170393
642.709	0.0171142
642.788	0.0168674
642.866	0.0170779
642.944	0.0170985
643.022	0.0169732
643.100	0.0170695
643.178	0.0170038
643.256	0.0169275
643.334	0.0171553
643.413	0.0170291
643.491	0.0169540
643.569	0.0169494
643.647	0.0170468
643.725	0.0171014
643.803	0.0170513
643.881	0.0169093
643.959	0.0169837
644.038	0.0169965
644.116	0.0170027
644.194	0.0169183
644.272	0.0168134
644.350	0.0170194
644.428	0.0169794
644.506	0.0169984
644.584	0.0170293
644.663	0.0170264
644.741	0.0170658
644.819	0.0169170
644.897	0.0168762
644.975	0.0170177
645.053	0.0169385
645.131	0.0169910
645.209	0.0169035
645.288	0.0170502
645.366	0.0170087
645.444	0.0169651
645.522	0.0169399
645.600	0.0168631
645.678	0.0170091
645.756	0.0169495
645.834	0.0170000
645.913	0.0170264
645.991	0.0169407
646.069	0.0169477
646.147	0.0168705
646.225	0.0169198
646.303	0.0171185
646.381	0.0169190
646.459	0.0168713
646.538	0.0169546
646.616	0.0169163
646.694	0.0170261
646.772	0.0169199
646.850	0.0170309
646.928	0.0169629
647.006	0.0169170
647.084	0.0169743
647.163	0.0169982
647.241	0.0169262
647.319	0.0169299
647.397	0.0168590
647.475	0.0169761
647.553	0.0170234
647.631	0.0170745
647.709	0.0169344
647.788	0.0168337
647.866	0.0169586
647.944	0.0169830
648.022	0.0170855
648.100	0.0169532
648.178	0.0168920
648.256	0.0170504
648.334	0.0170851
648.413	0.0170115
648.491	0.0169560
648.569	0.0169682
648.647	0.0169096
648.725	0.0170250
648.803	0.0169828
648.881	0.0169442
648.959	0.0170002
649.038	0.0170680
649.116	0.0169633
649.194	0.0169163
649.272	0.0169936
649.350	0.0170980
649.428	0.0169001
649.506	0.0170551
649.584	0.0171339
649.663	0.0169080
649.741	0.0168336
649.819	0.0170145
649.897	0.0169635
649.975	0.0169701
650.053	0.0170229
650.131	0.0169173
650.209	0.0169530
650.288	0.0169028
650.366	0.0168908
650.444	0.0169565
650.522	0.0170084
650.600	0.0169254
650.678	0.0169978
650.756	0.0169709
650.834	0.0169054
650.913	0.0169866
650.991	0.0168578
651.069	0.0169292
651.147	0.0169297
651.225	0.0170370
651.303	0.0170095
651.381	0.0169073
651.459	0.0169935
651.538	0.0168265
651.616	0.0170229
651.694	0.0169540
651.772	0.0169980
651.850	0.0167931
651.928	0.0168030
652.006	0.0168901
652.084	0.0168513
652.163	0.0168736
652.241	0.0168842
652.319	0.0170694
652.397	0.0167534
652.475	0.0169617
652.553	0.0168302
652.631	0.0168376
652.709	0.0169215
652.788	0.0168668
652.866	0.0169175
652.944	0.0170540
653.022	0.0169067
653.100	0.0169913
653.178	0.0169907
653.256	0.0168550
653.334	0.0169076
653.413	0.0169059
653.491	0.0169090
653.569	0.0168729
653.647	0.0167002
653.725	0.0168074
653.803	0.0169485
653.881	0.0168601
653.959	0.0167902
654.038	0.0168638
654.116	0.0168932
654.194	0.0168142
654.272	0.0167252
654.350	0.0168857
654.428	0.0169801
654.506	0.0168098
654.584	0.0168908
654.663	0.0168640
654.741	0.0168975
654.819	0.0169305
654.897	0.0168092
654.975	0.0169189
655.053	0.0167792
655.131	0.0169683
655.209	0.0169213
655.288	0.0168533
655.366	0.0169846
655.444	0.0169316
655.522	0.0168619
655.600	0.0167729
655.678	0.0169345
655.756	0.0168827
655.834	0.0168497
655.913	0.0169245
655.991	0.0167622
656.069	0.0168415
656.147	0.0166885
656.225	0.0166629
656.303	0.0168350
656.381	0.0167293
656.459	0.0167078
656.538	0.0166793
656.616	0.0168279
656.694	0.0168043
656.772	0.0168052
656.850	0.0167092
656.928	0.0167395
657.006	0.0168850
657.084	0.0168771
657.163	0.0168485
657.241	0.0169380
657.319	0.0169996
657.397	0.0168776
657.475	0.0169844
657.553	0.0170515
657.631	0.0170309
657.709	0.0169711
657.788	0.0169786
657.866	0.0170788
657.944	0.0170808
658.022	0.0169781
658.100	0.0170695
658.178	0.0169305
658.256	0.0169809
658.334	0.0170090
658.413	0.0169199
658.491	0.0168404
658.569	0.0167417
658.647	0.0167064
658.725	0.0165550
658.803	0.0166643
658.881	0.0167568
658.959	0.0167400
659.038	0.0166473
659.116	0.0165205
659.194	0.0166381
659.272	0.0165663
659.350	0.0166161
659.428	0.0165099
659.506	0.0166155
659.584	0.0167039
659.663	0.0167575
659.741	0.0167408
659.819	0.0168780
659.897	0.0169770
659.975	0.0169509
660.053	0.0169196
660.131	0.0169830
660.209	0.0169881
660.288	0.0171922
660.366	0.0171348
660.444	0.0172696
660.522	0.0171768
660.600	0.0171120
660.678	0.0171482
660.756	0.0170942
660.834	0.0170441
660.913	0.0170344
660.991	0.0170103
661.069	0.0170377
661.147	0.0169725
661.225	0.0170909
661.303	0.0169319
661.381	0.0168063
661.459	0.0167493
661.538	0.0167937
661.616	0.0168144
661.694	0.0166259
661.772	0.0166915
661.850	0.0167763
661.928	0.0166511
662.006	0.0166878
662.084	0.0168004
662.163	0.0166842
662.241	0.0166435
662.319	0.0167328
662.397	0.0167031
662.475	0.0166547
662.553	0.0167730
662.631	0.0167236
662.709	0.0166627
662.788	0.0167101
662.866	0.0168590
662.944	0.0168297
663.022	0.0167252
663.100	0.0167967
663.178	0.0168948
663.256	0.0167736
663.334	0.0167818
663.413	0.0167996
663.491	0.0168438
663.569	0.0169289
663.647	0.0168375
663.725	0.0168438
663.803	0.0169850
663.881	0.0169589
663.959	0.0170024
664.038	0.0170051
664.116	0.0168615
664.194	0.0168893
664.272	0.0171049
664.350	0.0170047
664.428	0.0169675
664.506	0.0171075
664.584	0.0172897
664.663	0.0172010
664.741	0.0170815
664.819	0.0170983
664.897	0.0171513
664.975	0.0170620
665.053	0.0171369
665.131	0.0170501
665.209	0.0169933
665.288	0.0170999
665.366	0.0170741
665.444	0.0169596
665.522	0.0170117
665.600	0.0169576
665.678	0.0169051
665.756	0.0168060
665.834	0.0167839
665.913	0.0167458
665.991	0.0166943
666.069	0.0166564
666.147	0.0165150
666.225	0.0166844
666.303	0.0166488
666.381	0.0167371
666.459	0.0167133
666.538	0.0166001
666.616	0.0165915
666.694	0.0165730
666.772	0.0165858
666.850	0.0166007
666.928	0.0166633
667.006	0.0168448
667.084	0.0168423
667.163	0.0167352
667.241	0.0169383
667.319	0.0167126
667.397	0.0170609
667.475	0.0168931
667.553	0.0170609
667.631	0.0171162
667.709	0.0171250
667.788	0.0171563
667.866	0.0170566
667.944	0.0173289
668.022	0.0174420
668.100	0.0174010
668.178	0.0172900
668.256	0.0174862
668.334	0.0174682
668.413	0.0174251
668.491	0.0175154
668.569	0.0174225
668.647	0.0175311
668.725	0.0174615
668.803	0.0174231
668.881	0.0173272
668.959	0.0173714
669.038	0.0173350
669.116	0.0171242
669.194	0.0169704
669.272	0.0169622
669.350	0.0168294
669.428	0.0168371
669.506	0.0167568
669.584	0.0167386
669.663	0.0165318
669.741	0.0164484
669.819	0.0165651
669.897	0.0163498
669.975	0.0162887
670.053	0.0164597
670.131	0.0164606
670.209	0.0165150
670.288	0.0164376
670.366	0.0164803
670.444	0.0165960
670.522	0.0165338
670.600	0.0166185
670.678	0.0166743
670.756	0.0167540
670.834	0.0167183
670.913	0.0169340
670.991	0.0168650
671.069	0.0170106
671.147	0.0170660
671.225	0.0170618
671.303	0.0170362
671.381	0.0172263
671.459	0.0171867
671.538	0.0172553
671.616	0.0172449
671.694	0.0172655
671.772	0.0172181
671.850	0.0174165
671.928	0.0174075
672.006	0.0173693
672.084	0.0173035
672.163	0.0174229
672.241	0.0173620
672.319	0.0173276
672.397	0.0172034
672.475	0.0172779
672.553	0.0173856
672.631	0.0173367
672.709	0.0171159
672.788	0.0169902
672.866	0.0171410
672.944	0.0169630
673.022	0.0169212
673.100	0.0168233
673.178	0.0167099
673.256	0.0166823
673.334	0.0165802
673.413	0.0165596
673.491	0.0164454
673.569	0.0164064
673.647	0.0163233
673.725	0.0163394
673.803	0.0163062
673.881	0.0163866
673.959	0.0163426
674.038	0.0163131
674.116	0.0164062
674.194	0.0165150
674.272	0.0165183
674.350	0.0165433
674.428	0.0166408
674.506	0.0169317
674.584	0.0168776
674.663	0.0169966
674.741	0.0170513
674.819	0.0170693
674.897	0.0170434
674.975	0.0172702
675.053	0.0171759
675.131	0.0172793
675.209	0.0173289
675.288	0.0173371
675.366	0.0174525
675.444	0.0173714
675.522	0.0172647
675.600	0.0172021
675.678	0.0172878
675.756	0.0173752
675.834	0.0172069
675.913	0.0170838
675.991	0.0170210
676.069	0.0170342
676.147	0.0169388
676.225	0.0167743
676.303	0.0169552
676.381	0.0166999
676.459	0.0167371
676.538	0.0166255
676.616	0.0165791
676.694	0.0165939
676.772	0.0165886
676.850	0.0167081
676.928	0.0166578
677.006	0.0165797
677.084	0.0166938
677.163	0.0167068
677.241	0.0166820
677.319	0.0166161
677.397	0.0167401
677.475	0.0166866
677.553	0.0165491
677.631	0.0166949
677.709	0.0167132
677.788	0.0165949
677.866	0.0166737
677.944	0.0168250
678.022	0.0166475
678.100	0.0167661
678.178	0.0167081
678.256	0.0167608
678.334	0.0166689
678.413	0.0167823
678.491	0.0168064
678.569	0.0167739
678.647	0.0168877
678.725	0.0168954
678.803	0.0168386
678.881	0.0168697
678.959	0.0169964
679.038	0.0168835
679.116	0.0170329
679.194	0.0170007
679.272	0.0171291
679.350	0.0169869
679.428	0.0170384
679.506	0.0171864
679.584	0.0171516
679.663	0.0170401
679.741	0.0170013
679.819	0.0170023
679.897	0.0170163
679.975	0.0169328
680.053	0.0168848
680.131	0.0168256
680.209	0.0168034
680.288	0.0166883
680.366	0.0167114
680.444	0.0167995
680.522	0.0167866
680.600	0.0166532
680.678	0.0167944
680.756	0.0167683
680.834	0.0169137
680.913	0.0169353
680.991	0.0169459
681.069	0.0170372
681.147	0.0171057
681.225	0.0169180
681.303	0.0167855
681.381	0.0167004
681.459	0.0167294
681.538	0.0166164
681.616	0.0164832
681.694	0.0164380
681.772	0.0162598
681.850	0.0164063
681.928	0.0161916
682.006	0.0163012
682.084	0.0163353
682.163	0.0164130
682.241	0.0165858
682.319	0.0166393
682.397	0.0168610
682.475	0.0170889
682.553	0.0172672
682.631	0.0174979
682.709	0.0176022
682.788	0.0179002
682.866	0.0178082
682.944	0.0180535
683.022	0.0179619
683.100	0.0178674
683.178	0.0177762
683.256	0.0175579
683.334	0.0173954
683.413	0.0171380
683.491	0.0168989
683.569	0.0166629
683.647	0.0163332
683.725	0.0162467
683.803	0.0161008
683.881	0.0159676
683.959	0.0159591
684.038	0.0161042
684.116	0.0161086
684.194	0.0160690
684.272	0.0162770
684.350	0.0163970
684.428	0.0162839
684.506	0.0164424
684.584	0.0165531
684.663	0.0166084
684.741	0.0168572
684.819	0.0168340
684.897	0.0168288
684.975	0.0168063
685.053	0.0171166
685.131	0.0169862
685.209	0.0169161
685.288	0.0170844
685.366	0.0170399
685.444	0.0170595
685.522	0.0169949
685.600	0.0169910
685.678	0.0171280
685.756	0.0169227
685.834	0.0169595
685.913	0.0171365
685.991	0.0171812
686.069	0.0171943
686.147	0.0172282
686.225	0.0173824
686.303	0.0173857
686.381	0.0174648
686.459	0.0175647
686.538	0.0176914
686.616	0.0176311
686.694	0.0174783
686.772	0.0175097
686.850	0.0176073
686.928	0.0175443
687.006	0.0174489
687.084	0.0172351
687.163	0.0172604
687.241	0.0171671
687.319	0.0170216
687.397	0.0168086
687.475	0.0166019
687.553	0.0164906
687.631	0.0163807
687.709	0.0160471
687.788	0.0159379
687.866	0.0159661
687.944	0.0154521
688.022	0.0154134
688.100	0.0152814
688.178	0.0151947
688.256	0.0150146
688.334	0.0150548
688.413	0.0148811
688.491	0.0151192
688.569	0.0152369
688.647	0.0153467
688.725	0.0156598
688.803	0.0159605
688.881	0.0164664
688.959	0.0167686
689.038	0.0172838
689.116	0.0177369
689.194	0.0182579
689.272	0.0185630
689.350	0.0187209
689.428	0.0191342
689.506	0.0193206
689.584	0.0195956
689.663	0.0197414
689.741	0.0196288
689.819	0.0197121
689.897	0.0195628
689.975	0.0193433
690.053	0.0191123
690.131	0.0186694
690.209	0.0184341
690.288	0.0181387
690.366	0.0178252
690.444	0.0172846
690.522	0.0168918
690.600	0.0163808
690.678	0.0158932
690.756	0.0155260
690.834	0.0150294
690.913	0.0146799
690.991	0.0144599
691.069	0.0142262
691.147	0.0141659
691.225	0.0141118
691.303	0.0138460
691.381	0.0139370
691.459	0.0140609
691.538	0.0142883
691.616	0.0143502
691.694	0.0148186
691.772	0.0150948
691.850	0.0153866
691.928	0.0158755
692.006	0.0163003
692.084	0.0166867
692.163	0.0172082
692.241	0.0176976
692.319	0.0181256
692.397	0.0185499
692.475	0.0189664
692.553	0.0192243
692.631	0.0193252
692.709	0.0194888
692.788	0.0195362
692.866	0.0192283
692.944	0.0191474
693.022	0.0189590
693.100	0.0186151
693.178	0.0182545
693.256	0.0180332
693.334	0.0176270
693.413	0.0175260
693.491	0.0173923
693.569	0.0171279
693.647	0.0171053
693.725	0.0171423
693.803	0.0170174
693.881	0.0170603
693.959	0.0169763
694.038	0.0169279
694.116	0.0168224
694.194	0.0168162
694.272	0.0165383
694.350	0.0162909
694.428	0.0158897
694.506	0.0155551
694.584	0.0153036
694.663	0.0149722
694.741	0.0148402
694.819	0.0148488
694.897	0.0148904
694.975	0.0147222
695.053	0.0148798
695.131	0.0153348
695.209	0.0153915
695.288	0.0157359
695.366	0.0160777
695.444	0.0164079
695.522	0.0168571
695.600	0.0171828
695.678	0.0171673
695.756	0.0174280
695.834	0.0174614
695.913	0.0177835
695.991	0.0177835
696.069	0.0179642
696.147	0.0181134
696.225	0.0180838
696.303	0.0184039
696.381	0.0185776
696.459	0.0188429
696.538	0.0191641
696.616	0.0192686
696.694	0.0193513
696.772	0.0194141
696.850	0.0193908
696.928	0.0193028
697.006	0.0191503
697.084	0.0188061
697.163	0.0184285
697.241	0.0180140
697.319	0.0175056
697.397	0.0169668
697.475	0.0162746
697.553	0.0161242
697.631	0.0156504
697.709	0.0149900
697.788	0.0148549
697.866	0.0146301
697.944	0.0143836
698.022	0.0141311
698.100	0.0140951
698.178	0.0141015
698.256	0.0139888
698.334	0.0138161
698.413	0.0137507
698.491	0.0137418
698.569	0.0139649
698.647	0.0140234
698.725	0.0141920
698.803	0.0144240
698.881	0.0148829
698.959	0.0152573
699.038	0.0156134
699.116	0.0162112
699.194	0.0169424
699.272	0.0176262
699.350	0.0182308
699.428	0.0190347
699.506	0.0198122
699.584	0.0202043
699.663	0.0205595
699.741	0.0209554
699.819	0.0210742
699.897	0.0211211
699.975	0.0209808
700.053	0.0208566
700.131	0.0205460
700.209	0.0204449
700.288	0.0198806
700.366	0.0196099
700.444	0.0195061
700.522	0.0190704
700.600	0.0187225
700.678	0.0185675
700.756	0.0180688
700.834	0.0175698
700.913	0.0172398
700.991	0.0167928
701.069	0.0162472
701.147	0.0159615
701.225	0.0154819
701.303	0.0150008
701.381	0.0146926
701.459	0.0144153
701.538	0.0142311
701.616	0.0141931
701.694	0.0139384
701.772	0.0140515
701.850	0.0140510
701.928	0.0140788
702.006	0.0142982
702.084	0.0141685
702.163	0.0141171
702.241	0.0143513
702.319	0.0145129
702.397	0.0146382
702.475	0.0148164
702.553	0.0148673
702.631	0.0152464
702.709	0.0158409
702.788	0.0161441
702.866	0.0167525
702.944	0.0170843
703.022	0.0175610
703.100	0.0179742
703.178	0.0182011
703.256	0.0184248
703.334	0.0185730
703.413	0.0182707
703.491	0.0181129
703.569	0.0179494
703.647	0.0175922
703.725	0.0174604
703.803	0.0171711
703.881	0.0169598
703.959	0.0168799
704.038	0.0167157
704.116	0.0170133
704.194	0.0172728
704.272	0.0175503
704.350	0.0177491
704.428	0.0182450
704.506	0.0185880
704.584	0.0187236
704.663	0.0189050
704.741	0.0189752
704.819	0.0189610
704.897	0.0188503
704.975	0.0186018
705.053	0.0185149
705.131	0.0182711
705.209	0.0180787
705.288	0.0178524
705.366	0.0177891
705.444	0.0178602
705.522	0.0177619
705.600	0.0178266
705.678	0.0177126
705.756	0.0177643
705.834	0.0175330
705.913	0.0174878
705.991	0.0172265
706.069	0.0167928
706.147	0.0163589
706.225	0.0161520
706.303	0.0157232
706.381	0.0154761
706.459	0.0150859
706.538	0.0148822
706.616	0.0147711
706.694	0.0146331
706.772	0.0145875
706.850	0.0149089
706.928	0.0150390
707.006	0.0150786
707.084	0.0153592
707.163	0.0157101
707.241	0.0157476
707.319	0.0158804
707.397	0.0161639
707.475	0.0160320
707.553	0.0161975
707.631	0.0160877
707.709	0.0160698
707.788	0.0161266
707.866	0.0161844
707.944	0.0160736
708.022	0.0163617
708.100	0.0164650
708.178	0.0167210
708.256	0.0170105
708.334	0.0171823
708.413	0.0175121
708.491	0.0178517
708.569	0.0180578
708.647	0.0181602
708.725	0.0185740
708.803	0.0185799
708.881	0.0185586
708.959	0.0184534
709.038	0.0185359
709.116	0.0184502
709.194	0.0180627
709.272	0.0179072
709.350	0.0173133
709.428	0.0169990
709.506	0.0166627
709.584	0.0163399
709.663	0.0160028
709.741	0.0157763
709.819	0.0153480
709.897	0.0153402
709.975	0.0155046
710.053	0.0154997
710.131	0.0156586
710.209	0.0158634
710.288	0.0162202
710.366	0.0165341
710.444	0.0169225
710.522	0.0174647
710.600	0.0177735
710.678	0.0181705
710.756	0.0186644
710.834	0.0189899
710.913	0.0191949
710.991	0.0193952
711.069	0.0195347
711.147	0.0195724
711.225	0.0193904
711.303	0.0191120
711.381	0.0188533
711.459	0.0184880
711.538	0.0181833
711.616	0.0177736
711.694	0.0173482
711.772	0.0168708
711.850	0.0164134
711.928	0.0160852
712.006	0.0157377
712.084	0.0154677
712.163	0.0152328
712.241	0.0150113
712.319	0.0148959
712.397	0.0149038
712.475	0.0147971
712.553	0.0147987
712.631	0.0150258
712.709	0.0150533
712.788	0.0151295
712.866	0.0153255
712.944	0.0154371
713.022	0.0155396
713.100	0.0157410
713.178	0.0158152
713.256	0.0159057
713.334	0.0157256
713.413	0.0157230
713.491	0.0157330
713.569	0.0156987
713.647	0.0158461
713.725	0.0158262
713.803	0.0158118
713.881	0.0159722
713.959	0.0162244
714.038	0.0161825
714.116	0.0162618
714.194	0.0164670
714.272	0.0167316
714.350	0.0168159
714.428	0.0170519
714.506	0.0174382
714.584	0.0175417
714.663	0.0177007
714.741	0.0180181
714.819	0.0181268
714.897	0.0184412
714.975	0.0185577
715.053	0.0186798
715.131	0.0186135
715.209	0.0185411
715.288	0.0184825
715.366	0.0184393
715.444	0.0182175
715.522	0.0181167
715.600	0.0178602
715.678	0.0177552
715.756	0.0177574
715.834	0.0177769
715.913	0.0178658
715.991	0.0180734
716.069	0.0181457
716.147	0.0182753
716.225	0.0183777
716.303	0.0184842
716.381	0.0184955
716.459	0.0184071
716.538	0.0181749
716.616	0.0178436
716.694	0.0175531
716.772	0.0173326
716.850	0.0168076
716.928	0.0163759
717.006	0.0162023
717.084	0.0162587
717.163	0.0160820
717.241	0.0160653
717.319	0.0162078
717.397	0.0162939
717.475	0.0163081
717.553	0.0163864
717.631	0.0165810
717.709	0.0166090
717.788	0.0164407
717.866	0.0163296
717.944	0.0159405
718.022	0.0158430
718.100	0.0157802
718.178	0.0155349
718.256	0.0151817
718.334	0.0150826
718.413	0.0149460
718.491	0.0148893
718.569	0.0151540
718.647	0.0149887
718.725	0.0152290
718.803	0.0153590
718.881	0.0155161
718.959	0.0158179
719.038	0.0159840
719.116	0.0161191
719.194	0.0162723
719.272	0.0163908
719.350	0.0164967
719.428	0.0167266
719.506	0.0168261
719.584	0.0170438
719.663	0.0173432
719.741	0.0175635
719.819	0.0176866
719.897	0.0177814
719.975	0.0178568
720.053	0.0178578
720.131	0.0177096
720.209	0.0175100
720.288	0.0174395
720.366	0.0172572
720.444	0.0171279
720.522	0.0171214
720.600	0.0171505
720.678	0.0171494
720.756	0.0171512
720.834	0.0173080
720.913	0.0175735
720.991	0.0178364
721.069	0.0182436
721.147	0.0184212
721.225	0.0184802
721.303	0.0187054
721.381	0.0188284
721.459	0.0189638
721.538	0.0189507
721.616	0.0189668
721.694	0.0189330
721.772	0.0188632
721.850	0.0186871
721.928	0.0185307
722.006	0.0184622
722.084	0.0183649
722.163	0.0184575
722.241	0.0181809
722.319	0.0182603
722.397	0.0180888
722.475	0.0179683
722.553	0.0177833
722.631	0.0174642
722.709	0.0172829
722.788	0.0170614
722.866	0.0167992
722.944	0.0164658
723.022	0.0162385
723.100	0.0159101
723.178	0.0157119
723.256	0.0154436
723.334	0.0151721
723.413	0.0151214
723.491	0.0147926
723.569	0.0145983
723.647	0.0145635
723.725	0.0144974
723.803	0.0143792
723.881	0.0143776
723.959	0.0142274
724.038	0.0144129
724.116	0.0144415
724.194	0.0144537
724.272	0.0146481
724.350	0.0147189
724.428	0.0150493
724.506	0.0152339
724.584	0.0155528
724.663	0.0156765
724.741	0.0160043
724.819	0.0162827
724.897	0.0164072
724.975	0.0165712
725.053	0.0167532
725.131	0.0167687
725.209	0.0170390
725.288	0.0170146
725.366	0.0171821
725.444	0.0172911
725.522	0.0175904
725.600	0.0176160
725.678	0.0178880
725.756	0.0179618
725.834	0.0180237
725.913	0.0179992
725.991	0.0180311
726.069	0.0180801
726.147	0.0179268
726.225	0.0177397
726.303	0.0179013
726.381	0.0181316
726.459	0.0179794
726.538	0.0181951
726.616	0.0183350
726.694	0.0185220
726.772	0.0186317
726.850	0.0187361
726.928	0.0188353
727.006	0.0189919
727.084	0.0189700
727.163	0.0189188
727.241	0.0188092
727.319	0.0186341
727.397	0.0185111
727.475	0.0182492
727.553	0.0182540
727.631	0.0184321
727.709	0.0180995
727.788	0.0177573
727.866	0.0175878
727.944	0.0175252
728.022	0.0175410
728.100	0.0174493
728.178	0.0173013
728.256	0.0170964
728.334	0.0169918
728.413	0.0167918
728.491	0.0166756
728.569	0.0164289
728.647	0.0163444
728.725	0.0160583
728.803	0.0159676
728.881	0.0160616
728.959	0.0159212
729.038	0.0159148
729.116	0.0159023
729.194	0.0157060
729.272	0.0157596
729.350	0.0157246
729.428	0.0157327
729.506	0.0156043
729.584	0.0154189
729.663	0.0152386
729.741	0.0150606
729.819	0.0150804
729.897	0.0148782
729.975	0.0146754
730.053	0.0145226
730.131	0.0144520
730.209	0.0144141
730.288	0.0144624
730.366	0.0144298
730.444	0.0145460
730.522	0.0147264
730.600	0.0149379
730.678	0.0151039
730.756	0.0151242
730.834	0.0153801
730.913	0.0156015
730.991	0.0157806
731.069	0.0160518
731.147	0.0163147
731.225	0.0165972
731.303	0.0167574
731.381	0.0170951
731.459	0.0173874
731.538	0.0174580
731.616	0.0177584
731.694	0.0178255
731.772	0.0177956
731.850	0.0180225
731.928	0.0181219
732.006	0.0179652
732.084	0.0181390
732.163	0.0183260
732.241	0.0182930
732.319	0.0182057
732.397	0.0182522
732.475	0.0184379
732.553	0.0187334
732.631	0.0187234
732.709	0.0189439
732.788	0.0190495
732.866	0.0190434
732.944	0.0192157
733.022	0.0191385
733.100	0.0189748
733.178	0.0189857
733.256	0.0188854
733.334	0.0188103
733.413	0.0186139
733.491	0.0183228
733.569	0.0179137
733.647	0.0176690
733.725	0.0175362
733.803	0.0172507
733.881	0.0171322
733.959	0.0169405
734.038	0.0170517
734.116	0.0168577
734.194	0.0171297
734.272	0.0171502
734.350	0.0172858
734.428	0.0174747
734.506	0.0176929
734.584	0.0177345
734.663	0.0177019
734.741	0.0177071
734.819	0.0175848
734.897	0.0172523
734.975	0.0169795
735.053	0.0167792
735.131	0.0164413
735.209	0.0160825
735.288	0.0154659
735.366	0.0152113
735.444	0.0148109
735.522	0.0145473
735.600	0.0144376
735.678	0.0142281
735.756	0.0142182
735.834	0.0138609
735.913	0.0139560
735.991	0.0139588
736.069	0.0141487
736.147	0.0141495
736.225	0.0142589
736.303	0.0144685
736.381	0.0147336
736.459	0.0148753
736.538	0.0152531
736.616	0.0155790
736.694	0.0158725
736.772	0.0162763
736.850	0.0164888
736.928	0.0167809
737.006	0.0169739
737.084	0.0172318
737.163	0.0174020
737.241	0.0174422
737.319	0.0174680
737.397	0.0174851
737.475	0.0175693
737.553	0.0174805
737.631	0.0173308
737.709	0.0173254
737.788	0.0170870
737.866	0.0169911
737.944	0.0171757
738.022	0.0173194
738.100	0.0173361
738.178	0.0172156
738.256	0.0172458
738.334	0.0175154
738.413	0.0175136
738.491	0.0176297
738.569	0.0176437
738.647	0.0179017
738.725	0.0180579
738.803	0.0179453
738.881	0.0180654
738.959	0.0181155
739.038	0.0181142
739.116	0.0182378
739.194	0.0182439
739.272	0.0180695
739.350	0.0182343
739.428	0.0181484
739.506	0.0179337
739.584	0.0180327
739.663	0.0178569
739.741	0.0177898
739.819	0.0176900
739.897	0.0175603
739.975	0.0173680
740.053	0.0172035
740.131	0.0170575
740.209	0.0171184
740.288	0.0167623
740.366	0.0168045
740.444	0.0165369
740.522	0.0165479
740.600	0.0163974
740.678	0.0163448
740.756	0.0164296
740.834	0.0164754
740.913	0.0163364
740.991	0.0164304
741.069	0.0167086
741.147	0.0166248
741.225	0.0167503
741.303	0.0168755
741.381	0.0169530
741.459	0.0169540
741.538	0.0170844
741.616	0.0170674
741.694	0.0170471
741.772	0.0169688
741.850	0.0168414
741.928	0.0166521
742.006	0.0166827
742.084	0.0166342
742.163	0.0166461
742.241	0.0167393
742.319	0.0165909
742.397	0.0165462
742.475	0.0167314
742.553	0.0167258
742.631	0.0166675
742.709	0.0167477
742.788	0.0167110
742.866	0.0166569
742.944	0.0164826
743.022	0.0163713
743.100	0.0163287
743.178	0.0163058
743.256	0.0160409
743.334	0.0159810
743.413	0.0160712
743.491	0.0159648
743.569	0.0160285
743.647	0.0159567
743.725	0.0161000
743.803	0.0162286
743.881	0.0163139
743.959	0.0163055
744.038	0.0164668
744.116	0.0164708
744.194	0.0166566
744.272	0.0166509
744.350	0.0167314
744.428	0.0167534
744.506	0.0168156
744.584	0.0167673
744.663	0.0167564
744.741	0.0167319
744.819	0.0169034
744.897	0.0169118
744.975	0.0171005
745.053	0.0172529
745.131	0.0172037
745.209	0.0172731
745.288	0.0173442
745.366	0.0172160
745.444	0.0172745
745.522	0.0174477
745.600	0.0173176
745.678	0.0171577
745.756	0.0173707
745.834	0.0173582
745.913	0.0173155
745.991	0.0173559
746.069	0.0174399
746.147	0.0175977
746.225	0.0175023
746.303	0.0175223
746.381	0.0176179
746.459	0.0175195
746.538	0.0176160
746.616	0.0176015
746.694	0.0175957
746.772	0.0175198
746.850	0.0173315
746.928	0.0175043
747.006	0.0175084
747.084	0.0174569
747.163	0.0175697
747.241	0.0176187
747.319	0.0177083
747.397	0.0175696
747.475	0.0177069
747.553	0.0176411
747.631	0.0177081
747.709	0.0177295
747.788	0.0176935
747.866	0.0174072
747.944	0.0174453
748.022	0.0173372
748.100	0.0171948
748.178	0.0169720
748.256	0.0170592
748.334	0.0168648
748.413	0.0167213
748.491	0.0166308
748.569	0.0166515
748.647	0.0165081
748.725	0.0165255
748.803	0.0165704
748.881	0.0165424
748.959	0.0164035
749.038	0.0164559
749.116	0.0164108
749.194	0.0163791
749.272	0.0165635
749.350	0.0163644
749.428	0.0165315
749.506	0.0164542
749.584	0.0165640
749.663	0.0165289
749.741	0.0164971
749.819	0.0166791
749.897	0.0168186
749.975	0.0169835
750.053	0.0171302
750.131	0.0171441
750.209	0.0171821
750.288	0.0171200
750.366	0.0170504
750.444	0.0171891
750.522	0.0170673
750.600	0.0168498
750.678	0.0167063
750.756	0.0165385
750.834	0.0164645
750.913	0.0161634
750.991	0.0162313
751.069	0.0160155
751.147	0.0158974
751.225	0.0158224
751.303	0.0157555
751.381	0.0158122
751.459	0.0157190
751.538	0.0158833
751.616	0.0159448
751.694	0.0161737
751.772	0.0161459
751.850	0.0161852
751.928	0.0163679
752.006	0.0165573
752.084	0.0165764
752.163	0.0166375
752.241	0.0168797
752.319	0.0170764
752.397	0.0172645
752.475	0.0173956
752.553	0.0173715
752.631	0.0177120
752.709	0.0177402
752.788	0.0177135
752.866	0.0177958
752.944	0.0177572
753.022	0.0177915
753.100	0.0178391
753.178	0.0177042
753.256	0.0177390
753.334	0.0177112
753.413	0.0176559
753.491	0.0176114
753.569	0.0176084
753.647	0.0176016
753.725	0.0174002
753.803	0.0173006
753.881	0.0171487
753.959	0.0172133
754.038	0.0169408
754.116	0.0169479
754.194	0.0167787
754.272	0.0167267
754.350	0.0166636
754.428	0.0164970
754.506	0.0163972
754.584	0.0165288
754.663	0.0164312
754.741	0.0164892
754.819	0.0165070
754.897	0.0164103
754.975	0.0164655
755.053	0.0164056
755.131	0.0163001
755.209	0.0163703
755.288	0.0163294
755.366	0.0162452
755.444	0.0162066
755.522	0.0163533
755.600	0.0163648
755.678	0.0163979
755.756	0.0164971
755.834	0.0165102
755.913	0.0166293
755.991	0.0167455
756.069	0.0169005
756.147	0.0168884
756.225	0.0171864
756.303	0.0172904
756.381	0.0175735
756.459	0.0176255
756.538	0.0178300
756.616	0.0179690
756.694	0.0180907
756.772	0.0181601
756.850	0.0181506
756.928	0.0181026
757.006	0.0180843
757.084	0.0180877
757.163	0.0180009
757.241	0.0175573
757.319	0.0175751
757.397	0.0172364
757.475	0.0170472
757.553	0.0168925
757.631	0.0165983
757.709	0.0163594
757.788	0.0161874
757.866	0.0161599
757.944	0.0160388
758.022	0.0158495
758.100	0.0157700
758.178	0.0158865
758.256	0.0159879
758.334	0.0159541
758.413	0.0162218
758.491	0.0160928
758.569	0.0164388
758.647	0.0164435
758.725	0.0166147
758.803	0.0165402
758.881	0.0166720
758.959	0.0168082
759.038	0.0166460
759.116	0.0166730
759.194	0.0165364
759.272	0.0167033
759.350	0.0166795
759.428	0.0167299
759.506	0.0164646
759.584	0.0166252
759.663	0.0164816
759.741	0.0164172
759.819	0.0165262
759.897	0.0165463
759.975	0.0165168
760.053	0.0165894
760.131	0.0166588
760.209	0.0166809
760.288	0.0166899
760.366	0.0165703
760.444	0.0167142
760.522	0.0167798
760.600	0.0168166
760.678	0.0167830
760.756	0.0166810
760.834	0.0166700
760.913	0.0166933
760.991	0.0166434
761.069	0.0167036
761.147	0.0166463
761.225	0.0167033
761.303	0.0165944
761.381	0.0168188
761.459	0.0168159
761.538	0.0168989
761.616	0.0169153
761.694	0.0170687
761.772	0.0172999
761.850	0.0171654
761.928	0.0173412
762.006	0.0175919
762.084	0.0175024
762.163	0.0175768
762.241	0.0177287
762.319	0.0177119
762.397	0.0177497
762.475	0.0176306
762.553	0.0175996
762.631	0.0177937
762.709	0.0176673
762.788	0.0174433
762.866	0.0174961
762.944	0.0175057
763.022	0.0174979
763.100	0.0173997
763.178	0.0174908
763.256	0.0175471
763.334	0.0173564
763.413	0.0174105
763.491	0.0173002
763.569	0.0174339
763.647	0.0172122
763.725	0.0171293
763.803	0.0170651
763.881	0.0169986
763.959	0.0169319
764.038	0.0167120
764.116	0.0166291
764.194	0.0167317
764.272	0.0169324
764.350	0.0168019
764.428	0.0169971
764.506	0.0171968
764.584	0.0174219
764.663	0.0175970
764.741	0.0176598
764.819	0.0179515
764.897	0.0179803
764.975	0.0177928
765.053	0.0178890
765.131	0.0179134
765.209	0.0178904
765.288	0.0175970
765.366	0.0173401
765.444	0.0173086
765.522	0.0169272
765.600	0.0164670
765.678	0.0162524
765.756	0.0159348
765.834	0.0157155
765.913	0.0153212
765.991	0.0150385
766.069	0.0150717
766.147	0.0151558
766.225	0.0149114
766.303	0.0150340
766.381	0.0153557
766.459	0.0153518
766.538	0.0153390
766.616	0.0157798
766.694	0.0158237
766.772	0.0160004
766.850	0.0162733
766.928	0.0165430
767.006	0.0168143
767.084	0.0168531
767.163	0.0169590
767.241	0.0173119
767.319	0.0174304
767.397	0.0175481
767.475	0.0176821
767.553	0.0177110
767.631	0.0176376
767.709	0.0177434
767.788	0.0178141
767.866	0.0175961
767.944	0.0175179
768.022	0.0171935
768.100	0.0171754
768.178	0.0169947
768.256	0.0169180
768.334	0.0168936
768.413	0.0168793
768.491	0.0168044
768.569	0.0169085
768.647	0.0169215
768.725	0.0169883
768.803	0.0172459
768.881	0.0173268
768.959	0.0173782
769.038	0.0175375
769.116	0.0174944
769.194	0.0176850
769.272	0.0176181
769.350	0.0176443
769.428	0.0176221
769.506	0.0175048
769.584	0.0174368
769.663	0.0173174
769.741	0.0169852
769.819	0.0168389
769.897	0.0167059
769.975	0.0166816
770.053	0.0164832
770.131	0.0164188
770.209	0.0163009
770.288	0.0165101
770.366	0.0163594
770.444	0.0165270
770.522	0.0166082
770.600	0.0167805
770.678	0.0169814
770.756	0.0170535
770.834	0.0173612
770.913	0.0174036
770.991	0.0174612
771.069	0.0176587
771.147	0.0176182
771.225	0.0177450
771.303	0.0176926
771.381	0.0176162
771.459	0.0176595
771.538	0.0176925
771.616	0.0174801
771.694	0.0173119
771.772	0.0172406
771.850	0.0170110
771.928	0.0169235
772.006	0.0170139
772.084	0.0168611
772.163	0.0167133
772.241	0.0167278
772.319	0.0166184
772.397	0.0165684
772.475	0.0164559
772.553	0.0163462
772.631	0.0163982
772.709	0.0164537
772.788	0.0165636
772.866	0.0164423
772.944	0.0165425
773.022	0.0165759
773.100	0.0165198
773.178	0.0166341
773.256	0.0167665
773.334	0.0169250
773.413	0.0169358
773.491	0.0169829
773.569	0.0169209
773.647	0.0170219
773.725	0.0170039
773.803	0.0171799
773.881	0.0170113
773.959	0.0170650
774.038	0.0170475
774.116	0.0167838
774.194	0.0167991
774.272	0.0166781
774.350	0.0166551
774.428	0.0165003
774.506	0.0162907
774.584	0.0162894
774.663	0.0162038
774.741	0.0161394
774.819	0.0161112
774.897	0.0161209
774.975	0.0161142
775.053	0.0161202
775.131	0.0160824
775.209	0.0162853
775.288	0.0162727
775.366	0.0163499
775.444	0.0163852
775.522	0.0164885
775.600	0.0167519
775.678	0.0167069
775.756	0.0168314
775.834	0.0169876
775.913	0.0171770
775.991	0.0171481
776.069	0.0173430
776.147	0.0174786
776.225	0.0174469
776.303	0.0174858
776.381	0.0175109
776.459	0.0175837
776.538	0.0175023
776.616	0.0173892
776.694	0.0173748
776.772	0.0173273
776.850	0.0171802
776.928	0.0172527
777.006	0.0169002
777.084	0.0169678
777.163	0.0170357
777.241	0.0169778
777.319	0.0169129
777.397	0.0167429
777.475	0.0168157
777.553	0.0167931
777.631	0.0167431
777.709	0.0167102
777.788	0.0167990
777.866	0.0165827
777.944	0.0165333
778.022	0.0164201
778.100	0.0163655
778.178	0.0165241
778.256	0.0163794
778.334	0.0162916
778.413	0.0163525
778.491	0.0164001
778.569	0.0163630
778.647	0.0164130
778.725	0.0164139
778.803	0.0166639
778.881	0.0168295
778.959	0.0171215
779.038	0.0171453
779.116	0.0173824
779.194	0.0176718
779.272	0.0178788
779.350	0.0180216
779.428	0.0181450
779.506	0.0182170
779.584	0.0182246
779.663	0.0183141
779.741	0.0182011
779.819	0.0182321
779.897	0.0178900
779.975	0.0178727
780.053	0.0177697
780.131	0.0173346
780.209	0.0171575
780.288	0.0170965
780.366	0.0167926
780.444	0.0166238
780.522	0.0164345
780.600	0.0163868
780.678	0.0162861
780.756	0.0162128
780.834	0.0160873
780.913	0.0163878
780.991	0.0164590
781.069	0.0162129
781.147	0.0160928
781.225	0.0162543
781.303	0.0161892
781.381	0.0161594
781.459	0.0162571
781.538	0.0161465
781.616	0.0162050
781.694	0.0163257
781.772	0.0163975
781.850	0.0165076
781.928	0.0165740
782.006	0.0166643
782.084	0.0170509
782.163	0.0170211
782.241	0.0172639
782.319	0.0175890
782.397	0.0177728
782.475	0.0176372
782.553	0.0179229
782.631	0.0177798
782.709	0.0179751
782.788	0.0178905
782.866	0.0177782
782.944	0.0175864
783.022	0.0173204
783.100	0.0171270
783.178	0.0167850
783.256	0.0166273
783.334	0.0162621
783.413	0.0161588
783.491	0.0159969
783.569	0.0159118
783.647	0.0157581
783.725	0.0157166
783.803	0.0158558
783.881	0.0158060
783.959	0.0158804
784.038	0.0159092
784.116	0.0160368
784.194	0.0162582
784.272	0.0163443
784.350	0.0166400
784.428	0.0169228
784.506	0.0169512
784.584	0.0171358
784.663	0.0176071
784.741	0.0177788
784.819	0.0179388
784.897	0.0180806
784.975	0.0180251
785.053	0.0181689
785.131	0.0181574
785.209	0.0181323
785.288	0.0179957
785.366	0.0178170
785.444	0.0174572
785.522	0.0173463
785.600	0.0170603
785.678	0.0169404
785.756	0.0166874
785.834	0.0165907
785.913	0.0163880
785.991	0.0163154
786.069	0.0162691
786.147	0.0163243
786.225	0.0163717
786.303	0.0164137
786.381	0.0165798
786.459	0.0168405
786.538	0.0170027
786.616	0.0170325
786.694	0.0168742
786.772	0.0170280
786.850	0.0169371
786.928	0.0171022
787.006	0.0170350
787.084	0.0169678
787.163	0.0171606
787.241	0.0169676
787.319	0.0169966
787.397	0.0168439
787.475	0.0169161
787.553	0.0169361
787.631	0.0168740
787.709	0.0168792
787.788	0.0169734
787.866	0.0170584
787.944	0.0170175
788.022	0.0171930
788.100	0.0172002
788.178	0.0173343
788.256	0.0175449
788.334	0.0175941
788.413	0.0176890
788.491	0.0176980
788.569	0.0177921
788.647	0.0176752
788.725	0.0175459
788.803	0.0173643
788.881	0.0172732
788.959	0.0169334
789.038	0.0169290
789.116	0.0168326
789.194	0.0166825
789.272	0.0165720
789.350	0.0164493
789.428	0.0163373
789.506	0.0163963
789.584	0.0163235
789.663	0.0163691
789.741	0.0165012
789.819	0.0164425
789.897	0.0165615
789.975	0.0164462
790.053	0.0164212
790.131	0.0164625
790.209	0.0163235
790.288	0.0164687
790.366	0.0165772
790.444	0.0164499
790.522	0.0165332
790.600	0.0166631
790.678	0.0167506
790.756	0.0169427
790.834	0.0170400
790.913	0.0169904
790.991	0.0171986
791.069	0.0173640
791.147	0.0175102
791.225	0.0175044
791.303	0.0175161
791.381	0.0175736
791.459	0.0173886
791.538	0.0171832
791.616	0.0171134
791.694	0.0169814
791.772	0.0166557
791.850	0.0163313
791.928	0.0159915
792.006	0.0157982
792.084	0.0156393
792.163	0.0153472
792.241	0.0151491
792.319	0.0152919
792.397	0.0154405
792.475	0.0153369
792.553	0.0155952
792.631	0.0158458
792.709	0.0161201
792.788	0.0163441
792.866	0.0166854
792.944	0.0171310
793.022	0.0172134
793.100	0.0176819
793.178	0.0180576
793.256	0.0179595
793.334	0.0181322
793.413	0.0183227
793.491	0.0183075
793.569	0.0183381
793.647	0.0184836
793.725	0.0183059
793.803	0.0182799
793.881	0.0181121
793.959	0.0178279
794.038	0.0177129
794.116	0.0173248
794.194	0.0171934
794.272	0.0168956
794.350	0.0166119
794.428	0.0163364
794.506	0.0161915
794.584	0.0160280
794.663	0.0157527
794.741	0.0160571
794.819	0.0160464
794.897	0.0160772
794.975	0.0162386
795.053	0.0163550
795.131	0.0165778
795.209	0.0168685
795.288	0.0170261
795.366	0.0173098
795.444	0.0174069
795.522	0.0174680
795.600	0.0175058
795.678	0.0174895
795.756	0.0175717
795.834	0.0175423
795.913	0.0173302
795.991	0.0172085
796.069	0.0172526
796.147	0.0172230
796.225	0.0171604
796.303	0.0170627
796.381	0.0169893
796.459	0.0170937
796.538	0.0170341
796.616	0.0171408
796.694	0.0171282
796.772	0.0172478
796.850	0.0172710
796.928	0.0173967
797.006	0.0173200
797.084	0.0173456
797.163	0.0174834
797.241	0.0174196
797.319	0.0174546
797.397	0.0174661
797.475	0.0171355
797.553	0.0170701
797.631	0.0170225
797.709	0.0167890
797.788	0.0163675
797.866	0.0164352
797.944	0.0163818
798.022	0.0161445
798.100	0.0160803
798.178	0.0159424
798.256	0.0158661
798.334	0.0160112
798.413	0.0160753
798.491	0.0161115
798.569	0.0161985
798.647	0.0162136
798.725	0.0162791
798.803	0.0162961
798.881	0.0160987
798.959	0.0163027
799.038	0.0163103
799.116	0.0164522
799.194	0.0162473
799.272	0.0162928
799.350	0.0164030
799.428	0.0164432
799.506	0.0164382
799.584	0.0167405
799.663	0.0170297
799.741	0.0170005
799.819	0.0172567
799.897	0.0174712
799.975	0.0176030
800.053	0.0175623
800.131	0.0178754
800.209	0.0179613
800.288	0.0178103
800.366	0.0177734
800.444	0.0176399
800.522	0.0174944
800.600	0.0173781
800.678	0.0170557
800.756	0.0168541
800.834	0.0166833
800.913	0.0163799
800.991	0.0161560
801.069	0.0161841
801.147	0.0160342
801.225	0.0161330
801.303	0.0161692
801.381	0.0164137
801.459	0.0164749
801.538	0.0166266
801.616	0.0170015
801.694	0.0170746
801.772	0.0172932
801.850	0.0174349
801.928	0.0176283
802.006	0.0177241
802.084	0.0177670
802.163	0.0177782
802.241	0.0179507
802.319	0.0179911
802.397	0.0178363
802.475	0.0176887
802.553	0.0176933
802.631	0.0175780
802.709	0.0174700
802.788	0.0174945
802.866	0.0173706
802.944	0.0171973
803.022	0.0171716
803.100	0.0170345
803.178	0.0167367
803.256	0.0165614
803.334	0.0167207
803.413	0.0165598
803.491	0.0166063
803.569	0.0164490
803.647	0.0165322
803.725	0.0166714
803.803	0.0166398
803.881	0.0167646
803.959	0.0168304
804.038	0.0169022
804.116	0.0169193
804.194	0.0170164
804.272	0.0170641
804.350	0.0168999
804.428	0.0169066
804.506	0.0168246
804.584	0.0168153
804.663	0.0166382
804.741	0.0166927
804.819	0.0166331
804.897	0.0165553
804.975	0.0164558
805.053	0.0166017
805.131	0.0166467
805.209	0.0166486
805.288	0.0167793
805.366	0.0169255
805.444	0.0171033
805.522	0.0171806
805.600	0.0175309
805.678	0.0175121
805.756	0.0175811
805.834	0.0175793
805.913	0.0177702
805.991	0.0178787
806.069	0.0177669
806.147	0.0178275
806.225	0.0177509
806.303	0.0176432
806.381	0.0175146
806.459	0.0172304
806.538	0.0171138
806.616	0.0169493
806.694	0.0168407
806.772	0.0166480
806.850	0.0166112
806.928	0.0165083
807.006	0.0165438
807.084	0.0161899
807.163	0.0161896
807.241	0.0162788
807.319	0.0162479
807.397	0.0162971
807.475	0.0164616
807.553	0.0164155
807.631	0.0165053
807.709	0.0165045
807.788	0.0164487
807.866	0.0164888
807.944	0.0164753
808.022	0.0164919
808.100	0.0165542
808.178	0.0167522
808.256	0.0166992
808.334	0.0165907
808.413	0.0169799
808.491	0.0170837
808.569	0.0172148
808.647	0.0174533
808.725	0.0176087
808.803	0.0176059
808.881	0.0178177
808.959	0.0177283
809.038	0.0178130
809.116	0.0177438
809.194	0.0175700
809.272	0.0174003
809.350	0.0171526
809.428	0.0169234
809.506	0.0167576
809.584	0.0165481
809.663	0.0162233
809.741	0.0160184
809.819	0.0161230
809.897	0.0159722
809.975	0.0158992
810.053	0.0160035
810.131	0.0159019
810.209	0.0159717
810.288	0.0161845
810.366	0.0163973
810.444	0.0165802
810.522	0.0167638
810.600	0.0169234
810.678	0.0169482
810.756	0.0172678
810.834	0.0174295
810.913	0.0173612
810.991	0.0174650
811.069	0.0173767
811.147	0.0174730
811.225	0.0175013
811.303	0.0175114
811.381	0.0176219
811.459	0.0175829
811.538	0.0176046
811.616	0.0176107
811.694	0.0177647
811.772	0.0176435
811.850	0.0175728
811.928	0.0175523
812.006	0.0174028
812.084	0.0173022
812.163	0.0173750
812.241	0.0171989
812.319	0.0172280
812.397	0.0169249
812.475	0.0169330
812.553	0.0169276
812.631	0.0169685
812.709	0.0168285
812.788	0.0169703
812.866	0.0171175
812.944	0.0170573
813.022	0.0170110
813.100	0.0170312
813.178	0.0170859
813.256	0.0171125
813.334	0.0169492
813.413	0.0169598
813.491	0.0167629
813.569	0.0168023
813.647	0.0167310
813.725	0.0166399
813.803	0.0166508
813.881	0.0167519
813.959	0.0165777
814.038	0.0165980
814.116	0.0167984
814.194	0.0166859
814.272	0.0167331
814.350	0.0167822
814.428	0.0167595
814.506	0.0166997
814.584	0.0168609
814.663	0.0167377
814.741	0.0166563
814.819	0.0165401
814.897	0.0165983
814.975	0.0166537
815.053	0.0166732
815.131	0.0165199
815.209	0.0165608
815.288	0.0165141
815.366	0.0165638
815.444	0.0164099
815.522	0.0163808
815.600	0.0165274
815.678	0.0164262
815.756	0.0165004
815.834	0.0166325
815.913	0.0165546
815.991	0.0167236
816.069	0.0166209
816.147	0.0168653
816.225	0.0168764
816.303	0.0169647
816.381	0.0169008
816.459	0.0171463
816.538	0.0171362
816.616	0.0173600
816.694	0.0171603
816.772	0.0170380
816.850	0.0170853
816.928	0.0171954
817.006	0.0171387
817.084	0.0170622
817.163	0.0171293
817.241	0.0172310
817.319	0.0172851
817.397	0.0172919
817.475	0.0173895
817.553	0.0174790
817.631	0.0174852
817.709	0.0175570
817.788	0.0177547
817.866	0.0178168
817.944	0.0178989
818.022	0.0178786
818.100	0.0177288
818.178	0.0174992
818.256	0.0174840
818.334	0.0175111
818.413	0.0173755
818.491	0.0170596
818.569	0.0169457
818.647	0.0167347
818.725	0.0167081
818.803	0.0166748
818.881	0.0166402
818.959	0.0166649
819.038	0.0165272
819.116	0.0165071
819.194	0.0166824
819.272	0.0167120
819.350	0.0167062
819.428	0.0167498
819.506	0.0167348
819.584	0.0168236
819.663	0.0166885
819.741	0.0167815
819.819	0.0166260
819.897	0.0166058
819.975	0.0165812
820.053	0.0166690
820.131	0.0166367
820.209	0.0166214
820.288	0.0165780
820.366	0.0164990
820.444	0.0165722
820.522	0.0166614
820.600	0.0165214
820.678	0.0166344
820.756	0.0166292
820.834	0.0165880
820.913	0.0165645
820.991	0.0166937
821.069	0.0166727
821.147	0.0165973
821.225	0.0166444
821.303	0.0167543
821.381	0.0166899
821.459	0.0166695
821.538	0.0167164
821.616	0.0167202
821.694	0.0168667
821.772	0.0169884
821.850	0.0168180
821.928	0.0168546
822.006	0.0169810
822.084	0.0171694
822.163	0.0171825
822.241	0.0171843
822.319	0.0170068
822.397	0.0171281
822.475	0.0171433
822.553	0.0170326
822.631	0.0169546
822.709	0.0170435
822.788	0.0169127
822.866	0.0168819
822.944	0.0168690
823.022	0.0168826
823.100	0.0168084
823.178	0.0170912
823.256	0.0170621
823.334	0.0170629
823.413	0.0170203
823.491	0.0171783
823.569	0.0170547
823.647	0.0171034
823.725	0.0172787
823.803	0.0171649
823.881	0.0171464
823.959	0.0172659
824.038	0.0172140
824.116	0.0172512
824.194	0.0172392
824.272	0.0171730
824.350	0.0170408
824.428	0.0171166
824.506	0.0171181
824.584	0.0169763
824.663	0.0169093
824.741	0.0168383
824.819	0.0167982
824.897	0.0166995
824.975	0.0166739
825.053	0.0167523
825.131	0.0166969
825.209	0.0164517
825.288	0.0164574
825.366	0.0164047
825.444	0.0164601
825.522	0.0162923
825.600	0.0164642
825.678	0.0164784
825.756	0.0163451
825.834	0.0163795
825.913	0.0163741
825.991	0.0164206
826.069	0.0165719
826.147	0.0165002
826.225	0.0165887
826.303	0.0167065
826.381	0.0167813
826.459	0.0167630
826.538	0.0169171
826.616	0.0169043
826.694	0.0172272
826.772	0.0172902
826.850	0.0173258
826.928	0.0173378
827.006	0.0172653
827.084	0.0172005
827.163	0.0172011
827.241	0.0171848
827.319	0.0169749
827.397	0.0170216
827.475	0.0170067
827.553	0.0169057
827.631	0.0168848
827.709	0.0167799
827.788	0.0167738
827.866	0.0168182
827.944	0.0166315
828.022	0.0168253
828.100	0.0169190
828.178	0.0169633
828.256	0.0169592
828.334	0.0169940
828.413	0.0169305
828.491	0.0170838
828.569	0.0172077
828.647	0.0171004
828.725	0.0172306
828.803	0.0172781
828.881	0.0171948
828.959	0.0173666
829.038	0.0173373
829.116	0.0173505
829.194	0.0173936
829.272	0.0174490
829.350	0.0173631
829.428	0.0173277
829.506	0.0173776
829.584	0.0174466
829.663	0.0173268
829.741	0.0173865
829.819	0.0173213
829.897	0.0174255
829.975	0.0171288
830.053	0.0171348
830.131	0.0171043
830.209	0.0170277
830.288	0.0168383
830.366	0.0168438
830.444	0.0165956
830.522	0.0166485
830.600	0.0165020
830.678	0.0165326
830.756	0.0165157
830.834	0.0165078
830.913	0.0164592
830.991	0.0164378
831.069	0.0164991
831.147	0.0164107
831.225	0.0164983
831.303	0.0165082
831.381	0.0164999
831.459	0.0165755
831.538	0.0165388
831.616	0.0165154
831.694	0.0164189
831.772	0.0163529
831.850	0.0165068
831.928	0.0164038
832.006	0.0163712
832.084	0.0164031
832.163	0.0165482
832.241	0.0165849
832.319	0.0166868
832.397	0.0167543
832.475	0.0166238
832.553	0.0167918
832.631	0.0168478
832.709	0.0167918
832.788	0.0168915
832.866	0.0168429
832.944	0.0168105
833.022	0.0169061
833.100	0.0167939
833.178	0.0167311
833.256	0.0169247
833.334	0.0169005
833.413	0.0169440
833.491	0.0169055
833.569	0.0168743
833.647	0.0168700
833.725	0.0169223
833.803	0.0168281
833.881	0.0167178
833.959	0.0169430
834.038	0.0168036
834.116	0.0168684
834.194	0.0168799
834.272	0.0169072
834.350	0.0168365
834.428	0.0169092
834.506	0.0170071
834.584	0.0169902
834.663	0.0169911
834.741	0.0169771
834.819	0.0169459
834.897	0.0171259
834.975	0.0171112
835.053	0.0171663
835.131	0.0171618
835.209	0.0171461
835.288	0.0173366
835.366	0.0171768
835.444	0.0173451
835.522	0.0174419
835.600	0.0174187
835.678	0.0174669
835.756	0.0175658
835.834	0.0175871
835.913	0.0174458
835.991	0.0174556
836.069	0.0174859
836.147	0.0174242
836.225	0.0173897
836.303	0.0173069
836.381	0.0172047
836.459	0.0171173
836.538	0.0170444
836.616	0.0168236
836.694	0.0166957
836.772	0.0167780
836.850	0.0165818
836.928	0.0164310
837.006	0.0165115
837.084	0.0164883
837.163	0.0164067
837.241	0.0164403
837.319	0.0165278
837.397	0.0163620
837.475	0.0166129
837.553	0.0165403
837.631	0.0166826
837.709	0.0166637
837.788	0.0166963
837.866	0.0165589
837.944	0.0168467
838.022	0.0168718
838.100	0.0168723
838.178	0.0169626
838.256	0.0170467
838.334	0.0169254
838.413	0.0169571
838.491	0.0171837
838.569	0.0171613
838.647	0.0170813
838.725	0.0171859
838.803	0.0171180
838.881	0.0172044
838.959	0.0170090
839.038	0.0169662
839.116	0.0168567
839.194	0.0169757
839.272	0.0168238
839.350	0.0166434
839.428	0.0168205
839.506	0.0165754
839.584	0.0165144
839.663	0.0165199
839.741	0.0165313
839.819	0.0164577
839.897	0.0165671
839.975	0.0165448
840.053	0.0166881
840.131	0.0166941
840.209	0.0166479
840.288	0.0168056
840.366	0.0167730
840.444	0.0170438
840.522	0.0170831
840.600	0.0171214
840.678	0.0170525
840.756	0.0172055
840.834	0.0169901
840.913	0.0170440
840.991	0.0170324
841.069	0.0169651
841.147	0.0170692
841.225	0.0169966
841.303	0.0169189
841.381	0.0170574
841.459	0.0170064
841.538	0.0169156
841.616	0.0170053
841.694	0.0169997
841.772	0.0168064
841.850	0.0169183
841.928	0.0169673
842.006	0.0168454
842.084	0.0169068
842.163	0.0170961
842.241	0.0170749
842.319	0.0170414
842.397	0.0170364
842.475	0.0170383
842.553	0.0169592
842.631	0.0170107
842.709	0.0169672
842.788	0.0170195
842.866	0.0170956
842.944	0.0168755
843.022	0.0169468
843.100	0.0170186
843.178	0.0170966
843.256	0.0168812
843.334	0.0168958
843.413	0.0170868
843.491	0.0169057
843.569	0.0169101
843.647	0.0168040
843.725	0.0169246
843.803	0.0168427
843.881	0.0167893
843.959	0.0169262
844.038	0.0169475
844.116	0.0170583
844.194	0.0167309
844.272	0.0168975
844.350	0.0168698
844.428	0.0169607
844.506	0.0170863
844.584	0.0168700
844.663	0.0169215
844.741	0.0171519
844.819	0.0169670
844.897	0.0170107
844.975	0.0170688
845.053	0.0171218
845.131	0.0171033
845.209	0.0170113
845.288	0.0170227
845.366	0.0169503
845.444	0.0167594
845.522	0.0168365
845.600	0.0168742
845.678	0.0168154
845.756	0.0168992
845.834	0.0167554
845.913	0.0166346
845.991	0.0166310
846.069	0.0167566
846.147	0.0167497
846.225	0.0167747
846.303	0.0167477
846.381	0.0165963
846.459	0.0168421
846.538	0.0167258
846.616	0.0169207
846.694	0.0168259
846.772	0.0167234
846.850	0.0166771
846.928	0.0167812
847.006	0.0168124
847.084	0.0168035
847.163	0.0166221
847.241	0.0169499
847.319	0.0168190
847.397	0.0167487
847.475	0.0169193
847.553	0.0169921
847.631	0.0169006
847.709	0.0170650
847.788	0.0170457
847.866	0.0170261
847.944	0.0169377
848.022	0.0170399
848.100	0.0169056
848.178	0.0169654
848.256	0.0168710
848.334	0.0168504
848.413	0.0169304
848.491	0.0168272
848.569	0.0167680
848.647	0.0167707
848.725	0.0167807
848.803	0.0167189
848.881	0.0168734
848.959	0.0168134
849.038	0.0168805
849.116	0.0168827
849.194	0.0169844
849.272	0.0168998
849.350	0.0168791
849.428	0.0169842
849.506	0.0168625
849.584	0.0169196
849.663	0.0171095
849.741	0.0169935
849.819	0.0170214
849.897	0.0170406
849.975	0.0169790
850.053	0.0168351
850.131	0.0168116
850.209	0.0167627
850.288	0.0168518
850.366	0.0168442
850.444	0.0167603
850.522	0.0167229
850.600	0.0166045
850.678	0.0168072
850.756	0.0168000
850.834	0.0168671
850.913	0.0166769
850.991	0.0168435
851.069	0.0168387
851.147	0.0167789
851.225	0.0168484
851.303	0.0169921
851.381	0.0168999
851.459	0.0168750
851.538	0.0169591
851.616	0.0169526
851.694	0.0168221
851.772	0.0168903
851.850	0.0167644
851.928	0.0168240
852.006	0.0167448
852.084	0.0168445
852.163	0.0167650
852.241	0.0167237
852.319	0.0167427
852.397	0.0167633
852.475	0.0166470
852.553	0.0167905
852.631	0.0167915
852.709	0.0168910
852.788	0.0168083
852.866	0.0167448
852.944	0.0167193
853.022	0.0167822
853.100	0.0168278
853.178	0.0168060
853.256	0.0167950
853.334	0.0169369
853.413	0.0169178
853.491	0.0170694
853.569	0.0170422
853.647	0.0170963
853.725	0.0170945
853.803	0.0172005
853.881	0.0171617
853.959	0.0170947
854.038	0.0171978
854.116	0.0173206
854.194	0.0172276
854.272	0.0172015
854.350	0.0172243
854.428	0.0170326
854.506	0.0170792
854.584	0.0169833
854.663	0.0168227
854.741	0.0168550
854.819	0.0168695
854.897	0.0167561
854.975	0.0166196
855.053	0.0164904
855.131	0.0164217
855.209	0.0165394
855.288	0.0163840
855.366	0.0164685
855.444	0.0164906
855.522	0.0163897
855.600	0.0163975
855.678	0.0163557
855.756	0.0164851
855.834	0.0164000
855.913	0.0163837
855.991	0.0164426
856.069	0.0165397
856.147	0.0164737
856.225	0.0165298
856.303	0.0166222
856.381	0.0167406
856.459	0.0167247
856.538	0.0167587
856.616	0.0167567
856.694	0.0168732
856.772	0.0168835
856.850	0.0169757
856.928	0.0169583
857.006	0.0170889
857.084	0.0169798
857.163	0.0169678
857.241	0.0169276
857.319	0.0170038
857.397	0.0168824
857.475	0.0168440
857.553	0.0168478
857.631	0.0167885
857.709	0.0167547
857.788	0.0167237
857.866	0.0167544
857.944	0.0168270
858.022	0.0168641
858.100	0.0169479
858.178	0.0168934
858.256	0.0170200
858.334	0.0170590
858.413	0.0172243
858.491	0.0172140
858.569	0.0172926
858.647	0.0173669
858.725	0.0173440
858.803	0.0173416
858.881	0.0173277
858.959	0.0175203
859.038	0.0175519
859.116	0.0174433
859.194	0.0172837
859.272	0.0172083
859.350	0.0171995
859.428	0.0171217
859.506	0.0171522
859.584	0.0170650
859.663	0.0170851
859.741	0.0170576
859.819	0.0172738
859.897	0.0170771
859.975	0.0170326
860.053	0.0171310
860.131	0.0170695
860.209	0.0170599
860.288	0.0171129
860.366	0.0171518
860.444	0.0171181
860.522	0.0170137
860.600	0.0170308
860.678	0.0170007
860.756	0.0170499
860.834	0.0168475
860.913	0.0167867
860.991	0.0170287
861.069	0.0168214
861.147	0.0167912
861.225	0.0166691
861.303	0.0166382
861.381	0.0167371
861.459	0.0166486
861.538	0.0165643
861.616	0.0167120
861.694	0.0167254
861.772	0.0166341
861.850	0.0166532
861.928	0.0165789
862.006	0.0165266
862.084	0.0165701
862.163	0.0166068
862.241	0.0167338
862.319	0.0166084
862.397	0.0166895
862.475	0.0167373
862.553	0.0165913
862.631	0.0167165
862.709	0.0167401
862.788	0.0167305
862.866	0.0166274
862.944	0.0168067
863.022	0.0168498
863.100	0.0169077
863.178	0.0168458
863.256	0.0169207
863.334	0.0169626
863.413	0.0169807
863.491	0.0170879
863.569	0.0170560
863.647	0.0169801
863.725	0.0169605
863.803	0.0169296
863.881	0.0167548
863.959	0.0170057
864.038	0.0168170
864.116	0.0168474
864.194	0.0168951
864.272	0.0167528
864.350	0.0168310
864.428	0.0167815
864.506	0.0167676
864.584	0.0169373
864.663	0.0167715
864.741	0.0167799
864.819	0.0168716
864.897	0.0168232
864.975	0.0169110
865.053	0.0168154
865.131	0.0167895
865.209	0.0169933
865.288	0.0168797
865.366	0.0170051
865.444	0.0169904
865.522	0.0169507
865.600	0.0169464
865.678	0.0172058
865.756	0.0171503
865.834	0.0171551
865.913	0.0173021
865.991	0.0171718
866.069	0.0172646
866.147	0.0173722
866.225	0.0173376
866.303	0.0172143
866.381	0.0171121
866.459	0.0170414
866.538	0.0170721
866.616	0.0170370
866.694	0.0168824
866.772	0.0169138
866.850	0.0168887
866.928	0.0168167
867.006	0.0168159
867.084	0.0167252
867.163	0.0167383
867.241	0.0167209
867.319	0.0167671
867.397	0.0167986
867.475	0.0167712
867.553	0.0168173
867.631	0.0168781
867.709	0.0169062
867.788	0.0168183
867.866	0.0168635
867.944	0.0168969
868.022	0.0168677
868.100	0.0167019
868.178	0.0167994
868.256	0.0168905
868.334	0.0167979
868.413	0.0166269
868.491	0.0168168
868.569	0.0167318
868.647	0.0166155
868.725	0.0166473
868.803	0.0166533
868.881	0.0166956
868.959	0.0167610
869.038	0.0168908
869.116	0.0168159
869.194	0.0168512
869.272	0.0168857
869.350	0.0168613
869.428	0.0170372
869.506	0.0171472
869.584	0.0171986
869.663	0.0169849
869.741	0.0170743
869.819	0.0170248
869.897	0.0171799
869.975	0.0170999
870.053	0.0171062
870.131	0.0171690
870.209	0.0170812
870.288	0.0170527
870.366	0.0171225
870.444	0.0171175
870.522	0.0168495
870.600	0.0169436
870.678	0.0169705
870.756	0.0168467
870.834	0.0167763
870.913	0.0168616
870.991	0.0169194
871.069	0.0168636
871.147	0.0169532
871.225	0.0168379
871.303	0.0168450
871.381	0.0167282
871.459	0.0166359
871.538	0.0166321
871.616	0.0167254
871.694	0.0167432
871.772	0.0165899
871.850	0.0167148
871.928	0.0168333
872.006	0.0167811
872.084	0.0168214
872.163	0.0168751
872.241	0.0169241
872.319	0.0169112
872.397	0.0170908
872.475	0.0169418
872.553	0.0170197
872.631	0.0170647
872.709	0.0170122
872.788	0.0170451
872.866	0.0170163
872.944	0.0169804
873.022	0.0167609
873.100	0.0168501
873.178	0.0169495
873.256	0.0167028
873.334	0.0168007
873.413	0.0166471
873.491	0.0166581
873.569	0.0166481
873.647	0.0165562
873.725	0.0165414
873.803	0.0165138
873.881	0.0166721
873.959	0.0166765
874.038	0.0165889
874.116	0.0168703
874.194	0.0168305
874.272	0.0166908
874.350	0.0167758
874.428	0.0169491
874.506	0.0169758
874.584	0.0169904
874.663	0.0169518
874.741	0.0169862
874.819	0.0172285
874.897	0.0171317
874.975	0.0171239
875.053	0.0171740
875.131	0.0170885
875.209	0.0172569
875.288	0.0172971
875.366	0.0171593
875.444	0.0171720
875.522	0.0171004
875.600	0.0172189
875.678	0.0171825
875.756	0.0170268
875.834	0.0172700
875.913	0.0172804
875.991	0.0171421
876.069	0.0172820
876.147	0.0172105
876.225	0.0171152
876.303	0.0172027
876.381	0.0171515
876.459	0.0172623
876.538	0.0171571
876.616	0.0170659
876.694	0.0169618
876.772	0.0169781
876.850	0.0170030
876.928	0.0169433
877.006	0.0168430
877.084	0.0168746
877.163	0.0167477
877.241	0.0167915
877.319	0.0166222
877.397	0.0165863
877.475	0.0165722
877.553	0.0165768
877.631	0.0165214
877.709	0.0165532
877.788	0.0166019
877.866	0.0166749
877.944	0.0165265
878.022	0.0165556
878.100	0.0165738
878.178	0.0167609
878.256	0.0166870
878.334	0.0167918
878.413	0.0168513
878.491	0.0168996
878.569	0.0169686
878.647	0.0169835
878.725	0.0169907
878.803	0.0170474
878.881	0.0169524
878.959	0.0170845
879.038	0.0171336
879.116	0.0170809
879.194	0.0169772
879.272	0.0168575
879.350	0.0170314
879.428	0.0168542
879.506	0.0168586
879.584	0.0167467
879.663	0.0167217
879.741	0.0168584
879.819	0.0167400
879.897	0.0168060
879.975	0.0167919
880.053	0.0167020
880.131	0.0168380
880.209	0.0167885
880.288	0.0168980
880.366	0.0168710
880.444	0.0168867
880.522	0.0168089
880.600	0.0170042
880.678	0.0168819
880.756	0.0169548
880.834	0.0170081
880.913	0.0170695
880.991	0.0173409
881.069	0.0171086
881.147	0.0171524
881.225	0.0172790
881.303	0.0172396
881.381	0.0172142
881.459	0.0172536
881.538	0.0170493
881.616	0.0170899
881.694	0.0171336
881.772	0.0172082
881.850	0.0171394
881.928	0.0170705
882.006	0.0169012
882.084	0.0168660
882.163	0.0167679
882.241	0.0169915
882.319	0.0166836
882.397	0.0167505
882.475	0.0168434
882.553	0.0166446
882.631	0.0167311
882.709	0.0165581
882.788	0.0166476
882.866	0.0166139
882.944	0.0166401
883.022	0.0166693
883.100	0.0167914
883.178	0.0168601
883.256	0.0170879
883.334	0.0170174
883.413	0.0171374
883.491	0.0169444
883.569	0.0169645
883.647	0.0170919
883.725	0.0171626
883.803	0.0170850
883.881	0.0173251
883.959	0.0173220
884.038	0.0174817
884.116	0.0173834
884.194	0.0173022
884.272	0.0172518
884.350	0.0172474
884.428	0.0172831
884.506	0.0171561
884.584	0.0169729
884.663	0.0168762
884.741	0.0167719
884.819	0.0167906
884.897	0.0167492
884.975	0.0167049
885.053	0.0167316
885.131	0.0167357
885.209	0.0167442
885.288	0.0166624
885.366	0.0166224
885.444	0.0165842
885.522	0.0167999
885.600	0.0168802
885.678	0.0168145
885.756	0.0167410
885.834	0.0167091
885.913	0.0166917
885.991	0.0167943
886.069	0.0167302
886.147	0.0166010
886.225	0.0167030
886.303	0.0167600
886.381	0.0165402
886.459	0.0166145
886.538	0.0166430
886.616	0.0166130
886.694	0.0165057
886.772	0.0167120
886.850	0.0166010
886.928	0.0166208
887.006	0.0166854
887.084	0.0168830
887.163	0.0169006
887.241	0.0169125
887.319	0.0168958
887.397	0.0170296
887.475	0.0170654
887.553	0.0170938
887.631	0.0170918
887.709	0.0169425
887.788	0.0171821
887.866	0.0171309
887.944	0.0171711
888.022	0.0173444
888.100	0.0172519
888.178	0.0171555
888.256	0.0171331
888.334	0.0170530
888.413	0.0170512
888.491	0.0170827
888.569	0.0170044
888.647	0.0168839
888.725	0.0169101
888.803	0.0168934
888.881	0.0167572
888.959	0.0167417
889.038	0.0166781
889.116	0.0166531
889.194	0.0167252
889.272	0.0165602
889.350	0.0167328
889.428	0.0167254
889.506	0.0166026
889.584	0.0167963
889.663	0.0168938
889.741	0.0167543
889.819	0.0167371
889.897	0.0168427
889.975	0.0167961
890.053	0.0167944
890.131	0.0166808
890.209	0.0168362
890.288	0.0169084
890.366	0.0168938
890.444	0.0170244
890.522	0.0170999
890.600	0.0169227
890.678	0.0170219
890.756	0.0170253
890.834	0.0171589
890.913	0.0171225
890.991	0.0171909
891.069	0.0172881
891.147	0.0172710
891.225	0.0172353
891.303	0.0173814
891.381	0.0171699
891.459	0.0172644
891.538	0.0172750
891.616	0.0170501
891.694	0.0169508
891.772	0.0171996
891.850	0.0169521
891.928	0.0169034
892.006	0.0168831
892.084	0.0168977
892.163	0.0167747
892.241	0.0166921
892.319	0.0166768
892.397	0.0167931
892.475	0.0166344
892.553	0.0166650
892.631	0.0166970
892.709	0.0167828
892.788	0.0167989
892.866	0.0168230
892.944	0.0167519
893.022	0.0167233
893.100	0.0167559
893.178	0.0168358
893.256	0.0171149
893.334	0.0169911
893.413	0.0169914
893.491	0.0168987
893.569	0.0170412
893.647	0.0172633
893.725	0.0171713
893.803	0.0172447
893.881	0.0172216
893.959	0.0171519
894.038	0.0173056
894.116	0.0170296
894.194	0.0170470
894.272	0.0170604
894.350	0.0169248
894.428	0.0169046
894.506	0.0169556
894.584	0.0170166
894.663	0.0168398
894.741	0.0168218
894.819	0.0168429
894.897	0.0168737
894.975	0.0169283
895.053	0.0169168
895.131	0.0169157
895.209	0.0167374
895.288	0.0167954
895.366	0.0166237
895.444	0.0165998
895.522	0.0164210
895.600	0.0163946
895.678	0.0163919
895.756	0.0164742
895.834	0.0165166
895.913	0.0165844
895.991	0.0166436
896.069	0.0164735
896.147	0.0166245
896.225	0.0168294
896.303	0.0168183
896.381	0.0168977
896.459	0.0169741
896.538	0.0170137
896.616	0.0169885
896.694	0.0169331
896.772	0.0171427
896.850	0.0171800
896.928	0.0172070
897.006	0.0171532
897.084	0.0171820
897.163	0.0171166
897.241	0.0172238
897.319	0.0171474
897.397	0.0171749
897.475	0.0170302
897.553	0.0170261
897.631	0.0171323
897.709	0.0169920
897.788	0.0170934
897.866	0.0169347
897.944	0.0168121
898.022	0.0168698
898.100	0.0168467
898.178	0.0168977
898.256	0.0167204
898.334	0.0166868
898.413	0.0167042
898.491	0.0165826
898.569	0.0166825
898.647	0.0166845
898.725	0.0167004
898.803	0.0167386
898.881	0.0169057
898.959	0.0169247
899.038	0.0168941
899.116	0.0168404
899.194	0.0169520
899.272	0.0170082
899.350	0.0168571
899.428	0.0169351
899.506	0.0170956
899.584	0.0170131
899.663	0.0171362
899.741	0.0171178
899.819	0.0171309
899.897	0.0172393
899.975	0.0172974
900.053	0.0171521
900.131	0.0173705
900.209	0.0172141
900.288	0.0172099
900.366	0.0171858
900.444	0.0170809
900.522	0.0171088
900.600	0.0170353
900.678	0.0170343
900.756	0.0169008
900.834	0.0169067
900.913	0.0168776
900.991	0.0167979
901.069	0.0165938
901.147	0.0165771
901.225	0.0165852
901.303	0.0165303
901.381	0.0166250
901.459	0.0164973
901.538	0.0164233
901.616	0.0166868
901.694	0.0164709
901.772	0.0165181
901.850	0.0166794
901.928	0.0167941
902.006	0.0169870
902.084	0.0170064
902.163	0.0169431
902.241	0.0172240
902.319	0.0172399
902.397	0.0170720
902.475	0.0171866
902.553	0.0174309
902.631	0.0172958
902.709	0.0173067
902.788	0.0172670
902.866	0.0172700
902.944	0.0172443
903.022	0.0172553
903.100	0.0171344
903.178	0.0169492
903.256	0.0170011
903.334	0.0170585
903.413	0.0169650
903.491	0.0170302
903.569	0.0168721
903.647	0.0168754
903.725	0.0171112
903.803	0.0170200
903.881	0.0169379
903.959	0.0168694
904.038	0.0169759
904.116	0.0169228
904.194	0.0168584
904.272	0.0169390
904.350	0.0171247
904.428	0.0170474
904.506	0.0170127
904.584	0.0169363
904.663	0.0170523
904.741	0.0168977
904.819	0.0169936
904.897	0.0169260
904.975	0.0169336
905.053	0.0169214
905.131	0.0168635
905.209	0.0168587
905.288	0.0168202
905.366	0.0169135
905.444	0.0168431
905.522	0.0168531
905.600	0.0169683
905.678	0.0167992
905.756	0.0168641
905.834	0.0168345
905.913	0.0168559
905.991	0.0169607
906.069	0.0169128
906.147	0.0170230
906.225	0.0170885
906.303	0.0170569
906.381	0.0172829
906.459	0.0170250
906.538	0.0170443
906.616	0.0171787
906.694	0.0172900
906.772	0.0172329
906.850	0.0172518
906.928	0.0172289
907.006	0.0172616
907.084	0.0171467
907.163	0.0172102
907.241	0.0171072
907.319	0.0171281
907.397	0.0169525
907.475	0.0167994
907.553	0.0169893
907.631	0.0170989
907.709	0.0170227
907.788	0.0168591
907.866	0.0169613
907.944	0.0169535
908.022	0.0170036
908.100	0.0169083
908.178	0.0168614
908.256	0.0168710
908.334	0.0167611
908.413	0.0168890
908.491	0.0167738
908.569	0.0167583
908.647	0.0168341
908.725	0.0166717
908.803	0.0166919
908.881	0.0168893
908.959	0.0170246
909.038	0.0168499
909.116	0.0170691
909.194	0.0169811
909.272	0.0171907
909.350	0.0171195
909.428	0.0172129
909.506	0.0171304
909.584	0.0171939
909.663	0.0172522
909.741	0.0171651
909.819	0.0171172
909.897	0.0170235
909.975	0.0170893
910.053	0.0169520
910.131	0.0168774
910.209	0.0169542
910.288	0.0168244
910.366	0.0168014
910.444	0.0168453
910.522	0.0168810
910.600	0.0167506
910.678	0.0168127
910.756	0.0166901
910.834	0.0168468
910.913	0.0167747
910.991	0.0168641
911.069	0.0167690
911.147	0.0168059
911.225	0.0166505
911.303	0.0167590
911.381	0.0168104
911.459	0.0167017
911.538	0.0168176
911.616	0.0167576
911.694	0.0168575
911.772	0.0167342
911.850	0.0168007
911.928	0.0167812
912.006	0.0166680
912.084	0.0167918
912.163	0.0167001
912.241	0.0167459
912.319	0.0166803
912.397	0.0166922
912.475	0.0167133
912.553	0.0168110
912.631	0.0168227
912.709	0.0167224
912.788	0.0168047
912.866	0.0169508
912.944	0.0169862
913.022	0.0168707
913.100	0.0169267
913.178	0.0169005
913.256	0.0168388
913.334	0.0169006
913.413	0.0168733
913.491	0.0169598
913.569	0.0168477
913.647	0.0168585
913.725	0.0169271
913.803	0.0169257
913.881	0.0170063
913.959	0.0168889
914.038	0.0168638
914.116	0.0169154
914.194	0.0168440
914.272	0.0169272
914.350	0.0170293
914.428	0.0168924
914.506	0.0169566
914.584	0.0169414
914.663	0.0169344
914.741	0.0169462
914.819	0.0168542
914.897	0.0170493
914.975	0.0170239
915.053	0.0169218
915.131	0.0169346
915.209	0.0169263
915.288	0.0168328
915.366	0.0167339
915.444	0.0170134
915.522	0.0168501
915.600	0.0168482
915.678	0.0169064
915.756	0.0167201
915.834	0.0167954
915.913	0.0167151
915.991	0.0167526
916.069	0.0167501
916.147	0.0168704
916.225	0.0167603
916.303	0.0168021
916.381	0.0167471
916.459	0.0168056
916.538	0.0168475
916.616	0.0167743
916.694	0.0167745
916.772	0.0167814
916.850	0.0168449
916.928	0.0168251
917.006	0.0167541
917.084	0.0167794
917.163	0.0168568
917.241	0.0167840
917.319	0.0168094
917.397	0.0168551
917.475	0.0169164
917.553	0.0169483
917.631	0.0169561
917.709	0.0169736
917.788	0.0170900
917.866	0.0170728
917.944	0.0170863
918.022	0.0169342
918.100	0.0170480
918.178	0.0170172
918.256	0.0170950
918.334	0.0171268
918.413	0.0171422
918.491	0.0170441
918.569	0.0170459
918.647	0.0171824
918.725	0.0170266
918.803	0.0169449
918.881	0.0169958
918.959	0.0167905
919.038	0.0169189
919.116	0.0170240
919.194	0.0169136
919.272	0.0167533
919.350	0.0166161
919.428	0.0166676
919.506	0.0167876
919.584	0.0167396
919.663	0.0167704
919.741	0.0168268
919.819	0.0167830
919.897	0.0166602
