05/20/2022	21:01:03	Ver.	4.1	UNKNOWN
Optical Delay	599.975067	Delta X		0.078125	Sweeps	1	Scan Rate	0/0
Coordinates	Axis 1	NaN	Axis 2	NaN	Axis 3	NaN	Axis 4	NaN	Axis 5	NaN	Axis 6	0.000000
TX Power	0.000000	RX Power	0.000000

599.975	0.0164758
600.053	0.0164845
600.131	0.0166113
600.209	0.0165300
600.288	0.0166245
600.366	0.0165563
600.444	0.0165425
600.522	0.0165304
600.600	0.0164348
600.678	0.0165475
600.756	0.0165446
600.834	0.0165455
600.913	0.0165070
600.991	0.0164815
601.069	0.0165864
601.147	0.0164845
601.225	0.0165102
601.303	0.0164987
601.381	0.0164867
601.459	0.0164598
601.538	0.0166643
601.616	0.0165859
601.694	0.0164246
601.772	0.0165198
601.850	0.0164736
601.928	0.0165362
602.006	0.0166422
602.084	0.0164499
602.163	0.0164935
602.241	0.0165332
602.319	0.0164394
602.397	0.0164668
602.475	0.0164341
602.553	0.0163566
602.631	0.0164314
602.709	0.0164682
602.788	0.0163766
602.866	0.0164381
602.944	0.0163690
603.022	0.0163950
603.100	0.0162457
603.178	0.0163932
603.256	0.0162206
603.334	0.0163407
603.413	0.0162393
603.491	0.0161622
603.569	0.0163080
603.647	0.0162497
603.725	0.0162238
603.803	0.0163042
603.881	0.0162411
603.959	0.0162495
604.038	0.0162737
604.116	0.0162729
604.194	0.0162672
604.272	0.0162254
604.350	0.0163097
604.428	0.0162177
604.506	0.0159608
604.584	0.0161614
604.663	0.0162038
604.741	0.0161198
604.819	0.0160902
604.897	0.0162384
604.975	0.0161725
605.053	0.0161892
605.131	0.0163170
605.209	0.0160778
605.288	0.0160847
605.366	0.0162490
605.444	0.0161679
605.522	0.0162057
605.600	0.0162419
605.678	0.0161784
605.756	0.0162403
605.834	0.0160004
605.913	0.0161231
605.991	0.0161131
606.069	0.0161805
606.147	0.0162084
606.225	0.0161728
606.303	0.0161423
606.381	0.0161806
606.459	0.0162152
606.538	0.0161241
606.616	0.0160693
606.694	0.0162224
606.772	0.0161763
606.850	0.0161923
606.928	0.0162237
607.006	0.0161852
607.084	0.0161017
607.163	0.0161477
607.241	0.0163074
607.319	0.0162664
607.397	0.0162054
607.475	0.0162485
607.553	0.0162350
607.631	0.0161581
607.709	0.0162552
607.788	0.0161938
607.866	0.0162646
607.944	0.0162242
608.022	0.0162626
608.100	0.0162784
608.178	0.0163892
608.256	0.0161723
608.334	0.0162503
608.413	0.0163150
608.491	0.0162093
608.569	0.0162977
608.647	0.0163113
608.725	0.0162479
608.803	0.0163881
608.881	0.0163075
608.959	0.0163244
609.038	0.0163313
609.116	0.0162704
609.194	0.0163092
609.272	0.0162630
609.350	0.0161173
609.428	0.0161976
609.506	0.0162457
609.584	0.0161918
609.663	0.0163597
609.741	0.0161942
609.819	0.0161967
609.897	0.0161985
609.975	0.0161903
610.053	0.0164180
610.131	0.0161654
610.209	0.0163010
610.288	0.0163557
610.366	0.0162491
610.444	0.0163753
610.522	0.0162097
610.600	0.0162335
610.678	0.0163483
610.756	0.0162782
610.834	0.0162691
610.913	0.0162023
610.991	0.0161850
611.069	0.0163802
611.147	0.0161887
611.225	0.0162878
611.303	0.0162460
611.381	0.0162935
611.459	0.0163454
611.538	0.0163403
611.616	0.0162193
611.694	0.0163959
611.772	0.0163049
611.850	0.0162839
611.928	0.0162608
612.006	0.0161644
612.084	0.0164177
612.163	0.0163322
612.241	0.0163609
612.319	0.0163680
612.397	0.0163609
612.475	0.0164645
612.553	0.0163156
612.631	0.0163672
612.709	0.0164320
612.788	0.0163828
612.866	0.0162895
612.944	0.0162860
613.022	0.0164161
613.100	0.0163097
613.178	0.0163345
613.256	0.0164516
613.334	0.0162247
613.413	0.0163131
613.491	0.0164217
613.569	0.0164705
613.647	0.0165229
613.725	0.0163627
613.803	0.0164104
613.881	0.0163703
613.959	0.0164703
614.038	0.0163175
614.116	0.0163356
614.194	0.0164851
614.272	0.0163934
614.350	0.0163110
614.428	0.0164137
614.506	0.0164178
614.584	0.0162802
614.663	0.0164839
614.741	0.0165634
614.819	0.0165910
614.897	0.0163916
614.975	0.0163938
615.053	0.0164623
615.131	0.0164021
615.209	0.0164656
615.288	0.0164835
615.366	0.0165392
615.444	0.0165376
615.522	0.0164793
615.600	0.0165864
615.678	0.0164950
615.756	0.0164982
615.834	0.0164120
615.913	0.0164556
615.991	0.0165330
616.069	0.0164082
616.147	0.0165189
616.225	0.0165865
616.303	0.0166698
616.381	0.0166008
616.459	0.0164604
616.538	0.0164082
616.616	0.0166657
616.694	0.0166435
616.772	0.0164842
616.850	0.0165189
616.928	0.0165081
617.006	0.0164056
617.084	0.0165708
617.163	0.0166264
617.241	0.0164411
617.319	0.0164475
617.397	0.0164854
617.475	0.0164455
617.553	0.0165652
617.631	0.0165124
617.709	0.0165295
617.788	0.0164955
617.866	0.0165659
617.944	0.0164851
618.022	0.0165135
618.100	0.0165504
618.178	0.0165056
618.256	0.0165776
618.334	0.0165429
618.413	0.0165585
618.491	0.0164397
618.569	0.0164146
618.647	0.0164427
618.725	0.0165859
618.803	0.0165806
618.881	0.0164404
618.959	0.0164640
619.038	0.0165729
619.116	0.0164873
619.194	0.0165466
619.272	0.0164610
619.350	0.0163822
619.428	0.0163476
619.506	0.0164160
619.584	0.0165230
619.663	0.0164711
619.741	0.0164369
619.819	0.0165496
619.897	0.0165005
619.975	0.0164171
620.053	0.0165611
620.131	0.0165143
620.209	0.0164288
620.288	0.0164505
620.366	0.0164851
620.444	0.0164421
620.522	0.0164425
620.600	0.0164850
620.678	0.0165325
620.756	0.0164167
620.834	0.0164373
620.913	0.0164436
620.991	0.0164434
621.069	0.0164391
621.147	0.0164870
621.225	0.0165852
621.303	0.0164098
621.381	0.0165476
621.459	0.0165081
621.538	0.0164258
621.616	0.0164658
621.694	0.0164158
621.772	0.0165592
621.850	0.0165195
621.928	0.0164929
622.006	0.0166360
622.084	0.0164599
622.163	0.0163943
622.241	0.0164736
622.319	0.0164291
622.397	0.0164777
622.475	0.0165356
622.553	0.0164777
622.631	0.0165802
622.709	0.0165106
622.788	0.0164539
622.866	0.0164499
622.944	0.0165788
623.022	0.0165291
623.100	0.0165029
623.178	0.0164742
623.256	0.0164104
623.334	0.0166095
623.413	0.0164217
623.491	0.0164194
623.569	0.0164582
623.647	0.0164486
623.725	0.0164567
623.803	0.0162374
623.881	0.0163155
623.959	0.0164955
624.038	0.0166025
624.116	0.0164077
624.194	0.0163164
624.272	0.0163721
624.350	0.0164434
624.428	0.0163676
624.506	0.0162606
624.584	0.0163895
624.663	0.0162923
624.741	0.0164022
624.819	0.0162663
624.897	0.0163932
624.975	0.0162769
625.053	0.0163532
625.131	0.0161626
625.209	0.0162862
625.288	0.0164399
625.366	0.0163404
625.444	0.0162807
625.522	0.0162150
625.600	0.0162823
625.678	0.0164646
625.756	0.0163699
625.834	0.0162502
625.913	0.0161511
625.991	0.0161834
626.069	0.0162210
626.147	0.0163005
626.225	0.0162449
626.303	0.0163158
626.381	0.0162581
626.459	0.0162776
626.538	0.0161965
626.616	0.0161948
626.694	0.0162004
626.772	0.0163299
626.850	0.0162766
626.928	0.0162097
627.006	0.0162456
627.084	0.0162675
627.163	0.0162889
627.241	0.0161371
627.319	0.0162485
627.397	0.0162748
627.475	0.0163201
627.553	0.0162540
627.631	0.0161540
627.709	0.0162366
627.788	0.0162583
627.866	0.0161512
627.944	0.0162297
628.022	0.0162314
628.100	0.0161763
628.178	0.0161414
628.256	0.0162670
628.334	0.0162417
628.413	0.0162654
628.491	0.0162659
628.569	0.0163100
628.647	0.0162704
628.725	0.0162216
628.803	0.0161990
628.881	0.0162296
628.959	0.0162070
629.038	0.0161386
629.116	0.0161632
629.194	0.0161995
629.272	0.0161726
629.350	0.0163063
629.428	0.0162471
629.506	0.0163206
629.584	0.0162282
629.663	0.0161848
629.741	0.0162228
629.819	0.0162057
629.897	0.0161842
629.975	0.0161693
630.053	0.0163138
630.131	0.0163651
630.209	0.0162422
630.288	0.0162546
630.366	0.0162153
630.444	0.0162758
630.522	0.0163151
630.600	0.0163499
630.678	0.0161561
630.756	0.0161555
630.834	0.0162998
630.913	0.0162339
630.991	0.0161963
631.069	0.0162401
631.147	0.0162937
631.225	0.0162133
631.303	0.0162637
631.381	0.0163647
631.459	0.0162975
631.538	0.0162441
631.616	0.0163188
631.694	0.0162357
631.772	0.0162940
631.850	0.0163911
631.928	0.0162984
632.006	0.0162989
632.084	0.0160921
632.163	0.0163634
632.241	0.0163671
632.319	0.0164501
632.397	0.0163969
632.475	0.0161565
632.553	0.0163538
632.631	0.0163507
632.709	0.0163610
632.788	0.0162772
632.866	0.0164419
632.944	0.0163745
633.022	0.0163938
633.100	0.0163805
633.178	0.0162705
633.256	0.0162873
633.334	0.0162514
633.413	0.0162853
633.491	0.0163340
633.569	0.0163569
633.647	0.0163979
633.725	0.0163040
633.803	0.0163938
633.881	0.0164117
633.959	0.0162813
634.038	0.0164243
634.116	0.0163463
634.194	0.0163480
634.272	0.0162952
634.350	0.0164477
634.428	0.0164410
634.506	0.0164516
634.584	0.0163604
634.663	0.0163223
634.741	0.0163902
634.819	0.0163669
634.897	0.0163265
634.975	0.0164740
635.053	0.0162499
635.131	0.0162698
635.209	0.0162948
635.288	0.0163625
635.366	0.0163161
635.444	0.0163772
635.522	0.0164453
635.600	0.0163881
635.678	0.0164294
635.756	0.0163205
635.834	0.0164227
635.913	0.0164863
635.991	0.0164536
636.069	0.0162672
636.147	0.0164455
636.225	0.0165136
636.303	0.0163649
636.381	0.0162699
636.459	0.0164095
636.538	0.0165511
636.616	0.0163669
636.694	0.0163799
636.772	0.0164335
636.850	0.0163264
636.928	0.0164219
637.006	0.0164486
637.084	0.0163142
637.163	0.0163372
637.241	0.0164902
637.319	0.0163530
637.397	0.0164752
637.475	0.0164839
637.553	0.0164675
637.631	0.0164111
637.709	0.0163884
637.788	0.0164871
637.866	0.0163824
637.944	0.0164120
638.022	0.0164677
638.100	0.0165262
638.178	0.0164659
638.256	0.0164801
638.334	0.0166678
638.413	0.0164580
638.491	0.0164257
638.569	0.0164709
638.647	0.0165424
638.725	0.0166194
638.803	0.0166203
638.881	0.0165402
638.959	0.0164771
639.038	0.0164832
639.116	0.0165531
639.194	0.0163918
639.272	0.0165695
639.350	0.0164230
639.428	0.0164271
639.506	0.0164091
639.584	0.0164288
639.663	0.0163853
639.741	0.0165468
639.819	0.0164500
639.897	0.0165124
639.975	0.0165585
640.053	0.0164089
640.131	0.0163443
640.209	0.0164288
640.288	0.0165092
640.366	0.0163696
640.444	0.0164996
640.522	0.0164380
640.600	0.0165077
640.678	0.0165645
640.756	0.0164901
640.834	0.0164962
640.913	0.0164471
640.991	0.0163140
641.069	0.0164589
641.147	0.0164747
641.225	0.0162991
641.303	0.0165085
641.381	0.0163999
641.459	0.0163673
641.538	0.0163662
641.616	0.0165562
641.694	0.0164731
641.772	0.0162578
641.850	0.0163618
641.928	0.0164512
642.006	0.0164922
642.084	0.0165192
642.163	0.0164497
642.241	0.0164600
642.319	0.0165530
642.397	0.0164541
642.475	0.0164311
642.553	0.0164560
642.631	0.0163538
642.709	0.0164031
642.788	0.0164067
642.866	0.0164302
642.944	0.0165648
643.022	0.0163856
643.100	0.0164864
643.178	0.0164952
643.256	0.0164638
643.334	0.0165286
643.413	0.0163251
643.491	0.0164902
643.569	0.0163719
643.647	0.0163791
643.725	0.0163872
643.803	0.0164989
643.881	0.0163376
643.959	0.0163928
644.038	0.0163804
644.116	0.0165241
644.194	0.0164528
644.272	0.0164224
644.350	0.0162787
644.428	0.0164217
644.506	0.0164660
644.584	0.0164873
644.663	0.0163829
644.741	0.0163710
644.819	0.0163708
644.897	0.0164265
644.975	0.0165030
645.053	0.0164921
645.131	0.0164976
645.209	0.0163583
645.288	0.0164256
645.366	0.0163525
645.444	0.0164322
645.522	0.0164449
645.600	0.0163212
645.678	0.0163831
645.756	0.0164767
645.834	0.0164829
645.913	0.0164748
645.991	0.0164997
646.069	0.0164548
646.147	0.0164604
646.225	0.0163513
646.303	0.0163390
646.381	0.0165086
646.459	0.0164463
646.538	0.0164166
646.616	0.0163459
646.694	0.0163689
646.772	0.0163824
646.850	0.0164940
646.928	0.0164639
647.006	0.0163582
647.084	0.0162796
647.163	0.0164183
647.241	0.0163369
647.319	0.0164182
647.397	0.0163776
647.475	0.0163747
647.553	0.0164631
647.631	0.0166207
647.709	0.0164851
647.788	0.0164496
647.866	0.0163687
647.944	0.0164569
648.022	0.0164775
648.100	0.0165401
648.178	0.0164200
648.256	0.0163020
648.334	0.0162774
648.413	0.0164181
648.491	0.0164145
648.569	0.0163271
648.647	0.0163816
648.725	0.0164263
648.803	0.0163219
648.881	0.0163326
648.959	0.0164797
649.038	0.0163934
649.116	0.0162798
649.194	0.0164222
649.272	0.0164131
649.350	0.0163179
649.428	0.0163100
649.506	0.0163119
649.584	0.0162921
649.663	0.0163227
649.741	0.0164043
649.819	0.0162473
649.897	0.0162427
649.975	0.0164468
650.053	0.0165517
650.131	0.0163294
650.209	0.0163389
650.288	0.0163754
650.366	0.0164842
650.444	0.0163284
650.522	0.0163589
650.600	0.0162094
650.678	0.0162524
650.756	0.0163356
650.834	0.0164443
650.913	0.0165118
650.991	0.0164861
651.069	0.0162808
651.147	0.0161531
651.225	0.0162511
651.303	0.0161375
651.381	0.0163839
651.459	0.0163492
651.538	0.0162585
651.616	0.0164716
651.694	0.0161760
651.772	0.0162724
651.850	0.0163618
651.928	0.0164174
652.006	0.0164153
652.084	0.0163585
652.163	0.0164423
652.241	0.0162694
652.319	0.0162917
652.397	0.0161799
652.475	0.0163710
652.553	0.0163337
652.631	0.0164754
652.709	0.0164773
652.788	0.0162718
652.866	0.0163596
652.944	0.0164122
653.022	0.0163504
653.100	0.0162946
653.178	0.0162277
653.256	0.0162650
653.334	0.0163226
653.413	0.0163018
653.491	0.0162953
653.569	0.0163364
653.647	0.0162016
653.725	0.0162756
653.803	0.0163067
653.881	0.0163177
653.959	0.0162750
654.038	0.0163185
654.116	0.0162768
654.194	0.0163027
654.272	0.0164108
654.350	0.0161940
654.428	0.0163912
654.506	0.0163556
654.584	0.0162742
654.663	0.0162563
654.741	0.0162917
654.819	0.0162419
654.897	0.0163380
654.975	0.0163908
655.053	0.0162592
655.131	0.0162449
655.209	0.0162891
655.288	0.0162382
655.366	0.0163899
655.444	0.0162122
655.522	0.0161892
655.600	0.0161824
655.678	0.0163529
655.756	0.0163410
655.834	0.0161749
655.913	0.0162766
655.991	0.0162204
656.069	0.0162520
656.147	0.0161897
656.225	0.0162125
656.303	0.0162684
656.381	0.0162408
656.459	0.0162305
656.538	0.0163879
656.616	0.0163577
656.694	0.0163628
656.772	0.0164278
656.850	0.0164681
656.928	0.0163382
657.006	0.0165478
657.084	0.0165086
657.163	0.0166065
657.241	0.0164957
657.319	0.0164792
657.397	0.0164775
657.475	0.0164385
657.553	0.0163813
657.631	0.0163846
657.709	0.0164358
657.788	0.0162859
657.866	0.0163971
657.944	0.0163080
658.022	0.0162183
658.100	0.0163288
658.178	0.0161162
658.256	0.0162419
658.334	0.0161308
658.413	0.0161516
658.491	0.0161414
658.569	0.0161210
658.647	0.0160132
658.725	0.0159943
658.803	0.0161699
658.881	0.0160374
658.959	0.0161820
659.038	0.0161891
659.116	0.0161916
659.194	0.0161559
659.272	0.0162856
659.350	0.0165190
659.428	0.0165548
659.506	0.0164269
659.584	0.0164539
659.663	0.0166270
659.741	0.0165624
659.819	0.0166599
659.897	0.0166767
659.975	0.0167525
660.053	0.0166736
660.131	0.0165405
660.209	0.0165862
660.288	0.0165475
660.366	0.0166020
660.444	0.0164296
660.522	0.0165504
660.600	0.0165385
660.678	0.0163929
660.756	0.0164269
660.834	0.0163860
660.913	0.0163489
660.991	0.0163123
661.069	0.0160680
661.147	0.0162343
661.225	0.0162409
661.303	0.0162252
661.381	0.0161559
661.459	0.0161904
661.538	0.0163200
661.616	0.0162019
661.694	0.0161915
661.772	0.0162025
661.850	0.0162549
661.928	0.0163452
662.006	0.0162527
662.084	0.0162864
662.163	0.0163503
662.241	0.0162575
662.319	0.0161727
662.397	0.0163567
662.475	0.0162954
662.553	0.0164081
662.631	0.0163702
662.709	0.0163786
662.788	0.0162796
662.866	0.0162349
662.944	0.0162247
663.022	0.0163258
663.100	0.0164278
663.178	0.0163668
663.256	0.0164919
663.334	0.0165460
663.413	0.0165011
663.491	0.0164227
663.569	0.0164108
663.647	0.0167234
663.725	0.0165819
663.803	0.0165745
663.881	0.0166519
663.959	0.0167491
664.038	0.0166946
664.116	0.0165246
664.194	0.0166116
664.272	0.0166946
664.350	0.0166032
664.428	0.0166415
664.506	0.0165297
664.584	0.0165615
664.663	0.0166283
664.741	0.0165384
664.819	0.0165161
664.897	0.0162410
664.975	0.0165253
665.053	0.0165484
665.131	0.0163184
665.209	0.0163138
665.288	0.0162921
665.366	0.0163185
665.444	0.0161954
665.522	0.0162968
665.600	0.0161959
665.678	0.0161824
665.756	0.0160932
665.834	0.0160551
665.913	0.0161533
665.991	0.0159756
666.069	0.0161054
666.147	0.0161224
666.225	0.0160748
666.303	0.0161229
666.381	0.0161874
666.459	0.0161234
666.538	0.0163010
666.616	0.0161335
666.694	0.0162096
666.772	0.0162913
666.850	0.0163065
666.928	0.0164663
667.006	0.0164390
667.084	0.0167412
667.163	0.0165813
667.241	0.0166044
667.319	0.0165974
667.397	0.0167445
667.475	0.0167293
667.553	0.0169039
667.631	0.0169106
667.709	0.0168987
667.788	0.0168073
667.866	0.0169875
667.944	0.0170209
668.022	0.0169730
668.100	0.0168926
668.178	0.0167685
668.256	0.0167877
668.334	0.0167173
668.413	0.0167976
668.491	0.0165213
668.569	0.0165289
668.647	0.0164190
668.725	0.0162613
668.803	0.0162869
668.881	0.0162415
668.959	0.0160200
669.038	0.0160424
669.116	0.0159586
669.194	0.0160005
669.272	0.0158795
669.350	0.0159859
669.428	0.0159758
669.506	0.0159827
669.584	0.0159522
669.663	0.0157787
669.741	0.0160064
669.819	0.0160983
669.897	0.0160958
669.975	0.0160703
670.053	0.0161642
670.131	0.0161585
670.209	0.0162606
670.288	0.0162996
670.366	0.0163403
670.444	0.0164284
670.522	0.0164356
670.600	0.0165900
670.678	0.0166658
670.756	0.0166798
670.834	0.0166004
670.913	0.0167856
670.991	0.0167303
671.069	0.0167039
671.147	0.0168195
671.225	0.0166602
671.303	0.0169379
671.381	0.0168880
671.459	0.0169693
671.538	0.0169077
671.616	0.0169975
671.694	0.0168314
671.772	0.0168137
671.850	0.0169315
671.928	0.0167769
672.006	0.0166880
672.084	0.0165994
672.163	0.0166702
672.241	0.0164268
672.319	0.0163707
672.397	0.0163378
672.475	0.0161699
672.553	0.0164172
672.631	0.0162320
672.709	0.0161115
672.788	0.0160216
672.866	0.0159805
672.944	0.0157211
673.022	0.0158569
673.100	0.0157116
673.178	0.0157522
673.256	0.0157733
673.334	0.0158174
673.413	0.0156481
673.491	0.0156786
673.569	0.0157977
673.647	0.0158551
673.725	0.0158842
673.803	0.0159468
673.881	0.0160762
673.959	0.0161759
674.038	0.0161804
674.116	0.0164097
674.194	0.0163863
674.272	0.0165833
674.350	0.0166955
674.428	0.0166270
674.506	0.0167585
674.584	0.0167328
674.663	0.0168436
674.741	0.0167967
674.819	0.0168196
674.897	0.0167122
674.975	0.0168133
675.053	0.0168456
675.131	0.0168556
675.209	0.0168201
675.288	0.0167083
675.366	0.0167308
675.444	0.0165912
675.522	0.0165302
675.600	0.0163459
675.678	0.0162691
675.756	0.0162863
675.834	0.0162690
675.913	0.0162463
675.991	0.0161658
676.069	0.0161669
676.147	0.0161996
676.225	0.0162136
676.303	0.0161623
676.381	0.0161842
676.459	0.0161774
676.538	0.0161381
676.616	0.0162484
676.694	0.0163612
676.772	0.0162784
676.850	0.0162822
676.928	0.0162795
677.006	0.0162070
677.084	0.0163495
677.163	0.0163087
677.241	0.0162863
677.319	0.0164552
677.397	0.0164001
677.475	0.0162392
677.553	0.0162444
677.631	0.0162505
677.709	0.0163034
677.788	0.0162872
677.866	0.0161760
677.944	0.0163490
678.022	0.0165199
678.100	0.0163657
678.178	0.0164715
678.256	0.0162765
678.334	0.0163814
678.413	0.0165903
678.491	0.0165644
678.569	0.0165771
678.647	0.0165351
678.725	0.0165880
678.803	0.0164744
678.881	0.0166206
678.959	0.0166670
679.038	0.0167424
679.116	0.0166811
679.194	0.0166161
679.272	0.0166374
679.350	0.0166412
679.428	0.0166158
679.506	0.0164627
679.584	0.0163310
679.663	0.0163814
679.741	0.0164075
679.819	0.0164435
679.897	0.0162620
679.975	0.0161622
680.053	0.0162048
680.131	0.0160193
680.209	0.0158658
680.288	0.0160912
680.366	0.0160031
680.444	0.0159651
680.522	0.0160313
680.600	0.0159827
680.678	0.0161113
680.756	0.0163748
680.834	0.0163326
680.913	0.0163904
680.991	0.0165340
681.069	0.0165311
681.147	0.0167991
681.225	0.0168940
681.303	0.0168591
681.381	0.0168043
681.459	0.0168233
681.538	0.0167815
681.616	0.0166856
681.694	0.0166765
681.772	0.0163490
681.850	0.0163669
681.928	0.0163450
682.006	0.0161113
682.084	0.0159698
682.163	0.0159886
682.241	0.0159090
682.319	0.0159321
682.397	0.0158392
682.475	0.0159248
682.553	0.0160780
682.631	0.0162611
682.709	0.0162489
682.788	0.0165697
682.866	0.0166479
682.944	0.0168157
683.022	0.0170274
683.100	0.0170650
683.178	0.0170097
683.256	0.0170469
683.334	0.0170165
683.413	0.0167791
683.491	0.0168552
683.569	0.0166959
683.647	0.0165796
683.725	0.0164155
683.803	0.0162381
683.881	0.0160396
683.959	0.0161508
684.038	0.0158743
684.116	0.0159436
684.194	0.0159212
684.272	0.0159220
684.350	0.0160407
684.428	0.0160984
684.506	0.0162283
684.584	0.0161841
684.663	0.0160857
684.741	0.0162051
684.819	0.0161775
684.897	0.0162788
684.975	0.0164183
685.053	0.0161741
685.131	0.0161975
685.209	0.0163687
685.288	0.0163745
685.366	0.0163754
685.444	0.0163390
685.522	0.0161536
685.600	0.0161558
685.678	0.0161690
685.756	0.0163197
685.834	0.0163447
685.913	0.0163905
685.991	0.0164101
686.069	0.0164206
686.147	0.0164229
686.225	0.0164705
686.303	0.0164598
686.381	0.0166890
686.459	0.0167649
686.538	0.0168406
686.616	0.0170635
686.694	0.0169465
686.772	0.0170587
686.850	0.0171087
686.928	0.0171654
687.006	0.0173064
687.084	0.0171661
687.163	0.0170569
687.241	0.0169998
687.319	0.0170116
687.397	0.0168349
687.475	0.0167723
687.553	0.0165404
687.631	0.0164175
687.709	0.0162535
687.788	0.0160339
687.866	0.0159402
687.944	0.0158897
688.022	0.0156728
688.100	0.0154255
688.178	0.0152615
688.256	0.0151463
688.334	0.0148273
688.413	0.0147202
688.491	0.0146442
688.569	0.0146059
688.647	0.0146501
688.725	0.0147598
688.803	0.0147836
688.881	0.0150783
688.959	0.0154158
689.038	0.0155717
689.116	0.0159873
689.194	0.0162137
689.272	0.0165260
689.350	0.0169906
689.428	0.0172816
689.506	0.0175872
689.584	0.0178237
689.663	0.0182406
689.741	0.0183273
689.819	0.0185486
689.897	0.0186084
689.975	0.0186828
690.053	0.0186977
690.131	0.0187746
690.209	0.0186979
690.288	0.0187229
690.366	0.0185377
690.444	0.0185226
690.522	0.0182846
690.600	0.0178986
690.678	0.0176092
690.756	0.0171699
690.834	0.0168703
690.913	0.0162957
690.991	0.0158295
691.069	0.0154199
691.147	0.0148981
691.225	0.0144418
691.303	0.0141524
691.381	0.0137224
691.459	0.0135518
691.538	0.0134238
691.616	0.0135040
691.694	0.0134425
691.772	0.0134306
691.850	0.0137956
691.928	0.0139729
692.006	0.0141000
692.084	0.0143804
692.163	0.0147637
692.241	0.0152811
692.319	0.0156042
692.397	0.0160137
692.475	0.0163540
692.553	0.0168414
692.631	0.0173040
692.709	0.0177118
692.788	0.0178988
692.866	0.0184511
692.944	0.0187698
693.022	0.0189574
693.100	0.0189645
693.178	0.0189799
693.256	0.0190137
693.334	0.0188527
693.413	0.0186114
693.491	0.0183067
693.569	0.0180338
693.647	0.0179046
693.725	0.0173900
693.803	0.0170700
693.881	0.0169651
693.959	0.0166209
694.038	0.0165525
694.116	0.0163790
694.194	0.0163883
694.272	0.0164134
694.350	0.0164198
694.428	0.0163406
694.506	0.0162914
694.584	0.0161508
694.663	0.0162105
694.741	0.0160794
694.819	0.0158078
694.897	0.0157319
694.975	0.0155282
695.053	0.0152941
695.131	0.0150865
695.209	0.0147139
695.288	0.0147433
695.366	0.0143117
695.444	0.0143449
695.522	0.0144092
695.600	0.0143679
695.678	0.0143668
695.756	0.0145569
695.834	0.0148342
695.913	0.0150545
695.991	0.0154362
696.069	0.0156527
696.147	0.0161820
696.225	0.0164404
696.303	0.0167717
696.381	0.0172599
696.459	0.0176244
696.538	0.0177995
696.616	0.0180279
696.694	0.0182692
696.772	0.0183878
696.850	0.0186593
696.928	0.0188220
697.006	0.0191577
697.084	0.0191121
697.163	0.0192259
697.241	0.0192270
697.319	0.0190590
697.397	0.0189384
697.475	0.0187346
697.553	0.0183926
697.631	0.0179692
697.709	0.0175433
697.788	0.0169263
697.866	0.0163628
697.944	0.0158336
698.022	0.0153180
698.100	0.0148225
698.178	0.0143703
698.256	0.0138785
698.334	0.0136565
698.413	0.0133025
698.491	0.0133415
698.569	0.0133495
698.647	0.0133028
698.725	0.0131752
698.803	0.0131873
698.881	0.0131173
698.959	0.0134394
699.038	0.0135983
699.116	0.0136177
699.194	0.0138853
699.272	0.0142621
699.350	0.0146085
699.428	0.0151539
699.506	0.0156196
699.584	0.0162265
699.663	0.0167493
699.741	0.0172536
699.819	0.0180272
699.897	0.0185821
699.975	0.0193063
700.053	0.0196229
700.131	0.0198892
700.209	0.0202249
700.288	0.0203104
700.366	0.0202420
700.444	0.0202684
700.522	0.0199689
700.600	0.0196649
700.678	0.0195734
700.756	0.0193177
700.834	0.0189831
700.913	0.0186787
700.991	0.0184303
701.069	0.0181289
701.147	0.0178306
701.225	0.0174435
701.303	0.0170209
701.381	0.0167868
701.459	0.0163330
701.538	0.0160185
701.616	0.0153693
701.694	0.0149848
701.772	0.0146593
701.850	0.0143373
701.928	0.0139650
702.006	0.0136331
702.084	0.0135297
702.163	0.0135072
702.241	0.0134462
702.319	0.0135159
702.397	0.0135495
702.475	0.0136933
702.553	0.0137952
702.631	0.0140932
702.709	0.0142123
702.788	0.0143122
702.866	0.0144760
702.944	0.0146690
703.022	0.0148187
703.100	0.0151562
703.178	0.0153301
703.256	0.0156902
703.334	0.0160357
703.413	0.0164217
703.491	0.0168186
703.569	0.0171431
703.647	0.0173813
703.725	0.0175795
703.803	0.0175495
703.881	0.0175052
703.959	0.0175258
704.038	0.0172205
704.116	0.0169839
704.194	0.0166797
704.272	0.0162288
704.350	0.0160516
704.428	0.0160845
704.506	0.0161050
704.584	0.0163934
704.663	0.0166445
704.741	0.0169212
704.819	0.0175059
704.897	0.0177218
704.975	0.0182436
705.053	0.0185809
705.131	0.0189966
705.209	0.0190760
705.288	0.0191580
705.366	0.0190379
705.444	0.0189034
705.522	0.0186970
705.600	0.0184107
705.678	0.0180061
705.756	0.0175926
705.834	0.0173447
705.913	0.0172804
705.991	0.0171523
706.069	0.0169398
706.147	0.0168452
706.225	0.0166257
706.303	0.0165324
706.381	0.0164731
706.459	0.0161817
706.538	0.0160467
706.616	0.0157271
706.694	0.0153564
706.772	0.0149281
706.850	0.0145628
706.928	0.0140551
707.006	0.0137631
707.084	0.0135729
707.163	0.0133858
707.241	0.0132804
707.319	0.0132282
707.397	0.0134138
707.475	0.0134480
707.553	0.0136395
707.631	0.0139769
707.709	0.0143612
707.788	0.0146732
707.866	0.0150126
707.944	0.0153374
708.022	0.0155914
708.100	0.0157983
708.178	0.0159805
708.256	0.0162646
708.334	0.0163364
708.413	0.0164514
708.491	0.0165903
708.569	0.0166694
708.647	0.0166999
708.725	0.0170646
708.803	0.0171206
708.881	0.0172464
708.959	0.0175227
709.038	0.0177115
709.116	0.0177950
709.194	0.0177862
709.272	0.0177650
709.350	0.0178398
709.428	0.0176836
709.506	0.0175948
709.584	0.0174810
709.663	0.0173712
709.741	0.0173177
709.819	0.0171330
709.897	0.0166707
709.975	0.0167064
710.053	0.0166503
710.131	0.0163482
710.209	0.0163893
710.288	0.0163626
710.366	0.0163164
710.444	0.0163078
710.522	0.0163244
710.600	0.0163813
710.678	0.0164062
710.756	0.0163114
710.834	0.0163236
710.913	0.0164233
710.991	0.0165338
711.069	0.0165265
711.147	0.0165491
711.225	0.0166743
711.303	0.0167535
711.381	0.0169039
711.459	0.0169476
711.538	0.0169987
711.616	0.0172491
711.694	0.0172272
711.772	0.0172342
711.850	0.0172449
711.928	0.0173100
712.006	0.0168536
712.084	0.0168304
712.163	0.0168425
712.241	0.0166378
712.319	0.0165170
712.397	0.0161821
712.475	0.0160310
712.553	0.0159924
712.631	0.0157035
712.709	0.0157569
712.788	0.0155905
712.866	0.0155355
712.944	0.0154507
713.022	0.0155147
713.100	0.0154346
713.178	0.0154739
713.256	0.0155714
713.334	0.0154609
713.413	0.0154404
713.491	0.0155609
713.569	0.0154072
713.647	0.0153660
713.725	0.0152769
713.803	0.0151130
713.881	0.0149925
713.959	0.0149022
714.038	0.0146447
714.116	0.0144949
714.194	0.0145102
714.272	0.0144209
714.350	0.0146655
714.428	0.0147337
714.506	0.0151788
714.584	0.0153387
714.663	0.0157162
714.741	0.0161172
714.819	0.0166280
714.897	0.0169273
714.975	0.0172964
715.053	0.0175709
715.131	0.0179353
715.209	0.0180434
715.288	0.0180614
715.366	0.0181510
715.444	0.0181025
715.522	0.0181734
715.600	0.0181403
715.678	0.0178032
715.756	0.0177647
715.834	0.0177678
715.913	0.0176785
715.991	0.0177689
716.069	0.0177296
716.147	0.0176145
716.225	0.0177000
716.303	0.0175340
716.381	0.0177006
716.459	0.0176596
716.538	0.0176781
716.616	0.0175826
716.694	0.0177383
716.772	0.0178066
716.850	0.0176988
716.928	0.0174815
717.006	0.0173625
717.084	0.0171459
717.163	0.0167833
717.241	0.0164875
717.319	0.0162794
717.397	0.0158875
717.475	0.0155016
717.553	0.0155553
717.631	0.0153615
717.709	0.0150608
717.788	0.0152842
717.866	0.0152869
717.944	0.0153365
718.022	0.0153839
718.100	0.0155360
718.178	0.0156420
718.256	0.0158590
718.334	0.0158128
718.413	0.0156987
718.491	0.0156156
718.569	0.0154840
718.647	0.0154810
718.725	0.0152470
718.803	0.0152284
718.881	0.0150817
718.959	0.0148927
719.038	0.0148141
719.116	0.0150261
719.194	0.0151713
719.272	0.0151716
719.350	0.0153293
719.428	0.0154152
719.506	0.0157932
719.584	0.0159325
719.663	0.0160690
719.741	0.0160741
719.819	0.0162952
719.897	0.0162102
719.975	0.0164018
720.053	0.0163921
720.131	0.0165330
720.209	0.0165634
720.288	0.0166593
720.366	0.0168916
720.444	0.0169489
720.522	0.0169173
720.600	0.0170773
720.678	0.0171406
720.756	0.0169170
720.834	0.0170608
720.913	0.0169155
720.991	0.0169345
721.069	0.0166863
721.147	0.0166348
721.225	0.0166517
721.303	0.0165472
721.381	0.0166854
721.459	0.0167548
721.538	0.0171867
721.616	0.0173794
721.694	0.0176336
721.772	0.0177461
721.850	0.0181412
721.928	0.0181351
722.006	0.0183967
722.084	0.0183477
722.163	0.0183626
722.241	0.0182471
722.319	0.0180799
722.397	0.0178900
722.475	0.0178645
722.553	0.0176066
722.631	0.0173866
722.709	0.0174639
722.788	0.0174804
722.866	0.0173544
722.944	0.0174526
723.022	0.0173782
723.100	0.0174875
723.178	0.0173782
723.256	0.0171819
723.334	0.0169904
723.413	0.0166918
723.491	0.0163477
723.569	0.0159587
723.647	0.0155139
723.725	0.0150356
723.803	0.0146171
723.881	0.0142793
723.959	0.0141547
724.038	0.0140520
724.116	0.0137871
724.194	0.0139936
724.272	0.0139969
724.350	0.0140627
724.428	0.0142625
724.506	0.0144267
724.584	0.0145586
724.663	0.0145879
724.741	0.0145662
724.819	0.0147934
724.897	0.0148904
724.975	0.0148096
725.053	0.0147910
725.131	0.0147719
725.209	0.0148293
725.288	0.0148943
725.366	0.0151225
725.444	0.0151981
725.522	0.0152845
725.600	0.0154846
725.678	0.0157544
725.756	0.0162317
725.834	0.0165196
725.913	0.0166390
725.991	0.0167410
726.069	0.0169769
726.147	0.0170470
726.225	0.0170772
726.303	0.0169643
726.381	0.0170029
726.459	0.0169698
726.538	0.0169676
726.616	0.0168821
726.694	0.0168337
726.772	0.0171669
726.850	0.0171321
726.928	0.0171760
727.006	0.0175932
727.084	0.0178038
727.163	0.0179492
727.241	0.0180464
727.319	0.0182069
727.397	0.0183111
727.475	0.0183073
727.553	0.0183737
727.631	0.0182990
727.709	0.0182474
727.788	0.0182679
727.866	0.0182747
727.944	0.0181557
728.022	0.0180868
728.100	0.0180146
728.178	0.0178268
728.256	0.0177400
728.334	0.0174530
728.413	0.0174901
728.491	0.0173895
728.569	0.0171702
728.647	0.0168877
728.725	0.0167467
728.803	0.0167042
728.881	0.0165891
728.959	0.0163489
729.038	0.0161506
729.116	0.0160455
729.194	0.0159042
729.272	0.0157688
729.350	0.0156959
729.428	0.0155059
729.506	0.0155091
729.584	0.0154080
729.663	0.0152789
729.741	0.0152505
729.819	0.0151440
729.897	0.0150201
729.975	0.0149606
730.053	0.0149934
730.131	0.0148616
730.209	0.0148267
730.288	0.0146627
730.366	0.0143940
730.444	0.0143967
730.522	0.0141772
730.600	0.0140112
730.678	0.0139751
730.756	0.0139635
730.834	0.0137740
730.913	0.0137243
730.991	0.0137250
731.069	0.0139031
731.147	0.0140378
731.225	0.0140556
731.303	0.0143332
731.381	0.0145490
731.459	0.0147395
731.538	0.0152230
731.616	0.0156173
731.694	0.0158148
731.772	0.0163775
731.850	0.0167064
731.928	0.0168594
732.006	0.0170470
732.084	0.0172520
732.163	0.0174817
732.241	0.0175537
732.319	0.0175977
732.397	0.0174231
732.475	0.0176027
732.553	0.0175144
732.631	0.0176222
732.709	0.0176483
732.788	0.0179224
732.866	0.0178510
732.944	0.0178075
733.022	0.0180004
733.100	0.0182142
733.178	0.0182079
733.256	0.0183434
733.334	0.0184790
733.413	0.0183909
733.491	0.0184349
733.569	0.0184476
733.647	0.0182800
733.725	0.0183221
733.803	0.0181590
733.881	0.0180297
733.959	0.0178267
734.038	0.0177713
734.116	0.0174703
734.194	0.0172223
734.272	0.0169981
734.350	0.0168649
734.428	0.0169116
734.506	0.0166824
734.584	0.0167957
734.663	0.0166314
734.741	0.0164788
734.819	0.0166658
734.897	0.0164791
734.975	0.0165598
735.053	0.0167247
735.131	0.0166483
735.209	0.0165203
735.288	0.0165509
735.366	0.0165844
735.444	0.0165540
735.522	0.0162289
735.600	0.0159693
735.678	0.0157706
735.756	0.0155994
735.834	0.0154890
735.913	0.0150722
735.991	0.0148674
736.069	0.0146917
736.147	0.0144672
736.225	0.0145327
736.303	0.0141463
736.381	0.0142000
736.459	0.0143010
736.538	0.0142229
736.616	0.0143180
736.694	0.0142936
736.772	0.0144594
736.850	0.0146794
736.928	0.0146615
737.006	0.0146981
737.084	0.0149429
737.163	0.0150661
737.241	0.0151447
737.319	0.0154384
737.397	0.0155354
737.475	0.0157365
737.553	0.0158617
737.631	0.0160854
737.709	0.0161168
737.788	0.0161983
737.866	0.0162439
737.944	0.0164352
738.022	0.0163713
738.100	0.0164803
738.178	0.0164760
738.256	0.0164764
738.334	0.0165416
738.413	0.0164732
738.491	0.0165046
738.569	0.0166054
738.647	0.0165079
738.725	0.0166444
738.803	0.0167362
738.881	0.0168300
738.959	0.0169081
739.038	0.0171049
739.116	0.0172240
739.194	0.0173154
739.272	0.0174670
739.350	0.0178367
739.428	0.0179233
739.506	0.0180352
739.584	0.0182482
739.663	0.0181715
739.741	0.0182237
739.819	0.0182178
739.897	0.0181135
739.975	0.0181689
740.053	0.0180132
740.131	0.0180963
740.209	0.0178371
740.288	0.0176617
740.366	0.0175851
740.444	0.0175222
740.522	0.0173237
740.600	0.0169154
740.678	0.0166253
740.756	0.0164717
740.834	0.0161037
740.913	0.0158754
740.991	0.0157551
741.069	0.0155442
741.147	0.0154833
741.225	0.0154586
741.303	0.0153723
741.381	0.0155827
741.459	0.0158267
741.538	0.0159952
741.616	0.0161655
741.694	0.0163355
741.772	0.0165429
741.850	0.0168250
741.928	0.0168132
742.006	0.0168573
742.084	0.0168416
742.163	0.0167242
742.241	0.0166862
742.319	0.0165227
742.397	0.0164697
742.475	0.0163256
742.553	0.0159527
742.631	0.0158926
742.709	0.0157723
742.788	0.0156050
742.866	0.0156515
742.944	0.0157877
743.022	0.0156850
743.100	0.0155147
743.178	0.0156023
743.256	0.0156927
743.334	0.0156800
743.413	0.0156602
743.491	0.0158383
743.569	0.0156853
743.647	0.0157034
743.725	0.0157993
743.803	0.0156926
743.881	0.0156577
743.959	0.0157736
744.038	0.0159219
744.116	0.0160269
744.194	0.0161572
744.272	0.0162259
744.350	0.0163557
744.428	0.0163747
744.506	0.0165379
744.584	0.0165509
744.663	0.0164984
744.741	0.0164072
744.819	0.0163773
744.897	0.0164073
744.975	0.0163993
745.053	0.0162145
745.131	0.0160094
745.209	0.0160508
745.288	0.0161694
745.366	0.0160726
745.444	0.0158836
745.522	0.0160358
745.600	0.0160143
745.678	0.0160499
745.756	0.0161958
745.834	0.0163276
745.913	0.0164269
745.991	0.0164644
746.069	0.0165253
746.147	0.0167119
746.225	0.0166886
746.303	0.0168645
746.381	0.0168884
746.459	0.0167660
746.538	0.0169871
746.616	0.0171463
746.694	0.0171332
746.772	0.0171237
746.850	0.0170018
746.928	0.0169508
747.006	0.0170967
747.084	0.0171321
747.163	0.0171188
747.241	0.0170727
747.319	0.0171641
747.397	0.0170245
747.475	0.0169299
747.553	0.0170842
747.631	0.0170407
747.709	0.0171606
747.788	0.0170883
747.866	0.0171844
747.944	0.0171878
748.022	0.0170595
748.100	0.0171177
748.178	0.0170355
748.256	0.0169573
748.334	0.0168939
748.413	0.0169139
748.491	0.0166065
748.569	0.0166876
748.647	0.0164987
748.725	0.0161852
748.803	0.0161824
748.881	0.0160479
748.959	0.0159444
749.038	0.0158298
749.116	0.0158483
749.194	0.0157671
749.272	0.0156122
749.350	0.0157781
749.428	0.0156471
749.506	0.0157069
749.584	0.0157969
749.663	0.0158137
749.741	0.0157415
749.819	0.0159045
749.897	0.0158210
749.975	0.0159366
750.053	0.0161590
750.131	0.0160809
750.209	0.0162207
750.288	0.0163487
750.366	0.0164185
750.444	0.0164397
750.522	0.0163711
750.600	0.0165125
750.678	0.0165079
750.756	0.0164095
750.834	0.0162663
750.913	0.0161651
750.991	0.0160313
751.069	0.0158004
751.147	0.0157088
751.225	0.0154585
751.303	0.0153247
751.381	0.0153226
751.459	0.0151211
751.538	0.0151105
751.616	0.0152475
751.694	0.0153214
751.772	0.0155906
751.850	0.0155513
751.928	0.0156218
752.006	0.0159241
752.084	0.0160923
752.163	0.0161690
752.241	0.0161707
752.319	0.0162048
752.397	0.0162744
752.475	0.0161665
752.553	0.0162229
752.631	0.0161000
752.709	0.0161974
752.788	0.0163944
752.866	0.0162461
752.944	0.0163046
753.022	0.0164424
753.100	0.0166502
753.178	0.0166635
753.256	0.0167507
753.334	0.0169092
753.413	0.0170866
753.491	0.0171800
753.569	0.0173605
753.647	0.0173746
753.725	0.0173633
753.803	0.0173093
753.881	0.0173987
753.959	0.0172562
754.038	0.0174354
754.116	0.0172649
754.194	0.0173197
754.272	0.0171580
754.350	0.0170567
754.428	0.0168202
754.506	0.0168515
754.584	0.0167194
754.663	0.0165240
754.741	0.0164375
754.819	0.0162141
754.897	0.0160744
754.975	0.0159866
755.053	0.0160148
755.131	0.0157941
755.209	0.0157585
755.288	0.0155677
755.366	0.0153581
755.444	0.0154723
755.522	0.0153336
755.600	0.0154526
755.678	0.0155843
755.756	0.0156165
755.834	0.0156998
755.913	0.0159268
755.991	0.0159571
756.069	0.0160572
756.147	0.0162349
756.225	0.0164031
756.303	0.0164615
756.381	0.0164137
756.459	0.0167444
756.538	0.0167686
756.616	0.0167302
756.694	0.0168128
756.772	0.0168464
756.850	0.0168701
756.928	0.0170690
757.006	0.0171398
757.084	0.0170165
757.163	0.0170592
757.241	0.0171010
757.319	0.0170182
757.397	0.0170992
757.475	0.0170451
757.553	0.0169550
757.631	0.0166927
757.709	0.0167925
757.788	0.0167469
757.866	0.0168817
757.944	0.0166570
758.022	0.0165495
758.100	0.0165560
758.178	0.0164270
758.256	0.0163154
758.334	0.0162312
758.413	0.0159349
758.491	0.0160020
758.569	0.0159215
758.647	0.0157897
758.725	0.0158017
758.803	0.0159341
758.881	0.0158187
758.959	0.0158813
759.038	0.0157631
759.116	0.0158115
759.194	0.0159545
759.272	0.0160205
759.350	0.0160693
759.428	0.0160139
759.506	0.0159698
759.584	0.0160454
759.663	0.0161334
759.741	0.0161366
759.819	0.0161284
759.897	0.0160307
759.975	0.0160324
760.053	0.0160798
760.131	0.0160558
760.209	0.0160815
760.288	0.0160590
760.366	0.0160686
760.444	0.0162177
760.522	0.0161176
760.600	0.0163791
760.678	0.0161736
760.756	0.0161288
760.834	0.0161787
760.913	0.0162994
760.991	0.0161741
761.069	0.0162273
761.147	0.0161133
761.225	0.0161451
761.303	0.0160948
761.381	0.0159689
761.459	0.0161208
761.538	0.0159696
761.616	0.0160419
761.694	0.0161443
761.772	0.0160697
761.850	0.0162440
761.928	0.0161326
762.006	0.0162525
762.084	0.0165663
762.163	0.0166594
762.241	0.0168700
762.319	0.0171830
762.397	0.0170227
762.475	0.0171542
762.553	0.0173965
762.631	0.0174329
762.709	0.0174273
762.788	0.0174071
762.866	0.0173532
762.944	0.0172406
763.022	0.0171323
763.100	0.0170250
763.178	0.0169843
763.256	0.0168590
763.334	0.0167337
763.413	0.0168826
763.491	0.0167975
763.569	0.0165875
763.647	0.0164510
763.725	0.0166195
763.803	0.0167867
763.881	0.0166719
763.959	0.0165722
764.038	0.0165706
764.116	0.0166032
764.194	0.0166414
764.272	0.0165868
764.350	0.0165334
764.428	0.0164979
764.506	0.0164793
764.584	0.0166515
764.663	0.0165816
764.741	0.0164857
764.819	0.0166216
764.897	0.0166747
764.975	0.0167831
765.053	0.0169289
765.131	0.0169846
765.209	0.0170808
765.288	0.0171024
765.366	0.0173537
765.444	0.0172787
765.522	0.0172797
765.600	0.0172795
765.678	0.0171179
765.756	0.0167410
765.834	0.0165558
765.913	0.0162978
765.991	0.0160925
766.069	0.0157899
766.147	0.0153999
766.225	0.0150986
766.303	0.0148821
766.381	0.0146266
766.459	0.0144814
766.538	0.0144298
766.616	0.0143568
766.694	0.0144356
766.772	0.0145373
766.850	0.0146150
766.928	0.0147762
767.006	0.0149091
767.084	0.0152776
767.163	0.0154784
767.241	0.0157774
767.319	0.0158964
767.397	0.0161058
767.475	0.0163510
767.553	0.0166265
767.631	0.0167805
767.709	0.0168568
767.788	0.0171862
767.866	0.0171746
767.944	0.0171365
768.022	0.0171113
768.100	0.0171208
768.178	0.0170868
768.256	0.0170706
768.334	0.0168851
768.413	0.0166933
768.491	0.0166967
768.569	0.0165622
768.647	0.0163343
768.725	0.0163206
768.803	0.0162841
768.881	0.0163522
768.959	0.0163665
769.038	0.0163947
769.116	0.0163673
769.194	0.0163519
769.272	0.0164663
769.350	0.0167442
769.428	0.0165668
769.506	0.0167134
769.584	0.0167487
769.663	0.0166602
769.741	0.0166568
769.819	0.0166766
769.897	0.0166639
769.975	0.0166374
770.053	0.0163734
770.131	0.0163603
770.209	0.0162713
770.288	0.0163558
770.366	0.0162693
770.444	0.0161342
770.522	0.0162007
770.600	0.0161985
770.678	0.0162115
770.756	0.0162364
770.834	0.0162756
770.913	0.0165719
770.991	0.0164315
771.069	0.0165835
771.147	0.0165444
771.225	0.0167487
771.303	0.0167614
771.381	0.0168158
771.459	0.0169386
771.538	0.0167813
771.616	0.0167538
771.694	0.0166542
771.772	0.0166591
771.850	0.0167302
771.928	0.0167959
772.006	0.0167348
772.084	0.0167220
772.163	0.0166145
772.241	0.0164776
772.319	0.0165700
772.397	0.0165382
772.475	0.0163531
772.553	0.0162007
772.631	0.0161839
772.709	0.0161182
772.788	0.0161270
772.866	0.0160255
772.944	0.0159853
773.022	0.0161292
773.100	0.0160750
773.178	0.0158079
773.256	0.0160065
773.334	0.0162674
773.413	0.0162358
773.491	0.0162845
773.569	0.0162003
773.647	0.0164529
773.725	0.0163543
773.803	0.0164198
773.881	0.0164494
773.959	0.0164276
774.038	0.0163560
774.116	0.0161977
774.194	0.0161559
774.272	0.0160139
774.350	0.0160181
774.428	0.0159079
774.506	0.0155894
774.584	0.0156036
774.663	0.0154426
774.741	0.0153528
774.819	0.0153255
774.897	0.0153983
774.975	0.0152057
775.053	0.0153982
775.131	0.0152962
775.209	0.0154865
775.288	0.0157883
775.366	0.0159254
775.444	0.0160284
775.522	0.0160902
775.600	0.0161108
775.678	0.0162301
775.756	0.0165592
775.834	0.0165682
775.913	0.0166321
775.991	0.0167121
776.069	0.0168223
776.147	0.0169686
776.225	0.0169386
776.303	0.0171317
776.381	0.0168807
776.459	0.0170445
776.538	0.0170074
776.616	0.0169443
776.694	0.0167718
776.772	0.0168756
776.850	0.0169761
776.928	0.0167911
777.006	0.0168951
777.084	0.0168227
777.163	0.0165486
777.241	0.0163316
777.319	0.0165602
777.397	0.0165576
777.475	0.0166862
777.553	0.0166357
777.631	0.0166113
777.709	0.0167458
777.788	0.0166986
777.866	0.0168555
777.944	0.0167575
778.022	0.0167335
778.100	0.0167178
778.178	0.0165924
778.256	0.0164814
778.334	0.0164082
778.413	0.0162144
778.491	0.0160208
778.569	0.0159663
778.647	0.0158861
778.725	0.0157757
778.803	0.0157458
778.881	0.0157872
778.959	0.0158231
779.038	0.0156212
779.116	0.0157368
779.194	0.0159585
779.272	0.0160173
779.350	0.0162492
779.428	0.0164105
779.506	0.0166553
779.584	0.0169965
779.663	0.0172659
779.741	0.0173911
779.819	0.0175103
779.897	0.0175489
779.975	0.0175547
780.053	0.0176467
780.131	0.0177145
780.209	0.0176361
780.288	0.0175586
780.366	0.0172310
780.444	0.0170197
780.522	0.0168171
780.600	0.0165358
780.678	0.0164820
780.756	0.0163596
780.834	0.0160883
780.913	0.0160268
780.991	0.0158797
781.069	0.0158992
781.147	0.0158529
781.225	0.0159235
781.303	0.0157970
781.381	0.0156394
781.459	0.0156678
781.538	0.0157298
781.616	0.0157684
781.694	0.0156528
781.772	0.0157767
781.850	0.0157228
781.928	0.0157436
782.006	0.0157013
782.084	0.0156483
782.163	0.0158327
782.241	0.0160323
782.319	0.0160741
782.397	0.0159950
782.475	0.0163902
782.553	0.0165776
782.631	0.0166711
782.709	0.0168387
782.788	0.0167585
782.866	0.0170356
782.944	0.0170668
783.022	0.0170264
783.100	0.0171579
783.178	0.0171101
783.256	0.0169951
783.334	0.0168821
783.413	0.0168182
783.491	0.0166329
783.569	0.0163808
783.647	0.0163028
783.725	0.0161530
783.803	0.0159999
783.881	0.0159042
783.959	0.0157738
784.038	0.0158339
784.116	0.0156693
784.194	0.0156738
784.272	0.0157831
784.350	0.0158400
784.428	0.0157654
784.506	0.0159150
784.584	0.0159165
784.663	0.0158972
784.741	0.0160855
784.819	0.0163351
784.897	0.0164248
784.975	0.0165060
785.053	0.0167110
785.131	0.0167670
785.209	0.0168479
785.288	0.0169582
785.366	0.0171413
785.444	0.0172841
785.522	0.0171618
785.600	0.0172444
785.678	0.0170249
785.756	0.0169965
785.834	0.0170085
785.913	0.0167905
785.991	0.0165618
786.069	0.0163366
786.147	0.0161523
786.225	0.0163084
786.303	0.0161510
786.381	0.0160349
786.459	0.0160362
786.538	0.0161763
786.616	0.0159740
786.694	0.0161057
786.772	0.0161598
786.850	0.0160452
786.928	0.0161797
787.006	0.0161730
787.084	0.0162257
787.163	0.0161369
787.241	0.0160123
787.319	0.0159292
787.397	0.0159708
787.475	0.0158835
787.553	0.0160228
787.631	0.0159705
787.709	0.0161329
787.788	0.0160626
787.866	0.0161189
787.944	0.0160625
788.022	0.0161997
788.100	0.0162683
788.178	0.0163803
788.256	0.0164630
788.334	0.0164800
788.413	0.0166970
788.491	0.0168884
788.569	0.0170098
788.647	0.0169376
788.725	0.0170378
788.803	0.0170720
788.881	0.0172317
788.959	0.0171062
789.038	0.0170829
789.116	0.0169291
789.194	0.0168321
789.272	0.0166913
789.350	0.0165948
789.428	0.0163716
789.506	0.0163043
789.584	0.0162746
789.663	0.0161335
789.741	0.0160170
789.819	0.0161270
789.897	0.0158271
789.975	0.0160527
790.053	0.0159708
790.131	0.0158672
790.209	0.0158054
790.288	0.0159628
790.366	0.0158230
790.444	0.0157312
790.522	0.0156740
790.600	0.0158825
790.678	0.0157863
790.756	0.0157354
790.834	0.0158242
790.913	0.0159362
790.991	0.0159018
791.069	0.0161570
791.147	0.0163350
791.225	0.0165971
791.303	0.0166872
791.381	0.0168962
791.459	0.0169408
791.538	0.0170887
791.616	0.0171140
791.694	0.0172057
791.772	0.0172186
791.850	0.0170803
791.928	0.0169318
792.006	0.0169870
792.084	0.0166730
792.163	0.0163250
792.241	0.0160719
792.319	0.0158495
792.397	0.0156935
792.475	0.0153948
792.553	0.0151181
792.631	0.0152049
792.709	0.0151460
792.788	0.0150603
792.866	0.0150273
792.944	0.0152249
793.022	0.0153065
793.100	0.0154925
793.178	0.0156433
793.256	0.0159554
793.334	0.0162587
793.413	0.0165641
793.491	0.0166316
793.569	0.0170261
793.647	0.0171301
793.725	0.0173873
793.803	0.0174521
793.881	0.0175530
793.959	0.0177303
794.038	0.0178017
794.116	0.0175688
794.194	0.0175736
794.272	0.0174847
794.350	0.0173822
794.428	0.0171681
794.506	0.0170185
794.584	0.0167648
794.663	0.0162921
794.741	0.0160294
794.819	0.0159026
794.897	0.0156450
794.975	0.0155025
795.053	0.0154566
795.131	0.0152678
795.209	0.0152176
795.288	0.0153687
795.366	0.0154977
795.444	0.0154177
795.522	0.0156721
795.600	0.0158994
795.678	0.0160078
795.756	0.0162133
795.834	0.0162438
795.913	0.0163742
795.991	0.0165516
796.069	0.0166310
796.147	0.0166503
796.225	0.0165984
796.303	0.0166701
796.381	0.0167781
796.459	0.0167514
796.538	0.0166463
796.616	0.0169484
796.694	0.0168632
796.772	0.0167330
796.850	0.0168925
796.928	0.0167948
797.006	0.0169071
797.084	0.0168870
797.163	0.0168336
797.241	0.0169516
797.319	0.0170483
797.397	0.0170860
797.475	0.0171716
797.553	0.0171650
797.631	0.0169315
797.709	0.0169539
797.788	0.0169904
797.866	0.0167798
797.944	0.0166527
798.022	0.0163551
798.100	0.0161173
798.178	0.0160447
798.256	0.0159467
798.334	0.0157844
798.413	0.0156770
798.491	0.0155191
798.569	0.0154864
798.647	0.0155704
798.725	0.0155346
798.803	0.0155768
798.881	0.0156004
798.959	0.0157275
799.038	0.0157402
799.116	0.0157601
799.194	0.0160023
799.272	0.0159393
799.350	0.0157697
799.428	0.0157770
799.506	0.0158908
799.584	0.0159497
799.663	0.0158167
799.741	0.0158981
799.819	0.0161081
799.897	0.0163850
799.975	0.0165368
800.053	0.0166337
800.131	0.0167707
800.209	0.0169305
800.288	0.0171368
800.366	0.0171780
800.444	0.0173583
800.522	0.0174397
800.600	0.0172292
800.678	0.0173544
800.756	0.0171960
800.834	0.0170706
800.913	0.0168759
800.991	0.0167607
801.069	0.0165293
801.147	0.0163818
801.225	0.0160216
801.303	0.0160442
801.381	0.0159280
801.459	0.0156042
801.538	0.0156429
801.616	0.0155664
801.694	0.0157713
801.772	0.0159366
801.850	0.0159415
801.928	0.0159749
802.006	0.0161196
802.084	0.0163097
802.163	0.0164634
802.241	0.0164810
802.319	0.0165665
802.397	0.0166734
802.475	0.0168548
802.553	0.0169385
802.631	0.0170856
802.709	0.0171007
802.788	0.0170825
802.866	0.0169962
802.944	0.0171601
803.022	0.0170884
803.100	0.0169012
803.178	0.0168726
803.256	0.0166829
803.334	0.0166199
803.413	0.0165091
803.491	0.0162155
803.569	0.0161040
803.647	0.0160402
803.725	0.0159820
803.803	0.0159247
803.881	0.0158257
803.959	0.0157854
804.038	0.0159338
804.116	0.0159151
804.194	0.0159810
804.272	0.0160789
804.350	0.0163389
804.428	0.0164910
804.506	0.0165665
804.584	0.0166354
804.663	0.0167171
804.741	0.0165888
804.819	0.0166151
804.897	0.0165784
804.975	0.0164338
805.053	0.0164851
805.131	0.0162214
805.209	0.0162094
805.288	0.0159908
805.366	0.0159666
805.444	0.0159779
805.522	0.0160560
805.600	0.0159778
805.678	0.0162686
805.756	0.0163192
805.834	0.0162295
805.913	0.0162586
805.991	0.0165370
806.069	0.0167107
806.147	0.0167050
806.225	0.0169348
806.303	0.0170216
806.381	0.0171382
806.459	0.0170859
806.538	0.0173133
806.616	0.0171260
806.694	0.0172263
806.772	0.0169379
806.850	0.0169945
806.928	0.0168569
807.006	0.0166151
807.084	0.0164396
807.163	0.0163718
807.241	0.0160333
807.319	0.0158436
807.397	0.0156950
807.475	0.0156905
807.553	0.0157853
807.631	0.0158035
807.709	0.0156693
807.788	0.0156715
807.866	0.0157484
807.944	0.0157856
808.022	0.0158437
808.100	0.0158681
808.178	0.0158779
808.256	0.0158004
808.334	0.0158283
808.413	0.0158524
808.491	0.0159412
808.569	0.0158528
808.647	0.0161500
808.725	0.0162275
808.803	0.0161874
808.881	0.0164836
808.959	0.0167340
809.038	0.0168713
809.116	0.0171269
809.194	0.0170477
809.272	0.0171700
809.350	0.0174053
809.428	0.0175466
809.506	0.0172762
809.584	0.0171670
809.663	0.0168965
809.741	0.0168343
809.819	0.0164934
809.897	0.0162176
809.975	0.0157798
810.053	0.0154566
810.131	0.0153352
810.209	0.0152621
810.288	0.0151063
810.366	0.0150000
810.444	0.0149879
810.522	0.0151211
810.600	0.0151452
810.678	0.0152065
810.756	0.0155407
810.834	0.0157449
810.913	0.0157938
810.991	0.0161226
811.069	0.0164078
811.147	0.0165202
811.225	0.0167470
811.303	0.0167451
811.381	0.0168982
811.459	0.0170271
811.538	0.0171693
811.616	0.0171385
811.694	0.0173462
811.772	0.0172968
811.850	0.0173790
811.928	0.0174556
812.006	0.0174216
812.084	0.0172572
812.163	0.0173393
812.241	0.0172639
812.319	0.0170491
812.397	0.0170683
812.475	0.0170058
812.553	0.0169280
812.631	0.0167661
812.709	0.0165580
812.788	0.0164754
812.866	0.0166230
812.944	0.0164714
813.022	0.0164925
813.100	0.0166336
813.178	0.0165947
813.256	0.0166327
813.334	0.0166180
813.413	0.0166692
813.491	0.0167986
813.569	0.0166397
813.647	0.0166077
813.725	0.0165807
813.803	0.0164725
813.881	0.0163159
813.959	0.0161744
814.038	0.0161627
814.116	0.0160327
814.194	0.0160483
814.272	0.0159347
814.350	0.0159579
814.428	0.0158818
814.506	0.0160355
814.584	0.0160487
814.663	0.0161365
814.741	0.0162041
814.819	0.0159960
814.897	0.0162762
814.975	0.0162922
815.053	0.0163722
815.131	0.0163353
815.209	0.0162325
815.288	0.0164088
815.366	0.0163799
815.444	0.0161028
815.522	0.0161906
815.600	0.0161558
815.678	0.0161659
815.756	0.0161491
815.834	0.0159114
815.913	0.0160300
815.991	0.0157855
816.069	0.0155335
816.147	0.0157062
816.225	0.0157583
816.303	0.0156071
816.381	0.0155858
816.459	0.0157509
816.538	0.0159837
816.616	0.0157748
816.694	0.0160397
816.772	0.0161839
816.850	0.0162056
816.928	0.0161808
817.006	0.0163844
817.084	0.0165016
817.163	0.0163198
817.241	0.0164430
817.319	0.0163827
817.397	0.0163589
817.475	0.0164664
817.553	0.0164433
817.631	0.0165804
817.709	0.0166438
817.788	0.0166630
817.866	0.0168102
817.944	0.0170884
818.022	0.0171803
818.100	0.0171223
818.178	0.0173067
818.256	0.0174086
818.334	0.0173351
818.413	0.0172617
818.491	0.0172182
818.569	0.0169258
818.647	0.0168170
818.725	0.0166637
818.803	0.0165904
818.881	0.0163564
818.959	0.0160344
819.038	0.0160791
819.116	0.0159977
819.194	0.0158444
819.272	0.0157938
819.350	0.0158717
819.428	0.0157792
819.506	0.0159094
819.584	0.0160361
819.663	0.0160918
819.741	0.0161060
819.819	0.0162804
819.897	0.0163309
819.975	0.0163667
820.053	0.0163806
820.131	0.0164102
820.209	0.0164368
820.288	0.0164176
820.366	0.0164684
820.444	0.0163219
820.522	0.0164104
820.600	0.0164827
820.678	0.0165055
820.756	0.0165100
820.834	0.0164131
820.913	0.0164304
820.991	0.0164362
821.069	0.0163851
821.147	0.0164114
821.225	0.0163421
821.303	0.0161959
821.381	0.0160486
821.459	0.0160985
821.538	0.0160371
821.616	0.0158830
821.694	0.0158792
821.772	0.0160133
821.850	0.0160268
821.928	0.0159092
822.006	0.0160439
822.084	0.0162655
822.163	0.0162965
822.241	0.0164294
822.319	0.0163592
822.397	0.0165363
822.475	0.0166051
822.553	0.0166037
822.631	0.0166358
822.709	0.0166652
822.788	0.0166512
822.866	0.0165593
822.944	0.0165434
823.022	0.0165650
823.100	0.0164632
823.178	0.0163905
823.256	0.0165294
823.334	0.0163979
823.413	0.0165482
823.491	0.0166166
823.569	0.0165577
823.647	0.0166536
823.725	0.0167116
823.803	0.0166769
823.881	0.0167500
823.959	0.0166756
824.038	0.0166682
824.116	0.0166879
824.194	0.0167062
824.272	0.0167484
824.350	0.0167595
824.428	0.0165874
824.506	0.0164901
824.584	0.0167133
824.663	0.0166802
824.741	0.0164835
824.819	0.0165016
824.897	0.0164536
824.975	0.0163397
825.053	0.0163131
825.131	0.0163309
825.209	0.0161176
825.288	0.0160506
825.366	0.0159009
825.444	0.0160927
825.522	0.0159268
825.600	0.0160472
825.678	0.0159737
825.756	0.0159196
825.834	0.0158839
825.913	0.0158954
825.991	0.0157458
826.069	0.0159299
826.147	0.0159392
826.225	0.0158803
826.303	0.0157268
826.381	0.0157663
826.459	0.0157198
826.538	0.0157482
826.616	0.0158061
826.694	0.0158846
826.772	0.0161475
826.850	0.0161587
826.928	0.0164166
827.006	0.0165539
827.084	0.0167004
827.163	0.0167097
827.241	0.0168006
827.319	0.0168263
827.397	0.0168364
827.475	0.0167453
827.553	0.0167303
827.631	0.0165968
827.709	0.0165659
827.788	0.0163206
827.866	0.0163598
827.944	0.0163139
828.022	0.0162306
828.100	0.0161652
828.178	0.0160359
828.256	0.0160284
828.334	0.0161927
828.413	0.0161816
828.491	0.0161495
828.569	0.0162773
828.647	0.0162576
828.725	0.0162497
828.803	0.0164529
828.881	0.0164993
828.959	0.0165387
829.038	0.0166684
829.116	0.0166525
829.194	0.0165647
829.272	0.0166634
829.350	0.0168355
829.428	0.0168435
829.506	0.0168105
829.584	0.0168584
829.663	0.0170011
829.741	0.0167933
829.819	0.0168354
829.897	0.0169210
829.975	0.0169349
830.053	0.0169227
830.131	0.0168591
830.209	0.0168034
830.288	0.0167921
830.366	0.0167620
830.444	0.0166217
830.522	0.0164352
830.600	0.0165942
830.678	0.0164214
830.756	0.0163225
830.834	0.0162843
830.913	0.0161597
830.991	0.0161304
831.069	0.0160842
831.147	0.0160646
831.225	0.0160066
831.303	0.0160593
831.381	0.0160284
831.459	0.0161808
831.538	0.0159419
831.616	0.0160172
831.694	0.0159788
831.772	0.0159824
831.850	0.0160116
831.928	0.0159341
832.006	0.0159492
832.084	0.0159061
832.163	0.0158889
832.241	0.0157267
832.319	0.0157868
832.397	0.0157796
832.475	0.0158382
832.553	0.0159216
832.631	0.0160770
832.709	0.0159619
832.788	0.0160578
832.866	0.0160839
832.944	0.0161311
833.022	0.0163533
833.100	0.0161638
833.178	0.0162482
833.256	0.0163335
833.334	0.0162747
833.413	0.0164095
833.491	0.0163644
833.569	0.0164291
833.647	0.0163952
833.725	0.0162592
833.803	0.0164876
833.881	0.0164738
833.959	0.0164291
834.038	0.0164188
834.116	0.0162385
834.194	0.0163546
834.272	0.0164328
834.350	0.0161530
834.428	0.0164017
834.506	0.0164225
834.584	0.0163292
834.663	0.0162135
834.741	0.0163315
834.819	0.0163528
834.897	0.0163853
834.975	0.0163634
835.053	0.0164830
835.131	0.0163095
835.209	0.0164230
835.288	0.0166781
835.366	0.0166022
835.444	0.0165845
835.522	0.0166658
835.600	0.0167850
835.678	0.0168996
835.756	0.0170284
835.834	0.0171777
835.913	0.0171741
835.991	0.0172617
836.069	0.0173109
836.147	0.0173748
836.225	0.0174242
836.303	0.0173042
836.381	0.0173252
836.459	0.0171955
836.538	0.0170071
836.616	0.0169530
836.694	0.0168029
836.772	0.0167141
836.850	0.0165543
836.928	0.0163127
837.006	0.0162560
837.084	0.0161309
837.163	0.0160378
837.241	0.0158004
837.319	0.0158314
837.397	0.0158691
837.475	0.0156937
837.553	0.0157253
837.631	0.0157166
837.709	0.0157742
837.788	0.0158018
837.866	0.0159180
837.944	0.0161266
838.022	0.0160316
838.100	0.0161504
838.178	0.0162184
838.256	0.0162887
838.334	0.0162289
838.413	0.0164114
838.491	0.0163515
838.569	0.0164240
838.647	0.0165084
838.725	0.0166393
838.803	0.0165329
838.881	0.0166375
838.959	0.0165569
839.038	0.0166754
839.116	0.0166573
839.194	0.0167351
839.272	0.0165144
839.350	0.0167036
839.428	0.0165168
839.506	0.0165620
839.584	0.0163750
839.663	0.0162789
839.741	0.0161814
839.819	0.0161489
839.897	0.0160193
839.975	0.0159384
840.053	0.0160234
840.131	0.0160440
840.209	0.0159778
840.288	0.0159411
840.366	0.0160505
840.444	0.0160551
840.522	0.0160622
840.600	0.0161389
840.678	0.0162620
840.756	0.0163989
840.834	0.0162406
840.913	0.0163532
840.991	0.0164004
841.069	0.0162485
841.147	0.0163679
841.225	0.0164608
841.303	0.0165063
841.381	0.0162698
841.459	0.0163111
841.538	0.0164981
841.616	0.0163257
841.694	0.0165614
841.772	0.0164197
841.850	0.0165708
841.928	0.0162761
842.006	0.0165456
842.084	0.0165540
842.163	0.0164880
842.241	0.0166154
842.319	0.0164640
842.397	0.0165738
842.475	0.0165184
842.553	0.0166190
842.631	0.0165180
842.709	0.0165107
842.788	0.0165090
842.866	0.0165078
842.944	0.0165115
843.022	0.0164441
843.100	0.0164363
843.178	0.0166003
843.256	0.0164284
843.334	0.0164156
843.413	0.0164236
843.491	0.0164617
843.569	0.0164019
843.647	0.0165038
843.725	0.0164738
843.803	0.0162688
843.881	0.0164561
843.959	0.0164510
844.038	0.0163670
844.116	0.0163128
844.194	0.0164377
844.272	0.0163531
844.350	0.0165441
844.428	0.0164928
844.506	0.0165481
844.584	0.0166276
844.663	0.0164851
844.741	0.0166074
844.819	0.0167101
844.897	0.0166176
844.975	0.0166673
845.053	0.0166985
845.131	0.0166240
845.209	0.0165843
845.288	0.0166437
845.366	0.0165501
845.444	0.0165143
845.522	0.0165565
845.600	0.0165944
845.678	0.0163844
845.756	0.0163649
845.834	0.0163072
845.913	0.0162437
845.991	0.0162025
846.069	0.0163235
846.147	0.0160843
846.225	0.0160930
846.303	0.0160075
846.381	0.0160555
846.459	0.0160675
846.538	0.0160971
846.616	0.0160851
846.694	0.0160099
846.772	0.0161787
846.850	0.0161035
846.928	0.0160854
847.006	0.0161699
847.084	0.0161566
847.163	0.0160255
847.241	0.0162048
847.319	0.0160878
847.397	0.0161562
847.475	0.0160698
847.553	0.0161170
847.631	0.0160533
847.709	0.0161530
847.788	0.0162726
847.866	0.0161267
847.944	0.0162186
848.022	0.0161481
848.100	0.0162206
848.178	0.0163356
848.256	0.0162522
848.334	0.0163551
848.413	0.0161785
848.491	0.0161702
848.569	0.0161268
848.647	0.0162072
848.725	0.0161831
848.803	0.0159354
848.881	0.0160377
848.959	0.0160607
849.038	0.0161327
849.116	0.0161290
849.194	0.0161437
849.272	0.0161304
849.350	0.0161643
849.428	0.0162766
849.506	0.0163476
849.584	0.0165166
849.663	0.0163692
849.741	0.0163956
849.819	0.0165808
849.897	0.0166143
849.975	0.0166354
850.053	0.0167298
850.131	0.0166271
850.209	0.0164982
850.288	0.0165772
850.366	0.0165412
850.444	0.0164951
850.522	0.0164049
850.600	0.0164000
850.678	0.0164066
850.756	0.0163053
850.834	0.0164138
850.913	0.0164767
850.991	0.0163412
851.069	0.0163166
851.147	0.0162731
851.225	0.0164428
851.303	0.0164630
851.381	0.0162727
851.459	0.0163332
851.538	0.0165131
851.616	0.0165396
851.694	0.0163437
851.772	0.0164389
851.850	0.0163314
851.928	0.0162212
852.006	0.0163239
852.084	0.0163535
852.163	0.0164799
852.241	0.0163776
852.319	0.0162659
852.397	0.0161679
852.475	0.0162395
852.553	0.0161131
852.631	0.0163057
852.709	0.0163680
852.788	0.0160949
852.866	0.0161060
852.944	0.0161821
853.022	0.0162082
853.100	0.0161642
853.178	0.0161665
853.256	0.0162095
853.334	0.0163046
853.413	0.0163423
853.491	0.0163092
853.569	0.0163570
853.647	0.0164024
853.725	0.0165037
853.803	0.0166426
853.881	0.0167693
853.959	0.0167565
854.038	0.0166293
854.116	0.0167359
854.194	0.0167645
854.272	0.0167501
854.350	0.0170544
854.428	0.0169809
854.506	0.0169689
854.584	0.0168779
854.663	0.0168510
854.741	0.0167982
854.819	0.0168769
854.897	0.0166827
854.975	0.0165988
855.053	0.0165089
855.131	0.0164540
855.209	0.0164365
855.288	0.0162616
855.366	0.0162274
855.444	0.0161171
855.522	0.0160896
855.600	0.0159906
855.678	0.0159685
855.756	0.0158383
855.834	0.0159487
855.913	0.0159492
855.991	0.0159595
856.069	0.0158542
856.147	0.0158467
856.225	0.0159811
856.303	0.0159605
856.381	0.0158456
856.459	0.0160017
856.538	0.0158780
856.616	0.0160968
856.694	0.0161599
856.772	0.0163091
856.850	0.0164205
856.928	0.0164288
857.006	0.0164613
857.084	0.0165023
857.163	0.0166589
857.241	0.0165960
857.319	0.0167687
857.397	0.0167262
857.475	0.0167290
857.553	0.0166235
857.631	0.0165459
857.709	0.0165917
857.788	0.0164230
857.866	0.0163686
857.944	0.0164732
858.022	0.0162625
858.100	0.0162095
858.178	0.0163184
858.256	0.0161212
858.334	0.0162283
858.413	0.0164503
858.491	0.0163425
858.569	0.0164217
858.647	0.0164787
858.725	0.0163784
858.803	0.0165651
858.881	0.0166422
858.959	0.0167563
859.038	0.0167039
859.116	0.0166625
859.194	0.0166883
859.272	0.0166630
859.350	0.0166321
859.428	0.0165764
859.506	0.0164330
859.584	0.0166577
859.663	0.0165363
859.741	0.0165538
859.819	0.0165376
859.897	0.0166131
859.975	0.0164994
860.053	0.0165889
860.131	0.0165421
860.209	0.0165765
860.288	0.0165443
860.366	0.0166452
860.444	0.0166489
860.522	0.0165955
860.600	0.0166881
860.678	0.0165180
860.756	0.0165510
860.834	0.0166513
860.913	0.0166321
860.991	0.0166747
861.069	0.0165885
861.147	0.0164828
861.225	0.0164401
861.303	0.0163926
861.381	0.0163327
861.459	0.0162743
861.538	0.0163816
861.616	0.0161733
861.694	0.0161770
861.772	0.0160596
861.850	0.0159528
861.928	0.0158250
862.006	0.0159450
862.084	0.0160880
862.163	0.0159496
862.241	0.0160744
862.319	0.0159646
862.397	0.0159431
862.475	0.0161095
862.553	0.0160008
862.631	0.0160913
862.709	0.0159867
862.788	0.0160672
862.866	0.0162231
862.944	0.0162229
863.022	0.0161426
863.100	0.0162361
863.178	0.0162179
863.256	0.0162946
863.334	0.0162034
863.413	0.0161526
863.491	0.0162080
863.569	0.0164062
863.647	0.0164429
863.725	0.0163539
863.803	0.0163454
863.881	0.0164120
863.959	0.0163049
864.038	0.0162787
864.116	0.0162245
864.194	0.0161551
864.272	0.0163362
864.350	0.0161327
864.428	0.0161446
864.506	0.0162582
864.584	0.0161487
864.663	0.0162174
864.741	0.0161963
864.819	0.0161807
864.897	0.0163976
864.975	0.0162486
865.053	0.0165749
865.131	0.0163844
865.209	0.0165334
865.288	0.0164798
865.366	0.0164288
865.444	0.0166196
865.522	0.0167555
865.600	0.0166080
865.678	0.0164763
865.756	0.0168066
865.834	0.0166370
865.913	0.0169258
865.991	0.0167429
866.069	0.0167959
866.147	0.0168803
866.225	0.0167657
866.303	0.0166546
866.381	0.0167360
866.459	0.0167561
866.538	0.0167558
866.616	0.0167195
866.694	0.0165929
866.772	0.0165645
866.850	0.0164868
866.928	0.0164059
867.006	0.0162418
867.084	0.0162787
867.163	0.0162443
867.241	0.0161229
867.319	0.0160423
867.397	0.0161356
867.475	0.0160823
867.553	0.0160363
867.631	0.0162124
867.709	0.0162300
867.788	0.0162937
867.866	0.0162062
867.944	0.0162628
868.022	0.0162598
868.100	0.0164584
868.178	0.0165240
868.256	0.0165298
868.334	0.0163524
868.413	0.0164441
868.491	0.0165053
868.569	0.0163354
868.647	0.0164022
868.725	0.0163443
868.803	0.0162849
868.881	0.0161968
868.959	0.0161826
869.038	0.0161407
869.116	0.0161149
869.194	0.0163321
869.272	0.0162273
869.350	0.0162280
869.428	0.0162988
869.506	0.0163555
869.584	0.0163448
869.663	0.0162883
869.741	0.0164352
869.819	0.0164349
869.897	0.0164204
869.975	0.0164841
870.053	0.0164417
870.131	0.0165249
870.209	0.0165469
870.288	0.0165900
870.366	0.0164847
870.444	0.0164459
870.522	0.0163917
870.600	0.0166676
870.678	0.0164696
870.756	0.0163664
870.834	0.0163483
870.913	0.0163256
870.991	0.0163608
871.069	0.0164138
871.147	0.0162971
871.225	0.0163298
871.303	0.0163697
871.381	0.0162130
871.459	0.0162012
871.538	0.0161829
871.616	0.0161689
871.694	0.0162142
871.772	0.0162025
871.850	0.0162474
871.928	0.0160265
872.006	0.0161195
872.084	0.0160123
872.163	0.0162534
872.241	0.0162293
872.319	0.0161950
872.397	0.0163396
872.475	0.0163785
872.553	0.0164195
872.631	0.0162257
872.709	0.0165413
872.788	0.0166711
872.866	0.0165688
872.944	0.0164773
873.022	0.0165979
873.100	0.0165839
873.178	0.0164354
873.256	0.0163946
873.334	0.0162124
873.413	0.0162113
873.491	0.0162594
873.569	0.0161829
873.647	0.0161031
873.725	0.0160442
873.803	0.0160242
873.881	0.0160596
873.959	0.0160226
874.038	0.0159447
874.116	0.0159690
874.194	0.0159505
874.272	0.0160378
874.350	0.0161044
874.428	0.0161741
874.506	0.0163368
874.584	0.0162988
874.663	0.0164088
874.741	0.0162618
874.819	0.0166312
874.897	0.0164696
874.975	0.0165481
875.053	0.0164975
875.131	0.0167877
875.209	0.0168160
875.288	0.0166731
875.366	0.0168538
875.444	0.0167315
875.522	0.0167476
875.600	0.0167799
875.678	0.0167815
875.756	0.0169065
875.834	0.0168073
875.913	0.0168053
875.991	0.0167581
876.069	0.0167457
876.147	0.0167114
876.225	0.0167085
876.303	0.0166185
876.381	0.0165806
876.459	0.0166501
876.538	0.0165960
876.616	0.0165916
876.694	0.0166240
876.772	0.0165049
876.850	0.0165485
876.928	0.0166456
877.006	0.0165189
877.084	0.0165195
877.163	0.0164491
877.241	0.0164158
877.319	0.0163448
877.397	0.0163477
877.475	0.0161657
877.553	0.0162756
877.631	0.0162991
877.709	0.0161689
877.788	0.0161788
877.866	0.0161444
877.944	0.0160487
878.022	0.0161112
878.100	0.0160798
878.178	0.0161102
878.256	0.0160642
878.334	0.0162625
878.413	0.0162469
878.491	0.0162224
878.569	0.0161776
878.647	0.0163046
878.725	0.0163363
878.803	0.0164568
878.881	0.0164593
878.959	0.0165681
879.038	0.0167249
879.116	0.0165912
879.194	0.0165907
879.272	0.0166033
879.350	0.0164336
879.428	0.0164861
879.506	0.0165728
879.584	0.0164546
879.663	0.0164453
879.741	0.0164144
879.819	0.0163602
879.897	0.0162203
879.975	0.0162087
880.053	0.0161378
880.131	0.0161777
880.209	0.0162411
880.288	0.0162131
880.366	0.0160617
880.444	0.0161758
880.522	0.0159842
880.600	0.0161947
880.678	0.0161761
880.756	0.0160973
880.834	0.0161019
880.913	0.0162263
880.991	0.0161842
881.069	0.0162893
881.147	0.0162248
881.225	0.0163593
881.303	0.0163808
881.381	0.0164671
881.459	0.0164829
881.538	0.0165774
881.616	0.0164948
881.694	0.0165646
881.772	0.0166920
881.850	0.0167684
881.928	0.0166871
882.006	0.0167110
882.084	0.0167564
882.163	0.0168224
882.241	0.0167657
882.319	0.0168032
882.397	0.0166903
882.475	0.0166702
882.553	0.0165523
882.631	0.0165605
882.709	0.0162642
882.788	0.0162426
882.866	0.0161837
882.944	0.0162538
883.022	0.0161282
883.100	0.0161266
883.178	0.0160435
883.256	0.0160058
883.334	0.0161218
883.413	0.0161557
883.491	0.0161726
883.569	0.0163016
883.647	0.0162606
883.725	0.0161949
883.803	0.0163732
883.881	0.0165028
883.959	0.0165008
884.038	0.0166457
884.116	0.0167061
884.194	0.0165692
884.272	0.0168319
884.350	0.0167701
884.428	0.0168976
884.506	0.0169024
884.584	0.0167980
884.663	0.0169324
884.741	0.0168072
884.819	0.0168508
884.897	0.0166377
884.975	0.0165373
885.053	0.0164928
885.131	0.0165530
885.209	0.0163175
885.288	0.0161411
885.366	0.0160669
885.444	0.0160892
885.522	0.0160119
885.600	0.0159763
885.678	0.0160630
885.756	0.0159396
885.834	0.0160384
885.913	0.0160685
885.991	0.0160201
886.069	0.0160491
886.147	0.0160445
886.225	0.0161121
886.303	0.0162483
886.381	0.0160635
886.459	0.0161239
886.538	0.0163138
886.616	0.0162975
886.694	0.0161788
886.772	0.0161279
886.850	0.0161856
886.928	0.0160290
887.006	0.0161485
887.084	0.0160846
887.163	0.0161440
887.241	0.0161043
887.319	0.0160184
887.397	0.0162080
887.475	0.0161891
887.553	0.0162019
887.631	0.0163333
887.709	0.0164456
887.788	0.0164072
887.866	0.0165701
887.944	0.0165812
888.022	0.0166876
888.100	0.0167793
888.178	0.0167738
888.256	0.0168603
888.334	0.0166620
888.413	0.0167175
888.491	0.0166161
888.569	0.0167400
888.647	0.0167303
888.725	0.0165102
888.803	0.0164942
888.881	0.0163963
888.959	0.0164097
889.038	0.0164078
889.116	0.0162580
889.194	0.0161385
889.272	0.0162098
889.350	0.0162221
889.428	0.0161951
889.506	0.0161081
889.584	0.0161223
889.663	0.0162556
889.741	0.0161198
889.819	0.0162301
889.897	0.0162408
889.975	0.0160214
890.053	0.0161573
890.131	0.0161638
890.209	0.0161572
890.288	0.0161608
890.366	0.0162003
890.444	0.0162527
890.522	0.0162772
890.600	0.0162399
890.678	0.0163702
890.756	0.0164095
890.834	0.0163816
890.913	0.0163678
890.991	0.0164483
891.069	0.0163411
891.147	0.0165773
891.225	0.0166367
891.303	0.0165214
891.381	0.0165141
891.459	0.0166209
891.538	0.0166875
891.616	0.0166512
891.694	0.0168180
891.772	0.0165345
891.850	0.0165671
891.928	0.0164943
892.006	0.0165575
892.084	0.0164047
892.163	0.0163235
892.241	0.0164786
892.319	0.0163122
892.397	0.0163601
892.475	0.0163360
892.553	0.0162507
892.631	0.0161797
892.709	0.0161811
892.788	0.0161850
892.866	0.0161825
892.944	0.0162001
893.022	0.0162148
893.100	0.0163363
893.178	0.0161386
893.256	0.0161475
893.334	0.0161476
893.413	0.0161790
893.491	0.0162798
893.569	0.0162035
893.647	0.0161276
893.725	0.0161355
893.803	0.0161458
893.881	0.0162180
893.959	0.0163972
894.038	0.0162433
894.116	0.0162206
894.194	0.0164850
894.272	0.0164019
894.350	0.0163998
894.428	0.0164476
894.506	0.0163692
894.584	0.0162926
894.663	0.0164389
894.741	0.0164999
894.819	0.0163052
894.897	0.0162926
894.975	0.0161707
895.053	0.0163404
895.131	0.0164443
895.209	0.0163304
895.288	0.0164329
895.366	0.0164812
895.444	0.0165387
895.522	0.0164275
895.600	0.0164458
895.678	0.0165127
895.756	0.0164691
895.834	0.0162759
895.913	0.0163362
895.991	0.0161662
896.069	0.0160349
896.147	0.0161365
896.225	0.0162330
896.303	0.0163373
896.381	0.0162363
896.459	0.0161190
896.538	0.0161848
896.616	0.0161803
896.694	0.0162656
896.772	0.0164638
896.850	0.0164568
896.928	0.0166167
897.006	0.0165653
897.084	0.0166154
897.163	0.0165780
897.241	0.0166280
897.319	0.0165169
897.397	0.0166161
897.475	0.0165767
897.553	0.0166666
897.631	0.0166869
897.709	0.0166252
897.788	0.0164993
897.866	0.0166380
897.944	0.0165141
898.022	0.0165719
898.100	0.0165295
898.178	0.0166229
898.256	0.0165759
898.334	0.0163037
898.413	0.0163949
898.491	0.0163020
898.569	0.0163639
898.647	0.0163560
898.725	0.0161911
898.803	0.0162535
898.881	0.0162219
898.959	0.0163308
899.038	0.0163076
899.116	0.0162621
899.194	0.0163676
899.272	0.0164474
899.350	0.0164090
899.428	0.0164222
899.506	0.0164915
899.584	0.0165321
899.663	0.0166679
899.741	0.0166039
899.819	0.0164801
899.897	0.0167880
899.975	0.0167285
900.053	0.0166916
900.131	0.0166398
900.209	0.0167943
900.288	0.0168013
900.366	0.0166589
900.444	0.0168024
900.522	0.0168366
900.600	0.0166701
900.678	0.0168402
900.756	0.0167216
900.834	0.0166308
900.913	0.0165118
900.991	0.0165025
901.069	0.0164943
901.147	0.0163055
901.225	0.0162838
901.303	0.0164107
901.381	0.0162803
901.459	0.0161434
901.538	0.0160835
901.616	0.0161323
901.694	0.0161484
901.772	0.0160969
901.850	0.0161946
901.928	0.0160973
902.006	0.0162642
902.084	0.0161568
902.163	0.0162459
902.241	0.0163445
902.319	0.0162614
902.397	0.0164618
902.475	0.0164967
902.553	0.0165582
902.631	0.0166803
902.709	0.0166158
902.788	0.0168069
902.866	0.0169149
902.944	0.0168442
903.022	0.0168766
903.100	0.0169926
903.178	0.0170802
903.256	0.0169492
903.334	0.0168203
903.413	0.0169245
903.491	0.0168678
903.569	0.0167860
903.647	0.0167580
903.725	0.0166216
903.803	0.0165773
903.881	0.0165353
903.959	0.0164383
904.038	0.0163696
904.116	0.0164076
904.194	0.0164011
904.272	0.0163068
904.350	0.0162235
904.428	0.0163930
904.506	0.0162624
904.584	0.0162083
904.663	0.0163825
904.741	0.0162450
904.819	0.0163540
904.897	0.0163661
904.975	0.0163118
905.053	0.0162754
905.131	0.0164133
905.209	0.0162965
905.288	0.0164288
905.366	0.0163241
905.444	0.0162124
905.522	0.0163654
905.600	0.0164185
905.678	0.0163976
905.756	0.0162313
905.834	0.0163867
905.913	0.0163158
905.991	0.0163713
906.069	0.0163918
906.147	0.0162036
906.225	0.0163474
906.303	0.0164323
906.381	0.0164339
906.459	0.0164521
906.538	0.0163808
906.616	0.0164597
906.694	0.0163364
906.772	0.0164015
906.850	0.0165362
906.928	0.0163848
907.006	0.0163500
907.084	0.0163241
907.163	0.0161543
907.241	0.0163857
907.319	0.0164712
907.397	0.0161742
907.475	0.0163689
907.553	0.0163593
907.631	0.0162205
907.709	0.0163473
907.788	0.0164002
907.866	0.0162835
907.944	0.0163188
908.022	0.0162948
908.100	0.0163499
908.178	0.0162641
908.256	0.0163998
908.334	0.0162831
908.413	0.0163875
908.491	0.0162766
908.569	0.0161378
908.647	0.0161950
908.725	0.0161916
908.803	0.0162003
908.881	0.0161275
908.959	0.0160239
909.038	0.0161909
909.116	0.0162315
909.194	0.0163857
909.272	0.0162434
909.350	0.0162224
909.428	0.0162943
909.506	0.0164344
909.584	0.0164578
909.663	0.0165245
909.741	0.0166254
909.819	0.0166710
909.897	0.0166000
909.975	0.0166164
910.053	0.0166564
910.131	0.0166578
910.209	0.0165568
910.288	0.0164706
910.366	0.0163767
910.444	0.0162905
910.522	0.0163386
910.600	0.0162468
910.678	0.0163009
910.756	0.0161195
910.834	0.0161709
910.913	0.0160736
910.991	0.0162304
911.069	0.0160612
911.147	0.0160497
911.225	0.0160940
911.303	0.0160137
911.381	0.0160860
911.459	0.0161289
911.538	0.0160966
911.616	0.0162187
911.694	0.0163815
911.772	0.0163088
911.850	0.0163002
911.928	0.0163269
912.006	0.0163918
912.084	0.0164323
912.163	0.0163249
912.241	0.0164936
912.319	0.0165828
912.397	0.0165505
912.475	0.0165006
912.553	0.0164574
912.631	0.0163798
912.709	0.0162981
912.788	0.0162172
912.866	0.0162549
912.944	0.0162187
913.022	0.0161168
913.100	0.0161844
913.178	0.0162274
913.256	0.0161163
913.334	0.0161396
913.413	0.0162445
913.491	0.0162374
913.569	0.0163528
913.647	0.0161798
913.725	0.0162595
913.803	0.0164313
913.881	0.0165938
913.959	0.0164973
914.038	0.0163347
914.116	0.0164321
914.194	0.0162911
914.272	0.0164944
914.350	0.0163062
914.428	0.0164182
914.506	0.0163563
914.584	0.0162215
914.663	0.0163123
914.741	0.0163503
914.819	0.0163973
914.897	0.0163476
914.975	0.0164026
915.053	0.0163860
915.131	0.0162907
915.209	0.0161714
915.288	0.0162744
915.366	0.0163348
915.444	0.0161500
915.522	0.0162467
915.600	0.0162273
915.678	0.0160789
915.756	0.0161635
915.834	0.0163438
915.913	0.0164137
915.991	0.0162709
916.069	0.0163444
916.147	0.0163102
916.225	0.0163211
916.303	0.0164558
916.381	0.0164540
916.459	0.0164294
916.538	0.0163937
916.616	0.0164419
916.694	0.0164385
916.772	0.0162257
916.850	0.0164108
916.928	0.0164233
917.006	0.0162218
917.084	0.0163178
917.163	0.0163553
917.241	0.0162753
917.319	0.0163746
917.397	0.0163286
917.475	0.0163586
917.553	0.0163714
917.631	0.0166157
917.709	0.0165677
917.788	0.0164107
917.866	0.0165144
917.944	0.0163268
918.022	0.0163390
918.100	0.0164466
918.178	0.0164684
918.256	0.0165681
918.334	0.0166259
918.413	0.0165037
918.491	0.0164774
918.569	0.0164692
918.647	0.0165638
918.725	0.0166006
918.803	0.0166073
918.881	0.0166923
918.959	0.0166121
919.038	0.0166271
919.116	0.0164917
919.194	0.0165135
919.272	0.0163966
919.350	0.0163257
919.428	0.0163602
919.506	0.0162948
919.584	0.0163838
919.663	0.0164365
919.741	0.0162220
919.819	0.0161800
919.897	0.0161234
