05/20/2022	21:03:08	Ver.	4.1	UNKNOWN
Optical Delay	599.975067	Delta X		0.078125	Sweeps	1	Scan Rate	0/0
Coordinates	Axis 1	NaN	Axis 2	NaN	Axis 3	NaN	Axis 4	NaN	Axis 5	NaN	Axis 6	0.000000
TX Power	0.000000	RX Power	0.000000

599.975	0.0164561
600.053	0.0164832
600.131	0.0164098
600.209	0.0165602
600.288	0.0165083
600.366	0.0164830
600.444	0.0164005
600.522	0.0163067
600.600	0.0163242
600.678	0.0164831
600.756	0.0163844
600.834	0.0164107
600.913	0.0164609
600.991	0.0163119
601.069	0.0163700
601.147	0.0164349
601.225	0.0163365
601.303	0.0163283
601.381	0.0163292
601.459	0.0163565
601.538	0.0163347
601.616	0.0163367
601.694	0.0163562
601.772	0.0162590
601.850	0.0163392
601.928	0.0162946
602.006	0.0162904
602.084	0.0163300
602.163	0.0163078
602.241	0.0163695
602.319	0.0162080
602.397	0.0161576
602.475	0.0163342
602.553	0.0161451
602.631	0.0162440
602.709	0.0161909
602.788	0.0162687
602.866	0.0161582
602.944	0.0163101
603.022	0.0163242
603.100	0.0161172
603.178	0.0161920
603.256	0.0162207
603.334	0.0160563
603.413	0.0160439
603.491	0.0162668
603.569	0.0162701
603.647	0.0161926
603.725	0.0161812
603.803	0.0161853
603.881	0.0162323
603.959	0.0161323
604.038	0.0161310
604.116	0.0162108
604.194	0.0162650
604.272	0.0161077
604.350	0.0162135
604.428	0.0162083
604.506	0.0160336
604.584	0.0160642
604.663	0.0161356
604.741	0.0161308
604.819	0.0161552
604.897	0.0163107
604.975	0.0162378
605.053	0.0161539
605.131	0.0161806
605.209	0.0162142
605.288	0.0161642
605.366	0.0161462
605.444	0.0162034
605.522	0.0161974
605.600	0.0161450
605.678	0.0161697
605.756	0.0162067
605.834	0.0162797
605.913	0.0162138
605.991	0.0161343
606.069	0.0161488
606.147	0.0162331
606.225	0.0163099
606.303	0.0161411
606.381	0.0161151
606.459	0.0162321
606.538	0.0162918
606.616	0.0160603
606.694	0.0160181
606.772	0.0161485
606.850	0.0161081
606.928	0.0161915
607.006	0.0162329
607.084	0.0161558
607.163	0.0162061
607.241	0.0162607
607.319	0.0160828
607.397	0.0161940
607.475	0.0160744
607.553	0.0161986
607.631	0.0162451
607.709	0.0162920
607.788	0.0162615
607.866	0.0160976
607.944	0.0162291
608.022	0.0162605
608.100	0.0162693
608.178	0.0162920
608.256	0.0161852
608.334	0.0162432
608.413	0.0163107
608.491	0.0163184
608.569	0.0163116
608.647	0.0161948
608.725	0.0163164
608.803	0.0163039
608.881	0.0162828
608.959	0.0164211
609.038	0.0163335
609.116	0.0163522
609.194	0.0162836
609.272	0.0163644
609.350	0.0162730
609.428	0.0162379
609.506	0.0163496
609.584	0.0162454
609.663	0.0163232
609.741	0.0162534
609.819	0.0162523
609.897	0.0163038
609.975	0.0163539
610.053	0.0164395
610.131	0.0163191
610.209	0.0163301
610.288	0.0163738
610.366	0.0163649
610.444	0.0163387
610.522	0.0161744
610.600	0.0163402
610.678	0.0163626
610.756	0.0161369
610.834	0.0164363
610.913	0.0164314
610.991	0.0163627
611.069	0.0162895
611.147	0.0164144
611.225	0.0164173
611.303	0.0164611
611.381	0.0162682
611.459	0.0163528
611.538	0.0163601
611.616	0.0163284
611.694	0.0164616
611.772	0.0165488
611.850	0.0163322
611.928	0.0162200
612.006	0.0163590
612.084	0.0163596
612.163	0.0163767
612.241	0.0165343
612.319	0.0164130
612.397	0.0163918
612.475	0.0164297
612.553	0.0165626
612.631	0.0164510
612.709	0.0164214
612.788	0.0164690
612.866	0.0163300
612.944	0.0165456
613.022	0.0164787
613.100	0.0164346
613.178	0.0165813
613.256	0.0163886
613.334	0.0163938
613.413	0.0164188
613.491	0.0165214
613.569	0.0165421
613.647	0.0165004
613.725	0.0164476
613.803	0.0166790
613.881	0.0166512
613.959	0.0163232
614.038	0.0163290
614.116	0.0165087
614.194	0.0164252
614.272	0.0164836
614.350	0.0164648
614.428	0.0165084
614.506	0.0164616
614.584	0.0164316
614.663	0.0165232
614.741	0.0164703
614.819	0.0164947
614.897	0.0164503
614.975	0.0166232
615.053	0.0164687
615.131	0.0163887
615.209	0.0164507
615.288	0.0165996
615.366	0.0164758
615.444	0.0165012
615.522	0.0165624
615.600	0.0163696
615.678	0.0163929
615.756	0.0165738
615.834	0.0165681
615.913	0.0165538
615.991	0.0164609
616.069	0.0164535
616.147	0.0166723
616.225	0.0164840
616.303	0.0165202
616.381	0.0165362
616.459	0.0164798
616.538	0.0163773
616.616	0.0164329
616.694	0.0164230
616.772	0.0165134
616.850	0.0166904
616.928	0.0164419
617.006	0.0163082
617.084	0.0163898
617.163	0.0165724
617.241	0.0164924
617.319	0.0163882
617.397	0.0164534
617.475	0.0164422
617.553	0.0164219
617.631	0.0165053
617.709	0.0164526
617.788	0.0163726
617.866	0.0164698
617.944	0.0163643
618.022	0.0164433
618.100	0.0164999
618.178	0.0164432
618.256	0.0164153
618.334	0.0162411
618.413	0.0164058
618.491	0.0164581
618.569	0.0163658
618.647	0.0164420
618.725	0.0165670
618.803	0.0163443
618.881	0.0163934
618.959	0.0164909
619.038	0.0163594
619.116	0.0164790
619.194	0.0164794
619.272	0.0164766
619.350	0.0164104
619.428	0.0163795
619.506	0.0164155
619.584	0.0164474
619.663	0.0164106
619.741	0.0163550
619.819	0.0166109
619.897	0.0165059
619.975	0.0165835
620.053	0.0165897
620.131	0.0164758
620.209	0.0164608
620.288	0.0164775
620.366	0.0164334
620.444	0.0166114
620.522	0.0165277
620.600	0.0164356
620.678	0.0164475
620.756	0.0164219
620.834	0.0164442
620.913	0.0165130
620.991	0.0164616
621.069	0.0164342
621.147	0.0164676
621.225	0.0164204
621.303	0.0163823
621.381	0.0165141
621.459	0.0164011
621.538	0.0164828
621.616	0.0166322
621.694	0.0163653
621.772	0.0163953
621.850	0.0164523
621.928	0.0163951
622.006	0.0164185
622.084	0.0163841
622.163	0.0163805
622.241	0.0162900
622.319	0.0165408
622.397	0.0164090
622.475	0.0164274
622.553	0.0164281
622.631	0.0163576
622.709	0.0163228
622.788	0.0163208
622.866	0.0163683
622.944	0.0164213
623.022	0.0163390
623.100	0.0164679
623.178	0.0164232
623.256	0.0164267
623.334	0.0163853
623.413	0.0163719
623.491	0.0166162
623.569	0.0165369
623.647	0.0163776
623.725	0.0164928
623.803	0.0163853
623.881	0.0164127
623.959	0.0163844
624.038	0.0162913
624.116	0.0163200
624.194	0.0163544
624.272	0.0162502
624.350	0.0163100
624.428	0.0163796
624.506	0.0164088
624.584	0.0163271
624.663	0.0164973
624.741	0.0162896
624.819	0.0162930
624.897	0.0163933
624.975	0.0165082
625.053	0.0164925
625.131	0.0164520
625.209	0.0163823
625.288	0.0164180
625.366	0.0164679
625.444	0.0163982
625.522	0.0164093
625.600	0.0164541
625.678	0.0164057
625.756	0.0163269
625.834	0.0162277
625.913	0.0162485
625.991	0.0162609
626.069	0.0162016
626.147	0.0161834
626.225	0.0162506
626.303	0.0163168
626.381	0.0163760
626.459	0.0162533
626.538	0.0162608
626.616	0.0163351
626.694	0.0163428
626.772	0.0162791
626.850	0.0163931
626.928	0.0163478
627.006	0.0162592
627.084	0.0162213
627.163	0.0162842
627.241	0.0162599
627.319	0.0162779
627.397	0.0163052
627.475	0.0162054
627.553	0.0162753
627.631	0.0162643
627.709	0.0163500
627.788	0.0162939
627.866	0.0162097
627.944	0.0162296
628.022	0.0163071
628.100	0.0163271
628.178	0.0162629
628.256	0.0162357
628.334	0.0162342
628.413	0.0162005
628.491	0.0162425
628.569	0.0163734
628.647	0.0163550
628.725	0.0163328
628.803	0.0162038
628.881	0.0163172
628.959	0.0161987
629.038	0.0162682
629.116	0.0162702
629.194	0.0162749
629.272	0.0162843
629.350	0.0164130
629.428	0.0162953
629.506	0.0162521
629.584	0.0162666
629.663	0.0161958
629.741	0.0162984
629.819	0.0162114
629.897	0.0163190
629.975	0.0163977
630.053	0.0163111
630.131	0.0163803
630.209	0.0164799
630.288	0.0163532
630.366	0.0163061
630.444	0.0163924
630.522	0.0162952
630.600	0.0163142
630.678	0.0162234
630.756	0.0162316
630.834	0.0162170
630.913	0.0162094
630.991	0.0162688
631.069	0.0161919
631.147	0.0161979
631.225	0.0163982
631.303	0.0163431
631.381	0.0162399
631.459	0.0162615
631.538	0.0163821
631.616	0.0161871
631.694	0.0162629
631.772	0.0163210
631.850	0.0162609
631.928	0.0162992
632.006	0.0163673
632.084	0.0162656
632.163	0.0162873
632.241	0.0162251
632.319	0.0162358
632.397	0.0162411
632.475	0.0163250
632.553	0.0163094
632.631	0.0162932
632.709	0.0162435
632.788	0.0162196
632.866	0.0163297
632.944	0.0162801
633.022	0.0162325
633.100	0.0162741
633.178	0.0162794
633.256	0.0162273
633.334	0.0163156
633.413	0.0163811
633.491	0.0163554
633.569	0.0162144
633.647	0.0163724
633.725	0.0162076
633.803	0.0164092
633.881	0.0163176
633.959	0.0163255
634.038	0.0164870
634.116	0.0162096
634.194	0.0163528
634.272	0.0164411
634.350	0.0164152
634.428	0.0163847
634.506	0.0164619
634.584	0.0164185
634.663	0.0164165
634.741	0.0164054
634.819	0.0164323
634.897	0.0163523
634.975	0.0163875
635.053	0.0163017
635.131	0.0164457
635.209	0.0164196
635.288	0.0164899
635.366	0.0164113
635.444	0.0163592
635.522	0.0161945
635.600	0.0163009
635.678	0.0162468
635.756	0.0163520
635.834	0.0163789
635.913	0.0163379
635.991	0.0164497
636.069	0.0163648
636.147	0.0164435
636.225	0.0163808
636.303	0.0164544
636.381	0.0163776
636.459	0.0164577
636.538	0.0162019
636.616	0.0164800
636.694	0.0164034
636.772	0.0162518
636.850	0.0163099
636.928	0.0164664
637.006	0.0163995
637.084	0.0163991
637.163	0.0162870
637.241	0.0164253
637.319	0.0164149
637.397	0.0164221
637.475	0.0164642
637.553	0.0162952
637.631	0.0162710
637.709	0.0164406
637.788	0.0164286
637.866	0.0163814
637.944	0.0163552
638.022	0.0164924
638.100	0.0165253
638.178	0.0164821
638.256	0.0164313
638.334	0.0164954
638.413	0.0165475
638.491	0.0164460
638.569	0.0164616
638.647	0.0164361
638.725	0.0162369
638.803	0.0163744
638.881	0.0164573
638.959	0.0165539
639.038	0.0163881
639.116	0.0163831
639.194	0.0165728
639.272	0.0163842
639.350	0.0166144
639.428	0.0164591
639.506	0.0164389
639.584	0.0163997
639.663	0.0164642
639.741	0.0164927
639.819	0.0164207
639.897	0.0165225
639.975	0.0165488
640.053	0.0163199
640.131	0.0164423
640.209	0.0163852
640.288	0.0164616
640.366	0.0165150
640.444	0.0164507
640.522	0.0165798
640.600	0.0166491
640.678	0.0166462
640.756	0.0165407
640.834	0.0165046
640.913	0.0166087
640.991	0.0164664
641.069	0.0163527
641.147	0.0165582
641.225	0.0165106
641.303	0.0164692
641.381	0.0164873
641.459	0.0165281
641.538	0.0165126
641.616	0.0165250
641.694	0.0165207
641.772	0.0164591
641.850	0.0165201
641.928	0.0163911
642.006	0.0164173
642.084	0.0163612
642.163	0.0164216
642.241	0.0163793
642.319	0.0163697
642.397	0.0164178
642.475	0.0164118
642.553	0.0162140
642.631	0.0163086
642.709	0.0162055
642.788	0.0163575
642.866	0.0163980
642.944	0.0164368
643.022	0.0163288
643.100	0.0164277
643.178	0.0163989
643.256	0.0164758
643.334	0.0163352
643.413	0.0163020
643.491	0.0163908
643.569	0.0162645
643.647	0.0164205
643.725	0.0164218
643.803	0.0163439
643.881	0.0164017
643.959	0.0165041
644.038	0.0162579
644.116	0.0162492
644.194	0.0164956
644.272	0.0164769
644.350	0.0165234
644.428	0.0164022
644.506	0.0164622
644.584	0.0163553
644.663	0.0163792
644.741	0.0162996
644.819	0.0164231
644.897	0.0165798
644.975	0.0163574
645.053	0.0164450
645.131	0.0164362
645.209	0.0164957
645.288	0.0163898
645.366	0.0163956
645.444	0.0164465
645.522	0.0165015
645.600	0.0164177
645.678	0.0165032
645.756	0.0164967
645.834	0.0163223
645.913	0.0164008
645.991	0.0163530
646.069	0.0163069
646.147	0.0164163
646.225	0.0163954
646.303	0.0163493
646.381	0.0163291
646.459	0.0164559
646.538	0.0164286
646.616	0.0164270
646.694	0.0163497
646.772	0.0163529
646.850	0.0164269
646.928	0.0165879
647.006	0.0163718
647.084	0.0164123
647.163	0.0164842
647.241	0.0164306
647.319	0.0165837
647.397	0.0163093
647.475	0.0163821
647.553	0.0164103
647.631	0.0164349
647.709	0.0164342
647.788	0.0163160
647.866	0.0163921
647.944	0.0163519
648.022	0.0163741
648.100	0.0164334
648.178	0.0163000
648.256	0.0164538
648.334	0.0163056
648.413	0.0163052
648.491	0.0161425
648.569	0.0164050
648.647	0.0164118
648.725	0.0163280
648.803	0.0161779
648.881	0.0162852
648.959	0.0163506
649.038	0.0162633
649.116	0.0161783
649.194	0.0161247
649.272	0.0162044
649.350	0.0162098
649.428	0.0162939
649.506	0.0161964
649.584	0.0162343
649.663	0.0162998
649.741	0.0162578
649.819	0.0162702
649.897	0.0164369
649.975	0.0164767
650.053	0.0164870
650.131	0.0165754
650.209	0.0164319
650.288	0.0164778
650.366	0.0165043
650.444	0.0165963
650.522	0.0166496
650.600	0.0164966
650.678	0.0163805
650.756	0.0164732
650.834	0.0164425
650.913	0.0164046
650.991	0.0164346
651.069	0.0164064
651.147	0.0162705
651.225	0.0162751
651.303	0.0162447
651.381	0.0162207
651.459	0.0163268
651.538	0.0161715
651.616	0.0162092
651.694	0.0160709
651.772	0.0161406
651.850	0.0162614
651.928	0.0162276
652.006	0.0161121
652.084	0.0161828
652.163	0.0164027
652.241	0.0161802
652.319	0.0164226
652.397	0.0164989
652.475	0.0164228
652.553	0.0164668
652.631	0.0165349
652.709	0.0165367
652.788	0.0166927
652.866	0.0164718
652.944	0.0164934
653.022	0.0167066
653.100	0.0166663
653.178	0.0167341
653.256	0.0166958
653.334	0.0165332
653.413	0.0164957
653.491	0.0166189
653.569	0.0166874
653.647	0.0165356
653.725	0.0164906
653.803	0.0164185
653.881	0.0163962
653.959	0.0164041
654.038	0.0164067
654.116	0.0164227
654.194	0.0163696
654.272	0.0163618
654.350	0.0163013
654.428	0.0162208
654.506	0.0164185
654.584	0.0162999
654.663	0.0163750
654.741	0.0163631
654.819	0.0162160
654.897	0.0164954
654.975	0.0163780
655.053	0.0164334
655.131	0.0163486
655.209	0.0164934
655.288	0.0163360
655.366	0.0164160
655.444	0.0164374
655.522	0.0163795
655.600	0.0162573
655.678	0.0162345
655.756	0.0164127
655.834	0.0162197
655.913	0.0163175
655.991	0.0163602
656.069	0.0163003
656.147	0.0162164
656.225	0.0163055
656.303	0.0164287
656.381	0.0164227
656.459	0.0163409
656.538	0.0164061
656.616	0.0165749
656.694	0.0165560
656.772	0.0165115
656.850	0.0165058
656.928	0.0165874
657.006	0.0164257
657.084	0.0166030
657.163	0.0166503
657.241	0.0164794
657.319	0.0166299
657.397	0.0166896
657.475	0.0165645
657.553	0.0166103
657.631	0.0164034
657.709	0.0165013
657.788	0.0164420
657.866	0.0165322
657.944	0.0164489
658.022	0.0163647
658.100	0.0164864
658.178	0.0162878
658.256	0.0164026
658.334	0.0163314
658.413	0.0162933
658.491	0.0163598
658.569	0.0162840
658.647	0.0162830
658.725	0.0161761
658.803	0.0160320
658.881	0.0160345
658.959	0.0160317
659.038	0.0160484
659.116	0.0162065
659.194	0.0161537
659.272	0.0160696
659.350	0.0160560
659.428	0.0161174
659.506	0.0161675
659.584	0.0161311
659.663	0.0161423
659.741	0.0161688
659.819	0.0161343
659.897	0.0163734
659.975	0.0164198
660.053	0.0162919
660.131	0.0164386
660.209	0.0164915
660.288	0.0163670
660.366	0.0165345
660.444	0.0165965
660.522	0.0167686
660.600	0.0167163
660.678	0.0166310
660.756	0.0167078
660.834	0.0167461
660.913	0.0167859
660.991	0.0169044
661.069	0.0168697
661.147	0.0168213
661.225	0.0167941
661.303	0.0168050
661.381	0.0168555
661.459	0.0167017
661.538	0.0165125
661.616	0.0164888
661.694	0.0165722
661.772	0.0165017
661.850	0.0164931
661.928	0.0162695
662.006	0.0162395
662.084	0.0162338
662.163	0.0161050
662.241	0.0161405
662.319	0.0161212
662.397	0.0159875
662.475	0.0159444
662.553	0.0161167
662.631	0.0160138
662.709	0.0159610
662.788	0.0161126
662.866	0.0159951
662.944	0.0160770
663.022	0.0160712
663.100	0.0161127
663.178	0.0160903
663.256	0.0161971
663.334	0.0161267
663.413	0.0162827
663.491	0.0163065
663.569	0.0163377
663.647	0.0163031
663.725	0.0163414
663.803	0.0162640
663.881	0.0162428
663.959	0.0164151
664.038	0.0165769
664.116	0.0164706
664.194	0.0164712
664.272	0.0165825
664.350	0.0166108
664.428	0.0166092
664.506	0.0166987
664.584	0.0166560
664.663	0.0165866
664.741	0.0166231
664.819	0.0167362
664.897	0.0167279
664.975	0.0168892
665.053	0.0167135
665.131	0.0167292
665.209	0.0167590
665.288	0.0167469
665.366	0.0167378
665.444	0.0165894
665.522	0.0166205
665.600	0.0166988
665.678	0.0165131
665.756	0.0163696
665.834	0.0164275
665.913	0.0162597
665.991	0.0162898
666.069	0.0162180
666.147	0.0161612
666.225	0.0160391
666.303	0.0159929
666.381	0.0159107
666.459	0.0159598
666.538	0.0158790
666.616	0.0158750
666.694	0.0158357
666.772	0.0158450
666.850	0.0159568
666.928	0.0159761
667.006	0.0160094
667.084	0.0161390
667.163	0.0160826
667.241	0.0162560
667.319	0.0163293
667.397	0.0165115
667.475	0.0164470
667.553	0.0165268
667.631	0.0166789
667.709	0.0167124
667.788	0.0169100
667.866	0.0168732
667.944	0.0168088
668.022	0.0169420
668.100	0.0168948
668.178	0.0170830
668.256	0.0168964
668.334	0.0169285
668.413	0.0167696
668.491	0.0168275
668.569	0.0166866
668.647	0.0166324
668.725	0.0165511
668.803	0.0166133
668.881	0.0165482
668.959	0.0165747
669.038	0.0163633
669.116	0.0162119
669.194	0.0162221
669.272	0.0163099
669.350	0.0162968
669.428	0.0162530
669.506	0.0161589
669.584	0.0162112
669.663	0.0161824
669.741	0.0162138
669.819	0.0162329
669.897	0.0163206
669.975	0.0162881
670.053	0.0164704
670.131	0.0163535
670.209	0.0163236
670.288	0.0165128
670.366	0.0164998
670.444	0.0164124
670.522	0.0164030
670.600	0.0164200
670.678	0.0164777
670.756	0.0165084
670.834	0.0163229
670.913	0.0163786
670.991	0.0163550
671.069	0.0162704
671.147	0.0163242
671.225	0.0163258
671.303	0.0164283
671.381	0.0163062
671.459	0.0164089
671.538	0.0164356
671.616	0.0163632
671.694	0.0164004
671.772	0.0163922
671.850	0.0165173
671.928	0.0165101
672.006	0.0165348
672.084	0.0166339
672.163	0.0166331
672.241	0.0165641
672.319	0.0165733
672.397	0.0167746
672.475	0.0166735
672.553	0.0166441
672.631	0.0166309
672.709	0.0166261
672.788	0.0166386
672.866	0.0164699
672.944	0.0165984
673.022	0.0166077
673.100	0.0163880
673.178	0.0164842
673.256	0.0163584
673.334	0.0162300
673.413	0.0163548
673.491	0.0162703
673.569	0.0161331
673.647	0.0161121
673.725	0.0162202
673.803	0.0162867
673.881	0.0161834
673.959	0.0162066
674.038	0.0161467
674.116	0.0160155
674.194	0.0162294
674.272	0.0162060
674.350	0.0161819
674.428	0.0163323
674.506	0.0163596
674.584	0.0162589
674.663	0.0163998
674.741	0.0163869
674.819	0.0164825
674.897	0.0164638
674.975	0.0164507
675.053	0.0164687
675.131	0.0163993
675.209	0.0164697
675.288	0.0164610
675.366	0.0165642
675.444	0.0165166
675.522	0.0165366
675.600	0.0164759
675.678	0.0163959
675.756	0.0164462
675.834	0.0164661
675.913	0.0163696
675.991	0.0164999
676.069	0.0163559
676.147	0.0162502
676.225	0.0164294
676.303	0.0163713
676.381	0.0163518
676.459	0.0163574
676.538	0.0162118
676.616	0.0162209
676.694	0.0161976
676.772	0.0162969
676.850	0.0163247
676.928	0.0163661
677.006	0.0163564
677.084	0.0163064
677.163	0.0164407
677.241	0.0163891
677.319	0.0164246
677.397	0.0164734
677.475	0.0164721
677.553	0.0165322
677.631	0.0164957
677.709	0.0165221
677.788	0.0164411
677.866	0.0164361
677.944	0.0164374
678.022	0.0165119
678.100	0.0164366
678.178	0.0163634
678.256	0.0164945
678.334	0.0163146
678.413	0.0161722
678.491	0.0163446
678.569	0.0164441
678.647	0.0163871
678.725	0.0162929
678.803	0.0163110
678.881	0.0165211
678.959	0.0164860
679.038	0.0164017
679.116	0.0166675
679.194	0.0165959
679.272	0.0168341
679.350	0.0168026
679.428	0.0166899
679.506	0.0166082
679.584	0.0164389
679.663	0.0163869
679.741	0.0165231
679.819	0.0163496
679.897	0.0162526
679.975	0.0159764
680.053	0.0160220
680.131	0.0159306
680.209	0.0160505
680.288	0.0157394
680.366	0.0157215
680.444	0.0158567
680.522	0.0158261
680.600	0.0160350
680.678	0.0160453
680.756	0.0162829
680.834	0.0165540
680.913	0.0167065
680.991	0.0168529
681.069	0.0171806
681.147	0.0172522
681.225	0.0173428
681.303	0.0176159
681.381	0.0175016
681.459	0.0174940
681.538	0.0173661
681.616	0.0172147
681.694	0.0169703
681.772	0.0168959
681.850	0.0164172
681.928	0.0161948
682.006	0.0160954
682.084	0.0158380
682.163	0.0156712
682.241	0.0154652
682.319	0.0153757
682.397	0.0152530
682.475	0.0152463
682.553	0.0154258
682.631	0.0154637
682.709	0.0155850
682.788	0.0156572
682.866	0.0156688
682.944	0.0159499
683.022	0.0161179
683.100	0.0163683
683.178	0.0164884
683.256	0.0165170
683.334	0.0165942
683.413	0.0166112
683.491	0.0166580
683.569	0.0167863
683.647	0.0167925
683.725	0.0167598
683.803	0.0166829
683.881	0.0167892
683.959	0.0168511
684.038	0.0167041
684.116	0.0167364
684.194	0.0166608
684.272	0.0165832
684.350	0.0166386
684.428	0.0166304
684.506	0.0166527
684.584	0.0165563
684.663	0.0165070
684.741	0.0164290
684.819	0.0163672
684.897	0.0162115
684.975	0.0161476
685.053	0.0160075
685.131	0.0160237
685.209	0.0159050
685.288	0.0159657
685.366	0.0157728
685.444	0.0158801
685.522	0.0159664
685.600	0.0162024
685.678	0.0164242
685.756	0.0164299
685.834	0.0165423
685.913	0.0165399
685.991	0.0168887
686.069	0.0168029
686.147	0.0167912
686.225	0.0167907
686.303	0.0167736
686.381	0.0165684
686.459	0.0162550
686.538	0.0161403
686.616	0.0159456
686.694	0.0156065
686.772	0.0154791
686.850	0.0152168
686.928	0.0150069
687.006	0.0150648
687.084	0.0148872
687.163	0.0150252
687.241	0.0153076
687.319	0.0153375
687.397	0.0155903
687.475	0.0159267
687.553	0.0161217
687.631	0.0165635
687.709	0.0166959
687.788	0.0168549
687.866	0.0171768
687.944	0.0170551
688.022	0.0174447
688.100	0.0175726
688.178	0.0176265
688.256	0.0176994
688.334	0.0174708
688.413	0.0175579
688.491	0.0175400
688.569	0.0175894
688.647	0.0175255
688.725	0.0175977
688.803	0.0175826
688.881	0.0174628
688.959	0.0177124
689.038	0.0177210
689.116	0.0176434
689.194	0.0175887
689.272	0.0175671
689.350	0.0175634
689.428	0.0174303
689.506	0.0172178
689.584	0.0169618
689.663	0.0167098
689.741	0.0163491
689.819	0.0160001
689.897	0.0154610
689.975	0.0151481
690.053	0.0145865
690.131	0.0142549
690.209	0.0139412
690.288	0.0137139
690.366	0.0133546
690.444	0.0131281
690.522	0.0130363
690.600	0.0131784
690.678	0.0132166
690.756	0.0133340
690.834	0.0135635
690.913	0.0140204
690.991	0.0143656
691.069	0.0148215
691.147	0.0151823
691.225	0.0158835
691.303	0.0164478
691.381	0.0170628
691.459	0.0175353
691.538	0.0180130
691.616	0.0185717
691.694	0.0189525
691.772	0.0192997
691.850	0.0195703
691.928	0.0198860
692.006	0.0198967
692.084	0.0199906
692.163	0.0199554
692.241	0.0198139
692.319	0.0196834
692.397	0.0196633
692.475	0.0192150
692.553	0.0190023
692.631	0.0185985
692.709	0.0184921
692.788	0.0179100
692.866	0.0176012
692.944	0.0172875
693.022	0.0168543
693.100	0.0164287
693.178	0.0160455
693.256	0.0156287
693.334	0.0151136
693.413	0.0146747
693.491	0.0143252
693.569	0.0140777
693.647	0.0134759
693.725	0.0130504
693.803	0.0127857
693.881	0.0127634
693.959	0.0127100
694.038	0.0128219
694.116	0.0130070
694.194	0.0133442
694.272	0.0135908
694.350	0.0142017
694.428	0.0146808
694.506	0.0152944
694.584	0.0157487
694.663	0.0162093
694.741	0.0167191
694.819	0.0169473
694.897	0.0171185
694.975	0.0173870
695.053	0.0174287
695.131	0.0174487
695.209	0.0173694
695.288	0.0173192
695.366	0.0173163
695.444	0.0170792
695.522	0.0169476
695.600	0.0169454
695.678	0.0170253
695.756	0.0170151
695.834	0.0170560
695.913	0.0173028
695.991	0.0177029
696.069	0.0179698
696.147	0.0182434
696.225	0.0184274
696.303	0.0186159
696.381	0.0189736
696.459	0.0190298
696.538	0.0192506
696.616	0.0191424
696.694	0.0190659
696.772	0.0188948
696.850	0.0185399
696.928	0.0180772
697.006	0.0176685
697.084	0.0172965
697.163	0.0166108
697.241	0.0163516
697.319	0.0155613
697.397	0.0151877
697.475	0.0147182
697.553	0.0141557
697.631	0.0138591
697.709	0.0136051
697.788	0.0132022
697.866	0.0129135
697.944	0.0126086
698.022	0.0126733
698.100	0.0126702
698.178	0.0126572
698.256	0.0128177
698.334	0.0130344
698.413	0.0133265
698.491	0.0137431
698.569	0.0142266
698.647	0.0149385
698.725	0.0155790
698.803	0.0163713
698.881	0.0168314
698.959	0.0175682
699.038	0.0182461
699.116	0.0186436
699.194	0.0192410
699.272	0.0195679
699.350	0.0198210
699.428	0.0200082
699.506	0.0199026
699.584	0.0198943
699.663	0.0197779
699.741	0.0193468
699.819	0.0191372
699.897	0.0186348
699.975	0.0183189
700.053	0.0179488
700.131	0.0174978
700.209	0.0171209
700.288	0.0166845
700.366	0.0162931
700.444	0.0162154
700.522	0.0160245
700.600	0.0159018
700.678	0.0157365
700.756	0.0157185
700.834	0.0155661
700.913	0.0155672
700.991	0.0153030
701.069	0.0153994
701.147	0.0153262
701.225	0.0150359
701.303	0.0150681
701.381	0.0151601
701.459	0.0149154
701.538	0.0147968
701.616	0.0148858
701.694	0.0150513
701.772	0.0150527
701.850	0.0148908
701.928	0.0148724
702.006	0.0149014
702.084	0.0150162
702.163	0.0149760
702.241	0.0150819
702.319	0.0151530
702.397	0.0149933
702.475	0.0150812
702.553	0.0149652
702.631	0.0151013
702.709	0.0151884
702.788	0.0152087
702.866	0.0153751
702.944	0.0152022
703.022	0.0154484
703.100	0.0155906
703.178	0.0156149
703.256	0.0160205
703.334	0.0160606
703.413	0.0164652
703.491	0.0168895
703.569	0.0170754
703.647	0.0174803
703.725	0.0180418
703.803	0.0183968
703.881	0.0188126
703.959	0.0194342
704.038	0.0197382
704.116	0.0199261
704.194	0.0201845
704.272	0.0204826
704.350	0.0203928
704.428	0.0201691
704.506	0.0200128
704.584	0.0197496
704.663	0.0194127
704.741	0.0188837
704.819	0.0184017
704.897	0.0178629
704.975	0.0172249
705.053	0.0167784
705.131	0.0162091
705.209	0.0157814
705.288	0.0152106
705.366	0.0148321
705.444	0.0145086
705.522	0.0142824
705.600	0.0139911
705.678	0.0138398
705.756	0.0137672
705.834	0.0134897
705.913	0.0135312
705.991	0.0135084
706.069	0.0136118
706.147	0.0137208
706.225	0.0137328
706.303	0.0138083
706.381	0.0140462
706.459	0.0141534
706.538	0.0142378
706.616	0.0145544
706.694	0.0146591
706.772	0.0151308
706.850	0.0152972
706.928	0.0155538
707.006	0.0156049
707.084	0.0158929
707.163	0.0159761
707.241	0.0158779
707.319	0.0159538
707.397	0.0159879
707.475	0.0158875
707.553	0.0158527
707.631	0.0157722
707.709	0.0158012
707.788	0.0157005
707.866	0.0157883
707.944	0.0161266
708.022	0.0163832
708.100	0.0167206
708.178	0.0171344
708.256	0.0174234
708.334	0.0177376
708.413	0.0179183
708.491	0.0181698
708.569	0.0185627
708.647	0.0185707
708.725	0.0185914
708.803	0.0185248
708.881	0.0183401
708.959	0.0182259
709.038	0.0180151
709.116	0.0178941
709.194	0.0177696
709.272	0.0177387
709.350	0.0173885
709.428	0.0172873
709.506	0.0175274
709.584	0.0174535
709.663	0.0174938
709.741	0.0175843
709.819	0.0175998
709.897	0.0175874
709.975	0.0176098
710.053	0.0177466
710.131	0.0175535
710.209	0.0175967
710.288	0.0175343
710.366	0.0172291
710.444	0.0172192
710.522	0.0168761
710.600	0.0166003
710.678	0.0162576
710.756	0.0159714
710.834	0.0155366
710.913	0.0151370
710.991	0.0149619
711.069	0.0146161
711.147	0.0142852
711.225	0.0139640
711.303	0.0138470
711.381	0.0138247
711.459	0.0136741
711.538	0.0137463
711.616	0.0139098
711.694	0.0139732
711.772	0.0141041
711.850	0.0142627
711.928	0.0143205
712.006	0.0146246
712.084	0.0147571
712.163	0.0149514
712.241	0.0152769
712.319	0.0153194
712.397	0.0155206
712.475	0.0155410
712.553	0.0159299
712.631	0.0159513
712.709	0.0161309
712.788	0.0164659
712.866	0.0165768
712.944	0.0165562
713.022	0.0166016
713.100	0.0167203
713.178	0.0165978
713.256	0.0166234
713.334	0.0166037
713.413	0.0165099
713.491	0.0165136
713.569	0.0165938
713.647	0.0165249
713.725	0.0167944
713.803	0.0171095
713.881	0.0174391
713.959	0.0176504
714.038	0.0179277
714.116	0.0181458
714.194	0.0184651
714.272	0.0189676
714.350	0.0189944
714.428	0.0191177
714.506	0.0191212
714.584	0.0191169
714.663	0.0189283
714.741	0.0186894
714.819	0.0185737
714.897	0.0184694
714.975	0.0180105
715.053	0.0175448
715.131	0.0173355
715.209	0.0167982
715.288	0.0163129
715.366	0.0159859
715.444	0.0158231
715.522	0.0155739
715.600	0.0152581
715.678	0.0151295
715.756	0.0150525
715.834	0.0151327
715.913	0.0152780
715.991	0.0154387
716.069	0.0153684
716.147	0.0156493
716.225	0.0159225
716.303	0.0158982
716.381	0.0160000
716.459	0.0161961
716.538	0.0161076
716.616	0.0161569
716.694	0.0160558
716.772	0.0159499
716.850	0.0159148
716.928	0.0159031
717.006	0.0156971
717.084	0.0155641
717.163	0.0154237
717.241	0.0154534
717.319	0.0153146
717.397	0.0153159
717.475	0.0153761
717.553	0.0154231
717.631	0.0153291
717.709	0.0155602
717.788	0.0156373
717.866	0.0154430
717.944	0.0154610
718.022	0.0154483
718.100	0.0154874
718.178	0.0155262
718.256	0.0154816
718.334	0.0156053
718.413	0.0156816
718.491	0.0158277
718.569	0.0158208
718.647	0.0162002
718.725	0.0163217
718.803	0.0165500
718.881	0.0166827
718.959	0.0166856
719.038	0.0169861
719.116	0.0169768
719.194	0.0171761
719.272	0.0172501
719.350	0.0173486
719.428	0.0172575
719.506	0.0174492
719.584	0.0173083
719.663	0.0173019
719.741	0.0172829
719.819	0.0175040
719.897	0.0173965
719.975	0.0173945
720.053	0.0174146
720.131	0.0173409
720.209	0.0175871
720.288	0.0175741
720.366	0.0177050
720.444	0.0177045
720.522	0.0176527
720.600	0.0179063
720.678	0.0179110
720.756	0.0178709
720.834	0.0177835
720.913	0.0177248
720.991	0.0174924
721.069	0.0173161
721.147	0.0171423
721.225	0.0167399
721.303	0.0167311
721.381	0.0165739
721.459	0.0163999
721.538	0.0163604
721.616	0.0161227
721.694	0.0159910
721.772	0.0159485
721.850	0.0158898
721.928	0.0156036
722.006	0.0157359
722.084	0.0155042
722.163	0.0153413
722.241	0.0153286
722.319	0.0152048
722.397	0.0150808
722.475	0.0149342
722.553	0.0148573
722.631	0.0146017
722.709	0.0145100
722.788	0.0145436
722.866	0.0144707
722.944	0.0144558
723.022	0.0146114
723.100	0.0148499
723.178	0.0151937
723.256	0.0153093
723.334	0.0156293
723.413	0.0160432
723.491	0.0165486
723.569	0.0168272
723.647	0.0172144
723.725	0.0174577
723.803	0.0177300
723.881	0.0178181
723.959	0.0178140
724.038	0.0178372
724.116	0.0175414
724.194	0.0173634
724.272	0.0172538
724.350	0.0170487
724.428	0.0170425
724.506	0.0168700
724.584	0.0167426
724.663	0.0165593
724.741	0.0166660
724.819	0.0164138
724.897	0.0164649
724.975	0.0165891
725.053	0.0165298
725.131	0.0163625
725.209	0.0163787
725.288	0.0162333
725.366	0.0160844
725.444	0.0161395
725.522	0.0159713
725.600	0.0157236
725.678	0.0155589
725.756	0.0155554
725.834	0.0153529
725.913	0.0153973
725.991	0.0152642
726.069	0.0154859
726.147	0.0154687
726.225	0.0155863
726.303	0.0155700
726.381	0.0155442
726.459	0.0156049
726.538	0.0157204
726.616	0.0156761
726.694	0.0159029
726.772	0.0161136
726.850	0.0164853
726.928	0.0165204
727.006	0.0168291
727.084	0.0169628
727.163	0.0171919
727.241	0.0173658
727.319	0.0175089
727.397	0.0176281
727.475	0.0176243
727.553	0.0174835
727.631	0.0174808
727.709	0.0174163
727.788	0.0173646
727.866	0.0171326
727.944	0.0169260
728.022	0.0168253
728.100	0.0168687
728.178	0.0164847
728.256	0.0165084
728.334	0.0164606
728.413	0.0164115
728.491	0.0163503
728.569	0.0163461
728.647	0.0163338
728.725	0.0165037
728.803	0.0164628
728.881	0.0166057
728.959	0.0165122
729.038	0.0166114
729.116	0.0167269
729.194	0.0166914
729.272	0.0166593
729.350	0.0165214
729.428	0.0164490
729.506	0.0163819
729.584	0.0164621
729.663	0.0160278
729.741	0.0160546
729.819	0.0159267
729.897	0.0157532
729.975	0.0156640
730.053	0.0155141
730.131	0.0154248
730.209	0.0154341
730.288	0.0153401
730.366	0.0154123
730.444	0.0153697
730.522	0.0154765
730.600	0.0155291
730.678	0.0154979
730.756	0.0155624
730.834	0.0156864
730.913	0.0157316
730.991	0.0157641
731.069	0.0158157
731.147	0.0158022
731.225	0.0156908
731.303	0.0158564
731.381	0.0157570
731.459	0.0158240
731.538	0.0159057
731.616	0.0158154
731.694	0.0158888
731.772	0.0159454
731.850	0.0160933
731.928	0.0161427
732.006	0.0161321
732.084	0.0162870
732.163	0.0162872
732.241	0.0165322
732.319	0.0166019
732.397	0.0168753
732.475	0.0170261
732.553	0.0173397
732.631	0.0174146
732.709	0.0176203
732.788	0.0177758
732.866	0.0180421
732.944	0.0181495
733.022	0.0179785
733.100	0.0181576
733.178	0.0181096
733.256	0.0178226
733.334	0.0177259
733.413	0.0176199
733.491	0.0174001
733.569	0.0169884
733.647	0.0168521
733.725	0.0166228
733.803	0.0162814
733.881	0.0161721
733.959	0.0159679
734.038	0.0157940
734.116	0.0157144
734.194	0.0156625
734.272	0.0157919
734.350	0.0158828
734.428	0.0160274
734.506	0.0162040
734.584	0.0166104
734.663	0.0169341
734.741	0.0170586
734.819	0.0173251
734.897	0.0174800
734.975	0.0174792
735.053	0.0175102
735.131	0.0176174
735.209	0.0175607
735.288	0.0173464
735.366	0.0172035
735.444	0.0168975
735.522	0.0166563
735.600	0.0164910
735.678	0.0162358
735.756	0.0160880
735.834	0.0158266
735.913	0.0157720
735.991	0.0157072
736.069	0.0156825
736.147	0.0155703
736.225	0.0155507
736.303	0.0153162
736.381	0.0153790
736.459	0.0152652
736.538	0.0152475
736.616	0.0151104
736.694	0.0151100
736.772	0.0150529
736.850	0.0152312
736.928	0.0152934
737.006	0.0152861
737.084	0.0154331
737.163	0.0155844
737.241	0.0157590
737.319	0.0157191
737.397	0.0159880
737.475	0.0161037
737.553	0.0161675
737.631	0.0162041
737.709	0.0160810
737.788	0.0162724
737.866	0.0164377
737.944	0.0163712
738.022	0.0163010
738.100	0.0162881
738.178	0.0163198
738.256	0.0163379
738.334	0.0164806
738.413	0.0163952
738.491	0.0165175
738.569	0.0165073
738.647	0.0167258
738.725	0.0165868
738.803	0.0166305
738.881	0.0165555
738.959	0.0167967
739.038	0.0166161
739.116	0.0166235
739.194	0.0166594
739.272	0.0166347
739.350	0.0167212
739.428	0.0167742
739.506	0.0170252
739.584	0.0170788
739.663	0.0173570
739.741	0.0173719
739.819	0.0175979
739.897	0.0178297
739.975	0.0178824
740.053	0.0179468
740.131	0.0179362
740.209	0.0179764
740.288	0.0178728
740.366	0.0176711
740.444	0.0174646
740.522	0.0172929
740.600	0.0169835
740.678	0.0168661
740.756	0.0165985
740.834	0.0166988
740.913	0.0163394
740.991	0.0161859
741.069	0.0160639
741.147	0.0161311
741.225	0.0160981
741.303	0.0161066
741.381	0.0160738
741.459	0.0161373
741.538	0.0160294
741.616	0.0159482
741.694	0.0161192
741.772	0.0159319
741.850	0.0159941
741.928	0.0159518
742.006	0.0160185
742.084	0.0160507
742.163	0.0161403
742.241	0.0161742
742.319	0.0164090
742.397	0.0166983
742.475	0.0165150
742.553	0.0167139
742.631	0.0166566
742.709	0.0168057
742.788	0.0166949
742.866	0.0165397
742.944	0.0165731
743.022	0.0165485
743.100	0.0164929
743.178	0.0162075
743.256	0.0161827
743.334	0.0161767
743.413	0.0159966
743.491	0.0157515
743.569	0.0158346
743.647	0.0157700
743.725	0.0156216
743.803	0.0154828
743.881	0.0152550
743.959	0.0153925
744.038	0.0153751
744.116	0.0153727
744.194	0.0153429
744.272	0.0155294
744.350	0.0155766
744.428	0.0155021
744.506	0.0156124
744.584	0.0157146
744.663	0.0156719
744.741	0.0157764
744.819	0.0158369
744.897	0.0158666
744.975	0.0159063
745.053	0.0158063
745.131	0.0160483
745.209	0.0159753
745.288	0.0160422
745.366	0.0164304
745.444	0.0164760
745.522	0.0165839
745.600	0.0167517
745.678	0.0169633
745.756	0.0168997
745.834	0.0169807
745.913	0.0170930
745.991	0.0169345
746.069	0.0170171
746.147	0.0172474
746.225	0.0171686
746.303	0.0169968
746.381	0.0168861
746.459	0.0170564
746.538	0.0170702
746.616	0.0168874
746.694	0.0168755
746.772	0.0168466
746.850	0.0169374
746.928	0.0170023
747.006	0.0169515
747.084	0.0171122
747.163	0.0173321
747.241	0.0171898
747.319	0.0173433
747.397	0.0175503
747.475	0.0175640
747.553	0.0175710
747.631	0.0174825
747.709	0.0173766
747.788	0.0172337
747.866	0.0172307
747.944	0.0170111
748.022	0.0169249
748.100	0.0167913
748.178	0.0166695
748.256	0.0167270
748.334	0.0163880
748.413	0.0164297
748.491	0.0164266
748.569	0.0162628
748.647	0.0160036
748.725	0.0160968
748.803	0.0158672
748.881	0.0158410
748.959	0.0157624
749.038	0.0156135
749.116	0.0156545
749.194	0.0155903
749.272	0.0156371
749.350	0.0158249
749.428	0.0157867
749.506	0.0157862
749.584	0.0159420
749.663	0.0159808
749.741	0.0161942
749.819	0.0160915
749.897	0.0160373
749.975	0.0160689
750.053	0.0161964
750.131	0.0160572
750.209	0.0158848
750.288	0.0156918
750.366	0.0155061
750.444	0.0155923
750.522	0.0153813
750.600	0.0152740
750.678	0.0151664
750.756	0.0151682
750.834	0.0153543
750.913	0.0153177
750.991	0.0154737
751.069	0.0158450
751.147	0.0157759
751.225	0.0160365
751.303	0.0161716
751.381	0.0163797
751.459	0.0164539
751.538	0.0166374
751.616	0.0166065
751.694	0.0168190
751.772	0.0167017
751.850	0.0168393
751.928	0.0167393
752.006	0.0166828
752.084	0.0165215
752.163	0.0165293
752.241	0.0165876
752.319	0.0164904
752.397	0.0166326
752.475	0.0167536
752.553	0.0168810
752.631	0.0168531
752.709	0.0168497
752.788	0.0169022
752.866	0.0171201
752.944	0.0172462
753.022	0.0169987
753.100	0.0172020
753.178	0.0171180
753.256	0.0172762
753.334	0.0172507
753.413	0.0169795
753.491	0.0171838
753.569	0.0172549
753.647	0.0171083
753.725	0.0169777
753.803	0.0170832
753.881	0.0170087
753.959	0.0169881
754.038	0.0169383
754.116	0.0169073
754.194	0.0167772
754.272	0.0166876
754.350	0.0167072
754.428	0.0165759
754.506	0.0165567
754.584	0.0165512
754.663	0.0165665
754.741	0.0165906
754.819	0.0165298
754.897	0.0165216
754.975	0.0165969
755.053	0.0165424
755.131	0.0165471
755.209	0.0165230
755.288	0.0164937
755.366	0.0164436
755.444	0.0163362
755.522	0.0161465
755.600	0.0161958
755.678	0.0160645
755.756	0.0160765
755.834	0.0161039
755.913	0.0160713
755.991	0.0161234
756.069	0.0161706
756.147	0.0160500
756.225	0.0161012
756.303	0.0163129
756.381	0.0165064
756.459	0.0163870
756.538	0.0164523
756.616	0.0165176
756.694	0.0166944
756.772	0.0168028
756.850	0.0166153
756.928	0.0167867
757.006	0.0168081
757.084	0.0166525
757.163	0.0166060
757.241	0.0166042
757.319	0.0164512
757.397	0.0162673
757.475	0.0162976
757.553	0.0163033
757.631	0.0160319
757.709	0.0160613
757.788	0.0158997
757.866	0.0157388
757.944	0.0158488
758.022	0.0158127
758.100	0.0158361
758.178	0.0158095
758.256	0.0160398
758.334	0.0158956
758.413	0.0159486
758.491	0.0161812
758.569	0.0162266
758.647	0.0163048
758.725	0.0164727
758.803	0.0166654
758.881	0.0166917
758.959	0.0166166
759.038	0.0167472
759.116	0.0165966
759.194	0.0166141
759.272	0.0167105
759.350	0.0165974
759.428	0.0163589
759.506	0.0163166
759.584	0.0162108
759.663	0.0161520
759.741	0.0162600
759.819	0.0161478
759.897	0.0159551
759.975	0.0160757
760.053	0.0160078
760.131	0.0160416
760.209	0.0160126
760.288	0.0162962
760.366	0.0163577
760.444	0.0162269
760.522	0.0164058
760.600	0.0164433
760.678	0.0166269
760.756	0.0167070
760.834	0.0167110
760.913	0.0168619
760.991	0.0169316
761.069	0.0170930
761.147	0.0170784
761.225	0.0169737
761.303	0.0171588
761.381	0.0170979
761.459	0.0171027
761.538	0.0170354
761.616	0.0169199
761.694	0.0168504
761.772	0.0168860
761.850	0.0168407
761.928	0.0166495
762.006	0.0166540
762.084	0.0166401
762.163	0.0164337
762.241	0.0165663
762.319	0.0164989
762.397	0.0163750
762.475	0.0163967
762.553	0.0164270
762.631	0.0163773
762.709	0.0165710
762.788	0.0164043
762.866	0.0163891
762.944	0.0164793
763.022	0.0163535
763.100	0.0163020
763.178	0.0163355
763.256	0.0164126
763.334	0.0163016
763.413	0.0163010
763.491	0.0163387
763.569	0.0164038
763.647	0.0162148
763.725	0.0164044
763.803	0.0162850
763.881	0.0163412
763.959	0.0162903
764.038	0.0163257
764.116	0.0162315
764.194	0.0160101
764.272	0.0161295
764.350	0.0162647
764.428	0.0161191
764.506	0.0160451
764.584	0.0161375
764.663	0.0161596
764.741	0.0160834
764.819	0.0160833
764.897	0.0158694
764.975	0.0158396
765.053	0.0159119
765.131	0.0159377
765.209	0.0161230
765.288	0.0161532
765.366	0.0161074
765.444	0.0161215
765.522	0.0162508
765.600	0.0161008
765.678	0.0162994
765.756	0.0163529
765.834	0.0162964
765.913	0.0162376
765.991	0.0164169
766.069	0.0164723
766.147	0.0162158
766.225	0.0162542
766.303	0.0161307
766.381	0.0162635
766.459	0.0162664
766.538	0.0163676
766.616	0.0162350
766.694	0.0162220
766.772	0.0162782
766.850	0.0162577
766.928	0.0160828
767.006	0.0161649
767.084	0.0161288
767.163	0.0162946
767.241	0.0161548
767.319	0.0159837
767.397	0.0160555
767.475	0.0159663
767.553	0.0160300
767.631	0.0160635
767.709	0.0159959
767.788	0.0159365
767.866	0.0158638
767.944	0.0160810
768.022	0.0159467
768.100	0.0160600
768.178	0.0161391
768.256	0.0161491
768.334	0.0161046
768.413	0.0161595
768.491	0.0164342
768.569	0.0163380
768.647	0.0164540
768.725	0.0165575
768.803	0.0166238
768.881	0.0167841
768.959	0.0169046
769.038	0.0168269
769.116	0.0172204
769.194	0.0172337
769.272	0.0172485
769.350	0.0172828
769.428	0.0171933
769.506	0.0172176
769.584	0.0171642
769.663	0.0171847
769.741	0.0171306
769.819	0.0169863
769.897	0.0169188
769.975	0.0170404
770.053	0.0168887
770.131	0.0166631
770.209	0.0166714
770.288	0.0166290
770.366	0.0165438
770.444	0.0164215
770.522	0.0163515
770.600	0.0162345
770.678	0.0161277
770.756	0.0160136
770.834	0.0161341
770.913	0.0160840
770.991	0.0160737
771.069	0.0161298
771.147	0.0160703
771.225	0.0160691
771.303	0.0160686
771.381	0.0162408
771.459	0.0164397
771.538	0.0162793
771.616	0.0163721
771.694	0.0164822
771.772	0.0164005
771.850	0.0165130
771.928	0.0165689
772.006	0.0166461
772.084	0.0166064
772.163	0.0165939
772.241	0.0166062
772.319	0.0166229
772.397	0.0165231
772.475	0.0165428
772.553	0.0164199
772.631	0.0163042
772.709	0.0162550
772.788	0.0162119
772.866	0.0160736
772.944	0.0158929
773.022	0.0159987
773.100	0.0157996
773.178	0.0158026
773.256	0.0156922
773.334	0.0157893
773.413	0.0159231
773.491	0.0158299
773.569	0.0160201
773.647	0.0158846
773.725	0.0159357
773.803	0.0160732
773.881	0.0161340
773.959	0.0161240
774.038	0.0161414
774.116	0.0162209
774.194	0.0163322
774.272	0.0163058
774.350	0.0163208
774.428	0.0164349
774.506	0.0164822
774.584	0.0166059
774.663	0.0163882
774.741	0.0163065
774.819	0.0163754
774.897	0.0164485
774.975	0.0163053
775.053	0.0163103
775.131	0.0161510
775.209	0.0163330
775.288	0.0162147
775.366	0.0163100
775.444	0.0163112
775.522	0.0163381
775.600	0.0162337
775.678	0.0164132
775.756	0.0164240
775.834	0.0165166
775.913	0.0166911
775.991	0.0167642
776.069	0.0166898
776.147	0.0168307
776.225	0.0168658
776.303	0.0168198
776.381	0.0168758
776.459	0.0166934
776.538	0.0169015
776.616	0.0168349
776.694	0.0168645
776.772	0.0169568
776.850	0.0169474
776.928	0.0170481
777.006	0.0169913
777.084	0.0169482
777.163	0.0170982
777.241	0.0170317
777.319	0.0169566
777.397	0.0168657
777.475	0.0168157
777.553	0.0169585
777.631	0.0169368
777.709	0.0166517
777.788	0.0165588
777.866	0.0166496
777.944	0.0166259
778.022	0.0166417
778.100	0.0166694
778.178	0.0165530
778.256	0.0165015
778.334	0.0165051
778.413	0.0164184
778.491	0.0164964
778.569	0.0165104
778.647	0.0164777
778.725	0.0165099
778.803	0.0165991
778.881	0.0163632
778.959	0.0162639
779.038	0.0164105
779.116	0.0163948
779.194	0.0163763
779.272	0.0162573
779.350	0.0162189
779.428	0.0162516
779.506	0.0161712
779.584	0.0160074
779.663	0.0161369
779.741	0.0163268
779.819	0.0159966
779.897	0.0161163
779.975	0.0160918
780.053	0.0160978
780.131	0.0162179
780.209	0.0161584
780.288	0.0162277
780.366	0.0161856
780.444	0.0162051
780.522	0.0161767
780.600	0.0162209
780.678	0.0163672
780.756	0.0162805
780.834	0.0162849
780.913	0.0162069
780.991	0.0161946
781.069	0.0161044
781.147	0.0160765
781.225	0.0160336
781.303	0.0160318
781.381	0.0160726
781.459	0.0160248
781.538	0.0159615
781.616	0.0160734
781.694	0.0159532
781.772	0.0160901
781.850	0.0160683
781.928	0.0161007
782.006	0.0163693
782.084	0.0163103
782.163	0.0164661
782.241	0.0164448
782.319	0.0164831
782.397	0.0164936
782.475	0.0164233
782.553	0.0165295
782.631	0.0166993
782.709	0.0168070
782.788	0.0167509
782.866	0.0167398
782.944	0.0166226
783.022	0.0166415
783.100	0.0166584
783.178	0.0165092
783.256	0.0164024
783.334	0.0164420
783.413	0.0162811
783.491	0.0163455
783.569	0.0165045
783.647	0.0164097
783.725	0.0164551
783.803	0.0166281
783.881	0.0166360
783.959	0.0166344
784.038	0.0167472
784.116	0.0168530
784.194	0.0168591
784.272	0.0168564
784.350	0.0169099
784.428	0.0169719
784.506	0.0169469
784.584	0.0170478
784.663	0.0169193
784.741	0.0170402
784.819	0.0169327
784.897	0.0168219
784.975	0.0169023
785.053	0.0167078
785.131	0.0166258
785.209	0.0165655
785.288	0.0163817
785.366	0.0163892
785.444	0.0162467
785.522	0.0162202
785.600	0.0163370
785.678	0.0162014
785.756	0.0160226
785.834	0.0161031
785.913	0.0160680
785.991	0.0160815
786.069	0.0160261
786.147	0.0161248
786.225	0.0160982
786.303	0.0161365
786.381	0.0161729
786.459	0.0161693
786.538	0.0161767
786.616	0.0162202
786.694	0.0161776
786.772	0.0161882
786.850	0.0162631
786.928	0.0162924
787.006	0.0161761
787.084	0.0161526
787.163	0.0162170
787.241	0.0162244
787.319	0.0161978
787.397	0.0161960
787.475	0.0161497
787.553	0.0161870
787.631	0.0162569
787.709	0.0163758
787.788	0.0162096
787.866	0.0162279
787.944	0.0164516
788.022	0.0163499
788.100	0.0164345
788.178	0.0163154
788.256	0.0162341
788.334	0.0163034
788.413	0.0162576
788.491	0.0161749
788.569	0.0161512
788.647	0.0160918
788.725	0.0162987
788.803	0.0163596
788.881	0.0163150
788.959	0.0163037
789.038	0.0162060
789.116	0.0165908
789.194	0.0165366
789.272	0.0165714
789.350	0.0168057
789.428	0.0167379
789.506	0.0169731
789.584	0.0169194
789.663	0.0169548
789.741	0.0169107
789.819	0.0169382
789.897	0.0168556
789.975	0.0167889
790.053	0.0166763
790.131	0.0165949
790.209	0.0165472
790.288	0.0163691
790.366	0.0161951
790.444	0.0161292
790.522	0.0162263
790.600	0.0161413
790.678	0.0159582
790.756	0.0159093
790.834	0.0160166
790.913	0.0161459
790.991	0.0162966
791.069	0.0161758
791.147	0.0161884
791.225	0.0162795
791.303	0.0160693
791.381	0.0161327
791.459	0.0162246
791.538	0.0162716
791.616	0.0162999
791.694	0.0162896
791.772	0.0163490
791.850	0.0163570
791.928	0.0163876
792.006	0.0164059
792.084	0.0165186
792.163	0.0165253
792.241	0.0167403
792.319	0.0168658
792.397	0.0169162
792.475	0.0170071
792.553	0.0170333
792.631	0.0169740
792.709	0.0170990
792.788	0.0171675
792.866	0.0169622
792.944	0.0169199
793.022	0.0168459
793.100	0.0167483
793.178	0.0167843
793.256	0.0166476
793.334	0.0165549
793.413	0.0165118
793.491	0.0162407
793.569	0.0161875
793.647	0.0159888
793.725	0.0158904
793.803	0.0157993
793.881	0.0159141
793.959	0.0156734
794.038	0.0155558
794.116	0.0156585
794.194	0.0156849
794.272	0.0157643
794.350	0.0157847
794.428	0.0158846
794.506	0.0160763
794.584	0.0161163
794.663	0.0160973
794.741	0.0160976
794.819	0.0162224
794.897	0.0162497
794.975	0.0163150
795.053	0.0162292
795.131	0.0162805
795.209	0.0163892
795.288	0.0164693
795.366	0.0165233
795.444	0.0165389
795.522	0.0166969
795.600	0.0166551
795.678	0.0166312
795.756	0.0166740
795.834	0.0167737
795.913	0.0169439
795.991	0.0167616
796.069	0.0168963
796.147	0.0169108
796.225	0.0168533
796.303	0.0166510
796.381	0.0166742
796.459	0.0168315
796.538	0.0168837
796.616	0.0167823
796.694	0.0164951
796.772	0.0164614
796.850	0.0164703
796.928	0.0163950
797.006	0.0163699
797.084	0.0163138
797.163	0.0160976
797.241	0.0160117
797.319	0.0160318
797.397	0.0159775
797.475	0.0157562
797.553	0.0156636
797.631	0.0157798
797.709	0.0157432
797.788	0.0157364
797.866	0.0158749
797.944	0.0159356
798.022	0.0160708
798.100	0.0161122
798.178	0.0163314
798.256	0.0162538
798.334	0.0163776
798.413	0.0164827
798.491	0.0164820
798.569	0.0165739
798.647	0.0165837
798.725	0.0166670
798.803	0.0166958
798.881	0.0165704
798.959	0.0166112
799.038	0.0166193
799.116	0.0166660
799.194	0.0164005
799.272	0.0164291
799.350	0.0164250
799.428	0.0163959
799.506	0.0165040
799.584	0.0163953
799.663	0.0163448
799.741	0.0164111
799.819	0.0164647
799.897	0.0163684
799.975	0.0164843
800.053	0.0165096
800.131	0.0164278
800.209	0.0165778
800.288	0.0166582
800.366	0.0165548
800.444	0.0167643
800.522	0.0167770
800.600	0.0167342
800.678	0.0169540
800.756	0.0169443
800.834	0.0168983
800.913	0.0171732
800.991	0.0170090
801.069	0.0170211
801.147	0.0168443
801.225	0.0170487
801.303	0.0169189
801.381	0.0168805
801.459	0.0167417
801.538	0.0165561
801.616	0.0164792
801.694	0.0164898
801.772	0.0162937
801.850	0.0162600
801.928	0.0161604
802.006	0.0158674
802.084	0.0159521
802.163	0.0160477
802.241	0.0161053
802.319	0.0160394
802.397	0.0160146
802.475	0.0160548
802.553	0.0159026
802.631	0.0160308
802.709	0.0159949
802.788	0.0160126
802.866	0.0161336
802.944	0.0160612
803.022	0.0160307
803.100	0.0160195
803.178	0.0161449
803.256	0.0162351
803.334	0.0161774
803.413	0.0160952
803.491	0.0161072
803.569	0.0160909
803.647	0.0163622
803.725	0.0160110
803.803	0.0159965
803.881	0.0160047
803.959	0.0161379
804.038	0.0160902
804.116	0.0161604
804.194	0.0162019
804.272	0.0160870
804.350	0.0160585
804.428	0.0161631
804.506	0.0161774
804.584	0.0162866
804.663	0.0164652
804.741	0.0167744
804.819	0.0166955
804.897	0.0166190
804.975	0.0167252
805.053	0.0167357
805.131	0.0169014
805.209	0.0169839
805.288	0.0169161
805.366	0.0168643
805.444	0.0168904
805.522	0.0167088
805.600	0.0167064
805.678	0.0166730
805.756	0.0169260
805.834	0.0167333
805.913	0.0165022
805.991	0.0165926
806.069	0.0164896
806.147	0.0164471
806.225	0.0163639
806.303	0.0165588
806.381	0.0163329
806.459	0.0162012
806.538	0.0161771
806.616	0.0161660
806.694	0.0160901
806.772	0.0159991
806.850	0.0161024
806.928	0.0163628
807.006	0.0163256
807.084	0.0164008
807.163	0.0164674
807.241	0.0165615
807.319	0.0165285
807.397	0.0165661
807.475	0.0165058
807.553	0.0164980
807.631	0.0164337
807.709	0.0164772
807.788	0.0164351
807.866	0.0164425
807.944	0.0163126
808.022	0.0161528
808.100	0.0160865
808.178	0.0160931
808.256	0.0160880
808.334	0.0160265
808.413	0.0159018
808.491	0.0158708
808.569	0.0161498
808.647	0.0160542
808.725	0.0159249
808.803	0.0161754
808.881	0.0160873
808.959	0.0160831
809.038	0.0162922
809.116	0.0163046
809.194	0.0163300
809.272	0.0165266
809.350	0.0164106
809.428	0.0163911
809.506	0.0165757
809.584	0.0165737
809.663	0.0165471
809.741	0.0166516
809.819	0.0166434
809.897	0.0166546
809.975	0.0167103
810.053	0.0167448
810.131	0.0166669
810.209	0.0167590
810.288	0.0167515
810.366	0.0168487
810.444	0.0166476
810.522	0.0166818
810.600	0.0165470
810.678	0.0165177
810.756	0.0166695
810.834	0.0166244
810.913	0.0166000
810.991	0.0166363
811.069	0.0165982
811.147	0.0166866
811.225	0.0167814
811.303	0.0167728
811.381	0.0167236
811.459	0.0166663
811.538	0.0168766
811.616	0.0169662
811.694	0.0170145
811.772	0.0168848
811.850	0.0168921
811.928	0.0169423
812.006	0.0168726
812.084	0.0166273
812.163	0.0165958
812.241	0.0166784
812.319	0.0163896
812.397	0.0165543
812.475	0.0162051
812.553	0.0160152
812.631	0.0158994
812.709	0.0159922
812.788	0.0159158
812.866	0.0158350
812.944	0.0159184
813.022	0.0158202
813.100	0.0158329
813.178	0.0158649
813.256	0.0157887
813.334	0.0160230
813.413	0.0161727
813.491	0.0161457
813.569	0.0162900
813.647	0.0163412
813.725	0.0163422
813.803	0.0166280
813.881	0.0167060
813.959	0.0165225
814.038	0.0167352
814.116	0.0166234
814.194	0.0164326
814.272	0.0164925
814.350	0.0163275
814.428	0.0162871
814.506	0.0162988
814.584	0.0162792
814.663	0.0160379
814.741	0.0161968
814.819	0.0162167
814.897	0.0161320
814.975	0.0162357
815.053	0.0163486
815.131	0.0162738
815.209	0.0165047
815.288	0.0164916
815.366	0.0163056
815.444	0.0163240
815.522	0.0164555
815.600	0.0164946
815.678	0.0164776
815.756	0.0165991
815.834	0.0165366
815.913	0.0165619
815.991	0.0166601
816.069	0.0166175
816.147	0.0168046
816.225	0.0168598
816.303	0.0168339
816.381	0.0168821
816.459	0.0168911
816.538	0.0170593
816.616	0.0168002
816.694	0.0167871
816.772	0.0169292
816.850	0.0167728
816.928	0.0167563
817.006	0.0166662
817.084	0.0168144
817.163	0.0167379
817.241	0.0167274
817.319	0.0165840
817.397	0.0166040
817.475	0.0167677
817.553	0.0165338
817.631	0.0164745
817.709	0.0166283
817.788	0.0164645
817.866	0.0163596
817.944	0.0163267
818.022	0.0163548
818.100	0.0163154
818.178	0.0162592
818.256	0.0161036
818.334	0.0161863
818.413	0.0161308
818.491	0.0160888
818.569	0.0160225
818.647	0.0159262
818.725	0.0161009
818.803	0.0159047
818.881	0.0160013
818.959	0.0158811
819.038	0.0159843
819.116	0.0159662
819.194	0.0159518
819.272	0.0160894
819.350	0.0161189
819.428	0.0162343
819.506	0.0161882
819.584	0.0162084
819.663	0.0163044
819.741	0.0163190
819.819	0.0163165
819.897	0.0163907
819.975	0.0163242
820.053	0.0164638
820.131	0.0163530
820.209	0.0164434
820.288	0.0167079
820.366	0.0165398
820.444	0.0164973
820.522	0.0166050
820.600	0.0167443
820.678	0.0167005
820.756	0.0165302
820.834	0.0167064
820.913	0.0165025
820.991	0.0164861
821.069	0.0164842
821.147	0.0165149
821.225	0.0163190
821.303	0.0163434
821.381	0.0162509
821.459	0.0161833
821.538	0.0161560
821.616	0.0162164
821.694	0.0161526
821.772	0.0160436
821.850	0.0160697
821.928	0.0160960
822.006	0.0161668
822.084	0.0161990
822.163	0.0161848
822.241	0.0161570
822.319	0.0163791
822.397	0.0164261
822.475	0.0165436
822.553	0.0165540
822.631	0.0164217
822.709	0.0165780
822.788	0.0165388
822.866	0.0165857
822.944	0.0166156
823.022	0.0164355
823.100	0.0165269
823.178	0.0166130
823.256	0.0165788
823.334	0.0163968
823.413	0.0163865
823.491	0.0164288
823.569	0.0162663
823.647	0.0163300
823.725	0.0164732
823.803	0.0163595
823.881	0.0164393
823.959	0.0164322
824.038	0.0163036
824.116	0.0162178
824.194	0.0162623
824.272	0.0162308
824.350	0.0162927
824.428	0.0163213
824.506	0.0161334
824.584	0.0160878
824.663	0.0160208
824.741	0.0161914
824.819	0.0160775
824.897	0.0160848
824.975	0.0161501
825.053	0.0162448
825.131	0.0162798
825.209	0.0162112
825.288	0.0163833
825.366	0.0163232
825.444	0.0165061
825.522	0.0164119
825.600	0.0163137
825.678	0.0164586
825.756	0.0164709
825.834	0.0166702
825.913	0.0166291
825.991	0.0164521
826.069	0.0163543
826.147	0.0165979
826.225	0.0166402
826.303	0.0164791
826.381	0.0164841
826.459	0.0163764
826.538	0.0162698
826.616	0.0162662
826.694	0.0161703
826.772	0.0162235
826.850	0.0160683
826.928	0.0159761
827.006	0.0161625
827.084	0.0161983
827.163	0.0161366
827.241	0.0160511
827.319	0.0159399
827.397	0.0158107
827.475	0.0159969
827.553	0.0160690
827.631	0.0161801
827.709	0.0160326
827.788	0.0160715
827.866	0.0162184
827.944	0.0161021
828.022	0.0160495
828.100	0.0162599
828.178	0.0162302
828.256	0.0164411
828.334	0.0163011
828.413	0.0164716
828.491	0.0166232
828.569	0.0165994
828.647	0.0166642
828.725	0.0167689
828.803	0.0165176
828.881	0.0166528
828.959	0.0167471
829.038	0.0166381
829.116	0.0166769
829.194	0.0167164
829.272	0.0166250
829.350	0.0167513
829.428	0.0167116
829.506	0.0167463
829.584	0.0166859
829.663	0.0166531
829.741	0.0166008
829.819	0.0166179
829.897	0.0166401
829.975	0.0164355
830.053	0.0165200
830.131	0.0164842
830.209	0.0164022
830.288	0.0162761
830.366	0.0162919
830.444	0.0162022
830.522	0.0163057
830.600	0.0163877
830.678	0.0161601
830.756	0.0161238
830.834	0.0162678
830.913	0.0164554
830.991	0.0163557
831.069	0.0163268
831.147	0.0163960
831.225	0.0164341
831.303	0.0165877
831.381	0.0167316
831.459	0.0165810
831.538	0.0165751
831.616	0.0165182
831.694	0.0164989
831.772	0.0164369
831.850	0.0164622
831.928	0.0165050
832.006	0.0165305
832.084	0.0165707
832.163	0.0164375
832.241	0.0164539
832.319	0.0165450
832.397	0.0164909
832.475	0.0166189
832.553	0.0165570
832.631	0.0166084
832.709	0.0165001
832.788	0.0165363
832.866	0.0164738
832.944	0.0163784
833.022	0.0163631
833.100	0.0163658
833.178	0.0163586
833.256	0.0163807
833.334	0.0161590
833.413	0.0162070
833.491	0.0162085
833.569	0.0162164
833.647	0.0162418
833.725	0.0160803
833.803	0.0161422
833.881	0.0162136
833.959	0.0162994
834.038	0.0162283
834.116	0.0163341
834.194	0.0164056
834.272	0.0164050
834.350	0.0164657
834.428	0.0165919
834.506	0.0167202
834.584	0.0168823
834.663	0.0167477
834.741	0.0168576
834.819	0.0168369
834.897	0.0168973
834.975	0.0168129
835.053	0.0170462
835.131	0.0169577
835.209	0.0168465
835.288	0.0169029
835.366	0.0168416
835.444	0.0167721
835.522	0.0167637
835.600	0.0165681
835.678	0.0165671
835.756	0.0166269
835.834	0.0165582
835.913	0.0165097
835.991	0.0162822
836.069	0.0163688
836.147	0.0161815
836.225	0.0161168
836.303	0.0161909
836.381	0.0161425
836.459	0.0160460
836.538	0.0159899
836.616	0.0160294
836.694	0.0160194
836.772	0.0161675
836.850	0.0160684
836.928	0.0159442
837.006	0.0161765
837.084	0.0161816
837.163	0.0163873
837.241	0.0163377
837.319	0.0165240
837.397	0.0164455
837.475	0.0164896
837.553	0.0165355
837.631	0.0165510
837.709	0.0166269
837.788	0.0166686
837.866	0.0164283
837.944	0.0166132
838.022	0.0165477
838.100	0.0164111
838.178	0.0164658
838.256	0.0164377
838.334	0.0165440
838.413	0.0165938
838.491	0.0164891
838.569	0.0165644
838.647	0.0164043
838.725	0.0165393
838.803	0.0164285
838.881	0.0165132
838.959	0.0163888
839.038	0.0164310
839.116	0.0163887
839.194	0.0163080
839.272	0.0161455
839.350	0.0162655
839.428	0.0160474
839.506	0.0163801
839.584	0.0161514
839.663	0.0159586
839.741	0.0159705
839.819	0.0161523
839.897	0.0159660
839.975	0.0159166
840.053	0.0160960
840.131	0.0160919
840.209	0.0162179
840.288	0.0161307
840.366	0.0161812
840.444	0.0162355
840.522	0.0162563
840.600	0.0163197
840.678	0.0163216
840.756	0.0164452
840.834	0.0163238
840.913	0.0163208
840.991	0.0164230
841.069	0.0163873
841.147	0.0164365
841.225	0.0163062
841.303	0.0165737
841.381	0.0165279
841.459	0.0164538
841.538	0.0166301
841.616	0.0165350
841.694	0.0165239
841.772	0.0165053
841.850	0.0165194
841.928	0.0163826
842.006	0.0163493
842.084	0.0163317
842.163	0.0163631
842.241	0.0162671
842.319	0.0162561
842.397	0.0162298
842.475	0.0163763
842.553	0.0162679
842.631	0.0162359
842.709	0.0162928
842.788	0.0162749
842.866	0.0162977
842.944	0.0162782
843.022	0.0163622
843.100	0.0165456
843.178	0.0164615
843.256	0.0164906
843.334	0.0164664
843.413	0.0165812
843.491	0.0167094
843.569	0.0168435
843.647	0.0168054
843.725	0.0167592
843.803	0.0168822
843.881	0.0170347
843.959	0.0169973
844.038	0.0168187
844.116	0.0169518
844.194	0.0169391
844.272	0.0165766
844.350	0.0165982
844.428	0.0166827
844.506	0.0164787
844.584	0.0164572
844.663	0.0163722
844.741	0.0162634
844.819	0.0161610
844.897	0.0161894
844.975	0.0160633
845.053	0.0158920
845.131	0.0159502
845.209	0.0158960
845.288	0.0159379
845.366	0.0158541
845.444	0.0156921
845.522	0.0157540
845.600	0.0157095
845.678	0.0158042
845.756	0.0159482
845.834	0.0158836
845.913	0.0158038
845.991	0.0160892
846.069	0.0161602
846.147	0.0160781
846.225	0.0163879
846.303	0.0163272
846.381	0.0163908
846.459	0.0165383
846.538	0.0165006
846.616	0.0166089
846.694	0.0166620
846.772	0.0165330
846.850	0.0165208
846.928	0.0165012
847.006	0.0165305
847.084	0.0166191
847.163	0.0166452
847.241	0.0164857
847.319	0.0162827
847.397	0.0163397
847.475	0.0163216
847.553	0.0163503
847.631	0.0163318
847.709	0.0162600
847.788	0.0163786
847.866	0.0163522
847.944	0.0162667
848.022	0.0162136
848.100	0.0162317
848.178	0.0164059
848.256	0.0163002
848.334	0.0163105
848.413	0.0162431
848.491	0.0162370
848.569	0.0161805
848.647	0.0161382
848.725	0.0162234
848.803	0.0162083
848.881	0.0161456
848.959	0.0161279
849.038	0.0160765
849.116	0.0163602
849.194	0.0163598
849.272	0.0163244
849.350	0.0162537
849.428	0.0164060
849.506	0.0163213
849.584	0.0163304
849.663	0.0164584
849.741	0.0164685
849.819	0.0164243
849.897	0.0166079
849.975	0.0166434
850.053	0.0164989
850.131	0.0165524
850.209	0.0166860
850.288	0.0167210
850.366	0.0166225
850.444	0.0166786
850.522	0.0166209
850.600	0.0166342
850.678	0.0165762
850.756	0.0166537
850.834	0.0167127
850.913	0.0165823
850.991	0.0166015
851.069	0.0165621
851.147	0.0165329
851.225	0.0164650
851.303	0.0163857
851.381	0.0165630
851.459	0.0165030
851.538	0.0164008
851.616	0.0164433
851.694	0.0163550
851.772	0.0164108
851.850	0.0164261
851.928	0.0162061
852.006	0.0164108
852.084	0.0161694
852.163	0.0162124
852.241	0.0163069
852.319	0.0163924
852.397	0.0163447
852.475	0.0163697
852.553	0.0164471
852.631	0.0166277
852.709	0.0166158
852.788	0.0166032
852.866	0.0165733
852.944	0.0167876
853.022	0.0168003
853.100	0.0167698
853.178	0.0168027
853.256	0.0168447
853.334	0.0167239
853.413	0.0167519
853.491	0.0166319
853.569	0.0166890
853.647	0.0167152
853.725	0.0165821
853.803	0.0165501
853.881	0.0164849
853.959	0.0163512
854.038	0.0162767
854.116	0.0162561
854.194	0.0160847
854.272	0.0161223
854.350	0.0160383
854.428	0.0158838
854.506	0.0158475
854.584	0.0159275
854.663	0.0157958
854.741	0.0156843
854.819	0.0158507
854.897	0.0159159
854.975	0.0159145
855.053	0.0161553
855.131	0.0161430
855.209	0.0161679
855.288	0.0161767
855.366	0.0163300
855.444	0.0164828
855.522	0.0165478
855.600	0.0164970
855.678	0.0166611
855.756	0.0165622
855.834	0.0165261
855.913	0.0167696
855.991	0.0167451
856.069	0.0166096
856.147	0.0165927
856.225	0.0166933
856.303	0.0166869
856.381	0.0166898
856.459	0.0165159
856.538	0.0165502
856.616	0.0165626
856.694	0.0163731
856.772	0.0163806
856.850	0.0163919
856.928	0.0164713
857.006	0.0164233
857.084	0.0163702
857.163	0.0164118
857.241	0.0162752
857.319	0.0162729
857.397	0.0163773
857.475	0.0163337
857.553	0.0164137
857.631	0.0162782
857.709	0.0162880
857.788	0.0163453
857.866	0.0163840
857.944	0.0163808
858.022	0.0163359
858.100	0.0164018
858.178	0.0164608
858.256	0.0164714
858.334	0.0164441
858.413	0.0165835
858.491	0.0164654
858.569	0.0165266
858.647	0.0165467
858.725	0.0166502
858.803	0.0167165
858.881	0.0167281
858.959	0.0167273
859.038	0.0168111
859.116	0.0166859
859.194	0.0168766
859.272	0.0167899
859.350	0.0167988
859.428	0.0168274
859.506	0.0169290
859.584	0.0168015
859.663	0.0166025
859.741	0.0167308
859.819	0.0165942
859.897	0.0165044
859.975	0.0164855
860.053	0.0164637
860.131	0.0164278
860.209	0.0161755
860.288	0.0161356
860.366	0.0162223
860.444	0.0160546
860.522	0.0160035
860.600	0.0159385
860.678	0.0160489
860.756	0.0160001
860.834	0.0159742
860.913	0.0160259
860.991	0.0159105
861.069	0.0157273
861.147	0.0158170
861.225	0.0159009
861.303	0.0158819
861.381	0.0159454
861.459	0.0159069
861.538	0.0160125
861.616	0.0162055
861.694	0.0161906
861.772	0.0163444
861.850	0.0163584
861.928	0.0163612
862.006	0.0165114
862.084	0.0165864
862.163	0.0166637
862.241	0.0166385
862.319	0.0167372
862.397	0.0167289
862.475	0.0166709
862.553	0.0166858
862.631	0.0165322
862.709	0.0166381
862.788	0.0167028
862.866	0.0167346
862.944	0.0165154
863.022	0.0163918
863.100	0.0164730
863.178	0.0163686
863.256	0.0161729
863.334	0.0161555
863.413	0.0161866
863.491	0.0162469
863.569	0.0158855
863.647	0.0158960
863.725	0.0158242
863.803	0.0160271
863.881	0.0158751
863.959	0.0159223
864.038	0.0160160
864.116	0.0158959
864.194	0.0161387
864.272	0.0163134
864.350	0.0162736
864.428	0.0164072
864.506	0.0163885
864.584	0.0164193
864.663	0.0165234
864.741	0.0165839
864.819	0.0166110
864.897	0.0166421
864.975	0.0167593
865.053	0.0167725
865.131	0.0167561
865.209	0.0165845
865.288	0.0165804
865.366	0.0164960
865.444	0.0166306
865.522	0.0163783
865.600	0.0165755
865.678	0.0163813
865.756	0.0163088
865.834	0.0162719
865.913	0.0162585
865.991	0.0164756
866.069	0.0163412
866.147	0.0163538
866.225	0.0164285
866.303	0.0164564
866.381	0.0164883
866.459	0.0165532
866.538	0.0162846
866.616	0.0164269
866.694	0.0164489
866.772	0.0163706
866.850	0.0163486
866.928	0.0164083
867.006	0.0164210
867.084	0.0162798
867.163	0.0162321
867.241	0.0162678
867.319	0.0163282
867.397	0.0164182
867.475	0.0163082
867.553	0.0161598
867.631	0.0163152
867.709	0.0162183
867.788	0.0162368
867.866	0.0162606
867.944	0.0163027
868.022	0.0163901
868.100	0.0162737
868.178	0.0164529
868.256	0.0164117
868.334	0.0163390
868.413	0.0165515
868.491	0.0164022
868.569	0.0163918
868.647	0.0164600
868.725	0.0163615
868.803	0.0164030
868.881	0.0163144
868.959	0.0162440
869.038	0.0162541
869.116	0.0161666
869.194	0.0161284
869.272	0.0160358
869.350	0.0161160
869.428	0.0161052
869.506	0.0161127
869.584	0.0161138
869.663	0.0159071
869.741	0.0158871
869.819	0.0159671
869.897	0.0159978
869.975	0.0158285
870.053	0.0158636
870.131	0.0159547
870.209	0.0160227
870.288	0.0160113
870.366	0.0161839
870.444	0.0159982
870.522	0.0162329
870.600	0.0161322
870.678	0.0161295
870.756	0.0163627
870.834	0.0163116
870.913	0.0164970
870.991	0.0163856
871.069	0.0165102
871.147	0.0165097
871.225	0.0165576
871.303	0.0166970
871.381	0.0168222
871.459	0.0167457
871.538	0.0166048
871.616	0.0167075
871.694	0.0166265
871.772	0.0166177
871.850	0.0164780
871.928	0.0165223
872.006	0.0165210
872.084	0.0164964
872.163	0.0164552
872.241	0.0163776
872.319	0.0163589
872.397	0.0164041
872.475	0.0162042
872.553	0.0161710
872.631	0.0162375
872.709	0.0162426
872.788	0.0161658
872.866	0.0161122
872.944	0.0163442
873.022	0.0162823
873.100	0.0162366
873.178	0.0161614
873.256	0.0162330
873.334	0.0163750
873.413	0.0164630
873.491	0.0165702
873.569	0.0165108
873.647	0.0166167
873.725	0.0166109
873.803	0.0165284
873.881	0.0167130
873.959	0.0167592
874.038	0.0166234
874.116	0.0167274
874.194	0.0166684
874.272	0.0166979
874.350	0.0168032
874.428	0.0166892
874.506	0.0166277
874.584	0.0165215
874.663	0.0164915
874.741	0.0166160
874.819	0.0165292
874.897	0.0164095
874.975	0.0164483
875.053	0.0163770
875.131	0.0163514
875.209	0.0163737
875.288	0.0162968
875.366	0.0164024
875.444	0.0163975
875.522	0.0165014
875.600	0.0164468
875.678	0.0164571
875.756	0.0164101
875.834	0.0164803
875.913	0.0164295
875.991	0.0166184
876.069	0.0164445
876.147	0.0165164
876.225	0.0164919
876.303	0.0164833
876.381	0.0165371
876.459	0.0165281
876.538	0.0164811
876.616	0.0163734
876.694	0.0163473
876.772	0.0163165
876.850	0.0162543
876.928	0.0162981
877.006	0.0163334
877.084	0.0163679
877.163	0.0163308
877.241	0.0164507
877.319	0.0165034
877.397	0.0165160
877.475	0.0165348
877.553	0.0167361
877.631	0.0167720
877.709	0.0166254
877.788	0.0166776
877.866	0.0165799
877.944	0.0166314
878.022	0.0165398
878.100	0.0166595
878.178	0.0165175
878.256	0.0164186
878.334	0.0165598
878.413	0.0165129
878.491	0.0164638
878.569	0.0164205
878.647	0.0163106
878.725	0.0163171
878.803	0.0164165
878.881	0.0162695
878.959	0.0162956
879.038	0.0163767
879.116	0.0163961
879.194	0.0163695
879.272	0.0163914
879.350	0.0163486
879.428	0.0163168
879.506	0.0164355
879.584	0.0163743
879.663	0.0162755
879.741	0.0162351
879.819	0.0165251
879.897	0.0165451
879.975	0.0164018
880.053	0.0165177
880.131	0.0164352
880.209	0.0165847
880.288	0.0167796
880.366	0.0169251
880.444	0.0167880
880.522	0.0169104
880.600	0.0169203
880.678	0.0168948
880.756	0.0168246
880.834	0.0169785
880.913	0.0168227
880.991	0.0166185
881.069	0.0166886
881.147	0.0166528
881.225	0.0167074
881.303	0.0165588
881.381	0.0163978
881.459	0.0162680
881.538	0.0161992
881.616	0.0161179
881.694	0.0161162
881.772	0.0158604
881.850	0.0159745
881.928	0.0159697
882.006	0.0159963
882.084	0.0158643
882.163	0.0158741
882.241	0.0159570
882.319	0.0160561
882.397	0.0161286
882.475	0.0161165
882.553	0.0163059
882.631	0.0162777
882.709	0.0164095
882.788	0.0166685
882.866	0.0166912
882.944	0.0167120
883.022	0.0168897
883.100	0.0168863
883.178	0.0166665
883.256	0.0168415
883.334	0.0168316
883.413	0.0169114
883.491	0.0168478
883.569	0.0168858
883.647	0.0167165
883.725	0.0166770
883.803	0.0165255
883.881	0.0164743
883.959	0.0162354
884.038	0.0163409
884.116	0.0162127
884.194	0.0160078
884.272	0.0159351
884.350	0.0160186
884.428	0.0159055
884.506	0.0158515
884.584	0.0158173
884.663	0.0158846
884.741	0.0158086
884.819	0.0159640
884.897	0.0160099
884.975	0.0160249
885.053	0.0159413
885.131	0.0159962
885.209	0.0160741
885.288	0.0161089
885.366	0.0161231
885.444	0.0161209
885.522	0.0160910
885.600	0.0160149
885.678	0.0161223
885.756	0.0163891
885.834	0.0160896
885.913	0.0163858
885.991	0.0164804
886.069	0.0163989
886.147	0.0164781
886.225	0.0165231
886.303	0.0167474
886.381	0.0166677
886.459	0.0167417
886.538	0.0167520
886.616	0.0168980
886.694	0.0168246
886.772	0.0166778
886.850	0.0165470
886.928	0.0166063
887.006	0.0165421
887.084	0.0164217
887.163	0.0161556
887.241	0.0163019
887.319	0.0162337
887.397	0.0161050
887.475	0.0160354
887.553	0.0161307
887.631	0.0162122
887.709	0.0162201
887.788	0.0162743
887.866	0.0163400
887.944	0.0161931
888.022	0.0163265
888.100	0.0163226
888.178	0.0164522
888.256	0.0164839
888.334	0.0163945
888.413	0.0163694
888.491	0.0162219
888.569	0.0163013
888.647	0.0163156
888.725	0.0161822
888.803	0.0162789
888.881	0.0162109
888.959	0.0162356
889.038	0.0161919
889.116	0.0161798
889.194	0.0161475
889.272	0.0163013
889.350	0.0163498
889.428	0.0164527
889.506	0.0165434
889.584	0.0164590
889.663	0.0164573
889.741	0.0166977
889.819	0.0165388
889.897	0.0164732
889.975	0.0165862
890.053	0.0165923
890.131	0.0164890
890.209	0.0164581
890.288	0.0164128
890.366	0.0165556
890.444	0.0165006
890.522	0.0164268
890.600	0.0164839
890.678	0.0164000
890.756	0.0164450
890.834	0.0165480
890.913	0.0165128
890.991	0.0164032
891.069	0.0163444
891.147	0.0162484
891.225	0.0163074
891.303	0.0163209
891.381	0.0161333
891.459	0.0161550
891.538	0.0161723
891.616	0.0161752
891.694	0.0162101
891.772	0.0161948
891.850	0.0162128
891.928	0.0162718
892.006	0.0162160
892.084	0.0165889
892.163	0.0164845
892.241	0.0163868
892.319	0.0165842
892.397	0.0165933
892.475	0.0164944
892.553	0.0165929
892.631	0.0165022
892.709	0.0166366
892.788	0.0163677
892.866	0.0163889
892.944	0.0164593
893.022	0.0164028
893.100	0.0164342
893.178	0.0162975
893.256	0.0162946
893.334	0.0162470
893.413	0.0162398
893.491	0.0161979
893.569	0.0161089
893.647	0.0162066
893.725	0.0162094
893.803	0.0161452
893.881	0.0162623
893.959	0.0161675
894.038	0.0161800
894.116	0.0162379
894.194	0.0162118
894.272	0.0161510
894.350	0.0162092
894.428	0.0160931
894.506	0.0159850
894.584	0.0160227
894.663	0.0161465
894.741	0.0161348
894.819	0.0161175
894.897	0.0161810
894.975	0.0161518
895.053	0.0162900
895.131	0.0163347
895.209	0.0163555
895.288	0.0163371
895.366	0.0164474
895.444	0.0166457
895.522	0.0167796
895.600	0.0167647
895.678	0.0168325
895.756	0.0169189
895.834	0.0169566
895.913	0.0169390
895.991	0.0169901
896.069	0.0171063
896.147	0.0169198
896.225	0.0168494
896.303	0.0167771
896.381	0.0168410
896.459	0.0165522
896.538	0.0164327
896.616	0.0163892
896.694	0.0163042
896.772	0.0162782
896.850	0.0161333
896.928	0.0161495
897.006	0.0162023
897.084	0.0161495
897.163	0.0161147
897.241	0.0162298
897.319	0.0159619
897.397	0.0160797
897.475	0.0162016
897.553	0.0162092
897.631	0.0161888
897.709	0.0162243
897.788	0.0163585
897.866	0.0162501
897.944	0.0162518
898.022	0.0162901
898.100	0.0164323
898.178	0.0162415
898.256	0.0165085
898.334	0.0164871
898.413	0.0166919
898.491	0.0165707
898.569	0.0167246
898.647	0.0166949
898.725	0.0167546
898.803	0.0168068
898.881	0.0168905
898.959	0.0168943
899.038	0.0168891
899.116	0.0169604
899.194	0.0168393
899.272	0.0167774
899.350	0.0167530
899.428	0.0166172
899.506	0.0165752
899.584	0.0166000
899.663	0.0164220
899.741	0.0164198
899.819	0.0162785
899.897	0.0161880
899.975	0.0161559
900.053	0.0163708
900.131	0.0163084
900.209	0.0163017
900.288	0.0163799
900.366	0.0162210
900.444	0.0162899
900.522	0.0161906
900.600	0.0163074
900.678	0.0162265
900.756	0.0162309
900.834	0.0163630
900.913	0.0162926
900.991	0.0164886
901.069	0.0164676
901.147	0.0165014
901.225	0.0166759
901.303	0.0165228
901.381	0.0166669
901.459	0.0166308
901.538	0.0167128
901.616	0.0168057
901.694	0.0168236
901.772	0.0166730
901.850	0.0166933
901.928	0.0167122
902.006	0.0167600
902.084	0.0165825
902.163	0.0165866
902.241	0.0164587
902.319	0.0164787
902.397	0.0165227
902.475	0.0164713
902.553	0.0163331
902.631	0.0164110
902.709	0.0163177
902.788	0.0162005
902.866	0.0161782
902.944	0.0162231
903.022	0.0161739
903.100	0.0163319
903.178	0.0162976
903.256	0.0161539
903.334	0.0163651
903.413	0.0163210
903.491	0.0164874
903.569	0.0163920
903.647	0.0165818
903.725	0.0163599
903.803	0.0164281
903.881	0.0164217
903.959	0.0163463
904.038	0.0165218
904.116	0.0162746
904.194	0.0163390
904.272	0.0165638
904.350	0.0163659
904.428	0.0163346
904.506	0.0164346
904.584	0.0164042
904.663	0.0163766
904.741	0.0164292
904.819	0.0164847
904.897	0.0165497
904.975	0.0163869
905.053	0.0163971
905.131	0.0165108
905.209	0.0165207
905.288	0.0164404
905.366	0.0163911
905.444	0.0163444
905.522	0.0162151
905.600	0.0163378
905.678	0.0164374
905.756	0.0162128
905.834	0.0163605
905.913	0.0161763
905.991	0.0163119
906.069	0.0161549
906.147	0.0162434
906.225	0.0161108
906.303	0.0162407
906.381	0.0162373
906.459	0.0161750
906.538	0.0161460
906.616	0.0161452
906.694	0.0161638
906.772	0.0162325
906.850	0.0162762
906.928	0.0161355
907.006	0.0163196
907.084	0.0162837
907.163	0.0163671
907.241	0.0162721
907.319	0.0165173
907.397	0.0164249
907.475	0.0165357
907.553	0.0165190
907.631	0.0165615
907.709	0.0166506
907.788	0.0166772
907.866	0.0167625
907.944	0.0169379
908.022	0.0169442
908.100	0.0167315
908.178	0.0167831
908.256	0.0168723
908.334	0.0165937
908.413	0.0166399
908.491	0.0166550
908.569	0.0165538
908.647	0.0163705
908.725	0.0163157
908.803	0.0162356
908.881	0.0163161
908.959	0.0161301
909.038	0.0159574
909.116	0.0160236
909.194	0.0161143
909.272	0.0160081
909.350	0.0158970
909.428	0.0159940
909.506	0.0159774
909.584	0.0160937
909.663	0.0160662
909.741	0.0160217
909.819	0.0159750
909.897	0.0161868
909.975	0.0162742
910.053	0.0162067
910.131	0.0163567
910.209	0.0164177
910.288	0.0166057
910.366	0.0166788
910.444	0.0165852
910.522	0.0168381
910.600	0.0168531
910.678	0.0169329
910.756	0.0168128
910.834	0.0168958
910.913	0.0169430
910.991	0.0170231
911.069	0.0169118
911.147	0.0168027
911.225	0.0167766
911.303	0.0166869
911.381	0.0166569
911.459	0.0165087
911.538	0.0165744
911.616	0.0164317
911.694	0.0164621
911.772	0.0163656
911.850	0.0164759
911.928	0.0165715
912.006	0.0164658
912.084	0.0163547
912.163	0.0164305
912.241	0.0163898
912.319	0.0163845
912.397	0.0164514
912.475	0.0163961
912.553	0.0163634
912.631	0.0162534
912.709	0.0163640
912.788	0.0163088
912.866	0.0164435
912.944	0.0163612
913.022	0.0163655
913.100	0.0163490
913.178	0.0163688
913.256	0.0163660
913.334	0.0162755
913.413	0.0162312
913.491	0.0163121
913.569	0.0165161
913.647	0.0164135
913.725	0.0163621
913.803	0.0165802
913.881	0.0165794
913.959	0.0164610
914.038	0.0166034
914.116	0.0166544
914.194	0.0166523
914.272	0.0167923
914.350	0.0166660
914.428	0.0166537
914.506	0.0166417
914.584	0.0166337
914.663	0.0166571
914.741	0.0167729
914.819	0.0165657
914.897	0.0165125
914.975	0.0164202
915.053	0.0164495
915.131	0.0165707
915.209	0.0163125
915.288	0.0162046
915.366	0.0162753
915.444	0.0164455
915.522	0.0162982
915.600	0.0161401
915.678	0.0161993
915.756	0.0162521
915.834	0.0160776
915.913	0.0160104
915.991	0.0160490
916.069	0.0160089
916.147	0.0161591
916.225	0.0160735
916.303	0.0161497
916.381	0.0162534
916.459	0.0162615
916.538	0.0164074
916.616	0.0163248
916.694	0.0164640
916.772	0.0164674
916.850	0.0164017
916.928	0.0164567
917.006	0.0166167
917.084	0.0166296
917.163	0.0165793
917.241	0.0165194
917.319	0.0166528
917.397	0.0165356
917.475	0.0167127
917.553	0.0166493
917.631	0.0166841
917.709	0.0166744
917.788	0.0165437
917.866	0.0166278
917.944	0.0165740
918.022	0.0165560
918.100	0.0164001
918.178	0.0161913
918.256	0.0161469
918.334	0.0161922
918.413	0.0161936
918.491	0.0160760
918.569	0.0160552
918.647	0.0159978
918.725	0.0160168
918.803	0.0160933
918.881	0.0160655
918.959	0.0161065
919.038	0.0163554
919.116	0.0162302
919.194	0.0161607
919.272	0.0162472
919.350	0.0162684
919.428	0.0163734
919.506	0.0162448
919.584	0.0164311
919.663	0.0162822
919.741	0.0164500
919.819	0.0164700
919.897	0.0165692
