05/20/2022	21:03:33	Ver.	4.1	UNKNOWN
Optical Delay	599.975067	Delta X		0.078125	Sweeps	1	Scan Rate	0/0
Coordinates	Axis 1	NaN	Axis 2	NaN	Axis 3	NaN	Axis 4	NaN	Axis 5	NaN	Axis 6	0.000000
TX Power	0.000000	RX Power	0.000000

599.975	0.0159055
600.053	0.0158199
600.131	0.0158723
600.209	0.0157599
600.288	0.0156345
600.366	0.0156882
600.444	0.0157494
600.522	0.0158713
600.600	0.0158355
600.678	0.0157533
600.756	0.0156784
600.834	0.0157697
600.913	0.0156773
600.991	0.0158067
601.069	0.0157165
601.147	0.0157896
601.225	0.0156259
601.303	0.0157506
601.381	0.0156876
601.459	0.0158340
601.538	0.0158958
601.616	0.0156354
601.694	0.0157238
601.772	0.0156750
601.850	0.0157150
601.928	0.0157138
602.006	0.0157020
602.084	0.0157925
602.163	0.0156641
602.241	0.0158126
602.319	0.0157175
602.397	0.0157018
602.475	0.0156046
602.553	0.0158225
602.631	0.0156005
602.709	0.0156956
602.788	0.0156989
602.866	0.0157401
602.944	0.0156745
603.022	0.0156248
603.100	0.0156698
603.178	0.0155965
603.256	0.0156291
603.334	0.0155974
603.413	0.0156207
603.491	0.0157398
603.569	0.0156992
603.647	0.0156597
603.725	0.0155803
603.803	0.0156022
603.881	0.0156430
603.959	0.0156588
604.038	0.0156292
604.116	0.0157717
604.194	0.0157682
604.272	0.0156783
604.350	0.0157086
604.428	0.0156495
604.506	0.0155649
604.584	0.0157271
604.663	0.0157324
604.741	0.0156779
604.819	0.0157767
604.897	0.0156985
604.975	0.0157094
605.053	0.0157592
605.131	0.0157398
605.209	0.0156805
605.288	0.0157764
605.366	0.0157862
605.444	0.0158237
605.522	0.0156467
605.600	0.0157216
605.678	0.0157365
605.756	0.0158846
605.834	0.0156925
605.913	0.0158510
605.991	0.0157635
606.069	0.0158102
606.147	0.0158150
606.225	0.0157781
606.303	0.0157881
606.381	0.0158656
606.459	0.0158515
606.538	0.0157596
606.616	0.0156999
606.694	0.0158180
606.772	0.0157527
606.850	0.0158483
606.928	0.0157194
607.006	0.0159032
607.084	0.0158099
607.163	0.0158442
607.241	0.0156779
607.319	0.0158128
607.397	0.0159471
607.475	0.0158160
607.553	0.0158832
607.631	0.0159920
607.709	0.0157417
607.788	0.0156859
607.866	0.0157453
607.944	0.0158149
608.022	0.0157785
608.100	0.0158695
608.178	0.0158744
608.256	0.0157964
608.334	0.0159201
608.413	0.0158659
608.491	0.0158627
608.569	0.0160162
608.647	0.0159814
608.725	0.0158971
608.803	0.0158452
608.881	0.0158633
608.959	0.0159816
609.038	0.0158851
609.116	0.0159946
609.194	0.0160588
609.272	0.0159191
609.350	0.0158706
609.428	0.0159205
609.506	0.0159601
609.584	0.0160552
609.663	0.0161002
609.741	0.0159831
609.819	0.0159380
609.897	0.0159145
609.975	0.0159634
610.053	0.0159782
610.131	0.0159826
610.209	0.0159428
610.288	0.0160152
610.366	0.0158775
610.444	0.0159908
610.522	0.0159502
610.600	0.0159316
610.678	0.0158995
610.756	0.0159989
610.834	0.0159547
610.913	0.0158889
610.991	0.0159854
611.069	0.0160571
611.147	0.0159716
611.225	0.0159195
611.303	0.0159853
611.381	0.0159476
611.459	0.0160136
611.538	0.0159692
611.616	0.0160259
611.694	0.0160310
611.772	0.0159450
611.850	0.0161391
611.928	0.0160573
612.006	0.0159652
612.084	0.0161110
612.163	0.0161189
612.241	0.0160450
612.319	0.0159608
612.397	0.0160208
612.475	0.0158553
612.553	0.0160332
612.631	0.0161201
612.709	0.0160315
612.788	0.0161197
612.866	0.0159909
612.944	0.0161369
613.022	0.0160120
613.100	0.0160986
613.178	0.0159323
613.256	0.0159936
613.334	0.0159458
613.413	0.0160831
613.491	0.0159586
613.569	0.0159885
613.647	0.0158741
613.725	0.0158550
613.803	0.0158622
613.881	0.0160595
613.959	0.0159206
614.038	0.0160293
614.116	0.0160516
614.194	0.0159175
614.272	0.0159726
614.350	0.0160361
614.428	0.0160049
614.506	0.0158068
614.584	0.0159875
614.663	0.0159322
614.741	0.0160230
614.819	0.0160557
614.897	0.0159583
614.975	0.0158585
615.053	0.0158218
615.131	0.0160495
615.209	0.0158967
615.288	0.0159157
615.366	0.0159361
615.444	0.0159536
615.522	0.0158308
615.600	0.0160267
615.678	0.0161220
615.756	0.0157449
615.834	0.0159208
615.913	0.0160313
615.991	0.0159455
616.069	0.0160318
616.147	0.0160188
616.225	0.0158773
616.303	0.0159547
616.381	0.0159531
616.459	0.0159894
616.538	0.0160143
616.616	0.0160503
616.694	0.0159959
616.772	0.0160107
616.850	0.0160545
616.928	0.0159729
617.006	0.0159501
617.084	0.0159667
617.163	0.0159662
617.241	0.0159518
617.319	0.0160911
617.397	0.0159869
617.475	0.0159995
617.553	0.0159600
617.631	0.0159013
617.709	0.0158881
617.788	0.0158784
617.866	0.0160554
617.944	0.0160765
618.022	0.0159650
618.100	0.0158923
618.178	0.0158650
618.256	0.0157607
618.334	0.0159801
618.413	0.0159777
618.491	0.0160238
618.569	0.0159124
618.647	0.0159890
618.725	0.0159343
618.803	0.0158936
618.881	0.0160464
618.959	0.0159438
619.038	0.0159107
619.116	0.0158407
619.194	0.0158795
619.272	0.0159947
619.350	0.0159473
619.428	0.0158316
619.506	0.0159868
619.584	0.0159917
619.663	0.0159895
619.741	0.0159965
619.819	0.0159100
619.897	0.0158088
619.975	0.0159419
620.053	0.0158285
620.131	0.0158572
620.209	0.0159922
620.288	0.0159637
620.366	0.0159157
620.444	0.0160316
620.522	0.0159992
620.600	0.0158939
620.678	0.0159033
620.756	0.0159950
620.834	0.0159229
620.913	0.0158927
620.991	0.0159366
621.069	0.0158620
621.147	0.0158941
621.225	0.0160406
621.303	0.0159869
621.381	0.0158874
621.459	0.0158109
621.538	0.0159211
621.616	0.0159317
621.694	0.0159875
621.772	0.0159858
621.850	0.0158038
621.928	0.0158564
622.006	0.0159763
622.084	0.0158720
622.163	0.0158715
622.241	0.0159668
622.319	0.0159143
622.397	0.0160418
622.475	0.0158186
622.553	0.0159130
622.631	0.0158157
622.709	0.0159205
622.788	0.0158897
622.866	0.0159601
622.944	0.0158702
623.022	0.0159808
623.100	0.0159497
623.178	0.0157906
623.256	0.0157333
623.334	0.0158643
623.413	0.0158015
623.491	0.0158401
623.569	0.0158698
623.647	0.0158498
623.725	0.0159169
623.803	0.0158723
623.881	0.0158404
623.959	0.0157111
624.038	0.0158044
624.116	0.0158652
624.194	0.0158708
624.272	0.0157619
624.350	0.0158632
624.428	0.0157523
624.506	0.0158394
624.584	0.0158803
624.663	0.0156374
624.741	0.0157923
624.819	0.0158313
624.897	0.0157359
624.975	0.0157394
625.053	0.0158572
625.131	0.0158719
625.209	0.0158011
625.288	0.0157773
625.366	0.0158193
625.444	0.0158463
625.522	0.0158246
625.600	0.0158871
625.678	0.0157530
625.756	0.0157995
625.834	0.0159370
625.913	0.0157800
625.991	0.0158359
626.069	0.0158440
626.147	0.0157342
626.225	0.0157238
626.303	0.0158139
626.381	0.0157846
626.459	0.0158690
626.538	0.0157918
626.616	0.0157928
626.694	0.0157897
626.772	0.0157256
626.850	0.0158944
626.928	0.0159239
627.006	0.0157351
627.084	0.0157507
627.163	0.0157963
627.241	0.0157356
627.319	0.0157275
627.397	0.0157647
627.475	0.0158782
627.553	0.0157443
627.631	0.0158255
627.709	0.0158070
627.788	0.0157436
627.866	0.0158128
627.944	0.0158231
628.022	0.0156623
628.100	0.0157595
628.178	0.0157375
628.256	0.0158171
628.334	0.0156814
628.413	0.0158874
628.491	0.0158572
628.569	0.0157979
628.647	0.0156789
628.725	0.0157578
628.803	0.0157658
628.881	0.0158301
628.959	0.0156702
629.038	0.0158270
629.116	0.0157117
629.194	0.0157195
629.272	0.0159468
629.350	0.0156371
629.428	0.0157676
629.506	0.0157829
629.584	0.0158310
629.663	0.0158404
629.741	0.0156998
629.819	0.0158395
629.897	0.0157730
629.975	0.0156937
630.053	0.0157899
630.131	0.0157894
630.209	0.0158075
630.288	0.0156776
630.366	0.0158395
630.444	0.0157652
630.522	0.0158290
630.600	0.0157055
630.678	0.0157646
630.756	0.0158995
630.834	0.0156956
630.913	0.0157616
630.991	0.0157787
631.069	0.0158918
631.147	0.0157855
631.225	0.0158403
631.303	0.0158580
631.381	0.0157388
631.459	0.0158296
631.538	0.0157981
631.616	0.0158908
631.694	0.0159784
631.772	0.0157973
631.850	0.0159284
631.928	0.0157929
632.006	0.0158696
632.084	0.0158729
632.163	0.0157678
632.241	0.0159216
632.319	0.0159039
632.397	0.0158702
632.475	0.0159050
632.553	0.0159099
632.631	0.0158023
632.709	0.0158145
632.788	0.0159569
632.866	0.0158562
632.944	0.0159814
633.022	0.0159400
633.100	0.0159552
633.178	0.0158603
633.256	0.0159515
633.334	0.0159641
633.413	0.0157603
633.491	0.0159829
633.569	0.0157418
633.647	0.0157678
633.725	0.0159145
633.803	0.0159031
633.881	0.0159544
633.959	0.0159521
634.038	0.0158949
634.116	0.0158120
634.194	0.0159054
634.272	0.0157378
634.350	0.0158195
634.428	0.0157753
634.506	0.0159838
634.584	0.0159258
634.663	0.0158217
634.741	0.0158645
634.819	0.0158736
634.897	0.0158425
634.975	0.0157956
635.053	0.0159087
635.131	0.0159853
635.209	0.0159188
635.288	0.0159256
635.366	0.0159838
635.444	0.0160126
635.522	0.0156793
635.600	0.0158590
635.678	0.0158744
635.756	0.0159553
635.834	0.0158186
635.913	0.0160757
635.991	0.0159656
636.069	0.0159970
636.147	0.0158907
636.225	0.0159431
636.303	0.0159133
636.381	0.0160690
636.459	0.0159194
636.538	0.0159408
636.616	0.0160081
636.694	0.0159202
636.772	0.0159921
636.850	0.0159088
636.928	0.0160246
637.006	0.0160527
637.084	0.0158920
637.163	0.0159183
637.241	0.0159897
637.319	0.0159782
637.397	0.0160664
637.475	0.0159048
637.553	0.0159302
637.631	0.0160123
637.709	0.0159828
637.788	0.0160058
637.866	0.0159818
637.944	0.0160074
638.022	0.0160631
638.100	0.0159313
638.178	0.0160487
638.256	0.0159473
638.334	0.0159545
638.413	0.0159473
638.491	0.0160093
638.569	0.0159031
638.647	0.0159664
638.725	0.0159976
638.803	0.0160239
638.881	0.0159090
638.959	0.0159775
639.038	0.0159724
639.116	0.0158783
639.194	0.0159763
639.272	0.0160097
639.350	0.0159199
639.428	0.0160239
639.506	0.0159422
639.584	0.0159931
639.663	0.0159397
639.741	0.0159196
639.819	0.0159577
639.897	0.0159246
639.975	0.0160651
640.053	0.0159256
640.131	0.0157874
640.209	0.0158842
640.288	0.0159084
640.366	0.0157793
640.444	0.0159140
640.522	0.0158450
640.600	0.0158723
640.678	0.0158897
640.756	0.0159431
640.834	0.0158756
640.913	0.0158874
640.991	0.0159048
641.069	0.0158591
641.147	0.0159699
641.225	0.0159584
641.303	0.0158469
641.381	0.0158163
641.459	0.0160249
641.538	0.0158030
641.616	0.0159105
641.694	0.0160098
641.772	0.0157764
641.850	0.0158016
641.928	0.0158207
642.006	0.0158671
642.084	0.0158640
642.163	0.0158814
642.241	0.0159941
642.319	0.0158375
642.397	0.0159160
642.475	0.0159668
642.553	0.0160315
642.631	0.0157825
642.709	0.0159386
642.788	0.0159906
642.866	0.0159888
642.944	0.0158989
643.022	0.0158200
643.100	0.0157294
643.178	0.0159118
643.256	0.0158864
643.334	0.0160165
643.413	0.0160027
643.491	0.0159005
643.569	0.0160624
643.647	0.0160599
643.725	0.0158738
643.803	0.0159010
643.881	0.0158544
643.959	0.0158552
644.038	0.0160048
644.116	0.0159116
644.194	0.0158730
644.272	0.0159496
644.350	0.0160120
644.428	0.0158596
644.506	0.0158528
644.584	0.0160440
644.663	0.0159929
644.741	0.0158758
644.819	0.0159699
644.897	0.0160043
644.975	0.0159893
645.053	0.0159348
645.131	0.0158733
645.209	0.0160019
645.288	0.0159154
645.366	0.0157204
645.444	0.0158216
645.522	0.0158366
645.600	0.0158846
645.678	0.0159950
645.756	0.0158746
645.834	0.0157594
645.913	0.0158000
645.991	0.0159659
646.069	0.0160173
646.147	0.0159441
646.225	0.0158362
646.303	0.0158139
646.381	0.0158720
646.459	0.0158227
646.538	0.0159013
646.616	0.0157894
646.694	0.0158774
646.772	0.0158046
646.850	0.0159116
646.928	0.0158270
647.006	0.0158774
647.084	0.0158707
647.163	0.0159062
647.241	0.0158459
647.319	0.0159122
647.397	0.0159561
647.475	0.0158516
647.553	0.0159864
647.631	0.0158596
647.709	0.0158916
647.788	0.0158050
647.866	0.0158282
647.944	0.0158783
648.022	0.0158570
648.100	0.0158545
648.178	0.0158313
648.256	0.0158089
648.334	0.0156525
648.413	0.0158385
648.491	0.0158256
648.569	0.0159121
648.647	0.0158162
648.725	0.0158624
648.803	0.0156923
648.881	0.0157976
648.959	0.0158636
649.038	0.0159155
649.116	0.0158939
649.194	0.0159022
649.272	0.0159293
649.350	0.0159511
649.428	0.0158829
649.506	0.0158987
649.584	0.0160498
649.663	0.0159665
649.741	0.0160498
649.819	0.0160938
649.897	0.0160453
649.975	0.0161564
650.053	0.0160984
650.131	0.0161103
650.209	0.0160835
650.288	0.0159644
650.366	0.0158941
650.444	0.0158753
650.522	0.0158845
650.600	0.0159328
650.678	0.0158742
650.756	0.0159100
650.834	0.0158059
650.913	0.0157549
650.991	0.0157420
651.069	0.0157569
651.147	0.0156630
651.225	0.0158932
651.303	0.0158839
651.381	0.0157189
651.459	0.0156848
651.538	0.0158189
651.616	0.0158806
651.694	0.0158403
651.772	0.0158574
651.850	0.0160390
651.928	0.0160028
652.006	0.0162569
652.084	0.0160675
652.163	0.0160146
652.241	0.0161324
652.319	0.0162291
652.397	0.0162589
652.475	0.0160696
652.553	0.0162775
652.631	0.0163231
652.709	0.0161578
652.788	0.0161363
652.866	0.0162619
652.944	0.0161594
653.022	0.0160660
653.100	0.0160281
653.178	0.0159869
653.256	0.0160295
653.334	0.0158904
653.413	0.0159351
653.491	0.0159189
653.569	0.0158160
653.647	0.0156791
653.725	0.0158139
653.803	0.0157471
653.881	0.0157718
653.959	0.0158311
654.038	0.0158701
654.116	0.0158031
654.194	0.0158582
654.272	0.0157043
654.350	0.0158832
654.428	0.0160078
654.506	0.0158653
654.584	0.0158987
654.663	0.0157719
654.741	0.0157552
654.819	0.0159684
654.897	0.0158909
654.975	0.0159034
655.053	0.0158524
655.131	0.0157034
655.209	0.0156300
655.288	0.0157228
655.366	0.0159451
655.444	0.0157304
655.522	0.0157198
655.600	0.0158068
655.678	0.0157329
655.756	0.0158949
655.834	0.0159520
655.913	0.0159019
655.991	0.0159500
656.069	0.0160104
656.147	0.0158849
656.225	0.0160796
656.303	0.0161298
656.381	0.0159982
656.459	0.0160687
656.538	0.0161488
656.616	0.0160789
656.694	0.0161700
656.772	0.0161370
656.850	0.0160633
656.928	0.0160165
657.006	0.0161361
657.084	0.0161359
657.163	0.0159832
657.241	0.0161558
657.319	0.0161676
657.397	0.0161500
657.475	0.0158879
657.553	0.0159733
657.631	0.0159993
657.709	0.0159440
657.788	0.0159956
657.866	0.0158253
657.944	0.0157890
658.022	0.0157272
658.100	0.0157278
658.178	0.0157677
658.256	0.0157337
658.334	0.0158118
658.413	0.0155768
658.491	0.0156628
658.569	0.0157557
658.647	0.0157180
658.725	0.0157648
658.803	0.0155434
658.881	0.0155338
658.959	0.0156542
659.038	0.0156606
659.116	0.0156570
659.194	0.0156526
659.272	0.0156589
659.350	0.0158611
659.428	0.0158869
659.506	0.0157813
659.584	0.0158968
659.663	0.0159840
659.741	0.0158253
659.819	0.0160997
659.897	0.0161938
659.975	0.0161550
660.053	0.0161784
660.131	0.0161517
660.209	0.0162716
660.288	0.0162868
660.366	0.0163380
660.444	0.0163783
660.522	0.0163446
660.600	0.0163399
660.678	0.0161799
660.756	0.0164823
660.834	0.0163242
660.913	0.0162087
660.991	0.0161760
661.069	0.0161489
661.147	0.0160650
661.225	0.0160155
661.303	0.0160085
661.381	0.0158575
661.459	0.0157116
661.538	0.0158428
661.616	0.0159627
661.694	0.0157875
661.772	0.0155472
661.850	0.0153909
661.928	0.0156328
662.006	0.0154996
662.084	0.0154290
662.163	0.0154573
662.241	0.0157164
662.319	0.0155212
662.397	0.0154586
662.475	0.0155656
662.553	0.0158020
662.631	0.0156815
662.709	0.0157529
662.788	0.0156713
662.866	0.0158665
662.944	0.0157333
663.022	0.0157886
663.100	0.0158860
663.178	0.0160018
663.256	0.0158334
663.334	0.0158910
663.413	0.0158331
663.491	0.0160809
663.569	0.0160298
663.647	0.0161869
663.725	0.0160911
663.803	0.0162295
663.881	0.0161197
663.959	0.0161669
664.038	0.0163236
664.116	0.0162640
664.194	0.0163349
664.272	0.0162263
664.350	0.0162382
664.428	0.0164013
664.506	0.0164626
664.584	0.0162492
664.663	0.0162840
664.741	0.0163884
664.819	0.0161662
664.897	0.0162812
664.975	0.0160909
665.053	0.0160661
665.131	0.0160455
665.209	0.0159770
665.288	0.0158325
665.366	0.0158491
665.444	0.0157983
665.522	0.0157691
665.600	0.0156425
665.678	0.0156822
665.756	0.0154680
665.834	0.0156288
665.913	0.0154694
665.991	0.0153904
666.069	0.0155262
666.147	0.0154330
666.225	0.0153987
666.303	0.0155464
666.381	0.0154239
666.459	0.0154873
666.538	0.0156907
666.616	0.0157846
666.694	0.0157125
666.772	0.0158883
666.850	0.0158949
666.928	0.0159377
667.006	0.0160051
667.084	0.0161201
667.163	0.0161851
667.241	0.0163141
667.319	0.0163287
667.397	0.0163976
667.475	0.0164349
667.553	0.0163293
667.631	0.0163274
667.709	0.0163496
667.788	0.0163275
667.866	0.0164095
667.944	0.0162632
668.022	0.0163988
668.100	0.0164009
668.178	0.0162183
668.256	0.0160956
668.334	0.0160133
668.413	0.0161058
668.491	0.0159877
668.569	0.0159120
668.647	0.0159426
668.725	0.0160088
668.803	0.0158457
668.881	0.0155864
668.959	0.0157597
669.038	0.0156325
669.116	0.0158714
669.194	0.0157320
669.272	0.0158231
669.350	0.0158585
669.428	0.0157465
669.506	0.0159990
669.584	0.0159940
669.663	0.0159284
669.741	0.0158463
669.819	0.0159660
669.897	0.0159406
669.975	0.0158608
670.053	0.0158150
670.131	0.0158562
670.209	0.0158878
670.288	0.0157500
670.366	0.0159617
670.444	0.0159331
670.522	0.0158161
670.600	0.0158227
670.678	0.0159296
670.756	0.0158117
670.834	0.0157587
670.913	0.0157939
670.991	0.0158976
671.069	0.0158730
671.147	0.0157776
671.225	0.0158246
671.303	0.0158892
671.381	0.0160478
671.459	0.0161115
671.538	0.0160912
671.616	0.0161346
671.694	0.0161371
671.772	0.0161541
671.850	0.0161935
671.928	0.0162570
672.006	0.0161855
672.084	0.0161407
672.163	0.0161044
672.241	0.0161470
672.319	0.0160674
672.397	0.0160714
672.475	0.0159889
672.553	0.0159953
672.631	0.0159769
672.709	0.0159631
672.788	0.0158553
672.866	0.0158760
672.944	0.0157988
673.022	0.0157229
673.100	0.0157259
673.178	0.0156942
673.256	0.0156593
673.334	0.0157483
673.413	0.0155783
673.491	0.0157092
673.569	0.0157961
673.647	0.0157919
673.725	0.0159971
673.803	0.0158814
673.881	0.0158801
673.959	0.0157875
674.038	0.0159694
674.116	0.0159916
674.194	0.0159389
674.272	0.0160704
674.350	0.0160729
674.428	0.0160127
674.506	0.0160316
674.584	0.0160513
674.663	0.0159913
674.741	0.0159776
674.819	0.0160093
674.897	0.0160169
674.975	0.0159132
675.053	0.0160233
675.131	0.0159087
675.209	0.0159036
675.288	0.0158447
675.366	0.0157520
675.444	0.0158367
675.522	0.0157491
675.600	0.0158394
675.678	0.0158385
675.756	0.0158410
675.834	0.0157510
675.913	0.0157644
675.991	0.0159502
676.069	0.0159587
676.147	0.0158586
676.225	0.0158474
676.303	0.0159061
676.381	0.0159103
676.459	0.0159267
676.538	0.0160154
676.616	0.0158862
676.694	0.0158871
676.772	0.0159717
676.850	0.0160439
676.928	0.0160713
677.006	0.0159904
677.084	0.0159972
677.163	0.0162000
677.241	0.0161161
677.319	0.0159853
677.397	0.0159906
677.475	0.0160484
677.553	0.0160922
677.631	0.0160703
677.709	0.0159791
677.788	0.0159752
677.866	0.0158906
677.944	0.0158191
678.022	0.0158878
678.100	0.0159141
678.178	0.0157146
678.256	0.0156878
678.334	0.0159143
678.413	0.0159474
678.491	0.0157569
678.569	0.0157986
678.647	0.0160953
678.725	0.0160178
678.803	0.0157918
678.881	0.0160249
678.959	0.0161594
679.038	0.0161446
679.116	0.0161749
679.194	0.0160760
679.272	0.0162132
679.350	0.0160905
679.428	0.0159783
679.506	0.0161341
679.584	0.0160935
679.663	0.0159105
679.741	0.0157753
679.819	0.0157479
679.897	0.0156237
679.975	0.0154978
680.053	0.0152712
680.131	0.0153107
680.209	0.0152378
680.288	0.0152034
680.366	0.0153240
680.444	0.0153185
680.522	0.0152565
680.600	0.0153806
680.678	0.0156770
680.756	0.0158371
680.834	0.0160515
680.913	0.0160886
680.991	0.0162424
681.069	0.0165153
681.147	0.0165424
681.225	0.0166181
681.303	0.0168385
681.381	0.0168021
681.459	0.0169151
681.538	0.0167932
681.616	0.0165656
681.694	0.0164469
681.772	0.0162651
681.850	0.0160577
681.928	0.0158562
682.006	0.0153694
682.084	0.0151640
682.163	0.0152178
682.241	0.0149347
682.319	0.0148110
682.397	0.0147676
682.475	0.0146957
682.553	0.0146449
682.631	0.0147440
682.709	0.0148228
682.788	0.0150230
682.866	0.0150127
682.944	0.0151720
683.022	0.0154540
683.100	0.0155570
683.178	0.0159901
683.256	0.0160827
683.334	0.0160007
683.413	0.0162093
683.491	0.0161869
683.569	0.0161600
683.647	0.0163453
683.725	0.0163555
683.803	0.0163132
683.881	0.0163846
683.959	0.0165486
684.038	0.0164898
684.116	0.0164551
684.194	0.0164601
684.272	0.0164171
684.350	0.0165194
684.428	0.0164207
684.506	0.0164880
684.584	0.0163972
684.663	0.0161856
684.741	0.0160983
684.819	0.0160426
684.897	0.0159530
684.975	0.0158367
685.053	0.0155054
685.131	0.0154806
685.209	0.0153166
685.288	0.0154302
685.366	0.0153497
685.444	0.0154549
685.522	0.0155688
685.600	0.0155920
685.678	0.0157149
685.756	0.0158236
685.834	0.0160690
685.913	0.0162651
685.991	0.0162651
686.069	0.0163016
686.147	0.0164883
686.225	0.0163239
686.303	0.0163069
686.381	0.0161336
686.459	0.0161124
686.538	0.0158636
686.616	0.0156325
686.694	0.0156149
686.772	0.0154601
686.850	0.0152178
686.928	0.0150123
687.006	0.0150417
687.084	0.0149165
687.163	0.0149624
687.241	0.0149625
687.319	0.0152323
687.397	0.0153256
687.475	0.0152670
687.553	0.0156887
687.631	0.0158008
687.709	0.0159435
687.788	0.0161172
687.866	0.0163808
687.944	0.0164954
688.022	0.0165172
688.100	0.0166447
688.178	0.0167822
688.256	0.0167671
688.334	0.0167993
688.413	0.0167502
688.491	0.0168909
688.569	0.0169225
688.647	0.0170712
688.725	0.0171629
688.803	0.0171000
688.881	0.0172030
688.959	0.0172462
689.038	0.0174558
689.116	0.0174249
689.194	0.0172324
689.272	0.0173140
689.350	0.0173651
689.428	0.0170290
689.506	0.0168869
689.584	0.0167416
689.663	0.0163525
689.741	0.0159459
689.819	0.0157420
689.897	0.0152805
689.975	0.0149570
690.053	0.0145240
690.131	0.0141026
690.209	0.0138070
690.288	0.0134150
690.366	0.0132411
690.444	0.0130536
690.522	0.0128723
690.600	0.0127117
690.678	0.0127148
690.756	0.0128526
690.834	0.0129579
690.913	0.0131143
690.991	0.0134203
691.069	0.0139023
691.147	0.0142382
691.225	0.0146066
691.303	0.0152757
691.381	0.0159248
691.459	0.0164844
691.538	0.0169746
691.616	0.0176231
691.694	0.0180373
691.772	0.0186498
691.850	0.0190092
691.928	0.0193472
692.006	0.0196630
692.084	0.0198818
692.163	0.0199810
692.241	0.0199220
692.319	0.0197425
692.397	0.0194939
692.475	0.0193271
692.553	0.0189639
692.631	0.0185413
692.709	0.0181416
692.788	0.0178196
692.866	0.0173949
692.944	0.0169880
693.022	0.0166726
693.100	0.0160950
693.178	0.0157193
693.256	0.0152393
693.334	0.0146963
693.413	0.0143559
693.491	0.0139212
693.569	0.0135386
693.647	0.0131175
693.725	0.0127547
693.803	0.0125953
693.881	0.0123183
693.959	0.0121145
694.038	0.0120675
694.116	0.0121941
694.194	0.0124650
694.272	0.0126947
694.350	0.0132264
694.428	0.0137184
694.506	0.0142467
694.584	0.0148749
694.663	0.0154685
694.741	0.0159755
694.819	0.0164503
694.897	0.0166833
694.975	0.0173132
695.053	0.0173899
695.131	0.0173521
695.209	0.0172874
695.288	0.0172257
695.366	0.0171842
695.444	0.0169686
695.522	0.0167873
695.600	0.0166132
695.678	0.0165097
695.756	0.0165411
695.834	0.0166080
695.913	0.0167024
695.991	0.0167821
696.069	0.0170438
696.147	0.0172582
696.225	0.0174486
696.303	0.0176673
696.381	0.0178358
696.459	0.0180055
696.538	0.0182159
696.616	0.0183559
696.694	0.0183892
696.772	0.0181974
696.850	0.0179695
696.928	0.0178448
697.006	0.0175891
697.084	0.0172595
697.163	0.0168143
697.241	0.0165385
697.319	0.0160395
697.397	0.0154427
697.475	0.0151543
697.553	0.0147552
697.631	0.0142416
697.709	0.0137418
697.788	0.0132963
697.866	0.0128808
697.944	0.0125407
698.022	0.0124104
698.100	0.0121431
698.178	0.0119817
698.256	0.0119407
698.334	0.0119669
698.413	0.0121766
698.491	0.0124072
698.569	0.0126405
698.647	0.0132446
698.725	0.0138223
698.803	0.0143742
698.881	0.0149973
698.959	0.0157991
699.038	0.0163079
699.116	0.0172033
699.194	0.0177298
699.272	0.0182998
699.350	0.0186674
699.428	0.0189445
699.506	0.0194147
699.584	0.0195576
699.663	0.0194092
699.741	0.0195029
699.819	0.0192751
699.897	0.0189610
699.975	0.0187244
700.053	0.0184556
700.131	0.0179787
700.209	0.0175541
700.288	0.0171389
700.366	0.0168339
700.444	0.0165090
700.522	0.0162302
700.600	0.0159828
700.678	0.0156217
700.756	0.0154788
700.834	0.0153891
700.913	0.0152330
700.991	0.0150304
701.069	0.0148740
701.147	0.0148417
701.225	0.0147218
701.303	0.0144336
701.381	0.0144843
701.459	0.0143964
701.538	0.0143841
701.616	0.0143534
701.694	0.0143530
701.772	0.0143118
701.850	0.0143590
701.928	0.0145220
702.006	0.0146780
702.084	0.0146181
702.163	0.0147451
702.241	0.0147852
702.319	0.0147836
702.397	0.0147154
702.475	0.0147154
702.553	0.0147693
702.631	0.0148230
702.709	0.0147913
702.788	0.0148176
702.866	0.0148416
702.944	0.0148600
703.022	0.0148863
703.100	0.0150600
703.178	0.0151199
703.256	0.0152146
703.334	0.0152590
703.413	0.0155427
703.491	0.0158005
703.569	0.0161469
703.647	0.0162188
703.725	0.0167325
703.803	0.0169639
703.881	0.0173515
703.959	0.0175994
704.038	0.0179618
704.116	0.0183680
704.194	0.0185953
704.272	0.0187984
704.350	0.0188528
704.428	0.0192017
704.506	0.0191946
704.584	0.0191566
704.663	0.0189698
704.741	0.0190031
704.819	0.0185829
704.897	0.0182654
704.975	0.0179863
705.053	0.0175990
705.131	0.0170775
705.209	0.0165314
705.288	0.0161263
705.366	0.0155018
705.444	0.0150755
705.522	0.0146651
705.600	0.0142865
705.678	0.0136159
705.756	0.0134734
705.834	0.0132278
705.913	0.0129840
705.991	0.0128301
706.069	0.0127525
706.147	0.0127362
706.225	0.0128185
706.303	0.0129172
706.381	0.0129490
706.459	0.0131885
706.538	0.0133162
706.616	0.0137112
706.694	0.0140468
706.772	0.0141965
706.850	0.0143677
706.928	0.0150054
707.006	0.0153082
707.084	0.0155087
707.163	0.0156369
707.241	0.0157835
707.319	0.0159988
707.397	0.0160290
707.475	0.0161675
707.553	0.0162054
707.631	0.0159769
707.709	0.0160025
707.788	0.0159447
707.866	0.0159069
707.944	0.0158684
708.022	0.0159499
708.100	0.0160110
708.178	0.0161963
708.256	0.0164172
708.334	0.0166013
708.413	0.0168436
708.491	0.0170632
708.569	0.0175301
708.647	0.0176340
708.725	0.0178473
708.803	0.0177907
708.881	0.0179518
708.959	0.0178562
709.038	0.0177703
709.116	0.0175577
709.194	0.0175546
709.272	0.0173867
709.350	0.0171735
709.428	0.0170625
709.506	0.0168762
709.584	0.0168393
709.663	0.0167896
709.741	0.0166244
709.819	0.0166191
709.897	0.0168156
709.975	0.0166019
710.053	0.0167445
710.131	0.0168225
710.209	0.0168277
710.288	0.0169556
710.366	0.0169939
710.444	0.0169605
710.522	0.0168139
710.600	0.0167069
710.678	0.0166372
710.756	0.0164522
710.834	0.0160386
710.913	0.0158585
710.991	0.0154624
711.069	0.0150879
711.147	0.0150156
711.225	0.0143914
711.303	0.0142755
711.381	0.0139495
711.459	0.0135760
711.538	0.0134654
711.616	0.0131844
711.694	0.0130976
711.772	0.0131124
711.850	0.0132291
711.928	0.0133095
712.006	0.0133427
712.084	0.0136805
712.163	0.0138136
712.241	0.0141493
712.319	0.0141808
712.397	0.0145322
712.475	0.0148968
712.553	0.0150982
712.631	0.0154408
712.709	0.0156905
712.788	0.0158633
712.866	0.0160342
712.944	0.0159247
713.022	0.0160172
713.100	0.0160942
713.178	0.0161254
713.256	0.0161295
713.334	0.0162421
713.413	0.0163610
713.491	0.0163540
713.569	0.0163477
713.647	0.0163232
713.725	0.0164970
713.803	0.0166451
713.881	0.0168427
713.959	0.0169817
714.038	0.0169855
714.116	0.0171700
714.194	0.0172462
714.272	0.0172453
714.350	0.0174476
714.428	0.0178249
714.506	0.0177370
714.584	0.0178027
714.663	0.0178968
714.741	0.0179736
714.819	0.0181709
714.897	0.0180019
714.975	0.0179112
715.053	0.0178944
715.131	0.0179446
715.209	0.0178342
715.288	0.0175993
715.366	0.0174278
715.444	0.0170869
715.522	0.0169622
715.600	0.0165485
715.678	0.0163733
715.756	0.0159789
715.834	0.0156571
715.913	0.0155347
715.991	0.0152095
716.069	0.0149554
716.147	0.0149288
716.225	0.0148861
716.303	0.0147804
716.381	0.0147814
716.459	0.0147961
716.538	0.0149801
716.616	0.0149655
716.694	0.0149380
716.772	0.0149059
716.850	0.0148406
716.928	0.0149447
717.006	0.0150219
717.084	0.0148527
717.163	0.0147560
717.241	0.0146313
717.319	0.0144915
717.397	0.0145020
717.475	0.0145860
717.553	0.0146026
717.631	0.0147842
717.709	0.0149273
717.788	0.0149506
717.866	0.0152144
717.944	0.0153737
718.022	0.0155417
718.100	0.0157094
718.178	0.0157363
718.256	0.0157174
718.334	0.0157045
718.413	0.0158029
718.491	0.0158540
718.569	0.0157808
718.647	0.0156966
718.725	0.0154716
718.803	0.0157086
718.881	0.0156119
718.959	0.0156821
719.038	0.0158550
719.116	0.0159932
719.194	0.0160545
719.272	0.0162244
719.350	0.0163036
719.428	0.0163976
719.506	0.0164396
719.584	0.0167004
719.663	0.0169561
719.741	0.0169282
719.819	0.0169315
719.897	0.0170482
719.975	0.0170950
720.053	0.0171411
720.131	0.0171608
720.209	0.0170937
720.288	0.0171470
720.366	0.0172953
720.444	0.0173000
720.522	0.0174120
720.600	0.0174305
720.678	0.0172630
720.756	0.0173315
720.834	0.0172729
720.913	0.0171764
720.991	0.0169362
721.069	0.0167929
721.147	0.0164577
721.225	0.0161139
721.303	0.0159262
721.381	0.0157288
721.459	0.0155315
721.538	0.0154095
721.616	0.0154324
721.694	0.0152828
721.772	0.0152940
721.850	0.0154663
721.928	0.0153305
722.006	0.0152863
722.084	0.0154883
722.163	0.0155276
722.241	0.0154624
722.319	0.0156377
722.397	0.0156665
722.475	0.0154893
722.553	0.0153986
722.631	0.0151759
722.709	0.0147809
722.788	0.0145126
722.866	0.0143588
722.944	0.0139863
723.022	0.0139757
723.100	0.0137138
723.178	0.0138378
723.256	0.0139106
723.334	0.0139519
723.413	0.0139716
723.491	0.0143783
723.569	0.0146664
723.647	0.0151535
723.725	0.0155187
723.803	0.0159532
723.881	0.0163214
723.959	0.0165520
724.038	0.0166447
724.116	0.0169126
724.194	0.0171019
724.272	0.0171136
724.350	0.0169875
724.428	0.0170458
724.506	0.0170291
724.584	0.0168664
724.663	0.0169054
724.741	0.0167136
724.819	0.0166251
724.897	0.0164462
724.975	0.0164413
725.053	0.0163014
725.131	0.0162851
725.209	0.0161880
725.288	0.0160011
725.366	0.0156829
725.444	0.0157878
725.522	0.0155061
725.600	0.0155061
725.678	0.0155823
725.756	0.0155076
725.834	0.0155389
725.913	0.0154387
725.991	0.0154485
726.069	0.0154806
726.147	0.0154110
726.225	0.0155310
726.303	0.0155667
726.381	0.0154859
726.459	0.0154886
726.538	0.0154674
726.616	0.0152438
726.694	0.0155243
726.772	0.0154081
726.850	0.0155672
726.928	0.0155022
727.006	0.0155938
727.084	0.0158445
727.163	0.0158564
727.241	0.0161681
727.319	0.0163219
727.397	0.0164994
727.475	0.0166018
727.553	0.0167496
727.631	0.0169334
727.709	0.0169836
727.788	0.0169564
727.866	0.0168961
727.944	0.0169265
728.022	0.0166447
728.100	0.0165036
728.178	0.0162440
728.256	0.0160481
728.334	0.0159662
728.413	0.0158408
728.491	0.0156178
728.569	0.0155905
728.647	0.0155245
728.725	0.0155706
728.803	0.0155839
728.881	0.0155891
728.959	0.0157204
729.038	0.0157610
729.116	0.0157728
729.194	0.0161512
729.272	0.0162131
729.350	0.0162278
729.428	0.0163397
729.506	0.0163286
729.584	0.0162559
729.663	0.0161799
729.741	0.0161039
729.819	0.0160048
729.897	0.0159377
729.975	0.0157841
730.053	0.0156680
730.131	0.0157478
730.209	0.0155322
730.288	0.0153735
730.366	0.0154783
730.444	0.0156964
730.522	0.0154940
730.600	0.0154516
730.678	0.0155115
730.756	0.0154775
730.834	0.0156135
730.913	0.0154098
730.991	0.0154442
731.069	0.0154627
731.147	0.0156009
731.225	0.0155667
731.303	0.0154412
731.381	0.0156549
731.459	0.0156512
731.538	0.0156242
731.616	0.0156048
731.694	0.0155406
731.772	0.0155594
731.850	0.0156443
731.928	0.0156380
732.006	0.0156911
732.084	0.0156141
732.163	0.0155785
732.241	0.0157143
732.319	0.0157788
732.397	0.0157889
732.475	0.0158124
732.553	0.0158942
732.631	0.0160047
732.709	0.0161289
732.788	0.0162143
732.866	0.0163487
732.944	0.0165665
733.022	0.0169175
733.100	0.0170317
733.178	0.0171748
733.256	0.0172492
733.334	0.0173660
733.413	0.0173753
733.491	0.0175466
733.569	0.0175685
733.647	0.0173401
733.725	0.0171928
733.803	0.0170467
733.881	0.0166929
733.959	0.0164127
734.038	0.0160744
734.116	0.0157719
734.194	0.0154298
734.272	0.0151927
734.350	0.0152345
734.428	0.0150808
734.506	0.0150153
734.584	0.0150158
734.663	0.0151402
734.741	0.0154478
734.819	0.0158110
734.897	0.0161377
734.975	0.0163609
735.053	0.0165666
735.131	0.0168239
735.209	0.0170304
735.288	0.0172485
735.366	0.0171030
735.444	0.0172246
735.522	0.0171607
735.600	0.0169506
735.678	0.0168028
735.756	0.0166531
735.834	0.0164391
735.913	0.0161102
735.991	0.0156431
736.069	0.0155104
736.147	0.0153616
736.225	0.0150767
736.303	0.0150002
736.381	0.0147713
736.459	0.0147375
736.538	0.0146997
736.616	0.0146112
736.694	0.0148315
736.772	0.0149229
736.850	0.0148989
736.928	0.0152076
737.006	0.0153014
737.084	0.0153664
737.163	0.0153342
737.241	0.0153905
737.319	0.0155682
737.397	0.0156294
737.475	0.0154264
737.553	0.0154913
737.631	0.0155650
737.709	0.0155851
737.788	0.0156303
737.866	0.0156646
737.944	0.0156807
738.022	0.0157679
738.100	0.0156876
738.178	0.0157625
738.256	0.0157806
738.334	0.0157131
738.413	0.0158351
738.491	0.0157447
738.569	0.0155696
738.647	0.0156853
738.725	0.0157640
738.803	0.0159187
738.881	0.0158656
738.959	0.0158645
739.038	0.0160661
739.116	0.0160362
739.194	0.0161449
739.272	0.0160968
739.350	0.0162448
739.428	0.0163190
739.506	0.0163966
739.584	0.0163787
739.663	0.0164442
739.741	0.0166447
739.819	0.0167640
739.897	0.0168530
739.975	0.0167155
740.053	0.0169232
740.131	0.0170969
740.209	0.0171128
740.288	0.0171842
740.366	0.0173392
740.444	0.0172072
740.522	0.0169503
740.600	0.0170764
740.678	0.0169429
740.756	0.0167539
740.834	0.0164167
740.913	0.0162492
740.991	0.0161192
741.069	0.0158462
741.147	0.0156182
741.225	0.0155784
741.303	0.0153795
741.381	0.0153884
741.459	0.0152435
741.538	0.0151460
741.616	0.0152095
741.694	0.0152549
741.772	0.0153877
741.850	0.0153056
741.928	0.0153574
742.006	0.0154459
742.084	0.0155476
742.163	0.0157179
742.241	0.0158606
742.319	0.0159740
742.397	0.0157688
742.475	0.0159953
742.553	0.0162862
742.631	0.0163420
742.709	0.0163188
742.788	0.0163789
742.866	0.0163467
742.944	0.0165261
743.022	0.0164310
743.100	0.0164472
743.178	0.0163380
743.256	0.0161617
743.334	0.0161333
743.413	0.0157739
743.491	0.0155473
743.569	0.0155566
743.647	0.0155426
743.725	0.0151842
743.803	0.0150603
743.881	0.0149187
743.959	0.0149110
744.038	0.0147035
744.116	0.0147244
744.194	0.0146379
744.272	0.0147096
744.350	0.0146806
744.428	0.0145821
744.506	0.0148115
744.584	0.0148026
744.663	0.0150675
744.741	0.0150185
744.819	0.0152977
744.897	0.0153844
744.975	0.0153532
745.053	0.0156104
745.131	0.0157031
745.209	0.0157832
745.288	0.0157388
745.366	0.0157501
745.444	0.0158170
745.522	0.0158083
745.600	0.0158962
745.678	0.0159584
745.756	0.0160081
745.834	0.0161012
745.913	0.0160163
745.991	0.0160821
746.069	0.0162583
746.147	0.0161990
746.225	0.0162251
746.303	0.0162029
746.381	0.0162050
746.459	0.0163401
746.538	0.0162996
746.616	0.0162643
746.694	0.0163546
746.772	0.0164062
746.850	0.0163702
746.928	0.0162772
747.006	0.0164352
747.084	0.0164008
747.163	0.0165012
747.241	0.0166348
747.319	0.0167147
747.397	0.0166360
747.475	0.0168572
747.553	0.0168842
747.631	0.0169250
747.709	0.0170014
747.788	0.0170160
747.866	0.0170518
747.944	0.0171315
748.022	0.0169807
748.100	0.0171157
748.178	0.0169422
748.256	0.0168555
748.334	0.0167825
748.413	0.0166314
748.491	0.0166659
748.569	0.0163551
748.647	0.0160613
748.725	0.0159234
748.803	0.0157461
748.881	0.0155224
748.959	0.0154890
749.038	0.0153157
749.116	0.0152260
749.194	0.0151401
749.272	0.0150990
749.350	0.0151188
749.428	0.0152528
749.506	0.0151943
749.584	0.0151579
749.663	0.0152950
749.741	0.0155298
749.819	0.0153522
749.897	0.0153574
749.975	0.0155190
750.053	0.0155746
750.131	0.0156014
750.209	0.0155157
750.288	0.0155421
750.366	0.0155952
750.444	0.0155225
750.522	0.0154441
750.600	0.0153614
750.678	0.0154473
750.756	0.0152091
750.834	0.0150290
750.913	0.0150597
750.991	0.0150568
751.069	0.0151234
751.147	0.0151102
751.225	0.0149118
751.303	0.0152157
751.381	0.0152993
751.459	0.0154308
751.538	0.0155938
751.616	0.0157986
751.694	0.0158088
751.772	0.0159087
751.850	0.0160192
751.928	0.0160640
752.006	0.0161250
752.084	0.0161036
752.163	0.0160632
752.241	0.0162325
752.319	0.0160005
752.397	0.0161565
752.475	0.0162183
752.553	0.0163658
752.631	0.0164137
752.709	0.0162566
752.788	0.0163734
752.866	0.0165421
752.944	0.0166776
753.022	0.0166454
753.100	0.0168068
753.178	0.0167826
753.256	0.0167738
753.334	0.0168867
753.413	0.0168535
753.491	0.0168103
753.569	0.0166618
753.647	0.0164887
753.725	0.0165075
753.803	0.0165557
753.881	0.0163858
753.959	0.0163542
754.038	0.0162631
754.116	0.0160533
754.194	0.0161181
754.272	0.0159187
754.350	0.0160279
754.428	0.0160477
754.506	0.0160158
754.584	0.0159562
754.663	0.0159566
754.741	0.0159801
754.819	0.0159710
754.897	0.0160691
754.975	0.0159595
755.053	0.0161278
755.131	0.0160618
755.209	0.0161607
755.288	0.0160060
755.366	0.0160737
755.444	0.0163064
755.522	0.0160780
755.600	0.0159412
755.678	0.0159537
755.756	0.0160133
755.834	0.0158953
755.913	0.0158234
755.991	0.0158902
756.069	0.0158910
756.147	0.0157151
756.225	0.0157487
756.303	0.0156416
756.381	0.0157536
756.459	0.0158440
756.538	0.0157749
756.616	0.0158416
756.694	0.0159003
756.772	0.0159248
756.850	0.0160499
756.928	0.0162399
757.006	0.0161587
757.084	0.0161665
757.163	0.0162424
757.241	0.0163532
757.319	0.0162006
757.397	0.0160963
757.475	0.0161828
757.553	0.0160246
757.631	0.0158932
757.709	0.0158682
757.788	0.0156797
757.866	0.0155399
757.944	0.0154232
758.022	0.0153070
758.100	0.0152299
758.178	0.0153033
758.256	0.0151744
758.334	0.0150651
758.413	0.0150014
758.491	0.0149929
758.569	0.0151433
758.647	0.0152915
758.725	0.0152981
758.803	0.0155238
758.881	0.0155772
758.959	0.0158508
759.038	0.0159659
759.116	0.0160657
759.194	0.0160579
759.272	0.0162519
759.350	0.0163265
759.428	0.0161721
759.506	0.0161957
759.584	0.0162038
759.663	0.0160793
759.741	0.0159455
759.819	0.0158340
759.897	0.0156593
759.975	0.0156642
760.053	0.0154830
760.131	0.0154585
760.209	0.0155225
760.288	0.0153143
760.366	0.0154168
760.444	0.0153638
760.522	0.0154844
760.600	0.0155598
760.678	0.0155456
760.756	0.0156958
760.834	0.0158573
760.913	0.0158487
760.991	0.0160147
761.069	0.0160641
761.147	0.0162920
761.225	0.0164347
761.303	0.0163489
761.381	0.0164324
761.459	0.0166470
761.538	0.0166388
761.616	0.0164777
761.694	0.0164941
761.772	0.0165765
761.850	0.0165618
761.928	0.0163984
762.006	0.0163504
762.084	0.0163817
762.163	0.0161826
762.241	0.0160252
762.319	0.0158857
762.397	0.0158289
762.475	0.0158431
762.553	0.0158234
762.631	0.0158813
762.709	0.0159922
762.788	0.0159203
762.866	0.0159991
762.944	0.0161263
763.022	0.0160305
763.100	0.0160621
763.178	0.0160942
763.256	0.0161906
763.334	0.0160669
763.413	0.0161176
763.491	0.0162058
763.569	0.0159825
763.647	0.0159711
763.725	0.0160646
763.803	0.0159428
763.881	0.0159910
763.959	0.0158659
764.038	0.0157780
764.116	0.0159283
764.194	0.0157097
764.272	0.0156821
764.350	0.0156669
764.428	0.0156293
764.506	0.0155202
764.584	0.0154895
764.663	0.0156283
764.741	0.0156364
764.819	0.0156116
764.897	0.0154886
764.975	0.0156598
765.053	0.0155301
765.131	0.0155908
765.209	0.0155720
765.288	0.0155565
765.366	0.0157012
765.444	0.0156744
765.522	0.0156083
765.600	0.0156892
765.678	0.0156087
765.756	0.0156134
765.834	0.0157582
765.913	0.0157956
765.991	0.0156439
766.069	0.0156317
766.147	0.0156634
766.225	0.0156845
766.303	0.0155933
766.381	0.0156640
766.459	0.0156844
766.538	0.0156011
766.616	0.0156539
766.694	0.0156969
766.772	0.0158125
766.850	0.0158522
766.928	0.0157436
767.006	0.0158721
767.084	0.0157813
767.163	0.0158513
767.241	0.0157914
767.319	0.0157566
767.397	0.0157771
767.475	0.0157685
767.553	0.0156165
767.631	0.0156060
767.709	0.0156580
767.788	0.0155575
767.866	0.0154370
767.944	0.0154785
768.022	0.0154870
768.100	0.0156193
768.178	0.0156457
768.256	0.0154882
768.334	0.0155961
768.413	0.0156900
768.491	0.0157073
768.569	0.0157177
768.647	0.0158705
768.725	0.0160426
768.803	0.0161301
768.881	0.0159979
768.959	0.0162094
769.038	0.0162971
769.116	0.0164842
769.194	0.0165166
769.272	0.0164855
769.350	0.0165430
769.428	0.0166988
769.506	0.0166702
769.584	0.0166187
769.663	0.0166731
769.741	0.0166624
769.819	0.0166084
769.897	0.0165501
769.975	0.0167480
770.053	0.0165980
770.131	0.0164482
770.209	0.0165431
770.288	0.0166015
770.366	0.0162369
770.444	0.0163651
770.522	0.0162096
770.600	0.0161869
770.678	0.0159520
770.756	0.0159389
770.834	0.0157791
770.913	0.0157608
770.991	0.0157529
771.069	0.0156911
771.147	0.0156863
771.225	0.0158141
771.303	0.0157681
771.381	0.0156702
771.459	0.0158880
771.538	0.0159484
771.616	0.0159890
771.694	0.0159592
771.772	0.0160989
771.850	0.0161382
771.928	0.0160853
772.006	0.0160886
772.084	0.0160282
772.163	0.0161800
772.241	0.0160623
772.319	0.0160082
772.397	0.0160287
772.475	0.0160061
772.553	0.0158215
772.631	0.0158096
772.709	0.0156349
772.788	0.0156709
772.866	0.0157143
772.944	0.0154570
773.022	0.0154406
773.100	0.0155091
773.178	0.0154549
773.256	0.0153326
773.334	0.0152761
773.413	0.0153851
773.491	0.0154382
773.569	0.0153946
773.647	0.0154234
773.725	0.0155473
773.803	0.0155012
773.881	0.0156022
773.959	0.0156933
774.038	0.0155607
774.116	0.0156109
774.194	0.0156100
774.272	0.0157458
774.350	0.0157655
774.428	0.0158984
774.506	0.0158234
774.584	0.0156906
774.663	0.0159761
774.741	0.0160107
774.819	0.0159044
774.897	0.0158310
774.975	0.0157124
775.053	0.0157299
775.131	0.0158116
775.209	0.0156155
775.288	0.0156687
775.366	0.0155685
775.444	0.0157456
775.522	0.0157527
775.600	0.0157803
775.678	0.0159100
775.756	0.0159107
775.834	0.0159543
775.913	0.0160013
775.991	0.0160790
776.069	0.0160336
776.147	0.0161166
776.225	0.0161155
776.303	0.0159940
776.381	0.0161169
776.459	0.0160860
776.538	0.0160781
776.616	0.0162504
776.694	0.0162662
776.772	0.0163538
776.850	0.0163336
776.928	0.0164256
777.006	0.0164074
777.084	0.0165292
777.163	0.0165576
777.241	0.0164229
777.319	0.0165540
777.397	0.0165466
777.475	0.0165108
777.553	0.0165051
777.631	0.0166045
777.709	0.0165179
777.788	0.0163282
777.866	0.0163376
777.944	0.0164492
778.022	0.0163175
778.100	0.0161629
778.178	0.0160956
778.256	0.0161660
778.334	0.0160895
778.413	0.0160204
778.491	0.0161245
778.569	0.0161828
778.647	0.0160298
778.725	0.0160216
778.803	0.0161610
778.881	0.0160123
778.959	0.0160152
779.038	0.0161056
779.116	0.0160587
779.194	0.0160177
779.272	0.0159351
779.350	0.0160165
779.428	0.0159555
779.506	0.0159695
779.584	0.0159872
779.663	0.0158586
779.741	0.0157957
779.819	0.0160658
779.897	0.0159190
779.975	0.0157899
780.053	0.0158321
780.131	0.0157121
780.209	0.0157164
780.288	0.0155888
780.366	0.0155399
780.444	0.0156300
780.522	0.0155142
780.600	0.0156887
780.678	0.0155807
780.756	0.0155089
780.834	0.0155038
780.913	0.0154423
780.991	0.0154671
781.069	0.0155107
781.147	0.0153726
781.225	0.0154149
781.303	0.0153596
781.381	0.0152197
781.459	0.0152325
781.538	0.0153452
781.616	0.0153681
781.694	0.0153670
781.772	0.0154050
781.850	0.0153822
781.928	0.0154562
782.006	0.0155104
782.084	0.0154516
782.163	0.0155707
782.241	0.0156007
782.319	0.0158921
782.397	0.0158426
782.475	0.0159989
782.553	0.0159531
782.631	0.0160074
782.709	0.0162109
782.788	0.0161958
782.866	0.0161526
782.944	0.0161031
783.022	0.0161929
783.100	0.0159779
783.178	0.0160468
783.256	0.0159073
783.334	0.0159750
783.413	0.0158262
783.491	0.0159007
783.569	0.0157567
783.647	0.0157813
783.725	0.0156857
783.803	0.0158667
783.881	0.0158083
783.959	0.0159336
784.038	0.0159174
784.116	0.0160178
784.194	0.0161906
784.272	0.0163476
784.350	0.0163406
784.428	0.0165264
784.506	0.0165929
784.584	0.0165764
784.663	0.0167233
784.741	0.0167057
784.819	0.0167078
784.897	0.0165199
784.975	0.0165951
785.053	0.0165662
785.131	0.0164246
785.209	0.0163990
785.288	0.0163567
785.366	0.0162434
785.444	0.0162692
785.522	0.0161539
785.600	0.0160456
785.678	0.0159751
785.756	0.0159688
785.834	0.0159059
785.913	0.0157846
785.991	0.0158698
786.069	0.0157349
786.147	0.0156895
786.225	0.0157606
786.303	0.0157298
786.381	0.0158074
786.459	0.0158257
786.538	0.0158295
786.616	0.0159288
786.694	0.0159597
786.772	0.0159547
786.850	0.0158442
786.928	0.0159718
787.006	0.0159135
787.084	0.0159665
787.163	0.0158350
787.241	0.0157355
787.319	0.0159135
787.397	0.0157368
787.475	0.0158139
787.553	0.0157229
787.631	0.0156879
787.709	0.0158687
787.788	0.0158740
787.866	0.0157163
787.944	0.0158727
788.022	0.0159122
788.100	0.0157317
788.178	0.0157054
788.256	0.0158737
788.334	0.0158816
788.413	0.0157970
788.491	0.0156761
788.569	0.0156280
788.647	0.0155828
788.725	0.0155263
788.803	0.0156550
788.881	0.0156481
788.959	0.0156626
789.038	0.0157120
789.116	0.0157122
789.194	0.0159563
789.272	0.0158232
789.350	0.0159858
789.428	0.0160468
789.506	0.0162245
789.584	0.0161829
789.663	0.0162070
789.741	0.0160559
789.819	0.0160361
789.897	0.0160548
789.975	0.0161493
790.053	0.0160832
790.131	0.0159763
790.209	0.0157966
790.288	0.0158949
790.366	0.0156573
790.444	0.0156305
790.522	0.0156600
790.600	0.0155498
790.678	0.0153735
790.756	0.0154413
790.834	0.0154269
790.913	0.0153143
790.991	0.0154960
791.069	0.0155606
791.147	0.0156572
791.225	0.0155701
791.303	0.0154610
791.381	0.0158680
791.459	0.0157974
791.538	0.0156232
791.616	0.0157069
791.694	0.0157583
791.772	0.0157409
791.850	0.0159071
791.928	0.0159830
792.006	0.0160711
792.084	0.0159263
792.163	0.0161643
792.241	0.0161371
792.319	0.0162203
792.397	0.0162092
792.475	0.0164694
792.553	0.0164635
792.631	0.0164331
792.709	0.0165677
792.788	0.0165503
792.866	0.0165565
792.944	0.0166077
793.022	0.0167066
793.100	0.0166923
793.178	0.0166576
793.256	0.0166160
793.334	0.0164363
793.413	0.0163557
793.491	0.0162749
793.569	0.0161161
793.647	0.0159772
793.725	0.0158751
793.803	0.0157820
793.881	0.0156781
793.959	0.0154144
794.038	0.0154186
794.116	0.0153043
794.194	0.0152538
794.272	0.0151969
794.350	0.0151683
794.428	0.0151095
794.506	0.0152516
794.584	0.0152792
794.663	0.0152745
794.741	0.0153651
794.819	0.0155145
794.897	0.0155787
794.975	0.0155945
795.053	0.0157396
795.131	0.0159742
795.209	0.0157816
795.288	0.0160340
795.366	0.0161277
795.444	0.0161598
795.522	0.0162305
795.600	0.0162501
795.678	0.0163172
795.756	0.0164194
795.834	0.0163720
795.913	0.0164782
795.991	0.0165192
796.069	0.0163728
796.147	0.0164145
796.225	0.0163524
796.303	0.0163145
796.381	0.0163762
796.459	0.0162223
796.538	0.0161809
796.616	0.0159771
796.694	0.0160223
796.772	0.0159930
796.850	0.0158522
796.928	0.0157207
797.006	0.0158860
797.084	0.0155605
797.163	0.0157078
797.241	0.0157340
797.319	0.0156218
797.397	0.0154922
797.475	0.0154224
797.553	0.0153281
797.631	0.0152628
797.709	0.0153150
797.788	0.0153712
797.866	0.0153225
797.944	0.0153651
798.022	0.0154897
798.100	0.0155338
798.178	0.0155364
798.256	0.0156382
798.334	0.0157878
798.413	0.0158273
798.491	0.0158454
798.569	0.0159079
798.647	0.0160153
798.725	0.0159521
798.803	0.0159686
798.881	0.0158025
798.959	0.0157423
799.038	0.0158120
799.116	0.0158020
799.194	0.0156371
799.272	0.0158504
799.350	0.0158349
799.428	0.0157125
799.506	0.0158399
799.584	0.0159027
799.663	0.0160009
799.741	0.0158509
799.819	0.0159943
799.897	0.0159554
799.975	0.0160369
800.053	0.0159637
800.131	0.0159995
800.209	0.0161731
800.288	0.0161864
800.366	0.0161832
800.444	0.0161230
800.522	0.0162684
800.600	0.0162612
800.678	0.0163565
800.756	0.0162939
800.834	0.0163411
800.913	0.0163860
800.991	0.0163360
801.069	0.0164664
801.147	0.0163911
801.225	0.0165990
801.303	0.0165550
801.381	0.0164125
801.459	0.0162286
801.538	0.0162646
801.616	0.0161912
801.694	0.0160615
801.772	0.0160249
801.850	0.0158545
801.928	0.0157146
802.006	0.0158212
802.084	0.0156988
802.163	0.0156576
802.241	0.0155752
802.319	0.0154301
802.397	0.0155147
802.475	0.0155207
802.553	0.0155180
802.631	0.0152494
802.709	0.0154806
802.788	0.0155254
802.866	0.0153756
802.944	0.0152989
803.022	0.0154768
803.100	0.0154895
803.178	0.0155595
803.256	0.0154778
803.334	0.0152534
803.413	0.0155653
803.491	0.0155729
803.569	0.0157028
803.647	0.0155910
803.725	0.0156382
803.803	0.0156696
803.881	0.0156624
803.959	0.0157159
804.038	0.0157173
804.116	0.0158266
804.194	0.0157677
804.272	0.0157889
804.350	0.0157792
804.428	0.0157882
804.506	0.0159437
804.584	0.0159794
804.663	0.0157648
804.741	0.0160424
804.819	0.0159442
804.897	0.0161272
804.975	0.0160248
805.053	0.0162501
805.131	0.0162704
805.209	0.0161544
805.288	0.0161829
805.366	0.0162755
805.444	0.0162677
805.522	0.0161533
805.600	0.0162605
805.678	0.0164513
805.756	0.0162524
805.834	0.0161385
805.913	0.0162144
805.991	0.0160104
806.069	0.0160873
806.147	0.0161342
806.225	0.0160659
806.303	0.0158833
806.381	0.0159189
806.459	0.0159502
806.538	0.0158508
806.616	0.0158389
806.694	0.0157571
806.772	0.0158357
806.850	0.0159060
806.928	0.0157665
807.006	0.0158191
807.084	0.0159926
807.163	0.0159836
807.241	0.0160458
807.319	0.0160328
807.397	0.0161185
807.475	0.0160004
807.553	0.0159933
807.631	0.0161813
807.709	0.0161194
807.788	0.0161163
807.866	0.0161820
807.944	0.0159460
808.022	0.0158763
808.100	0.0158904
808.178	0.0158904
808.256	0.0158694
808.334	0.0158763
808.413	0.0157491
808.491	0.0155822
808.569	0.0157405
808.647	0.0157310
808.725	0.0156430
808.803	0.0156665
808.881	0.0157165
808.959	0.0156421
809.038	0.0157993
809.116	0.0156907
809.194	0.0158875
809.272	0.0159246
809.350	0.0158945
809.428	0.0159433
809.506	0.0160107
809.584	0.0161031
809.663	0.0160579
809.741	0.0160871
809.819	0.0161781
809.897	0.0161591
809.975	0.0162561
810.053	0.0162356
810.131	0.0161734
810.209	0.0163002
810.288	0.0161963
810.366	0.0163319
810.444	0.0162542
810.522	0.0162737
810.600	0.0161797
810.678	0.0162147
810.756	0.0161591
810.834	0.0161115
810.913	0.0160502
810.991	0.0160616
811.069	0.0161079
811.147	0.0162012
811.225	0.0162130
811.303	0.0161234
811.381	0.0161755
811.459	0.0161743
811.538	0.0160288
811.616	0.0160865
811.694	0.0162505
811.772	0.0162560
811.850	0.0161279
811.928	0.0163208
812.006	0.0162858
812.084	0.0162415
812.163	0.0162256
812.241	0.0161065
812.319	0.0162383
812.397	0.0160856
812.475	0.0160862
812.553	0.0159897
812.631	0.0158285
812.709	0.0157766
812.788	0.0158311
812.866	0.0157589
812.944	0.0156796
813.022	0.0155219
813.100	0.0154639
813.178	0.0155717
813.256	0.0154868
813.334	0.0154310
813.413	0.0154150
813.491	0.0155617
813.569	0.0155965
813.647	0.0157018
813.725	0.0157497
813.803	0.0157694
813.881	0.0158684
813.959	0.0159240
814.038	0.0159675
814.116	0.0159942
814.194	0.0159319
814.272	0.0160478
814.350	0.0160715
814.428	0.0159163
814.506	0.0160487
814.584	0.0160316
814.663	0.0160671
814.741	0.0158098
814.819	0.0158713
814.897	0.0158628
814.975	0.0158459
815.053	0.0157989
815.131	0.0158375
815.209	0.0156754
815.288	0.0156953
815.366	0.0157257
815.444	0.0156837
815.522	0.0157160
815.600	0.0158390
815.678	0.0157949
815.756	0.0159425
815.834	0.0160437
815.913	0.0160404
815.991	0.0160923
816.069	0.0161471
816.147	0.0162357
816.225	0.0163415
816.303	0.0163376
816.381	0.0164020
816.459	0.0165698
816.538	0.0165530
816.616	0.0163644
816.694	0.0164109
816.772	0.0163628
816.850	0.0162269
816.928	0.0162799
817.006	0.0161673
817.084	0.0160854
817.163	0.0160680
817.241	0.0160024
817.319	0.0160513
817.397	0.0160152
817.475	0.0158018
817.553	0.0158428
817.631	0.0158572
817.709	0.0157729
817.788	0.0158230
817.866	0.0158315
817.944	0.0158093
818.022	0.0157220
818.100	0.0157478
818.178	0.0157596
818.256	0.0157700
818.334	0.0158449
818.413	0.0157510
818.491	0.0157304
818.569	0.0157994
818.647	0.0156733
818.725	0.0156169
818.803	0.0158126
818.881	0.0157298
818.959	0.0155609
819.038	0.0157712
819.116	0.0157230
819.194	0.0157838
819.272	0.0157160
819.350	0.0155739
819.428	0.0157061
819.506	0.0156709
819.584	0.0155014
819.663	0.0154832
819.741	0.0157028
819.819	0.0155914
819.897	0.0155001
819.975	0.0156522
820.053	0.0157555
820.131	0.0156196
820.209	0.0156749
820.288	0.0156817
820.366	0.0157649
820.444	0.0157519
820.522	0.0158806
820.600	0.0160397
820.678	0.0159293
820.756	0.0159307
820.834	0.0160991
820.913	0.0160407
820.991	0.0159612
821.069	0.0160376
821.147	0.0161067
821.225	0.0159286
821.303	0.0159963
821.381	0.0159069
821.459	0.0158412
821.538	0.0158015
821.616	0.0159074
821.694	0.0156782
821.772	0.0156339
821.850	0.0157084
821.928	0.0155986
822.006	0.0158188
822.084	0.0155293
822.163	0.0156754
822.241	0.0157638
822.319	0.0157174
822.397	0.0158745
822.475	0.0158500
822.553	0.0158443
822.631	0.0160450
822.709	0.0160490
822.788	0.0160855
822.866	0.0161509
822.944	0.0161480
823.022	0.0160950
823.100	0.0161687
823.178	0.0160335
823.256	0.0159300
823.334	0.0160529
823.413	0.0160014
823.491	0.0160592
823.569	0.0157757
823.647	0.0157257
823.725	0.0158862
823.803	0.0158292
823.881	0.0157788
823.959	0.0158010
824.038	0.0158392
824.116	0.0157433
824.194	0.0157875
824.272	0.0157409
824.350	0.0157758
824.428	0.0159016
824.506	0.0156728
824.584	0.0156930
824.663	0.0158034
824.741	0.0156483
824.819	0.0155950
824.897	0.0156729
824.975	0.0158229
825.053	0.0157049
825.131	0.0157226
825.209	0.0159647
825.288	0.0158758
825.366	0.0159003
825.444	0.0159030
825.522	0.0159306
825.600	0.0158633
825.678	0.0159874
825.756	0.0159669
825.834	0.0159595
825.913	0.0158944
825.991	0.0158850
826.069	0.0157797
826.147	0.0158862
826.225	0.0158678
826.303	0.0158825
826.381	0.0158796
826.459	0.0158761
826.538	0.0157645
826.616	0.0158878
826.694	0.0159248
826.772	0.0160074
826.850	0.0158172
826.928	0.0157639
827.006	0.0158472
827.084	0.0158884
827.163	0.0157870
827.241	0.0157630
827.319	0.0157992
827.397	0.0158978
827.475	0.0159480
827.553	0.0157527
827.631	0.0158554
827.709	0.0158566
827.788	0.0159448
827.866	0.0158875
827.944	0.0158745
828.022	0.0158220
828.100	0.0160049
828.178	0.0159632
828.256	0.0159795
828.334	0.0160367
828.413	0.0159793
828.491	0.0160680
828.569	0.0160196
828.647	0.0160670
828.725	0.0159952
828.803	0.0160750
828.881	0.0162109
828.959	0.0161615
829.038	0.0160409
829.116	0.0161418
829.194	0.0162708
829.272	0.0162554
829.350	0.0162237
829.428	0.0163278
829.506	0.0164034
829.584	0.0163831
829.663	0.0163186
829.741	0.0163788
829.819	0.0164545
829.897	0.0163623
829.975	0.0162687
830.053	0.0163296
830.131	0.0163071
830.209	0.0161970
830.288	0.0161492
830.366	0.0160241
830.444	0.0159418
830.522	0.0158934
830.600	0.0157580
830.678	0.0158647
830.756	0.0158819
830.834	0.0156975
830.913	0.0159410
830.991	0.0158201
831.069	0.0157207
831.147	0.0157212
831.225	0.0159865
831.303	0.0159737
831.381	0.0158914
831.459	0.0160107
831.538	0.0160336
831.616	0.0161061
831.694	0.0161626
831.772	0.0160957
831.850	0.0160287
831.928	0.0161255
832.006	0.0160915
832.084	0.0158140
832.163	0.0159098
832.241	0.0160263
832.319	0.0159132
832.397	0.0158610
832.475	0.0157746
832.553	0.0156859
832.631	0.0158199
832.709	0.0156902
832.788	0.0156973
832.866	0.0157758
832.944	0.0158245
833.022	0.0159293
833.100	0.0156598
833.178	0.0157246
833.256	0.0156566
833.334	0.0156952
833.413	0.0157288
833.491	0.0156644
833.569	0.0157819
833.647	0.0156260
833.725	0.0155893
833.803	0.0156472
833.881	0.0157147
833.959	0.0155947
834.038	0.0157689
834.116	0.0156411
834.194	0.0158692
834.272	0.0157390
834.350	0.0159138
834.428	0.0159820
834.506	0.0160450
834.584	0.0161335
834.663	0.0162065
834.741	0.0160955
834.819	0.0161295
834.897	0.0161802
834.975	0.0161917
835.053	0.0161227
835.131	0.0160639
835.209	0.0161660
835.288	0.0160152
835.366	0.0162648
835.444	0.0162099
835.522	0.0162501
835.600	0.0160545
835.678	0.0159687
835.756	0.0160077
835.834	0.0159663
835.913	0.0159803
835.991	0.0159364
836.069	0.0157912
836.147	0.0158699
836.225	0.0157294
836.303	0.0156643
836.381	0.0157669
836.459	0.0156290
836.538	0.0157486
836.616	0.0158150
836.694	0.0156515
836.772	0.0156773
836.850	0.0156847
836.928	0.0156549
837.006	0.0156678
837.084	0.0157356
837.163	0.0158253
837.241	0.0158245
837.319	0.0156767
837.397	0.0157543
837.475	0.0158139
837.553	0.0158958
837.631	0.0158312
837.709	0.0158777
837.788	0.0158773
837.866	0.0159471
837.944	0.0159603
838.022	0.0160878
838.100	0.0160156
838.178	0.0160412
838.256	0.0159622
838.334	0.0158984
838.413	0.0159491
838.491	0.0160558
838.569	0.0160521
838.647	0.0161190
838.725	0.0162068
838.803	0.0161210
838.881	0.0160822
838.959	0.0160992
839.038	0.0160504
839.116	0.0159942
839.194	0.0160429
839.272	0.0159489
839.350	0.0157385
839.428	0.0156451
839.506	0.0157380
839.584	0.0154877
839.663	0.0156655
839.741	0.0154299
839.819	0.0154674
839.897	0.0154446
839.975	0.0153809
840.053	0.0154108
840.131	0.0152738
840.209	0.0153567
840.288	0.0156129
840.366	0.0154528
840.444	0.0154704
840.522	0.0156490
840.600	0.0157478
840.678	0.0156319
840.756	0.0156866
840.834	0.0157998
840.913	0.0158974
840.991	0.0158677
841.069	0.0158121
841.147	0.0158520
841.225	0.0160719
841.303	0.0160081
841.381	0.0159353
841.459	0.0159953
841.538	0.0159639
841.616	0.0159058
841.694	0.0159436
841.772	0.0160368
841.850	0.0160587
841.928	0.0159644
842.006	0.0159460
842.084	0.0159417
842.163	0.0157934
842.241	0.0159837
842.319	0.0159643
842.397	0.0159003
842.475	0.0158235
842.553	0.0159668
842.631	0.0158221
842.709	0.0160013
842.788	0.0158499
842.866	0.0157947
842.944	0.0158459
843.022	0.0158150
843.100	0.0158952
843.178	0.0158711
843.256	0.0159203
843.334	0.0161167
843.413	0.0161867
843.491	0.0161685
843.569	0.0161667
843.647	0.0162535
843.725	0.0163643
843.803	0.0162325
843.881	0.0161618
843.959	0.0162157
844.038	0.0162500
844.116	0.0162840
844.194	0.0162322
844.272	0.0163068
844.350	0.0160600
844.428	0.0160615
844.506	0.0159982
844.584	0.0160010
844.663	0.0158896
844.741	0.0157138
844.819	0.0157233
844.897	0.0156861
844.975	0.0156934
845.053	0.0155663
845.131	0.0155810
845.209	0.0154959
845.288	0.0154922
845.366	0.0154809
845.444	0.0153288
845.522	0.0154466
845.600	0.0153428
845.678	0.0152866
845.756	0.0153680
845.834	0.0154312
845.913	0.0154639
845.991	0.0153965
846.069	0.0154523
846.147	0.0156100
846.225	0.0155988
846.303	0.0156742
846.381	0.0157050
846.459	0.0158442
846.538	0.0158857
846.616	0.0160423
846.694	0.0159671
846.772	0.0160065
846.850	0.0160471
846.928	0.0161145
847.006	0.0160427
847.084	0.0160058
847.163	0.0160110
847.241	0.0160328
847.319	0.0160851
847.397	0.0160263
847.475	0.0161272
847.553	0.0161512
847.631	0.0160999
847.709	0.0159608
847.788	0.0159296
847.866	0.0159856
847.944	0.0160394
848.022	0.0160273
848.100	0.0158990
848.178	0.0160500
848.256	0.0158729
848.334	0.0159347
848.413	0.0159834
848.491	0.0158352
848.569	0.0157278
848.647	0.0157539
848.725	0.0158914
848.803	0.0158825
848.881	0.0156895
848.959	0.0158295
849.038	0.0159459
849.116	0.0159214
849.194	0.0158089
849.272	0.0159689
849.350	0.0158363
849.428	0.0159640
849.506	0.0159327
849.584	0.0162035
849.663	0.0162562
849.741	0.0161002
849.819	0.0161988
849.897	0.0162482
849.975	0.0162595
850.053	0.0161782
850.131	0.0163606
850.209	0.0161517
850.288	0.0162268
850.366	0.0161669
850.444	0.0162139
850.522	0.0163272
850.600	0.0160771
850.678	0.0162372
850.756	0.0162131
850.834	0.0161063
850.913	0.0161076
850.991	0.0163079
851.069	0.0160198
851.147	0.0160062
851.225	0.0160073
851.303	0.0160487
851.381	0.0159553
851.459	0.0159473
851.538	0.0157585
851.616	0.0157632
851.694	0.0157862
851.772	0.0157178
851.850	0.0157600
851.928	0.0156662
852.006	0.0156853
852.084	0.0157063
852.163	0.0155870
852.241	0.0156595
852.319	0.0157850
852.397	0.0156930
852.475	0.0158192
852.553	0.0158360
852.631	0.0159074
852.709	0.0158993
852.788	0.0158099
852.866	0.0160167
852.944	0.0161192
853.022	0.0162980
853.100	0.0160796
853.178	0.0162296
853.256	0.0161111
853.334	0.0162670
853.413	0.0162128
853.491	0.0162241
853.569	0.0161762
853.647	0.0161594
853.725	0.0162322
853.803	0.0162287
853.881	0.0161124
853.959	0.0160887
854.038	0.0161292
854.116	0.0161124
854.194	0.0159177
854.272	0.0161021
854.350	0.0159965
854.428	0.0160468
854.506	0.0157545
854.584	0.0157574
854.663	0.0157467
854.741	0.0158102
854.819	0.0157369
854.897	0.0157265
854.975	0.0156553
855.053	0.0156952
855.131	0.0157249
855.209	0.0157598
855.288	0.0157571
855.366	0.0156414
855.444	0.0158349
855.522	0.0160002
855.600	0.0158593
855.678	0.0158160
855.756	0.0159752
855.834	0.0160381
855.913	0.0160416
855.991	0.0159242
856.069	0.0159724
856.147	0.0160872
856.225	0.0160628
856.303	0.0160431
856.381	0.0160408
856.459	0.0159912
856.538	0.0159927
856.616	0.0159404
856.694	0.0158760
856.772	0.0158546
856.850	0.0158496
856.928	0.0158179
857.006	0.0158206
857.084	0.0158662
857.163	0.0159155
857.241	0.0157245
857.319	0.0157579
857.397	0.0157512
857.475	0.0157455
857.553	0.0158402
857.631	0.0158752
857.709	0.0157892
857.788	0.0158086
857.866	0.0158116
857.944	0.0158563
858.022	0.0157899
858.100	0.0159103
858.178	0.0159040
858.256	0.0159761
858.334	0.0159567
858.413	0.0159291
858.491	0.0160050
858.569	0.0160812
858.647	0.0160613
858.725	0.0161072
858.803	0.0162568
858.881	0.0161760
858.959	0.0160745
859.038	0.0161575
859.116	0.0161797
859.194	0.0162798
859.272	0.0162340
859.350	0.0162428
859.428	0.0161864
859.506	0.0161813
859.584	0.0163367
859.663	0.0161385
859.741	0.0161633
859.819	0.0163081
859.897	0.0161105
859.975	0.0161266
860.053	0.0160503
860.131	0.0161300
860.209	0.0160359
860.288	0.0159444
860.366	0.0158289
860.444	0.0158262
860.522	0.0156761
860.600	0.0157238
860.678	0.0156915
860.756	0.0156189
860.834	0.0155853
860.913	0.0155561
860.991	0.0155109
861.069	0.0154491
861.147	0.0153381
861.225	0.0153467
861.303	0.0152959
861.381	0.0153493
861.459	0.0153365
861.538	0.0152469
861.616	0.0153915
861.694	0.0153561
861.772	0.0155331
861.850	0.0155835
861.928	0.0156951
862.006	0.0158168
862.084	0.0158335
862.163	0.0158628
862.241	0.0159241
862.319	0.0159324
862.397	0.0161757
862.475	0.0160265
862.553	0.0160298
862.631	0.0161740
862.709	0.0161679
862.788	0.0160857
862.866	0.0160460
862.944	0.0162325
863.022	0.0161291
863.100	0.0162661
863.178	0.0161633
863.256	0.0161291
863.334	0.0160713
863.413	0.0160519
863.491	0.0158191
863.569	0.0158517
863.647	0.0156088
863.725	0.0156629
863.803	0.0156383
863.881	0.0157128
863.959	0.0156695
864.038	0.0156254
864.116	0.0154826
864.194	0.0155566
864.272	0.0155036
864.350	0.0155122
864.428	0.0158203
864.506	0.0159409
864.584	0.0157723
864.663	0.0157976
864.741	0.0159554
864.819	0.0159898
864.897	0.0160773
864.975	0.0160228
865.053	0.0160624
865.131	0.0162379
865.209	0.0161144
865.288	0.0161427
865.366	0.0160735
865.444	0.0160735
865.522	0.0159682
865.600	0.0159768
865.678	0.0159451
865.756	0.0158688
865.834	0.0159391
865.913	0.0159083
865.991	0.0158852
866.069	0.0157667
866.147	0.0159366
866.225	0.0158152
866.303	0.0158570
866.381	0.0156899
866.459	0.0159182
866.538	0.0157563
866.616	0.0157156
866.694	0.0157730
866.772	0.0158411
866.850	0.0158794
866.928	0.0156240
867.006	0.0157448
867.084	0.0157666
867.163	0.0157123
867.241	0.0156584
867.319	0.0156928
867.397	0.0157580
867.475	0.0156412
867.553	0.0157527
867.631	0.0157372
867.709	0.0157864
867.788	0.0158364
867.866	0.0158521
867.944	0.0159188
868.022	0.0160088
868.100	0.0160159
868.178	0.0160452
868.256	0.0161019
868.334	0.0160378
868.413	0.0159885
868.491	0.0159423
868.569	0.0160423
868.647	0.0159467
868.725	0.0160142
868.803	0.0161339
868.881	0.0159715
868.959	0.0159077
869.038	0.0158569
869.116	0.0158670
869.194	0.0159354
869.272	0.0158411
869.350	0.0157577
869.428	0.0158022
869.506	0.0157152
869.584	0.0158546
869.663	0.0157563
869.741	0.0157643
869.819	0.0157504
869.897	0.0156381
869.975	0.0155596
870.053	0.0157033
870.131	0.0156532
870.209	0.0156191
870.288	0.0155549
870.366	0.0156961
870.444	0.0157106
870.522	0.0158192
870.600	0.0157473
870.678	0.0158139
870.756	0.0158162
870.834	0.0159032
870.913	0.0159874
870.991	0.0158620
871.069	0.0159853
871.147	0.0161359
871.225	0.0161131
871.303	0.0163451
871.381	0.0162321
871.459	0.0161603
871.538	0.0161704
871.616	0.0162696
871.694	0.0162941
871.772	0.0161399
871.850	0.0161059
871.928	0.0160919
872.006	0.0162373
872.084	0.0161845
872.163	0.0160992
872.241	0.0159966
872.319	0.0160311
872.397	0.0159955
872.475	0.0158141
872.553	0.0160600
872.631	0.0159249
872.709	0.0158105
872.788	0.0158855
872.866	0.0159175
872.944	0.0157673
873.022	0.0157298
873.100	0.0157243
873.178	0.0158112
873.256	0.0158409
873.334	0.0159624
873.413	0.0158958
873.491	0.0158006
873.569	0.0156969
873.647	0.0158853
873.725	0.0159908
873.803	0.0160916
873.881	0.0161650
873.959	0.0160976
874.038	0.0162872
874.116	0.0163203
874.194	0.0163719
874.272	0.0162924
874.350	0.0162820
874.428	0.0162339
874.506	0.0163039
874.584	0.0163013
874.663	0.0162939
874.741	0.0164147
874.819	0.0164590
874.897	0.0163387
874.975	0.0162894
875.053	0.0162489
875.131	0.0161327
875.209	0.0161414
875.288	0.0162263
875.366	0.0159865
875.444	0.0161350
875.522	0.0160355
875.600	0.0161028
875.678	0.0162135
875.756	0.0161291
875.834	0.0159562
875.913	0.0159372
875.991	0.0160642
876.069	0.0160254
876.147	0.0161836
876.225	0.0159888
876.303	0.0158178
876.381	0.0159055
876.459	0.0159164
876.538	0.0159058
876.616	0.0159147
876.694	0.0159956
876.772	0.0159953
876.850	0.0159377
876.928	0.0159305
877.006	0.0160545
877.084	0.0159070
877.163	0.0159468
877.241	0.0159283
877.319	0.0161136
877.397	0.0162118
877.475	0.0161558
877.553	0.0162469
877.631	0.0162085
877.709	0.0161201
877.788	0.0161400
877.866	0.0160736
877.944	0.0161131
878.022	0.0161098
878.100	0.0160564
878.178	0.0160246
878.256	0.0159518
878.334	0.0157491
878.413	0.0160558
878.491	0.0158622
878.569	0.0157986
878.647	0.0157051
878.725	0.0157148
878.803	0.0156606
878.881	0.0157133
878.959	0.0156992
879.038	0.0155728
879.116	0.0156226
879.194	0.0157253
879.272	0.0157833
879.350	0.0157448
879.428	0.0157154
879.506	0.0155699
879.584	0.0156058
879.663	0.0157423
879.741	0.0156261
879.819	0.0156750
879.897	0.0156399
879.975	0.0156593
880.053	0.0156426
880.131	0.0156310
880.209	0.0157619
880.288	0.0160403
880.366	0.0158421
880.444	0.0159486
880.522	0.0161073
880.600	0.0161166
880.678	0.0160785
880.756	0.0161796
880.834	0.0162832
880.913	0.0161939
880.991	0.0160423
881.069	0.0159367
881.147	0.0158585
881.225	0.0159205
881.303	0.0157920
881.381	0.0157201
881.459	0.0156634
881.538	0.0155270
881.616	0.0155973
881.694	0.0154858
881.772	0.0154701
881.850	0.0154851
881.928	0.0154304
882.006	0.0153358
882.084	0.0154269
882.163	0.0154570
882.241	0.0154594
882.319	0.0154417
882.397	0.0156069
882.475	0.0156435
882.553	0.0156148
882.631	0.0156853
882.709	0.0159317
882.788	0.0159989
882.866	0.0158900
882.944	0.0160152
883.022	0.0161828
883.100	0.0162419
883.178	0.0162312
883.256	0.0161812
883.334	0.0162160
883.413	0.0164489
883.491	0.0162434
883.569	0.0161710
883.647	0.0162749
883.725	0.0162355
883.803	0.0161671
883.881	0.0160462
883.959	0.0160051
884.038	0.0160184
884.116	0.0159132
884.194	0.0156766
884.272	0.0157288
884.350	0.0157864
884.428	0.0156651
884.506	0.0154929
884.584	0.0155632
884.663	0.0155633
884.741	0.0156020
884.819	0.0156930
884.897	0.0155663
884.975	0.0155611
885.053	0.0156892
885.131	0.0156837
885.209	0.0156856
885.288	0.0156515
885.366	0.0156357
885.444	0.0157636
885.522	0.0157495
885.600	0.0156525
885.678	0.0156992
885.756	0.0157482
885.834	0.0157288
885.913	0.0156622
885.991	0.0157506
886.069	0.0160284
886.147	0.0160857
886.225	0.0160354
886.303	0.0159948
886.381	0.0161643
886.459	0.0161359
886.538	0.0161651
886.616	0.0160775
886.694	0.0162402
886.772	0.0161514
886.850	0.0161690
886.928	0.0161708
887.006	0.0159986
887.084	0.0159616
887.163	0.0158945
887.241	0.0158422
887.319	0.0159117
887.397	0.0157466
887.475	0.0157071
887.553	0.0156693
887.631	0.0158389
887.709	0.0157270
887.788	0.0157543
887.866	0.0158616
887.944	0.0157735
888.022	0.0157095
888.100	0.0157235
888.178	0.0157771
888.256	0.0157768
888.334	0.0159102
888.413	0.0160149
888.491	0.0158215
888.569	0.0158220
888.647	0.0158362
888.725	0.0156348
888.803	0.0157355
888.881	0.0157031
888.959	0.0156529
889.038	0.0157132
889.116	0.0156059
889.194	0.0156955
889.272	0.0157983
889.350	0.0159118
889.428	0.0158496
889.506	0.0159653
889.584	0.0159534
889.663	0.0158849
889.741	0.0159299
889.819	0.0160291
889.897	0.0160570
889.975	0.0160641
890.053	0.0161079
890.131	0.0160905
890.209	0.0160744
890.288	0.0160273
890.366	0.0160784
890.444	0.0161780
890.522	0.0159401
890.600	0.0161640
890.678	0.0159529
890.756	0.0161236
890.834	0.0160470
890.913	0.0159960
890.991	0.0159292
891.069	0.0158733
891.147	0.0159031
891.225	0.0158939
891.303	0.0158005
891.381	0.0158520
891.459	0.0159570
891.538	0.0157477
891.616	0.0157123
891.694	0.0157644
891.772	0.0156369
891.850	0.0156715
891.928	0.0157812
892.006	0.0158580
892.084	0.0159624
892.163	0.0158148
892.241	0.0160011
892.319	0.0160359
892.397	0.0160051
892.475	0.0159724
892.553	0.0160339
892.631	0.0161140
892.709	0.0161001
892.788	0.0160122
892.866	0.0161900
892.944	0.0162360
893.022	0.0159569
893.100	0.0160600
893.178	0.0159413
893.256	0.0159447
893.334	0.0159312
893.413	0.0159606
893.491	0.0157751
893.569	0.0157802
893.647	0.0160536
893.725	0.0158150
893.803	0.0157202
893.881	0.0157318
893.959	0.0157693
894.038	0.0158186
894.116	0.0157513
894.194	0.0157324
894.272	0.0157635
894.350	0.0157858
894.428	0.0157819
894.506	0.0157320
894.584	0.0158053
894.663	0.0155995
894.741	0.0154412
894.819	0.0154761
894.897	0.0156238
894.975	0.0156233
895.053	0.0157647
895.131	0.0158341
895.209	0.0158405
895.288	0.0158946
895.366	0.0160296
895.444	0.0159546
895.522	0.0161329
895.600	0.0162310
895.678	0.0162635
895.756	0.0164185
895.834	0.0162128
895.913	0.0165286
895.991	0.0166096
896.069	0.0165871
896.147	0.0164474
896.225	0.0166252
896.303	0.0165971
896.381	0.0165347
896.459	0.0164784
896.538	0.0161681
896.616	0.0162335
896.694	0.0161728
896.772	0.0159743
896.850	0.0160203
896.928	0.0158829
897.006	0.0157653
897.084	0.0157942
897.163	0.0157232
897.241	0.0156618
897.319	0.0156106
897.397	0.0154975
897.475	0.0158177
897.553	0.0155893
897.631	0.0155511
897.709	0.0154704
897.788	0.0155886
897.866	0.0155724
897.944	0.0156321
898.022	0.0158672
898.100	0.0158923
898.178	0.0158434
898.256	0.0159120
898.334	0.0161075
898.413	0.0161173
898.491	0.0161829
898.569	0.0162514
898.647	0.0162659
898.725	0.0161800
898.803	0.0163983
898.881	0.0165474
898.959	0.0163970
899.038	0.0164037
899.116	0.0164146
899.194	0.0162511
899.272	0.0163380
899.350	0.0163142
899.428	0.0161707
899.506	0.0161083
899.584	0.0160527
899.663	0.0159898
899.741	0.0158875
899.819	0.0158694
899.897	0.0158293
899.975	0.0156834
900.053	0.0157064
900.131	0.0157114
900.209	0.0155623
900.288	0.0156562
900.366	0.0157106
900.444	0.0156143
900.522	0.0156927
900.600	0.0156539
900.678	0.0156543
900.756	0.0157223
900.834	0.0157401
900.913	0.0157162
900.991	0.0158175
901.069	0.0158239
901.147	0.0158857
901.225	0.0158747
901.303	0.0159432
901.381	0.0159901
901.459	0.0160195
901.538	0.0161452
901.616	0.0161598
901.694	0.0161710
901.772	0.0162159
901.850	0.0161562
901.928	0.0162920
902.006	0.0162784
902.084	0.0160992
902.163	0.0162650
902.241	0.0161568
902.319	0.0162173
902.397	0.0161404
902.475	0.0159643
902.553	0.0159790
902.631	0.0158917
902.709	0.0158009
902.788	0.0158223
902.866	0.0159250
902.944	0.0157526
903.022	0.0156541
903.100	0.0156435
903.178	0.0155930
903.256	0.0156513
903.334	0.0155551
903.413	0.0155848
903.491	0.0156693
903.569	0.0157314
903.647	0.0157312
903.725	0.0157256
903.803	0.0156982
903.881	0.0157993
903.959	0.0159429
904.038	0.0159348
904.116	0.0158833
904.194	0.0157602
904.272	0.0157582
904.350	0.0159553
904.428	0.0158189
904.506	0.0158862
904.584	0.0159801
904.663	0.0158343
904.741	0.0157199
904.819	0.0157430
904.897	0.0158514
904.975	0.0156631
905.053	0.0157770
905.131	0.0158213
905.209	0.0158648
905.288	0.0158076
905.366	0.0156955
905.444	0.0158662
905.522	0.0158067
905.600	0.0159621
905.678	0.0158342
905.756	0.0158387
905.834	0.0160095
905.913	0.0157424
905.991	0.0159660
906.069	0.0159554
906.147	0.0159203
906.225	0.0159099
906.303	0.0158897
906.381	0.0159753
906.459	0.0158829
906.538	0.0159100
906.616	0.0160592
906.694	0.0159171
906.772	0.0159452
906.850	0.0160583
906.928	0.0160658
907.006	0.0160442
907.084	0.0158809
907.163	0.0160468
907.241	0.0159325
907.319	0.0160175
907.397	0.0160307
907.475	0.0160001
907.553	0.0160817
907.631	0.0161069
907.709	0.0159889
907.788	0.0160601
907.866	0.0161116
907.944	0.0161315
908.022	0.0161820
908.100	0.0161543
908.178	0.0161690
908.256	0.0162202
908.334	0.0163227
908.413	0.0163712
908.491	0.0163265
908.569	0.0162704
908.647	0.0161065
908.725	0.0161452
908.803	0.0161639
908.881	0.0161026
908.959	0.0160835
909.038	0.0160115
909.116	0.0160445
909.194	0.0157554
909.272	0.0157991
909.350	0.0157031
909.428	0.0157304
909.506	0.0157034
909.584	0.0157483
909.663	0.0157123
909.741	0.0156287
909.819	0.0156405
909.897	0.0156054
909.975	0.0157372
910.053	0.0155504
910.131	0.0155504
910.209	0.0158305
910.288	0.0157499
910.366	0.0158656
910.444	0.0159737
910.522	0.0160446
910.600	0.0162221
910.678	0.0160941
910.756	0.0162154
910.834	0.0162910
910.913	0.0162290
910.991	0.0162153
911.069	0.0164453
911.147	0.0164021
911.225	0.0163335
911.303	0.0163233
911.381	0.0163817
911.459	0.0161330
911.538	0.0162178
911.616	0.0162141
911.694	0.0161703
911.772	0.0159844
911.850	0.0157700
911.928	0.0160430
912.006	0.0158391
912.084	0.0157435
912.163	0.0157859
912.241	0.0156577
912.319	0.0156902
912.397	0.0156508
912.475	0.0155660
912.553	0.0156992
912.631	0.0156132
912.709	0.0157497
912.788	0.0155996
912.866	0.0157434
912.944	0.0157260
913.022	0.0156577
913.100	0.0157185
913.178	0.0157265
913.256	0.0157019
913.334	0.0158742
913.413	0.0158392
913.491	0.0158524
913.569	0.0159622
913.647	0.0158768
913.725	0.0159084
913.803	0.0158649
913.881	0.0159241
913.959	0.0160517
914.038	0.0161700
914.116	0.0162173
914.194	0.0160940
914.272	0.0161333
914.350	0.0161512
914.428	0.0161876
914.506	0.0160963
914.584	0.0161444
914.663	0.0160955
914.741	0.0160839
914.819	0.0159669
914.897	0.0159914
914.975	0.0161134
915.053	0.0160025
915.131	0.0159618
915.209	0.0159611
915.288	0.0159886
915.366	0.0159087
915.444	0.0158867
915.522	0.0158932
915.600	0.0159019
915.678	0.0158928
915.756	0.0159199
915.834	0.0159416
915.913	0.0159531
915.991	0.0158658
916.069	0.0157596
916.147	0.0157219
916.225	0.0158042
916.303	0.0158692
916.381	0.0158133
916.459	0.0156589
916.538	0.0157653
916.616	0.0158114
916.694	0.0157699
916.772	0.0158430
916.850	0.0159449
916.928	0.0160106
917.006	0.0158144
917.084	0.0160119
917.163	0.0161060
917.241	0.0159696
917.319	0.0160571
917.397	0.0160337
917.475	0.0160918
917.553	0.0159796
917.631	0.0160049
917.709	0.0158871
917.788	0.0159013
917.866	0.0158575
917.944	0.0159730
918.022	0.0158118
918.100	0.0158961
918.178	0.0158565
918.256	0.0157913
918.334	0.0157574
918.413	0.0157468
918.491	0.0157545
918.569	0.0155902
918.647	0.0156538
918.725	0.0155932
918.803	0.0155214
918.881	0.0155113
918.959	0.0156450
919.038	0.0155532
919.116	0.0154910
919.194	0.0154961
919.272	0.0156832
919.350	0.0156595
919.428	0.0157153
919.506	0.0157226
919.584	0.0157571
919.663	0.0158057
919.741	0.0159602
919.819	0.0158595
919.897	0.0159299
