05/20/2022	21:04:03	Ver.	4.1	UNKNOWN
Optical Delay	599.975067	Delta X		0.078125	Sweeps	1	Scan Rate	0/0
Coordinates	Axis 1	NaN	Axis 2	NaN	Axis 3	NaN	Axis 4	NaN	Axis 5	NaN	Axis 6	0.000000
TX Power	0.000000	RX Power	0.000000

599.975	0.0158179
600.053	0.0159666
600.131	0.0157909
600.209	0.0157699
600.288	0.0158321
600.366	0.0158186
600.444	0.0158758
600.522	0.0157537
600.600	0.0158865
600.678	0.0158475
600.756	0.0158942
600.834	0.0158089
600.913	0.0158578
600.991	0.0160110
601.069	0.0160626
601.147	0.0160044
601.225	0.0158228
601.303	0.0159418
601.381	0.0159454
601.459	0.0159040
601.538	0.0158638
601.616	0.0157956
601.694	0.0158681
601.772	0.0159595
601.850	0.0159903
601.928	0.0159696
602.006	0.0158703
602.084	0.0159398
602.163	0.0159470
602.241	0.0160876
602.319	0.0160503
602.397	0.0158029
602.475	0.0159977
602.553	0.0158746
602.631	0.0158910
602.709	0.0160503
602.788	0.0159051
602.866	0.0157561
602.944	0.0159193
603.022	0.0160606
603.100	0.0159973
603.178	0.0159385
603.256	0.0159581
603.334	0.0160442
603.413	0.0161004
603.491	0.0160390
603.569	0.0159734
603.647	0.0160651
603.725	0.0160362
603.803	0.0160502
603.881	0.0160089
603.959	0.0161315
604.038	0.0159641
604.116	0.0161378
604.194	0.0161279
604.272	0.0160894
604.350	0.0160236
604.428	0.0161227
604.506	0.0160822
604.584	0.0161050
604.663	0.0159885
604.741	0.0159991
604.819	0.0161088
604.897	0.0160738
604.975	0.0160592
605.053	0.0161305
605.131	0.0161156
605.209	0.0159814
605.288	0.0160953
605.366	0.0162153
605.444	0.0160450
605.522	0.0160406
605.600	0.0161228
605.678	0.0160504
605.756	0.0161395
605.834	0.0160870
605.913	0.0162142
605.991	0.0161144
606.069	0.0162410
606.147	0.0162138
606.225	0.0162001
606.303	0.0161987
606.381	0.0160893
606.459	0.0161212
606.538	0.0162498
606.616	0.0161314
606.694	0.0161452
606.772	0.0163106
606.850	0.0161518
606.928	0.0161202
607.006	0.0160728
607.084	0.0161909
607.163	0.0161555
607.241	0.0162256
607.319	0.0161284
607.397	0.0159982
607.475	0.0162080
607.553	0.0161909
607.631	0.0161342
607.709	0.0161811
607.788	0.0160513
607.866	0.0161246
607.944	0.0160548
608.022	0.0160906
608.100	0.0160838
608.178	0.0160469
608.256	0.0161020
608.334	0.0161816
608.413	0.0161323
608.491	0.0161041
608.569	0.0160029
608.647	0.0161108
608.725	0.0161113
608.803	0.0159982
608.881	0.0160640
608.959	0.0160767
609.038	0.0161879
609.116	0.0161956
609.194	0.0161684
609.272	0.0159721
609.350	0.0160882
609.428	0.0160577
609.506	0.0160806
609.584	0.0160162
609.663	0.0160127
609.741	0.0159804
609.819	0.0161457
609.897	0.0161837
609.975	0.0159217
610.053	0.0160604
610.131	0.0161440
610.209	0.0160258
610.288	0.0160246
610.366	0.0161166
610.444	0.0159765
610.522	0.0161040
610.600	0.0161323
610.678	0.0160343
610.756	0.0159983
610.834	0.0160626
610.913	0.0161417
610.991	0.0160073
611.069	0.0160873
611.147	0.0161066
611.225	0.0159116
611.303	0.0160786
611.381	0.0160611
611.459	0.0159839
611.538	0.0160652
611.616	0.0161136
611.694	0.0160002
611.772	0.0159839
611.850	0.0160735
611.928	0.0160667
612.006	0.0159510
612.084	0.0161690
612.163	0.0161235
612.241	0.0161195
612.319	0.0160354
612.397	0.0159887
612.475	0.0160755
612.553	0.0160955
612.631	0.0160669
612.709	0.0159624
612.788	0.0159647
612.866	0.0160539
612.944	0.0160758
613.022	0.0160557
613.100	0.0159078
613.178	0.0160292
613.256	0.0161061
613.334	0.0160820
613.413	0.0160448
613.491	0.0160120
613.569	0.0161695
613.647	0.0158920
613.725	0.0159864
613.803	0.0160046
613.881	0.0160693
613.959	0.0159751
614.038	0.0159458
614.116	0.0159908
614.194	0.0161626
614.272	0.0160648
614.350	0.0160574
614.428	0.0159625
614.506	0.0159389
614.584	0.0159364
614.663	0.0160629
614.741	0.0160249
614.819	0.0160233
614.897	0.0161131
614.975	0.0160506
615.053	0.0159940
615.131	0.0160955
615.209	0.0160715
615.288	0.0158979
615.366	0.0161577
615.444	0.0159675
615.522	0.0160353
615.600	0.0159523
615.678	0.0158515
615.756	0.0159396
615.834	0.0160976
615.913	0.0160170
615.991	0.0160159
616.069	0.0161114
616.147	0.0159283
616.225	0.0159740
616.303	0.0160902
616.381	0.0159729
616.459	0.0159345
616.538	0.0160339
616.616	0.0159954
616.694	0.0159471
616.772	0.0159807
616.850	0.0160122
616.928	0.0160190
617.006	0.0160735
617.084	0.0159725
617.163	0.0159722
617.241	0.0161308
617.319	0.0160170
617.397	0.0159968
617.475	0.0160452
617.553	0.0160633
617.631	0.0159961
617.709	0.0159983
617.788	0.0159168
617.866	0.0159727
617.944	0.0160385
618.022	0.0159305
618.100	0.0159049
618.178	0.0159246
618.256	0.0158884
618.334	0.0160759
618.413	0.0159605
618.491	0.0160798
618.569	0.0159669
618.647	0.0160796
618.725	0.0159441
618.803	0.0159278
618.881	0.0158643
618.959	0.0160171
619.038	0.0160072
619.116	0.0159358
619.194	0.0160149
619.272	0.0158459
619.350	0.0158867
619.428	0.0159908
619.506	0.0160046
619.584	0.0160336
619.663	0.0159770
619.741	0.0158630
619.819	0.0159573
619.897	0.0160212
619.975	0.0160036
620.053	0.0158775
620.131	0.0159687
620.209	0.0158137
620.288	0.0160609
620.366	0.0159262
620.444	0.0160167
620.522	0.0158994
620.600	0.0157784
620.678	0.0159432
620.756	0.0160380
620.834	0.0159352
620.913	0.0158909
620.991	0.0158327
621.069	0.0159723
621.147	0.0159106
621.225	0.0158982
621.303	0.0158544
621.381	0.0158350
621.459	0.0158456
621.538	0.0158673
621.616	0.0158711
621.694	0.0159769
621.772	0.0158150
621.850	0.0157925
621.928	0.0158885
622.006	0.0158090
622.084	0.0158518
622.163	0.0157346
622.241	0.0159037
622.319	0.0159206
622.397	0.0158759
622.475	0.0158929
622.553	0.0156849
622.631	0.0159354
622.709	0.0158102
622.788	0.0156907
622.866	0.0158701
622.944	0.0158530
623.022	0.0160206
623.100	0.0158845
623.178	0.0158888
623.256	0.0158612
623.334	0.0159133
623.413	0.0158916
623.491	0.0159725
623.569	0.0159237
623.647	0.0158609
623.725	0.0159786
623.803	0.0158501
623.881	0.0158546
623.959	0.0158892
624.038	0.0160426
624.116	0.0160383
624.194	0.0159762
624.272	0.0158342
624.350	0.0159204
624.428	0.0160246
624.506	0.0159318
624.584	0.0158209
624.663	0.0159583
624.741	0.0159210
624.819	0.0160235
624.897	0.0158127
624.975	0.0159016
625.053	0.0159910
625.131	0.0159663
625.209	0.0159561
625.288	0.0158923
625.366	0.0158373
625.444	0.0159277
625.522	0.0159871
625.600	0.0159622
625.678	0.0158667
625.756	0.0159148
625.834	0.0160626
625.913	0.0159706
625.991	0.0157478
626.069	0.0159675
626.147	0.0159554
626.225	0.0159532
626.303	0.0159004
626.381	0.0159310
626.459	0.0158638
626.538	0.0160518
626.616	0.0160947
626.694	0.0159634
626.772	0.0158933
626.850	0.0158869
626.928	0.0159705
627.006	0.0159953
627.084	0.0159334
627.163	0.0161511
627.241	0.0159418
627.319	0.0157723
627.397	0.0160680
627.475	0.0160543
627.553	0.0158397
627.631	0.0159341
627.709	0.0159706
627.788	0.0160804
627.866	0.0160212
627.944	0.0158960
628.022	0.0160226
628.100	0.0158749
628.178	0.0160712
628.256	0.0159435
628.334	0.0160767
628.413	0.0159666
628.491	0.0160332
628.569	0.0161105
628.647	0.0160078
628.725	0.0159547
628.803	0.0159492
628.881	0.0159766
628.959	0.0159486
629.038	0.0159776
629.116	0.0160033
629.194	0.0160079
629.272	0.0160341
629.350	0.0160585
629.428	0.0160025
629.506	0.0158971
629.584	0.0159329
629.663	0.0160542
629.741	0.0159586
629.819	0.0159493
629.897	0.0160258
629.975	0.0159836
630.053	0.0159882
630.131	0.0160526
630.209	0.0160315
630.288	0.0162622
630.366	0.0160126
630.444	0.0160433
630.522	0.0161843
630.600	0.0159572
630.678	0.0159921
630.756	0.0160096
630.834	0.0159789
630.913	0.0161372
630.991	0.0159944
631.069	0.0160721
631.147	0.0160064
631.225	0.0161178
631.303	0.0160583
631.381	0.0159346
631.459	0.0161720
631.538	0.0161571
631.616	0.0161008
631.694	0.0161310
631.772	0.0162933
631.850	0.0159817
631.928	0.0160021
632.006	0.0161356
632.084	0.0160941
632.163	0.0161900
632.241	0.0160560
632.319	0.0160861
632.397	0.0161785
632.475	0.0161083
632.553	0.0160158
632.631	0.0159923
632.709	0.0161492
632.788	0.0160857
632.866	0.0161974
632.944	0.0161494
633.022	0.0160445
633.100	0.0160770
633.178	0.0159708
633.256	0.0160410
633.334	0.0160631
633.413	0.0161111
633.491	0.0161212
633.569	0.0160146
633.647	0.0160898
633.725	0.0160573
633.803	0.0161067
633.881	0.0161562
633.959	0.0160274
634.038	0.0161614
634.116	0.0158940
634.194	0.0159827
634.272	0.0160246
634.350	0.0158299
634.428	0.0161016
634.506	0.0162403
634.584	0.0159674
634.663	0.0159808
634.741	0.0159701
634.819	0.0160046
634.897	0.0159476
634.975	0.0160372
635.053	0.0159627
635.131	0.0159668
635.209	0.0159223
635.288	0.0158910
635.366	0.0159709
635.444	0.0159827
635.522	0.0159504
635.600	0.0158966
635.678	0.0158482
635.756	0.0160391
635.834	0.0160204
635.913	0.0158896
635.991	0.0160870
636.069	0.0159251
636.147	0.0159404
636.225	0.0158961
636.303	0.0159798
636.381	0.0161528
636.459	0.0160226
636.538	0.0159867
636.616	0.0159297
636.694	0.0160043
636.772	0.0158804
636.850	0.0159614
636.928	0.0159929
637.006	0.0160818
637.084	0.0160899
637.163	0.0160023
637.241	0.0160897
637.319	0.0161143
637.397	0.0160572
637.475	0.0160682
637.553	0.0158720
637.631	0.0158985
637.709	0.0160637
637.788	0.0161502
637.866	0.0161393
637.944	0.0160302
638.022	0.0159348
638.100	0.0159248
638.178	0.0160233
638.256	0.0159731
638.334	0.0160219
638.413	0.0159917
638.491	0.0159948
638.569	0.0160089
638.647	0.0160431
638.725	0.0161260
638.803	0.0160350
638.881	0.0159109
638.959	0.0159776
639.038	0.0161050
639.116	0.0161318
639.194	0.0160452
639.272	0.0159689
639.350	0.0159926
639.428	0.0162345
639.506	0.0160563
639.584	0.0160810
639.663	0.0160533
639.741	0.0159667
639.819	0.0159147
639.897	0.0160037
639.975	0.0159196
640.053	0.0159564
640.131	0.0160507
640.209	0.0160703
640.288	0.0159537
640.366	0.0159565
640.444	0.0159694
640.522	0.0159830
640.600	0.0159354
640.678	0.0158764
640.756	0.0159176
640.834	0.0159351
640.913	0.0159230
640.991	0.0159586
641.069	0.0158206
641.147	0.0159776
641.225	0.0157381
641.303	0.0159125
641.381	0.0161588
641.459	0.0157656
641.538	0.0158434
641.616	0.0159737
641.694	0.0159388
641.772	0.0159187
641.850	0.0160964
641.928	0.0160047
642.006	0.0158959
642.084	0.0158816
642.163	0.0160029
642.241	0.0158224
642.319	0.0158360
642.397	0.0159976
642.475	0.0159563
642.553	0.0158424
642.631	0.0161263
642.709	0.0159862
642.788	0.0159554
642.866	0.0159512
642.944	0.0159865
643.022	0.0159578
643.100	0.0159892
643.178	0.0159837
643.256	0.0159057
643.334	0.0159861
643.413	0.0159863
643.491	0.0158733
643.569	0.0160117
643.647	0.0159132
643.725	0.0159699
643.803	0.0158857
643.881	0.0158616
643.959	0.0159046
644.038	0.0160375
644.116	0.0159914
644.194	0.0159009
644.272	0.0158875
644.350	0.0158190
644.428	0.0158911
644.506	0.0160317
644.584	0.0159897
644.663	0.0159688
644.741	0.0158966
644.819	0.0160046
644.897	0.0158984
644.975	0.0160168
645.053	0.0159720
645.131	0.0161109
645.209	0.0159847
645.288	0.0159780
645.366	0.0160148
645.444	0.0160602
645.522	0.0160272
645.600	0.0161262
645.678	0.0161570
645.756	0.0160533
645.834	0.0159964
645.913	0.0162162
645.991	0.0160554
646.069	0.0161246
646.147	0.0161560
646.225	0.0162462
646.303	0.0160311
646.381	0.0160268
646.459	0.0160091
646.538	0.0159515
646.616	0.0160919
646.694	0.0160548
646.772	0.0160984
646.850	0.0161968
646.928	0.0160235
647.006	0.0159460
647.084	0.0160110
647.163	0.0159225
647.241	0.0160107
647.319	0.0160444
647.397	0.0161040
647.475	0.0160024
647.553	0.0159911
647.631	0.0160154
647.709	0.0160232
647.788	0.0160236
647.866	0.0160947
647.944	0.0161987
648.022	0.0161959
648.100	0.0162354
648.178	0.0161620
648.256	0.0161320
648.334	0.0161890
648.413	0.0164520
648.491	0.0163449
648.569	0.0160589
648.647	0.0161374
648.725	0.0161935
648.803	0.0163007
648.881	0.0162140
648.959	0.0160197
649.038	0.0160592
649.116	0.0160894
649.194	0.0160260
649.272	0.0158546
649.350	0.0159383
649.428	0.0159195
649.506	0.0158677
649.584	0.0157264
649.663	0.0159034
649.741	0.0158852
649.819	0.0157982
649.897	0.0158677
649.975	0.0157799
650.053	0.0158498
650.131	0.0158810
650.209	0.0158472
650.288	0.0157484
650.366	0.0158031
650.444	0.0158595
650.522	0.0158781
650.600	0.0160370
650.678	0.0161394
650.756	0.0161751
650.834	0.0160700
650.913	0.0162769
650.991	0.0161282
651.069	0.0161142
651.147	0.0160382
651.225	0.0161843
651.303	0.0161771
651.381	0.0160666
651.459	0.0161436
651.538	0.0160968
651.616	0.0161307
651.694	0.0159501
651.772	0.0160662
651.850	0.0161367
651.928	0.0161205
652.006	0.0159838
652.084	0.0158699
652.163	0.0158061
652.241	0.0158904
652.319	0.0158545
652.397	0.0158483
652.475	0.0159883
652.553	0.0158709
652.631	0.0157449
652.709	0.0159337
652.788	0.0158968
652.866	0.0159310
652.944	0.0158875
653.022	0.0159375
653.100	0.0158549
653.178	0.0160571
653.256	0.0159418
653.334	0.0158482
653.413	0.0159357
653.491	0.0159618
653.569	0.0159073
653.647	0.0158942
653.725	0.0159280
653.803	0.0159546
653.881	0.0158817
653.959	0.0159224
654.038	0.0159206
654.116	0.0158419
654.194	0.0157339
654.272	0.0158160
654.350	0.0158863
654.428	0.0158617
654.506	0.0159210
654.584	0.0160271
654.663	0.0160173
654.741	0.0159310
654.819	0.0159850
654.897	0.0161163
654.975	0.0161258
655.053	0.0160107
655.131	0.0161162
655.209	0.0161794
655.288	0.0162013
655.366	0.0162241
655.444	0.0161500
655.522	0.0162211
655.600	0.0161166
655.678	0.0161104
655.756	0.0161350
655.834	0.0161873
655.913	0.0160788
655.991	0.0159094
656.069	0.0161163
656.147	0.0161684
656.225	0.0161536
656.303	0.0159277
656.381	0.0159013
656.459	0.0158407
656.538	0.0158764
656.616	0.0159167
656.694	0.0158849
656.772	0.0157446
656.850	0.0158131
656.928	0.0157354
657.006	0.0155789
657.084	0.0157067
657.163	0.0158185
657.241	0.0157838
657.319	0.0155726
657.397	0.0157805
657.475	0.0157384
657.553	0.0156556
657.631	0.0156919
657.709	0.0155978
657.788	0.0158231
657.866	0.0158440
657.944	0.0158234
658.022	0.0158657
658.100	0.0159438
658.178	0.0159467
658.256	0.0159304
658.334	0.0160699
658.413	0.0162848
658.491	0.0162275
658.569	0.0162032
658.647	0.0162684
658.725	0.0162997
658.803	0.0162959
658.881	0.0163298
658.959	0.0163689
659.038	0.0164013
659.116	0.0164845
659.194	0.0163750
659.272	0.0165343
659.350	0.0164021
659.428	0.0162945
659.506	0.0163084
659.584	0.0162943
659.663	0.0163168
659.741	0.0163064
659.819	0.0160377
659.897	0.0161228
659.975	0.0159606
660.053	0.0159971
660.131	0.0158968
660.209	0.0157342
660.288	0.0159166
660.366	0.0156991
660.444	0.0156588
660.522	0.0157440
660.600	0.0156216
660.678	0.0155910
660.756	0.0155103
660.834	0.0156141
660.913	0.0156106
660.991	0.0156152
661.069	0.0157261
661.147	0.0157125
661.225	0.0157027
661.303	0.0158286
661.381	0.0157274
661.459	0.0158638
661.538	0.0159274
661.616	0.0158987
661.694	0.0158968
661.772	0.0158898
661.850	0.0161659
661.928	0.0160558
662.006	0.0159476
662.084	0.0161182
662.163	0.0162057
662.241	0.0160943
662.319	0.0160509
662.397	0.0161227
662.475	0.0162155
662.553	0.0162100
662.631	0.0163580
662.709	0.0163922
662.788	0.0162271
662.866	0.0163207
662.944	0.0163469
663.022	0.0164336
663.100	0.0163680
663.178	0.0164622
663.256	0.0163923
663.334	0.0163625
663.413	0.0163897
663.491	0.0162798
663.569	0.0163306
663.647	0.0163668
663.725	0.0162248
663.803	0.0161185
663.881	0.0161317
663.959	0.0160076
664.038	0.0158768
664.116	0.0160147
664.194	0.0158712
664.272	0.0157773
664.350	0.0156715
664.428	0.0156016
664.506	0.0157365
664.584	0.0156857
664.663	0.0155546
664.741	0.0153580
664.819	0.0155671
664.897	0.0155762
664.975	0.0157043
665.053	0.0157191
665.131	0.0156167
665.209	0.0156879
665.288	0.0157680
665.366	0.0158224
665.444	0.0159815
665.522	0.0160178
665.600	0.0160012
665.678	0.0160851
665.756	0.0162656
665.834	0.0162649
665.913	0.0162450
665.991	0.0162994
666.069	0.0164194
666.147	0.0163084
666.225	0.0164432
666.303	0.0163698
666.381	0.0163665
666.459	0.0163625
666.538	0.0162516
666.616	0.0162863
666.694	0.0163347
666.772	0.0162272
666.850	0.0161706
666.928	0.0161777
667.006	0.0161089
667.084	0.0159663
667.163	0.0159960
667.241	0.0160806
667.319	0.0159023
667.397	0.0159427
667.475	0.0158339
667.553	0.0159136
667.631	0.0158495
667.709	0.0158781
667.788	0.0159175
667.866	0.0158370
667.944	0.0158494
668.022	0.0159592
668.100	0.0159166
668.178	0.0158605
668.256	0.0159175
668.334	0.0159340
668.413	0.0158926
668.491	0.0159519
668.569	0.0159728
668.647	0.0159406
668.725	0.0159418
668.803	0.0160208
668.881	0.0159673
668.959	0.0158523
669.038	0.0158801
669.116	0.0159177
669.194	0.0159144
669.272	0.0159551
669.350	0.0160067
669.428	0.0159315
669.506	0.0159669
669.584	0.0159434
669.663	0.0159991
669.741	0.0160905
669.819	0.0160358
669.897	0.0160889
669.975	0.0158441
670.053	0.0161253
670.131	0.0159727
670.209	0.0160201
670.288	0.0162016
670.366	0.0161417
670.444	0.0161190
670.522	0.0162970
670.600	0.0161613
670.678	0.0160628
670.756	0.0161955
670.834	0.0161472
670.913	0.0161691
670.991	0.0162649
671.069	0.0161777
671.147	0.0160623
671.225	0.0161015
671.303	0.0161379
671.381	0.0158228
671.459	0.0160312
671.538	0.0158797
671.616	0.0158811
671.694	0.0159293
671.772	0.0158662
671.850	0.0159251
671.928	0.0158862
672.006	0.0158704
672.084	0.0159054
672.163	0.0158798
672.241	0.0158674
672.319	0.0158627
672.397	0.0159091
672.475	0.0158399
672.553	0.0159309
672.631	0.0160923
672.709	0.0159542
672.788	0.0160711
672.866	0.0161118
672.944	0.0161333
673.022	0.0160984
673.100	0.0160168
673.178	0.0160257
673.256	0.0161706
673.334	0.0161276
673.413	0.0161264
673.491	0.0160654
673.569	0.0160144
673.647	0.0158674
673.725	0.0158835
673.803	0.0159582
673.881	0.0160175
673.959	0.0160305
674.038	0.0160130
674.116	0.0158669
674.194	0.0160012
674.272	0.0159294
674.350	0.0159266
674.428	0.0158305
674.506	0.0159328
674.584	0.0157411
674.663	0.0156158
674.741	0.0158920
674.819	0.0159285
674.897	0.0157401
674.975	0.0159393
675.053	0.0160020
675.131	0.0159965
675.209	0.0158760
675.288	0.0159623
675.366	0.0159292
675.444	0.0159875
675.522	0.0159818
675.600	0.0160869
675.678	0.0160744
675.756	0.0159837
675.834	0.0160209
675.913	0.0160175
675.991	0.0161136
676.069	0.0159981
676.147	0.0158159
676.225	0.0158821
676.303	0.0159072
676.381	0.0156634
676.459	0.0156322
676.538	0.0157195
676.616	0.0158402
676.694	0.0156675
676.772	0.0156882
676.850	0.0156780
676.928	0.0157317
677.006	0.0157535
677.084	0.0157653
677.163	0.0159257
677.241	0.0159066
677.319	0.0159805
677.397	0.0159613
677.475	0.0158720
677.553	0.0159819
677.631	0.0159756
677.709	0.0160295
677.788	0.0159908
677.866	0.0159274
677.944	0.0158852
678.022	0.0158141
678.100	0.0158367
678.178	0.0159792
678.256	0.0159170
678.334	0.0158768
678.413	0.0158994
678.491	0.0158833
678.569	0.0159386
678.647	0.0160392
678.725	0.0161649
678.803	0.0161654
678.881	0.0161696
678.959	0.0160712
679.038	0.0161572
679.116	0.0161875
679.194	0.0160299
679.272	0.0160570
679.350	0.0161095
679.428	0.0157796
679.506	0.0157983
679.584	0.0157992
679.663	0.0157079
679.741	0.0154125
679.819	0.0154768
679.897	0.0156512
679.975	0.0155273
680.053	0.0154995
680.131	0.0155739
680.209	0.0155969
680.288	0.0157790
680.366	0.0158640
680.444	0.0161674
680.522	0.0162230
680.600	0.0164566
680.678	0.0166438
680.756	0.0168793
680.834	0.0170686
680.913	0.0171617
680.991	0.0172411
681.069	0.0171403
681.147	0.0171744
681.225	0.0170837
681.303	0.0168729
681.381	0.0165408
681.459	0.0165910
681.538	0.0161658
681.616	0.0158701
681.694	0.0156155
681.772	0.0153950
681.850	0.0152711
681.928	0.0150473
682.006	0.0148167
682.084	0.0147528
682.163	0.0145924
682.241	0.0146535
682.319	0.0147216
682.397	0.0150381
682.475	0.0151664
682.553	0.0152071
682.631	0.0153952
682.709	0.0155193
682.788	0.0158114
682.866	0.0160826
682.944	0.0162415
683.022	0.0164899
683.100	0.0165779
683.178	0.0166771
683.256	0.0169175
683.334	0.0167882
683.413	0.0169424
683.491	0.0169653
683.569	0.0168679
683.647	0.0168813
683.725	0.0167537
683.803	0.0168671
683.881	0.0168121
683.959	0.0167973
684.038	0.0167062
684.116	0.0166769
684.194	0.0166467
684.272	0.0164793
684.350	0.0162244
684.428	0.0160937
684.506	0.0160255
684.584	0.0158347
684.663	0.0156864
684.741	0.0155235
684.819	0.0152531
684.897	0.0152622
684.975	0.0152306
685.053	0.0151996
685.131	0.0152802
685.209	0.0153796
685.288	0.0153527
685.366	0.0156583
685.444	0.0157698
685.522	0.0159513
685.600	0.0161268
685.678	0.0164086
685.756	0.0164945
685.834	0.0166724
685.913	0.0165780
685.991	0.0167802
686.069	0.0167384
686.147	0.0165547
686.225	0.0164692
686.303	0.0162172
686.381	0.0160255
686.459	0.0158488
686.538	0.0156953
686.616	0.0152774
686.694	0.0152467
686.772	0.0151681
686.850	0.0149882
686.928	0.0149915
687.006	0.0149222
687.084	0.0151585
687.163	0.0152364
687.241	0.0153417
687.319	0.0155188
687.397	0.0157725
687.475	0.0158152
687.553	0.0159394
687.631	0.0161150
687.709	0.0163085
687.788	0.0163329
687.866	0.0165284
687.944	0.0166160
688.022	0.0167345
688.100	0.0168353
688.178	0.0168008
688.256	0.0168294
688.334	0.0169273
688.413	0.0170173
688.491	0.0171972
688.569	0.0173560
688.647	0.0174157
688.725	0.0174447
688.803	0.0175299
688.881	0.0175887
688.959	0.0177586
689.038	0.0176064
689.116	0.0175330
689.194	0.0172988
689.272	0.0171318
689.350	0.0168403
689.428	0.0164270
689.506	0.0161562
689.584	0.0157135
689.663	0.0152953
689.741	0.0149406
689.819	0.0144608
689.897	0.0140585
689.975	0.0137843
690.053	0.0136530
690.131	0.0133479
690.209	0.0133238
690.288	0.0130981
690.366	0.0130357
690.444	0.0130057
690.522	0.0130630
690.600	0.0131695
690.678	0.0132542
690.756	0.0134710
690.834	0.0138906
690.913	0.0142610
690.991	0.0146118
691.069	0.0149960
691.147	0.0156216
691.225	0.0161915
691.303	0.0167654
691.381	0.0173354
691.459	0.0178407
691.538	0.0184629
691.616	0.0190709
691.694	0.0193997
691.772	0.0196130
691.850	0.0198924
691.928	0.0201847
692.006	0.0201141
692.084	0.0199815
692.163	0.0199088
692.241	0.0195988
692.319	0.0192810
692.397	0.0187036
692.475	0.0183054
692.553	0.0179845
692.631	0.0172796
692.709	0.0168501
692.788	0.0164039
692.866	0.0161036
692.944	0.0157068
693.022	0.0153267
693.100	0.0149522
693.178	0.0146169
693.256	0.0142056
693.334	0.0138718
693.413	0.0136210
693.491	0.0131485
693.569	0.0129649
693.647	0.0125163
693.725	0.0123406
693.803	0.0121043
693.881	0.0122446
693.959	0.0123259
694.038	0.0123917
694.116	0.0129045
694.194	0.0131348
694.272	0.0133579
694.350	0.0138577
694.428	0.0145928
694.506	0.0149912
694.584	0.0154367
694.663	0.0158607
694.741	0.0164597
694.819	0.0167930
694.897	0.0170611
694.975	0.0171309
695.053	0.0173289
695.131	0.0173537
695.209	0.0173745
695.288	0.0172035
695.366	0.0171455
695.444	0.0173118
695.522	0.0173187
695.600	0.0172688
695.678	0.0175127
695.756	0.0175616
695.834	0.0175969
695.913	0.0176970
695.991	0.0177423
696.069	0.0179309
696.147	0.0178791
696.225	0.0180084
696.303	0.0180099
696.381	0.0177380
696.459	0.0176244
696.538	0.0176127
696.616	0.0174216
696.694	0.0171315
696.772	0.0169788
696.850	0.0168331
696.928	0.0168394
697.006	0.0166366
697.084	0.0162749
697.163	0.0162196
697.241	0.0159721
697.319	0.0156510
697.397	0.0154992
697.475	0.0151781
697.553	0.0149187
697.631	0.0144350
697.709	0.0140982
697.788	0.0137832
697.866	0.0134303
697.944	0.0132232
698.022	0.0128279
698.100	0.0126181
698.178	0.0123788
698.256	0.0124370
698.334	0.0124889
698.413	0.0126374
698.491	0.0129904
698.569	0.0133152
698.647	0.0138272
698.725	0.0143796
698.803	0.0148592
698.881	0.0153658
698.959	0.0159280
699.038	0.0165601
699.116	0.0169704
699.194	0.0174506
699.272	0.0177120
699.350	0.0182780
699.428	0.0186671
699.506	0.0188466
699.584	0.0189964
699.663	0.0191423
699.741	0.0191901
699.819	0.0191229
699.897	0.0190445
699.975	0.0188784
700.053	0.0185968
700.131	0.0180656
700.209	0.0181123
700.288	0.0175346
700.366	0.0171001
700.444	0.0167428
700.522	0.0163960
700.600	0.0162413
700.678	0.0158788
700.756	0.0153613
700.834	0.0152425
700.913	0.0150644
700.991	0.0146845
701.069	0.0143821
701.147	0.0142501
701.225	0.0141164
701.303	0.0139626
701.381	0.0138896
701.459	0.0138755
701.538	0.0138450
701.616	0.0139462
701.694	0.0140853
701.772	0.0138803
701.850	0.0142068
701.928	0.0145795
702.006	0.0146809
702.084	0.0148666
702.163	0.0151188
702.241	0.0151742
702.319	0.0154107
702.397	0.0155129
702.475	0.0154766
702.553	0.0156348
702.631	0.0154433
702.709	0.0155141
702.788	0.0153330
702.866	0.0152444
702.944	0.0154826
703.022	0.0154910
703.100	0.0155124
703.178	0.0157379
703.256	0.0158994
703.334	0.0163449
703.413	0.0165662
703.491	0.0167575
703.569	0.0171526
703.647	0.0175938
703.725	0.0178331
703.803	0.0177494
703.881	0.0179826
703.959	0.0180736
704.038	0.0182612
704.116	0.0182308
704.194	0.0181840
704.272	0.0180520
704.350	0.0180523
704.428	0.0179404
704.506	0.0177869
704.584	0.0177016
704.663	0.0176165
704.741	0.0176752
704.819	0.0174277
704.897	0.0174464
704.975	0.0172740
705.053	0.0171529
705.131	0.0169193
705.209	0.0167294
705.288	0.0163174
705.366	0.0160859
705.444	0.0158113
705.522	0.0154661
705.600	0.0150946
705.678	0.0147553
705.756	0.0142878
705.834	0.0139892
705.913	0.0136275
705.991	0.0134489
706.069	0.0132459
706.147	0.0129823
706.225	0.0129667
706.303	0.0128455
706.381	0.0127766
706.459	0.0130109
706.538	0.0132704
706.616	0.0133761
706.694	0.0136828
706.772	0.0142445
706.850	0.0145889
706.928	0.0148458
707.006	0.0152590
707.084	0.0156647
707.163	0.0160162
707.241	0.0161477
707.319	0.0164445
707.397	0.0165790
707.475	0.0164772
707.553	0.0168731
707.631	0.0167719
707.709	0.0168565
707.788	0.0166720
707.866	0.0167956
707.944	0.0167254
708.022	0.0166193
708.100	0.0167255
708.178	0.0168166
708.256	0.0169279
708.334	0.0171320
708.413	0.0171992
708.491	0.0173136
708.569	0.0175368
708.647	0.0177577
708.725	0.0179100
708.803	0.0178836
708.881	0.0177725
708.959	0.0178265
709.038	0.0175890
709.116	0.0174248
709.194	0.0173922
709.272	0.0170366
709.350	0.0168277
709.428	0.0166650
709.506	0.0166632
709.584	0.0163988
709.663	0.0161783
709.741	0.0160825
709.819	0.0163308
709.897	0.0162450
709.975	0.0161729
710.053	0.0160829
710.131	0.0160767
710.209	0.0162605
710.288	0.0163979
710.366	0.0165054
710.444	0.0163858
710.522	0.0165095
710.600	0.0164780
710.678	0.0163657
710.756	0.0165331
710.834	0.0162525
710.913	0.0160538
710.991	0.0159534
711.069	0.0158768
711.147	0.0154669
711.225	0.0151809
711.303	0.0151768
711.381	0.0150546
711.459	0.0147988
711.538	0.0146155
711.616	0.0146238
711.694	0.0144286
711.772	0.0145015
711.850	0.0143359
711.928	0.0141842
712.006	0.0142818
712.084	0.0142862
712.163	0.0143069
712.241	0.0143340
712.319	0.0144739
712.397	0.0143827
712.475	0.0144917
712.553	0.0148320
712.631	0.0149555
712.709	0.0149387
712.788	0.0151585
712.866	0.0153282
712.944	0.0155239
713.022	0.0156667
713.100	0.0158870
713.178	0.0160934
713.256	0.0162347
713.334	0.0164584
713.413	0.0164407
713.491	0.0167123
713.569	0.0170018
713.647	0.0171866
713.725	0.0171481
713.803	0.0173753
713.881	0.0174035
713.959	0.0174453
714.038	0.0175807
714.116	0.0176347
714.194	0.0176850
714.272	0.0175522
714.350	0.0177153
714.428	0.0178363
714.506	0.0176704
714.584	0.0175083
714.663	0.0176749
714.741	0.0177212
714.819	0.0176585
714.897	0.0175516
714.975	0.0175726
715.053	0.0175893
715.131	0.0175128
715.209	0.0173963
715.288	0.0172562
715.366	0.0172888
715.444	0.0171706
715.522	0.0171777
715.600	0.0169405
715.678	0.0167171
715.756	0.0167001
715.834	0.0163644
715.913	0.0163908
715.991	0.0160657
716.069	0.0158185
716.147	0.0160020
716.225	0.0156007
716.303	0.0153828
716.381	0.0152528
716.459	0.0151418
716.538	0.0148392
716.616	0.0146363
716.694	0.0144215
716.772	0.0141493
716.850	0.0138981
716.928	0.0136751
717.006	0.0134782
717.084	0.0131057
717.163	0.0131379
717.241	0.0130208
717.319	0.0129749
717.397	0.0129848
717.475	0.0132866
717.553	0.0134208
717.631	0.0135793
717.709	0.0138943
717.788	0.0143269
717.866	0.0147002
717.944	0.0150435
718.022	0.0154208
718.100	0.0159055
718.178	0.0162425
718.256	0.0164996
718.334	0.0168799
718.413	0.0170495
718.491	0.0170147
718.569	0.0171812
718.647	0.0172516
718.725	0.0171470
718.803	0.0170147
718.881	0.0166718
718.959	0.0166940
719.038	0.0166341
719.116	0.0166161
719.194	0.0165159
719.272	0.0165253
719.350	0.0163539
719.428	0.0163522
719.506	0.0162948
719.584	0.0163139
719.663	0.0163867
719.741	0.0164096
719.819	0.0162842
719.897	0.0164981
719.975	0.0165244
720.053	0.0166854
720.131	0.0168152
720.209	0.0170502
720.288	0.0172154
720.366	0.0174768
720.444	0.0174471
720.522	0.0176231
720.600	0.0175838
720.678	0.0176485
720.756	0.0175931
720.834	0.0172982
720.913	0.0171600
720.991	0.0168734
721.069	0.0166898
721.147	0.0162658
721.225	0.0160156
721.303	0.0155532
721.381	0.0154029
721.459	0.0153049
721.538	0.0149778
721.616	0.0148692
721.694	0.0147050
721.772	0.0148535
721.850	0.0151688
721.928	0.0153694
722.006	0.0154465
722.084	0.0157915
722.163	0.0158149
722.241	0.0158604
722.319	0.0161076
722.397	0.0162891
722.475	0.0161565
722.553	0.0161403
722.631	0.0158160
722.709	0.0155788
722.788	0.0153203
722.866	0.0151079
722.944	0.0148998
723.022	0.0145604
723.100	0.0144214
723.178	0.0142795
723.256	0.0141238
723.334	0.0141926
723.413	0.0142711
723.491	0.0144628
723.569	0.0146922
723.647	0.0145848
723.725	0.0149081
723.803	0.0150933
723.881	0.0152527
723.959	0.0153028
724.038	0.0156496
724.116	0.0157069
724.194	0.0159232
724.272	0.0162898
724.350	0.0164223
724.428	0.0166945
724.506	0.0170638
724.584	0.0173338
724.663	0.0177499
724.741	0.0178178
724.819	0.0179362
724.897	0.0178642
724.975	0.0178091
725.053	0.0177004
725.131	0.0176147
725.209	0.0171568
725.288	0.0168738
725.366	0.0165251
725.444	0.0161718
725.522	0.0161115
725.600	0.0159106
725.678	0.0156115
725.756	0.0156636
725.834	0.0157301
725.913	0.0157929
725.991	0.0159292
726.069	0.0159283
726.147	0.0159177
726.225	0.0160340
726.303	0.0161893
726.381	0.0161713
726.459	0.0160505
726.538	0.0161089
726.616	0.0160940
726.694	0.0162229
726.772	0.0162032
726.850	0.0160559
726.928	0.0162388
727.006	0.0160940
727.084	0.0162156
727.163	0.0162393
727.241	0.0162959
727.319	0.0163201
727.397	0.0165557
727.475	0.0164852
727.553	0.0164298
727.631	0.0166129
727.709	0.0165527
727.788	0.0164526
727.866	0.0164277
727.944	0.0164658
728.022	0.0163722
728.100	0.0160741
728.178	0.0159000
728.256	0.0158068
728.334	0.0156349
728.413	0.0154288
728.491	0.0153305
728.569	0.0151813
728.647	0.0151693
728.725	0.0151273
728.803	0.0150204
728.881	0.0151646
728.959	0.0151204
729.038	0.0153228
729.116	0.0154382
729.194	0.0156184
729.272	0.0158364
729.350	0.0161041
729.428	0.0163733
729.506	0.0164995
729.584	0.0167101
729.663	0.0168353
729.741	0.0168222
729.819	0.0168471
729.897	0.0168201
729.975	0.0166801
730.053	0.0164719
730.131	0.0162611
730.209	0.0162528
730.288	0.0160792
730.366	0.0160349
730.444	0.0157508
730.522	0.0158404
730.600	0.0158562
730.678	0.0157508
730.756	0.0158506
730.834	0.0158801
730.913	0.0158960
730.991	0.0158642
731.069	0.0158822
731.147	0.0158907
731.225	0.0158022
731.303	0.0158282
731.381	0.0159937
731.459	0.0160349
731.538	0.0160762
731.616	0.0160821
731.694	0.0160055
731.772	0.0161893
731.850	0.0161253
731.928	0.0159476
732.006	0.0158405
732.084	0.0159278
732.163	0.0156935
732.241	0.0156329
732.319	0.0156856
732.397	0.0156261
732.475	0.0153623
732.553	0.0151570
732.631	0.0154078
732.709	0.0153362
732.788	0.0154721
732.866	0.0155051
732.944	0.0156104
733.022	0.0159570
733.100	0.0159922
733.178	0.0163205
733.256	0.0165070
733.334	0.0168048
733.413	0.0168733
733.491	0.0170628
733.569	0.0172990
733.647	0.0175002
733.725	0.0173264
733.803	0.0173552
733.881	0.0171039
733.959	0.0169058
734.038	0.0166962
734.116	0.0165421
734.194	0.0163440
734.272	0.0161880
734.350	0.0159256
734.428	0.0157135
734.506	0.0155270
734.584	0.0156053
734.663	0.0155782
734.741	0.0155180
734.819	0.0155343
734.897	0.0155438
734.975	0.0156374
735.053	0.0156551
735.131	0.0159266
735.209	0.0160598
735.288	0.0160261
735.366	0.0163175
735.444	0.0164178
735.522	0.0165417
735.600	0.0167619
735.678	0.0167973
735.756	0.0167168
735.834	0.0168054
735.913	0.0167089
735.991	0.0165327
736.069	0.0163956
736.147	0.0161771
736.225	0.0157508
736.303	0.0157129
736.381	0.0155283
736.459	0.0152934
736.538	0.0150095
736.616	0.0149725
736.694	0.0146606
736.772	0.0149486
736.850	0.0150067
736.928	0.0150874
737.006	0.0153519
737.084	0.0154246
737.163	0.0157321
737.241	0.0159306
737.319	0.0158661
737.397	0.0160345
737.475	0.0160624
737.553	0.0161573
737.631	0.0159544
737.709	0.0157988
737.788	0.0156747
737.866	0.0157941
737.944	0.0155167
738.022	0.0155445
738.100	0.0155042
738.178	0.0155789
738.256	0.0154080
738.334	0.0154898
738.413	0.0155090
738.491	0.0154845
738.569	0.0154070
738.647	0.0154732
738.725	0.0155402
738.803	0.0155103
738.881	0.0155054
738.959	0.0156310
739.038	0.0156799
739.116	0.0158110
739.194	0.0159818
739.272	0.0161130
739.350	0.0162074
739.428	0.0164198
739.506	0.0166164
739.584	0.0167098
739.663	0.0168297
739.741	0.0169813
739.819	0.0171214
739.897	0.0170399
739.975	0.0171205
740.053	0.0170265
740.131	0.0170390
740.209	0.0168764
740.288	0.0167577
740.366	0.0166512
740.444	0.0164883
740.522	0.0163551
740.600	0.0162013
740.678	0.0160609
740.756	0.0161625
740.834	0.0160739
740.913	0.0159451
740.991	0.0160444
741.069	0.0159479
741.147	0.0159712
741.225	0.0159253
741.303	0.0158316
741.381	0.0157895
741.459	0.0157236
741.538	0.0157543
741.616	0.0156407
741.694	0.0158408
741.772	0.0154339
741.850	0.0155498
741.928	0.0156367
742.006	0.0154763
742.084	0.0157241
742.163	0.0157522
742.241	0.0158129
742.319	0.0158598
742.397	0.0161191
742.475	0.0165494
742.553	0.0166808
742.631	0.0167272
742.709	0.0168529
742.788	0.0169701
742.866	0.0168945
742.944	0.0168395
743.022	0.0169293
743.100	0.0167265
743.178	0.0166051
743.256	0.0166680
743.334	0.0164497
743.413	0.0161979
743.491	0.0160585
743.569	0.0158776
743.647	0.0154381
743.725	0.0155567
743.803	0.0153808
743.881	0.0153049
743.959	0.0152044
744.038	0.0150344
744.116	0.0148421
744.194	0.0148728
744.272	0.0148493
744.350	0.0148541
744.428	0.0148810
744.506	0.0149147
744.584	0.0148693
744.663	0.0149575
744.741	0.0151720
744.819	0.0150803
744.897	0.0152219
744.975	0.0155657
745.053	0.0156323
745.131	0.0157495
745.209	0.0158470
745.288	0.0160584
745.366	0.0162534
745.444	0.0162112
745.522	0.0163088
745.600	0.0165108
745.678	0.0164804
745.756	0.0164553
745.834	0.0164450
745.913	0.0162541
745.991	0.0163747
746.069	0.0162871
746.147	0.0160577
746.225	0.0157420
746.303	0.0158667
746.381	0.0158829
746.459	0.0158818
746.538	0.0159270
746.616	0.0159171
746.694	0.0160020
746.772	0.0161905
746.850	0.0163296
746.928	0.0166220
747.006	0.0167348
747.084	0.0169539
747.163	0.0169457
747.241	0.0170735
747.319	0.0171253
747.397	0.0171548
747.475	0.0171950
747.553	0.0172493
747.631	0.0172307
747.709	0.0171784
747.788	0.0171735
747.866	0.0171661
747.944	0.0169273
748.022	0.0169827
748.100	0.0170138
748.178	0.0170419
748.256	0.0169913
748.334	0.0167812
748.413	0.0167387
748.491	0.0165938
748.569	0.0165916
748.647	0.0162710
748.725	0.0163602
748.803	0.0160589
748.881	0.0158423
748.959	0.0157321
749.038	0.0155972
749.116	0.0155390
749.194	0.0153242
749.272	0.0155035
749.350	0.0153996
749.428	0.0153480
749.506	0.0154073
749.584	0.0152739
749.663	0.0153946
749.741	0.0155405
749.819	0.0155127
749.897	0.0155769
749.975	0.0155765
750.053	0.0155783
750.131	0.0155762
750.209	0.0156676
750.288	0.0154774
750.366	0.0156618
750.444	0.0155805
750.522	0.0155009
750.600	0.0154867
750.678	0.0154868
750.756	0.0154486
750.834	0.0154192
750.913	0.0153309
750.991	0.0152910
751.069	0.0154409
751.147	0.0152938
751.225	0.0151408
751.303	0.0154004
751.381	0.0155023
751.459	0.0154641
751.538	0.0155099
751.616	0.0155772
751.694	0.0156586
751.772	0.0157387
751.850	0.0159170
751.928	0.0159799
752.006	0.0161050
752.084	0.0161797
752.163	0.0164005
752.241	0.0163999
752.319	0.0163676
752.397	0.0165639
752.475	0.0165308
752.553	0.0166777
752.631	0.0167509
752.709	0.0167767
752.788	0.0166991
752.866	0.0166915
752.944	0.0166143
753.022	0.0166306
753.100	0.0166132
753.178	0.0164779
753.256	0.0164186
753.334	0.0164278
753.413	0.0163893
753.491	0.0162925
753.569	0.0163146
753.647	0.0162202
753.725	0.0161800
753.803	0.0161481
753.881	0.0160233
753.959	0.0158318
754.038	0.0160252
754.116	0.0157615
754.194	0.0159003
754.272	0.0158614
754.350	0.0158456
754.428	0.0158588
754.506	0.0158983
754.584	0.0158456
754.663	0.0160049
754.741	0.0160548
754.819	0.0160794
754.897	0.0162238
754.975	0.0162482
755.053	0.0162640
755.131	0.0160756
755.209	0.0161410
755.288	0.0161736
755.366	0.0161983
755.444	0.0161346
755.522	0.0159799
755.600	0.0160602
755.678	0.0161369
755.756	0.0159643
755.834	0.0159066
755.913	0.0158488
755.991	0.0158794
756.069	0.0160582
756.147	0.0159731
756.225	0.0158475
756.303	0.0159674
756.381	0.0158298
756.459	0.0159628
756.538	0.0160813
756.616	0.0160761
756.694	0.0161160
756.772	0.0162608
756.850	0.0162278
756.928	0.0161748
757.006	0.0162424
757.084	0.0161202
757.163	0.0159951
757.241	0.0161169
757.319	0.0160628
757.397	0.0159074
757.475	0.0161546
757.553	0.0160784
757.631	0.0158015
757.709	0.0158099
757.788	0.0157683
757.866	0.0157423
757.944	0.0155498
758.022	0.0154511
758.100	0.0153044
758.178	0.0153880
758.256	0.0152539
758.334	0.0150297
758.413	0.0150406
758.491	0.0150029
758.569	0.0150367
758.647	0.0149899
758.725	0.0151403
758.803	0.0152613
758.881	0.0153461
758.959	0.0154140
759.038	0.0155231
759.116	0.0156723
759.194	0.0159434
759.272	0.0160374
759.350	0.0161562
759.428	0.0162703
759.506	0.0163634
759.584	0.0165232
759.663	0.0163811
759.741	0.0163429
759.819	0.0162936
759.897	0.0162441
759.975	0.0162089
760.053	0.0161431
760.131	0.0159235
760.209	0.0159225
760.288	0.0159528
760.366	0.0158768
760.444	0.0156950
760.522	0.0157430
760.600	0.0156704
760.678	0.0159364
760.756	0.0158167
760.834	0.0159992
760.913	0.0158774
760.991	0.0160413
761.069	0.0161055
761.147	0.0161082
761.225	0.0161916
761.303	0.0162418
761.381	0.0162817
761.459	0.0163311
761.538	0.0165100
761.616	0.0165729
761.694	0.0166199
761.772	0.0166329
761.850	0.0165363
761.928	0.0166505
762.006	0.0165905
762.084	0.0165041
762.163	0.0164731
762.241	0.0164545
762.319	0.0163036
762.397	0.0163463
762.475	0.0163288
762.553	0.0162588
762.631	0.0160992
762.709	0.0161473
762.788	0.0161317
762.866	0.0161047
762.944	0.0160294
763.022	0.0159969
763.100	0.0160267
763.178	0.0160770
763.256	0.0162318
763.334	0.0161309
763.413	0.0161597
763.491	0.0162421
763.569	0.0162044
763.647	0.0162391
763.725	0.0161868
763.803	0.0161629
763.881	0.0160664
763.959	0.0159863
764.038	0.0158662
764.116	0.0157899
764.194	0.0159129
764.272	0.0154884
764.350	0.0155913
764.428	0.0154811
764.506	0.0155244
764.584	0.0155421
764.663	0.0156158
764.741	0.0155891
764.819	0.0155809
764.897	0.0155824
764.975	0.0155050
765.053	0.0156348
765.131	0.0155982
765.209	0.0157130
765.288	0.0156808
765.366	0.0158537
765.444	0.0157531
765.522	0.0158312
765.600	0.0157822
765.678	0.0157365
765.756	0.0157758
765.834	0.0156590
765.913	0.0156671
765.991	0.0155700
766.069	0.0155085
766.147	0.0157336
766.225	0.0157611
766.303	0.0155952
766.381	0.0156981
766.459	0.0158023
766.538	0.0158614
766.616	0.0159735
766.694	0.0160808
766.772	0.0161279
766.850	0.0163432
766.928	0.0161107
767.006	0.0161996
767.084	0.0162836
767.163	0.0163018
767.241	0.0163141
767.319	0.0160957
767.397	0.0162815
767.475	0.0162289
767.553	0.0161945
767.631	0.0161250
767.709	0.0160971
767.788	0.0159642
767.866	0.0159302
767.944	0.0158632
768.022	0.0158864
768.100	0.0157256
768.178	0.0158817
768.256	0.0157837
768.334	0.0158794
768.413	0.0158177
768.491	0.0160216
768.569	0.0160201
768.647	0.0161523
768.725	0.0161362
768.803	0.0161273
768.881	0.0160707
768.959	0.0163485
769.038	0.0163310
769.116	0.0163479
769.194	0.0163644
769.272	0.0164249
769.350	0.0165112
769.428	0.0164381
769.506	0.0165368
769.584	0.0166416
769.663	0.0166306
769.741	0.0166100
769.819	0.0167371
769.897	0.0165435
769.975	0.0165881
770.053	0.0165471
770.131	0.0164199
770.209	0.0162900
770.288	0.0163696
770.366	0.0162874
770.444	0.0160734
770.522	0.0159335
770.600	0.0158931
770.678	0.0159680
770.756	0.0161132
770.834	0.0159979
770.913	0.0159903
770.991	0.0160947
771.069	0.0161444
771.147	0.0160695
771.225	0.0160407
771.303	0.0160960
771.381	0.0161716
771.459	0.0159345
771.538	0.0160745
771.616	0.0162093
771.694	0.0161639
771.772	0.0161696
771.850	0.0160454
771.928	0.0159845
772.006	0.0159129
772.084	0.0157349
772.163	0.0158194
772.241	0.0158607
772.319	0.0157944
772.397	0.0156678
772.475	0.0156201
772.553	0.0156964
772.631	0.0156017
772.709	0.0155418
772.788	0.0154902
772.866	0.0155453
772.944	0.0153934
773.022	0.0154924
773.100	0.0156001
773.178	0.0155054
773.256	0.0157171
773.334	0.0156942
773.413	0.0158259
773.491	0.0158997
773.569	0.0157945
773.647	0.0159494
773.725	0.0159105
773.803	0.0158506
773.881	0.0160690
773.959	0.0160364
774.038	0.0159650
774.116	0.0160175
774.194	0.0161113
774.272	0.0160575
774.350	0.0160780
774.428	0.0161641
774.506	0.0159444
774.584	0.0159197
774.663	0.0159911
774.741	0.0157870
774.819	0.0158903
774.897	0.0158006
774.975	0.0158834
775.053	0.0160683
775.131	0.0158286
775.209	0.0159283
775.288	0.0158685
775.366	0.0158134
775.444	0.0158652
775.522	0.0160078
775.600	0.0159079
775.678	0.0158463
775.756	0.0159786
775.834	0.0158464
775.913	0.0159532
775.991	0.0157919
776.069	0.0158656
776.147	0.0161106
776.225	0.0159711
776.303	0.0160426
776.381	0.0160800
776.459	0.0162054
776.538	0.0162719
776.616	0.0163226
776.694	0.0162408
776.772	0.0163409
776.850	0.0164119
776.928	0.0164951
777.006	0.0165806
777.084	0.0163857
777.163	0.0164166
777.241	0.0165058
777.319	0.0163364
777.397	0.0163227
777.475	0.0162916
777.553	0.0162459
777.631	0.0162196
777.709	0.0161450
777.788	0.0162014
777.866	0.0162357
777.944	0.0161354
778.022	0.0161120
778.100	0.0161009
778.178	0.0161246
778.256	0.0159721
778.334	0.0159942
778.413	0.0159402
778.491	0.0158140
778.569	0.0159068
778.647	0.0159582
778.725	0.0158200
778.803	0.0159416
778.881	0.0158822
778.959	0.0159274
779.038	0.0159556
779.116	0.0160242
779.194	0.0159466
779.272	0.0161147
779.350	0.0160024
779.428	0.0160188
779.506	0.0159553
779.584	0.0160105
779.663	0.0159863
779.741	0.0159077
779.819	0.0159527
779.897	0.0158279
779.975	0.0157854
780.053	0.0158286
780.131	0.0158681
780.209	0.0158542
780.288	0.0156692
780.366	0.0157451
780.444	0.0156848
780.522	0.0159098
780.600	0.0157040
780.678	0.0156329
780.756	0.0156368
780.834	0.0157890
780.913	0.0156931
780.991	0.0156718
781.069	0.0157185
781.147	0.0157290
781.225	0.0159126
781.303	0.0158543
781.381	0.0158391
781.459	0.0159788
781.538	0.0160191
781.616	0.0159584
781.694	0.0157993
781.772	0.0158704
781.850	0.0159000
781.928	0.0159682
782.006	0.0159398
782.084	0.0157915
782.163	0.0158942
782.241	0.0159558
782.319	0.0160590
782.397	0.0161909
782.475	0.0159986
782.553	0.0162403
782.631	0.0163708
782.709	0.0163194
782.788	0.0162671
782.866	0.0162632
782.944	0.0163432
783.022	0.0161900
783.100	0.0160130
783.178	0.0162028
783.256	0.0159910
783.334	0.0159822
783.413	0.0159399
783.491	0.0159859
783.569	0.0158910
783.647	0.0158211
783.725	0.0159560
783.803	0.0157907
783.881	0.0157738
783.959	0.0160113
784.038	0.0161145
784.116	0.0161597
784.194	0.0163203
784.272	0.0163828
784.350	0.0164698
784.428	0.0165194
784.506	0.0166338
784.584	0.0165664
784.663	0.0166466
784.741	0.0167799
784.819	0.0165946
784.897	0.0166740
784.975	0.0165701
785.053	0.0164916
785.131	0.0165057
785.209	0.0163615
785.288	0.0162970
785.366	0.0162949
785.444	0.0163842
785.522	0.0161535
785.600	0.0160166
785.678	0.0159232
785.756	0.0158765
785.834	0.0157436
785.913	0.0156023
785.991	0.0157224
786.069	0.0156228
786.147	0.0155927
786.225	0.0156939
786.303	0.0156331
786.381	0.0156123
786.459	0.0155783
786.538	0.0155293
786.616	0.0156106
786.694	0.0156339
786.772	0.0157021
786.850	0.0156110
786.928	0.0157420
787.006	0.0156084
787.084	0.0157633
787.163	0.0158505
787.241	0.0156889
787.319	0.0158157
787.397	0.0157951
787.475	0.0159279
787.553	0.0159711
787.631	0.0160136
787.709	0.0158335
787.788	0.0157333
787.866	0.0159600
787.944	0.0157420
788.022	0.0157880
788.100	0.0157609
788.178	0.0157068
788.256	0.0156842
788.334	0.0157634
788.413	0.0156911
788.491	0.0156904
788.569	0.0158213
788.647	0.0159559
788.725	0.0159269
788.803	0.0159833
788.881	0.0160422
788.959	0.0162060
789.038	0.0161977
789.116	0.0163339
789.194	0.0162837
789.272	0.0162525
789.350	0.0165321
789.428	0.0163893
789.506	0.0163845
789.584	0.0163235
789.663	0.0161789
789.741	0.0161098
789.819	0.0160880
789.897	0.0159935
789.975	0.0157167
790.053	0.0158702
790.131	0.0157899
790.209	0.0156889
790.288	0.0154404
790.366	0.0153710
790.444	0.0154984
790.522	0.0153913
790.600	0.0155829
790.678	0.0156010
790.756	0.0156487
790.834	0.0155264
790.913	0.0155904
790.991	0.0157620
791.069	0.0157811
791.147	0.0158815
791.225	0.0159461
791.303	0.0161162
791.381	0.0161165
791.459	0.0160581
791.538	0.0161034
791.616	0.0161895
791.694	0.0162095
791.772	0.0163062
791.850	0.0161716
791.928	0.0163103
792.006	0.0164402
792.084	0.0163335
792.163	0.0164699
792.241	0.0166012
792.319	0.0165809
792.397	0.0166100
792.475	0.0165282
792.553	0.0166383
792.631	0.0167078
792.709	0.0166624
792.788	0.0168095
792.866	0.0167717
792.944	0.0167573
793.022	0.0166340
793.100	0.0167978
793.178	0.0164834
793.256	0.0163259
793.334	0.0163496
793.413	0.0162606
793.491	0.0160227
793.569	0.0159528
793.647	0.0158393
793.725	0.0157124
793.803	0.0154961
793.881	0.0154610
793.959	0.0154343
794.038	0.0152866
794.116	0.0154432
794.194	0.0153175
794.272	0.0152724
794.350	0.0152022
794.428	0.0153101
794.506	0.0153384
794.584	0.0152903
794.663	0.0154293
794.741	0.0155534
794.819	0.0155097
794.897	0.0154789
794.975	0.0156478
795.053	0.0157734
795.131	0.0158150
795.209	0.0157516
795.288	0.0158990
795.366	0.0160825
795.444	0.0160773
795.522	0.0160014
795.600	0.0161923
795.678	0.0162817
795.756	0.0162051
795.834	0.0162045
795.913	0.0163273
795.991	0.0162428
796.069	0.0163836
796.147	0.0162508
796.225	0.0162601
796.303	0.0162431
796.381	0.0162096
796.459	0.0161565
796.538	0.0161136
796.616	0.0161563
796.694	0.0160349
796.772	0.0159406
796.850	0.0161263
796.928	0.0158475
797.006	0.0157947
797.084	0.0158047
797.163	0.0156879
797.241	0.0156866
797.319	0.0157024
797.397	0.0156794
797.475	0.0156601
797.553	0.0157040
797.631	0.0157564
797.709	0.0159116
797.788	0.0158022
797.866	0.0157045
797.944	0.0159283
798.022	0.0158765
798.100	0.0159159
798.178	0.0158929
798.256	0.0159240
798.334	0.0158820
798.413	0.0159166
798.491	0.0157851
798.569	0.0159115
798.647	0.0158630
798.725	0.0158388
798.803	0.0158877
798.881	0.0158899
798.959	0.0158391
799.038	0.0158222
799.116	0.0157492
799.194	0.0157145
799.272	0.0157455
799.350	0.0157457
799.428	0.0158160
799.506	0.0158023
799.584	0.0158170
799.663	0.0158410
799.741	0.0159623
799.819	0.0161093
799.897	0.0160930
799.975	0.0162212
800.053	0.0161183
800.131	0.0161504
800.209	0.0162009
800.288	0.0163108
800.366	0.0162665
800.444	0.0161033
800.522	0.0163081
800.600	0.0163315
800.678	0.0161720
800.756	0.0162212
800.834	0.0162859
800.913	0.0163807
800.991	0.0163086
801.069	0.0163664
801.147	0.0163530
801.225	0.0163104
801.303	0.0164462
801.381	0.0163432
801.459	0.0162690
801.538	0.0161830
801.616	0.0161877
801.694	0.0161710
801.772	0.0160413
801.850	0.0160072
801.928	0.0159832
802.006	0.0160035
802.084	0.0158656
802.163	0.0157600
802.241	0.0155444
802.319	0.0157300
802.397	0.0157161
802.475	0.0156052
802.553	0.0155950
802.631	0.0156311
802.709	0.0155901
802.788	0.0156087
802.866	0.0155040
802.944	0.0154386
803.022	0.0155914
803.100	0.0156314
803.178	0.0156690
803.256	0.0156895
803.334	0.0159860
803.413	0.0160284
803.491	0.0160036
803.569	0.0159796
803.647	0.0162489
803.725	0.0161102
803.803	0.0162328
803.881	0.0163280
803.959	0.0163064
804.038	0.0162577
804.116	0.0163534
804.194	0.0162182
804.272	0.0162965
804.350	0.0162563
804.428	0.0164153
804.506	0.0163883
804.584	0.0163874
804.663	0.0163773
804.741	0.0162134
804.819	0.0162954
804.897	0.0162646
804.975	0.0162714
805.053	0.0162800
805.131	0.0163602
805.209	0.0163422
805.288	0.0163158
805.366	0.0163741
805.444	0.0162601
805.522	0.0162286
805.600	0.0161301
805.678	0.0161936
805.756	0.0162294
805.834	0.0160655
805.913	0.0159531
805.991	0.0159998
806.069	0.0159671
806.147	0.0157196
806.225	0.0157090
806.303	0.0157959
806.381	0.0158535
806.459	0.0159155
806.538	0.0157018
806.616	0.0158930
806.694	0.0158943
806.772	0.0159062
806.850	0.0158211
806.928	0.0159476
807.006	0.0159419
807.084	0.0160013
807.163	0.0161113
807.241	0.0160793
807.319	0.0161709
807.397	0.0162210
807.475	0.0161709
807.553	0.0161467
807.631	0.0161661
807.709	0.0163189
807.788	0.0161213
807.866	0.0160594
807.944	0.0161333
808.022	0.0161031
808.100	0.0161341
808.178	0.0161601
808.256	0.0161217
808.334	0.0161952
808.413	0.0161648
808.491	0.0160534
808.569	0.0160807
808.647	0.0161102
808.725	0.0162118
808.803	0.0160789
808.881	0.0159860
808.959	0.0159447
809.038	0.0159785
809.116	0.0159749
809.194	0.0158620
809.272	0.0159395
809.350	0.0160241
809.428	0.0160552
809.506	0.0160725
809.584	0.0159822
809.663	0.0159875
809.741	0.0160639
809.819	0.0160529
809.897	0.0160787
809.975	0.0161459
810.053	0.0161854
810.131	0.0161401
810.209	0.0161533
810.288	0.0160732
810.366	0.0162022
810.444	0.0162091
810.522	0.0162611
810.600	0.0162702
810.678	0.0160549
810.756	0.0161680
810.834	0.0162855
810.913	0.0162294
810.991	0.0161821
811.069	0.0161491
811.147	0.0161871
811.225	0.0161645
811.303	0.0162298
811.381	0.0161878
811.459	0.0161600
811.538	0.0160909
811.616	0.0161124
811.694	0.0161994
811.772	0.0161974
811.850	0.0162310
811.928	0.0161111
812.006	0.0161654
812.084	0.0161479
812.163	0.0159850
812.241	0.0161263
812.319	0.0161342
812.397	0.0160380
812.475	0.0159497
812.553	0.0158522
812.631	0.0158669
812.709	0.0158266
812.788	0.0158633
812.866	0.0155836
812.944	0.0155801
813.022	0.0157666
813.100	0.0156017
813.178	0.0154612
813.256	0.0154887
813.334	0.0155028
813.413	0.0156650
813.491	0.0156052
813.569	0.0154936
813.647	0.0155329
813.725	0.0157655
813.803	0.0155910
813.881	0.0157188
813.959	0.0157244
814.038	0.0156457
814.116	0.0156258
814.194	0.0157941
814.272	0.0159629
814.350	0.0158569
814.428	0.0159113
814.506	0.0157494
814.584	0.0160135
814.663	0.0158452
814.741	0.0157610
814.819	0.0157726
814.897	0.0158100
814.975	0.0158685
815.053	0.0157907
815.131	0.0157862
815.209	0.0158000
815.288	0.0157478
815.366	0.0159361
815.444	0.0158805
815.522	0.0159377
815.600	0.0159155
815.678	0.0161436
815.756	0.0160323
815.834	0.0161617
815.913	0.0162802
815.991	0.0164679
816.069	0.0164983
816.147	0.0165313
816.225	0.0164867
816.303	0.0166679
816.381	0.0166908
816.459	0.0165846
816.538	0.0167091
816.616	0.0165815
816.694	0.0164751
816.772	0.0164164
816.850	0.0163026
816.928	0.0162503
817.006	0.0160238
817.084	0.0160410
817.163	0.0162019
817.241	0.0160577
817.319	0.0159404
817.397	0.0160257
817.475	0.0159253
817.553	0.0158247
817.631	0.0158141
817.709	0.0159058
817.788	0.0157798
817.866	0.0157818
817.944	0.0157694
818.022	0.0157343
818.100	0.0157748
818.178	0.0157446
818.256	0.0157049
818.334	0.0157386
818.413	0.0158103
818.491	0.0157307
818.569	0.0158617
818.647	0.0159919
818.725	0.0159574
818.803	0.0159756
818.881	0.0160294
818.959	0.0160729
819.038	0.0160311
819.116	0.0160374
819.194	0.0159130
819.272	0.0159096
819.350	0.0158498
819.428	0.0157652
819.506	0.0156892
819.584	0.0155983
819.663	0.0155484
819.741	0.0155950
819.819	0.0155299
819.897	0.0154200
819.975	0.0156375
820.053	0.0156204
820.131	0.0156492
820.209	0.0157155
820.288	0.0157090
820.366	0.0157037
820.444	0.0156811
820.522	0.0157525
820.600	0.0159045
820.678	0.0160828
820.756	0.0160152
820.834	0.0159380
820.913	0.0159532
820.991	0.0160589
821.069	0.0161057
821.147	0.0159949
821.225	0.0159750
821.303	0.0160925
821.381	0.0160413
821.459	0.0160625
821.538	0.0160185
821.616	0.0161211
821.694	0.0160961
821.772	0.0159449
821.850	0.0161537
821.928	0.0159749
822.006	0.0160279
822.084	0.0160874
822.163	0.0161523
822.241	0.0161519
822.319	0.0161754
822.397	0.0161790
822.475	0.0162142
822.553	0.0162255
822.631	0.0161337
822.709	0.0161877
822.788	0.0162667
822.866	0.0162570
822.944	0.0162059
823.022	0.0163291
823.100	0.0162018
823.178	0.0161227
823.256	0.0163326
823.334	0.0162289
823.413	0.0161676
823.491	0.0162225
823.569	0.0162502
823.647	0.0162878
823.725	0.0161403
823.803	0.0161080
823.881	0.0160674
823.959	0.0161423
824.038	0.0161465
824.116	0.0160938
824.194	0.0159595
824.272	0.0161057
824.350	0.0160219
824.428	0.0160878
824.506	0.0159006
824.584	0.0160143
824.663	0.0162078
824.741	0.0161802
824.819	0.0162458
824.897	0.0162776
824.975	0.0161340
825.053	0.0161790
825.131	0.0163261
825.209	0.0163486
825.288	0.0163671
825.366	0.0162750
825.444	0.0161300
825.522	0.0161530
825.600	0.0163074
825.678	0.0161324
825.756	0.0161243
825.834	0.0159360
825.913	0.0160390
825.991	0.0160461
826.069	0.0159442
826.147	0.0160609
826.225	0.0160063
826.303	0.0159380
826.381	0.0159880
826.459	0.0159470
826.538	0.0158999
826.616	0.0158247
826.694	0.0158559
826.772	0.0159902
826.850	0.0159180
826.928	0.0159353
827.006	0.0159849
827.084	0.0160877
827.163	0.0159158
827.241	0.0159156
827.319	0.0159218
827.397	0.0160842
827.475	0.0163044
827.553	0.0161140
827.631	0.0161099
827.709	0.0161956
827.788	0.0160906
827.866	0.0162325
827.944	0.0161919
828.022	0.0161535
828.100	0.0161253
828.178	0.0160874
828.256	0.0160193
828.334	0.0160438
828.413	0.0158816
828.491	0.0159604
828.569	0.0159959
828.647	0.0158519
828.725	0.0160053
828.803	0.0157804
828.881	0.0158964
828.959	0.0159041
829.038	0.0159361
829.116	0.0159797
829.194	0.0160580
829.272	0.0159686
829.350	0.0161842
829.428	0.0162534
829.506	0.0163821
829.584	0.0163425
829.663	0.0162353
829.741	0.0163274
829.819	0.0163291
829.897	0.0163043
829.975	0.0162084
830.053	0.0163940
830.131	0.0160718
830.209	0.0159174
830.288	0.0159563
830.366	0.0159341
830.444	0.0158714
830.522	0.0158392
830.600	0.0158392
830.678	0.0157256
830.756	0.0156059
830.834	0.0155471
830.913	0.0155964
830.991	0.0155927
831.069	0.0155849
831.147	0.0155901
831.225	0.0157310
831.303	0.0156422
831.381	0.0156545
831.459	0.0158114
831.538	0.0157938
831.616	0.0158083
831.694	0.0158893
831.772	0.0160269
831.850	0.0160715
831.928	0.0160894
832.006	0.0160283
832.084	0.0161419
832.163	0.0161812
832.241	0.0162218
832.319	0.0160723
832.397	0.0160954
832.475	0.0160921
832.553	0.0161483
832.631	0.0158952
832.709	0.0159000
832.788	0.0159627
832.866	0.0157996
832.944	0.0158013
833.022	0.0158807
833.100	0.0156956
833.178	0.0158330
833.256	0.0158292
833.334	0.0159272
833.413	0.0160030
833.491	0.0157520
833.569	0.0159456
833.647	0.0159602
833.725	0.0159700
833.803	0.0160468
833.881	0.0161322
833.959	0.0161463
834.038	0.0161746
834.116	0.0160242
834.194	0.0161787
834.272	0.0160715
834.350	0.0161444
834.428	0.0161841
834.506	0.0159262
834.584	0.0160794
834.663	0.0161295
834.741	0.0159600
834.819	0.0160268
834.897	0.0161225
834.975	0.0160777
835.053	0.0159734
835.131	0.0159045
835.209	0.0159640
835.288	0.0159724
835.366	0.0159863
835.444	0.0159400
835.522	0.0158650
835.600	0.0160486
835.678	0.0158860
835.756	0.0157582
835.834	0.0158922
835.913	0.0159473
835.991	0.0157764
836.069	0.0157693
836.147	0.0157343
836.225	0.0157313
836.303	0.0157720
836.381	0.0158707
836.459	0.0157327
836.538	0.0156895
836.616	0.0158275
836.694	0.0158379
836.772	0.0159864
836.850	0.0159120
836.928	0.0160841
837.006	0.0160920
837.084	0.0159074
837.163	0.0160205
837.241	0.0160495
837.319	0.0159072
837.397	0.0158974
837.475	0.0159827
837.553	0.0160356
837.631	0.0159927
837.709	0.0160435
837.788	0.0160227
837.866	0.0159380
837.944	0.0159471
838.022	0.0160477
838.100	0.0161873
838.178	0.0160431
838.256	0.0160247
838.334	0.0161712
838.413	0.0162591
838.491	0.0162358
838.569	0.0161516
838.647	0.0161852
838.725	0.0160857
838.803	0.0162468
838.881	0.0162521
838.959	0.0161063
839.038	0.0159856
839.116	0.0159650
839.194	0.0159526
839.272	0.0158741
839.350	0.0158347
839.428	0.0157034
839.506	0.0157185
839.584	0.0157187
839.663	0.0157848
839.741	0.0155414
839.819	0.0157789
839.897	0.0155950
839.975	0.0156267
840.053	0.0156650
840.131	0.0156235
840.209	0.0157764
840.288	0.0157107
840.366	0.0157832
840.444	0.0158113
840.522	0.0157633
840.600	0.0159691
840.678	0.0160039
840.756	0.0158775
840.834	0.0158890
840.913	0.0157791
840.991	0.0159841
841.069	0.0159683
841.147	0.0158454
841.225	0.0159872
841.303	0.0160109
841.381	0.0158838
841.459	0.0159412
841.538	0.0158560
841.616	0.0158359
841.694	0.0158109
841.772	0.0159318
841.850	0.0159590
841.928	0.0156448
842.006	0.0159185
842.084	0.0158719
842.163	0.0157495
842.241	0.0158081
842.319	0.0158487
842.397	0.0159270
842.475	0.0159087
842.553	0.0158652
842.631	0.0159208
842.709	0.0160519
842.788	0.0159327
842.866	0.0160178
842.944	0.0159194
843.022	0.0160554
843.100	0.0160693
843.178	0.0160909
843.256	0.0161551
843.334	0.0162059
843.413	0.0162813
843.491	0.0163792
843.569	0.0163335
843.647	0.0162670
843.725	0.0163476
843.803	0.0162710
843.881	0.0162637
843.959	0.0163843
844.038	0.0162936
844.116	0.0163022
844.194	0.0164576
844.272	0.0163860
844.350	0.0161441
844.428	0.0162494
844.506	0.0162930
844.584	0.0162155
844.663	0.0162121
844.741	0.0160960
844.819	0.0158653
844.897	0.0158075
844.975	0.0158234
845.053	0.0159560
845.131	0.0158537
845.209	0.0158907
845.288	0.0160300
845.366	0.0157921
845.444	0.0157796
845.522	0.0157948
845.600	0.0158298
845.678	0.0157887
845.756	0.0158845
845.834	0.0158892
845.913	0.0159518
845.991	0.0158420
846.069	0.0157985
846.147	0.0157102
846.225	0.0157155
846.303	0.0159721
846.381	0.0158334
846.459	0.0158754
846.538	0.0159326
846.616	0.0158417
846.694	0.0158170
846.772	0.0159261
846.850	0.0159843
846.928	0.0160099
847.006	0.0158754
847.084	0.0159619
847.163	0.0160125
847.241	0.0160250
847.319	0.0160430
847.397	0.0162112
847.475	0.0161097
847.553	0.0159760
847.631	0.0160739
847.709	0.0160331
847.788	0.0159571
847.866	0.0158990
847.944	0.0159747
848.022	0.0160274
848.100	0.0160390
848.178	0.0158635
848.256	0.0158707
848.334	0.0159321
848.413	0.0158801
848.491	0.0159498
848.569	0.0158562
848.647	0.0158394
848.725	0.0159161
848.803	0.0159694
848.881	0.0159476
848.959	0.0160547
849.038	0.0161194
849.116	0.0159975
849.194	0.0160455
849.272	0.0161996
849.350	0.0162214
849.428	0.0162148
849.506	0.0161673
849.584	0.0162433
849.663	0.0162764
849.741	0.0162105
849.819	0.0163978
849.897	0.0163618
849.975	0.0162595
850.053	0.0162360
850.131	0.0162418
850.209	0.0163166
850.288	0.0163003
850.366	0.0160813
850.444	0.0161375
850.522	0.0162038
850.600	0.0161591
850.678	0.0160545
850.756	0.0160172
850.834	0.0160251
850.913	0.0158710
850.991	0.0159125
851.069	0.0159472
851.147	0.0157765
851.225	0.0158030
851.303	0.0158811
851.381	0.0157558
851.459	0.0157248
851.538	0.0156567
851.616	0.0157092
851.694	0.0158080
851.772	0.0156300
851.850	0.0156409
851.928	0.0157172
852.006	0.0159061
852.084	0.0158691
852.163	0.0158602
852.241	0.0158890
852.319	0.0159176
852.397	0.0159512
852.475	0.0159369
852.553	0.0160704
852.631	0.0162059
852.709	0.0160930
852.788	0.0161491
852.866	0.0162691
852.944	0.0162603
853.022	0.0161487
853.100	0.0161398
853.178	0.0160326
853.256	0.0161194
853.334	0.0162923
853.413	0.0160955
853.491	0.0160628
853.569	0.0160407
853.647	0.0158517
853.725	0.0160823
853.803	0.0161570
853.881	0.0159416
853.959	0.0158064
854.038	0.0159547
854.116	0.0158497
854.194	0.0159361
854.272	0.0157860
854.350	0.0156829
854.428	0.0157757
854.506	0.0158811
854.584	0.0158612
854.663	0.0158373
854.741	0.0157331
854.819	0.0156479
854.897	0.0157591
854.975	0.0156409
855.053	0.0157472
855.131	0.0157478
855.209	0.0157537
855.288	0.0156792
855.366	0.0157121
855.444	0.0158609
855.522	0.0155795
855.600	0.0156450
855.678	0.0155719
855.756	0.0157423
855.834	0.0157090
855.913	0.0158647
855.991	0.0157623
856.069	0.0158778
856.147	0.0160244
856.225	0.0158752
856.303	0.0158045
856.381	0.0159501
856.459	0.0159847
856.538	0.0159652
856.616	0.0159792
856.694	0.0160603
856.772	0.0160603
856.850	0.0161230
856.928	0.0161494
857.006	0.0160539
857.084	0.0159823
857.163	0.0160811
857.241	0.0160143
857.319	0.0160460
857.397	0.0161124
857.475	0.0160860
857.553	0.0159080
857.631	0.0158875
857.709	0.0159821
857.788	0.0159306
857.866	0.0159050
857.944	0.0161137
858.022	0.0160151
858.100	0.0160243
858.178	0.0161822
858.256	0.0161697
858.334	0.0160467
858.413	0.0160249
858.491	0.0161134
858.569	0.0162456
858.647	0.0162515
858.725	0.0161903
858.803	0.0162027
858.881	0.0161288
858.959	0.0161637
859.038	0.0161301
859.116	0.0161781
859.194	0.0162370
859.272	0.0160360
859.350	0.0161481
859.428	0.0161061
859.506	0.0160697
859.584	0.0160126
859.663	0.0159930
859.741	0.0159858
859.819	0.0160157
859.897	0.0161346
859.975	0.0159809
860.053	0.0158120
860.131	0.0158067
860.209	0.0158691
860.288	0.0158670
860.366	0.0158968
860.444	0.0157412
860.522	0.0158332
860.600	0.0156703
860.678	0.0156069
860.756	0.0156138
860.834	0.0154807
860.913	0.0154398
860.991	0.0154572
861.069	0.0155040
861.147	0.0154356
861.225	0.0154029
861.303	0.0155087
861.381	0.0156104
861.459	0.0154589
861.538	0.0153925
861.616	0.0154458
861.694	0.0157765
861.772	0.0157666
861.850	0.0158427
861.928	0.0156992
862.006	0.0158932
862.084	0.0157970
862.163	0.0158147
862.241	0.0158949
862.319	0.0158351
862.397	0.0160036
862.475	0.0159229
862.553	0.0159777
862.631	0.0159605
862.709	0.0160529
862.788	0.0160149
862.866	0.0157741
862.944	0.0160957
863.022	0.0160941
863.100	0.0159864
863.178	0.0160185
863.256	0.0158337
863.334	0.0158807
863.413	0.0158405
863.491	0.0158162
863.569	0.0158795
863.647	0.0157160
863.725	0.0156692
863.803	0.0157496
863.881	0.0158161
863.959	0.0157630
864.038	0.0157936
864.116	0.0157784
864.194	0.0156859
864.272	0.0158968
864.350	0.0159427
864.428	0.0158145
864.506	0.0160567
864.584	0.0160793
864.663	0.0160432
864.741	0.0159958
864.819	0.0162948
864.897	0.0160493
864.975	0.0162739
865.053	0.0162211
865.131	0.0162649
865.209	0.0162585
865.288	0.0163126
865.366	0.0163587
865.444	0.0163068
865.522	0.0163032
865.600	0.0162572
865.678	0.0161584
865.756	0.0160004
865.834	0.0161432
865.913	0.0162566
865.991	0.0160121
866.069	0.0161459
866.147	0.0160938
866.225	0.0161382
866.303	0.0160342
866.381	0.0160877
866.459	0.0160658
866.538	0.0160866
866.616	0.0160477
866.694	0.0160986
866.772	0.0160759
866.850	0.0160246
866.928	0.0160809
867.006	0.0161118
867.084	0.0159660
867.163	0.0159663
867.241	0.0160370
867.319	0.0159207
867.397	0.0159373
867.475	0.0161499
867.553	0.0160952
867.631	0.0161712
867.709	0.0161548
867.788	0.0161145
867.866	0.0160581
867.944	0.0161905
868.022	0.0161466
868.100	0.0160641
868.178	0.0161200
868.256	0.0160661
868.334	0.0161417
868.413	0.0160134
868.491	0.0160918
868.569	0.0161567
868.647	0.0161088
868.725	0.0161665
868.803	0.0160708
868.881	0.0161240
868.959	0.0160820
869.038	0.0160638
869.116	0.0161031
869.194	0.0160400
869.272	0.0159910
869.350	0.0158487
869.428	0.0160008
869.506	0.0159353
869.584	0.0159179
869.663	0.0158466
869.741	0.0158771
869.819	0.0157284
869.897	0.0158762
869.975	0.0158463
870.053	0.0158139
870.131	0.0158401
870.209	0.0159734
870.288	0.0159709
870.366	0.0158695
870.444	0.0158824
870.522	0.0160255
870.600	0.0160053
870.678	0.0160868
870.756	0.0161021
870.834	0.0161845
870.913	0.0162629
870.991	0.0163372
871.069	0.0164621
871.147	0.0164250
871.225	0.0164746
871.303	0.0165335
871.381	0.0164052
871.459	0.0164149
871.538	0.0164541
871.616	0.0163754
871.694	0.0164757
871.772	0.0164709
871.850	0.0164030
871.928	0.0164789
872.006	0.0163068
872.084	0.0162928
872.163	0.0163205
872.241	0.0163147
872.319	0.0161208
872.397	0.0161808
872.475	0.0161182
872.553	0.0160809
872.631	0.0160983
872.709	0.0160578
872.788	0.0159148
872.866	0.0158744
872.944	0.0158885
873.022	0.0159609
873.100	0.0158270
873.178	0.0157791
873.256	0.0157573
873.334	0.0158949
873.413	0.0159337
873.491	0.0158022
873.569	0.0159117
873.647	0.0158850
873.725	0.0160343
873.803	0.0159978
873.881	0.0161079
873.959	0.0161442
874.038	0.0161949
874.116	0.0162440
874.194	0.0161137
874.272	0.0161412
874.350	0.0161615
874.428	0.0161012
874.506	0.0162073
874.584	0.0160850
874.663	0.0161413
874.741	0.0161459
874.819	0.0160242
874.897	0.0159657
874.975	0.0159901
875.053	0.0158693
875.131	0.0158906
875.209	0.0158012
875.288	0.0157016
875.366	0.0157348
875.444	0.0158008
875.522	0.0156902
875.600	0.0155826
875.678	0.0157713
875.756	0.0156316
875.834	0.0156821
875.913	0.0155232
875.991	0.0156726
876.069	0.0157520
876.147	0.0156408
876.225	0.0157301
876.303	0.0157143
876.381	0.0158357
876.459	0.0157610
876.538	0.0157913
876.616	0.0157676
876.694	0.0159277
876.772	0.0159412
876.850	0.0160136
876.928	0.0159509
877.006	0.0159321
877.084	0.0159684
877.163	0.0159128
877.241	0.0159902
877.319	0.0159564
877.397	0.0160303
877.475	0.0159130
877.553	0.0159614
877.631	0.0159393
877.709	0.0157927
877.788	0.0157085
877.866	0.0156720
877.944	0.0157647
878.022	0.0158438
878.100	0.0157333
878.178	0.0158092
878.256	0.0157658
878.334	0.0156905
878.413	0.0157027
878.491	0.0156753
878.569	0.0156515
878.647	0.0158382
878.725	0.0157677
878.803	0.0157538
878.881	0.0157851
878.959	0.0157613
879.038	0.0157938
879.116	0.0157478
879.194	0.0157811
879.272	0.0159966
879.350	0.0160094
879.428	0.0159777
879.506	0.0159138
879.584	0.0158427
879.663	0.0160384
879.741	0.0159218
879.819	0.0159322
879.897	0.0159207
879.975	0.0159644
880.053	0.0159365
880.131	0.0160818
880.209	0.0161021
880.288	0.0160201
880.366	0.0161724
880.444	0.0161896
880.522	0.0161407
880.600	0.0162177
880.678	0.0161256
880.756	0.0162152
880.834	0.0161945
880.913	0.0160773
880.991	0.0161504
881.069	0.0162062
881.147	0.0159987
881.225	0.0160506
881.303	0.0159971
881.381	0.0158916
881.459	0.0158694
881.538	0.0157684
881.616	0.0158992
881.694	0.0158820
881.772	0.0157030
881.850	0.0157134
881.928	0.0156894
882.006	0.0158935
882.084	0.0157217
882.163	0.0157393
882.241	0.0158804
882.319	0.0159589
882.397	0.0158861
882.475	0.0158594
882.553	0.0160087
882.631	0.0158858
882.709	0.0159575
882.788	0.0162971
882.866	0.0161295
882.944	0.0160901
883.022	0.0161040
883.100	0.0162337
883.178	0.0162018
883.256	0.0163154
883.334	0.0161538
883.413	0.0162469
883.491	0.0161856
883.569	0.0162615
883.647	0.0160614
883.725	0.0161386
883.803	0.0162198
883.881	0.0159972
883.959	0.0159354
884.038	0.0160470
884.116	0.0158738
884.194	0.0157455
884.272	0.0158512
884.350	0.0158369
884.428	0.0157463
884.506	0.0158218
884.584	0.0157541
884.663	0.0155859
884.741	0.0156755
884.819	0.0157361
884.897	0.0156314
884.975	0.0156316
885.053	0.0155585
885.131	0.0156390
885.209	0.0157642
885.288	0.0156185
885.366	0.0156918
885.444	0.0157229
885.522	0.0156966
885.600	0.0156354
885.678	0.0157676
885.756	0.0158627
885.834	0.0159221
885.913	0.0159547
885.991	0.0160571
886.069	0.0160632
886.147	0.0160873
886.225	0.0161592
886.303	0.0162455
886.381	0.0161320
886.459	0.0161726
886.538	0.0163943
886.616	0.0162514
886.694	0.0160403
886.772	0.0161268
886.850	0.0161023
886.928	0.0160422
887.006	0.0158823
887.084	0.0160282
887.163	0.0158739
887.241	0.0157940
887.319	0.0158734
887.397	0.0158529
887.475	0.0157988
887.553	0.0157819
887.631	0.0158496
887.709	0.0159024
887.788	0.0157618
887.866	0.0157948
887.944	0.0158685
888.022	0.0157390
888.100	0.0156966
888.178	0.0157020
888.256	0.0157668
888.334	0.0157967
888.413	0.0157090
888.491	0.0158353
888.569	0.0157715
888.647	0.0157288
888.725	0.0157436
888.803	0.0158839
888.881	0.0159261
888.959	0.0158378
889.038	0.0160987
889.116	0.0161903
889.194	0.0162270
889.272	0.0161543
889.350	0.0162708
889.428	0.0161500
889.506	0.0162099
889.584	0.0162273
889.663	0.0162764
889.741	0.0162321
889.819	0.0162653
889.897	0.0162261
889.975	0.0161728
890.053	0.0162004
890.131	0.0160674
890.209	0.0159205
890.288	0.0161442
890.366	0.0162112
890.444	0.0161266
890.522	0.0160964
890.600	0.0160847
890.678	0.0160742
890.756	0.0161052
890.834	0.0163365
890.913	0.0163249
890.991	0.0160619
891.069	0.0160806
891.147	0.0159281
891.225	0.0160236
891.303	0.0161237
891.381	0.0161987
891.459	0.0160229
891.538	0.0158887
891.616	0.0162045
891.694	0.0162083
891.772	0.0159669
891.850	0.0161414
891.928	0.0160043
892.006	0.0159316
892.084	0.0161401
892.163	0.0162334
892.241	0.0160574
892.319	0.0162132
892.397	0.0161191
892.475	0.0162358
892.553	0.0160897
892.631	0.0159824
892.709	0.0160618
892.788	0.0160398
892.866	0.0161108
892.944	0.0160636
893.022	0.0161271
893.100	0.0160152
893.178	0.0158948
893.256	0.0159894
893.334	0.0160551
893.413	0.0160755
893.491	0.0160484
893.569	0.0160542
893.647	0.0161076
893.725	0.0160273
893.803	0.0159045
893.881	0.0158485
893.959	0.0159032
894.038	0.0158266
894.116	0.0159602
894.194	0.0159167
894.272	0.0156605
894.350	0.0156757
894.428	0.0156249
894.506	0.0156051
894.584	0.0157161
894.663	0.0158247
894.741	0.0157396
894.819	0.0157166
894.897	0.0159176
894.975	0.0159792
895.053	0.0159501
895.131	0.0161264
895.209	0.0163804
895.288	0.0162862
895.366	0.0162659
895.444	0.0163225
895.522	0.0165136
895.600	0.0163545
895.678	0.0164030
895.756	0.0165401
895.834	0.0165564
895.913	0.0163816
895.991	0.0163016
896.069	0.0164346
896.147	0.0162918
896.225	0.0163275
896.303	0.0164045
896.381	0.0161880
896.459	0.0161131
896.538	0.0160840
896.616	0.0162616
896.694	0.0161187
896.772	0.0159029
896.850	0.0160119
896.928	0.0158817
897.006	0.0158222
897.084	0.0157578
897.163	0.0158110
897.241	0.0158112
897.319	0.0156998
897.397	0.0155354
897.475	0.0157276
897.553	0.0158276
897.631	0.0156636
897.709	0.0155518
897.788	0.0158881
897.866	0.0156591
897.944	0.0157941
898.022	0.0157532
898.100	0.0159134
898.178	0.0159441
898.256	0.0159844
898.334	0.0161512
898.413	0.0161806
898.491	0.0161872
898.569	0.0162424
898.647	0.0163458
898.725	0.0163725
898.803	0.0163302
898.881	0.0162108
898.959	0.0163092
899.038	0.0163012
899.116	0.0161974
899.194	0.0162537
899.272	0.0161899
899.350	0.0159483
899.428	0.0158428
899.506	0.0158395
899.584	0.0157225
899.663	0.0157018
899.741	0.0155944
899.819	0.0156308
899.897	0.0155589
899.975	0.0157217
900.053	0.0156602
900.131	0.0155927
900.209	0.0156790
900.288	0.0157800
900.366	0.0159087
900.444	0.0157697
900.522	0.0157799
900.600	0.0159561
900.678	0.0160816
900.756	0.0160703
900.834	0.0161728
900.913	0.0160707
900.991	0.0160261
901.069	0.0161835
901.147	0.0161744
901.225	0.0162401
901.303	0.0162579
901.381	0.0163107
901.459	0.0163148
901.538	0.0163383
901.616	0.0163876
901.694	0.0163216
901.772	0.0163049
901.850	0.0163701
901.928	0.0162607
902.006	0.0163385
902.084	0.0162392
902.163	0.0160692
902.241	0.0161738
902.319	0.0161009
902.397	0.0161217
902.475	0.0160036
902.553	0.0158778
902.631	0.0161080
902.709	0.0160152
902.788	0.0157566
902.866	0.0157516
902.944	0.0158205
903.022	0.0159057
903.100	0.0158280
903.178	0.0157034
903.256	0.0157773
903.334	0.0158166
903.413	0.0157758
903.491	0.0159183
903.569	0.0159499
903.647	0.0159222
903.725	0.0158588
903.803	0.0158606
903.881	0.0158817
903.959	0.0160267
904.038	0.0159834
904.116	0.0159535
904.194	0.0160685
904.272	0.0161594
904.350	0.0161340
904.428	0.0162702
904.506	0.0161623
904.584	0.0160841
904.663	0.0161875
904.741	0.0161941
904.819	0.0162772
904.897	0.0161723
904.975	0.0161848
905.053	0.0161705
905.131	0.0161107
905.209	0.0160501
905.288	0.0162249
905.366	0.0161887
905.444	0.0160467
905.522	0.0162448
905.600	0.0162311
905.678	0.0160714
905.756	0.0160332
905.834	0.0161291
905.913	0.0160165
905.991	0.0159545
906.069	0.0160968
906.147	0.0159396
906.225	0.0160374
906.303	0.0160422
906.381	0.0159869
906.459	0.0159869
906.538	0.0158547
906.616	0.0158541
906.694	0.0158952
906.772	0.0156902
906.850	0.0156996
906.928	0.0159261
907.006	0.0158916
907.084	0.0158336
907.163	0.0159587
907.241	0.0157917
907.319	0.0159288
907.397	0.0160479
907.475	0.0160848
907.553	0.0161076
907.631	0.0159106
907.709	0.0161402
907.788	0.0161729
907.866	0.0162381
907.944	0.0161514
908.022	0.0162193
908.100	0.0161854
908.178	0.0161304
908.256	0.0161853
908.334	0.0162905
908.413	0.0162486
908.491	0.0161803
908.569	0.0161121
908.647	0.0159775
908.725	0.0161693
908.803	0.0160431
908.881	0.0159591
908.959	0.0159293
909.038	0.0158372
909.116	0.0157626
909.194	0.0158754
909.272	0.0159101
909.350	0.0157933
909.428	0.0158323
909.506	0.0157862
909.584	0.0158128
909.663	0.0158035
909.741	0.0157610
909.819	0.0159077
909.897	0.0159968
909.975	0.0160073
910.053	0.0160174
910.131	0.0159531
910.209	0.0161819
910.288	0.0161552
910.366	0.0161835
910.444	0.0161358
910.522	0.0160664
910.600	0.0161530
910.678	0.0160600
910.756	0.0161160
910.834	0.0161711
910.913	0.0161017
910.991	0.0161668
911.069	0.0162610
911.147	0.0162323
911.225	0.0162449
911.303	0.0161034
911.381	0.0161430
911.459	0.0161089
911.538	0.0161060
911.616	0.0161208
911.694	0.0159875
911.772	0.0160540
911.850	0.0160512
911.928	0.0159897
912.006	0.0160390
912.084	0.0160037
912.163	0.0160141
912.241	0.0159122
912.319	0.0159047
912.397	0.0159169
912.475	0.0158071
912.553	0.0157948
912.631	0.0158054
912.709	0.0158389
912.788	0.0156865
912.866	0.0157680
912.944	0.0155244
913.022	0.0156371
913.100	0.0155354
913.178	0.0156071
913.256	0.0155489
913.334	0.0156860
913.413	0.0156211
913.491	0.0156413
913.569	0.0158088
913.647	0.0158364
913.725	0.0160587
913.803	0.0160197
913.881	0.0159091
913.959	0.0161178
914.038	0.0161599
914.116	0.0162311
914.194	0.0162821
914.272	0.0161655
914.350	0.0162603
914.428	0.0161301
914.506	0.0161773
914.584	0.0161473
914.663	0.0160997
914.741	0.0160033
914.819	0.0160617
914.897	0.0161857
914.975	0.0160746
915.053	0.0160775
915.131	0.0160105
915.209	0.0159395
915.288	0.0160237
915.366	0.0159977
915.444	0.0160575
915.522	0.0159798
915.600	0.0159138
915.678	0.0159557
915.756	0.0158144
915.834	0.0159377
915.913	0.0158669
915.991	0.0157055
916.069	0.0157509
916.147	0.0157867
916.225	0.0159035
916.303	0.0158469
916.381	0.0158019
916.459	0.0158952
916.538	0.0161019
916.616	0.0159633
916.694	0.0160926
916.772	0.0161401
916.850	0.0161125
916.928	0.0162122
917.006	0.0161619
917.084	0.0162347
917.163	0.0161533
917.241	0.0161171
917.319	0.0162024
917.397	0.0161201
917.475	0.0161799
917.553	0.0162171
917.631	0.0160348
917.709	0.0160099
917.788	0.0159698
917.866	0.0159642
917.944	0.0161110
918.022	0.0160516
918.100	0.0159096
918.178	0.0158957
918.256	0.0157449
918.334	0.0158752
918.413	0.0158529
918.491	0.0156936
918.569	0.0156915
918.647	0.0157290
918.725	0.0157719
918.803	0.0156527
918.881	0.0156999
918.959	0.0158556
919.038	0.0157651
919.116	0.0159739
919.194	0.0159165
919.272	0.0158689
919.350	0.0160235
919.428	0.0159704
919.506	0.0161309
919.584	0.0162672
919.663	0.0162754
919.741	0.0162670
919.819	0.0162150
919.897	0.0162496
