05/20/2022	21:04:23	Ver.	4.1	UNKNOWN
Optical Delay	599.975067	Delta X		0.078125	Sweeps	1	Scan Rate	0/0
Coordinates	Axis 1	NaN	Axis 2	NaN	Axis 3	NaN	Axis 4	NaN	Axis 5	NaN	Axis 6	0.000000
TX Power	0.000000	RX Power	0.000000

599.975	0.0161038
600.053	0.0162824
600.131	0.0161897
600.209	0.0162682
600.288	0.0162313
600.366	0.0161922
600.444	0.0162889
600.522	0.0162586
600.600	0.0162362
600.678	0.0163020
600.756	0.0162306
600.834	0.0161377
600.913	0.0163367
600.991	0.0161993
601.069	0.0161798
601.147	0.0162727
601.225	0.0163766
601.303	0.0162976
601.381	0.0162379
601.459	0.0163101
601.538	0.0162341
601.616	0.0162742
601.694	0.0163395
601.772	0.0161567
601.850	0.0162515
601.928	0.0162935
602.006	0.0163080
602.084	0.0162909
602.163	0.0164256
602.241	0.0165323
602.319	0.0162310
602.397	0.0161276
602.475	0.0163078
602.553	0.0163234
602.631	0.0162529
602.709	0.0162766
602.788	0.0165135
602.866	0.0162589
602.944	0.0163506
603.022	0.0164104
603.100	0.0163078
603.178	0.0162460
603.256	0.0163250
603.334	0.0163007
603.413	0.0163837
603.491	0.0164246
603.569	0.0163696
603.647	0.0163201
603.725	0.0163341
603.803	0.0161787
603.881	0.0163963
603.959	0.0162646
604.038	0.0163564
604.116	0.0163534
604.194	0.0162215
604.272	0.0162463
604.350	0.0163488
604.428	0.0163555
604.506	0.0162457
604.584	0.0162542
604.663	0.0163118
604.741	0.0163094
604.819	0.0162617
604.897	0.0162667
604.975	0.0163535
605.053	0.0161433
605.131	0.0162230
605.209	0.0161433
605.288	0.0162864
605.366	0.0162219
605.444	0.0163063
605.522	0.0161558
605.600	0.0162570
605.678	0.0162492
605.756	0.0162959
605.834	0.0162035
605.913	0.0162415
605.991	0.0162857
606.069	0.0162111
606.147	0.0161476
606.225	0.0162604
606.303	0.0162425
606.381	0.0164018
606.459	0.0162844
606.538	0.0161782
606.616	0.0162722
606.694	0.0162608
606.772	0.0162617
606.850	0.0163107
606.928	0.0162064
607.006	0.0161427
607.084	0.0162997
607.163	0.0163032
607.241	0.0162505
607.319	0.0161656
607.397	0.0161990
607.475	0.0162267
607.553	0.0163432
607.631	0.0163364
607.709	0.0163165
607.788	0.0163047
607.866	0.0162560
607.944	0.0161890
608.022	0.0163345
608.100	0.0163599
608.178	0.0162975
608.256	0.0163354
608.334	0.0163087
608.413	0.0162143
608.491	0.0162840
608.569	0.0163884
608.647	0.0162501
608.725	0.0162867
608.803	0.0161331
608.881	0.0162180
608.959	0.0162477
609.038	0.0162794
609.116	0.0162817
609.194	0.0161186
609.272	0.0162154
609.350	0.0162162
609.428	0.0162926
609.506	0.0163007
609.584	0.0163547
609.663	0.0162566
609.741	0.0162778
609.819	0.0162360
609.897	0.0162552
609.975	0.0162669
610.053	0.0163299
610.131	0.0162788
610.209	0.0162151
610.288	0.0163449
610.366	0.0162279
610.444	0.0161256
610.522	0.0161710
610.600	0.0162292
610.678	0.0161517
610.756	0.0161219
610.834	0.0162906
610.913	0.0163380
610.991	0.0162683
611.069	0.0161848
611.147	0.0161211
611.225	0.0162527
611.303	0.0161347
611.381	0.0161526
611.459	0.0162650
611.538	0.0163125
611.616	0.0160096
611.694	0.0160863
611.772	0.0161774
611.850	0.0161438
611.928	0.0161675
612.006	0.0161527
612.084	0.0161844
612.163	0.0161752
612.241	0.0163170
612.319	0.0163026
612.397	0.0162442
612.475	0.0162203
612.553	0.0161779
612.631	0.0161543
612.709	0.0162099
612.788	0.0161929
612.866	0.0161500
612.944	0.0162400
613.022	0.0161253
613.100	0.0161946
613.178	0.0162234
613.256	0.0162455
613.334	0.0161475
613.413	0.0162601
613.491	0.0163228
613.569	0.0162062
613.647	0.0160619
613.725	0.0162440
613.803	0.0160363
613.881	0.0161492
613.959	0.0160558
614.038	0.0161364
614.116	0.0160843
614.194	0.0160509
614.272	0.0159468
614.350	0.0162486
614.428	0.0160951
614.506	0.0161146
614.584	0.0159933
614.663	0.0162637
614.741	0.0162305
614.819	0.0160929
614.897	0.0161562
614.975	0.0161092
615.053	0.0161620
615.131	0.0160998
615.209	0.0161158
615.288	0.0161737
615.366	0.0161552
615.444	0.0161209
615.522	0.0161909
615.600	0.0162670
615.678	0.0160919
615.756	0.0160230
615.834	0.0161609
615.913	0.0161883
615.991	0.0160833
616.069	0.0161130
616.147	0.0161005
616.225	0.0159985
616.303	0.0160707
616.381	0.0160294
616.459	0.0159387
616.538	0.0160833
616.616	0.0161089
616.694	0.0160495
616.772	0.0160614
616.850	0.0160220
616.928	0.0161041
617.006	0.0161094
617.084	0.0160491
617.163	0.0161139
617.241	0.0161617
617.319	0.0160641
617.397	0.0159581
617.475	0.0162233
617.553	0.0161462
617.631	0.0159522
617.709	0.0159840
617.788	0.0160468
617.866	0.0161369
617.944	0.0161680
618.022	0.0159772
618.100	0.0159245
618.178	0.0160669
618.256	0.0161202
618.334	0.0161935
618.413	0.0160349
618.491	0.0159778
618.569	0.0159314
618.647	0.0161005
618.725	0.0159749
618.803	0.0160143
618.881	0.0161320
618.959	0.0161073
619.038	0.0158665
619.116	0.0159015
619.194	0.0162645
619.272	0.0161562
619.350	0.0159556
619.428	0.0159805
619.506	0.0160737
619.584	0.0161113
619.663	0.0161322
619.741	0.0160191
619.819	0.0160809
619.897	0.0161130
619.975	0.0160446
620.053	0.0161480
620.131	0.0160795
620.209	0.0161285
620.288	0.0162096
620.366	0.0161105
620.444	0.0161439
620.522	0.0162330
620.600	0.0160442
620.678	0.0161012
620.756	0.0161096
620.834	0.0162025
620.913	0.0161404
620.991	0.0161076
621.069	0.0161607
621.147	0.0161460
621.225	0.0162099
621.303	0.0159165
621.381	0.0160515
621.459	0.0161401
621.538	0.0161414
621.616	0.0161652
621.694	0.0161672
621.772	0.0160670
621.850	0.0160677
621.928	0.0161270
622.006	0.0161781
622.084	0.0161114
622.163	0.0161420
622.241	0.0160680
622.319	0.0161362
622.397	0.0161401
622.475	0.0161373
622.553	0.0162110
622.631	0.0162389
622.709	0.0161109
622.788	0.0161510
622.866	0.0161678
622.944	0.0162811
623.022	0.0163162
623.100	0.0161837
623.178	0.0162384
623.256	0.0163457
623.334	0.0161005
623.413	0.0161435
623.491	0.0160722
623.569	0.0163006
623.647	0.0162142
623.725	0.0160938
623.803	0.0164201
623.881	0.0162516
623.959	0.0161988
624.038	0.0161046
624.116	0.0162216
624.194	0.0162373
624.272	0.0161931
624.350	0.0161880
624.428	0.0162006
624.506	0.0161951
624.584	0.0163511
624.663	0.0162222
624.741	0.0161756
624.819	0.0161447
624.897	0.0162229
624.975	0.0162045
625.053	0.0161703
625.131	0.0162256
625.209	0.0161713
625.288	0.0162370
625.366	0.0161913
625.444	0.0161826
625.522	0.0161924
625.600	0.0162106
625.678	0.0160851
625.756	0.0162408
625.834	0.0162233
625.913	0.0162174
625.991	0.0161522
626.069	0.0161401
626.147	0.0162569
626.225	0.0161452
626.303	0.0160333
626.381	0.0162624
626.459	0.0161938
626.538	0.0162433
626.616	0.0161592
626.694	0.0161656
626.772	0.0162112
626.850	0.0162178
626.928	0.0162980
627.006	0.0161144
627.084	0.0160885
627.163	0.0163678
627.241	0.0161335
627.319	0.0161375
627.397	0.0163742
627.475	0.0163338
627.553	0.0161777
627.631	0.0162679
627.709	0.0162993
627.788	0.0162019
627.866	0.0162895
627.944	0.0162977
628.022	0.0163428
628.100	0.0164220
628.178	0.0163048
628.256	0.0163190
628.334	0.0163475
628.413	0.0164137
628.491	0.0162556
628.569	0.0161946
628.647	0.0162913
628.725	0.0164326
628.803	0.0163281
628.881	0.0163706
628.959	0.0164004
629.038	0.0161583
629.116	0.0163767
629.194	0.0162090
629.272	0.0163111
629.350	0.0162579
629.428	0.0164153
629.506	0.0162781
629.584	0.0162029
629.663	0.0161396
629.741	0.0162685
629.819	0.0163036
629.897	0.0161674
629.975	0.0161599
630.053	0.0162616
630.131	0.0161174
630.209	0.0161884
630.288	0.0162167
630.366	0.0161383
630.444	0.0163103
630.522	0.0162421
630.600	0.0162112
630.678	0.0161121
630.756	0.0162142
630.834	0.0162550
630.913	0.0162029
630.991	0.0161723
631.069	0.0162129
631.147	0.0162157
631.225	0.0161465
631.303	0.0161951
631.381	0.0162611
631.459	0.0161893
631.538	0.0162285
631.616	0.0161821
631.694	0.0161156
631.772	0.0161719
631.850	0.0162736
631.928	0.0162516
632.006	0.0161356
632.084	0.0162646
632.163	0.0162109
632.241	0.0161639
632.319	0.0161379
632.397	0.0160374
632.475	0.0162751
632.553	0.0162136
632.631	0.0162038
632.709	0.0161961
632.788	0.0161874
632.866	0.0161032
632.944	0.0160911
633.022	0.0161921
633.100	0.0162086
633.178	0.0162593
633.256	0.0161828
633.334	0.0162009
633.413	0.0162814
633.491	0.0161882
633.569	0.0162449
633.647	0.0162154
633.725	0.0161781
633.803	0.0162434
633.881	0.0162259
633.959	0.0162679
634.038	0.0161153
634.116	0.0160574
634.194	0.0161248
634.272	0.0162717
634.350	0.0162196
634.428	0.0161815
634.506	0.0162103
634.584	0.0161275
634.663	0.0163511
634.741	0.0162058
634.819	0.0162369
634.897	0.0161883
634.975	0.0160317
635.053	0.0162469
635.131	0.0161140
635.209	0.0163976
635.288	0.0162154
635.366	0.0161726
635.444	0.0161533
635.522	0.0161983
635.600	0.0162624
635.678	0.0161768
635.756	0.0160284
635.834	0.0162338
635.913	0.0162345
635.991	0.0160548
636.069	0.0161752
636.147	0.0162361
636.225	0.0161925
636.303	0.0160725
636.381	0.0163042
636.459	0.0162941
636.538	0.0162171
636.616	0.0161742
636.694	0.0163142
636.772	0.0160260
636.850	0.0160606
636.928	0.0161585
637.006	0.0161561
637.084	0.0162618
637.163	0.0161269
637.241	0.0161173
637.319	0.0161516
637.397	0.0161427
637.475	0.0161405
637.553	0.0161129
637.631	0.0161206
637.709	0.0160789
637.788	0.0161211
637.866	0.0161625
637.944	0.0161371
638.022	0.0162035
638.100	0.0161815
638.178	0.0161163
638.256	0.0160210
638.334	0.0161605
638.413	0.0161349
638.491	0.0160214
638.569	0.0161956
638.647	0.0162592
638.725	0.0161909
638.803	0.0160784
638.881	0.0161044
638.959	0.0161978
639.038	0.0161931
639.116	0.0161985
639.194	0.0161805
639.272	0.0161553
639.350	0.0161628
639.428	0.0159674
639.506	0.0161810
639.584	0.0162722
639.663	0.0160097
639.741	0.0160368
639.819	0.0159969
639.897	0.0163251
639.975	0.0162138
640.053	0.0160406
640.131	0.0162357
640.209	0.0161677
640.288	0.0161839
640.366	0.0162619
640.444	0.0161925
640.522	0.0161009
640.600	0.0160619
640.678	0.0162002
640.756	0.0161422
640.834	0.0160589
640.913	0.0162163
640.991	0.0161795
641.069	0.0160680
641.147	0.0161542
641.225	0.0162144
641.303	0.0162421
641.381	0.0162305
641.459	0.0162212
641.538	0.0162490
641.616	0.0162239
641.694	0.0162859
641.772	0.0162247
641.850	0.0161610
641.928	0.0162356
642.006	0.0161626
642.084	0.0162705
642.163	0.0162971
642.241	0.0163699
642.319	0.0162223
642.397	0.0162459
642.475	0.0162029
642.553	0.0162572
642.631	0.0162973
642.709	0.0162659
642.788	0.0163131
642.866	0.0162127
642.944	0.0161709
643.022	0.0161999
643.100	0.0163525
643.178	0.0163429
643.256	0.0164333
643.334	0.0164246
643.413	0.0163314
643.491	0.0162072
643.569	0.0161276
643.647	0.0162247
643.725	0.0162634
643.803	0.0161823
643.881	0.0161795
643.959	0.0162499
644.038	0.0163670
644.116	0.0162434
644.194	0.0162640
644.272	0.0162973
644.350	0.0163504
644.428	0.0162717
644.506	0.0162186
644.584	0.0162607
644.663	0.0163781
644.741	0.0163446
644.819	0.0161906
644.897	0.0161015
644.975	0.0162939
645.053	0.0162782
645.131	0.0162080
645.209	0.0162543
645.288	0.0163232
645.366	0.0161352
645.444	0.0162314
645.522	0.0162551
645.600	0.0161665
645.678	0.0161711
645.756	0.0161000
645.834	0.0161100
645.913	0.0160204
645.991	0.0160221
646.069	0.0161541
646.147	0.0162823
646.225	0.0161431
646.303	0.0160903
646.381	0.0160067
646.459	0.0161111
646.538	0.0162743
646.616	0.0162105
646.694	0.0163366
646.772	0.0162459
646.850	0.0163464
646.928	0.0163728
647.006	0.0163598
647.084	0.0163379
647.163	0.0164314
647.241	0.0163303
647.319	0.0164521
647.397	0.0162972
647.475	0.0162474
647.553	0.0163367
647.631	0.0162991
647.709	0.0163835
647.788	0.0162048
647.866	0.0162075
647.944	0.0162850
648.022	0.0163222
648.100	0.0161259
648.178	0.0161430
648.256	0.0161774
648.334	0.0161448
648.413	0.0161349
648.491	0.0160730
648.569	0.0159063
648.647	0.0159214
648.725	0.0160104
648.803	0.0160712
648.881	0.0160643
648.959	0.0160055
649.038	0.0158807
649.116	0.0159592
649.194	0.0159985
649.272	0.0162197
649.350	0.0162457
649.428	0.0162984
649.506	0.0162241
649.584	0.0162961
649.663	0.0163024
649.741	0.0163387
649.819	0.0164565
649.897	0.0164959
649.975	0.0164497
650.053	0.0164619
650.131	0.0163113
650.209	0.0163327
650.288	0.0163274
650.366	0.0162477
650.444	0.0162787
650.522	0.0164725
650.600	0.0162830
650.678	0.0161616
650.756	0.0161745
650.834	0.0163264
650.913	0.0162087
650.991	0.0162129
651.069	0.0158540
651.147	0.0161104
651.225	0.0161903
651.303	0.0160540
651.381	0.0160358
651.459	0.0160040
651.538	0.0160519
651.616	0.0160564
651.694	0.0160362
651.772	0.0159756
651.850	0.0162015
651.928	0.0162102
652.006	0.0160798
652.084	0.0161341
652.163	0.0161759
652.241	0.0159766
652.319	0.0160572
652.397	0.0160298
652.475	0.0159621
652.553	0.0159760
652.631	0.0160887
652.709	0.0160936
652.788	0.0159145
652.866	0.0160262
652.944	0.0160148
653.022	0.0161230
653.100	0.0160941
653.178	0.0160143
653.256	0.0160901
653.334	0.0161203
653.413	0.0161530
653.491	0.0160939
653.569	0.0162167
653.647	0.0161520
653.725	0.0162061
653.803	0.0162699
653.881	0.0163306
653.959	0.0162101
654.038	0.0163705
654.116	0.0163039
654.194	0.0164769
654.272	0.0164478
654.350	0.0163348
654.428	0.0163868
654.506	0.0164496
654.584	0.0163343
654.663	0.0163081
654.741	0.0163335
654.819	0.0165343
654.897	0.0165226
654.975	0.0164512
655.053	0.0162105
655.131	0.0163544
655.209	0.0163171
655.288	0.0162344
655.366	0.0162005
655.444	0.0162198
655.522	0.0160777
655.600	0.0161202
655.678	0.0160877
655.756	0.0159455
655.834	0.0160759
655.913	0.0160491
655.991	0.0158588
656.069	0.0160089
656.147	0.0160183
656.225	0.0160555
656.303	0.0158891
656.381	0.0159354
656.459	0.0160632
656.538	0.0158471
656.616	0.0159260
656.694	0.0159885
656.772	0.0159721
656.850	0.0162323
656.928	0.0160777
657.006	0.0159689
657.084	0.0160460
657.163	0.0162122
657.241	0.0161533
657.319	0.0163828
657.397	0.0164241
657.475	0.0163638
657.553	0.0164594
657.631	0.0164074
657.709	0.0164331
657.788	0.0165323
657.866	0.0165694
657.944	0.0166917
658.022	0.0167445
658.100	0.0166094
658.178	0.0166385
658.256	0.0165073
658.334	0.0164439
658.413	0.0164230
658.491	0.0164494
658.569	0.0163348
658.647	0.0163364
658.725	0.0163461
658.803	0.0163775
658.881	0.0161729
658.959	0.0161494
659.038	0.0160538
659.116	0.0162199
659.194	0.0159287
659.272	0.0159264
659.350	0.0158533
659.428	0.0159216
659.506	0.0159767
659.584	0.0158637
659.663	0.0158323
659.741	0.0159268
659.819	0.0159924
659.897	0.0159862
659.975	0.0160344
660.053	0.0160602
660.131	0.0159861
660.209	0.0160440
660.288	0.0160405
660.366	0.0160987
660.444	0.0161440
660.522	0.0161377
660.600	0.0161499
660.678	0.0161719
660.756	0.0162605
660.834	0.0162705
660.913	0.0164484
660.991	0.0163551
661.069	0.0163067
661.147	0.0163371
661.225	0.0163662
661.303	0.0163410
661.381	0.0164652
661.459	0.0163631
661.538	0.0163370
661.616	0.0163058
661.694	0.0164725
661.772	0.0165338
661.850	0.0164745
661.928	0.0164526
662.006	0.0165755
662.084	0.0163885
662.163	0.0164799
662.241	0.0165040
662.319	0.0165536
662.397	0.0165701
662.475	0.0164279
662.553	0.0165259
662.631	0.0164016
662.709	0.0162769
662.788	0.0161749
662.866	0.0161144
662.944	0.0162135
663.022	0.0160683
663.100	0.0160471
663.178	0.0159415
663.256	0.0159360
663.334	0.0158843
663.413	0.0158373
663.491	0.0157458
663.569	0.0157712
663.647	0.0157698
663.725	0.0157384
663.803	0.0157973
663.881	0.0159144
663.959	0.0157639
664.038	0.0157790
664.116	0.0160344
664.194	0.0160066
664.272	0.0160741
664.350	0.0161123
664.428	0.0160880
664.506	0.0162144
664.584	0.0162083
664.663	0.0163367
664.741	0.0162537
664.819	0.0164487
664.897	0.0165956
664.975	0.0166469
665.053	0.0165196
665.131	0.0166830
665.209	0.0165860
665.288	0.0164471
665.366	0.0165824
665.444	0.0164429
665.522	0.0165330
665.600	0.0165461
665.678	0.0163978
665.756	0.0165195
665.834	0.0164195
665.913	0.0163628
665.991	0.0163509
666.069	0.0162199
666.147	0.0160796
666.225	0.0162227
666.303	0.0161897
666.381	0.0161737
666.459	0.0160532
666.538	0.0161348
666.616	0.0161910
666.694	0.0160758
666.772	0.0161221
666.850	0.0160771
666.928	0.0161678
667.006	0.0160965
667.084	0.0161257
667.163	0.0160832
667.241	0.0160538
667.319	0.0160744
667.397	0.0161257
667.475	0.0161946
667.553	0.0161415
667.631	0.0161645
667.709	0.0162711
667.788	0.0160543
667.866	0.0159681
667.944	0.0161826
668.022	0.0160926
668.100	0.0161782
668.178	0.0162196
668.256	0.0161662
668.334	0.0162305
668.413	0.0160841
668.491	0.0162952
668.569	0.0163723
668.647	0.0162801
668.725	0.0162697
668.803	0.0164565
668.881	0.0163325
668.959	0.0165024
669.038	0.0163041
669.116	0.0163568
669.194	0.0164096
669.272	0.0164114
669.350	0.0163622
669.428	0.0164516
669.506	0.0164236
669.584	0.0164677
669.663	0.0164339
669.741	0.0163168
669.819	0.0163558
669.897	0.0164571
669.975	0.0163542
670.053	0.0162718
670.131	0.0163470
670.209	0.0162292
670.288	0.0161111
670.366	0.0160201
670.444	0.0160986
670.522	0.0159843
670.600	0.0162138
670.678	0.0160306
670.756	0.0161047
670.834	0.0161019
670.913	0.0160962
670.991	0.0159692
671.069	0.0159686
671.147	0.0160194
671.225	0.0160419
671.303	0.0160529
671.381	0.0160472
671.459	0.0160543
671.538	0.0162807
671.616	0.0161621
671.694	0.0162170
671.772	0.0161874
671.850	0.0161028
671.928	0.0162669
672.006	0.0159991
672.084	0.0159456
672.163	0.0160976
672.241	0.0161112
672.319	0.0160030
672.397	0.0158276
672.475	0.0160646
672.553	0.0161122
672.631	0.0161136
672.709	0.0159940
672.788	0.0160286
672.866	0.0159337
672.944	0.0160709
673.022	0.0161383
673.100	0.0159601
673.178	0.0160632
673.256	0.0159866
673.334	0.0158160
673.413	0.0159161
673.491	0.0160854
673.569	0.0160000
673.647	0.0160245
673.725	0.0159615
673.803	0.0160288
673.881	0.0159886
673.959	0.0160394
674.038	0.0159898
674.116	0.0161808
674.194	0.0161160
674.272	0.0161669
674.350	0.0161498
674.428	0.0162720
674.506	0.0162469
674.584	0.0161919
674.663	0.0161669
674.741	0.0163333
674.819	0.0162531
674.897	0.0162028
674.975	0.0161663
675.053	0.0163171
675.131	0.0162005
675.209	0.0161513
675.288	0.0162477
675.366	0.0161208
675.444	0.0161237
675.522	0.0162139
675.600	0.0160220
675.678	0.0161704
675.756	0.0161388
675.834	0.0161228
675.913	0.0161630
675.991	0.0160226
676.069	0.0160771
676.147	0.0160535
676.225	0.0162936
676.303	0.0161804
676.381	0.0162325
676.459	0.0162694
676.538	0.0161971
676.616	0.0162110
676.694	0.0161970
676.772	0.0163072
676.850	0.0163168
676.928	0.0161232
677.006	0.0162862
677.084	0.0162632
677.163	0.0161049
677.241	0.0162707
677.319	0.0161169
677.397	0.0162176
677.475	0.0160639
677.553	0.0160288
677.631	0.0161034
677.709	0.0159907
677.788	0.0159818
677.866	0.0161388
677.944	0.0161580
678.022	0.0161761
678.100	0.0161895
678.178	0.0163104
678.256	0.0163363
678.334	0.0162488
678.413	0.0163428
678.491	0.0165520
678.569	0.0165024
678.647	0.0165581
678.725	0.0166519
678.803	0.0164725
678.881	0.0164344
678.959	0.0163678
679.038	0.0162634
679.116	0.0160882
679.194	0.0160710
679.272	0.0161947
679.350	0.0159476
679.428	0.0157690
679.506	0.0158097
679.584	0.0157387
679.663	0.0157274
679.741	0.0156348
679.819	0.0157294
679.897	0.0159383
679.975	0.0158829
680.053	0.0161481
680.131	0.0160951
680.209	0.0163998
680.288	0.0166182
680.366	0.0167155
680.444	0.0167733
680.522	0.0170882
680.600	0.0171188
680.678	0.0171647
680.756	0.0172641
680.834	0.0171859
680.913	0.0169785
680.991	0.0168825
681.069	0.0167643
681.147	0.0166370
681.225	0.0164175
681.303	0.0161527
681.381	0.0157696
681.459	0.0155165
681.538	0.0152442
681.616	0.0151765
681.694	0.0150435
681.772	0.0150409
681.850	0.0149387
681.928	0.0149998
682.006	0.0149186
682.084	0.0150978
682.163	0.0151522
682.241	0.0152750
682.319	0.0156396
682.397	0.0157820
682.475	0.0160936
682.553	0.0162603
682.631	0.0165872
682.709	0.0167505
682.788	0.0168282
682.866	0.0169825
682.944	0.0171394
683.022	0.0172191
683.100	0.0172469
683.178	0.0169824
683.256	0.0170267
683.334	0.0170842
683.413	0.0170184
683.491	0.0170096
683.569	0.0168398
683.647	0.0168555
683.725	0.0167545
683.803	0.0166383
683.881	0.0163786
683.959	0.0164389
684.038	0.0163166
684.116	0.0160858
684.194	0.0161829
684.272	0.0160796
684.350	0.0159000
684.428	0.0158760
684.506	0.0155710
684.584	0.0155348
684.663	0.0154891
684.741	0.0153535
684.819	0.0156199
684.897	0.0155253
684.975	0.0155492
685.053	0.0156760
685.131	0.0157941
685.209	0.0158911
685.288	0.0160738
685.366	0.0163354
685.444	0.0164214
685.522	0.0164965
685.600	0.0165819
685.678	0.0166547
685.756	0.0165733
685.834	0.0165656
685.913	0.0165529
685.991	0.0165761
686.069	0.0162902
686.147	0.0160983
686.225	0.0161141
686.303	0.0159490
686.381	0.0156692
686.459	0.0154947
686.538	0.0155902
686.616	0.0155487
686.694	0.0156390
686.772	0.0155627
686.850	0.0156416
686.928	0.0155785
687.006	0.0158434
687.084	0.0157597
687.163	0.0158996
687.241	0.0160684
687.319	0.0163242
687.397	0.0162524
687.475	0.0163017
687.553	0.0164706
687.631	0.0165463
687.709	0.0166019
687.788	0.0166138
687.866	0.0166737
687.944	0.0168035
688.022	0.0167566
688.100	0.0169704
688.178	0.0170661
688.256	0.0171799
688.334	0.0172829
688.413	0.0173518
688.491	0.0174100
688.569	0.0176603
688.647	0.0176254
688.725	0.0176005
688.803	0.0175108
688.881	0.0173650
688.959	0.0171448
689.038	0.0169712
689.116	0.0167101
689.194	0.0164538
689.272	0.0159676
689.350	0.0156436
689.428	0.0152900
689.506	0.0148539
689.584	0.0145304
689.663	0.0142912
689.741	0.0139709
689.819	0.0136627
689.897	0.0137145
689.975	0.0135115
690.053	0.0134864
690.131	0.0134908
690.209	0.0134579
690.288	0.0134189
690.366	0.0135827
690.444	0.0137577
690.522	0.0138674
690.600	0.0138993
690.678	0.0142682
690.756	0.0145921
690.834	0.0149809
690.913	0.0153888
690.991	0.0157581
691.069	0.0164524
691.147	0.0169390
691.225	0.0174150
691.303	0.0181109
691.381	0.0185959
691.459	0.0191962
691.538	0.0195815
691.616	0.0198537
691.694	0.0200669
691.772	0.0204296
691.850	0.0202805
691.928	0.0201128
692.006	0.0200600
692.084	0.0196956
692.163	0.0192661
692.241	0.0188691
692.319	0.0184082
692.397	0.0180098
692.475	0.0174883
692.553	0.0169043
692.631	0.0166167
692.709	0.0158448
692.788	0.0156406
692.866	0.0152315
692.944	0.0147250
693.022	0.0142115
693.100	0.0140363
693.178	0.0136021
693.256	0.0133630
693.334	0.0131255
693.413	0.0129774
693.491	0.0127348
693.569	0.0124099
693.647	0.0124824
693.725	0.0126649
693.803	0.0127948
693.881	0.0128720
693.959	0.0131654
694.038	0.0135240
694.116	0.0138431
694.194	0.0142232
694.272	0.0147156
694.350	0.0152806
694.428	0.0155541
694.506	0.0159446
694.584	0.0162076
694.663	0.0165180
694.741	0.0169698
694.819	0.0169421
694.897	0.0170716
694.975	0.0171661
695.053	0.0172562
695.131	0.0173024
695.209	0.0174223
695.288	0.0175968
695.366	0.0175733
695.444	0.0175945
695.522	0.0178656
695.600	0.0181268
695.678	0.0182286
695.756	0.0181291
695.834	0.0183586
695.913	0.0183422
695.991	0.0181107
696.069	0.0180960
696.147	0.0178144
696.225	0.0175304
696.303	0.0173511
696.381	0.0170312
696.459	0.0168745
696.538	0.0166259
696.616	0.0163274
696.694	0.0162241
696.772	0.0160258
696.850	0.0159037
696.928	0.0159445
697.006	0.0158955
697.084	0.0158234
697.163	0.0157254
697.241	0.0157045
697.319	0.0156439
697.397	0.0153740
697.475	0.0152587
697.553	0.0148703
697.631	0.0146399
697.709	0.0144633
697.788	0.0140887
697.866	0.0137707
697.944	0.0136918
698.022	0.0133926
698.100	0.0132550
698.178	0.0131495
698.256	0.0132339
698.334	0.0134592
698.413	0.0135535
698.491	0.0139198
698.569	0.0142899
698.647	0.0147597
698.725	0.0150603
698.803	0.0154458
698.881	0.0157634
698.959	0.0162986
699.038	0.0166649
699.116	0.0170925
699.194	0.0174534
699.272	0.0179268
699.350	0.0183731
699.428	0.0187357
699.506	0.0191889
699.584	0.0191895
699.663	0.0193132
699.741	0.0195469
699.819	0.0195818
699.897	0.0195138
699.975	0.0193946
700.053	0.0191168
700.131	0.0188608
700.209	0.0184945
700.288	0.0179225
700.366	0.0176201
700.444	0.0173201
700.522	0.0167574
700.600	0.0161272
700.678	0.0156200
700.756	0.0153967
700.834	0.0149280
700.913	0.0145995
700.991	0.0143020
701.069	0.0140453
701.147	0.0138509
701.225	0.0138229
701.303	0.0137895
701.381	0.0137854
701.459	0.0135696
701.538	0.0138456
701.616	0.0137025
701.694	0.0139853
701.772	0.0142426
701.850	0.0144598
701.928	0.0147736
702.006	0.0150533
702.084	0.0152270
702.163	0.0155143
702.241	0.0157697
702.319	0.0158586
702.397	0.0159435
702.475	0.0160413
702.553	0.0161550
702.631	0.0161523
702.709	0.0161855
702.788	0.0162254
702.866	0.0162601
702.944	0.0164697
703.022	0.0165717
703.100	0.0167291
703.178	0.0169466
703.256	0.0171051
703.334	0.0173130
703.413	0.0176381
703.491	0.0177229
703.569	0.0179190
703.647	0.0179327
703.725	0.0180089
703.803	0.0180354
703.881	0.0179082
703.959	0.0176575
704.038	0.0176787
704.116	0.0175433
704.194	0.0174367
704.272	0.0172992
704.350	0.0172682
704.428	0.0170947
704.506	0.0168163
704.584	0.0168424
704.663	0.0166944
704.741	0.0166489
704.819	0.0165279
704.897	0.0165547
704.975	0.0164709
705.053	0.0163160
705.131	0.0163541
705.209	0.0162728
705.288	0.0162863
705.366	0.0160432
705.444	0.0160097
705.522	0.0157095
705.600	0.0156193
705.678	0.0155803
705.756	0.0151581
705.834	0.0149151
705.913	0.0147142
705.991	0.0144901
706.069	0.0142121
706.147	0.0140844
706.225	0.0138250
706.303	0.0136926
706.381	0.0136591
706.459	0.0135011
706.538	0.0136472
706.616	0.0137228
706.694	0.0140172
706.772	0.0143094
706.850	0.0145315
706.928	0.0149313
707.006	0.0153596
707.084	0.0157352
707.163	0.0160239
707.241	0.0164729
707.319	0.0166061
707.397	0.0167271
707.475	0.0168109
707.553	0.0170235
707.631	0.0171466
707.709	0.0171374
707.788	0.0171218
707.866	0.0171854
707.944	0.0172836
708.022	0.0174403
708.100	0.0176389
708.178	0.0176685
708.256	0.0178285
708.334	0.0179623
708.413	0.0182253
708.491	0.0182653
708.569	0.0182675
708.647	0.0183818
708.725	0.0182866
708.803	0.0181857
708.881	0.0180495
708.959	0.0178480
709.038	0.0176530
709.116	0.0174100
709.194	0.0170924
709.272	0.0170032
709.350	0.0167769
709.428	0.0165623
709.506	0.0162361
709.584	0.0160460
709.663	0.0160870
709.741	0.0159610
709.819	0.0159641
709.897	0.0159172
709.975	0.0158189
710.053	0.0159305
710.131	0.0158362
710.209	0.0158672
710.288	0.0159628
710.366	0.0159632
710.444	0.0158858
710.522	0.0160678
710.600	0.0160655
710.678	0.0160326
710.756	0.0160571
710.834	0.0161439
710.913	0.0160348
710.991	0.0160027
711.069	0.0158707
711.147	0.0158051
711.225	0.0154177
711.303	0.0155131
711.381	0.0152887
711.459	0.0152893
711.538	0.0151093
711.616	0.0153729
711.694	0.0151203
711.772	0.0152429
711.850	0.0152080
711.928	0.0152654
712.006	0.0151364
712.084	0.0151705
712.163	0.0150768
712.241	0.0149699
712.319	0.0148788
712.397	0.0145576
712.475	0.0144971
712.553	0.0144978
712.631	0.0144141
712.709	0.0142949
712.788	0.0143710
712.866	0.0144066
712.944	0.0147271
713.022	0.0149560
713.100	0.0152157
713.178	0.0155714
713.256	0.0158943
713.334	0.0163168
713.413	0.0166772
713.491	0.0169363
713.569	0.0172397
713.647	0.0175127
713.725	0.0176238
713.803	0.0177171
713.881	0.0177180
713.959	0.0179852
714.038	0.0180034
714.116	0.0179691
714.194	0.0178049
714.272	0.0177862
714.350	0.0177346
714.428	0.0179156
714.506	0.0178787
714.584	0.0177796
714.663	0.0177648
714.741	0.0177880
714.819	0.0176898
714.897	0.0176295
714.975	0.0175658
715.053	0.0174700
715.131	0.0175254
715.209	0.0172269
715.288	0.0172633
715.366	0.0169677
715.444	0.0169152
715.522	0.0167077
715.600	0.0166457
715.678	0.0164086
715.756	0.0163391
715.834	0.0161417
715.913	0.0159387
715.991	0.0157655
716.069	0.0158022
716.147	0.0157210
716.225	0.0155992
716.303	0.0155788
716.381	0.0154263
716.459	0.0153975
716.538	0.0153439
716.616	0.0152965
716.694	0.0149824
716.772	0.0149306
716.850	0.0147777
716.928	0.0145068
717.006	0.0142825
717.084	0.0138635
717.163	0.0135963
717.241	0.0133763
717.319	0.0130961
717.397	0.0130300
717.475	0.0127699
717.553	0.0128802
717.631	0.0129754
717.709	0.0132986
717.788	0.0134623
717.866	0.0138426
717.944	0.0144435
718.022	0.0151392
718.100	0.0155952
718.178	0.0160386
718.256	0.0165207
718.334	0.0171503
718.413	0.0174114
718.491	0.0176603
718.569	0.0179591
718.647	0.0180650
718.725	0.0181504
718.803	0.0181453
718.881	0.0178477
718.959	0.0179832
719.038	0.0177977
719.116	0.0176345
719.194	0.0176454
719.272	0.0174075
719.350	0.0171780
719.428	0.0172791
719.506	0.0171574
719.584	0.0170632
719.663	0.0169058
719.741	0.0169129
719.819	0.0168859
719.897	0.0168846
719.975	0.0169716
720.053	0.0169860
720.131	0.0172268
720.209	0.0170650
720.288	0.0171312
720.366	0.0171005
720.444	0.0171617
720.522	0.0170137
720.600	0.0170242
720.678	0.0170367
720.756	0.0169150
720.834	0.0168997
720.913	0.0165308
720.991	0.0166259
721.069	0.0164573
721.147	0.0163020
721.225	0.0162345
721.303	0.0161308
721.381	0.0160548
721.459	0.0159871
721.538	0.0157985
721.616	0.0157048
721.694	0.0157455
721.772	0.0157130
721.850	0.0156411
721.928	0.0156493
722.006	0.0156464
722.084	0.0158031
722.163	0.0157617
722.241	0.0159501
722.319	0.0160227
722.397	0.0160227
722.475	0.0157843
722.553	0.0157912
722.631	0.0158783
722.709	0.0155288
722.788	0.0154079
722.866	0.0153916
722.944	0.0151888
723.022	0.0151613
723.100	0.0150829
723.178	0.0149374
723.256	0.0147134
723.334	0.0147623
723.413	0.0147041
723.491	0.0146796
723.569	0.0148746
723.647	0.0149085
723.725	0.0148264
723.803	0.0148819
723.881	0.0150978
723.959	0.0152540
724.038	0.0153792
724.116	0.0155037
724.194	0.0158329
724.272	0.0162653
724.350	0.0165691
724.428	0.0167906
724.506	0.0171622
724.584	0.0174811
724.663	0.0178365
724.741	0.0181002
724.819	0.0180127
724.897	0.0180294
724.975	0.0179732
725.053	0.0178395
725.131	0.0179385
725.209	0.0176035
725.288	0.0173797
725.366	0.0171155
725.444	0.0168813
725.522	0.0167238
725.600	0.0165758
725.678	0.0164201
725.756	0.0162351
725.834	0.0162377
725.913	0.0161438
725.991	0.0159456
726.069	0.0159939
726.147	0.0158569
726.225	0.0159319
726.303	0.0159981
726.381	0.0159946
726.459	0.0160368
726.538	0.0160220
726.616	0.0162301
726.694	0.0162164
726.772	0.0161850
726.850	0.0165374
726.928	0.0163686
727.006	0.0163979
727.084	0.0165709
727.163	0.0165727
727.241	0.0165079
727.319	0.0165668
727.397	0.0165467
727.475	0.0165143
727.553	0.0164510
727.631	0.0163393
727.709	0.0163515
727.788	0.0163317
727.866	0.0161188
727.944	0.0160835
728.022	0.0158730
728.100	0.0158230
728.178	0.0156281
728.256	0.0153280
728.334	0.0150279
728.413	0.0148705
728.491	0.0148267
728.569	0.0147957
728.647	0.0146082
728.725	0.0144849
728.803	0.0147005
728.881	0.0148710
728.959	0.0151291
729.038	0.0152057
729.116	0.0155125
729.194	0.0156908
729.272	0.0160099
729.350	0.0163162
729.428	0.0165014
729.506	0.0166309
729.584	0.0168282
729.663	0.0170222
729.741	0.0169901
729.819	0.0170892
729.897	0.0169846
729.975	0.0170819
730.053	0.0170356
730.131	0.0169916
730.209	0.0169604
730.288	0.0167984
730.366	0.0166463
730.444	0.0165652
730.522	0.0164489
730.600	0.0161227
730.678	0.0159210
730.756	0.0161008
730.834	0.0158772
730.913	0.0159959
730.991	0.0160254
731.069	0.0161431
731.147	0.0161748
731.225	0.0162256
731.303	0.0161577
731.381	0.0162064
731.459	0.0164120
731.538	0.0164630
731.616	0.0163921
731.694	0.0165566
731.772	0.0164322
731.850	0.0162762
731.928	0.0162272
732.006	0.0161715
732.084	0.0160028
732.163	0.0158826
732.241	0.0157224
732.319	0.0155830
732.397	0.0153566
732.475	0.0155396
732.553	0.0153639
732.631	0.0151322
732.709	0.0151530
732.788	0.0152218
732.866	0.0152766
732.944	0.0152650
733.022	0.0154476
733.100	0.0156034
733.178	0.0156390
733.256	0.0160043
733.334	0.0162256
733.413	0.0163387
733.491	0.0164807
733.569	0.0164963
733.647	0.0165569
733.725	0.0168379
733.803	0.0168594
733.881	0.0169434
733.959	0.0169791
734.038	0.0169264
734.116	0.0169577
734.194	0.0169566
734.272	0.0169801
734.350	0.0169196
734.428	0.0167348
734.506	0.0166821
734.584	0.0164964
734.663	0.0162099
734.741	0.0161258
734.819	0.0158863
734.897	0.0155495
734.975	0.0157653
735.053	0.0155091
735.131	0.0155587
735.209	0.0155354
735.288	0.0156157
735.366	0.0157987
735.444	0.0158024
735.522	0.0157788
735.600	0.0159488
735.678	0.0159416
735.756	0.0160336
735.834	0.0161526
735.913	0.0162393
735.991	0.0162767
736.069	0.0162180
736.147	0.0160579
736.225	0.0162317
736.303	0.0163074
736.381	0.0161296
736.459	0.0161081
736.538	0.0161614
736.616	0.0162334
736.694	0.0163292
736.772	0.0162836
736.850	0.0161453
736.928	0.0162764
737.006	0.0162257
737.084	0.0162782
737.163	0.0161284
737.241	0.0159930
737.319	0.0160065
737.397	0.0160053
737.475	0.0161147
737.553	0.0161169
737.631	0.0161366
737.709	0.0161770
737.788	0.0160970
737.866	0.0161623
737.944	0.0161526
738.022	0.0159316
738.100	0.0159010
738.178	0.0158015
738.256	0.0156191
738.334	0.0155849
738.413	0.0154780
738.491	0.0154346
738.569	0.0153458
738.647	0.0153624
738.725	0.0153453
738.803	0.0153178
738.881	0.0155508
738.959	0.0156075
739.038	0.0156353
739.116	0.0158811
739.194	0.0160153
739.272	0.0162386
739.350	0.0162012
739.428	0.0165145
739.506	0.0166005
739.584	0.0168139
739.663	0.0169211
739.741	0.0169585
739.819	0.0171429
739.897	0.0172697
739.975	0.0173123
740.053	0.0171747
740.131	0.0171563
740.209	0.0170865
740.288	0.0168161
740.366	0.0169907
740.444	0.0167015
740.522	0.0164381
740.600	0.0162734
740.678	0.0162111
740.756	0.0160988
740.834	0.0158500
740.913	0.0157833
740.991	0.0158968
741.069	0.0158202
741.147	0.0159126
741.225	0.0158442
741.303	0.0160997
741.381	0.0161109
741.459	0.0163291
741.538	0.0164280
741.616	0.0162893
741.694	0.0161404
741.772	0.0163402
741.850	0.0163175
741.928	0.0163790
742.006	0.0163162
742.084	0.0162817
742.163	0.0162308
742.241	0.0161565
742.319	0.0163448
742.397	0.0164591
742.475	0.0165706
742.553	0.0165337
742.631	0.0167758
742.709	0.0166168
742.788	0.0166507
742.866	0.0167598
742.944	0.0167768
743.022	0.0167780
743.100	0.0167724
743.178	0.0167843
743.256	0.0167210
743.334	0.0166502
743.413	0.0164551
743.491	0.0161582
743.569	0.0161198
743.647	0.0160469
743.725	0.0159959
743.803	0.0159748
743.881	0.0157259
743.959	0.0156701
744.038	0.0155742
744.116	0.0155495
744.194	0.0155246
744.272	0.0155441
744.350	0.0154517
744.428	0.0153424
744.506	0.0152962
744.584	0.0153323
744.663	0.0152939
744.741	0.0152818
744.819	0.0154165
744.897	0.0154723
744.975	0.0154285
745.053	0.0154894
745.131	0.0155669
745.209	0.0157052
745.288	0.0159152
745.366	0.0160583
745.444	0.0160420
745.522	0.0162762
745.600	0.0162502
745.678	0.0163065
745.756	0.0165327
745.834	0.0164863
745.913	0.0163474
745.991	0.0164098
746.069	0.0163550
746.147	0.0162854
746.225	0.0163299
746.303	0.0160149
746.381	0.0161969
746.459	0.0163126
746.538	0.0160551
746.616	0.0159232
746.694	0.0160075
746.772	0.0161705
746.850	0.0164102
746.928	0.0164866
747.006	0.0165291
747.084	0.0167590
747.163	0.0169371
747.241	0.0169677
747.319	0.0170197
747.397	0.0172216
747.475	0.0172134
747.553	0.0172577
747.631	0.0173022
747.709	0.0174214
747.788	0.0172688
747.866	0.0172400
747.944	0.0171938
748.022	0.0171098
748.100	0.0170341
748.178	0.0168420
748.256	0.0168195
748.334	0.0167984
748.413	0.0164513
748.491	0.0162702
748.569	0.0163383
748.647	0.0163417
748.725	0.0161086
748.803	0.0161582
748.881	0.0162459
748.959	0.0161694
749.038	0.0161587
749.116	0.0161120
749.194	0.0160713
749.272	0.0160671
749.350	0.0160273
749.428	0.0158934
749.506	0.0159084
749.584	0.0158105
749.663	0.0157222
749.741	0.0156970
749.819	0.0155093
749.897	0.0155367
749.975	0.0155743
750.053	0.0154359
750.131	0.0154657
750.209	0.0153464
750.288	0.0154064
750.366	0.0155102
750.444	0.0155205
750.522	0.0153828
750.600	0.0155665
750.678	0.0153598
750.756	0.0153520
750.834	0.0154882
750.913	0.0155034
750.991	0.0152330
751.069	0.0153564
751.147	0.0152901
751.225	0.0152606
751.303	0.0153620
751.381	0.0154276
751.459	0.0154624
751.538	0.0154324
751.616	0.0154761
751.694	0.0156448
751.772	0.0156926
751.850	0.0157470
751.928	0.0160190
752.006	0.0161117
752.084	0.0162504
752.163	0.0163947
752.241	0.0165060
752.319	0.0165282
752.397	0.0166234
752.475	0.0167299
752.553	0.0167128
752.631	0.0167818
752.709	0.0167324
752.788	0.0166962
752.866	0.0166183
752.944	0.0165642
753.022	0.0166183
753.100	0.0163793
753.178	0.0164713
753.256	0.0163877
753.334	0.0164283
753.413	0.0163264
753.491	0.0162592
753.569	0.0163399
753.647	0.0163519
753.725	0.0161591
753.803	0.0161850
753.881	0.0161169
753.959	0.0161005
754.038	0.0159680
754.116	0.0160620
754.194	0.0161625
754.272	0.0161105
754.350	0.0160812
754.428	0.0161728
754.506	0.0161662
754.584	0.0161988
754.663	0.0162201
754.741	0.0162503
754.819	0.0162820
754.897	0.0164539
754.975	0.0166386
755.053	0.0165707
755.131	0.0166187
755.209	0.0166010
755.288	0.0166167
755.366	0.0165766
755.444	0.0164351
755.522	0.0165484
755.600	0.0163162
755.678	0.0163892
755.756	0.0162345
755.834	0.0161227
755.913	0.0160983
755.991	0.0160438
756.069	0.0159728
756.147	0.0159808
756.225	0.0160627
756.303	0.0162154
756.381	0.0161688
756.459	0.0161062
756.538	0.0160750
756.616	0.0161176
756.694	0.0161742
756.772	0.0162724
756.850	0.0163286
756.928	0.0164002
757.006	0.0165804
757.084	0.0165284
757.163	0.0163107
757.241	0.0164606
757.319	0.0164600
757.397	0.0163417
757.475	0.0162644
757.553	0.0162863
757.631	0.0160650
757.709	0.0159212
757.788	0.0159528
757.866	0.0157585
757.944	0.0155840
758.022	0.0155672
758.100	0.0155566
758.178	0.0153832
758.256	0.0152866
758.334	0.0152300
758.413	0.0152889
758.491	0.0152450
758.569	0.0153117
758.647	0.0152811
758.725	0.0153152
758.803	0.0153392
758.881	0.0153777
758.959	0.0153465
759.038	0.0156244
759.116	0.0157138
759.194	0.0158509
759.272	0.0159531
759.350	0.0160485
759.428	0.0161446
759.506	0.0162447
759.584	0.0163479
759.663	0.0163663
759.741	0.0163007
759.819	0.0164069
759.897	0.0164416
759.975	0.0163718
760.053	0.0161636
760.131	0.0162902
760.209	0.0162275
760.288	0.0161314
760.366	0.0161635
760.444	0.0160433
760.522	0.0160045
760.600	0.0161362
760.678	0.0161041
760.756	0.0159283
760.834	0.0161372
760.913	0.0162249
760.991	0.0161705
761.069	0.0163486
761.147	0.0164177
761.225	0.0162862
761.303	0.0164646
761.381	0.0163887
761.459	0.0163839
761.538	0.0164761
761.616	0.0165904
761.694	0.0165781
761.772	0.0164129
761.850	0.0166843
761.928	0.0169991
762.006	0.0170313
762.084	0.0169506
762.163	0.0170305
762.241	0.0170203
762.319	0.0171025
762.397	0.0171601
762.475	0.0172130
762.553	0.0170353
762.631	0.0169173
762.709	0.0169007
762.788	0.0168372
762.866	0.0165963
762.944	0.0164723
763.022	0.0164166
763.100	0.0163156
763.178	0.0162231
763.256	0.0160934
763.334	0.0161697
763.413	0.0159941
763.491	0.0160573
763.569	0.0160504
763.647	0.0159949
763.725	0.0159875
763.803	0.0159807
763.881	0.0161149
763.959	0.0159869
764.038	0.0159930
764.116	0.0160435
764.194	0.0161075
764.272	0.0158635
764.350	0.0159777
764.428	0.0158931
764.506	0.0158897
764.584	0.0160787
764.663	0.0159823
764.741	0.0159260
764.819	0.0159190
764.897	0.0160632
764.975	0.0160046
765.053	0.0160474
765.131	0.0161297
765.209	0.0159409
765.288	0.0158568
765.366	0.0159911
765.444	0.0157746
765.522	0.0158640
765.600	0.0157772
765.678	0.0156563
765.756	0.0156677
765.834	0.0157429
765.913	0.0156392
765.991	0.0155844
766.069	0.0157761
766.147	0.0157215
766.225	0.0158576
766.303	0.0157353
766.381	0.0158966
766.459	0.0160162
766.538	0.0159449
766.616	0.0160768
766.694	0.0160265
766.772	0.0160908
766.850	0.0162056
766.928	0.0163216
767.006	0.0164124
767.084	0.0164145
767.163	0.0164359
767.241	0.0165150
767.319	0.0164652
767.397	0.0166705
767.475	0.0164600
767.553	0.0163475
767.631	0.0164011
767.709	0.0162648
767.788	0.0162626
767.866	0.0163276
767.944	0.0162720
768.022	0.0162164
768.100	0.0162094
768.178	0.0160554
768.256	0.0161261
768.334	0.0160305
768.413	0.0160928
768.491	0.0160653
768.569	0.0161582
768.647	0.0162151
768.725	0.0161467
768.803	0.0163104
768.881	0.0164401
768.959	0.0164437
769.038	0.0164906
769.116	0.0164111
769.194	0.0165515
769.272	0.0165309
769.350	0.0167121
769.428	0.0166914
769.506	0.0167233
769.584	0.0167465
769.663	0.0166965
769.741	0.0168476
769.819	0.0167980
769.897	0.0166875
769.975	0.0167248
770.053	0.0167159
770.131	0.0165413
770.209	0.0164694
770.288	0.0165885
770.366	0.0164180
770.444	0.0164172
770.522	0.0164571
770.600	0.0164227
770.678	0.0164481
770.756	0.0163863
770.834	0.0164223
770.913	0.0163241
770.991	0.0164439
771.069	0.0163616
771.147	0.0162646
771.225	0.0164301
771.303	0.0164474
771.381	0.0163195
771.459	0.0162156
771.538	0.0162228
771.616	0.0161859
771.694	0.0161654
771.772	0.0160913
771.850	0.0159600
771.928	0.0158423
772.006	0.0158944
772.084	0.0156029
772.163	0.0156703
772.241	0.0157275
772.319	0.0156544
772.397	0.0155138
772.475	0.0155312
772.553	0.0157007
772.631	0.0156894
772.709	0.0157314
772.788	0.0156688
772.866	0.0156426
772.944	0.0158743
773.022	0.0156938
773.100	0.0157375
773.178	0.0158085
773.256	0.0157001
773.334	0.0157510
773.413	0.0159723
773.491	0.0158719
773.569	0.0158688
773.647	0.0157993
773.725	0.0159469
773.803	0.0160580
773.881	0.0159586
773.959	0.0160017
774.038	0.0159194
774.116	0.0159059
774.194	0.0158496
774.272	0.0158219
774.350	0.0157790
774.428	0.0157725
774.506	0.0156480
774.584	0.0156560
774.663	0.0157731
774.741	0.0158195
774.819	0.0157612
774.897	0.0157714
774.975	0.0159557
775.053	0.0158890
775.131	0.0159666
775.209	0.0161343
775.288	0.0160680
775.366	0.0160417
775.444	0.0161134
775.522	0.0160940
775.600	0.0160606
775.678	0.0162087
775.756	0.0160597
775.834	0.0161404
775.913	0.0160721
775.991	0.0162354
776.069	0.0162112
776.147	0.0163184
776.225	0.0163965
776.303	0.0165441
776.381	0.0165989
776.459	0.0166225
776.538	0.0167784
776.616	0.0168505
776.694	0.0169039
776.772	0.0168542
776.850	0.0168587
776.928	0.0170410
777.006	0.0168690
777.084	0.0168517
777.163	0.0169141
777.241	0.0168128
777.319	0.0166637
777.397	0.0167345
777.475	0.0167097
777.553	0.0166981
777.631	0.0166280
777.709	0.0165559
777.788	0.0163937
777.866	0.0165382
777.944	0.0163699
778.022	0.0165253
778.100	0.0164571
778.178	0.0164077
778.256	0.0163210
778.334	0.0161763
778.413	0.0162077
778.491	0.0160931
778.569	0.0163165
778.647	0.0161818
778.725	0.0160798
778.803	0.0160728
778.881	0.0161002
778.959	0.0163688
779.038	0.0161314
779.116	0.0161181
779.194	0.0162245
779.272	0.0162840
779.350	0.0163109
779.428	0.0162829
779.506	0.0163730
779.584	0.0163988
779.663	0.0162394
779.741	0.0160863
779.819	0.0161638
779.897	0.0161770
779.975	0.0161588
780.053	0.0161143
780.131	0.0160863
780.209	0.0159767
780.288	0.0159924
780.366	0.0159401
780.444	0.0157487
780.522	0.0155939
780.600	0.0155933
780.678	0.0156017
780.756	0.0155618
780.834	0.0156710
780.913	0.0155061
780.991	0.0157631
781.069	0.0154905
781.147	0.0156068
781.225	0.0156984
781.303	0.0157563
781.381	0.0157302
781.459	0.0156573
781.538	0.0157217
781.616	0.0156551
781.694	0.0157749
781.772	0.0158498
781.850	0.0156843
781.928	0.0157510
782.006	0.0158624
782.084	0.0159126
782.163	0.0159931
782.241	0.0161109
782.319	0.0160996
782.397	0.0159575
782.475	0.0160135
782.553	0.0162121
782.631	0.0160918
782.709	0.0162277
782.788	0.0160130
782.866	0.0159464
782.944	0.0160596
783.022	0.0160770
783.100	0.0160005
783.178	0.0159633
783.256	0.0159854
783.334	0.0159656
783.413	0.0161553
783.491	0.0160371
783.569	0.0159648
783.647	0.0160815
783.725	0.0162466
783.803	0.0162520
783.881	0.0162144
783.959	0.0164013
784.038	0.0165919
784.116	0.0164606
784.194	0.0166847
784.272	0.0168425
784.350	0.0168314
784.428	0.0168312
784.506	0.0168260
784.584	0.0168088
784.663	0.0168469
784.741	0.0168832
784.819	0.0169501
784.897	0.0170042
784.975	0.0167972
785.053	0.0167871
785.131	0.0167983
785.209	0.0165754
785.288	0.0164818
785.366	0.0163795
785.444	0.0163309
785.522	0.0161989
785.600	0.0162000
785.678	0.0160919
785.756	0.0159190
785.834	0.0159486
785.913	0.0158980
785.991	0.0159601
786.069	0.0157770
786.147	0.0159644
786.225	0.0158497
786.303	0.0157983
786.381	0.0158669
786.459	0.0157874
786.538	0.0157897
786.616	0.0158829
786.694	0.0158459
786.772	0.0158308
786.850	0.0159492
786.928	0.0160222
787.006	0.0159871
787.084	0.0160239
787.163	0.0160680
787.241	0.0162621
787.319	0.0161309
787.397	0.0161878
787.475	0.0162110
787.553	0.0161552
787.631	0.0162489
787.709	0.0164424
787.788	0.0161884
787.866	0.0162455
787.944	0.0160431
788.022	0.0160918
788.100	0.0161424
788.178	0.0160803
788.256	0.0161515
788.334	0.0160896
788.413	0.0160353
788.491	0.0161160
788.569	0.0159370
788.647	0.0160496
788.725	0.0161455
788.803	0.0161093
788.881	0.0162240
788.959	0.0162415
789.038	0.0162081
789.116	0.0163123
789.194	0.0162890
789.272	0.0163532
789.350	0.0162839
789.428	0.0163374
789.506	0.0162101
789.584	0.0160637
789.663	0.0160603
789.741	0.0160223
789.819	0.0158693
789.897	0.0158787
789.975	0.0157567
790.053	0.0156946
790.131	0.0155647
790.209	0.0155996
790.288	0.0155671
790.366	0.0154765
790.444	0.0154646
790.522	0.0156042
790.600	0.0156173
790.678	0.0156612
790.756	0.0157030
790.834	0.0158338
790.913	0.0159569
790.991	0.0159996
791.069	0.0160388
791.147	0.0161499
791.225	0.0160899
791.303	0.0162674
791.381	0.0164169
791.459	0.0164854
791.538	0.0162670
791.616	0.0162518
791.694	0.0164483
791.772	0.0164065
791.850	0.0164977
791.928	0.0165546
792.006	0.0164127
792.084	0.0166073
792.163	0.0166141
792.241	0.0167383
792.319	0.0166846
792.397	0.0168546
792.475	0.0167677
792.553	0.0169539
792.631	0.0171252
792.709	0.0169757
792.788	0.0170080
792.866	0.0170660
792.944	0.0169354
793.022	0.0167572
793.100	0.0167786
793.178	0.0167263
793.256	0.0165932
793.334	0.0164256
793.413	0.0161861
793.491	0.0159547
793.569	0.0159003
793.647	0.0159016
793.725	0.0158050
793.803	0.0157417
793.881	0.0154961
793.959	0.0154721
794.038	0.0154948
794.116	0.0154727
794.194	0.0155537
794.272	0.0155615
794.350	0.0154296
794.428	0.0155286
794.506	0.0154681
794.584	0.0154656
794.663	0.0155947
794.741	0.0157382
794.819	0.0158669
794.897	0.0157728
794.975	0.0156895
795.053	0.0158584
795.131	0.0159653
795.209	0.0159688
795.288	0.0160815
795.366	0.0160255
795.444	0.0161858
795.522	0.0161504
795.600	0.0162695
795.678	0.0163731
795.756	0.0163647
795.834	0.0163845
795.913	0.0166329
795.991	0.0164394
796.069	0.0164359
796.147	0.0164372
796.225	0.0165021
796.303	0.0163380
796.381	0.0164216
796.459	0.0163329
796.538	0.0163977
796.616	0.0161843
796.694	0.0161832
796.772	0.0161752
796.850	0.0160625
796.928	0.0160402
797.006	0.0160029
797.084	0.0160150
797.163	0.0158115
797.241	0.0159204
797.319	0.0159803
797.397	0.0159210
797.475	0.0159634
797.553	0.0159898
797.631	0.0160874
797.709	0.0160464
797.788	0.0160463
797.866	0.0160061
797.944	0.0160444
798.022	0.0161462
798.100	0.0159888
798.178	0.0160448
798.256	0.0158765
798.334	0.0158470
798.413	0.0158747
798.491	0.0160104
798.569	0.0159426
798.647	0.0159222
798.725	0.0159325
798.803	0.0159745
798.881	0.0159882
798.959	0.0159714
799.038	0.0160538
799.116	0.0159695
799.194	0.0160842
799.272	0.0160857
799.350	0.0161131
799.428	0.0162035
799.506	0.0162306
799.584	0.0163039
799.663	0.0163567
799.741	0.0164584
799.819	0.0165431
799.897	0.0164445
799.975	0.0164844
800.053	0.0167641
800.131	0.0166017
800.209	0.0166913
800.288	0.0167289
800.366	0.0166413
800.444	0.0167236
800.522	0.0166759
800.600	0.0164886
800.678	0.0165612
800.756	0.0165553
800.834	0.0166017
800.913	0.0164111
800.991	0.0165179
801.069	0.0166003
801.147	0.0164433
801.225	0.0165129
801.303	0.0165260
801.381	0.0164996
801.459	0.0163776
801.538	0.0163816
801.616	0.0164145
801.694	0.0163780
801.772	0.0162113
801.850	0.0164023
801.928	0.0163553
802.006	0.0161137
802.084	0.0160133
802.163	0.0160734
802.241	0.0160178
802.319	0.0158820
802.397	0.0157866
802.475	0.0156863
802.553	0.0156120
802.631	0.0157024
802.709	0.0156873
802.788	0.0157867
802.866	0.0157595
802.944	0.0156541
803.022	0.0158537
803.100	0.0159819
803.178	0.0160205
803.256	0.0159529
803.334	0.0160765
803.413	0.0161082
803.491	0.0162896
803.569	0.0161421
803.647	0.0162488
803.725	0.0163794
803.803	0.0164113
803.881	0.0165192
803.959	0.0164230
804.038	0.0165440
804.116	0.0165111
804.194	0.0165752
804.272	0.0166015
804.350	0.0164991
804.428	0.0164442
804.506	0.0164874
804.584	0.0165343
804.663	0.0164053
804.741	0.0163691
804.819	0.0163767
804.897	0.0163972
804.975	0.0163089
805.053	0.0162657
805.131	0.0162984
805.209	0.0162383
805.288	0.0161009
805.366	0.0161647
805.444	0.0161795
805.522	0.0162462
805.600	0.0161649
805.678	0.0161595
805.756	0.0161604
805.834	0.0160280
805.913	0.0160792
805.991	0.0161096
806.069	0.0160723
806.147	0.0161147
806.225	0.0162080
806.303	0.0162608
806.381	0.0163058
806.459	0.0161906
806.538	0.0161897
806.616	0.0162978
806.694	0.0162144
806.772	0.0162450
806.850	0.0163701
806.928	0.0163051
807.006	0.0162830
807.084	0.0162429
807.163	0.0162232
807.241	0.0161874
807.319	0.0161750
807.397	0.0162138
807.475	0.0162051
807.553	0.0160950
807.631	0.0161067
807.709	0.0160917
807.788	0.0162085
807.866	0.0160561
807.944	0.0160284
808.022	0.0160458
808.100	0.0160094
808.178	0.0158756
808.256	0.0161842
808.334	0.0161459
808.413	0.0159343
808.491	0.0160447
808.569	0.0161111
808.647	0.0161937
808.725	0.0159795
808.803	0.0160580
808.881	0.0161403
808.959	0.0160255
809.038	0.0159328
809.116	0.0161123
809.194	0.0159347
809.272	0.0160355
809.350	0.0159753
809.428	0.0160387
809.506	0.0161154
809.584	0.0161405
809.663	0.0160428
809.741	0.0161069
809.819	0.0162302
809.897	0.0162037
809.975	0.0161510
810.053	0.0162006
810.131	0.0161961
810.209	0.0162144
810.288	0.0164556
810.366	0.0163302
810.444	0.0163647
810.522	0.0164036
810.600	0.0164382
810.678	0.0162934
810.756	0.0163859
810.834	0.0164139
810.913	0.0164354
810.991	0.0162970
811.069	0.0162183
811.147	0.0161617
811.225	0.0162160
811.303	0.0162977
811.381	0.0162287
811.459	0.0163004
811.538	0.0162183
811.616	0.0162041
811.694	0.0162125
811.772	0.0161871
811.850	0.0160572
811.928	0.0161275
812.006	0.0162460
812.084	0.0161156
812.163	0.0162262
812.241	0.0160873
812.319	0.0161504
812.397	0.0161041
812.475	0.0160516
812.553	0.0160184
812.631	0.0159822
812.709	0.0160634
812.788	0.0160754
812.866	0.0158843
812.944	0.0158229
813.022	0.0159570
813.100	0.0159870
813.178	0.0157436
813.256	0.0157269
813.334	0.0158748
813.413	0.0157648
813.491	0.0157349
813.569	0.0157339
813.647	0.0155542
813.725	0.0155462
813.803	0.0156310
813.881	0.0156152
813.959	0.0156390
814.038	0.0156683
814.116	0.0155723
814.194	0.0157595
814.272	0.0158311
814.350	0.0157619
814.428	0.0159842
814.506	0.0158708
814.584	0.0158860
814.663	0.0160875
814.741	0.0159440
814.819	0.0159778
814.897	0.0160177
814.975	0.0160356
815.053	0.0161189
815.131	0.0161198
815.209	0.0161021
815.288	0.0161900
815.366	0.0162270
815.444	0.0161307
815.522	0.0163491
815.600	0.0164515
815.678	0.0164175
815.756	0.0163802
815.834	0.0163920
815.913	0.0164468
815.991	0.0165668
816.069	0.0165627
816.147	0.0165162
816.225	0.0166273
816.303	0.0166421
816.381	0.0165854
816.459	0.0166815
816.538	0.0165073
816.616	0.0163934
816.694	0.0163454
816.772	0.0162547
816.850	0.0162963
816.928	0.0164198
817.006	0.0163960
817.084	0.0162595
817.163	0.0162797
817.241	0.0160342
817.319	0.0162875
817.397	0.0161916
817.475	0.0161088
817.553	0.0161638
817.631	0.0162085
817.709	0.0162223
817.788	0.0159661
817.866	0.0158284
817.944	0.0159332
818.022	0.0160857
818.100	0.0159307
818.178	0.0158186
818.256	0.0159678
818.334	0.0159840
818.413	0.0161243
818.491	0.0161066
818.569	0.0162504
818.647	0.0162174
818.725	0.0161220
818.803	0.0161981
818.881	0.0163150
818.959	0.0161398
819.038	0.0162348
819.116	0.0162004
819.194	0.0160898
819.272	0.0161453
819.350	0.0160717
819.428	0.0160898
819.506	0.0160151
819.584	0.0160922
819.663	0.0160711
819.741	0.0159730
819.819	0.0159452
819.897	0.0160436
819.975	0.0159885
820.053	0.0159777
820.131	0.0160872
820.209	0.0160847
820.288	0.0160536
820.366	0.0161658
820.444	0.0161375
820.522	0.0161648
820.600	0.0161373
820.678	0.0163329
820.756	0.0163466
820.834	0.0163140
820.913	0.0163458
820.991	0.0163680
821.069	0.0164254
821.147	0.0164563
821.225	0.0163858
821.303	0.0163522
821.381	0.0164649
821.459	0.0162945
821.538	0.0163502
821.616	0.0165437
821.694	0.0165461
821.772	0.0164804
821.850	0.0165743
821.928	0.0165539
822.006	0.0162846
822.084	0.0165367
822.163	0.0165488
822.241	0.0164584
822.319	0.0164661
822.397	0.0162810
822.475	0.0164221
822.553	0.0164016
822.631	0.0164373
822.709	0.0165351
822.788	0.0163834
822.866	0.0162905
822.944	0.0165091
823.022	0.0163068
823.100	0.0161692
823.178	0.0160586
823.256	0.0161776
823.334	0.0162496
823.413	0.0161501
823.491	0.0161004
823.569	0.0161860
823.647	0.0162284
823.725	0.0160687
823.803	0.0161941
823.881	0.0161465
823.959	0.0160313
824.038	0.0159529
824.116	0.0161613
824.194	0.0161622
824.272	0.0160511
824.350	0.0161712
824.428	0.0161337
824.506	0.0161763
824.584	0.0161316
824.663	0.0161752
824.741	0.0162878
824.819	0.0163023
824.897	0.0162484
824.975	0.0162341
825.053	0.0161781
825.131	0.0160851
825.209	0.0161794
825.288	0.0162340
825.366	0.0161597
825.444	0.0162375
825.522	0.0160668
825.600	0.0160879
825.678	0.0160874
825.756	0.0159659
825.834	0.0159196
825.913	0.0159698
825.991	0.0159212
826.069	0.0158864
826.147	0.0158772
826.225	0.0159580
826.303	0.0160515
826.381	0.0158791
826.459	0.0160198
826.538	0.0160387
826.616	0.0160093
826.694	0.0160400
826.772	0.0161475
826.850	0.0161795
826.928	0.0161324
827.006	0.0160676
827.084	0.0159829
827.163	0.0161963
827.241	0.0163073
827.319	0.0162534
827.397	0.0162773
827.475	0.0163654
827.553	0.0164246
827.631	0.0162535
827.709	0.0165685
827.788	0.0164496
827.866	0.0164130
827.944	0.0164464
828.022	0.0164153
828.100	0.0163952
828.178	0.0162724
828.256	0.0160606
828.334	0.0161086
828.413	0.0162453
828.491	0.0162274
828.569	0.0160419
828.647	0.0159682
828.725	0.0159555
828.803	0.0161266
828.881	0.0160859
828.959	0.0159783
829.038	0.0160522
829.116	0.0160605
829.194	0.0161655
829.272	0.0160825
829.350	0.0161070
829.428	0.0162486
829.506	0.0160755
829.584	0.0160389
829.663	0.0163304
829.741	0.0162510
829.819	0.0162019
829.897	0.0163571
829.975	0.0162804
830.053	0.0161021
830.131	0.0163261
830.209	0.0162378
830.288	0.0161893
830.366	0.0161877
830.444	0.0160206
830.522	0.0162001
830.600	0.0160922
830.678	0.0160779
830.756	0.0158244
830.834	0.0159993
830.913	0.0159044
830.991	0.0158321
831.069	0.0158582
831.147	0.0159633
831.225	0.0158414
831.303	0.0158472
831.381	0.0157835
831.459	0.0157822
831.538	0.0158781
831.616	0.0160815
831.694	0.0159954
831.772	0.0160142
831.850	0.0162498
831.928	0.0162543
832.006	0.0163150
832.084	0.0163755
832.163	0.0164589
832.241	0.0162998
832.319	0.0163234
832.397	0.0162788
832.475	0.0162756
832.553	0.0163214
832.631	0.0163722
832.709	0.0161696
832.788	0.0161110
832.866	0.0162513
832.944	0.0160830
833.022	0.0161014
833.100	0.0160325
833.178	0.0161807
833.256	0.0160796
833.334	0.0161038
833.413	0.0163422
833.491	0.0162550
833.569	0.0163837
833.647	0.0164338
833.725	0.0162776
833.803	0.0162231
833.881	0.0163702
833.959	0.0163929
834.038	0.0164308
834.116	0.0164841
834.194	0.0164153
834.272	0.0162277
834.350	0.0162526
834.428	0.0164088
834.506	0.0162305
834.584	0.0161819
834.663	0.0162968
834.741	0.0162887
834.819	0.0159149
834.897	0.0160778
834.975	0.0160896
835.053	0.0159736
835.131	0.0160781
835.209	0.0159354
835.288	0.0157985
835.366	0.0158913
835.444	0.0160267
835.522	0.0159752
835.600	0.0159589
835.678	0.0159617
835.756	0.0158021
835.834	0.0160805
835.913	0.0159351
835.991	0.0158918
836.069	0.0160364
836.147	0.0160762
836.225	0.0159695
836.303	0.0159653
836.381	0.0161436
836.459	0.0159872
836.538	0.0161945
836.616	0.0159518
836.694	0.0161049
836.772	0.0161476
836.850	0.0159354
836.928	0.0160690
837.006	0.0158577
837.084	0.0160662
837.163	0.0160844
837.241	0.0158699
837.319	0.0160080
837.397	0.0158896
837.475	0.0158353
837.553	0.0158397
837.631	0.0157542
837.709	0.0160536
837.788	0.0161892
837.866	0.0161113
837.944	0.0162346
838.022	0.0161758
838.100	0.0161085
838.178	0.0163917
838.256	0.0163458
838.334	0.0164904
838.413	0.0164948
838.491	0.0164412
838.569	0.0164600
838.647	0.0165037
838.725	0.0164141
838.803	0.0164243
838.881	0.0164114
838.959	0.0163448
839.038	0.0163280
839.116	0.0162926
839.194	0.0162050
839.272	0.0161259
839.350	0.0162183
839.428	0.0160884
839.506	0.0160935
839.584	0.0161184
839.663	0.0161348
839.741	0.0161474
839.819	0.0160493
839.897	0.0161144
839.975	0.0161371
840.053	0.0161163
840.131	0.0161938
840.209	0.0162617
840.288	0.0161718
840.366	0.0163385
840.444	0.0164014
840.522	0.0162515
840.600	0.0163377
840.678	0.0164066
840.756	0.0162491
840.834	0.0161349
840.913	0.0163648
840.991	0.0164050
841.069	0.0163477
841.147	0.0161543
841.225	0.0163118
841.303	0.0161282
841.381	0.0161136
841.459	0.0162159
841.538	0.0161008
841.616	0.0161040
841.694	0.0160982
841.772	0.0161571
841.850	0.0160173
841.928	0.0159464
842.006	0.0160236
842.084	0.0160739
842.163	0.0160184
842.241	0.0159925
842.319	0.0161524
842.397	0.0161897
842.475	0.0160908
842.553	0.0162214
842.631	0.0163370
842.709	0.0162575
842.788	0.0163319
842.866	0.0162673
842.944	0.0164855
843.022	0.0163802
843.100	0.0164143
843.178	0.0164832
843.256	0.0164037
843.334	0.0164787
843.413	0.0164693
843.491	0.0164730
843.569	0.0164594
843.647	0.0163877
843.725	0.0162445
843.803	0.0163805
843.881	0.0164202
843.959	0.0164796
844.038	0.0163551
844.116	0.0163229
844.194	0.0164246
844.272	0.0163239
844.350	0.0160676
844.428	0.0162507
844.506	0.0161572
844.584	0.0162047
844.663	0.0162321
844.741	0.0159844
844.819	0.0160397
844.897	0.0163214
844.975	0.0161208
845.053	0.0161163
845.131	0.0163071
845.209	0.0161501
845.288	0.0161910
845.366	0.0161806
845.444	0.0162600
845.522	0.0161329
845.600	0.0162015
845.678	0.0162424
845.756	0.0162285
845.834	0.0162344
845.913	0.0161250
845.991	0.0162548
846.069	0.0162105
846.147	0.0162209
846.225	0.0161890
846.303	0.0161294
846.381	0.0161633
846.459	0.0160272
846.538	0.0161372
846.616	0.0161001
846.694	0.0160047
846.772	0.0160899
846.850	0.0160928
846.928	0.0160701
847.006	0.0160715
847.084	0.0160245
847.163	0.0161889
847.241	0.0162171
847.319	0.0162301
847.397	0.0161910
847.475	0.0160439
847.553	0.0160745
847.631	0.0162668
847.709	0.0162550
847.788	0.0161427
847.866	0.0160841
847.944	0.0161025
848.022	0.0159760
848.100	0.0161077
848.178	0.0159354
848.256	0.0160140
848.334	0.0161011
848.413	0.0160452
848.491	0.0161388
848.569	0.0161361
848.647	0.0162143
848.725	0.0161750
848.803	0.0160702
848.881	0.0161226
848.959	0.0161604
849.038	0.0161680
849.116	0.0161081
849.194	0.0160855
849.272	0.0161726
849.350	0.0161253
849.428	0.0161798
849.506	0.0161730
849.584	0.0161343
849.663	0.0160081
849.741	0.0160323
849.819	0.0161106
849.897	0.0159508
849.975	0.0161418
850.053	0.0162990
850.131	0.0160431
850.209	0.0160992
850.288	0.0161631
850.366	0.0161930
850.444	0.0161310
850.522	0.0161037
850.600	0.0160323
850.678	0.0160447
850.756	0.0160664
850.834	0.0160100
850.913	0.0160734
850.991	0.0158808
851.069	0.0161143
851.147	0.0160976
851.225	0.0159915
851.303	0.0159135
851.381	0.0158920
851.459	0.0159676
851.538	0.0161165
851.616	0.0159979
851.694	0.0159795
851.772	0.0160901
851.850	0.0160889
851.928	0.0160449
852.006	0.0162364
852.084	0.0162186
852.163	0.0161668
852.241	0.0161777
852.319	0.0162818
852.397	0.0162424
852.475	0.0161493
852.553	0.0162870
852.631	0.0162805
852.709	0.0161446
852.788	0.0161731
852.866	0.0163474
852.944	0.0162816
853.022	0.0161292
853.100	0.0162742
853.178	0.0162349
853.256	0.0161582
853.334	0.0161321
853.413	0.0162876
853.491	0.0161535
853.569	0.0161351
853.647	0.0161485
853.725	0.0160401
853.803	0.0159796
853.881	0.0160832
853.959	0.0159669
854.038	0.0159784
854.116	0.0159558
854.194	0.0159877
854.272	0.0160960
854.350	0.0158746
854.428	0.0159975
854.506	0.0159481
854.584	0.0159419
854.663	0.0159796
854.741	0.0159084
854.819	0.0159361
854.897	0.0159544
854.975	0.0158218
855.053	0.0157694
855.131	0.0158519
855.209	0.0158196
855.288	0.0157967
855.366	0.0159812
855.444	0.0159641
855.522	0.0158884
855.600	0.0160294
855.678	0.0160277
855.756	0.0159349
855.834	0.0159989
855.913	0.0161124
855.991	0.0160872
856.069	0.0162202
856.147	0.0162292
856.225	0.0162419
856.303	0.0161900
856.381	0.0162248
856.459	0.0164526
856.538	0.0163737
856.616	0.0161973
856.694	0.0163026
856.772	0.0162038
856.850	0.0162014
856.928	0.0161742
857.006	0.0160723
857.084	0.0161709
857.163	0.0159155
857.241	0.0160111
857.319	0.0160696
857.397	0.0160784
857.475	0.0160144
857.553	0.0159258
857.631	0.0159203
857.709	0.0159592
857.788	0.0160724
857.866	0.0160107
857.944	0.0159745
858.022	0.0162293
858.100	0.0160802
858.178	0.0162353
858.256	0.0162600
858.334	0.0163140
858.413	0.0163897
858.491	0.0162811
858.569	0.0161582
858.647	0.0163314
858.725	0.0163634
858.803	0.0162751
858.881	0.0163260
858.959	0.0163071
859.038	0.0163029
859.116	0.0162099
859.194	0.0163121
859.272	0.0162214
859.350	0.0160995
859.428	0.0162757
859.506	0.0160542
859.584	0.0161465
859.663	0.0162158
859.741	0.0161728
859.819	0.0160271
859.897	0.0160069
859.975	0.0160656
860.053	0.0160577
860.131	0.0161342
860.209	0.0161498
860.288	0.0160841
860.366	0.0161726
860.444	0.0159775
860.522	0.0160972
860.600	0.0160634
860.678	0.0160249
860.756	0.0159938
860.834	0.0159576
860.913	0.0158894
860.991	0.0160598
861.069	0.0159499
861.147	0.0159097
861.225	0.0161035
861.303	0.0159947
861.381	0.0160572
861.459	0.0160885
861.538	0.0160840
861.616	0.0160560
861.694	0.0160960
861.772	0.0161769
861.850	0.0160794
861.928	0.0161926
862.006	0.0162236
862.084	0.0163138
862.163	0.0161546
862.241	0.0162029
862.319	0.0161150
862.397	0.0163358
862.475	0.0162102
862.553	0.0163193
862.631	0.0162582
862.709	0.0163154
862.788	0.0163225
862.866	0.0162889
862.944	0.0163843
863.022	0.0163503
863.100	0.0162803
863.178	0.0164961
863.256	0.0163487
863.334	0.0162125
863.413	0.0163410
863.491	0.0164140
863.569	0.0162353
863.647	0.0162366
863.725	0.0162603
863.803	0.0162754
863.881	0.0162245
863.959	0.0161008
864.038	0.0161613
864.116	0.0161681
864.194	0.0160929
864.272	0.0161304
864.350	0.0161253
864.428	0.0161964
864.506	0.0161121
864.584	0.0161828
864.663	0.0162447
864.741	0.0162975
864.819	0.0164212
864.897	0.0162740
864.975	0.0163284
865.053	0.0164201
865.131	0.0165076
865.209	0.0164951
865.288	0.0166193
865.366	0.0163870
865.444	0.0165744
865.522	0.0165056
865.600	0.0165765
865.678	0.0166341
865.756	0.0165332
865.834	0.0164809
865.913	0.0163674
865.991	0.0164735
866.069	0.0164687
866.147	0.0163807
866.225	0.0163265
866.303	0.0164391
866.381	0.0163406
866.459	0.0164584
866.538	0.0162632
866.616	0.0162457
866.694	0.0163230
866.772	0.0162733
866.850	0.0161949
866.928	0.0163123
867.006	0.0163145
867.084	0.0163775
867.163	0.0162651
867.241	0.0163038
867.319	0.0161556
867.397	0.0163017
867.475	0.0164542
867.553	0.0163601
867.631	0.0165511
867.709	0.0165199
867.788	0.0164839
867.866	0.0163779
867.944	0.0164585
868.022	0.0164473
868.100	0.0165611
868.178	0.0164411
868.256	0.0164046
868.334	0.0164773
868.413	0.0164772
868.491	0.0163940
868.569	0.0163520
868.647	0.0162328
868.725	0.0162329
868.803	0.0162762
868.881	0.0160828
868.959	0.0161059
869.038	0.0161108
869.116	0.0161256
869.194	0.0159990
869.272	0.0159987
869.350	0.0160976
869.428	0.0159216
869.506	0.0160368
869.584	0.0159597
869.663	0.0160423
869.741	0.0159705
869.819	0.0158517
869.897	0.0158594
869.975	0.0159049
870.053	0.0161561
870.131	0.0160575
870.209	0.0161449
870.288	0.0161054
870.366	0.0160080
870.444	0.0161512
870.522	0.0162290
870.600	0.0161813
870.678	0.0161220
870.756	0.0162200
870.834	0.0159661
870.913	0.0160701
870.991	0.0160948
871.069	0.0160785
871.147	0.0162969
871.225	0.0161445
871.303	0.0161781
871.381	0.0160932
871.459	0.0161491
871.538	0.0162065
871.616	0.0161280
871.694	0.0162788
871.772	0.0160710
871.850	0.0160955
871.928	0.0158982
872.006	0.0161097
872.084	0.0161356
872.163	0.0160134
872.241	0.0158477
872.319	0.0159388
872.397	0.0159795
872.475	0.0159793
872.553	0.0159269
872.631	0.0158974
872.709	0.0159042
872.788	0.0160162
872.866	0.0160935
872.944	0.0159731
873.022	0.0160962
873.100	0.0158587
873.178	0.0159182
873.256	0.0158436
873.334	0.0158256
873.413	0.0158527
873.491	0.0159281
873.569	0.0159812
873.647	0.0159834
873.725	0.0160534
873.803	0.0160251
873.881	0.0159264
873.959	0.0160137
874.038	0.0158656
874.116	0.0160860
874.194	0.0161259
874.272	0.0161469
874.350	0.0160802
874.428	0.0161518
874.506	0.0162423
874.584	0.0162366
874.663	0.0161853
874.741	0.0162077
874.819	0.0162042
874.897	0.0162402
874.975	0.0161705
875.053	0.0161182
875.131	0.0161037
875.209	0.0162976
875.288	0.0162789
875.366	0.0162043
875.444	0.0161152
875.522	0.0160765
875.600	0.0162691
875.678	0.0161928
875.756	0.0161610
875.834	0.0161568
875.913	0.0162066
875.991	0.0161549
876.069	0.0163123
876.147	0.0161909
876.225	0.0161402
876.303	0.0160275
876.381	0.0160350
876.459	0.0161976
876.538	0.0160586
876.616	0.0159880
876.694	0.0161575
876.772	0.0161333
876.850	0.0162297
876.928	0.0162788
877.006	0.0160741
877.084	0.0161356
877.163	0.0162013
877.241	0.0161366
877.319	0.0162481
877.397	0.0162007
877.475	0.0161140
877.553	0.0161707
877.631	0.0162776
877.709	0.0160543
877.788	0.0161510
877.866	0.0161287
877.944	0.0159825
878.022	0.0158821
878.100	0.0159554
878.178	0.0159835
878.256	0.0160867
878.334	0.0158710
878.413	0.0159595
878.491	0.0159708
878.569	0.0160105
878.647	0.0159177
878.725	0.0160209
878.803	0.0159135
878.881	0.0159061
878.959	0.0159505
879.038	0.0159569
879.116	0.0160887
879.194	0.0161166
879.272	0.0160751
879.350	0.0161343
879.428	0.0160283
879.506	0.0161813
879.584	0.0163708
879.663	0.0161961
879.741	0.0162684
879.819	0.0162379
879.897	0.0163660
879.975	0.0164582
880.053	0.0164629
880.131	0.0163509
880.209	0.0163618
880.288	0.0163225
880.366	0.0162691
880.444	0.0161723
880.522	0.0162064
880.600	0.0161856
880.678	0.0160975
880.756	0.0161327
880.834	0.0159813
880.913	0.0161107
880.991	0.0162144
881.069	0.0160529
881.147	0.0160403
881.225	0.0159171
881.303	0.0159061
881.381	0.0159612
881.459	0.0159569
881.538	0.0159044
881.616	0.0159344
881.694	0.0157948
881.772	0.0160270
881.850	0.0159656
881.928	0.0160858
882.006	0.0160519
882.084	0.0159937
882.163	0.0161195
882.241	0.0161029
882.319	0.0161145
882.397	0.0162038
882.475	0.0163206
882.553	0.0162853
882.631	0.0161686
882.709	0.0163026
882.788	0.0162924
882.866	0.0163143
882.944	0.0163717
883.022	0.0164244
883.100	0.0163496
883.178	0.0163394
883.256	0.0162341
883.334	0.0164224
883.413	0.0162629
883.491	0.0163229
883.569	0.0162630
883.647	0.0163930
883.725	0.0162305
883.803	0.0161395
883.881	0.0159991
883.959	0.0159714
884.038	0.0160127
884.116	0.0160451
884.194	0.0158810
884.272	0.0159830
884.350	0.0159253
884.428	0.0157719
884.506	0.0159091
884.584	0.0159293
884.663	0.0158858
884.741	0.0157568
884.819	0.0158882
884.897	0.0158728
884.975	0.0159080
885.053	0.0157924
885.131	0.0159348
885.209	0.0159795
885.288	0.0160466
885.366	0.0160236
885.444	0.0160661
885.522	0.0161091
885.600	0.0162283
885.678	0.0162888
885.756	0.0162379
885.834	0.0162302
885.913	0.0163660
885.991	0.0164526
886.069	0.0165114
886.147	0.0165095
886.225	0.0164767
886.303	0.0164398
886.381	0.0164790
886.459	0.0164588
886.538	0.0164182
886.616	0.0162262
886.694	0.0161815
886.772	0.0160664
886.850	0.0160326
886.928	0.0162011
887.006	0.0162638
887.084	0.0161255
887.163	0.0161963
887.241	0.0161698
887.319	0.0163149
887.397	0.0163261
887.475	0.0160901
887.553	0.0162732
887.631	0.0162106
887.709	0.0161813
887.788	0.0160803
887.866	0.0162939
887.944	0.0162191
888.022	0.0160742
888.100	0.0160265
888.178	0.0160827
888.256	0.0160847
888.334	0.0159288
888.413	0.0160378
888.491	0.0160646
888.569	0.0161601
888.647	0.0162796
888.725	0.0161717
888.803	0.0162992
888.881	0.0163506
888.959	0.0164016
889.038	0.0162133
889.116	0.0162898
889.194	0.0164009
889.272	0.0164712
889.350	0.0163741
889.428	0.0162403
889.506	0.0161369
889.584	0.0163429
889.663	0.0161525
889.741	0.0161882
889.819	0.0161713
889.897	0.0159966
889.975	0.0161028
890.053	0.0159837
890.131	0.0160883
890.209	0.0161478
890.288	0.0161572
890.366	0.0161514
890.444	0.0162029
890.522	0.0163028
890.600	0.0162200
890.678	0.0162473
890.756	0.0161396
890.834	0.0163163
890.913	0.0163028
890.991	0.0163666
891.069	0.0162901
891.147	0.0163468
891.225	0.0164275
891.303	0.0163957
891.381	0.0163771
891.459	0.0163659
891.538	0.0163864
891.616	0.0162805
891.694	0.0164181
891.772	0.0163713
891.850	0.0161909
891.928	0.0162624
892.006	0.0163601
892.084	0.0163100
892.163	0.0161129
892.241	0.0162622
892.319	0.0161989
892.397	0.0162232
892.475	0.0160842
892.553	0.0161255
892.631	0.0161268
892.709	0.0161160
892.788	0.0161878
892.866	0.0162896
892.944	0.0162449
893.022	0.0162853
893.100	0.0160990
893.178	0.0161335
893.256	0.0161036
893.334	0.0160276
893.413	0.0164390
893.491	0.0161971
893.569	0.0161481
893.647	0.0161836
893.725	0.0162063
893.803	0.0162646
893.881	0.0160223
893.959	0.0158221
894.038	0.0159689
894.116	0.0157942
894.194	0.0159219
894.272	0.0158200
894.350	0.0157768
894.428	0.0157915
894.506	0.0159094
894.584	0.0158580
894.663	0.0157448
894.741	0.0158937
894.819	0.0160014
894.897	0.0160172
894.975	0.0161739
895.053	0.0161063
895.131	0.0162849
895.209	0.0163504
895.288	0.0164477
895.366	0.0163300
895.444	0.0164421
895.522	0.0165347
895.600	0.0164901
895.678	0.0162875
895.756	0.0162668
895.834	0.0164549
895.913	0.0163834
895.991	0.0163481
896.069	0.0162772
896.147	0.0163688
896.225	0.0161939
896.303	0.0163190
896.381	0.0162154
896.459	0.0162616
896.538	0.0162403
896.616	0.0162372
896.694	0.0161172
896.772	0.0161111
896.850	0.0162453
896.928	0.0161439
897.006	0.0160809
897.084	0.0160454
897.163	0.0161443
897.241	0.0159626
897.319	0.0159069
897.397	0.0159793
897.475	0.0159054
897.553	0.0159201
897.631	0.0161021
897.709	0.0159687
897.788	0.0160678
897.866	0.0159964
897.944	0.0159869
898.022	0.0160193
898.100	0.0160728
898.178	0.0162081
898.256	0.0162219
898.334	0.0164169
898.413	0.0164446
898.491	0.0164500
898.569	0.0164729
898.647	0.0165818
898.725	0.0165363
898.803	0.0166113
898.881	0.0165307
898.959	0.0164789
899.038	0.0163945
899.116	0.0164059
899.194	0.0162888
899.272	0.0162189
899.350	0.0161797
899.428	0.0160609
899.506	0.0159779
899.584	0.0159776
899.663	0.0161102
899.741	0.0160158
899.819	0.0160870
899.897	0.0160970
899.975	0.0160688
900.053	0.0161545
900.131	0.0161893
900.209	0.0162036
900.288	0.0163610
900.366	0.0163229
900.444	0.0164521
900.522	0.0165794
900.600	0.0164003
900.678	0.0163096
900.756	0.0163309
900.834	0.0162594
900.913	0.0163359
900.991	0.0163496
901.069	0.0164542
901.147	0.0162589
901.225	0.0162891
901.303	0.0162949
901.381	0.0164267
901.459	0.0164413
901.538	0.0163031
901.616	0.0163036
901.694	0.0162563
901.772	0.0164613
901.850	0.0163539
901.928	0.0163201
902.006	0.0163023
902.084	0.0162002
902.163	0.0162334
902.241	0.0161826
902.319	0.0162287
902.397	0.0161455
902.475	0.0160811
902.553	0.0159125
902.631	0.0159884
902.709	0.0159116
902.788	0.0158807
902.866	0.0159432
902.944	0.0161077
903.022	0.0157864
903.100	0.0159129
903.178	0.0158771
903.256	0.0159027
903.334	0.0157330
903.413	0.0158614
903.491	0.0157763
903.569	0.0158554
903.647	0.0158220
903.725	0.0159814
903.803	0.0159813
903.881	0.0160915
903.959	0.0161665
904.038	0.0161004
904.116	0.0161051
904.194	0.0162949
904.272	0.0163950
904.350	0.0162923
904.428	0.0162860
904.506	0.0163612
904.584	0.0164955
904.663	0.0163586
904.741	0.0163408
904.819	0.0163545
904.897	0.0163488
904.975	0.0164512
905.053	0.0162392
905.131	0.0163737
905.209	0.0163103
905.288	0.0162679
905.366	0.0161508
905.444	0.0160283
905.522	0.0160660
905.600	0.0159676
905.678	0.0160365
905.756	0.0160187
905.834	0.0158624
905.913	0.0161211
905.991	0.0160805
906.069	0.0160447
906.147	0.0162329
906.225	0.0160576
906.303	0.0160835
906.381	0.0160182
906.459	0.0161282
906.538	0.0161460
906.616	0.0161030
906.694	0.0160452
906.772	0.0162131
906.850	0.0162187
906.928	0.0162759
907.006	0.0163650
907.084	0.0163425
907.163	0.0161533
907.241	0.0162416
907.319	0.0162874
907.397	0.0162294
907.475	0.0161707
907.553	0.0163451
907.631	0.0162748
907.709	0.0162709
907.788	0.0163259
907.866	0.0162260
907.944	0.0162620
908.022	0.0162726
908.100	0.0163126
908.178	0.0161062
908.256	0.0162795
908.334	0.0161271
908.413	0.0161251
908.491	0.0160912
908.569	0.0159943
908.647	0.0159288
908.725	0.0160588
908.803	0.0159717
908.881	0.0158922
908.959	0.0157888
909.038	0.0158204
909.116	0.0156822
909.194	0.0157578
909.272	0.0157536
909.350	0.0158227
909.428	0.0157127
909.506	0.0159447
909.584	0.0159537
909.663	0.0159056
909.741	0.0159197
909.819	0.0159490
909.897	0.0160614
909.975	0.0160902
910.053	0.0160551
910.131	0.0161424
910.209	0.0160838
910.288	0.0163603
910.366	0.0162514
910.444	0.0162506
910.522	0.0161720
910.600	0.0162708
910.678	0.0162040
910.756	0.0161066
910.834	0.0162636
910.913	0.0162119
910.991	0.0162402
911.069	0.0162447
911.147	0.0161507
911.225	0.0161543
911.303	0.0160966
911.381	0.0161752
911.459	0.0161225
911.538	0.0159533
911.616	0.0161324
911.694	0.0162410
911.772	0.0161403
911.850	0.0162404
911.928	0.0161635
912.006	0.0162524
912.084	0.0161530
912.163	0.0162005
912.241	0.0162714
912.319	0.0161723
912.397	0.0161317
912.475	0.0161648
912.553	0.0162135
912.631	0.0160876
912.709	0.0161303
912.788	0.0161003
912.866	0.0160886
912.944	0.0159687
913.022	0.0160135
913.100	0.0159916
913.178	0.0159978
913.256	0.0160270
913.334	0.0159372
913.413	0.0160209
913.491	0.0159615
913.569	0.0160485
913.647	0.0160423
913.725	0.0162592
913.803	0.0162157
913.881	0.0162170
913.959	0.0162179
914.038	0.0163816
914.116	0.0164722
914.194	0.0164036
914.272	0.0163088
914.350	0.0162836
914.428	0.0163602
914.506	0.0164920
914.584	0.0164285
914.663	0.0162733
914.741	0.0163249
914.819	0.0164368
914.897	0.0163277
914.975	0.0160828
915.053	0.0164227
915.131	0.0164338
915.209	0.0161998
915.288	0.0162638
915.366	0.0161745
915.444	0.0163283
915.522	0.0161910
915.600	0.0162085
915.678	0.0160732
915.756	0.0161755
915.834	0.0162041
915.913	0.0161169
915.991	0.0161118
916.069	0.0160618
916.147	0.0161640
916.225	0.0162309
916.303	0.0163322
916.381	0.0163586
916.459	0.0163747
916.538	0.0165037
916.616	0.0163280
916.694	0.0162904
916.772	0.0163132
916.850	0.0163894
916.928	0.0165098
917.006	0.0165108
917.084	0.0163909
917.163	0.0164034
917.241	0.0163171
917.319	0.0163165
917.397	0.0163028
917.475	0.0162426
917.553	0.0162445
917.631	0.0161310
917.709	0.0160732
917.788	0.0161109
917.866	0.0162554
917.944	0.0161207
918.022	0.0159436
918.100	0.0160371
918.178	0.0160519
918.256	0.0160226
918.334	0.0160308
918.413	0.0161084
918.491	0.0160018
918.569	0.0159160
918.647	0.0160561
918.725	0.0160314
918.803	0.0159556
918.881	0.0160844
918.959	0.0158765
919.038	0.0160690
919.116	0.0160985
919.194	0.0160801
919.272	0.0160883
919.350	0.0161447
919.428	0.0161216
919.506	0.0163123
919.584	0.0164128
919.663	0.0164868
919.741	0.0164452
919.819	0.0164719
919.897	0.0163649
