05/20/2022	21:05:13	Ver.	4.1	UNKNOWN
Optical Delay	599.975067	Delta X		0.078125	Sweeps	1	Scan Rate	0/0
Coordinates	Axis 1	NaN	Axis 2	NaN	Axis 3	NaN	Axis 4	NaN	Axis 5	NaN	Axis 6	0.000000
TX Power	0.000000	RX Power	0.000000

599.975	0.0158578
600.053	0.0158105
600.131	0.0157966
600.209	0.0158489
600.288	0.0158278
600.366	0.0158449
600.444	0.0158453
600.522	0.0157809
600.600	0.0157997
600.678	0.0157881
600.756	0.0159039
600.834	0.0158749
600.913	0.0158473
600.991	0.0158268
601.069	0.0157222
601.147	0.0158047
601.225	0.0157799
601.303	0.0157478
601.381	0.0158504
601.459	0.0158976
601.538	0.0157574
601.616	0.0158356
601.694	0.0157198
601.772	0.0157485
601.850	0.0158045
601.928	0.0156879
602.006	0.0158837
602.084	0.0158282
602.163	0.0158540
602.241	0.0157594
602.319	0.0157619
602.397	0.0158727
602.475	0.0158383
602.553	0.0157559
602.631	0.0158328
602.709	0.0158721
602.788	0.0158100
602.866	0.0156983
602.944	0.0157281
603.022	0.0157877
603.100	0.0156602
603.178	0.0157188
603.256	0.0157947
603.334	0.0158620
603.413	0.0158408
603.491	0.0159052
603.569	0.0156900
603.647	0.0156821
603.725	0.0158469
603.803	0.0158809
603.881	0.0156597
603.959	0.0158997
604.038	0.0158437
604.116	0.0159149
604.194	0.0157943
604.272	0.0157302
604.350	0.0156414
604.428	0.0156864
604.506	0.0157965
604.584	0.0156754
604.663	0.0158144
604.741	0.0157977
604.819	0.0157790
604.897	0.0156949
604.975	0.0157527
605.053	0.0158076
605.131	0.0157921
605.209	0.0157943
605.288	0.0157183
605.366	0.0156953
605.444	0.0157002
605.522	0.0157611
605.600	0.0156362
605.678	0.0156285
605.756	0.0158514
605.834	0.0158300
605.913	0.0157928
605.991	0.0157625
606.069	0.0157568
606.147	0.0155043
606.225	0.0156516
606.303	0.0156712
606.381	0.0156738
606.459	0.0158718
606.538	0.0156557
606.616	0.0154930
606.694	0.0155785
606.772	0.0157511
606.850	0.0156013
606.928	0.0156851
607.006	0.0156519
607.084	0.0156115
607.163	0.0155704
607.241	0.0157436
607.319	0.0156950
607.397	0.0154444
607.475	0.0156093
607.553	0.0157600
607.631	0.0155067
607.709	0.0157525
607.788	0.0155820
607.866	0.0157065
607.944	0.0157894
608.022	0.0156590
608.100	0.0157256
608.178	0.0157542
608.256	0.0156013
608.334	0.0156136
608.413	0.0155403
608.491	0.0156999
608.569	0.0156093
608.647	0.0154186
608.725	0.0157651
608.803	0.0157434
608.881	0.0156741
608.959	0.0157412
609.038	0.0156846
609.116	0.0156788
609.194	0.0156516
609.272	0.0156889
609.350	0.0156488
609.428	0.0155191
609.506	0.0157938
609.584	0.0156592
609.663	0.0157014
609.741	0.0158034
609.819	0.0156904
609.897	0.0157208
609.975	0.0156063
610.053	0.0155401
610.131	0.0155865
610.209	0.0156594
610.288	0.0155962
610.366	0.0156824
610.444	0.0157296
610.522	0.0157032
610.600	0.0156676
610.678	0.0157456
610.756	0.0156483
610.834	0.0156925
610.913	0.0157558
610.991	0.0157793
611.069	0.0156360
611.147	0.0156937
611.225	0.0157603
611.303	0.0155835
611.381	0.0156692
611.459	0.0158199
611.538	0.0156557
611.616	0.0156842
611.694	0.0157983
611.772	0.0158167
611.850	0.0157241
611.928	0.0156738
612.006	0.0157684
612.084	0.0157708
612.163	0.0156783
612.241	0.0157794
612.319	0.0158811
612.397	0.0158233
612.475	0.0157890
612.553	0.0158313
612.631	0.0157738
612.709	0.0156821
612.788	0.0157830
612.866	0.0157877
612.944	0.0157048
613.022	0.0158398
613.100	0.0157661
613.178	0.0158559
613.256	0.0158188
613.334	0.0156901
613.413	0.0157616
613.491	0.0158247
613.569	0.0156992
613.647	0.0158293
613.725	0.0157238
613.803	0.0157214
613.881	0.0157897
613.959	0.0157730
614.038	0.0157460
614.116	0.0157688
614.194	0.0156939
614.272	0.0157062
614.350	0.0156008
614.428	0.0157561
614.506	0.0157005
614.584	0.0156718
614.663	0.0156775
614.741	0.0156213
614.819	0.0157830
614.897	0.0157387
614.975	0.0156383
615.053	0.0156821
615.131	0.0157999
615.209	0.0157413
615.288	0.0158456
615.366	0.0157793
615.444	0.0156009
615.522	0.0156790
615.600	0.0159313
615.678	0.0158733
615.756	0.0157681
615.834	0.0158720
615.913	0.0158675
615.991	0.0158858
616.069	0.0157777
616.147	0.0159101
616.225	0.0158344
616.303	0.0157320
616.381	0.0158588
616.459	0.0158018
616.538	0.0157733
616.616	0.0158109
616.694	0.0158997
616.772	0.0159109
616.850	0.0158891
616.928	0.0157844
617.006	0.0158356
617.084	0.0159396
617.163	0.0159778
617.241	0.0159978
617.319	0.0158125
617.397	0.0157883
617.475	0.0158611
617.553	0.0158241
617.631	0.0158190
617.709	0.0158502
617.788	0.0158892
617.866	0.0159074
617.944	0.0158143
618.022	0.0158182
618.100	0.0159643
618.178	0.0158741
618.256	0.0158952
618.334	0.0159003
618.413	0.0159261
618.491	0.0157533
618.569	0.0158136
618.647	0.0158205
618.725	0.0159130
618.803	0.0158456
618.881	0.0158755
618.959	0.0158221
619.038	0.0158556
619.116	0.0159036
619.194	0.0159820
619.272	0.0159361
619.350	0.0158205
619.428	0.0157480
619.506	0.0158679
619.584	0.0160750
619.663	0.0159315
619.741	0.0158282
619.819	0.0158717
619.897	0.0157735
619.975	0.0158849
620.053	0.0158702
620.131	0.0158697
620.209	0.0158150
620.288	0.0158517
620.366	0.0157758
620.444	0.0158177
620.522	0.0157404
620.600	0.0158094
620.678	0.0156939
620.756	0.0157802
620.834	0.0158226
620.913	0.0156587
620.991	0.0157643
621.069	0.0157653
621.147	0.0157755
621.225	0.0157849
621.303	0.0157036
621.381	0.0157212
621.459	0.0158050
621.538	0.0158077
621.616	0.0157800
621.694	0.0157424
621.772	0.0157698
621.850	0.0157834
621.928	0.0157898
622.006	0.0158167
622.084	0.0157844
622.163	0.0157629
622.241	0.0157868
622.319	0.0157643
622.397	0.0156824
622.475	0.0157746
622.553	0.0157544
622.631	0.0158195
622.709	0.0157902
622.788	0.0157154
622.866	0.0156255
622.944	0.0156655
623.022	0.0156519
623.100	0.0157679
623.178	0.0156741
623.256	0.0156937
623.334	0.0156274
623.413	0.0158512
623.491	0.0157879
623.569	0.0157999
623.647	0.0156966
623.725	0.0156316
623.803	0.0157774
623.881	0.0157687
623.959	0.0158889
624.038	0.0156903
624.116	0.0157203
624.194	0.0157256
624.272	0.0157122
624.350	0.0158302
624.428	0.0157014
624.506	0.0157910
624.584	0.0157133
624.663	0.0156198
624.741	0.0158119
624.819	0.0157267
624.897	0.0157106
624.975	0.0157993
625.053	0.0157727
625.131	0.0156989
625.209	0.0155511
625.288	0.0157639
625.366	0.0158114
625.444	0.0159465
625.522	0.0158926
625.600	0.0158020
625.678	0.0158784
625.756	0.0157980
625.834	0.0157909
625.913	0.0157922
625.991	0.0158092
626.069	0.0158767
626.147	0.0157107
626.225	0.0158691
626.303	0.0158029
626.381	0.0156730
626.459	0.0157346
626.538	0.0158839
626.616	0.0158784
626.694	0.0158278
626.772	0.0157661
626.850	0.0156977
626.928	0.0158859
627.006	0.0158783
627.084	0.0157000
627.163	0.0157654
627.241	0.0157744
627.319	0.0156207
627.397	0.0156998
627.475	0.0157990
627.553	0.0158328
627.631	0.0157989
627.709	0.0156750
627.788	0.0157082
627.866	0.0156832
627.944	0.0157439
628.022	0.0156589
628.100	0.0156384
628.178	0.0158139
628.256	0.0157507
628.334	0.0157594
628.413	0.0157394
628.491	0.0155869
628.569	0.0155539
628.647	0.0156665
628.725	0.0157565
628.803	0.0157746
628.881	0.0156936
628.959	0.0157541
629.038	0.0158515
629.116	0.0156638
629.194	0.0158833
629.272	0.0158527
629.350	0.0157137
629.428	0.0156734
629.506	0.0157213
629.584	0.0156404
629.663	0.0157427
629.741	0.0157476
629.819	0.0157156
629.897	0.0158324
629.975	0.0158207
630.053	0.0156618
630.131	0.0157140
630.209	0.0155455
630.288	0.0156938
630.366	0.0156382
630.444	0.0156990
630.522	0.0159254
630.600	0.0156950
630.678	0.0157412
630.756	0.0157902
630.834	0.0156963
630.913	0.0158257
630.991	0.0156828
631.069	0.0157000
631.147	0.0158293
631.225	0.0158131
631.303	0.0158293
631.381	0.0157499
631.459	0.0157983
631.538	0.0157378
631.616	0.0157903
631.694	0.0158000
631.772	0.0157405
631.850	0.0158033
631.928	0.0157572
632.006	0.0158219
632.084	0.0156506
632.163	0.0158968
632.241	0.0157967
632.319	0.0158757
632.397	0.0159624
632.475	0.0160273
632.553	0.0158699
632.631	0.0158465
632.709	0.0157309
632.788	0.0158566
632.866	0.0159150
632.944	0.0158549
633.022	0.0156966
633.100	0.0158763
633.178	0.0158596
633.256	0.0157930
633.334	0.0159541
633.413	0.0157670
633.491	0.0158923
633.569	0.0158928
633.647	0.0158014
633.725	0.0158220
633.803	0.0158893
633.881	0.0157571
633.959	0.0158988
634.038	0.0158347
634.116	0.0157967
634.194	0.0156773
634.272	0.0158249
634.350	0.0159116
634.428	0.0158577
634.506	0.0158066
634.584	0.0159048
634.663	0.0158257
634.741	0.0158784
634.819	0.0157330
634.897	0.0156853
634.975	0.0157767
635.053	0.0158511
635.131	0.0157708
635.209	0.0158130
635.288	0.0157953
635.366	0.0158430
635.444	0.0157762
635.522	0.0157988
635.600	0.0159388
635.678	0.0158124
635.756	0.0158306
635.834	0.0158588
635.913	0.0158631
635.991	0.0157575
636.069	0.0158316
636.147	0.0158687
636.225	0.0157123
636.303	0.0159022
636.381	0.0158338
636.459	0.0158946
636.538	0.0157117
636.616	0.0157029
636.694	0.0158592
636.772	0.0157976
636.850	0.0158170
636.928	0.0157754
637.006	0.0156786
637.084	0.0156729
637.163	0.0157782
637.241	0.0158469
637.319	0.0158031
637.397	0.0159029
637.475	0.0158314
637.553	0.0158575
637.631	0.0157398
637.709	0.0157671
637.788	0.0157677
637.866	0.0157023
637.944	0.0158273
638.022	0.0157452
638.100	0.0157752
638.178	0.0156807
638.256	0.0157863
638.334	0.0157793
638.413	0.0156767
638.491	0.0158631
638.569	0.0158797
638.647	0.0155376
638.725	0.0157333
638.803	0.0158173
638.881	0.0156436
638.959	0.0158025
639.038	0.0157549
639.116	0.0157766
639.194	0.0157499
639.272	0.0157714
639.350	0.0157993
639.428	0.0158198
639.506	0.0157403
639.584	0.0156578
639.663	0.0158155
639.741	0.0157487
639.819	0.0158468
639.897	0.0157658
639.975	0.0157323
640.053	0.0157811
640.131	0.0159650
640.209	0.0157860
640.288	0.0157416
640.366	0.0158764
640.444	0.0158443
640.522	0.0158500
640.600	0.0156556
640.678	0.0157571
640.756	0.0158366
640.834	0.0157946
640.913	0.0156876
640.991	0.0158129
641.069	0.0156408
641.147	0.0157753
641.225	0.0158685
641.303	0.0158213
641.381	0.0157084
641.459	0.0156911
641.538	0.0157475
641.616	0.0157077
641.694	0.0156739
641.772	0.0158131
641.850	0.0158014
641.928	0.0157889
642.006	0.0158553
642.084	0.0158360
642.163	0.0158286
642.241	0.0157107
642.319	0.0156776
642.397	0.0158601
642.475	0.0157233
642.553	0.0156397
642.631	0.0157617
642.709	0.0157504
642.788	0.0157608
642.866	0.0157290
642.944	0.0156882
643.022	0.0156950
643.100	0.0157469
643.178	0.0157644
643.256	0.0156873
643.334	0.0156544
643.413	0.0156905
643.491	0.0157349
643.569	0.0155957
643.647	0.0157052
643.725	0.0157034
643.803	0.0158298
643.881	0.0156474
643.959	0.0157317
644.038	0.0156859
644.116	0.0157688
644.194	0.0156988
644.272	0.0159167
644.350	0.0157881
644.428	0.0158723
644.506	0.0158747
644.584	0.0159357
644.663	0.0158490
644.741	0.0159992
644.819	0.0159293
644.897	0.0158628
644.975	0.0159202
645.053	0.0159133
645.131	0.0158907
645.209	0.0157862
645.288	0.0158904
645.366	0.0158315
645.444	0.0156974
645.522	0.0156819
645.600	0.0154543
645.678	0.0157396
645.756	0.0157588
645.834	0.0155455
645.913	0.0157401
645.991	0.0156648
646.069	0.0155811
646.147	0.0156261
646.225	0.0156343
646.303	0.0156368
646.381	0.0156255
646.459	0.0156917
646.538	0.0156578
646.616	0.0157335
646.694	0.0157652
646.772	0.0158284
646.850	0.0158518
646.928	0.0157674
647.006	0.0158160
647.084	0.0159050
647.163	0.0158948
647.241	0.0158457
647.319	0.0159284
647.397	0.0158753
647.475	0.0158974
647.553	0.0158669
647.631	0.0159061
647.709	0.0158546
647.788	0.0159301
647.866	0.0158974
647.944	0.0158493
648.022	0.0158349
648.100	0.0158689
648.178	0.0156976
648.256	0.0157584
648.334	0.0158292
648.413	0.0157977
648.491	0.0158232
648.569	0.0157063
648.647	0.0158340
648.725	0.0157299
648.803	0.0156502
648.881	0.0156552
648.959	0.0157142
649.038	0.0156876
649.116	0.0157005
649.194	0.0157204
649.272	0.0156934
649.350	0.0157777
649.428	0.0157607
649.506	0.0156273
649.584	0.0155888
649.663	0.0156580
649.741	0.0158169
649.819	0.0156998
649.897	0.0156259
649.975	0.0157014
650.053	0.0155601
650.131	0.0156929
650.209	0.0156007
650.288	0.0157114
650.366	0.0156956
650.444	0.0156207
650.522	0.0155874
650.600	0.0156558
650.678	0.0157861
650.756	0.0158808
650.834	0.0158651
650.913	0.0158224
650.991	0.0159149
651.069	0.0159331
651.147	0.0159865
651.225	0.0159728
651.303	0.0160360
651.381	0.0159861
651.459	0.0159177
651.538	0.0159742
651.616	0.0159726
651.694	0.0161433
651.772	0.0161373
651.850	0.0159978
651.928	0.0160282
652.006	0.0158876
652.084	0.0158833
652.163	0.0159771
652.241	0.0160146
652.319	0.0157745
652.397	0.0158349
652.475	0.0159556
652.553	0.0158197
652.631	0.0158263
652.709	0.0157567
652.788	0.0157641
652.866	0.0156821
652.944	0.0156966
653.022	0.0156392
653.100	0.0155775
653.178	0.0156154
653.256	0.0156261
653.334	0.0156762
653.413	0.0154858
653.491	0.0154368
653.569	0.0154424
653.647	0.0155559
653.725	0.0154888
653.803	0.0153767
653.881	0.0156146
653.959	0.0155241
654.038	0.0156046
654.116	0.0155547
654.194	0.0156467
654.272	0.0157014
654.350	0.0158554
654.428	0.0158115
654.506	0.0157949
654.584	0.0158160
654.663	0.0159002
654.741	0.0159409
654.819	0.0159728
654.897	0.0160364
654.975	0.0161366
655.053	0.0161430
655.131	0.0161190
655.209	0.0161799
655.288	0.0161828
655.366	0.0162694
655.444	0.0162253
655.522	0.0160943
655.600	0.0160847
655.678	0.0161356
655.756	0.0160264
655.834	0.0161398
655.913	0.0160334
655.991	0.0158519
656.069	0.0158625
656.147	0.0158137
656.225	0.0156265
656.303	0.0157152
656.381	0.0157064
656.459	0.0157032
656.538	0.0156393
656.616	0.0155851
656.694	0.0153744
656.772	0.0155292
656.850	0.0154443
656.928	0.0155099
657.006	0.0156809
657.084	0.0156113
657.163	0.0155477
657.241	0.0155343
657.319	0.0156332
657.397	0.0155469
657.475	0.0155458
657.553	0.0158491
657.631	0.0157167
657.709	0.0156340
657.788	0.0157848
657.866	0.0157578
657.944	0.0156770
658.022	0.0157658
658.100	0.0156787
658.178	0.0158439
658.256	0.0158688
658.334	0.0157661
658.413	0.0158552
658.491	0.0157871
658.569	0.0159759
658.647	0.0159615
658.725	0.0159442
658.803	0.0159259
658.881	0.0160632
658.959	0.0159427
659.038	0.0160397
659.116	0.0161954
659.194	0.0161655
659.272	0.0162225
659.350	0.0162344
659.428	0.0160912
659.506	0.0160452
659.584	0.0160841
659.663	0.0162107
659.741	0.0161269
659.819	0.0160678
659.897	0.0160119
659.975	0.0159209
660.053	0.0158113
660.131	0.0156471
660.209	0.0158186
660.288	0.0156496
660.366	0.0154580
660.444	0.0156105
660.522	0.0155508
660.600	0.0154503
660.678	0.0154299
660.756	0.0154853
660.834	0.0154736
660.913	0.0153917
660.991	0.0154074
661.069	0.0154748
661.147	0.0153970
661.225	0.0154327
661.303	0.0153632
661.381	0.0154249
661.459	0.0155537
661.538	0.0156425
661.616	0.0156734
661.694	0.0156276
661.772	0.0156434
661.850	0.0156820
661.928	0.0157027
662.006	0.0157311
662.084	0.0158794
662.163	0.0156941
662.241	0.0157069
662.319	0.0159645
662.397	0.0158394
662.475	0.0158819
662.553	0.0158343
662.631	0.0158531
662.709	0.0160221
662.788	0.0158035
662.866	0.0158668
662.944	0.0158325
663.022	0.0157230
663.100	0.0157981
663.178	0.0157927
663.256	0.0158049
663.334	0.0156933
663.413	0.0156308
663.491	0.0155594
663.569	0.0156496
663.647	0.0156210
663.725	0.0155817
663.803	0.0155391
663.881	0.0155869
663.959	0.0155933
664.038	0.0156179
664.116	0.0156865
664.194	0.0154905
664.272	0.0154247
664.350	0.0155703
664.428	0.0154945
664.506	0.0155473
664.584	0.0155089
664.663	0.0155079
664.741	0.0155067
664.819	0.0155107
664.897	0.0155948
664.975	0.0155640
665.053	0.0155433
665.131	0.0154950
665.209	0.0155002
665.288	0.0156487
665.366	0.0156485
665.444	0.0155988
665.522	0.0156307
665.600	0.0156164
665.678	0.0158566
665.756	0.0157959
665.834	0.0157271
665.913	0.0158748
665.991	0.0158131
666.069	0.0158607
666.147	0.0157993
666.225	0.0158532
666.303	0.0159029
666.381	0.0160006
666.459	0.0159241
666.538	0.0158417
666.616	0.0159571
666.694	0.0158701
666.772	0.0157701
666.850	0.0157672
666.928	0.0159018
667.006	0.0158732
667.084	0.0158517
667.163	0.0158347
667.241	0.0158246
667.319	0.0156837
667.397	0.0157343
667.475	0.0158447
667.553	0.0156987
667.631	0.0157509
667.709	0.0158833
667.788	0.0157475
667.866	0.0156616
667.944	0.0157082
668.022	0.0157925
668.100	0.0157304
668.178	0.0158634
668.256	0.0156828
668.334	0.0156702
668.413	0.0157557
668.491	0.0158280
668.569	0.0157461
668.647	0.0158515
668.725	0.0158401
668.803	0.0159314
668.881	0.0160507
668.959	0.0157001
669.038	0.0158377
669.116	0.0158870
669.194	0.0158290
669.272	0.0159882
669.350	0.0159423
669.428	0.0158170
669.506	0.0159152
669.584	0.0158617
669.663	0.0158144
669.741	0.0157374
669.819	0.0158708
669.897	0.0156543
669.975	0.0157829
670.053	0.0157458
670.131	0.0158067
670.209	0.0157567
670.288	0.0156372
670.366	0.0156501
670.444	0.0156472
670.522	0.0156786
670.600	0.0158485
670.678	0.0156671
670.756	0.0156629
670.834	0.0157807
670.913	0.0157833
670.991	0.0157592
671.069	0.0157807
671.147	0.0158910
671.225	0.0157679
671.303	0.0158590
671.381	0.0158059
671.459	0.0159222
671.538	0.0158224
671.616	0.0158009
671.694	0.0158230
671.772	0.0159467
671.850	0.0158363
671.928	0.0158199
672.006	0.0159739
672.084	0.0159315
672.163	0.0158162
672.241	0.0159132
672.319	0.0158681
672.397	0.0159269
672.475	0.0157839
672.553	0.0157665
672.631	0.0158000
672.709	0.0157233
672.788	0.0156469
672.866	0.0156816
672.944	0.0157468
673.022	0.0155788
673.100	0.0155533
673.178	0.0156819
673.256	0.0156015
673.334	0.0157478
673.413	0.0156987
673.491	0.0156866
673.569	0.0157854
673.647	0.0157639
673.725	0.0158502
673.803	0.0158504
673.881	0.0158642
673.959	0.0159801
674.038	0.0159425
674.116	0.0157658
674.194	0.0159480
674.272	0.0158195
674.350	0.0158307
674.428	0.0158954
674.506	0.0159082
674.584	0.0157613
674.663	0.0155959
674.741	0.0157209
674.819	0.0157719
674.897	0.0157515
674.975	0.0157185
675.053	0.0155845
675.131	0.0156734
675.209	0.0156650
675.288	0.0155229
675.366	0.0155511
675.444	0.0156532
675.522	0.0157746
675.600	0.0156845
675.678	0.0157408
675.756	0.0157571
675.834	0.0158204
675.913	0.0157370
675.991	0.0157893
676.069	0.0157420
676.147	0.0160433
676.225	0.0159695
676.303	0.0158336
676.381	0.0159467
676.459	0.0159244
676.538	0.0159499
676.616	0.0158702
676.694	0.0158452
676.772	0.0158537
676.850	0.0158422
676.928	0.0157497
677.006	0.0158482
677.084	0.0157679
677.163	0.0157940
677.241	0.0158794
677.319	0.0159281
677.397	0.0156174
677.475	0.0158972
677.553	0.0158200
677.631	0.0158109
677.709	0.0157970
677.788	0.0158931
677.866	0.0158618
677.944	0.0158144
678.022	0.0158727
678.100	0.0157316
678.178	0.0157526
678.256	0.0156409
678.334	0.0154910
678.413	0.0153905
678.491	0.0153777
678.569	0.0152589
678.647	0.0151238
678.725	0.0151183
678.803	0.0153078
678.881	0.0151713
678.959	0.0152674
679.038	0.0152458
679.116	0.0152962
679.194	0.0153729
679.272	0.0156419
679.350	0.0156542
679.428	0.0158065
679.506	0.0158249
679.584	0.0161091
679.663	0.0163510
679.741	0.0164423
679.819	0.0165283
679.897	0.0166916
679.975	0.0167036
680.053	0.0167933
680.131	0.0165787
680.209	0.0166037
680.288	0.0163219
680.366	0.0162451
680.444	0.0160262
680.522	0.0157964
680.600	0.0155717
680.678	0.0153658
680.756	0.0151744
680.834	0.0150430
680.913	0.0148872
680.991	0.0147801
681.069	0.0145990
681.147	0.0144485
681.225	0.0144957
681.303	0.0144953
681.381	0.0147364
681.459	0.0147892
681.538	0.0149699
681.616	0.0152757
681.694	0.0153648
681.772	0.0155110
681.850	0.0158566
681.928	0.0160669
682.006	0.0162738
682.084	0.0163924
682.163	0.0165726
682.241	0.0167754
682.319	0.0168198
682.397	0.0169572
682.475	0.0170061
682.553	0.0168063
682.631	0.0168877
682.709	0.0166750
682.788	0.0167240
682.866	0.0166443
682.944	0.0164153
683.022	0.0161969
683.100	0.0162839
683.178	0.0161268
683.256	0.0159451
683.334	0.0156283
683.413	0.0155735
683.491	0.0154671
683.569	0.0153627
683.647	0.0152644
683.725	0.0150512
683.803	0.0149031
683.881	0.0146957
683.959	0.0147009
684.038	0.0147580
684.116	0.0148660
684.194	0.0148514
684.272	0.0146873
684.350	0.0148228
684.428	0.0151336
684.506	0.0150623
684.584	0.0152651
684.663	0.0154438
684.741	0.0155633
684.819	0.0156554
684.897	0.0157964
684.975	0.0160539
685.053	0.0160999
685.131	0.0161639
685.209	0.0162032
685.288	0.0163517
685.366	0.0161118
685.444	0.0160850
685.522	0.0161569
685.600	0.0160103
685.678	0.0159676
685.756	0.0157621
685.834	0.0156984
685.913	0.0155180
685.991	0.0153835
686.069	0.0154194
686.147	0.0152754
686.225	0.0154101
686.303	0.0152422
686.381	0.0151900
686.459	0.0152071
686.538	0.0151614
686.616	0.0151540
686.694	0.0152789
686.772	0.0153010
686.850	0.0154642
686.928	0.0155216
687.006	0.0155311
687.084	0.0155411
687.163	0.0155734
687.241	0.0158229
687.319	0.0158464
687.397	0.0159925
687.475	0.0162173
687.553	0.0163848
687.631	0.0166299
687.709	0.0167128
687.788	0.0170383
687.866	0.0171777
687.944	0.0173505
688.022	0.0174580
688.100	0.0174612
688.178	0.0175552
688.256	0.0174789
688.334	0.0173071
688.413	0.0171402
688.491	0.0169786
688.569	0.0165468
688.647	0.0160860
688.725	0.0156860
688.803	0.0152433
688.881	0.0147098
688.959	0.0143773
689.038	0.0139382
689.116	0.0135413
689.194	0.0134039
689.272	0.0131243
689.350	0.0129669
689.428	0.0129359
689.506	0.0128298
689.584	0.0127589
689.663	0.0131171
689.741	0.0132326
689.819	0.0134309
689.897	0.0136611
689.975	0.0137714
690.053	0.0141470
690.131	0.0145255
690.209	0.0147251
690.288	0.0152447
690.366	0.0155435
690.444	0.0159533
690.522	0.0163967
690.600	0.0166843
690.678	0.0173814
690.756	0.0177513
690.834	0.0181631
690.913	0.0185239
690.991	0.0188354
691.069	0.0191413
691.147	0.0192857
691.225	0.0194191
691.303	0.0196314
691.381	0.0194772
691.459	0.0194143
691.538	0.0191330
691.616	0.0187674
691.694	0.0183542
691.772	0.0179734
691.850	0.0175552
691.928	0.0169461
692.006	0.0164282
692.084	0.0160317
692.163	0.0153941
692.241	0.0148091
692.319	0.0145033
692.397	0.0141540
692.475	0.0138538
692.553	0.0134512
692.631	0.0130710
692.709	0.0129391
692.788	0.0130368
692.866	0.0128386
692.944	0.0127277
693.022	0.0128386
693.100	0.0130537
693.178	0.0131962
693.256	0.0133195
693.334	0.0136906
693.413	0.0136986
693.491	0.0138725
693.569	0.0141780
693.647	0.0143295
693.725	0.0145255
693.803	0.0145017
693.881	0.0147069
693.959	0.0149789
694.038	0.0149464
694.116	0.0149581
694.194	0.0150710
694.272	0.0153046
694.350	0.0154079
694.428	0.0155948
694.506	0.0158826
694.584	0.0161858
694.663	0.0165992
694.741	0.0168985
694.819	0.0173041
694.897	0.0177344
694.975	0.0182297
695.053	0.0185800
695.131	0.0190954
695.209	0.0192875
695.288	0.0194652
695.366	0.0194630
695.444	0.0195703
695.522	0.0193572
695.600	0.0190745
695.678	0.0187534
695.756	0.0182310
695.834	0.0176870
695.913	0.0171805
695.991	0.0165835
696.069	0.0161509
696.147	0.0155897
696.225	0.0150895
696.303	0.0147626
696.381	0.0145445
696.459	0.0143065
696.538	0.0141422
696.616	0.0140928
696.694	0.0139852
696.772	0.0140305
696.850	0.0139811
696.928	0.0140247
697.006	0.0141309
697.084	0.0140673
697.163	0.0141782
697.241	0.0142701
697.319	0.0143244
697.397	0.0143711
697.475	0.0144110
697.553	0.0143931
697.631	0.0145091
697.709	0.0145873
697.788	0.0146258
697.866	0.0145436
697.944	0.0146568
698.022	0.0146355
698.100	0.0145815
698.178	0.0145739
698.256	0.0147110
698.334	0.0145436
698.413	0.0146516
698.491	0.0147483
698.569	0.0149865
698.647	0.0153405
698.725	0.0155006
698.803	0.0158980
698.881	0.0163284
698.959	0.0166982
699.038	0.0170023
699.116	0.0174621
699.194	0.0178789
699.272	0.0182745
699.350	0.0186237
699.428	0.0190102
699.506	0.0190824
699.584	0.0192957
699.663	0.0191816
699.741	0.0191454
699.819	0.0191729
699.897	0.0187812
699.975	0.0185379
700.053	0.0180556
700.131	0.0176706
700.209	0.0172325
700.288	0.0167230
700.366	0.0161303
700.444	0.0155719
700.522	0.0151006
700.600	0.0146215
700.678	0.0141800
700.756	0.0139242
700.834	0.0136321
700.913	0.0134917
700.991	0.0133358
701.069	0.0132327
701.147	0.0131502
701.225	0.0131804
701.303	0.0134308
701.381	0.0135483
701.459	0.0134979
701.538	0.0134650
701.616	0.0135805
701.694	0.0138492
701.772	0.0138609
701.850	0.0139561
701.928	0.0142145
702.006	0.0145335
702.084	0.0145890
702.163	0.0148759
702.241	0.0151070
702.319	0.0154636
702.397	0.0159137
702.475	0.0161689
702.553	0.0165331
702.631	0.0170447
702.709	0.0172758
702.788	0.0174516
702.866	0.0178491
702.944	0.0179970
703.022	0.0181877
703.100	0.0182165
703.178	0.0179830
703.256	0.0180045
703.334	0.0177898
703.413	0.0175808
703.491	0.0173481
703.569	0.0170184
703.647	0.0168082
703.725	0.0164107
703.803	0.0161220
703.881	0.0161043
703.959	0.0160263
704.038	0.0157248
704.116	0.0154967
704.194	0.0153979
704.272	0.0154288
704.350	0.0153218
704.428	0.0150019
704.506	0.0147255
704.584	0.0146142
704.663	0.0143035
704.741	0.0142841
704.819	0.0141586
704.897	0.0139916
704.975	0.0142601
705.053	0.0143032
705.131	0.0144061
705.209	0.0145876
705.288	0.0148095
705.366	0.0149961
705.444	0.0153358
705.522	0.0156856
705.600	0.0157182
705.678	0.0160435
705.756	0.0160099
705.834	0.0160366
705.913	0.0161005
705.991	0.0159691
706.069	0.0159996
706.147	0.0156709
706.225	0.0155225
706.303	0.0154612
706.381	0.0153870
706.459	0.0151506
706.538	0.0151308
706.616	0.0151453
706.694	0.0151254
706.772	0.0149172
706.850	0.0150021
706.928	0.0151199
707.006	0.0149300
707.084	0.0145751
707.163	0.0146478
707.241	0.0146484
707.319	0.0146812
707.397	0.0147094
707.475	0.0148309
707.553	0.0150052
707.631	0.0153114
707.709	0.0155777
707.788	0.0159336
707.866	0.0165020
707.944	0.0169131
708.022	0.0172338
708.100	0.0175922
708.178	0.0178749
708.256	0.0181081
708.334	0.0182899
708.413	0.0181252
708.491	0.0182121
708.569	0.0180116
708.647	0.0178015
708.725	0.0176918
708.803	0.0175534
708.881	0.0173240
708.959	0.0170835
709.038	0.0170383
709.116	0.0170391
709.194	0.0167426
709.272	0.0165109
709.350	0.0165304
709.428	0.0163420
709.506	0.0159986
709.584	0.0158701
709.663	0.0155054
709.741	0.0151345
709.819	0.0147652
709.897	0.0144232
709.975	0.0138801
710.053	0.0135995
710.131	0.0133581
710.209	0.0130284
710.288	0.0126785
710.366	0.0127828
710.444	0.0128275
710.522	0.0129483
710.600	0.0132595
710.678	0.0136317
710.756	0.0140697
710.834	0.0147007
710.913	0.0151194
710.991	0.0156812
711.069	0.0161897
711.147	0.0164690
711.225	0.0167617
711.303	0.0171857
711.381	0.0171648
711.459	0.0171314
711.538	0.0172379
711.616	0.0173162
711.694	0.0169262
711.772	0.0166296
711.850	0.0166013
711.928	0.0163592
712.006	0.0162023
712.084	0.0160968
712.163	0.0158482
712.241	0.0159557
712.319	0.0160319
712.397	0.0158534
712.475	0.0157610
712.553	0.0155949
712.631	0.0155966
712.709	0.0154613
712.788	0.0152211
712.866	0.0151694
712.944	0.0149377
713.022	0.0147330
713.100	0.0146896
713.178	0.0146161
713.256	0.0145553
713.334	0.0145074
713.413	0.0146889
713.491	0.0149440
713.569	0.0151286
713.647	0.0155943
713.725	0.0156091
713.803	0.0161356
713.881	0.0164729
713.959	0.0167296
714.038	0.0169671
714.116	0.0171725
714.194	0.0173158
714.272	0.0176077
714.350	0.0178011
714.428	0.0178873
714.506	0.0178192
714.584	0.0179557
714.663	0.0178410
714.741	0.0177547
714.819	0.0176585
714.897	0.0175239
714.975	0.0173538
715.053	0.0173841
715.131	0.0172768
715.209	0.0167777
715.288	0.0166510
715.366	0.0164725
715.444	0.0163242
715.522	0.0161082
715.600	0.0160448
715.678	0.0157388
715.756	0.0156544
715.834	0.0155128
715.913	0.0155122
715.991	0.0152816
716.069	0.0151944
716.147	0.0151787
716.225	0.0149030
716.303	0.0149055
716.381	0.0149471
716.459	0.0146212
716.538	0.0147220
716.616	0.0144938
716.694	0.0142079
716.772	0.0142177
716.850	0.0141406
716.928	0.0140418
717.006	0.0138239
717.084	0.0137170
717.163	0.0136022
717.241	0.0137145
717.319	0.0135791
717.397	0.0137077
717.475	0.0137904
717.553	0.0138110
717.631	0.0139561
717.709	0.0141721
717.788	0.0144777
717.866	0.0147454
717.944	0.0149940
718.022	0.0152626
718.100	0.0155196
718.178	0.0158340
718.256	0.0159313
718.334	0.0160007
718.413	0.0163861
718.491	0.0164169
718.569	0.0165150
718.647	0.0164719
718.725	0.0163871
718.803	0.0164648
718.881	0.0165633
718.959	0.0165778
719.038	0.0166095
719.116	0.0166747
719.194	0.0168860
719.272	0.0169489
719.350	0.0169250
719.428	0.0172478
719.506	0.0175224
719.584	0.0176208
719.663	0.0175394
719.741	0.0179221
719.819	0.0179765
719.897	0.0178449
719.975	0.0177119
720.053	0.0177415
720.131	0.0174183
720.209	0.0172262
720.288	0.0170730
720.366	0.0166808
720.444	0.0164622
720.522	0.0162076
720.600	0.0158396
720.678	0.0155862
720.756	0.0155095
720.834	0.0153992
720.913	0.0155869
720.991	0.0155968
721.069	0.0158058
721.147	0.0158029
721.225	0.0158929
721.303	0.0160686
721.381	0.0161166
721.459	0.0161312
721.538	0.0159485
721.616	0.0157990
721.694	0.0155740
721.772	0.0153978
721.850	0.0151026
721.928	0.0147842
722.006	0.0145872
722.084	0.0144141
722.163	0.0144016
722.241	0.0142292
722.319	0.0145238
722.397	0.0146269
722.475	0.0145872
722.553	0.0146953
722.631	0.0149092
722.709	0.0149697
722.788	0.0149046
722.866	0.0149139
722.944	0.0150569
723.022	0.0148396
723.100	0.0148179
723.178	0.0145518
723.256	0.0142741
723.334	0.0142741
723.413	0.0141039
723.491	0.0140728
723.569	0.0139326
723.647	0.0139929
723.725	0.0141663
723.803	0.0139920
723.881	0.0141635
723.959	0.0144767
724.038	0.0148621
724.116	0.0150038
724.194	0.0153892
724.272	0.0157932
724.350	0.0160649
724.428	0.0164739
724.506	0.0168801
724.584	0.0171909
724.663	0.0174594
724.741	0.0178530
724.819	0.0181501
724.897	0.0183794
724.975	0.0183247
725.053	0.0183297
725.131	0.0183376
725.209	0.0182246
725.288	0.0180109
725.366	0.0178029
725.444	0.0176256
725.522	0.0174067
725.600	0.0171880
725.678	0.0170115
725.756	0.0168728
725.834	0.0165547
725.913	0.0165343
725.991	0.0164345
726.069	0.0161826
726.147	0.0160975
726.225	0.0159828
726.303	0.0156532
726.381	0.0155949
726.459	0.0155451
726.538	0.0154937
726.616	0.0154089
726.694	0.0151659
726.772	0.0149420
726.850	0.0148973
726.928	0.0149953
727.006	0.0148974
727.084	0.0148444
727.163	0.0148267
727.241	0.0150722
727.319	0.0150562
727.397	0.0151044
727.475	0.0154166
727.553	0.0154109
727.631	0.0155931
727.709	0.0156120
727.788	0.0154970
727.866	0.0154835
727.944	0.0155695
728.022	0.0154007
728.100	0.0154160
728.178	0.0154126
728.256	0.0152055
728.334	0.0152169
728.413	0.0151080
728.491	0.0150925
728.569	0.0148574
728.647	0.0148129
728.725	0.0148978
728.803	0.0149409
728.881	0.0147585
728.959	0.0148602
729.038	0.0148436
729.116	0.0147372
729.194	0.0148243
729.272	0.0146669
729.350	0.0148696
729.428	0.0148524
729.506	0.0149233
729.584	0.0150115
729.663	0.0152630
729.741	0.0156561
729.819	0.0158805
729.897	0.0162220
729.975	0.0164653
730.053	0.0168478
730.131	0.0171484
730.209	0.0171485
730.288	0.0174689
730.366	0.0176125
730.444	0.0175099
730.522	0.0175071
730.600	0.0174168
730.678	0.0173759
730.756	0.0173497
730.834	0.0170295
730.913	0.0169167
730.991	0.0169146
731.069	0.0167071
731.147	0.0166694
731.225	0.0165385
731.303	0.0165544
731.381	0.0164423
731.459	0.0161331
731.538	0.0160639
731.616	0.0158195
731.694	0.0155122
731.772	0.0154031
731.850	0.0151669
731.928	0.0149033
732.006	0.0149135
732.084	0.0149786
732.163	0.0149036
732.241	0.0149923
732.319	0.0152279
732.397	0.0153345
732.475	0.0156522
732.553	0.0156091
732.631	0.0157082
732.709	0.0158949
732.788	0.0159766
732.866	0.0160402
732.944	0.0159691
733.022	0.0158251
733.100	0.0157800
733.178	0.0156968
733.256	0.0155639
733.334	0.0155157
733.413	0.0154267
733.491	0.0154738
733.569	0.0154170
733.647	0.0155074
733.725	0.0155338
733.803	0.0155871
733.881	0.0158290
733.959	0.0157568
734.038	0.0158642
734.116	0.0159023
734.194	0.0158827
734.272	0.0159492
734.350	0.0158825
734.428	0.0158460
734.506	0.0159091
734.584	0.0159827
734.663	0.0157980
734.741	0.0158739
734.819	0.0159203
734.897	0.0158009
734.975	0.0156984
735.053	0.0157846
735.131	0.0158717
735.209	0.0157033
735.288	0.0156004
735.366	0.0155820
735.444	0.0156862
735.522	0.0158166
735.600	0.0156318
735.678	0.0156453
735.756	0.0156853
735.834	0.0156895
735.913	0.0156907
735.991	0.0157386
736.069	0.0158810
736.147	0.0159212
736.225	0.0159911
736.303	0.0159167
736.381	0.0159436
736.459	0.0160992
736.538	0.0163296
736.616	0.0161265
736.694	0.0161844
736.772	0.0162666
736.850	0.0163418
736.928	0.0162452
737.006	0.0164989
737.084	0.0163385
737.163	0.0164221
737.241	0.0165060
737.319	0.0164414
737.397	0.0163766
737.475	0.0163642
737.553	0.0162147
737.631	0.0161705
737.709	0.0161568
737.788	0.0160351
737.866	0.0159543
737.944	0.0156982
738.022	0.0155734
738.100	0.0155588
738.178	0.0155238
738.256	0.0155062
738.334	0.0154659
738.413	0.0153646
738.491	0.0152573
738.569	0.0152798
738.647	0.0153188
738.725	0.0152706
738.803	0.0153442
738.881	0.0155361
738.959	0.0154007
739.038	0.0155559
739.116	0.0153786
739.194	0.0155482
739.272	0.0155309
739.350	0.0152956
739.428	0.0151975
739.506	0.0152944
739.584	0.0153060
739.663	0.0152627
739.741	0.0154930
739.819	0.0153706
739.897	0.0154906
739.975	0.0155943
740.053	0.0156261
740.131	0.0157343
740.209	0.0158810
740.288	0.0160545
740.366	0.0160618
740.444	0.0161256
740.522	0.0159863
740.600	0.0160738
740.678	0.0160040
740.756	0.0160497
740.834	0.0160485
740.913	0.0158527
740.991	0.0157794
741.069	0.0157182
741.147	0.0156657
741.225	0.0155112
741.303	0.0156084
741.381	0.0154427
741.459	0.0154530
741.538	0.0153560
741.616	0.0154157
741.694	0.0153154
741.772	0.0154191
741.850	0.0155135
741.928	0.0154450
742.006	0.0154840
742.084	0.0155307
742.163	0.0156441
742.241	0.0157726
742.319	0.0158122
742.397	0.0160074
742.475	0.0161556
742.553	0.0163050
742.631	0.0162302
742.709	0.0162615
742.788	0.0163354
742.866	0.0163199
742.944	0.0161926
743.022	0.0162383
743.100	0.0162403
743.178	0.0162432
743.256	0.0160000
743.334	0.0160050
743.413	0.0158898
743.491	0.0158108
743.569	0.0157812
743.647	0.0157493
743.725	0.0159379
743.803	0.0158581
743.881	0.0158385
743.959	0.0157529
744.038	0.0157812
744.116	0.0159065
744.194	0.0158344
744.272	0.0158168
744.350	0.0159125
744.428	0.0158889
744.506	0.0158504
744.584	0.0156973
744.663	0.0156589
744.741	0.0155822
744.819	0.0153445
744.897	0.0152850
744.975	0.0151851
745.053	0.0148783
745.131	0.0148288
745.209	0.0145823
745.288	0.0143603
745.366	0.0141332
745.444	0.0141566
745.522	0.0141245
745.600	0.0140250
745.678	0.0141377
745.756	0.0143866
745.834	0.0145883
745.913	0.0145975
745.991	0.0148661
746.069	0.0151308
746.147	0.0153027
746.225	0.0156236
746.303	0.0159067
746.381	0.0161391
746.459	0.0164033
746.538	0.0163250
746.616	0.0164151
746.694	0.0167093
746.772	0.0166723
746.850	0.0166889
746.928	0.0167322
747.006	0.0166042
747.084	0.0166759
747.163	0.0164529
747.241	0.0163620
747.319	0.0162788
747.397	0.0161855
747.475	0.0160439
747.553	0.0159518
747.631	0.0160664
747.709	0.0157338
747.788	0.0157603
747.866	0.0158308
747.944	0.0157468
748.022	0.0157984
748.100	0.0157535
748.178	0.0160295
748.256	0.0161156
748.334	0.0161449
748.413	0.0163805
748.491	0.0164687
748.569	0.0165690
748.647	0.0167242
748.725	0.0166631
748.803	0.0167751
748.881	0.0166467
748.959	0.0165732
749.038	0.0164906
749.116	0.0162440
749.194	0.0160974
749.272	0.0160403
749.350	0.0159315
749.428	0.0157780
749.506	0.0156053
749.584	0.0153535
749.663	0.0153194
749.741	0.0151470
749.819	0.0150944
749.897	0.0152083
749.975	0.0149213
750.053	0.0149500
750.131	0.0150352
750.209	0.0151145
750.288	0.0151000
750.366	0.0150278
750.444	0.0151073
750.522	0.0150414
750.600	0.0150177
750.678	0.0149850
750.756	0.0149902
750.834	0.0148608
750.913	0.0149271
750.991	0.0151093
751.069	0.0150423
751.147	0.0149540
751.225	0.0150030
751.303	0.0150219
751.381	0.0151689
751.459	0.0152453
751.538	0.0155074
751.616	0.0155941
751.694	0.0155779
751.772	0.0155856
751.850	0.0158135
751.928	0.0159515
752.006	0.0160501
752.084	0.0161630
752.163	0.0161527
752.241	0.0161980
752.319	0.0162563
752.397	0.0161298
752.475	0.0162394
752.553	0.0162476
752.631	0.0161796
752.709	0.0161149
752.788	0.0161166
752.866	0.0161206
752.944	0.0162388
753.022	0.0162457
753.100	0.0163779
753.178	0.0162999
753.256	0.0162112
753.334	0.0161208
753.413	0.0160455
753.491	0.0160271
753.569	0.0159260
753.647	0.0157831
753.725	0.0156773
753.803	0.0156544
753.881	0.0155645
753.959	0.0154473
754.038	0.0155082
754.116	0.0154755
754.194	0.0154694
754.272	0.0155751
754.350	0.0156583
754.428	0.0157260
754.506	0.0157213
754.584	0.0157735
754.663	0.0159355
754.741	0.0159701
754.819	0.0158083
754.897	0.0159163
754.975	0.0158634
755.053	0.0158894
755.131	0.0158272
755.209	0.0159496
755.288	0.0158923
755.366	0.0157639
755.444	0.0159184
755.522	0.0159357
755.600	0.0158732
755.678	0.0158891
755.756	0.0161578
755.834	0.0160848
755.913	0.0161089
755.991	0.0160729
756.069	0.0162642
756.147	0.0161684
756.225	0.0161259
756.303	0.0163149
756.381	0.0162991
756.459	0.0162171
756.538	0.0162565
756.616	0.0163356
756.694	0.0162467
756.772	0.0162048
756.850	0.0162314
756.928	0.0160493
757.006	0.0161002
757.084	0.0160165
757.163	0.0159363
757.241	0.0158513
757.319	0.0157980
757.397	0.0157656
757.475	0.0156396
757.553	0.0155933
757.631	0.0154597
757.709	0.0156612
757.788	0.0156121
757.866	0.0154745
757.944	0.0154762
758.022	0.0153728
758.100	0.0154102
758.178	0.0154221
758.256	0.0154273
758.334	0.0155310
758.413	0.0155797
758.491	0.0154389
758.569	0.0154675
758.647	0.0155116
758.725	0.0154758
758.803	0.0153806
758.881	0.0154433
758.959	0.0152712
759.038	0.0152031
759.116	0.0154709
759.194	0.0153870
759.272	0.0152733
759.350	0.0153297
759.428	0.0153653
759.506	0.0154504
759.584	0.0154283
759.663	0.0155183
759.741	0.0156844
759.819	0.0155980
759.897	0.0156161
759.975	0.0155965
760.053	0.0156667
760.131	0.0157972
760.209	0.0158997
760.288	0.0158708
760.366	0.0158184
760.444	0.0159738
760.522	0.0160551
760.600	0.0159514
760.678	0.0159248
760.756	0.0161073
760.834	0.0161755
760.913	0.0159792
760.991	0.0158459
761.069	0.0160086
761.147	0.0159911
761.225	0.0159930
761.303	0.0159295
761.381	0.0160648
761.459	0.0161604
761.538	0.0161480
761.616	0.0162844
761.694	0.0162589
761.772	0.0162384
761.850	0.0162653
761.928	0.0162401
762.006	0.0163627
762.084	0.0163696
762.163	0.0162045
762.241	0.0162977
762.319	0.0162288
762.397	0.0161568
762.475	0.0161597
762.553	0.0161464
762.631	0.0159802
762.709	0.0159913
762.788	0.0159719
762.866	0.0158266
762.944	0.0159034
763.022	0.0159219
763.100	0.0158131
763.178	0.0159051
763.256	0.0158398
763.334	0.0157028
763.413	0.0156707
763.491	0.0157570
763.569	0.0157874
763.647	0.0156651
763.725	0.0156476
763.803	0.0156656
763.881	0.0155659
763.959	0.0156591
764.038	0.0156129
764.116	0.0157675
764.194	0.0158434
764.272	0.0157291
764.350	0.0156802
764.428	0.0156890
764.506	0.0156306
764.584	0.0156968
764.663	0.0156200
764.741	0.0156894
764.819	0.0156054
764.897	0.0154422
764.975	0.0154659
765.053	0.0155027
765.131	0.0152926
765.209	0.0151668
765.288	0.0149649
765.366	0.0150220
765.444	0.0147413
765.522	0.0148635
765.600	0.0150053
765.678	0.0149655
765.756	0.0147505
765.834	0.0148148
765.913	0.0148313
765.991	0.0149792
766.069	0.0150640
766.147	0.0150443
766.225	0.0150699
766.303	0.0151575
766.381	0.0152319
766.459	0.0154159
766.538	0.0155460
766.616	0.0156116
766.694	0.0156953
766.772	0.0158408
766.850	0.0159266
766.928	0.0159816
767.006	0.0161671
767.084	0.0161753
767.163	0.0162706
767.241	0.0162325
767.319	0.0164149
767.397	0.0161902
767.475	0.0162465
767.553	0.0162938
767.631	0.0162433
767.709	0.0160865
767.788	0.0160275
767.866	0.0159199
767.944	0.0158284
768.022	0.0156741
768.100	0.0156863
768.178	0.0156550
768.256	0.0155499
768.334	0.0157652
768.413	0.0156839
768.491	0.0156802
768.569	0.0159415
768.647	0.0161672
768.725	0.0160281
768.803	0.0160756
768.881	0.0162740
768.959	0.0162843
769.038	0.0161276
769.116	0.0163664
769.194	0.0163724
769.272	0.0163200
769.350	0.0161863
769.428	0.0163334
769.506	0.0162846
769.584	0.0163148
769.663	0.0163357
769.741	0.0161507
769.819	0.0163058
769.897	0.0163902
769.975	0.0162560
770.053	0.0162197
770.131	0.0163885
770.209	0.0164608
770.288	0.0163063
770.366	0.0162857
770.444	0.0162309
770.522	0.0161143
770.600	0.0158250
770.678	0.0159474
770.756	0.0157436
770.834	0.0154962
770.913	0.0156842
770.991	0.0157124
771.069	0.0154585
771.147	0.0153039
771.225	0.0151995
771.303	0.0151333
771.381	0.0152914
771.459	0.0153236
771.538	0.0154785
771.616	0.0153180
771.694	0.0153095
771.772	0.0153835
771.850	0.0154132
771.928	0.0154504
772.006	0.0153151
772.084	0.0154742
772.163	0.0155557
772.241	0.0154446
772.319	0.0153522
772.397	0.0155477
772.475	0.0156013
772.553	0.0153899
772.631	0.0155224
772.709	0.0154797
772.788	0.0154540
772.866	0.0155135
772.944	0.0154258
773.022	0.0153211
773.100	0.0151781
773.178	0.0153530
773.256	0.0153474
773.334	0.0152933
773.413	0.0152084
773.491	0.0153410
773.569	0.0152980
773.647	0.0151535
773.725	0.0151752
773.803	0.0153091
773.881	0.0153200
773.959	0.0153629
774.038	0.0153072
774.116	0.0154853
774.194	0.0154153
774.272	0.0155441
774.350	0.0155119
774.428	0.0158045
774.506	0.0157416
774.584	0.0157902
774.663	0.0157065
774.741	0.0156897
774.819	0.0158184
774.897	0.0158406
774.975	0.0157384
775.053	0.0159758
775.131	0.0159049
775.209	0.0159502
775.288	0.0160240
775.366	0.0159100
775.444	0.0159897
775.522	0.0160693
775.600	0.0158952
775.678	0.0160999
775.756	0.0161014
775.834	0.0161705
775.913	0.0159573
775.991	0.0160514
776.069	0.0159571
776.147	0.0158970
776.225	0.0160984
776.303	0.0160455
776.381	0.0159707
776.459	0.0160113
776.538	0.0160904
776.616	0.0159461
776.694	0.0160087
776.772	0.0160990
776.850	0.0159803
776.928	0.0160461
777.006	0.0160515
777.084	0.0160926
777.163	0.0161872
777.241	0.0161560
777.319	0.0162020
777.397	0.0162076
777.475	0.0160578
777.553	0.0160968
777.631	0.0161314
777.709	0.0161490
777.788	0.0161455
777.866	0.0159963
777.944	0.0161056
778.022	0.0159307
778.100	0.0156953
778.178	0.0157479
778.256	0.0156770
778.334	0.0156627
778.413	0.0155163
778.491	0.0156789
778.569	0.0155585
778.647	0.0155823
778.725	0.0154797
778.803	0.0155029
778.881	0.0156305
778.959	0.0156713
779.038	0.0157565
779.116	0.0159081
779.194	0.0158879
779.272	0.0159439
779.350	0.0159537
779.428	0.0157679
779.506	0.0158707
779.584	0.0158664
779.663	0.0157748
779.741	0.0158321
779.819	0.0156349
779.897	0.0156085
779.975	0.0157222
780.053	0.0154633
780.131	0.0154132
780.209	0.0153881
780.288	0.0153188
780.366	0.0152536
780.444	0.0152351
780.522	0.0153831
780.600	0.0152010
780.678	0.0151633
780.756	0.0153196
780.834	0.0153235
780.913	0.0152939
780.991	0.0154057
781.069	0.0152496
781.147	0.0151877
781.225	0.0153111
781.303	0.0153946
781.381	0.0154771
781.459	0.0155317
781.538	0.0156483
781.616	0.0157403
781.694	0.0157504
781.772	0.0157123
781.850	0.0159814
781.928	0.0159521
782.006	0.0158672
782.084	0.0158269
782.163	0.0158671
782.241	0.0158800
782.319	0.0158403
782.397	0.0158004
782.475	0.0158191
782.553	0.0157895
782.631	0.0157376
782.709	0.0156026
782.788	0.0156328
782.866	0.0156474
782.944	0.0156385
783.022	0.0156961
783.100	0.0157221
783.178	0.0156749
783.256	0.0157628
783.334	0.0158646
783.413	0.0158039
783.491	0.0157694
783.569	0.0158204
783.647	0.0157768
783.725	0.0158629
783.803	0.0158394
783.881	0.0159817
783.959	0.0161150
784.038	0.0162168
784.116	0.0160497
784.194	0.0160996
784.272	0.0161694
784.350	0.0160948
784.428	0.0164088
784.506	0.0163159
784.584	0.0163140
784.663	0.0163902
784.741	0.0162678
784.819	0.0163003
784.897	0.0162081
784.975	0.0161890
785.053	0.0160753
785.131	0.0160576
785.209	0.0159953
785.288	0.0159254
785.366	0.0157459
785.444	0.0157477
785.522	0.0156684
785.600	0.0155766
785.678	0.0155843
785.756	0.0154537
785.834	0.0154606
785.913	0.0154271
785.991	0.0153987
786.069	0.0154547
786.147	0.0153630
786.225	0.0154326
786.303	0.0154962
786.381	0.0153471
786.459	0.0155299
786.538	0.0155238
786.616	0.0155530
786.694	0.0153016
786.772	0.0154836
786.850	0.0154531
786.928	0.0155663
787.006	0.0155694
787.084	0.0155561
787.163	0.0157264
787.241	0.0157996
787.319	0.0157715
787.397	0.0158012
787.475	0.0159622
787.553	0.0159946
787.631	0.0160409
787.709	0.0159805
787.788	0.0160445
787.866	0.0160603
787.944	0.0159336
788.022	0.0158942
788.100	0.0160425
788.178	0.0158736
788.256	0.0158140
788.334	0.0156229
788.413	0.0156051
788.491	0.0156473
788.569	0.0157880
788.647	0.0157285
788.725	0.0154740
788.803	0.0155799
788.881	0.0154675
788.959	0.0156123
789.038	0.0156604
789.116	0.0155802
789.194	0.0154478
789.272	0.0155156
789.350	0.0154832
789.428	0.0156094
789.506	0.0155644
789.584	0.0155465
789.663	0.0155571
789.741	0.0156149
789.819	0.0154571
789.897	0.0154729
789.975	0.0155236
790.053	0.0154352
790.131	0.0154052
790.209	0.0154962
790.288	0.0153701
790.366	0.0155388
790.444	0.0156898
790.522	0.0157603
790.600	0.0157372
790.678	0.0158370
790.756	0.0158984
790.834	0.0159986
790.913	0.0158199
790.991	0.0158940
791.069	0.0160928
791.147	0.0160599
791.225	0.0159427
791.303	0.0159913
791.381	0.0160969
791.459	0.0160418
791.538	0.0161087
791.616	0.0161936
791.694	0.0162929
791.772	0.0163496
791.850	0.0161835
791.928	0.0163465
792.006	0.0163863
792.084	0.0163497
792.163	0.0163374
792.241	0.0164151
792.319	0.0164185
792.397	0.0163486
792.475	0.0162074
792.553	0.0161956
792.631	0.0161746
792.709	0.0161829
792.788	0.0159786
792.866	0.0158461
792.944	0.0159358
793.022	0.0159577
793.100	0.0158255
793.178	0.0158781
793.256	0.0156982
793.334	0.0156241
793.413	0.0158014
793.491	0.0157313
793.569	0.0156322
793.647	0.0156197
793.725	0.0156727
793.803	0.0155074
793.881	0.0157024
793.959	0.0153785
794.038	0.0154023
794.116	0.0156915
794.194	0.0156544
794.272	0.0155202
794.350	0.0154826
794.428	0.0155080
794.506	0.0154452
794.584	0.0155344
794.663	0.0156552
794.741	0.0155472
794.819	0.0155737
794.897	0.0156284
794.975	0.0158223
795.053	0.0156745
795.131	0.0158248
795.209	0.0157565
795.288	0.0158137
795.366	0.0158820
795.444	0.0159827
795.522	0.0159945
795.600	0.0158406
795.678	0.0159998
795.756	0.0159789
795.834	0.0160056
795.913	0.0161251
795.991	0.0160416
796.069	0.0159661
796.147	0.0160443
796.225	0.0158749
796.303	0.0158447
796.381	0.0159577
796.459	0.0158877
796.538	0.0158886
796.616	0.0158247
796.694	0.0157457
796.772	0.0156424
796.850	0.0156448
796.928	0.0155704
797.006	0.0156210
797.084	0.0154173
797.163	0.0154549
797.241	0.0156501
797.319	0.0154851
797.397	0.0154168
797.475	0.0155410
797.553	0.0153977
797.631	0.0153397
797.709	0.0155418
797.788	0.0156013
797.866	0.0155334
797.944	0.0152914
798.022	0.0154341
798.100	0.0155449
798.178	0.0153726
798.256	0.0154295
798.334	0.0155488
798.413	0.0153922
798.491	0.0155265
798.569	0.0155294
798.647	0.0156713
798.725	0.0156386
798.803	0.0155183
798.881	0.0155971
798.959	0.0155885
799.038	0.0158269
799.116	0.0158218
799.194	0.0158568
799.272	0.0158662
799.350	0.0160255
799.428	0.0158987
799.506	0.0159817
799.584	0.0161212
799.663	0.0160197
799.741	0.0161705
799.819	0.0161176
799.897	0.0160493
799.975	0.0160580
800.053	0.0162306
800.131	0.0161292
800.209	0.0160965
800.288	0.0160407
800.366	0.0161346
800.444	0.0159771
800.522	0.0158944
800.600	0.0159352
800.678	0.0161108
800.756	0.0158824
800.834	0.0160149
800.913	0.0159672
800.991	0.0159505
801.069	0.0159248
801.147	0.0160442
801.225	0.0158743
801.303	0.0157890
801.381	0.0157769
801.459	0.0157874
801.538	0.0159055
801.616	0.0158448
801.694	0.0158305
801.772	0.0157856
801.850	0.0156598
801.928	0.0157375
802.006	0.0156835
802.084	0.0157396
802.163	0.0156876
802.241	0.0157670
802.319	0.0156411
802.397	0.0157367
802.475	0.0156055
802.553	0.0155260
802.631	0.0156257
802.709	0.0154868
802.788	0.0154123
802.866	0.0153838
802.944	0.0154440
803.022	0.0154091
803.100	0.0153522
803.178	0.0154185
803.256	0.0154706
803.334	0.0154691
803.413	0.0155354
803.491	0.0156107
803.569	0.0155377
803.647	0.0155948
803.725	0.0155721
803.803	0.0156519
803.881	0.0157221
803.959	0.0157917
804.038	0.0156393
804.116	0.0157487
804.194	0.0158384
804.272	0.0157779
804.350	0.0157893
804.428	0.0159429
804.506	0.0158750
804.584	0.0157389
804.663	0.0158973
804.741	0.0157365
804.819	0.0156181
804.897	0.0156781
804.975	0.0156271
805.053	0.0155580
805.131	0.0155170
805.209	0.0156115
805.288	0.0155241
805.366	0.0156809
805.444	0.0155933
805.522	0.0156064
805.600	0.0158219
805.678	0.0156103
805.756	0.0157072
805.834	0.0157579
805.913	0.0157947
805.991	0.0157477
806.069	0.0158051
806.147	0.0157819
806.225	0.0157868
806.303	0.0157387
806.381	0.0157301
806.459	0.0158114
806.538	0.0157238
806.616	0.0155792
806.694	0.0153519
806.772	0.0155796
806.850	0.0156043
806.928	0.0155116
807.006	0.0154926
807.084	0.0153297
807.163	0.0155119
807.241	0.0155432
807.319	0.0153435
807.397	0.0154984
807.475	0.0154568
807.553	0.0154537
807.631	0.0154778
807.709	0.0155784
807.788	0.0155799
807.866	0.0156187
807.944	0.0157869
808.022	0.0157611
808.100	0.0157352
808.178	0.0157633
808.256	0.0160357
808.334	0.0160003
808.413	0.0161804
808.491	0.0160844
808.569	0.0161378
808.647	0.0160249
808.725	0.0159318
808.803	0.0160123
808.881	0.0160033
808.959	0.0157433
809.038	0.0157376
809.116	0.0157198
809.194	0.0156596
809.272	0.0157497
809.350	0.0155788
809.428	0.0156899
809.506	0.0156813
809.584	0.0158027
809.663	0.0158494
809.741	0.0157732
809.819	0.0159481
809.897	0.0159242
809.975	0.0159443
810.053	0.0159792
810.131	0.0159553
810.209	0.0158185
810.288	0.0160503
810.366	0.0161027
810.444	0.0159976
810.522	0.0159673
810.600	0.0160468
810.678	0.0161466
810.756	0.0161206
810.834	0.0160236
810.913	0.0159913
810.991	0.0160350
811.069	0.0160693
811.147	0.0160426
811.225	0.0159937
811.303	0.0159216
811.381	0.0159524
811.459	0.0161062
811.538	0.0159866
811.616	0.0159268
811.694	0.0159356
811.772	0.0158783
811.850	0.0160290
811.928	0.0160227
812.006	0.0159818
812.084	0.0160291
812.163	0.0160066
812.241	0.0159469
812.319	0.0157813
812.397	0.0159055
812.475	0.0159801
812.553	0.0160378
812.631	0.0158580
812.709	0.0159637
812.788	0.0158069
812.866	0.0157671
812.944	0.0156857
813.022	0.0158046
813.100	0.0155988
813.178	0.0155682
813.256	0.0155320
813.334	0.0154774
813.413	0.0154048
813.491	0.0153889
813.569	0.0153833
813.647	0.0154099
813.725	0.0153985
813.803	0.0154316
813.881	0.0152840
813.959	0.0153049
814.038	0.0153062
814.116	0.0152188
814.194	0.0153149
814.272	0.0153460
814.350	0.0153564
814.428	0.0155840
814.506	0.0157658
814.584	0.0156419
814.663	0.0158092
814.741	0.0158593
814.819	0.0158730
814.897	0.0157987
814.975	0.0159436
815.053	0.0159704
815.131	0.0159832
815.209	0.0159823
815.288	0.0160241
815.366	0.0160286
815.444	0.0161110
815.522	0.0161279
815.600	0.0161213
815.678	0.0159700
815.756	0.0161301
815.834	0.0160536
815.913	0.0161021
815.991	0.0161410
816.069	0.0161201
816.147	0.0161218
816.225	0.0161795
816.303	0.0160781
816.381	0.0161475
816.459	0.0161427
816.538	0.0160468
816.616	0.0158828
816.694	0.0159391
816.772	0.0159834
816.850	0.0157825
816.928	0.0157763
817.006	0.0157854
817.084	0.0159470
817.163	0.0159441
817.241	0.0157901
817.319	0.0158492
817.397	0.0159466
817.475	0.0158680
817.553	0.0158256
817.631	0.0157507
817.709	0.0159428
817.788	0.0157327
817.866	0.0157098
817.944	0.0157146
818.022	0.0157098
818.100	0.0156863
818.178	0.0156184
818.256	0.0157233
818.334	0.0156099
818.413	0.0154770
818.491	0.0155655
818.569	0.0155137
818.647	0.0154882
818.725	0.0154520
818.803	0.0154144
818.881	0.0155266
818.959	0.0154817
819.038	0.0154786
819.116	0.0155962
819.194	0.0154575
819.272	0.0153945
819.350	0.0154552
819.428	0.0154134
819.506	0.0153643
819.584	0.0152998
819.663	0.0153326
819.741	0.0153288
819.819	0.0152619
819.897	0.0154125
819.975	0.0152828
820.053	0.0153133
820.131	0.0153307
820.209	0.0152933
820.288	0.0154119
820.366	0.0154401
820.444	0.0154498
820.522	0.0154163
820.600	0.0153866
820.678	0.0155843
820.756	0.0155824
820.834	0.0156029
820.913	0.0157926
820.991	0.0159410
821.069	0.0158972
821.147	0.0160112
821.225	0.0160184
821.303	0.0160094
821.381	0.0162264
821.459	0.0161515
821.538	0.0161029
821.616	0.0162265
821.694	0.0161432
821.772	0.0162010
821.850	0.0162231
821.928	0.0162591
822.006	0.0160871
822.084	0.0160214
822.163	0.0160945
822.241	0.0160104
822.319	0.0158273
822.397	0.0158885
822.475	0.0158241
822.553	0.0158667
822.631	0.0158596
822.709	0.0157174
822.788	0.0157922
822.866	0.0156391
822.944	0.0156857
823.022	0.0156832
823.100	0.0157021
823.178	0.0156382
823.256	0.0156799
823.334	0.0156503
823.413	0.0155926
823.491	0.0156428
823.569	0.0157580
823.647	0.0157050
823.725	0.0157145
823.803	0.0158144
823.881	0.0156605
823.959	0.0156944
824.038	0.0157751
824.116	0.0156079
824.194	0.0156050
824.272	0.0158420
824.350	0.0158413
824.428	0.0158092
824.506	0.0158313
824.584	0.0156960
824.663	0.0156235
824.741	0.0157470
824.819	0.0157127
824.897	0.0155673
824.975	0.0155312
825.053	0.0156396
825.131	0.0154900
825.209	0.0156420
825.288	0.0155054
825.366	0.0156723
825.444	0.0154682
825.522	0.0154298
825.600	0.0155781
825.678	0.0154882
825.756	0.0155879
825.834	0.0155923
825.913	0.0156281
825.991	0.0156564
826.069	0.0156548
826.147	0.0157095
826.225	0.0157813
826.303	0.0157188
826.381	0.0159013
826.459	0.0157291
826.538	0.0157798
826.616	0.0157764
826.694	0.0158628
826.772	0.0158405
826.850	0.0156503
826.928	0.0157806
827.006	0.0157356
827.084	0.0158263
827.163	0.0157343
827.241	0.0158606
827.319	0.0158359
827.397	0.0158904
827.475	0.0158780
827.553	0.0160502
827.631	0.0159777
827.709	0.0158856
827.788	0.0159991
827.866	0.0159631
827.944	0.0161113
828.022	0.0160624
828.100	0.0160224
828.178	0.0159956
828.256	0.0160958
828.334	0.0159711
828.413	0.0158810
828.491	0.0158208
828.569	0.0158221
828.647	0.0158055
828.725	0.0157330
828.803	0.0156741
828.881	0.0156300
828.959	0.0155351
829.038	0.0155309
829.116	0.0156059
829.194	0.0155609
829.272	0.0155441
829.350	0.0154943
829.428	0.0153973
829.506	0.0154861
829.584	0.0156487
829.663	0.0155122
829.741	0.0157214
829.819	0.0156496
829.897	0.0156796
829.975	0.0157260
830.053	0.0157593
830.131	0.0158475
830.209	0.0157550
830.288	0.0157562
830.366	0.0158316
830.444	0.0159195
830.522	0.0158133
830.600	0.0157937
830.678	0.0158659
830.756	0.0157722
830.834	0.0158078
830.913	0.0159114
830.991	0.0156788
831.069	0.0157146
831.147	0.0157695
831.225	0.0157591
831.303	0.0157597
831.381	0.0159671
831.459	0.0156786
831.538	0.0157198
831.616	0.0158671
831.694	0.0158333
831.772	0.0159089
831.850	0.0156788
831.928	0.0157280
832.006	0.0156831
832.084	0.0158217
832.163	0.0157608
832.241	0.0158181
832.319	0.0158684
832.397	0.0157819
832.475	0.0157165
832.553	0.0158539
832.631	0.0160237
832.709	0.0160218
832.788	0.0160104
832.866	0.0160710
832.944	0.0159802
833.022	0.0161195
833.100	0.0161190
833.178	0.0161948
833.256	0.0161485
833.334	0.0161641
833.413	0.0161958
833.491	0.0161431
833.569	0.0161497
833.647	0.0161134
833.725	0.0160406
833.803	0.0160834
833.881	0.0160098
833.959	0.0160446
834.038	0.0160432
834.116	0.0159331
834.194	0.0159001
834.272	0.0158880
834.350	0.0157272
834.428	0.0157819
834.506	0.0157291
834.584	0.0158141
834.663	0.0157426
834.741	0.0156976
834.819	0.0155945
834.897	0.0155444
834.975	0.0155396
835.053	0.0154922
835.131	0.0155333
835.209	0.0155745
835.288	0.0154753
835.366	0.0154417
835.444	0.0155573
835.522	0.0154503
835.600	0.0155460
835.678	0.0154880
835.756	0.0156137
835.834	0.0156529
835.913	0.0156326
835.991	0.0156651
836.069	0.0156886
836.147	0.0158335
836.225	0.0157822
836.303	0.0156980
836.381	0.0158144
836.459	0.0158652
836.538	0.0159828
836.616	0.0158541
836.694	0.0159565
836.772	0.0158911
836.850	0.0159499
836.928	0.0158492
837.006	0.0159859
837.084	0.0157821
837.163	0.0158493
837.241	0.0157889
837.319	0.0159542
837.397	0.0157292
837.475	0.0157756
837.553	0.0157024
837.631	0.0159026
837.709	0.0158475
837.788	0.0157657
837.866	0.0157787
837.944	0.0156172
838.022	0.0158292
838.100	0.0157457
838.178	0.0157726
838.256	0.0157487
838.334	0.0157352
838.413	0.0157704
838.491	0.0158893
838.569	0.0158003
838.647	0.0157388
838.725	0.0158368
838.803	0.0158327
838.881	0.0159533
838.959	0.0159687
839.038	0.0160165
839.116	0.0159046
839.194	0.0159750
839.272	0.0160000
839.350	0.0158089
839.428	0.0158248
839.506	0.0157867
839.584	0.0158730
839.663	0.0157953
839.741	0.0157142
839.819	0.0156075
839.897	0.0155477
839.975	0.0156385
840.053	0.0156008
840.131	0.0156091
840.209	0.0155697
840.288	0.0155367
840.366	0.0155357
840.444	0.0156637
840.522	0.0156133
840.600	0.0156506
840.678	0.0155708
840.756	0.0155784
840.834	0.0155242
840.913	0.0155784
840.991	0.0155156
841.069	0.0155791
841.147	0.0155899
841.225	0.0155830
841.303	0.0156191
841.381	0.0155081
841.459	0.0156528
841.538	0.0156167
841.616	0.0156309
841.694	0.0156293
841.772	0.0156460
841.850	0.0157008
841.928	0.0157124
842.006	0.0157638
842.084	0.0157372
842.163	0.0156500
842.241	0.0157284
842.319	0.0158169
842.397	0.0158043
842.475	0.0157904
842.553	0.0158112
842.631	0.0157923
842.709	0.0157111
842.788	0.0158772
842.866	0.0158703
842.944	0.0157619
843.022	0.0158847
843.100	0.0156941
843.178	0.0158237
843.256	0.0158203
843.334	0.0156979
843.413	0.0157829
843.491	0.0157678
843.569	0.0156585
843.647	0.0156372
843.725	0.0155539
843.803	0.0157185
843.881	0.0155995
843.959	0.0155099
844.038	0.0155973
844.116	0.0156671
844.194	0.0156155
844.272	0.0157462
844.350	0.0155817
844.428	0.0156934
844.506	0.0157254
844.584	0.0156382
844.663	0.0156183
844.741	0.0156679
844.819	0.0157516
844.897	0.0158002
844.975	0.0157932
845.053	0.0158013
845.131	0.0158688
845.209	0.0157290
845.288	0.0158087
845.366	0.0157262
845.444	0.0158015
845.522	0.0159003
845.600	0.0160480
845.678	0.0157981
845.756	0.0159685
845.834	0.0158394
845.913	0.0157597
845.991	0.0157465
846.069	0.0158360
846.147	0.0157110
846.225	0.0156791
846.303	0.0156970
846.381	0.0156944
846.459	0.0156277
846.538	0.0155167
846.616	0.0155489
846.694	0.0156833
846.772	0.0154811
846.850	0.0154226
846.928	0.0154034
847.006	0.0154893
847.084	0.0154160
847.163	0.0154993
847.241	0.0153718
847.319	0.0153475
847.397	0.0153365
847.475	0.0152378
847.553	0.0154307
847.631	0.0153590
847.709	0.0152352
847.788	0.0154739
847.866	0.0154736
847.944	0.0154212
848.022	0.0155252
848.100	0.0155891
848.178	0.0156541
848.256	0.0156184
848.334	0.0157156
848.413	0.0156759
848.491	0.0158137
848.569	0.0156329
848.647	0.0156756
848.725	0.0155836
848.803	0.0156392
848.881	0.0158035
848.959	0.0159454
849.038	0.0157863
849.116	0.0157970
849.194	0.0157626
849.272	0.0157335
849.350	0.0158881
849.428	0.0157088
849.506	0.0157170
849.584	0.0158246
849.663	0.0158694
849.741	0.0158239
849.819	0.0157684
849.897	0.0157355
849.975	0.0157613
850.053	0.0156614
850.131	0.0157046
850.209	0.0157389
850.288	0.0157967
850.366	0.0155361
850.444	0.0155830
850.522	0.0154561
850.600	0.0156293
850.678	0.0155068
850.756	0.0154430
850.834	0.0157211
850.913	0.0157547
850.991	0.0156327
851.069	0.0156099
851.147	0.0157856
851.225	0.0158857
851.303	0.0159070
851.381	0.0159016
851.459	0.0158658
851.538	0.0159565
851.616	0.0159818
851.694	0.0159608
851.772	0.0159577
851.850	0.0158968
851.928	0.0160200
852.006	0.0159387
852.084	0.0160159
852.163	0.0158499
852.241	0.0160088
852.319	0.0159560
852.397	0.0156821
852.475	0.0157481
852.553	0.0157277
852.631	0.0156730
852.709	0.0158433
852.788	0.0157792
852.866	0.0156454
852.944	0.0158182
853.022	0.0156724
853.100	0.0156699
853.178	0.0157397
853.256	0.0158825
853.334	0.0157810
853.413	0.0157768
853.491	0.0158926
853.569	0.0158588
853.647	0.0158492
853.725	0.0159048
853.803	0.0159723
853.881	0.0159277
853.959	0.0160217
854.038	0.0158677
854.116	0.0159144
854.194	0.0160400
854.272	0.0159174
854.350	0.0160424
854.428	0.0161785
854.506	0.0159684
854.584	0.0158881
854.663	0.0161100
854.741	0.0159219
854.819	0.0158554
854.897	0.0158185
854.975	0.0159098
855.053	0.0158629
855.131	0.0157143
855.209	0.0157951
855.288	0.0157185
855.366	0.0157925
855.444	0.0156174
855.522	0.0156878
855.600	0.0156862
855.678	0.0158609
855.756	0.0157889
855.834	0.0156284
855.913	0.0155866
855.991	0.0156584
856.069	0.0156445
856.147	0.0157150
856.225	0.0157034
856.303	0.0157507
856.381	0.0157867
856.459	0.0157820
856.538	0.0159347
856.616	0.0159017
856.694	0.0159459
856.772	0.0159001
856.850	0.0157815
856.928	0.0160252
857.006	0.0159852
857.084	0.0159419
857.163	0.0161008
857.241	0.0161581
857.319	0.0160587
857.397	0.0160090
857.475	0.0161748
857.553	0.0161388
857.631	0.0161903
857.709	0.0162122
857.788	0.0160493
857.866	0.0161858
857.944	0.0161743
858.022	0.0161971
858.100	0.0161574
858.178	0.0162323
858.256	0.0162299
858.334	0.0160719
858.413	0.0161311
858.491	0.0162646
858.569	0.0162896
858.647	0.0162067
858.725	0.0161070
858.803	0.0161880
858.881	0.0161275
858.959	0.0161428
859.038	0.0162096
859.116	0.0160729
859.194	0.0159168
859.272	0.0159352
859.350	0.0159902
859.428	0.0158963
859.506	0.0157092
859.584	0.0156827
859.663	0.0156984
859.741	0.0155954
859.819	0.0157214
859.897	0.0156018
859.975	0.0155618
860.053	0.0156384
860.131	0.0153982
860.209	0.0154787
860.288	0.0155708
860.366	0.0155376
860.444	0.0155840
860.522	0.0155259
860.600	0.0153414
860.678	0.0155930
860.756	0.0156521
860.834	0.0154047
860.913	0.0156872
860.991	0.0157400
861.069	0.0156192
861.147	0.0155329
861.225	0.0155931
861.303	0.0156099
861.381	0.0155131
861.459	0.0155976
861.538	0.0155518
861.616	0.0155744
861.694	0.0155020
861.772	0.0154335
861.850	0.0157025
861.928	0.0156692
862.006	0.0155354
862.084	0.0154085
862.163	0.0156962
862.241	0.0157207
862.319	0.0154676
862.397	0.0155086
862.475	0.0154913
862.553	0.0155304
862.631	0.0155862
862.709	0.0154680
862.788	0.0156027
862.866	0.0156367
862.944	0.0157436
863.022	0.0157110
863.100	0.0156554
863.178	0.0157861
863.256	0.0158404
863.334	0.0157492
863.413	0.0158002
863.491	0.0157857
863.569	0.0155982
863.647	0.0156290
863.725	0.0155425
863.803	0.0156041
863.881	0.0156400
863.959	0.0156307
864.038	0.0155460
864.116	0.0155728
864.194	0.0155447
864.272	0.0153094
864.350	0.0155559
864.428	0.0155012
864.506	0.0153793
864.584	0.0154655
864.663	0.0155178
864.741	0.0155418
864.819	0.0155914
864.897	0.0155636
864.975	0.0156291
865.053	0.0158481
865.131	0.0157930
865.209	0.0156704
865.288	0.0159535
865.366	0.0157857
865.444	0.0157910
865.522	0.0159476
865.600	0.0159016
865.678	0.0159769
865.756	0.0157769
865.834	0.0158982
865.913	0.0159576
865.991	0.0158181
866.069	0.0158913
866.147	0.0159211
866.225	0.0159386
866.303	0.0159093
866.381	0.0158247
866.459	0.0158622
866.538	0.0158876
866.616	0.0158519
866.694	0.0158131
866.772	0.0159275
866.850	0.0156493
866.928	0.0156878
867.006	0.0157681
867.084	0.0158978
867.163	0.0157759
867.241	0.0155058
867.319	0.0157367
867.397	0.0158966
867.475	0.0158702
867.553	0.0157598
867.631	0.0157375
867.709	0.0157655
867.788	0.0158394
867.866	0.0157804
867.944	0.0158349
868.022	0.0157798
868.100	0.0157035
868.178	0.0157518
868.256	0.0157678
868.334	0.0157423
868.413	0.0157531
868.491	0.0156770
868.569	0.0155703
868.647	0.0154996
868.725	0.0154572
868.803	0.0154868
868.881	0.0154324
868.959	0.0155416
869.038	0.0154273
869.116	0.0153595
869.194	0.0154989
869.272	0.0154759
869.350	0.0154427
869.428	0.0155018
869.506	0.0156765
869.584	0.0155677
869.663	0.0156358
869.741	0.0157896
869.819	0.0156750
869.897	0.0158026
869.975	0.0159127
870.053	0.0157754
870.131	0.0159284
870.209	0.0157973
870.288	0.0157558
870.366	0.0158464
870.444	0.0158946
870.522	0.0159442
870.600	0.0157856
870.678	0.0157639
870.756	0.0158551
870.834	0.0159443
870.913	0.0158966
870.991	0.0158228
871.069	0.0158093
871.147	0.0156982
871.225	0.0158472
871.303	0.0157349
871.381	0.0158281
871.459	0.0157681
871.538	0.0157520
871.616	0.0158073
871.694	0.0157490
871.772	0.0157918
871.850	0.0158572
871.928	0.0158754
872.006	0.0158100
872.084	0.0157602
872.163	0.0156952
872.241	0.0157404
872.319	0.0156991
872.397	0.0157153
872.475	0.0157035
872.553	0.0156961
872.631	0.0157665
872.709	0.0157019
872.788	0.0156825
872.866	0.0158083
872.944	0.0156167
873.022	0.0157197
873.100	0.0157021
873.178	0.0158311
873.256	0.0157760
873.334	0.0158631
873.413	0.0158899
873.491	0.0157083
873.569	0.0156263
873.647	0.0157367
873.725	0.0157956
873.803	0.0157827
873.881	0.0157394
873.959	0.0156944
874.038	0.0156253
874.116	0.0155948
874.194	0.0155165
874.272	0.0156508
874.350	0.0156836
874.428	0.0154793
874.506	0.0155695
874.584	0.0155793
874.663	0.0156870
874.741	0.0157119
874.819	0.0157276
874.897	0.0158984
874.975	0.0158552
875.053	0.0158583
875.131	0.0157929
875.209	0.0158360
875.288	0.0158701
875.366	0.0158590
875.444	0.0158217
875.522	0.0160064
875.600	0.0160116
875.678	0.0158492
875.756	0.0159645
875.834	0.0158778
875.913	0.0159325
875.991	0.0158779
876.069	0.0158687
876.147	0.0157476
876.225	0.0157680
876.303	0.0157743
876.381	0.0157709
876.459	0.0157462
876.538	0.0156841
876.616	0.0157619
876.694	0.0157436
876.772	0.0157107
876.850	0.0158792
876.928	0.0157912
877.006	0.0158908
877.084	0.0158307
877.163	0.0158521
877.241	0.0158009
877.319	0.0156689
877.397	0.0157558
877.475	0.0157603
877.553	0.0155964
877.631	0.0155605
877.709	0.0157028
877.788	0.0157220
877.866	0.0154246
877.944	0.0155241
878.022	0.0156256
878.100	0.0154701
878.178	0.0156165
878.256	0.0155167
878.334	0.0157042
878.413	0.0157813
878.491	0.0157596
878.569	0.0157661
878.647	0.0157575
878.725	0.0157392
878.803	0.0160002
878.881	0.0160934
878.959	0.0160126
879.038	0.0159988
879.116	0.0160145
879.194	0.0160663
879.272	0.0160724
879.350	0.0159796
879.428	0.0159756
879.506	0.0159143
879.584	0.0160223
879.663	0.0160780
879.741	0.0160194
879.819	0.0159513
879.897	0.0158287
879.975	0.0158331
880.053	0.0157167
880.131	0.0156796
880.209	0.0157181
880.288	0.0156799
880.366	0.0156120
880.444	0.0156117
880.522	0.0156268
880.600	0.0154604
880.678	0.0156165
880.756	0.0157318
880.834	0.0156586
880.913	0.0156059
880.991	0.0157714
881.069	0.0157143
881.147	0.0158835
881.225	0.0158720
881.303	0.0158407
881.381	0.0159811
881.459	0.0160423
881.538	0.0159733
881.616	0.0161053
881.694	0.0161637
881.772	0.0161685
881.850	0.0160472
881.928	0.0160123
882.006	0.0161208
882.084	0.0160535
882.163	0.0160053
882.241	0.0160455
882.319	0.0159003
882.397	0.0159398
882.475	0.0159403
882.553	0.0159362
882.631	0.0158839
882.709	0.0159644
882.788	0.0158565
882.866	0.0158096
882.944	0.0157642
883.022	0.0158665
883.100	0.0158481
883.178	0.0158209
883.256	0.0158168
883.334	0.0157319
883.413	0.0157386
883.491	0.0158290
883.569	0.0157076
883.647	0.0156730
883.725	0.0157520
883.803	0.0156908
883.881	0.0155692
883.959	0.0156062
884.038	0.0155177
884.116	0.0156163
884.194	0.0155511
884.272	0.0157116
884.350	0.0157465
884.428	0.0156454
884.506	0.0155283
884.584	0.0156163
884.663	0.0157193
884.741	0.0156903
884.819	0.0157381
884.897	0.0157116
884.975	0.0157334
885.053	0.0157933
885.131	0.0158151
885.209	0.0158273
885.288	0.0157863
885.366	0.0158630
885.444	0.0157590
885.522	0.0159126
885.600	0.0158772
885.678	0.0159526
885.756	0.0158237
885.834	0.0157902
885.913	0.0158607
885.991	0.0159466
886.069	0.0156886
886.147	0.0158264
886.225	0.0158049
886.303	0.0157609
886.381	0.0158868
886.459	0.0157814
886.538	0.0159148
886.616	0.0159124
886.694	0.0159859
886.772	0.0158140
886.850	0.0158360
886.928	0.0158305
887.006	0.0158858
887.084	0.0157352
887.163	0.0158513
887.241	0.0157247
887.319	0.0158499
887.397	0.0157819
887.475	0.0156136
887.553	0.0155856
887.631	0.0155765
887.709	0.0156326
887.788	0.0156341
887.866	0.0154628
887.944	0.0154404
888.022	0.0154721
888.100	0.0155545
888.178	0.0155250
888.256	0.0157240
888.334	0.0157883
888.413	0.0156872
888.491	0.0158824
888.569	0.0158659
888.647	0.0158939
888.725	0.0159663
888.803	0.0159010
888.881	0.0158737
888.959	0.0158367
889.038	0.0157252
889.116	0.0158839
889.194	0.0159656
889.272	0.0158292
889.350	0.0157256
889.428	0.0158010
889.506	0.0158166
889.584	0.0157896
889.663	0.0159737
889.741	0.0158535
889.819	0.0159594
889.897	0.0159467
889.975	0.0158367
890.053	0.0159082
890.131	0.0158241
890.209	0.0159528
890.288	0.0159908
890.366	0.0159090
890.444	0.0159177
890.522	0.0159194
890.600	0.0161320
890.678	0.0162096
890.756	0.0160048
890.834	0.0161546
890.913	0.0161584
890.991	0.0161270
891.069	0.0163041
891.147	0.0162360
891.225	0.0160693
891.303	0.0160122
891.381	0.0161519
891.459	0.0159661
891.538	0.0159691
891.616	0.0158656
891.694	0.0159244
891.772	0.0157162
891.850	0.0157122
891.928	0.0156557
892.006	0.0157813
892.084	0.0156636
892.163	0.0155421
892.241	0.0156368
892.319	0.0155636
892.397	0.0156171
892.475	0.0155908
892.553	0.0154861
892.631	0.0155737
892.709	0.0156179
892.788	0.0156144
892.866	0.0155664
892.944	0.0156281
893.022	0.0156127
893.100	0.0155930
893.178	0.0156213
893.256	0.0156573
893.334	0.0154940
893.413	0.0155756
893.491	0.0155862
893.569	0.0155450
893.647	0.0155479
893.725	0.0155343
893.803	0.0156171
893.881	0.0155303
893.959	0.0155982
894.038	0.0157090
894.116	0.0157598
894.194	0.0158056
894.272	0.0157404
894.350	0.0157126
894.428	0.0159264
894.506	0.0159027
894.584	0.0159461
894.663	0.0159757
894.741	0.0158444
894.819	0.0160122
894.897	0.0160633
894.975	0.0158921
895.053	0.0158408
895.131	0.0158989
895.209	0.0159228
895.288	0.0158958
895.366	0.0158999
895.444	0.0157751
895.522	0.0158618
895.600	0.0159007
895.678	0.0158098
895.756	0.0157984
895.834	0.0158502
895.913	0.0157727
895.991	0.0156353
896.069	0.0157156
896.147	0.0157638
896.225	0.0157838
896.303	0.0156613
896.381	0.0157241
896.459	0.0156033
896.538	0.0156597
896.616	0.0156235
896.694	0.0155577
896.772	0.0157166
896.850	0.0156405
896.928	0.0159370
897.006	0.0158137
897.084	0.0157291
897.163	0.0159082
897.241	0.0158318
897.319	0.0159419
897.397	0.0160726
897.475	0.0159840
897.553	0.0159998
897.631	0.0160378
897.709	0.0157574
897.788	0.0159377
897.866	0.0157901
897.944	0.0157700
898.022	0.0157792
898.100	0.0157507
898.178	0.0156609
898.256	0.0155938
898.334	0.0155111
898.413	0.0155285
898.491	0.0155109
898.569	0.0155562
898.647	0.0154135
898.725	0.0154665
898.803	0.0153848
898.881	0.0154189
898.959	0.0154851
899.038	0.0154657
899.116	0.0155740
899.194	0.0154166
899.272	0.0153253
899.350	0.0155172
899.428	0.0155260
899.506	0.0155331
899.584	0.0155671
899.663	0.0156197
899.741	0.0157385
899.819	0.0156786
899.897	0.0157970
899.975	0.0158443
900.053	0.0157809
900.131	0.0159080
900.209	0.0159417
900.288	0.0158488
900.366	0.0158046
900.444	0.0157788
900.522	0.0157396
900.600	0.0156395
900.678	0.0156326
900.756	0.0156390
900.834	0.0156333
900.913	0.0157227
900.991	0.0156988
901.069	0.0156974
901.147	0.0157475
901.225	0.0157355
901.303	0.0155963
901.381	0.0156277
901.459	0.0155428
901.538	0.0157184
901.616	0.0156277
901.694	0.0156832
901.772	0.0154830
901.850	0.0155511
901.928	0.0154369
902.006	0.0155032
902.084	0.0155889
902.163	0.0154797
902.241	0.0156306
902.319	0.0156953
902.397	0.0157016
902.475	0.0156002
902.553	0.0156184
902.631	0.0157445
902.709	0.0159943
902.788	0.0159142
902.866	0.0157676
902.944	0.0157941
903.022	0.0159152
903.100	0.0158289
903.178	0.0158081
903.256	0.0157896
903.334	0.0158635
903.413	0.0156039
903.491	0.0156308
903.569	0.0156027
903.647	0.0156039
903.725	0.0156444
903.803	0.0155669
903.881	0.0156322
903.959	0.0156915
904.038	0.0157119
904.116	0.0157655
904.194	0.0156221
904.272	0.0157477
904.350	0.0158139
904.428	0.0157714
904.506	0.0157702
904.584	0.0157983
904.663	0.0156809
904.741	0.0158443
904.819	0.0157311
904.897	0.0156956
904.975	0.0156968
905.053	0.0156289
905.131	0.0157266
905.209	0.0157974
905.288	0.0156401
905.366	0.0155945
905.444	0.0157095
905.522	0.0158239
905.600	0.0158730
905.678	0.0158884
905.756	0.0158594
905.834	0.0159447
905.913	0.0159138
905.991	0.0160407
906.069	0.0159907
906.147	0.0159731
906.225	0.0159801
906.303	0.0159195
906.381	0.0158837
906.459	0.0160023
906.538	0.0159749
906.616	0.0160362
906.694	0.0160986
906.772	0.0159483
906.850	0.0159496
906.928	0.0159935
907.006	0.0160431
907.084	0.0160845
907.163	0.0159589
907.241	0.0160101
907.319	0.0160006
907.397	0.0158832
907.475	0.0160040
907.553	0.0159706
907.631	0.0158099
907.709	0.0159168
907.788	0.0159847
907.866	0.0159566
907.944	0.0157273
908.022	0.0159542
908.100	0.0156427
908.178	0.0156459
908.256	0.0158723
908.334	0.0158498
908.413	0.0157932
908.491	0.0155719
908.569	0.0156578
908.647	0.0157093
908.725	0.0156055
908.803	0.0156883
908.881	0.0155806
908.959	0.0156567
909.038	0.0158936
909.116	0.0157794
909.194	0.0155692
909.272	0.0157755
909.350	0.0156918
909.428	0.0156905
909.506	0.0157681
909.584	0.0158669
909.663	0.0159061
909.741	0.0158524
909.819	0.0157563
909.897	0.0159508
909.975	0.0160555
910.053	0.0160128
910.131	0.0160333
910.209	0.0158565
910.288	0.0159323
910.366	0.0159779
910.444	0.0159784
910.522	0.0157973
910.600	0.0159673
910.678	0.0159345
910.756	0.0159479
910.834	0.0158411
910.913	0.0157430
910.991	0.0156647
911.069	0.0155944
911.147	0.0157846
911.225	0.0157386
911.303	0.0156934
911.381	0.0156382
911.459	0.0157458
911.538	0.0157320
911.616	0.0157737
911.694	0.0156421
911.772	0.0159083
911.850	0.0157542
911.928	0.0157067
912.006	0.0156871
912.084	0.0156908
912.163	0.0158889
912.241	0.0158133
912.319	0.0158467
912.397	0.0158945
912.475	0.0160228
912.553	0.0160908
912.631	0.0160822
912.709	0.0162173
912.788	0.0162682
912.866	0.0162209
912.944	0.0163509
913.022	0.0163338
913.100	0.0163264
913.178	0.0163544
913.256	0.0162206
913.334	0.0161198
913.413	0.0161450
913.491	0.0161480
913.569	0.0158596
913.647	0.0158031
913.725	0.0158207
913.803	0.0158250
913.881	0.0157335
913.959	0.0157742
914.038	0.0156776
914.116	0.0155571
914.194	0.0155886
914.272	0.0156172
914.350	0.0155637
914.428	0.0156862
914.506	0.0156786
914.584	0.0156464
914.663	0.0157623
914.741	0.0155869
914.819	0.0156209
914.897	0.0157156
914.975	0.0156263
915.053	0.0156203
915.131	0.0156322
915.209	0.0157471
915.288	0.0156178
915.366	0.0157967
915.444	0.0157903
915.522	0.0159492
915.600	0.0160223
915.678	0.0158822
915.756	0.0160959
915.834	0.0160320
915.913	0.0160546
915.991	0.0159973
916.069	0.0159640
916.147	0.0161960
916.225	0.0160947
916.303	0.0160764
916.381	0.0160916
916.459	0.0160968
916.538	0.0160950
916.616	0.0158677
916.694	0.0159280
916.772	0.0159634
916.850	0.0157165
916.928	0.0156636
917.006	0.0156716
917.084	0.0156290
917.163	0.0154028
917.241	0.0154373
917.319	0.0154534
917.397	0.0154271
917.475	0.0155438
917.553	0.0153866
917.631	0.0154076
917.709	0.0153825
917.788	0.0153728
917.866	0.0155827
917.944	0.0154275
918.022	0.0156401
918.100	0.0155556
918.178	0.0156908
918.256	0.0156399
918.334	0.0156846
918.413	0.0157509
918.491	0.0157887
918.569	0.0157468
918.647	0.0157451
918.725	0.0157990
918.803	0.0157925
918.881	0.0158949
918.959	0.0159568
919.038	0.0159453
919.116	0.0158307
919.194	0.0159596
919.272	0.0158572
919.350	0.0159964
919.428	0.0160246
919.506	0.0161006
919.584	0.0160233
919.663	0.0160817
919.741	0.0160699
919.819	0.0160069
919.897	0.0159089
