05/20/2022	21:05:33	Ver.	4.1	UNKNOWN
Optical Delay	599.975067	Delta X		0.078125	Sweeps	1	Scan Rate	0/0
Coordinates	Axis 1	NaN	Axis 2	NaN	Axis 3	NaN	Axis 4	NaN	Axis 5	NaN	Axis 6	0.000000
TX Power	0.000000	RX Power	0.000000

599.975	0.0156077
600.053	0.0156030
600.131	0.0155253
600.209	0.0155145
600.288	0.0154861
600.366	0.0154713
600.444	0.0154153
600.522	0.0154642
600.600	0.0155053
600.678	0.0154793
600.756	0.0156320
600.834	0.0154250
600.913	0.0156272
600.991	0.0155041
601.069	0.0153947
601.147	0.0154733
601.225	0.0155547
601.303	0.0154967
601.381	0.0154956
601.459	0.0156543
601.538	0.0155402
601.616	0.0154790
601.694	0.0156054
601.772	0.0155402
601.850	0.0155303
601.928	0.0154076
602.006	0.0154866
602.084	0.0155387
602.163	0.0156350
602.241	0.0154406
602.319	0.0155041
602.397	0.0156078
602.475	0.0156384
602.553	0.0154565
602.631	0.0155482
602.709	0.0155979
602.788	0.0155078
602.866	0.0155530
602.944	0.0155724
603.022	0.0155802
603.100	0.0154635
603.178	0.0155415
603.256	0.0156152
603.334	0.0155788
603.413	0.0154971
603.491	0.0154317
603.569	0.0153161
603.647	0.0153650
603.725	0.0153913
603.803	0.0154694
603.881	0.0154369
603.959	0.0154763
604.038	0.0154369
604.116	0.0154613
604.194	0.0155891
604.272	0.0153622
604.350	0.0154913
604.428	0.0153357
604.506	0.0155097
604.584	0.0155333
604.663	0.0153467
604.741	0.0153971
604.819	0.0152302
604.897	0.0155472
604.975	0.0154266
605.053	0.0154312
605.131	0.0154259
605.209	0.0153825
605.288	0.0154686
605.366	0.0155054
605.444	0.0155002
605.522	0.0154375
605.600	0.0154995
605.678	0.0155412
605.756	0.0154715
605.834	0.0154958
605.913	0.0153710
605.991	0.0153597
606.069	0.0154306
606.147	0.0154514
606.225	0.0155945
606.303	0.0154082
606.381	0.0153904
606.459	0.0154920
606.538	0.0153978
606.616	0.0155535
606.694	0.0154269
606.772	0.0154579
606.850	0.0154263
606.928	0.0154445
607.006	0.0154116
607.084	0.0154710
607.163	0.0155064
607.241	0.0154568
607.319	0.0154659
607.397	0.0154990
607.475	0.0155200
607.553	0.0155003
607.631	0.0154718
607.709	0.0155019
607.788	0.0155704
607.866	0.0154140
607.944	0.0154140
608.022	0.0154161
608.100	0.0154028
608.178	0.0154709
608.256	0.0155006
608.334	0.0155321
608.413	0.0154349
608.491	0.0155077
608.569	0.0154287
608.647	0.0156432
608.725	0.0155482
608.803	0.0154633
608.881	0.0157068
608.959	0.0154300
609.038	0.0155705
609.116	0.0155520
609.194	0.0155341
609.272	0.0155030
609.350	0.0154629
609.428	0.0155308
609.506	0.0155169
609.584	0.0155142
609.663	0.0155601
609.741	0.0154763
609.819	0.0156149
609.897	0.0156040
609.975	0.0155569
610.053	0.0154928
610.131	0.0154984
610.209	0.0154229
610.288	0.0155792
610.366	0.0155727
610.444	0.0154833
610.522	0.0155020
610.600	0.0155982
610.678	0.0156174
610.756	0.0154960
610.834	0.0154764
610.913	0.0155213
610.991	0.0157748
611.069	0.0155720
611.147	0.0156005
611.225	0.0153819
611.303	0.0155497
611.381	0.0156896
611.459	0.0155357
611.538	0.0156093
611.616	0.0156457
611.694	0.0155499
611.772	0.0156261
611.850	0.0155499
611.928	0.0155042
612.006	0.0156100
612.084	0.0155077
612.163	0.0155485
612.241	0.0155809
612.319	0.0155177
612.397	0.0155602
612.475	0.0155871
612.553	0.0156277
612.631	0.0155234
612.709	0.0155076
612.788	0.0156208
612.866	0.0156254
612.944	0.0157438
613.022	0.0156625
613.100	0.0156174
613.178	0.0154389
613.256	0.0155852
613.334	0.0155623
613.413	0.0155756
613.491	0.0155639
613.569	0.0156188
613.647	0.0156251
613.725	0.0155283
613.803	0.0155280
613.881	0.0156325
613.959	0.0156358
614.038	0.0155038
614.116	0.0157751
614.194	0.0155730
614.272	0.0154764
614.350	0.0158563
614.428	0.0156475
614.506	0.0155516
614.584	0.0155062
614.663	0.0155968
614.741	0.0157194
614.819	0.0156819
614.897	0.0156774
614.975	0.0156869
615.053	0.0156845
615.131	0.0156145
615.209	0.0156113
615.288	0.0155476
615.366	0.0154641
615.444	0.0157901
615.522	0.0156487
615.600	0.0156174
615.678	0.0156382
615.756	0.0156855
615.834	0.0156939
615.913	0.0157299
615.991	0.0156186
616.069	0.0157037
616.147	0.0156497
616.225	0.0156111
616.303	0.0156723
616.381	0.0155614
616.459	0.0157693
616.538	0.0156970
616.616	0.0154638
616.694	0.0156027
616.772	0.0155914
616.850	0.0155774
616.928	0.0156276
617.006	0.0156139
617.084	0.0156271
617.163	0.0155582
617.241	0.0155317
617.319	0.0156174
617.397	0.0155669
617.475	0.0158332
617.553	0.0156345
617.631	0.0155131
617.709	0.0155791
617.788	0.0156812
617.866	0.0155508
617.944	0.0155959
618.022	0.0154752
618.100	0.0156198
618.178	0.0156747
618.256	0.0155130
618.334	0.0155916
618.413	0.0156423
618.491	0.0155275
618.569	0.0155498
618.647	0.0156649
618.725	0.0154844
618.803	0.0156047
618.881	0.0155235
618.959	0.0156020
619.038	0.0156436
619.116	0.0155318
619.194	0.0155366
619.272	0.0156467
619.350	0.0155244
619.428	0.0155660
619.506	0.0154991
619.584	0.0155725
619.663	0.0156016
619.741	0.0155756
619.819	0.0154974
619.897	0.0154794
619.975	0.0154805
620.053	0.0155111
620.131	0.0155288
620.209	0.0156597
620.288	0.0155432
620.366	0.0155901
620.444	0.0155766
620.522	0.0154549
620.600	0.0155893
620.678	0.0155688
620.756	0.0154008
620.834	0.0155177
620.913	0.0155138
620.991	0.0155424
621.069	0.0154868
621.147	0.0154553
621.225	0.0155895
621.303	0.0155668
621.381	0.0154410
621.459	0.0155411
621.538	0.0154686
621.616	0.0157373
621.694	0.0155930
621.772	0.0154696
621.850	0.0155495
621.928	0.0155241
622.006	0.0156091
622.084	0.0156528
622.163	0.0155551
622.241	0.0156972
622.319	0.0155457
622.397	0.0155682
622.475	0.0154292
622.553	0.0155955
622.631	0.0156091
622.709	0.0155927
622.788	0.0154903
622.866	0.0157339
622.944	0.0156083
623.022	0.0156570
623.100	0.0155577
623.178	0.0155170
623.256	0.0155582
623.334	0.0156953
623.413	0.0156856
623.491	0.0156044
623.569	0.0156035
623.647	0.0155265
623.725	0.0155421
623.803	0.0155832
623.881	0.0155916
623.959	0.0156543
624.038	0.0155544
624.116	0.0155916
624.194	0.0156075
624.272	0.0155390
624.350	0.0155162
624.428	0.0155180
624.506	0.0156315
624.584	0.0156532
624.663	0.0155929
624.741	0.0155487
624.819	0.0155935
624.897	0.0156071
624.975	0.0155286
625.053	0.0157025
625.131	0.0155236
625.209	0.0155598
625.288	0.0154626
625.366	0.0157596
625.444	0.0155173
625.522	0.0153758
625.600	0.0156032
625.678	0.0156399
625.756	0.0154327
625.834	0.0155449
625.913	0.0156539
625.991	0.0154765
626.069	0.0155830
626.147	0.0156361
626.225	0.0155163
626.303	0.0156149
626.381	0.0155290
626.459	0.0154652
626.538	0.0154988
626.616	0.0155006
626.694	0.0154168
626.772	0.0156827
626.850	0.0155821
626.928	0.0155450
627.006	0.0155437
627.084	0.0155704
627.163	0.0154999
627.241	0.0154826
627.319	0.0156171
627.397	0.0155238
627.475	0.0155547
627.553	0.0155216
627.631	0.0154318
627.709	0.0154764
627.788	0.0158001
627.866	0.0155814
627.944	0.0154074
628.022	0.0154219
628.100	0.0156254
628.178	0.0154978
628.256	0.0154436
628.334	0.0154654
628.413	0.0154284
628.491	0.0155701
628.569	0.0156269
628.647	0.0156429
628.725	0.0154362
628.803	0.0155432
628.881	0.0156208
628.959	0.0155615
629.038	0.0156061
629.116	0.0156108
629.194	0.0155880
629.272	0.0154785
629.350	0.0155440
629.428	0.0156711
629.506	0.0155057
629.584	0.0157082
629.663	0.0156116
629.741	0.0157189
629.819	0.0155698
629.897	0.0155045
629.975	0.0155979
630.053	0.0156801
630.131	0.0156078
630.209	0.0156280
630.288	0.0156168
630.366	0.0156738
630.444	0.0156748
630.522	0.0155429
630.600	0.0156495
630.678	0.0156368
630.756	0.0155567
630.834	0.0157038
630.913	0.0156281
630.991	0.0154971
631.069	0.0156640
631.147	0.0156794
631.225	0.0155709
631.303	0.0156181
631.381	0.0155681
631.459	0.0154934
631.538	0.0156646
631.616	0.0156546
631.694	0.0155511
631.772	0.0156512
631.850	0.0156719
631.928	0.0156045
632.006	0.0155817
632.084	0.0155940
632.163	0.0155562
632.241	0.0156645
632.319	0.0155922
632.397	0.0155890
632.475	0.0156033
632.553	0.0156918
632.631	0.0155267
632.709	0.0155859
632.788	0.0155380
632.866	0.0155708
632.944	0.0154991
633.022	0.0154622
633.100	0.0156362
633.178	0.0155968
633.256	0.0155170
633.334	0.0155358
633.413	0.0155881
633.491	0.0157862
633.569	0.0155313
633.647	0.0155411
633.725	0.0155015
633.803	0.0156247
633.881	0.0156217
633.959	0.0156091
634.038	0.0154312
634.116	0.0155167
634.194	0.0156178
634.272	0.0155670
634.350	0.0156146
634.428	0.0154671
634.506	0.0156182
634.584	0.0156087
634.663	0.0155293
634.741	0.0155225
634.819	0.0156271
634.897	0.0155516
634.975	0.0156068
635.053	0.0154511
635.131	0.0155573
635.209	0.0156833
635.288	0.0154620
635.366	0.0154359
635.444	0.0155156
635.522	0.0155667
635.600	0.0155048
635.678	0.0156596
635.756	0.0155141
635.834	0.0154864
635.913	0.0156287
635.991	0.0155502
636.069	0.0155833
636.147	0.0156451
636.225	0.0156524
636.303	0.0155295
636.381	0.0156226
636.459	0.0156295
636.538	0.0156218
636.616	0.0155529
636.694	0.0154488
636.772	0.0156177
636.850	0.0157307
636.928	0.0155820
637.006	0.0154388
637.084	0.0155600
637.163	0.0154844
637.241	0.0156107
637.319	0.0155353
637.397	0.0154946
637.475	0.0155283
637.553	0.0153865
637.631	0.0154997
637.709	0.0155895
637.788	0.0155412
637.866	0.0155954
637.944	0.0155646
638.022	0.0153993
638.100	0.0156068
638.178	0.0154872
638.256	0.0156176
638.334	0.0156683
638.413	0.0155392
638.491	0.0155080
638.569	0.0156251
638.647	0.0156049
638.725	0.0156628
638.803	0.0155397
638.881	0.0154977
638.959	0.0154993
639.038	0.0154651
639.116	0.0154890
639.194	0.0155859
639.272	0.0155591
639.350	0.0155408
639.428	0.0154500
639.506	0.0155406
639.584	0.0154639
639.663	0.0154192
639.741	0.0155067
639.819	0.0156027
639.897	0.0154845
639.975	0.0155723
640.053	0.0154928
640.131	0.0155846
640.209	0.0154961
640.288	0.0153763
640.366	0.0154595
640.444	0.0155221
640.522	0.0155245
640.600	0.0154324
640.678	0.0155605
640.756	0.0155334
640.834	0.0154826
640.913	0.0155589
640.991	0.0155865
641.069	0.0155866
641.147	0.0156199
641.225	0.0155315
641.303	0.0155416
641.381	0.0156109
641.459	0.0156362
641.538	0.0154706
641.616	0.0155344
641.694	0.0156646
641.772	0.0155827
641.850	0.0155530
641.928	0.0155142
642.006	0.0155292
642.084	0.0154414
642.163	0.0155461
642.241	0.0154514
642.319	0.0153502
642.397	0.0155373
642.475	0.0156380
642.553	0.0154865
642.631	0.0154944
642.709	0.0154257
642.788	0.0155328
642.866	0.0155692
642.944	0.0155696
643.022	0.0156101
643.100	0.0156400
643.178	0.0155650
643.256	0.0155273
643.334	0.0154765
643.413	0.0155382
643.491	0.0157443
643.569	0.0156564
643.647	0.0156370
643.725	0.0157449
643.803	0.0156803
643.881	0.0156949
643.959	0.0157015
644.038	0.0156236
644.116	0.0155319
644.194	0.0156066
644.272	0.0153851
644.350	0.0154893
644.428	0.0157835
644.506	0.0156995
644.584	0.0154608
644.663	0.0155663
644.741	0.0155561
644.819	0.0154675
644.897	0.0153531
644.975	0.0154945
645.053	0.0154928
645.131	0.0154506
645.209	0.0154577
645.288	0.0155134
645.366	0.0155045
645.444	0.0154853
645.522	0.0155656
645.600	0.0154272
645.678	0.0155264
645.756	0.0155531
645.834	0.0156684
645.913	0.0157097
645.991	0.0157481
646.069	0.0158414
646.147	0.0158114
646.225	0.0156896
646.303	0.0156611
646.381	0.0158162
646.459	0.0158115
646.538	0.0157547
646.616	0.0157210
646.694	0.0156945
646.772	0.0156311
646.850	0.0156870
646.928	0.0155704
647.006	0.0158087
647.084	0.0156429
647.163	0.0155301
647.241	0.0155861
647.319	0.0155203
647.397	0.0154383
647.475	0.0155692
647.553	0.0155338
647.631	0.0155079
647.709	0.0155517
647.788	0.0152412
647.866	0.0153464
647.944	0.0156189
648.022	0.0153798
648.100	0.0155345
648.178	0.0156424
648.256	0.0155595
648.334	0.0156300
648.413	0.0155466
648.491	0.0155458
648.569	0.0156905
648.647	0.0155006
648.725	0.0154367
648.803	0.0156074
648.881	0.0155307
648.959	0.0155407
649.038	0.0155561
649.116	0.0154672
649.194	0.0154145
649.272	0.0155139
649.350	0.0155555
649.428	0.0154869
649.506	0.0154556
649.584	0.0156075
649.663	0.0154762
649.741	0.0154370
649.819	0.0156721
649.897	0.0154913
649.975	0.0155790
650.053	0.0157374
650.131	0.0157283
650.209	0.0156935
650.288	0.0157137
650.366	0.0156945
650.444	0.0158913
650.522	0.0157669
650.600	0.0158208
650.678	0.0157816
650.756	0.0157606
650.834	0.0156770
650.913	0.0157623
650.991	0.0157185
651.069	0.0155843
651.147	0.0157664
651.225	0.0156110
651.303	0.0158689
651.381	0.0157657
651.459	0.0155818
651.538	0.0157160
651.616	0.0155664
651.694	0.0155538
651.772	0.0155511
651.850	0.0156168
651.928	0.0154989
652.006	0.0154446
652.084	0.0154193
652.163	0.0154877
652.241	0.0153461
652.319	0.0153628
652.397	0.0154697
652.475	0.0153593
652.553	0.0153751
652.631	0.0153400
652.709	0.0152924
652.788	0.0153620
652.866	0.0152887
652.944	0.0153136
653.022	0.0153632
653.100	0.0153873
653.178	0.0155154
653.256	0.0154597
653.334	0.0154146
653.413	0.0154536
653.491	0.0155202
653.569	0.0156923
653.647	0.0156046
653.725	0.0157906
653.803	0.0157814
653.881	0.0157539
653.959	0.0158693
654.038	0.0159135
654.116	0.0157774
654.194	0.0158060
654.272	0.0159447
654.350	0.0159528
654.428	0.0159454
654.506	0.0158214
654.584	0.0157923
654.663	0.0157790
654.741	0.0159381
654.819	0.0158793
654.897	0.0158435
654.975	0.0156438
655.053	0.0156487
655.131	0.0157185
655.209	0.0156675
655.288	0.0156548
655.366	0.0156618
655.444	0.0155042
655.522	0.0155988
655.600	0.0155013
655.678	0.0154501
655.756	0.0154098
655.834	0.0154826
655.913	0.0153303
655.991	0.0153311
656.069	0.0153018
656.147	0.0152538
656.225	0.0154614
656.303	0.0155405
656.381	0.0153267
656.459	0.0152933
656.538	0.0154505
656.616	0.0155601
656.694	0.0154460
656.772	0.0154408
656.850	0.0155315
656.928	0.0155322
657.006	0.0155042
657.084	0.0157319
657.163	0.0155676
657.241	0.0156506
657.319	0.0155917
657.397	0.0155895
657.475	0.0156245
657.553	0.0156513
657.631	0.0156323
657.709	0.0157880
657.788	0.0157729
657.866	0.0157040
657.944	0.0157561
658.022	0.0157306
658.100	0.0157989
658.178	0.0158397
658.256	0.0158105
658.334	0.0158148
658.413	0.0156196
658.491	0.0159660
658.569	0.0157600
658.647	0.0158263
658.725	0.0158279
658.803	0.0158533
658.881	0.0157336
658.959	0.0157509
659.038	0.0157527
659.116	0.0155473
659.194	0.0154832
659.272	0.0155840
659.350	0.0153386
659.428	0.0152769
659.506	0.0153362
659.584	0.0153448
659.663	0.0152374
659.741	0.0151939
659.819	0.0150795
659.897	0.0151815
659.975	0.0150959
660.053	0.0152126
660.131	0.0150103
660.209	0.0151214
660.288	0.0151998
660.366	0.0151508
660.444	0.0150313
660.522	0.0151713
660.600	0.0152214
660.678	0.0152757
660.756	0.0152881
660.834	0.0153071
660.913	0.0154935
660.991	0.0153517
661.069	0.0155489
661.147	0.0155804
661.225	0.0154493
661.303	0.0156603
661.381	0.0155454
661.459	0.0155222
661.538	0.0155300
661.616	0.0156011
661.694	0.0156651
661.772	0.0156527
661.850	0.0156503
661.928	0.0156027
662.006	0.0155973
662.084	0.0155968
662.163	0.0157498
662.241	0.0154771
662.319	0.0155331
662.397	0.0156689
662.475	0.0155787
662.553	0.0154968
662.631	0.0154596
662.709	0.0155078
662.788	0.0156978
662.866	0.0157061
662.944	0.0155939
663.022	0.0154379
663.100	0.0155596
663.178	0.0155882
663.256	0.0156380
663.334	0.0155336
663.413	0.0154597
663.491	0.0154952
663.569	0.0155722
663.647	0.0155540
663.725	0.0155149
663.803	0.0156438
663.881	0.0155556
663.959	0.0155689
664.038	0.0153188
664.116	0.0154674
664.194	0.0154065
664.272	0.0155173
664.350	0.0155753
664.428	0.0154125
664.506	0.0154720
664.584	0.0155466
664.663	0.0154856
664.741	0.0155984
664.819	0.0156133
664.897	0.0156761
664.975	0.0156698
665.053	0.0157321
665.131	0.0158178
665.209	0.0157565
665.288	0.0158935
665.366	0.0157545
665.444	0.0156763
665.522	0.0156892
665.600	0.0156736
665.678	0.0157829
665.756	0.0156905
665.834	0.0156763
665.913	0.0157349
665.991	0.0156609
666.069	0.0157173
666.147	0.0156281
666.225	0.0156824
666.303	0.0156860
666.381	0.0156958
666.459	0.0156824
666.538	0.0155291
666.616	0.0156106
666.694	0.0155351
666.772	0.0155020
666.850	0.0154264
666.928	0.0156864
667.006	0.0155639
667.084	0.0154164
667.163	0.0156086
667.241	0.0155170
667.319	0.0155778
667.397	0.0156630
667.475	0.0155888
667.553	0.0155599
667.631	0.0156132
667.709	0.0156459
667.788	0.0155833
667.866	0.0156528
667.944	0.0157044
668.022	0.0155571
668.100	0.0157809
668.178	0.0157618
668.256	0.0156692
668.334	0.0155620
668.413	0.0156182
668.491	0.0156409
668.569	0.0156023
668.647	0.0156413
668.725	0.0156245
668.803	0.0155709
668.881	0.0154837
668.959	0.0154425
669.038	0.0155791
669.116	0.0156150
669.194	0.0154819
669.272	0.0155120
669.350	0.0154658
669.428	0.0153864
669.506	0.0155133
669.584	0.0155186
669.663	0.0155309
669.741	0.0153958
669.819	0.0154596
669.897	0.0154735
669.975	0.0155546
670.053	0.0156696
670.131	0.0155019
670.209	0.0155499
670.288	0.0155709
670.366	0.0155729
670.444	0.0156886
670.522	0.0157054
670.600	0.0156642
670.678	0.0157868
670.756	0.0156271
670.834	0.0158258
670.913	0.0158199
670.991	0.0157740
671.069	0.0156709
671.147	0.0157347
671.225	0.0158102
671.303	0.0157207
671.381	0.0156703
671.459	0.0157099
671.538	0.0155614
671.616	0.0155241
671.694	0.0155624
671.772	0.0155859
671.850	0.0155142
671.928	0.0154411
672.006	0.0154309
672.084	0.0154930
672.163	0.0154351
672.241	0.0155114
672.319	0.0154232
672.397	0.0154098
672.475	0.0154855
672.553	0.0155478
672.631	0.0155756
672.709	0.0155547
672.788	0.0155640
672.866	0.0155622
672.944	0.0155869
673.022	0.0156869
673.100	0.0156493
673.178	0.0156279
673.256	0.0157472
673.334	0.0155733
673.413	0.0156152
673.491	0.0157020
673.569	0.0156293
673.647	0.0157491
673.725	0.0157817
673.803	0.0156197
673.881	0.0155161
673.959	0.0156477
674.038	0.0155325
674.116	0.0154492
674.194	0.0154233
674.272	0.0153364
674.350	0.0154770
674.428	0.0155108
674.506	0.0154039
674.584	0.0153332
674.663	0.0154121
674.741	0.0154164
674.819	0.0153448
674.897	0.0154686
674.975	0.0153579
675.053	0.0155408
675.131	0.0155978
675.209	0.0155978
675.288	0.0156506
675.366	0.0156220
675.444	0.0156393
675.522	0.0156859
675.600	0.0158186
675.678	0.0155434
675.756	0.0156538
675.834	0.0155843
675.913	0.0156649
675.991	0.0157377
676.069	0.0155995
676.147	0.0156493
676.225	0.0155750
676.303	0.0155871
676.381	0.0155125
676.459	0.0154111
676.538	0.0154316
676.616	0.0154008
676.694	0.0154382
676.772	0.0153233
676.850	0.0155109
676.928	0.0154674
677.006	0.0152918
677.084	0.0155026
677.163	0.0156702
677.241	0.0155804
677.319	0.0156970
677.397	0.0156187
677.475	0.0157384
677.553	0.0156852
677.631	0.0157423
677.709	0.0156784
677.788	0.0156135
677.866	0.0155643
677.944	0.0154906
678.022	0.0154961
678.100	0.0154227
678.178	0.0153588
678.256	0.0151335
678.334	0.0151341
678.413	0.0151183
678.491	0.0152254
678.569	0.0149249
678.647	0.0150217
678.725	0.0151186
678.803	0.0151247
678.881	0.0151918
678.959	0.0153083
679.038	0.0155299
679.116	0.0156218
679.194	0.0158568
679.272	0.0159594
679.350	0.0161380
679.428	0.0164291
679.506	0.0165678
679.584	0.0165501
679.663	0.0165887
679.741	0.0166960
679.819	0.0166246
679.897	0.0165358
679.975	0.0163482
680.053	0.0161878
680.131	0.0160271
680.209	0.0156342
680.288	0.0156207
680.366	0.0153241
680.444	0.0151532
680.522	0.0147778
680.600	0.0146974
680.678	0.0143775
680.756	0.0143486
680.834	0.0143329
680.913	0.0141138
680.991	0.0142167
681.069	0.0141775
681.147	0.0142672
681.225	0.0146933
681.303	0.0147028
681.381	0.0148117
681.459	0.0149625
681.538	0.0152514
681.616	0.0156041
681.694	0.0159685
681.772	0.0160359
681.850	0.0161623
681.928	0.0163058
682.006	0.0165894
682.084	0.0164888
682.163	0.0166357
682.241	0.0165467
682.319	0.0164200
682.397	0.0164154
682.475	0.0163621
682.553	0.0162603
682.631	0.0162165
682.709	0.0158970
682.788	0.0157018
682.866	0.0156210
682.944	0.0155901
683.022	0.0152859
683.100	0.0152927
683.178	0.0152050
683.256	0.0149300
683.334	0.0149224
683.413	0.0150013
683.491	0.0148040
683.569	0.0147083
683.647	0.0146485
683.725	0.0146627
683.803	0.0147640
683.881	0.0147775
683.959	0.0147037
684.038	0.0147961
684.116	0.0150050
684.194	0.0150219
684.272	0.0150875
684.350	0.0152114
684.428	0.0152532
684.506	0.0153307
684.584	0.0155163
684.663	0.0157359
684.741	0.0160794
684.819	0.0160271
684.897	0.0160323
684.975	0.0160607
685.053	0.0161488
685.131	0.0160677
685.209	0.0160658
685.288	0.0159489
685.366	0.0159148
685.444	0.0158448
685.522	0.0155724
685.600	0.0154759
685.678	0.0154200
685.756	0.0153867
685.834	0.0153477
685.913	0.0154622
685.991	0.0152340
686.069	0.0150602
686.147	0.0151618
686.225	0.0152772
686.303	0.0152009
686.381	0.0150520
686.459	0.0152106
686.538	0.0151251
686.616	0.0152259
686.694	0.0154096
686.772	0.0152960
686.850	0.0152220
686.928	0.0153466
687.006	0.0154750
687.084	0.0155512
687.163	0.0155837
687.241	0.0157475
687.319	0.0160135
687.397	0.0162583
687.475	0.0162590
687.553	0.0164722
687.631	0.0167060
687.709	0.0168953
687.788	0.0170676
687.866	0.0172516
687.944	0.0172063
688.022	0.0171880
688.100	0.0170637
688.178	0.0169090
688.256	0.0168026
688.334	0.0164629
688.413	0.0161401
688.491	0.0156835
688.569	0.0153719
688.647	0.0148563
688.725	0.0144346
688.803	0.0139816
688.881	0.0135286
688.959	0.0134015
689.038	0.0132197
689.116	0.0130618
689.194	0.0128434
689.272	0.0127903
689.350	0.0129253
689.428	0.0129984
689.506	0.0131200
689.584	0.0133273
689.663	0.0135083
689.741	0.0138290
689.819	0.0140691
689.897	0.0143132
689.975	0.0147713
690.053	0.0151247
690.131	0.0155911
690.209	0.0159968
690.288	0.0163387
690.366	0.0166190
690.444	0.0170886
690.522	0.0176336
690.600	0.0179641
690.678	0.0184097
690.756	0.0186420
690.834	0.0189492
690.913	0.0190579
690.991	0.0192117
691.069	0.0192345
691.147	0.0192197
691.225	0.0190997
691.303	0.0188433
691.381	0.0186768
691.459	0.0182113
691.538	0.0176083
691.616	0.0172121
691.694	0.0167766
691.772	0.0162361
691.850	0.0156127
691.928	0.0151097
692.006	0.0147282
692.084	0.0142706
692.163	0.0138338
692.241	0.0135668
692.319	0.0130951
692.397	0.0129474
692.475	0.0129132
692.553	0.0127316
692.631	0.0128329
692.709	0.0127741
692.788	0.0129527
692.866	0.0129437
692.944	0.0131727
693.022	0.0133022
693.100	0.0134480
693.178	0.0136971
693.256	0.0137936
693.334	0.0140627
693.413	0.0141522
693.491	0.0142272
693.569	0.0144242
693.647	0.0144843
693.725	0.0145316
693.803	0.0146895
693.881	0.0147044
693.959	0.0146818
694.038	0.0149126
694.116	0.0148991
694.194	0.0153878
694.272	0.0153671
694.350	0.0157835
694.428	0.0161622
694.506	0.0164945
694.584	0.0170294
694.663	0.0172643
694.741	0.0177944
694.819	0.0183241
694.897	0.0187729
694.975	0.0190226
695.053	0.0193690
695.131	0.0195299
695.209	0.0195082
695.288	0.0196989
695.366	0.0194554
695.444	0.0191127
695.522	0.0186304
695.600	0.0180997
695.678	0.0177266
695.756	0.0170626
695.834	0.0166091
695.913	0.0159978
695.991	0.0155420
696.069	0.0149941
696.147	0.0145306
696.225	0.0143103
696.303	0.0140768
696.381	0.0138654
696.459	0.0137050
696.538	0.0136858
696.616	0.0137184
696.694	0.0136699
696.772	0.0135152
696.850	0.0135769
696.928	0.0135770
697.006	0.0137447
697.084	0.0139087
697.163	0.0139548
697.241	0.0140191
697.319	0.0141816
697.397	0.0143005
697.475	0.0143998
697.553	0.0144504
697.631	0.0144575
697.709	0.0145827
697.788	0.0147119
697.866	0.0146436
697.944	0.0145318
698.022	0.0145358
698.100	0.0145956
698.178	0.0145946
698.256	0.0145555
698.334	0.0148170
698.413	0.0149143
698.491	0.0150435
698.569	0.0151284
698.647	0.0154504
698.725	0.0158014
698.803	0.0162420
698.881	0.0165897
698.959	0.0170152
699.038	0.0173487
699.116	0.0176263
699.194	0.0180607
699.272	0.0183032
699.350	0.0183548
699.428	0.0185640
699.506	0.0185377
699.584	0.0186228
699.663	0.0184028
699.741	0.0182243
699.819	0.0180968
699.897	0.0176772
699.975	0.0173109
700.053	0.0170652
700.131	0.0164370
700.209	0.0159355
700.288	0.0156427
700.366	0.0151896
700.444	0.0146828
700.522	0.0143645
700.600	0.0141219
700.678	0.0137423
700.756	0.0134927
700.834	0.0133362
700.913	0.0133122
700.991	0.0132196
701.069	0.0130470
701.147	0.0129350
701.225	0.0130308
701.303	0.0129908
701.381	0.0131685
701.459	0.0131803
701.538	0.0132249
701.616	0.0134227
701.694	0.0134709
701.772	0.0137433
701.850	0.0140147
701.928	0.0143199
702.006	0.0146560
702.084	0.0150899
702.163	0.0153026
702.241	0.0156696
702.319	0.0162044
702.397	0.0166666
702.475	0.0169944
702.553	0.0174156
702.631	0.0176392
702.709	0.0176797
702.788	0.0179931
702.866	0.0181713
702.944	0.0180709
703.022	0.0179723
703.100	0.0178902
703.178	0.0177686
703.256	0.0174641
703.334	0.0173440
703.413	0.0169445
703.491	0.0165738
703.569	0.0164939
703.647	0.0161897
703.725	0.0158936
703.803	0.0157013
703.881	0.0156175
703.959	0.0153886
704.038	0.0150916
704.116	0.0150632
704.194	0.0146821
704.272	0.0145967
704.350	0.0143639
704.428	0.0141752
704.506	0.0139790
704.584	0.0137795
704.663	0.0136935
704.741	0.0137053
704.819	0.0138663
704.897	0.0139022
704.975	0.0140924
705.053	0.0143511
705.131	0.0145261
705.209	0.0148485
705.288	0.0151923
705.366	0.0153876
705.444	0.0155303
705.522	0.0158839
705.600	0.0160382
705.678	0.0160725
705.756	0.0160810
705.834	0.0159955
705.913	0.0160925
705.991	0.0160774
706.069	0.0159824
706.147	0.0160661
706.225	0.0159752
706.303	0.0158788
706.381	0.0157713
706.459	0.0157671
706.538	0.0156963
706.616	0.0155638
706.694	0.0154446
706.772	0.0152801
706.850	0.0150355
706.928	0.0148267
707.006	0.0146664
707.084	0.0145229
707.163	0.0142301
707.241	0.0142548
707.319	0.0141950
707.397	0.0141572
707.475	0.0143617
707.553	0.0145477
707.631	0.0148235
707.709	0.0153775
707.788	0.0157331
707.866	0.0160656
707.944	0.0165122
708.022	0.0167107
708.100	0.0171317
708.178	0.0173062
708.256	0.0176491
708.334	0.0176618
708.413	0.0178284
708.491	0.0178545
708.569	0.0178093
708.647	0.0178256
708.725	0.0177180
708.803	0.0177663
708.881	0.0176869
708.959	0.0176768
709.038	0.0175166
709.116	0.0172873
709.194	0.0171388
709.272	0.0168268
709.350	0.0166464
709.428	0.0163062
709.506	0.0158511
709.584	0.0153299
709.663	0.0148713
709.741	0.0143347
709.819	0.0140407
709.897	0.0135374
709.975	0.0129439
710.053	0.0126572
710.131	0.0124688
710.209	0.0123617
710.288	0.0122597
710.366	0.0124807
710.444	0.0126854
710.522	0.0130254
710.600	0.0131728
710.678	0.0136407
710.756	0.0142298
710.834	0.0148364
710.913	0.0153040
710.991	0.0158286
711.069	0.0163905
711.147	0.0166125
711.225	0.0168961
711.303	0.0172210
711.381	0.0171223
711.459	0.0170578
711.538	0.0172121
711.616	0.0168891
711.694	0.0168548
711.772	0.0166060
711.850	0.0164044
711.928	0.0163597
712.006	0.0162608
712.084	0.0160789
712.163	0.0159952
712.241	0.0159824
712.319	0.0157418
712.397	0.0156840
712.475	0.0157129
712.553	0.0155888
712.631	0.0153262
712.709	0.0151752
712.788	0.0151417
712.866	0.0149330
712.944	0.0147369
713.022	0.0147035
713.100	0.0145399
713.178	0.0146241
713.256	0.0144747
713.334	0.0143085
713.413	0.0144595
713.491	0.0146482
713.569	0.0146999
713.647	0.0148595
713.725	0.0151671
713.803	0.0153065
713.881	0.0155280
713.959	0.0158713
714.038	0.0161455
714.116	0.0162736
714.194	0.0165087
714.272	0.0168243
714.350	0.0170032
714.428	0.0171495
714.506	0.0173739
714.584	0.0174707
714.663	0.0173558
714.741	0.0173067
714.819	0.0172446
714.897	0.0172646
714.975	0.0171397
715.053	0.0169701
715.131	0.0168241
715.209	0.0165992
715.288	0.0165809
715.366	0.0161423
715.444	0.0160285
715.522	0.0161013
715.600	0.0157702
715.678	0.0155150
715.756	0.0154546
715.834	0.0152451
715.913	0.0152115
715.991	0.0152108
716.069	0.0150508
716.147	0.0149824
716.225	0.0147943
716.303	0.0147466
716.381	0.0146832
716.459	0.0146093
716.538	0.0146420
716.616	0.0143963
716.694	0.0143240
716.772	0.0140398
716.850	0.0139724
716.928	0.0137236
717.006	0.0136040
717.084	0.0133796
717.163	0.0134235
717.241	0.0135149
717.319	0.0134962
717.397	0.0134724
717.475	0.0136442
717.553	0.0137273
717.631	0.0140563
717.709	0.0143781
717.788	0.0146586
717.866	0.0149209
717.944	0.0153104
718.022	0.0154813
718.100	0.0157438
718.178	0.0161479
718.256	0.0161565
718.334	0.0163435
718.413	0.0163767
718.491	0.0162903
718.569	0.0163293
718.647	0.0162988
718.725	0.0163454
718.803	0.0164679
718.881	0.0161972
718.959	0.0164077
719.038	0.0163038
719.116	0.0164211
719.194	0.0165958
719.272	0.0165376
719.350	0.0166457
719.428	0.0166829
719.506	0.0168120
719.584	0.0166557
719.663	0.0167300
719.741	0.0168919
719.819	0.0166206
719.897	0.0167722
719.975	0.0167069
720.053	0.0165559
720.131	0.0165736
720.209	0.0165720
720.288	0.0164782
720.366	0.0163525
720.444	0.0163309
720.522	0.0164903
720.600	0.0164908
720.678	0.0164237
720.756	0.0165939
720.834	0.0166425
720.913	0.0165626
720.991	0.0164698
721.069	0.0166667
721.147	0.0165183
721.225	0.0163795
721.303	0.0161088
721.381	0.0158288
721.459	0.0154778
721.538	0.0151582
721.616	0.0147541
721.694	0.0145612
721.772	0.0140801
721.850	0.0137965
721.928	0.0137130
722.006	0.0135423
722.084	0.0134675
722.163	0.0134544
722.241	0.0137112
722.319	0.0139035
722.397	0.0141589
722.475	0.0142132
722.553	0.0145779
722.631	0.0147119
722.709	0.0146428
722.788	0.0148306
722.866	0.0147880
722.944	0.0145826
723.022	0.0144622
723.100	0.0144288
723.178	0.0142834
723.256	0.0142437
723.334	0.0139488
723.413	0.0139318
723.491	0.0140334
723.569	0.0139531
723.647	0.0140632
723.725	0.0140848
723.803	0.0141658
723.881	0.0144513
723.959	0.0145081
724.038	0.0148789
724.116	0.0152364
724.194	0.0154819
724.272	0.0158454
724.350	0.0159382
724.428	0.0162984
724.506	0.0166620
724.584	0.0170651
724.663	0.0174110
724.741	0.0176329
724.819	0.0179570
724.897	0.0182726
724.975	0.0184171
725.053	0.0183476
725.131	0.0183883
725.209	0.0183405
725.288	0.0182551
725.366	0.0180878
725.444	0.0177929
725.522	0.0175545
725.600	0.0173654
725.678	0.0170002
725.756	0.0169246
725.834	0.0167132
725.913	0.0165599
725.991	0.0163941
726.069	0.0161909
726.147	0.0160103
726.225	0.0158092
726.303	0.0157067
726.381	0.0155888
726.459	0.0153040
726.538	0.0152531
726.616	0.0149731
726.694	0.0148264
726.772	0.0146456
726.850	0.0145292
726.928	0.0144580
727.006	0.0143568
727.084	0.0143813
727.163	0.0143410
727.241	0.0142205
727.319	0.0142937
727.397	0.0143991
727.475	0.0144740
727.553	0.0144879
727.631	0.0147809
727.709	0.0147923
727.788	0.0149300
727.866	0.0150772
727.944	0.0152137
728.022	0.0151653
728.100	0.0153355
728.178	0.0153402
728.256	0.0153941
728.334	0.0156015
728.413	0.0155976
728.491	0.0154542
728.569	0.0152695
728.647	0.0153384
728.725	0.0151476
728.803	0.0152039
728.881	0.0150047
728.959	0.0149931
729.038	0.0147867
729.116	0.0148556
729.194	0.0146104
729.272	0.0146047
729.350	0.0145571
729.428	0.0146479
729.506	0.0147470
729.584	0.0150273
729.663	0.0150188
729.741	0.0152724
729.819	0.0154630
729.897	0.0155822
729.975	0.0160703
730.053	0.0163871
730.131	0.0164478
730.209	0.0165971
730.288	0.0169389
730.366	0.0171607
730.444	0.0173543
730.522	0.0174298
730.600	0.0174580
730.678	0.0174978
730.756	0.0174975
730.834	0.0174268
730.913	0.0174757
730.991	0.0175009
731.069	0.0173564
731.147	0.0171619
731.225	0.0168758
731.303	0.0167210
731.381	0.0164626
731.459	0.0160712
731.538	0.0156754
731.616	0.0153106
731.694	0.0150754
731.772	0.0146805
731.850	0.0145164
731.928	0.0144016
732.006	0.0141219
732.084	0.0140694
732.163	0.0141301
732.241	0.0144659
732.319	0.0145788
732.397	0.0147491
732.475	0.0150845
732.553	0.0153706
732.631	0.0155271
732.709	0.0158038
732.788	0.0158588
732.866	0.0159947
732.944	0.0159385
733.022	0.0158516
733.100	0.0157461
733.178	0.0156773
733.256	0.0154969
733.334	0.0154223
733.413	0.0152887
733.491	0.0152209
733.569	0.0152164
733.647	0.0152775
733.725	0.0151768
733.803	0.0152288
733.881	0.0152504
733.959	0.0153970
734.038	0.0155089
734.116	0.0154730
734.194	0.0154502
734.272	0.0155373
734.350	0.0155300
734.428	0.0155103
734.506	0.0154279
734.584	0.0152447
734.663	0.0154092
734.741	0.0155199
734.819	0.0155460
734.897	0.0152235
734.975	0.0152411
735.053	0.0153356
735.131	0.0155333
735.209	0.0154982
735.288	0.0156010
735.366	0.0155515
735.444	0.0156628
735.522	0.0158047
735.600	0.0158422
735.678	0.0158402
735.756	0.0158914
735.834	0.0157793
735.913	0.0158067
735.991	0.0157411
736.069	0.0158940
736.147	0.0160229
736.225	0.0158433
736.303	0.0158945
736.381	0.0158786
736.459	0.0157688
736.538	0.0158192
736.616	0.0158382
736.694	0.0159961
736.772	0.0159422
736.850	0.0159009
736.928	0.0160619
737.006	0.0159930
737.084	0.0159531
737.163	0.0158473
737.241	0.0159091
737.319	0.0159782
737.397	0.0158566
737.475	0.0159029
737.553	0.0157668
737.631	0.0158526
737.709	0.0157571
737.788	0.0157974
737.866	0.0156495
737.944	0.0155161
738.022	0.0154117
738.100	0.0154920
738.178	0.0154707
738.256	0.0151979
738.334	0.0152257
738.413	0.0150499
738.491	0.0150544
738.569	0.0149937
738.647	0.0150745
738.725	0.0151308
738.803	0.0151049
738.881	0.0151289
738.959	0.0150660
739.038	0.0153853
739.116	0.0152055
739.194	0.0149246
739.272	0.0149953
739.350	0.0151183
739.428	0.0149965
739.506	0.0150160
739.584	0.0150655
739.663	0.0148265
739.741	0.0148458
739.819	0.0146034
739.897	0.0149007
739.975	0.0151633
740.053	0.0150690
740.131	0.0153282
740.209	0.0155476
740.288	0.0156728
740.366	0.0158356
740.444	0.0159612
740.522	0.0160249
740.600	0.0158966
740.678	0.0159791
740.756	0.0158646
740.834	0.0157100
740.913	0.0157580
740.991	0.0155615
741.069	0.0155356
741.147	0.0154950
741.225	0.0155357
741.303	0.0154999
741.381	0.0153820
741.459	0.0152556
741.538	0.0154532
741.616	0.0155039
741.694	0.0154520
741.772	0.0154481
741.850	0.0153524
741.928	0.0152020
742.006	0.0151628
742.084	0.0151168
742.163	0.0151483
742.241	0.0151871
742.319	0.0153573
742.397	0.0154639
742.475	0.0155771
742.553	0.0158202
742.631	0.0160433
742.709	0.0160908
742.788	0.0162772
742.866	0.0163096
742.944	0.0163687
743.022	0.0166225
743.100	0.0166260
743.178	0.0165544
743.256	0.0164967
743.334	0.0162656
743.413	0.0160871
743.491	0.0161149
743.569	0.0159463
743.647	0.0158927
743.725	0.0157402
743.803	0.0157565
743.881	0.0156438
743.959	0.0156151
744.038	0.0155887
744.116	0.0156027
744.194	0.0155522
744.272	0.0155367
744.350	0.0156609
744.428	0.0157502
744.506	0.0156963
744.584	0.0154455
744.663	0.0155284
744.741	0.0154118
744.819	0.0151877
744.897	0.0151891
744.975	0.0148991
745.053	0.0146306
745.131	0.0146821
745.209	0.0145557
745.288	0.0141489
745.366	0.0139503
745.444	0.0141921
745.522	0.0139165
745.600	0.0139092
745.678	0.0139357
745.756	0.0140442
745.834	0.0142368
745.913	0.0143651
745.991	0.0146752
746.069	0.0147772
746.147	0.0149106
746.225	0.0152502
746.303	0.0154739
746.381	0.0156478
746.459	0.0159144
746.538	0.0161025
746.616	0.0161682
746.694	0.0165207
746.772	0.0163061
746.850	0.0163080
746.928	0.0165391
747.006	0.0164310
747.084	0.0163526
747.163	0.0162963
747.241	0.0162699
747.319	0.0161193
747.397	0.0159634
747.475	0.0159005
747.553	0.0158638
747.631	0.0158958
747.709	0.0156689
747.788	0.0155415
747.866	0.0155782
747.944	0.0155450
748.022	0.0156216
748.100	0.0156005
748.178	0.0156230
748.256	0.0158080
748.334	0.0161075
748.413	0.0161697
748.491	0.0163653
748.569	0.0164944
748.647	0.0163688
748.725	0.0166467
748.803	0.0166373
748.881	0.0165779
748.959	0.0167770
749.038	0.0164283
749.116	0.0162562
749.194	0.0162525
749.272	0.0161076
749.350	0.0159630
749.428	0.0157780
749.506	0.0157104
749.584	0.0152869
749.663	0.0153502
749.741	0.0153037
749.819	0.0151357
749.897	0.0150494
749.975	0.0149010
750.053	0.0148145
750.131	0.0147730
750.209	0.0149366
750.288	0.0149382
750.366	0.0150356
750.444	0.0151193
750.522	0.0150287
750.600	0.0150396
750.678	0.0150058
750.756	0.0150419
750.834	0.0149967
750.913	0.0149349
750.991	0.0150214
751.069	0.0150462
751.147	0.0148219
751.225	0.0150000
751.303	0.0150298
751.381	0.0151192
751.459	0.0150385
751.538	0.0152007
751.616	0.0154468
751.694	0.0155371
751.772	0.0154683
751.850	0.0156666
751.928	0.0157697
752.006	0.0157465
752.084	0.0157516
752.163	0.0158033
752.241	0.0158591
752.319	0.0157618
752.397	0.0155943
752.475	0.0155899
752.553	0.0157426
752.631	0.0156043
752.709	0.0157005
752.788	0.0157579
752.866	0.0158881
752.944	0.0158143
753.022	0.0159592
753.100	0.0159636
753.178	0.0161227
753.256	0.0161697
753.334	0.0160177
753.413	0.0159522
753.491	0.0159974
753.569	0.0158121
753.647	0.0157662
753.725	0.0157502
753.803	0.0156080
753.881	0.0154981
753.959	0.0153792
754.038	0.0153732
754.116	0.0152392
754.194	0.0152711
754.272	0.0152851
754.350	0.0153104
754.428	0.0153204
754.506	0.0155445
754.584	0.0155138
754.663	0.0155358
754.741	0.0156246
754.819	0.0156231
754.897	0.0156652
754.975	0.0157415
755.053	0.0156548
755.131	0.0158036
755.209	0.0157303
755.288	0.0158058
755.366	0.0157395
755.444	0.0156534
755.522	0.0156503
755.600	0.0155228
755.678	0.0155124
755.756	0.0156719
755.834	0.0157110
755.913	0.0157056
755.991	0.0159449
756.069	0.0159459
756.147	0.0159911
756.225	0.0160300
756.303	0.0164270
756.381	0.0164766
756.459	0.0165555
756.538	0.0165688
756.616	0.0165107
756.694	0.0163840
756.772	0.0164297
756.850	0.0163658
756.928	0.0161250
757.006	0.0159677
757.084	0.0158949
757.163	0.0158001
757.241	0.0155126
757.319	0.0153219
757.397	0.0153127
757.475	0.0151558
757.553	0.0152380
757.631	0.0152053
757.709	0.0151208
757.788	0.0151528
757.866	0.0151463
757.944	0.0152929
758.022	0.0153119
758.100	0.0154820
758.178	0.0154196
758.256	0.0154528
758.334	0.0154446
758.413	0.0155155
758.491	0.0154851
758.569	0.0153199
758.647	0.0152002
758.725	0.0151817
758.803	0.0151156
758.881	0.0151182
758.959	0.0150040
759.038	0.0148011
759.116	0.0148763
759.194	0.0148611
759.272	0.0147619
759.350	0.0147219
759.428	0.0148063
759.506	0.0147159
759.584	0.0147015
759.663	0.0146607
759.741	0.0148301
759.819	0.0148495
759.897	0.0148720
759.975	0.0150396
760.053	0.0149849
760.131	0.0151054
760.209	0.0151450
760.288	0.0153236
760.366	0.0153870
760.444	0.0154875
760.522	0.0153282
760.600	0.0153893
760.678	0.0153492
760.756	0.0154961
760.834	0.0156422
760.913	0.0154915
760.991	0.0155608
761.069	0.0157381
761.147	0.0156581
761.225	0.0158905
761.303	0.0159177
761.381	0.0158195
761.459	0.0158575
761.538	0.0160587
761.616	0.0160034
761.694	0.0160295
761.772	0.0161076
761.850	0.0160898
761.928	0.0160573
762.006	0.0160493
762.084	0.0159772
762.163	0.0159298
762.241	0.0159814
762.319	0.0159556
762.397	0.0158429
762.475	0.0159539
762.553	0.0159190
762.631	0.0159375
762.709	0.0158685
762.788	0.0157839
762.866	0.0159337
762.944	0.0158141
763.022	0.0158426
763.100	0.0159554
763.178	0.0158804
763.256	0.0158594
763.334	0.0157764
763.413	0.0159252
763.491	0.0157560
763.569	0.0158624
763.647	0.0156545
763.725	0.0156896
763.803	0.0157449
763.881	0.0156750
763.959	0.0156450
764.038	0.0156450
764.116	0.0157348
764.194	0.0156175
764.272	0.0156579
764.350	0.0155000
764.428	0.0155509
764.506	0.0155428
764.584	0.0155135
764.663	0.0154499
764.741	0.0153252
764.819	0.0153786
764.897	0.0153542
764.975	0.0151187
765.053	0.0151836
765.131	0.0149912
765.209	0.0149630
765.288	0.0149698
765.366	0.0149010
765.444	0.0148941
765.522	0.0148327
765.600	0.0148307
765.678	0.0149609
765.756	0.0148920
765.834	0.0148960
765.913	0.0149818
765.991	0.0148975
766.069	0.0149524
766.147	0.0150499
766.225	0.0151298
766.303	0.0152081
766.381	0.0151830
766.459	0.0153922
766.538	0.0155743
766.616	0.0155240
766.694	0.0156494
766.772	0.0156504
766.850	0.0158919
766.928	0.0157706
767.006	0.0159689
767.084	0.0159653
767.163	0.0159458
767.241	0.0159665
767.319	0.0159878
767.397	0.0159652
767.475	0.0158380
767.553	0.0157607
767.631	0.0157577
767.709	0.0156048
767.788	0.0154519
767.866	0.0153513
767.944	0.0152584
768.022	0.0153175
768.100	0.0153847
768.178	0.0150952
768.256	0.0152579
768.334	0.0153412
768.413	0.0154899
768.491	0.0155759
768.569	0.0155161
768.647	0.0155392
768.725	0.0158646
768.803	0.0158537
768.881	0.0157368
768.959	0.0159516
769.038	0.0157999
769.116	0.0159281
769.194	0.0159424
769.272	0.0159242
769.350	0.0158951
769.428	0.0159688
769.506	0.0159486
769.584	0.0160159
769.663	0.0161087
769.741	0.0161436
769.819	0.0160088
769.897	0.0160622
769.975	0.0161149
770.053	0.0160484
770.131	0.0160567
770.209	0.0160500
770.288	0.0158471
770.366	0.0159276
770.444	0.0157919
770.522	0.0156717
770.600	0.0157750
770.678	0.0154314
770.756	0.0153842
770.834	0.0152742
770.913	0.0151054
770.991	0.0149908
771.069	0.0151189
771.147	0.0150642
771.225	0.0149632
771.303	0.0150267
771.381	0.0150816
771.459	0.0151226
771.538	0.0151434
771.616	0.0152010
771.694	0.0153280
771.772	0.0155094
771.850	0.0153671
771.928	0.0154253
772.006	0.0157030
772.084	0.0156104
772.163	0.0155390
772.241	0.0154906
772.319	0.0155939
772.397	0.0154498
772.475	0.0156414
772.553	0.0156786
772.631	0.0155540
772.709	0.0155019
772.788	0.0155025
772.866	0.0155046
772.944	0.0155380
773.022	0.0155312
773.100	0.0153425
773.178	0.0153210
773.256	0.0151627
773.334	0.0152000
773.413	0.0151948
773.491	0.0150684
773.569	0.0151395
773.647	0.0150167
773.725	0.0150522
773.803	0.0150538
773.881	0.0150507
773.959	0.0150143
774.038	0.0151852
774.116	0.0152769
774.194	0.0152370
774.272	0.0154430
774.350	0.0154118
774.428	0.0154954
774.506	0.0155004
774.584	0.0154823
774.663	0.0155488
774.741	0.0155779
774.819	0.0155070
774.897	0.0155398
774.975	0.0156235
775.053	0.0156589
775.131	0.0157126
775.209	0.0156185
775.288	0.0156282
775.366	0.0157641
775.444	0.0157854
775.522	0.0157349
775.600	0.0159029
775.678	0.0156560
775.756	0.0157150
775.834	0.0157053
775.913	0.0156871
775.991	0.0157201
776.069	0.0158103
776.147	0.0156170
776.225	0.0157672
776.303	0.0156062
776.381	0.0156712
776.459	0.0155184
776.538	0.0154756
776.616	0.0156172
776.694	0.0156946
776.772	0.0157129
776.850	0.0158333
776.928	0.0156802
777.006	0.0158536
777.084	0.0160322
777.163	0.0159782
777.241	0.0159303
777.319	0.0159120
777.397	0.0160470
777.475	0.0159811
777.553	0.0159446
777.631	0.0159973
777.709	0.0158514
777.788	0.0158100
777.866	0.0157442
777.944	0.0155792
778.022	0.0156717
778.100	0.0155521
778.178	0.0152876
778.256	0.0154179
778.334	0.0155305
778.413	0.0154842
778.491	0.0153847
778.569	0.0155444
778.647	0.0152785
778.725	0.0153455
778.803	0.0153735
778.881	0.0154575
778.959	0.0153395
779.038	0.0154749
779.116	0.0155882
779.194	0.0155169
779.272	0.0155034
779.350	0.0155236
779.428	0.0155618
779.506	0.0155196
779.584	0.0155798
779.663	0.0156889
779.741	0.0153485
779.819	0.0153474
779.897	0.0154490
779.975	0.0154937
780.053	0.0153798
780.131	0.0154315
780.209	0.0155434
780.288	0.0154484
780.366	0.0152354
780.444	0.0153488
780.522	0.0153625
780.600	0.0153246
780.678	0.0152491
780.756	0.0151742
780.834	0.0152940
780.913	0.0150217
780.991	0.0151290
781.069	0.0150909
781.147	0.0150661
781.225	0.0150979
781.303	0.0152882
781.381	0.0152789
781.459	0.0153017
781.538	0.0153293
781.616	0.0153895
781.694	0.0155200
781.772	0.0155711
781.850	0.0155322
781.928	0.0156656
782.006	0.0156139
782.084	0.0155231
782.163	0.0156179
782.241	0.0155677
782.319	0.0155039
782.397	0.0155096
782.475	0.0155785
782.553	0.0154937
782.631	0.0153272
782.709	0.0154416
782.788	0.0153799
782.866	0.0153020
782.944	0.0154124
783.022	0.0154134
783.100	0.0154316
783.178	0.0155975
783.256	0.0153955
783.334	0.0154706
783.413	0.0155025
783.491	0.0155571
783.569	0.0155394
783.647	0.0157423
783.725	0.0156824
783.803	0.0158788
783.881	0.0158260
783.959	0.0159686
784.038	0.0159303
784.116	0.0158934
784.194	0.0160329
784.272	0.0161806
784.350	0.0160831
784.428	0.0162045
784.506	0.0160263
784.584	0.0161399
784.663	0.0160567
784.741	0.0159113
784.819	0.0157702
784.897	0.0159803
784.975	0.0158105
785.053	0.0156863
785.131	0.0155783
785.209	0.0154696
785.288	0.0156082
785.366	0.0155931
785.444	0.0153732
785.522	0.0154404
785.600	0.0153826
785.678	0.0154133
785.756	0.0153796
785.834	0.0154296
785.913	0.0154633
785.991	0.0155123
786.069	0.0154812
786.147	0.0155788
786.225	0.0154435
786.303	0.0154881
786.381	0.0154861
786.459	0.0154641
786.538	0.0152989
786.616	0.0153471
786.694	0.0154665
786.772	0.0153469
786.850	0.0154528
786.928	0.0154929
787.006	0.0155289
787.084	0.0156908
787.163	0.0156706
787.241	0.0157556
787.319	0.0159278
787.397	0.0160547
787.475	0.0160818
787.553	0.0159965
787.631	0.0161034
787.709	0.0161145
787.788	0.0160934
787.866	0.0159834
787.944	0.0158241
788.022	0.0158253
788.100	0.0156689
788.178	0.0157148
788.256	0.0155279
788.334	0.0153793
788.413	0.0154290
788.491	0.0152588
788.569	0.0151463
788.647	0.0151585
788.725	0.0151553
788.803	0.0149715
788.881	0.0150988
788.959	0.0151100
789.038	0.0151241
789.116	0.0151913
789.194	0.0151686
789.272	0.0152011
789.350	0.0151939
789.428	0.0152437
789.506	0.0152918
789.584	0.0150719
789.663	0.0152200
789.741	0.0153085
789.819	0.0151038
789.897	0.0151880
789.975	0.0152162
790.053	0.0151848
790.131	0.0154411
790.209	0.0153726
790.288	0.0154662
790.366	0.0154038
790.444	0.0155609
790.522	0.0157117
790.600	0.0155956
790.678	0.0155423
790.756	0.0156441
790.834	0.0157024
790.913	0.0157905
790.991	0.0158239
791.069	0.0157761
791.147	0.0157174
791.225	0.0157935
791.303	0.0159569
791.381	0.0160452
791.459	0.0160062
791.538	0.0160179
791.616	0.0161616
791.694	0.0161170
791.772	0.0163701
791.850	0.0163904
791.928	0.0163445
792.006	0.0163187
792.084	0.0161988
792.163	0.0163835
792.241	0.0162898
792.319	0.0163719
792.397	0.0161548
792.475	0.0161240
792.553	0.0160428
792.631	0.0159095
792.709	0.0159956
792.788	0.0158218
792.866	0.0157738
792.944	0.0156374
793.022	0.0156487
793.100	0.0156193
793.178	0.0156948
793.256	0.0155643
793.334	0.0153860
793.413	0.0153008
793.491	0.0152793
793.569	0.0153623
793.647	0.0150691
793.725	0.0151885
793.803	0.0151521
793.881	0.0151749
793.959	0.0151761
794.038	0.0150807
794.116	0.0151041
794.194	0.0151589
794.272	0.0150751
794.350	0.0151432
794.428	0.0152458
794.506	0.0151512
794.584	0.0152594
794.663	0.0153116
794.741	0.0151196
794.819	0.0152639
794.897	0.0153353
794.975	0.0151730
795.053	0.0153247
795.131	0.0154455
795.209	0.0156144
795.288	0.0155183
795.366	0.0155822
795.444	0.0155907
795.522	0.0155582
795.600	0.0158213
795.678	0.0157668
795.756	0.0156575
795.834	0.0156898
795.913	0.0157270
795.991	0.0157647
796.069	0.0157822
796.147	0.0158216
796.225	0.0157555
796.303	0.0157952
796.381	0.0156245
796.459	0.0156715
796.538	0.0155519
796.616	0.0156388
796.694	0.0155755
796.772	0.0155376
796.850	0.0153823
796.928	0.0152929
797.006	0.0154588
797.084	0.0153333
797.163	0.0152802
797.241	0.0152351
797.319	0.0151063
797.397	0.0151514
797.475	0.0153165
797.553	0.0152997
797.631	0.0152236
797.709	0.0151554
797.788	0.0152303
797.866	0.0152874
797.944	0.0152376
798.022	0.0152195
798.100	0.0153979
798.178	0.0155780
798.256	0.0153855
798.334	0.0152463
798.413	0.0153743
798.491	0.0155090
798.569	0.0154893
798.647	0.0155230
798.725	0.0154591
798.803	0.0155316
798.881	0.0155337
798.959	0.0156209
799.038	0.0156255
799.116	0.0157316
799.194	0.0158597
799.272	0.0157766
799.350	0.0158813
799.428	0.0158759
799.506	0.0159864
799.584	0.0159384
799.663	0.0159828
799.741	0.0159769
799.819	0.0159898
799.897	0.0159794
799.975	0.0158953
800.053	0.0159554
800.131	0.0158401
800.209	0.0158037
800.288	0.0158945
800.366	0.0157604
800.444	0.0156829
800.522	0.0157700
800.600	0.0156866
800.678	0.0156689
800.756	0.0157190
800.834	0.0156087
800.913	0.0154397
800.991	0.0155802
801.069	0.0154714
801.147	0.0153109
801.225	0.0152625
801.303	0.0152494
801.381	0.0152196
801.459	0.0151064
801.538	0.0152335
801.616	0.0152843
801.694	0.0153284
801.772	0.0152483
801.850	0.0152372
801.928	0.0153551
802.006	0.0152711
802.084	0.0153047
802.163	0.0154469
802.241	0.0151730
802.319	0.0152608
802.397	0.0152734
802.475	0.0152655
802.553	0.0150950
802.631	0.0152098
802.709	0.0151812
802.788	0.0153107
802.866	0.0150905
802.944	0.0153161
803.022	0.0152885
803.100	0.0155309
803.178	0.0154732
803.256	0.0154279
803.334	0.0155092
803.413	0.0156394
803.491	0.0156212
803.569	0.0156585
803.647	0.0155266
803.725	0.0154063
803.803	0.0156579
803.881	0.0157010
803.959	0.0157777
804.038	0.0156920
804.116	0.0156802
804.194	0.0155605
804.272	0.0153678
804.350	0.0156742
804.428	0.0157435
804.506	0.0155973
804.584	0.0156154
804.663	0.0155872
804.741	0.0154049
804.819	0.0154131
804.897	0.0153633
804.975	0.0152364
805.053	0.0154160
805.131	0.0155757
805.209	0.0154752
805.288	0.0154393
805.366	0.0155284
805.444	0.0156194
805.522	0.0155351
805.600	0.0154073
805.678	0.0155333
805.756	0.0155711
805.834	0.0156187
805.913	0.0156978
805.991	0.0157457
806.069	0.0155653
806.147	0.0155075
806.225	0.0155625
806.303	0.0155258
806.381	0.0156642
806.459	0.0154582
806.538	0.0154603
806.616	0.0155849
806.694	0.0155112
806.772	0.0154531
806.850	0.0155685
806.928	0.0153548
807.006	0.0154358
807.084	0.0154515
807.163	0.0155004
807.241	0.0154758
807.319	0.0153889
807.397	0.0154839
807.475	0.0154774
807.553	0.0156356
807.631	0.0154382
807.709	0.0154764
807.788	0.0157209
807.866	0.0157431
807.944	0.0158606
808.022	0.0159095
808.100	0.0160863
808.178	0.0160378
808.256	0.0160320
808.334	0.0161201
808.413	0.0159009
808.491	0.0159925
808.569	0.0161307
808.647	0.0160051
808.725	0.0158665
808.803	0.0158883
808.881	0.0158177
808.959	0.0157523
809.038	0.0157880
809.116	0.0155812
809.194	0.0156779
809.272	0.0156048
809.350	0.0157624
809.428	0.0155740
809.506	0.0157051
809.584	0.0156625
809.663	0.0156376
809.741	0.0156506
809.819	0.0154694
809.897	0.0155310
809.975	0.0155743
810.053	0.0156876
810.131	0.0155843
810.209	0.0155031
810.288	0.0154521
810.366	0.0155894
810.444	0.0156380
810.522	0.0156738
810.600	0.0155719
810.678	0.0156623
810.756	0.0156357
810.834	0.0155144
810.913	0.0156876
810.991	0.0156180
811.069	0.0156422
811.147	0.0156312
811.225	0.0157200
811.303	0.0157526
811.381	0.0156945
811.459	0.0156026
811.538	0.0158435
811.616	0.0156163
811.694	0.0157632
811.772	0.0156747
811.850	0.0157800
811.928	0.0157323
812.006	0.0156650
812.084	0.0157809
812.163	0.0157751
812.241	0.0157145
812.319	0.0155390
812.397	0.0154823
812.475	0.0155435
812.553	0.0154558
812.631	0.0155434
812.709	0.0154549
812.788	0.0153991
812.866	0.0154098
812.944	0.0152383
813.022	0.0153588
813.100	0.0154934
813.178	0.0153573
813.256	0.0151301
813.334	0.0151592
813.413	0.0151137
813.491	0.0149754
813.569	0.0149349
813.647	0.0150284
813.725	0.0150404
813.803	0.0150101
813.881	0.0149737
813.959	0.0149721
814.038	0.0150704
814.116	0.0150511
814.194	0.0150757
814.272	0.0153549
814.350	0.0152853
814.428	0.0152796
814.506	0.0154698
814.584	0.0155298
814.663	0.0153728
814.741	0.0154215
814.819	0.0154777
814.897	0.0154054
814.975	0.0157496
815.053	0.0156841
815.131	0.0155897
815.209	0.0156149
815.288	0.0157912
815.366	0.0157072
815.444	0.0158327
815.522	0.0157209
815.600	0.0158052
815.678	0.0157039
815.756	0.0157040
815.834	0.0158885
815.913	0.0157670
815.991	0.0157925
816.069	0.0158192
816.147	0.0159487
816.225	0.0158628
816.303	0.0158376
816.381	0.0158462
816.459	0.0159186
816.538	0.0158952
816.616	0.0159428
816.694	0.0157552
816.772	0.0157204
816.850	0.0157883
816.928	0.0157372
817.006	0.0156575
817.084	0.0157136
817.163	0.0157094
817.241	0.0156582
817.319	0.0154529
817.397	0.0156024
817.475	0.0156145
817.553	0.0155290
817.631	0.0154768
817.709	0.0154816
817.788	0.0154285
817.866	0.0153220
817.944	0.0153725
818.022	0.0152097
818.100	0.0152361
818.178	0.0153702
818.256	0.0152031
818.334	0.0152297
818.413	0.0152403
818.491	0.0151376
818.569	0.0152644
818.647	0.0153070
818.725	0.0152399
818.803	0.0152157
818.881	0.0151861
818.959	0.0151205
819.038	0.0152432
819.116	0.0152164
819.194	0.0152548
819.272	0.0151655
819.350	0.0152833
819.428	0.0152040
819.506	0.0151633
819.584	0.0152067
819.663	0.0150600
819.741	0.0151868
819.819	0.0152356
819.897	0.0151364
819.975	0.0150347
820.053	0.0149767
820.131	0.0150326
820.209	0.0151017
820.288	0.0153516
820.366	0.0152297
820.444	0.0152246
820.522	0.0151302
820.600	0.0152547
820.678	0.0155299
820.756	0.0155926
820.834	0.0156187
820.913	0.0156174
820.991	0.0156275
821.069	0.0158362
821.147	0.0157794
821.225	0.0158617
821.303	0.0159906
821.381	0.0158842
821.459	0.0159180
821.538	0.0160184
821.616	0.0161220
821.694	0.0160006
821.772	0.0160773
821.850	0.0160027
821.928	0.0158944
822.006	0.0159184
822.084	0.0160109
822.163	0.0159546
822.241	0.0159113
822.319	0.0157835
822.397	0.0156451
822.475	0.0156883
822.553	0.0155981
822.631	0.0154934
822.709	0.0155769
822.788	0.0154826
822.866	0.0154208
822.944	0.0154733
823.022	0.0154381
823.100	0.0153755
823.178	0.0154514
823.256	0.0154728
823.334	0.0154414
823.413	0.0154842
823.491	0.0154102
823.569	0.0156264
823.647	0.0154840
823.725	0.0156039
823.803	0.0156387
823.881	0.0155120
823.959	0.0155714
824.038	0.0156047
824.116	0.0154587
824.194	0.0156726
824.272	0.0155333
824.350	0.0154520
824.428	0.0155105
824.506	0.0156172
824.584	0.0154796
824.663	0.0154272
824.741	0.0155229
824.819	0.0155529
824.897	0.0154660
824.975	0.0152041
825.053	0.0152957
825.131	0.0154163
825.209	0.0152592
825.288	0.0153323
825.366	0.0155217
825.444	0.0154025
825.522	0.0154112
825.600	0.0153605
825.678	0.0153733
825.756	0.0154823
825.834	0.0153754
825.913	0.0152905
825.991	0.0155814
826.069	0.0155488
826.147	0.0155765
826.225	0.0154841
826.303	0.0155202
826.381	0.0155739
826.459	0.0156197
826.538	0.0155739
826.616	0.0157083
826.694	0.0157310
826.772	0.0156096
826.850	0.0154973
826.928	0.0156487
827.006	0.0156918
827.084	0.0157095
827.163	0.0157399
827.241	0.0157013
827.319	0.0156926
827.397	0.0156998
827.475	0.0159224
827.553	0.0159209
827.631	0.0157565
827.709	0.0159057
827.788	0.0159769
827.866	0.0159570
827.944	0.0159671
828.022	0.0160455
828.100	0.0159787
828.178	0.0158785
828.256	0.0159898
828.334	0.0158777
828.413	0.0158411
828.491	0.0157377
828.569	0.0156648
828.647	0.0157074
828.725	0.0154490
828.803	0.0154929
828.881	0.0154177
828.959	0.0154887
829.038	0.0153322
829.116	0.0155170
829.194	0.0154524
829.272	0.0153437
829.350	0.0153546
829.428	0.0153812
829.506	0.0152534
829.584	0.0154733
829.663	0.0155270
829.741	0.0155347
829.819	0.0156133
829.897	0.0154339
829.975	0.0154488
830.053	0.0155662
830.131	0.0156003
830.209	0.0156745
830.288	0.0157302
830.366	0.0155653
830.444	0.0155875
830.522	0.0156142
830.600	0.0156108
830.678	0.0154860
830.756	0.0156825
830.834	0.0155402
830.913	0.0155862
830.991	0.0154651
831.069	0.0155357
831.147	0.0155042
831.225	0.0153902
831.303	0.0154569
831.381	0.0155158
831.459	0.0154407
831.538	0.0154655
831.616	0.0155046
831.694	0.0155747
831.772	0.0154884
831.850	0.0153873
831.928	0.0157042
832.006	0.0155338
832.084	0.0155518
832.163	0.0156995
832.241	0.0155534
832.319	0.0155380
832.397	0.0155512
832.475	0.0156487
832.553	0.0159089
832.631	0.0158877
832.709	0.0158241
832.788	0.0158639
832.866	0.0158904
832.944	0.0158689
833.022	0.0158165
833.100	0.0158637
833.178	0.0159534
833.256	0.0158548
833.334	0.0158214
833.413	0.0158481
833.491	0.0159187
833.569	0.0158175
833.647	0.0158980
833.725	0.0159651
833.803	0.0158833
833.881	0.0156939
833.959	0.0156853
834.038	0.0157317
834.116	0.0157053
834.194	0.0155852
834.272	0.0155136
834.350	0.0154975
834.428	0.0155168
834.506	0.0155875
834.584	0.0154576
834.663	0.0154042
834.741	0.0153606
834.819	0.0154150
834.897	0.0153515
834.975	0.0154032
835.053	0.0152508
835.131	0.0153522
835.209	0.0153066
835.288	0.0152827
835.366	0.0151890
835.444	0.0153555
835.522	0.0154181
835.600	0.0154127
835.678	0.0152532
835.756	0.0151913
835.834	0.0152691
835.913	0.0152916
835.991	0.0151904
836.069	0.0153928
836.147	0.0151530
836.225	0.0152063
836.303	0.0154530
836.381	0.0153550
836.459	0.0153767
836.538	0.0155291
836.616	0.0154736
836.694	0.0154364
836.772	0.0155112
836.850	0.0155386
836.928	0.0156177
837.006	0.0156494
837.084	0.0156944
837.163	0.0156490
837.241	0.0155127
837.319	0.0157021
837.397	0.0155341
837.475	0.0154449
837.553	0.0153291
837.631	0.0154432
837.709	0.0154743
837.788	0.0154464
837.866	0.0152766
837.944	0.0154573
838.022	0.0153587
838.100	0.0153819
838.178	0.0153441
838.256	0.0154187
838.334	0.0153694
838.413	0.0153725
838.491	0.0154921
838.569	0.0155257
838.647	0.0155813
838.725	0.0156618
838.803	0.0156305
838.881	0.0156217
838.959	0.0156052
839.038	0.0156908
839.116	0.0158968
839.194	0.0156741
839.272	0.0156484
839.350	0.0157811
839.428	0.0157503
839.506	0.0157625
839.584	0.0157681
839.663	0.0157097
839.741	0.0155189
839.819	0.0156127
839.897	0.0156873
839.975	0.0155794
840.053	0.0155589
840.131	0.0153751
840.209	0.0154751
840.288	0.0154068
840.366	0.0153143
840.444	0.0153114
840.522	0.0153762
840.600	0.0153945
840.678	0.0153259
840.756	0.0152999
840.834	0.0152245
840.913	0.0153312
840.991	0.0153751
841.069	0.0153181
841.147	0.0153572
841.225	0.0153786
841.303	0.0152721
841.381	0.0154197
841.459	0.0155270
841.538	0.0156860
841.616	0.0155350
841.694	0.0155531
841.772	0.0156169
841.850	0.0154489
841.928	0.0154814
842.006	0.0155008
842.084	0.0152984
842.163	0.0153577
842.241	0.0154584
842.319	0.0153648
842.397	0.0153614
842.475	0.0153420
842.553	0.0153970
842.631	0.0154109
842.709	0.0154286
842.788	0.0152280
842.866	0.0153628
842.944	0.0152979
843.022	0.0152454
843.100	0.0153258
843.178	0.0153529
843.256	0.0152348
843.334	0.0152819
843.413	0.0153105
843.491	0.0153035
843.569	0.0155532
843.647	0.0152711
843.725	0.0154139
843.803	0.0153178
843.881	0.0154220
843.959	0.0155622
844.038	0.0155595
844.116	0.0154463
844.194	0.0155751
844.272	0.0156223
844.350	0.0155307
844.428	0.0155808
844.506	0.0154208
844.584	0.0156851
844.663	0.0157136
844.741	0.0155413
844.819	0.0157091
844.897	0.0156535
844.975	0.0157522
845.053	0.0156985
845.131	0.0156251
845.209	0.0156718
845.288	0.0157751
845.366	0.0156584
845.444	0.0157028
845.522	0.0156232
845.600	0.0155460
845.678	0.0155544
845.756	0.0156040
845.834	0.0155787
845.913	0.0153595
845.991	0.0155898
846.069	0.0155245
846.147	0.0154613
846.225	0.0152989
846.303	0.0153513
846.381	0.0153029
846.459	0.0152425
846.538	0.0152470
846.616	0.0152526
846.694	0.0152927
846.772	0.0151210
846.850	0.0152328
846.928	0.0151189
847.006	0.0151314
847.084	0.0152705
847.163	0.0150333
847.241	0.0152726
847.319	0.0152372
847.397	0.0152020
847.475	0.0152601
847.553	0.0152730
847.631	0.0153400
847.709	0.0154111
847.788	0.0154823
847.866	0.0153628
847.944	0.0155546
848.022	0.0155434
848.100	0.0155855
848.178	0.0156265
848.256	0.0155983
848.334	0.0157050
848.413	0.0157932
848.491	0.0156164
848.569	0.0156415
848.647	0.0157748
848.725	0.0156561
848.803	0.0157047
848.881	0.0157124
848.959	0.0157571
849.038	0.0157047
849.116	0.0157308
849.194	0.0158296
849.272	0.0157549
849.350	0.0157900
849.428	0.0158189
849.506	0.0157966
849.584	0.0157093
849.663	0.0157110
849.741	0.0155927
849.819	0.0157117
849.897	0.0157354
849.975	0.0156315
850.053	0.0155602
850.131	0.0156428
850.209	0.0155123
850.288	0.0153960
850.366	0.0154696
850.444	0.0153787
850.522	0.0155138
850.600	0.0153630
850.678	0.0154085
850.756	0.0153424
850.834	0.0153909
850.913	0.0154401
850.991	0.0154584
851.069	0.0154318
851.147	0.0156227
851.225	0.0155246
851.303	0.0155870
851.381	0.0156137
851.459	0.0156914
851.538	0.0159389
851.616	0.0159322
851.694	0.0159285
851.772	0.0159608
851.850	0.0159481
851.928	0.0159531
852.006	0.0159872
852.084	0.0158616
852.163	0.0158612
852.241	0.0158513
852.319	0.0158755
852.397	0.0159180
852.475	0.0157806
852.553	0.0158836
852.631	0.0156475
852.709	0.0158079
852.788	0.0158226
852.866	0.0154430
852.944	0.0155966
853.022	0.0156754
853.100	0.0155399
853.178	0.0154991
853.256	0.0156563
853.334	0.0157036
853.413	0.0155197
853.491	0.0156645
853.569	0.0156028
853.647	0.0155595
853.725	0.0156447
853.803	0.0156045
853.881	0.0155885
853.959	0.0156641
854.038	0.0154934
854.116	0.0156480
854.194	0.0157023
854.272	0.0156953
854.350	0.0157716
854.428	0.0156348
854.506	0.0158570
854.584	0.0158997
854.663	0.0156969
854.741	0.0158292
854.819	0.0158651
854.897	0.0157597
854.975	0.0156552
855.053	0.0156788
855.131	0.0157874
855.209	0.0156845
855.288	0.0156041
855.366	0.0155918
855.444	0.0154750
855.522	0.0154777
855.600	0.0154431
855.678	0.0153791
855.756	0.0154567
855.834	0.0154002
855.913	0.0155540
855.991	0.0154564
856.069	0.0154684
856.147	0.0154737
856.225	0.0154173
856.303	0.0155118
856.381	0.0155190
856.459	0.0155277
856.538	0.0156861
856.616	0.0156561
856.694	0.0156808
856.772	0.0158389
856.850	0.0158862
856.928	0.0160018
857.006	0.0158324
857.084	0.0158506
857.163	0.0159837
857.241	0.0158904
857.319	0.0159030
857.397	0.0155905
857.475	0.0156809
857.553	0.0157251
857.631	0.0156576
857.709	0.0156931
857.788	0.0156464
857.866	0.0155977
857.944	0.0155643
858.022	0.0154790
858.100	0.0155869
858.178	0.0155677
858.256	0.0155140
858.334	0.0156296
858.413	0.0154832
858.491	0.0155750
858.569	0.0155460
858.647	0.0155335
858.725	0.0156402
858.803	0.0156226
858.881	0.0155158
858.959	0.0156094
859.038	0.0155308
859.116	0.0154002
859.194	0.0154527
859.272	0.0153886
859.350	0.0151969
859.428	0.0152989
859.506	0.0152811
859.584	0.0151147
859.663	0.0151799
859.741	0.0151633
859.819	0.0150167
859.897	0.0151277
859.975	0.0149675
860.053	0.0151150
860.131	0.0152367
860.209	0.0151178
860.288	0.0150816
860.366	0.0151650
860.444	0.0152306
860.522	0.0153050
860.600	0.0151883
860.678	0.0153080
860.756	0.0152946
860.834	0.0153355
860.913	0.0152456
860.991	0.0153767
861.069	0.0154809
861.147	0.0154813
861.225	0.0153059
861.303	0.0152999
861.381	0.0153751
861.459	0.0153670
861.538	0.0155404
861.616	0.0153707
861.694	0.0153223
861.772	0.0153698
861.850	0.0154379
861.928	0.0153499
862.006	0.0153300
862.084	0.0153620
862.163	0.0153471
862.241	0.0154717
862.319	0.0153510
862.397	0.0153023
862.475	0.0155126
862.553	0.0155657
862.631	0.0155442
862.709	0.0155048
862.788	0.0155296
862.866	0.0157064
862.944	0.0156622
863.022	0.0156348
863.100	0.0155898
863.178	0.0155823
863.256	0.0156968
863.334	0.0156454
863.413	0.0156046
863.491	0.0156019
863.569	0.0155653
863.647	0.0158222
863.725	0.0155513
863.803	0.0155240
863.881	0.0155977
863.959	0.0154719
864.038	0.0154005
864.116	0.0153817
864.194	0.0154326
864.272	0.0155005
864.350	0.0154063
864.428	0.0154576
864.506	0.0154136
864.584	0.0153789
864.663	0.0153575
864.741	0.0153993
864.819	0.0154891
864.897	0.0155319
864.975	0.0152893
865.053	0.0155956
865.131	0.0154573
865.209	0.0155337
865.288	0.0156187
865.366	0.0157137
865.444	0.0155893
865.522	0.0156536
865.600	0.0155984
865.678	0.0155340
865.756	0.0156995
865.834	0.0156126
865.913	0.0157011
865.991	0.0156567
866.069	0.0156153
866.147	0.0156185
866.225	0.0156670
866.303	0.0154941
866.381	0.0156780
866.459	0.0156918
866.538	0.0155412
866.616	0.0156318
866.694	0.0156790
866.772	0.0156130
866.850	0.0154610
866.928	0.0156696
867.006	0.0155722
867.084	0.0157317
867.163	0.0156908
867.241	0.0155776
867.319	0.0157310
867.397	0.0157410
867.475	0.0156893
867.553	0.0155570
867.631	0.0156824
867.709	0.0156408
867.788	0.0155927
867.866	0.0155714
867.944	0.0155551
868.022	0.0154559
868.100	0.0151629
868.178	0.0152943
868.256	0.0152259
868.334	0.0153562
868.413	0.0152105
868.491	0.0150589
868.569	0.0152199
868.647	0.0151166
868.725	0.0151816
868.803	0.0152409
868.881	0.0152549
868.959	0.0152390
869.038	0.0153754
869.116	0.0153472
869.194	0.0153826
869.272	0.0152617
869.350	0.0154697
869.428	0.0153951
869.506	0.0155004
869.584	0.0154132
869.663	0.0155551
869.741	0.0156161
869.819	0.0155607
869.897	0.0153757
869.975	0.0154671
870.053	0.0154899
870.131	0.0155349
870.209	0.0156007
870.288	0.0156364
870.366	0.0155961
870.444	0.0155615
870.522	0.0155409
870.600	0.0154939
870.678	0.0156496
870.756	0.0155222
870.834	0.0155010
870.913	0.0154875
870.991	0.0154513
871.069	0.0154575
871.147	0.0155669
871.225	0.0155168
871.303	0.0156186
871.381	0.0154952
871.459	0.0155726
871.538	0.0156043
871.616	0.0156322
871.694	0.0156564
871.772	0.0154744
871.850	0.0155003
871.928	0.0155860
872.006	0.0155521
872.084	0.0155421
872.163	0.0155376
872.241	0.0156422
872.319	0.0155722
872.397	0.0155891
872.475	0.0155261
872.553	0.0155975
872.631	0.0156479
872.709	0.0155709
872.788	0.0154850
872.866	0.0155578
872.944	0.0156202
873.022	0.0154162
873.100	0.0155719
873.178	0.0156304
873.256	0.0156714
873.334	0.0155566
873.413	0.0155402
873.491	0.0156079
873.569	0.0155920
873.647	0.0156982
873.725	0.0155392
873.803	0.0155284
873.881	0.0155482
873.959	0.0154227
874.038	0.0154084
874.116	0.0154628
874.194	0.0155859
874.272	0.0154719
874.350	0.0155045
874.428	0.0155312
874.506	0.0156787
874.584	0.0156551
874.663	0.0155683
874.741	0.0157286
874.819	0.0156909
874.897	0.0157404
874.975	0.0157075
875.053	0.0156819
875.131	0.0157685
875.209	0.0156506
875.288	0.0157013
875.366	0.0157897
875.444	0.0157595
875.522	0.0156047
875.600	0.0157080
875.678	0.0156631
875.756	0.0155940
875.834	0.0156732
875.913	0.0156152
875.991	0.0155759
876.069	0.0155093
876.147	0.0155651
876.225	0.0156304
876.303	0.0155802
876.381	0.0156007
876.459	0.0156501
876.538	0.0157008
876.616	0.0156122
876.694	0.0156696
876.772	0.0158276
876.850	0.0156791
876.928	0.0154626
877.006	0.0157137
877.084	0.0157307
877.163	0.0155730
877.241	0.0156467
877.319	0.0155441
877.397	0.0153882
877.475	0.0154504
877.553	0.0154729
877.631	0.0153232
877.709	0.0153168
877.788	0.0152586
877.866	0.0153878
877.944	0.0153874
878.022	0.0152696
878.100	0.0153855
878.178	0.0153309
878.256	0.0154369
878.334	0.0154851
878.413	0.0154778
878.491	0.0155743
878.569	0.0156181
878.647	0.0158064
878.725	0.0157688
878.803	0.0157181
878.881	0.0156678
878.959	0.0157978
879.038	0.0158340
879.116	0.0157412
879.194	0.0159350
879.272	0.0158944
879.350	0.0158057
879.428	0.0157144
879.506	0.0158611
879.584	0.0156879
879.663	0.0156447
879.741	0.0157349
879.819	0.0156333
879.897	0.0154372
879.975	0.0153654
880.053	0.0153593
880.131	0.0153407
880.209	0.0154720
880.288	0.0153065
880.366	0.0154103
880.444	0.0153304
880.522	0.0153092
880.600	0.0154149
880.678	0.0155396
880.756	0.0155611
880.834	0.0153764
880.913	0.0155336
880.991	0.0156621
881.069	0.0159122
881.147	0.0158579
881.225	0.0157429
881.303	0.0158337
881.381	0.0158286
881.459	0.0157586
881.538	0.0158169
881.616	0.0158353
881.694	0.0157556
881.772	0.0157424
881.850	0.0158112
881.928	0.0158202
882.006	0.0156651
882.084	0.0157535
882.163	0.0157291
882.241	0.0157495
882.319	0.0157883
882.397	0.0156345
882.475	0.0155824
882.553	0.0155672
882.631	0.0156377
882.709	0.0156288
882.788	0.0156117
882.866	0.0155231
882.944	0.0155293
883.022	0.0155815
883.100	0.0154221
883.178	0.0155130
883.256	0.0153249
883.334	0.0152564
883.413	0.0152882
883.491	0.0153046
883.569	0.0153261
883.647	0.0153526
883.725	0.0152720
883.803	0.0152924
883.881	0.0153557
883.959	0.0153751
884.038	0.0154241
884.116	0.0155106
884.194	0.0156975
884.272	0.0155429
884.350	0.0155916
884.428	0.0156369
884.506	0.0155376
884.584	0.0156331
884.663	0.0154861
884.741	0.0155659
884.819	0.0156687
884.897	0.0157590
884.975	0.0156716
885.053	0.0157069
885.131	0.0156945
885.209	0.0155882
885.288	0.0155875
885.366	0.0156169
885.444	0.0156332
885.522	0.0155642
885.600	0.0155512
885.678	0.0155740
885.756	0.0155403
885.834	0.0155587
885.913	0.0157251
885.991	0.0156167
886.069	0.0156116
886.147	0.0156367
886.225	0.0156458
886.303	0.0157275
886.381	0.0158885
886.459	0.0157195
886.538	0.0159508
886.616	0.0157436
886.694	0.0158022
886.772	0.0157977
886.850	0.0157447
886.928	0.0156570
887.006	0.0158019
887.084	0.0158055
887.163	0.0156387
887.241	0.0155801
887.319	0.0155687
887.397	0.0154113
887.475	0.0155120
887.553	0.0154256
887.631	0.0154548
887.709	0.0154502
887.788	0.0155436
887.866	0.0154894
887.944	0.0155686
888.022	0.0155513
888.100	0.0155927
888.178	0.0155132
888.256	0.0153144
888.334	0.0153942
888.413	0.0156318
888.491	0.0156789
888.569	0.0155494
888.647	0.0154489
888.725	0.0154416
888.803	0.0154719
888.881	0.0154080
888.959	0.0154027
889.038	0.0154330
889.116	0.0154036
889.194	0.0155992
889.272	0.0155293
889.350	0.0155466
889.428	0.0154544
889.506	0.0156039
889.584	0.0155943
889.663	0.0154021
889.741	0.0156842
889.819	0.0156490
889.897	0.0155702
889.975	0.0155217
890.053	0.0155956
890.131	0.0155611
890.209	0.0156917
890.288	0.0157141
890.366	0.0158230
890.444	0.0156409
890.522	0.0157121
890.600	0.0158025
890.678	0.0157110
890.756	0.0158492
890.834	0.0158019
890.913	0.0157815
890.991	0.0158054
891.069	0.0156828
891.147	0.0158355
891.225	0.0157432
891.303	0.0156735
891.381	0.0157414
891.459	0.0156287
891.538	0.0156103
891.616	0.0154833
891.694	0.0156090
891.772	0.0154676
891.850	0.0153480
891.928	0.0152887
892.006	0.0154308
892.084	0.0153822
892.163	0.0154283
892.241	0.0153703
892.319	0.0153497
892.397	0.0155064
892.475	0.0154604
892.553	0.0154485
892.631	0.0152730
892.709	0.0155061
892.788	0.0153855
892.866	0.0154841
892.944	0.0154195
893.022	0.0154906
893.100	0.0154182
893.178	0.0154066
893.256	0.0154169
893.334	0.0155602
893.413	0.0155186
893.491	0.0154890
893.569	0.0155371
893.647	0.0156222
893.725	0.0155956
893.803	0.0156375
893.881	0.0156094
893.959	0.0157305
894.038	0.0155276
894.116	0.0158531
894.194	0.0157652
894.272	0.0155447
894.350	0.0157319
894.428	0.0157833
894.506	0.0155649
894.584	0.0157011
894.663	0.0156712
894.741	0.0155810
894.819	0.0154528
894.897	0.0155591
894.975	0.0156186
895.053	0.0155885
895.131	0.0154841
895.209	0.0153670
895.288	0.0154070
895.366	0.0154726
895.444	0.0155742
895.522	0.0154401
895.600	0.0154243
895.678	0.0152843
895.756	0.0153080
895.834	0.0153960
895.913	0.0153433
895.991	0.0152882
896.069	0.0153549
896.147	0.0151839
896.225	0.0152711
896.303	0.0151514
896.381	0.0151621
896.459	0.0153233
896.538	0.0153214
896.616	0.0152838
896.694	0.0153014
896.772	0.0154004
896.850	0.0154632
896.928	0.0155507
897.006	0.0156760
897.084	0.0156378
897.163	0.0156011
897.241	0.0157281
897.319	0.0155881
897.397	0.0156035
897.475	0.0156104
897.553	0.0156586
897.631	0.0154968
897.709	0.0155656
897.788	0.0155029
897.866	0.0153867
897.944	0.0153569
898.022	0.0153486
898.100	0.0153954
898.178	0.0151791
898.256	0.0154644
898.334	0.0153745
898.413	0.0152267
898.491	0.0152924
898.569	0.0152971
898.647	0.0153245
898.725	0.0153291
898.803	0.0152785
898.881	0.0154375
898.959	0.0153957
899.038	0.0153490
899.116	0.0153478
899.194	0.0154807
899.272	0.0154058
899.350	0.0154624
899.428	0.0155217
899.506	0.0155965
899.584	0.0157139
899.663	0.0155189
899.741	0.0155956
899.819	0.0157280
899.897	0.0157779
899.975	0.0157064
900.053	0.0157326
900.131	0.0158190
900.209	0.0157004
900.288	0.0157673
900.366	0.0157093
900.444	0.0157892
900.522	0.0157838
900.600	0.0156289
900.678	0.0156951
900.756	0.0156544
900.834	0.0157080
900.913	0.0156873
900.991	0.0154781
901.069	0.0155496
901.147	0.0154889
901.225	0.0155048
901.303	0.0154866
901.381	0.0154110
901.459	0.0155220
901.538	0.0152552
901.616	0.0153664
901.694	0.0153046
901.772	0.0152335
901.850	0.0153673
901.928	0.0153755
902.006	0.0152699
902.084	0.0152711
902.163	0.0153546
902.241	0.0153603
902.319	0.0154465
902.397	0.0156071
902.475	0.0156815
902.553	0.0156477
902.631	0.0156352
902.709	0.0157090
902.788	0.0158278
902.866	0.0159839
902.944	0.0158849
903.022	0.0159056
903.100	0.0157214
903.178	0.0157484
903.256	0.0157239
903.334	0.0157442
903.413	0.0156767
903.491	0.0155862
903.569	0.0155410
903.647	0.0155140
903.725	0.0156682
903.803	0.0155553
903.881	0.0155409
903.959	0.0155701
904.038	0.0155358
904.116	0.0156135
904.194	0.0156237
904.272	0.0155809
904.350	0.0156808
904.428	0.0157005
904.506	0.0156298
904.584	0.0155314
904.663	0.0157085
904.741	0.0156737
904.819	0.0154661
904.897	0.0154739
904.975	0.0154780
905.053	0.0154453
905.131	0.0155529
905.209	0.0155331
905.288	0.0154359
905.366	0.0155669
905.444	0.0156764
905.522	0.0155245
905.600	0.0156903
905.678	0.0157631
905.756	0.0157856
905.834	0.0157653
905.913	0.0157853
905.991	0.0159524
906.069	0.0158330
906.147	0.0158006
906.225	0.0157381
906.303	0.0157994
906.381	0.0157937
906.459	0.0157108
906.538	0.0157812
906.616	0.0156271
906.694	0.0156610
906.772	0.0156356
906.850	0.0156929
906.928	0.0156574
907.006	0.0156074
907.084	0.0157124
907.163	0.0156035
907.241	0.0156533
907.319	0.0155832
907.397	0.0154659
907.475	0.0154843
907.553	0.0155148
907.631	0.0154655
907.709	0.0155671
907.788	0.0154966
907.866	0.0155756
907.944	0.0155897
908.022	0.0154680
908.100	0.0154597
908.178	0.0155172
908.256	0.0154630
908.334	0.0154097
908.413	0.0153606
908.491	0.0155446
908.569	0.0154704
908.647	0.0154341
908.725	0.0155017
908.803	0.0154726
908.881	0.0155256
908.959	0.0155956
909.038	0.0156171
909.116	0.0156933
909.194	0.0156586
909.272	0.0155591
909.350	0.0157990
909.428	0.0156495
909.506	0.0157931
909.584	0.0158154
909.663	0.0158298
909.741	0.0158483
909.819	0.0159086
909.897	0.0157920
909.975	0.0158398
910.053	0.0160038
910.131	0.0158542
910.209	0.0159435
910.288	0.0157939
910.366	0.0157894
910.444	0.0157763
910.522	0.0157807
910.600	0.0156583
910.678	0.0157140
910.756	0.0158073
910.834	0.0156050
910.913	0.0156954
910.991	0.0156533
911.069	0.0154323
911.147	0.0154956
911.225	0.0155444
911.303	0.0155013
911.381	0.0156008
911.459	0.0155303
911.538	0.0154165
911.616	0.0154784
911.694	0.0155595
911.772	0.0156086
911.850	0.0154730
911.928	0.0153381
912.006	0.0154791
912.084	0.0156834
912.163	0.0156340
912.241	0.0157119
912.319	0.0157116
912.397	0.0158565
912.475	0.0158476
912.553	0.0159158
912.631	0.0160100
912.709	0.0158882
912.788	0.0160316
912.866	0.0159578
912.944	0.0159568
913.022	0.0158512
913.100	0.0159683
913.178	0.0158993
913.256	0.0157802
913.334	0.0157195
913.413	0.0156283
913.491	0.0154672
913.569	0.0153680
913.647	0.0154820
913.725	0.0154215
913.803	0.0155812
913.881	0.0153176
913.959	0.0152797
914.038	0.0153453
914.116	0.0154016
914.194	0.0153724
914.272	0.0152704
914.350	0.0154620
914.428	0.0155328
914.506	0.0154887
914.584	0.0153008
914.663	0.0153865
914.741	0.0153828
914.819	0.0154594
914.897	0.0154400
914.975	0.0154198
915.053	0.0154950
915.131	0.0154535
915.209	0.0154877
915.288	0.0156379
915.366	0.0159090
915.444	0.0157332
915.522	0.0158551
915.600	0.0158175
915.678	0.0158070
915.756	0.0160120
915.834	0.0158938
915.913	0.0159995
915.991	0.0159611
916.069	0.0158572
916.147	0.0158329
916.225	0.0160409
916.303	0.0158774
916.381	0.0158965
916.459	0.0159196
916.538	0.0158086
916.616	0.0157601
916.694	0.0155917
916.772	0.0154726
916.850	0.0154527
916.928	0.0154311
917.006	0.0153632
917.084	0.0153382
917.163	0.0151879
917.241	0.0150436
917.319	0.0151556
917.397	0.0150384
917.475	0.0150755
917.553	0.0150497
917.631	0.0151048
917.709	0.0151088
917.788	0.0151025
917.866	0.0151385
917.944	0.0151711
918.022	0.0152505
918.100	0.0152322
918.178	0.0151307
918.256	0.0153057
918.334	0.0153864
918.413	0.0154591
918.491	0.0155520
918.569	0.0155267
918.647	0.0157182
918.725	0.0156767
918.803	0.0157310
918.881	0.0156853
918.959	0.0156575
919.038	0.0157085
919.116	0.0157677
919.194	0.0159027
919.272	0.0159044
919.350	0.0157304
919.428	0.0158049
919.506	0.0158724
919.584	0.0158804
919.663	0.0158650
919.741	0.0158546
919.819	0.0156738
919.897	0.0156427
