05/20/2022	21:07:48	Ver.	4.1	UNKNOWN
Optical Delay	599.975067	Delta X		0.078125	Sweeps	1	Scan Rate	0/0
Coordinates	Axis 1	NaN	Axis 2	NaN	Axis 3	NaN	Axis 4	NaN	Axis 5	NaN	Axis 6	0.000000
TX Power	0.000000	RX Power	0.000000

599.975	0.0152809
600.053	0.0151870
600.131	0.0151993
600.209	0.0151982
600.288	0.0152724
600.366	0.0152026
600.444	0.0152953
600.522	0.0152296
600.600	0.0152345
600.678	0.0152649
600.756	0.0153069
600.834	0.0151662
600.913	0.0152828
600.991	0.0151593
601.069	0.0152172
601.147	0.0152821
601.225	0.0153019
601.303	0.0152418
601.381	0.0152159
601.459	0.0152636
601.538	0.0150813
601.616	0.0151970
601.694	0.0151015
601.772	0.0151556
601.850	0.0152090
601.928	0.0152527
602.006	0.0151712
602.084	0.0152209
602.163	0.0152586
602.241	0.0151184
602.319	0.0152408
602.397	0.0152672
602.475	0.0152177
602.553	0.0152425
602.631	0.0152513
602.709	0.0153012
602.788	0.0152082
602.866	0.0151324
602.944	0.0151501
603.022	0.0152480
603.100	0.0151647
603.178	0.0151907
603.256	0.0151609
603.334	0.0151646
603.413	0.0151339
603.491	0.0152976
603.569	0.0153143
603.647	0.0151786
603.725	0.0152272
603.803	0.0152676
603.881	0.0152262
603.959	0.0152579
604.038	0.0152614
604.116	0.0152528
604.194	0.0151999
604.272	0.0152685
604.350	0.0152124
604.428	0.0152501
604.506	0.0151621
604.584	0.0152522
604.663	0.0152889
604.741	0.0152948
604.819	0.0152277
604.897	0.0152242
604.975	0.0151884
605.053	0.0152015
605.131	0.0152054
605.209	0.0153152
605.288	0.0151501
605.366	0.0152690
605.444	0.0150724
605.522	0.0152650
605.600	0.0152508
605.678	0.0152662
605.756	0.0152051
605.834	0.0151656
605.913	0.0152111
605.991	0.0151700
606.069	0.0152711
606.147	0.0153064
606.225	0.0151581
606.303	0.0151948
606.381	0.0153048
606.459	0.0153593
606.538	0.0150445
606.616	0.0151636
606.694	0.0152382
606.772	0.0152149
606.850	0.0151904
606.928	0.0150936
607.006	0.0150163
607.084	0.0152705
607.163	0.0152498
607.241	0.0152568
607.319	0.0152853
607.397	0.0152773
607.475	0.0152032
607.553	0.0151213
607.631	0.0152937
607.709	0.0151736
607.788	0.0152221
607.866	0.0153054
607.944	0.0151069
608.022	0.0150446
608.100	0.0152494
608.178	0.0152134
608.256	0.0152216
608.334	0.0152597
608.413	0.0152165
608.491	0.0150666
608.569	0.0151807
608.647	0.0154060
608.725	0.0152752
608.803	0.0151480
608.881	0.0152378
608.959	0.0152916
609.038	0.0151444
609.116	0.0151067
609.194	0.0152010
609.272	0.0152711
609.350	0.0152241
609.428	0.0151719
609.506	0.0153306
609.584	0.0151475
609.663	0.0152389
609.741	0.0152497
609.819	0.0152232
609.897	0.0152543
609.975	0.0152332
610.053	0.0152128
610.131	0.0153176
610.209	0.0151154
610.288	0.0151916
610.366	0.0152380
610.444	0.0152643
610.522	0.0152341
610.600	0.0151712
610.678	0.0150829
610.756	0.0152892
610.834	0.0153571
610.913	0.0152131
610.991	0.0153573
611.069	0.0152785
611.147	0.0151578
611.225	0.0151981
611.303	0.0152263
611.381	0.0154593
611.459	0.0152725
611.538	0.0151350
611.616	0.0151802
611.694	0.0152829
611.772	0.0153051
611.850	0.0150986
611.928	0.0153193
612.006	0.0152763
612.084	0.0152230
612.163	0.0152116
612.241	0.0152122
612.319	0.0152618
612.397	0.0152709
612.475	0.0151672
612.553	0.0151629
612.631	0.0153636
612.709	0.0151608
612.788	0.0151231
612.866	0.0152792
612.944	0.0152962
613.022	0.0152804
613.100	0.0152946
613.178	0.0152482
613.256	0.0152877
613.334	0.0152203
613.413	0.0152465
613.491	0.0152663
613.569	0.0152377
613.647	0.0152849
613.725	0.0152118
613.803	0.0153826
613.881	0.0152914
613.959	0.0152850
614.038	0.0153381
614.116	0.0152839
614.194	0.0153345
614.272	0.0153609
614.350	0.0153005
614.428	0.0152090
614.506	0.0152969
614.584	0.0153310
614.663	0.0153652
614.741	0.0152181
614.819	0.0153838
614.897	0.0153595
614.975	0.0152755
615.053	0.0152940
615.131	0.0152311
615.209	0.0153148
615.288	0.0152830
615.366	0.0153004
615.444	0.0153512
615.522	0.0153172
615.600	0.0152082
615.678	0.0152413
615.756	0.0154244
615.834	0.0152948
615.913	0.0153436
615.991	0.0153503
616.069	0.0152869
616.147	0.0153321
616.225	0.0153665
616.303	0.0152576
616.381	0.0152753
616.459	0.0153542
616.538	0.0152777
616.616	0.0152596
616.694	0.0152464
616.772	0.0153840
616.850	0.0152913
616.928	0.0153128
617.006	0.0153292
617.084	0.0153403
617.163	0.0153994
617.241	0.0152776
617.319	0.0152934
617.397	0.0153951
617.475	0.0152464
617.553	0.0153131
617.631	0.0152447
617.709	0.0153385
617.788	0.0152835
617.866	0.0153992
617.944	0.0152159
618.022	0.0152802
618.100	0.0153409
618.178	0.0153919
618.256	0.0153421
618.334	0.0153611
618.413	0.0152948
618.491	0.0151482
618.569	0.0153971
618.647	0.0151804
618.725	0.0151215
618.803	0.0153088
618.881	0.0152268
618.959	0.0152192
619.038	0.0152428
619.116	0.0153811
619.194	0.0152727
619.272	0.0152702
619.350	0.0151878
619.428	0.0151595
619.506	0.0152546
619.584	0.0152035
619.663	0.0152809
619.741	0.0154155
619.819	0.0153492
619.897	0.0153165
619.975	0.0152036
620.053	0.0153535
620.131	0.0153051
620.209	0.0151254
620.288	0.0153313
620.366	0.0154138
620.444	0.0152750
620.522	0.0150619
620.600	0.0152244
620.678	0.0153849
620.756	0.0153743
620.834	0.0152633
620.913	0.0151983
620.991	0.0153541
621.069	0.0153796
621.147	0.0152908
621.225	0.0152571
621.303	0.0152380
621.381	0.0154370
621.459	0.0152580
621.538	0.0152834
621.616	0.0152049
621.694	0.0152702
621.772	0.0152599
621.850	0.0151569
621.928	0.0151604
622.006	0.0153996
622.084	0.0151267
622.163	0.0152424
622.241	0.0151549
622.319	0.0154292
622.397	0.0152871
622.475	0.0153278
622.553	0.0151894
622.631	0.0150875
622.709	0.0151148
622.788	0.0151981
622.866	0.0150455
622.944	0.0151995
623.022	0.0153134
623.100	0.0152188
623.178	0.0151985
623.256	0.0151153
623.334	0.0151708
623.413	0.0152129
623.491	0.0152724
623.569	0.0151263
623.647	0.0152197
623.725	0.0151603
623.803	0.0153146
623.881	0.0151653
623.959	0.0152168
624.038	0.0151453
624.116	0.0151486
624.194	0.0152062
624.272	0.0152331
624.350	0.0150714
624.428	0.0151487
624.506	0.0152874
624.584	0.0151299
624.663	0.0150980
624.741	0.0151491
624.819	0.0151479
624.897	0.0152132
624.975	0.0151881
625.053	0.0151363
625.131	0.0151841
625.209	0.0151745
625.288	0.0150330
625.366	0.0152855
625.444	0.0152209
625.522	0.0151917
625.600	0.0150555
625.678	0.0151659
625.756	0.0151852
625.834	0.0152502
625.913	0.0150989
625.991	0.0151688
626.069	0.0152396
626.147	0.0150545
626.225	0.0152000
626.303	0.0151009
626.381	0.0151844
626.459	0.0151477
626.538	0.0150781
626.616	0.0151352
626.694	0.0152708
626.772	0.0151720
626.850	0.0150084
626.928	0.0150735
627.006	0.0150797
627.084	0.0151083
627.163	0.0151761
627.241	0.0151125
627.319	0.0149707
627.397	0.0152061
627.475	0.0152454
627.553	0.0151227
627.631	0.0150699
627.709	0.0151737
627.788	0.0152116
627.866	0.0151114
627.944	0.0151294
628.022	0.0152057
628.100	0.0151048
628.178	0.0153194
628.256	0.0151002
628.334	0.0150832
628.413	0.0152211
628.491	0.0151266
628.569	0.0150865
628.647	0.0151580
628.725	0.0153098
628.803	0.0151540
628.881	0.0149879
628.959	0.0151215
629.038	0.0153227
629.116	0.0151334
629.194	0.0150951
629.272	0.0152232
629.350	0.0151101
629.428	0.0152120
629.506	0.0152056
629.584	0.0150228
629.663	0.0152058
629.741	0.0152726
629.819	0.0152193
629.897	0.0152238
629.975	0.0152267
630.053	0.0150130
630.131	0.0152469
630.209	0.0151525
630.288	0.0152352
630.366	0.0151533
630.444	0.0152003
630.522	0.0151787
630.600	0.0151291
630.678	0.0151197
630.756	0.0152812
630.834	0.0151725
630.913	0.0152245
630.991	0.0152684
631.069	0.0153272
631.147	0.0151176
631.225	0.0152721
631.303	0.0153329
631.381	0.0152589
631.459	0.0152563
631.538	0.0152736
631.616	0.0152361
631.694	0.0153902
631.772	0.0151961
631.850	0.0152258
631.928	0.0152474
632.006	0.0152258
632.084	0.0153292
632.163	0.0151295
632.241	0.0151425
632.319	0.0152554
632.397	0.0152271
632.475	0.0152014
632.553	0.0153078
632.631	0.0153394
632.709	0.0152895
632.788	0.0152296
632.866	0.0151540
632.944	0.0152221
633.022	0.0152863
633.100	0.0151277
633.178	0.0152229
633.256	0.0152629
633.334	0.0152589
633.413	0.0151927
633.491	0.0151064
633.569	0.0153266
633.647	0.0151964
633.725	0.0154370
633.803	0.0154291
633.881	0.0153117
633.959	0.0153606
634.038	0.0153835
634.116	0.0153075
634.194	0.0154269
634.272	0.0152848
634.350	0.0153100
634.428	0.0153841
634.506	0.0154276
634.584	0.0154076
634.663	0.0154086
634.741	0.0152016
634.819	0.0152863
634.897	0.0152970
634.975	0.0151345
635.053	0.0151607
635.131	0.0152444
635.209	0.0151070
635.288	0.0151839
635.366	0.0152069
635.444	0.0151859
635.522	0.0151003
635.600	0.0150910
635.678	0.0151649
635.756	0.0151339
635.834	0.0150938
635.913	0.0150956
635.991	0.0152324
636.069	0.0152939
636.147	0.0153204
636.225	0.0152556
636.303	0.0151992
636.381	0.0153140
636.459	0.0153057
636.538	0.0153149
636.616	0.0154108
636.694	0.0153034
636.772	0.0152435
636.850	0.0152433
636.928	0.0154470
637.006	0.0153316
637.084	0.0151971
637.163	0.0154269
637.241	0.0153993
637.319	0.0151857
637.397	0.0153374
637.475	0.0153069
637.553	0.0152188
637.631	0.0152577
637.709	0.0153026
637.788	0.0150835
637.866	0.0151601
637.944	0.0152685
638.022	0.0153647
638.100	0.0152370
638.178	0.0152488
638.256	0.0151569
638.334	0.0151362
638.413	0.0151978
638.491	0.0151814
638.569	0.0150548
638.647	0.0152430
638.725	0.0152719
638.803	0.0151871
638.881	0.0150565
638.959	0.0151262
639.038	0.0151890
639.116	0.0150807
639.194	0.0151725
639.272	0.0151502
639.350	0.0151299
639.428	0.0153426
639.506	0.0152349
639.584	0.0150445
639.663	0.0151865
639.741	0.0152309
639.819	0.0151624
639.897	0.0151918
639.975	0.0152161
640.053	0.0150264
640.131	0.0152360
640.209	0.0151651
640.288	0.0152066
640.366	0.0151366
640.444	0.0152168
640.522	0.0153345
640.600	0.0152612
640.678	0.0152549
640.756	0.0153327
640.834	0.0153985
640.913	0.0152307
640.991	0.0153061
641.069	0.0153735
641.147	0.0153669
641.225	0.0153222
641.303	0.0152739
641.381	0.0153265
641.459	0.0153902
641.538	0.0153542
641.616	0.0153754
641.694	0.0151984
641.772	0.0152106
641.850	0.0153161
641.928	0.0153118
642.006	0.0153610
642.084	0.0152761
642.163	0.0153008
642.241	0.0152190
642.319	0.0152747
642.397	0.0151788
642.475	0.0151823
642.553	0.0151936
642.631	0.0151226
642.709	0.0151125
642.788	0.0150847
642.866	0.0151455
642.944	0.0150568
643.022	0.0149825
643.100	0.0150893
643.178	0.0151031
643.256	0.0150706
643.334	0.0149684
643.413	0.0149754
643.491	0.0150147
643.569	0.0151460
643.647	0.0151217
643.725	0.0149828
643.803	0.0152362
643.881	0.0150436
643.959	0.0151097
644.038	0.0152014
644.116	0.0153264
644.194	0.0153252
644.272	0.0153118
644.350	0.0151537
644.428	0.0152700
644.506	0.0152967
644.584	0.0152895
644.663	0.0154886
644.741	0.0153973
644.819	0.0153272
644.897	0.0153677
644.975	0.0154420
645.053	0.0153498
645.131	0.0153263
645.209	0.0152904
645.288	0.0154733
645.366	0.0153755
645.444	0.0153571
645.522	0.0154445
645.600	0.0153235
645.678	0.0152431
645.756	0.0152125
645.834	0.0151822
645.913	0.0151648
645.991	0.0152402
646.069	0.0153424
646.147	0.0151129
646.225	0.0151894
646.303	0.0148610
646.381	0.0151475
646.459	0.0151569
646.538	0.0150317
646.616	0.0150008
646.694	0.0150594
646.772	0.0150320
646.850	0.0150056
646.928	0.0150945
647.006	0.0150273
647.084	0.0150153
647.163	0.0151068
647.241	0.0150375
647.319	0.0150662
647.397	0.0150997
647.475	0.0152256
647.553	0.0151786
647.631	0.0150270
647.709	0.0151191
647.788	0.0150462
647.866	0.0151558
647.944	0.0151362
648.022	0.0151857
648.100	0.0151898
648.178	0.0152178
648.256	0.0152266
648.334	0.0151889
648.413	0.0150035
648.491	0.0152697
648.569	0.0152246
648.647	0.0153690
648.725	0.0153363
648.803	0.0153217
648.881	0.0152044
648.959	0.0152998
649.038	0.0153173
649.116	0.0153107
649.194	0.0152257
649.272	0.0152253
649.350	0.0153848
649.428	0.0151914
649.506	0.0153007
649.584	0.0152696
649.663	0.0152010
649.741	0.0151525
649.819	0.0151682
649.897	0.0150376
649.975	0.0149982
650.053	0.0150172
650.131	0.0150770
650.209	0.0150809
650.288	0.0149664
650.366	0.0148729
650.444	0.0149680
650.522	0.0150340
650.600	0.0150700
650.678	0.0149124
650.756	0.0149123
650.834	0.0150800
650.913	0.0150287
650.991	0.0151366
651.069	0.0150726
651.147	0.0151859
651.225	0.0151008
651.303	0.0151656
651.381	0.0152373
651.459	0.0151296
651.538	0.0151565
651.616	0.0152860
651.694	0.0152674
651.772	0.0152254
651.850	0.0153893
651.928	0.0153481
652.006	0.0153210
652.084	0.0152320
652.163	0.0152747
652.241	0.0152972
652.319	0.0153239
652.397	0.0154170
652.475	0.0152740
652.553	0.0151773
652.631	0.0154037
652.709	0.0151835
652.788	0.0153585
652.866	0.0152962
652.944	0.0151955
653.022	0.0152142
653.100	0.0152042
653.178	0.0152354
653.256	0.0153345
653.334	0.0151154
653.413	0.0153400
653.491	0.0153278
653.569	0.0154403
653.647	0.0153491
653.725	0.0153810
653.803	0.0154887
653.881	0.0153607
653.959	0.0152954
654.038	0.0152854
654.116	0.0153710
654.194	0.0151762
654.272	0.0153050
654.350	0.0152934
654.428	0.0152960
654.506	0.0152039
654.584	0.0151832
654.663	0.0151985
654.741	0.0150954
654.819	0.0149557
654.897	0.0150560
654.975	0.0152180
655.053	0.0151093
655.131	0.0151760
655.209	0.0150684
655.288	0.0150521
655.366	0.0152535
655.444	0.0151376
655.522	0.0151991
655.600	0.0151838
655.678	0.0152486
655.756	0.0151994
655.834	0.0152709
655.913	0.0153911
655.991	0.0153673
656.069	0.0154601
656.147	0.0154436
656.225	0.0155135
656.303	0.0154634
656.381	0.0154387
656.459	0.0153702
656.538	0.0154704
656.616	0.0153733
656.694	0.0155076
656.772	0.0154932
656.850	0.0153284
656.928	0.0153725
657.006	0.0153495
657.084	0.0152865
657.163	0.0151308
657.241	0.0152672
657.319	0.0152686
657.397	0.0151698
657.475	0.0151831
657.553	0.0152173
657.631	0.0151601
657.709	0.0152052
657.788	0.0152641
657.866	0.0152011
657.944	0.0151967
658.022	0.0152705
658.100	0.0153037
658.178	0.0153207
658.256	0.0153130
658.334	0.0152808
658.413	0.0153206
658.491	0.0155119
658.569	0.0154128
658.647	0.0153868
658.725	0.0153191
658.803	0.0152379
658.881	0.0151983
658.959	0.0153643
659.038	0.0152365
659.116	0.0152354
659.194	0.0152332
659.272	0.0152209
659.350	0.0151135
659.428	0.0150874
659.506	0.0153777
659.584	0.0151485
659.663	0.0152544
659.741	0.0152339
659.819	0.0152304
659.897	0.0150931
659.975	0.0150880
660.053	0.0150661
660.131	0.0152324
660.209	0.0150840
660.288	0.0150536
660.366	0.0150614
660.444	0.0151379
660.522	0.0152203
660.600	0.0151147
660.678	0.0150125
660.756	0.0150925
660.834	0.0152193
660.913	0.0151311
660.991	0.0151733
661.069	0.0154089
661.147	0.0153336
661.225	0.0151539
661.303	0.0154317
661.381	0.0153198
661.459	0.0154047
661.538	0.0153199
661.616	0.0153152
661.694	0.0152296
661.772	0.0153691
661.850	0.0154330
661.928	0.0154713
662.006	0.0153653
662.084	0.0153561
662.163	0.0153214
662.241	0.0151774
662.319	0.0151956
662.397	0.0153783
662.475	0.0153175
662.553	0.0151485
662.631	0.0152632
662.709	0.0151925
662.788	0.0151952
662.866	0.0152172
662.944	0.0153349
663.022	0.0152460
663.100	0.0152473
663.178	0.0152776
663.256	0.0151170
663.334	0.0152170
663.413	0.0151437
663.491	0.0150987
663.569	0.0151491
663.647	0.0152536
663.725	0.0152197
663.803	0.0151947
663.881	0.0153036
663.959	0.0152226
664.038	0.0152591
664.116	0.0152214
664.194	0.0152824
664.272	0.0152990
664.350	0.0151984
664.428	0.0152705
664.506	0.0154018
664.584	0.0152923
664.663	0.0152466
664.741	0.0152190
664.819	0.0151303
664.897	0.0152404
664.975	0.0150656
665.053	0.0152644
665.131	0.0151748
665.209	0.0152069
665.288	0.0150952
665.366	0.0151280
665.444	0.0151601
665.522	0.0150785
665.600	0.0150848
665.678	0.0149869
665.756	0.0150208
665.834	0.0151266
665.913	0.0151739
665.991	0.0153192
666.069	0.0151556
666.147	0.0152450
666.225	0.0153190
666.303	0.0153090
666.381	0.0152661
666.459	0.0153303
666.538	0.0153579
666.616	0.0154823
666.694	0.0154624
666.772	0.0153993
666.850	0.0151817
666.928	0.0153084
667.006	0.0153925
667.084	0.0152763
667.163	0.0151601
667.241	0.0150301
667.319	0.0153112
667.397	0.0151018
667.475	0.0148916
667.553	0.0151582
667.631	0.0149964
667.709	0.0149782
667.788	0.0148901
667.866	0.0150869
667.944	0.0149807
668.022	0.0151145
668.100	0.0149162
668.178	0.0151492
668.256	0.0151243
668.334	0.0150748
668.413	0.0152930
668.491	0.0150873
668.569	0.0150080
668.647	0.0151894
668.725	0.0152898
668.803	0.0152470
668.881	0.0151778
668.959	0.0152534
669.038	0.0151681
669.116	0.0151903
669.194	0.0150709
669.272	0.0150603
669.350	0.0152724
669.428	0.0150948
669.506	0.0151527
669.584	0.0151853
669.663	0.0151215
669.741	0.0150666
669.819	0.0152445
669.897	0.0151202
669.975	0.0151796
670.053	0.0152076
670.131	0.0151749
670.209	0.0152810
670.288	0.0153049
670.366	0.0153590
670.444	0.0153569
670.522	0.0153185
670.600	0.0152248
670.678	0.0154659
670.756	0.0153436
670.834	0.0151644
670.913	0.0152483
670.991	0.0154183
671.069	0.0154031
671.147	0.0153489
671.225	0.0153809
671.303	0.0154155
671.381	0.0153277
671.459	0.0152328
671.538	0.0153543
671.616	0.0154073
671.694	0.0153514
671.772	0.0153174
671.850	0.0153538
671.928	0.0153209
672.006	0.0153863
672.084	0.0152991
672.163	0.0153899
672.241	0.0153406
672.319	0.0152850
672.397	0.0152937
672.475	0.0152655
672.553	0.0152502
672.631	0.0152084
672.709	0.0150033
672.788	0.0151528
672.866	0.0154042
672.944	0.0153888
673.022	0.0152802
673.100	0.0153194
673.178	0.0152187
673.256	0.0153086
673.334	0.0152871
673.413	0.0153378
673.491	0.0153165
673.569	0.0152559
673.647	0.0152483
673.725	0.0153624
673.803	0.0153844
673.881	0.0152415
673.959	0.0153288
674.038	0.0153973
674.116	0.0153737
674.194	0.0153732
674.272	0.0152902
674.350	0.0153107
674.428	0.0154890
674.506	0.0154635
674.584	0.0154510
674.663	0.0154762
674.741	0.0155139
674.819	0.0154077
674.897	0.0153278
674.975	0.0154102
675.053	0.0153818
675.131	0.0153191
675.209	0.0151191
675.288	0.0152612
675.366	0.0151639
675.444	0.0150604
675.522	0.0150070
675.600	0.0149388
675.678	0.0149724
675.756	0.0150241
675.834	0.0149854
675.913	0.0151111
675.991	0.0150414
676.069	0.0150813
676.147	0.0152170
676.225	0.0152460
676.303	0.0153116
676.381	0.0154589
676.459	0.0155987
676.538	0.0157457
676.616	0.0156093
676.694	0.0157623
676.772	0.0158391
676.850	0.0158068
676.928	0.0159358
677.006	0.0160036
677.084	0.0159320
677.163	0.0158554
677.241	0.0158073
677.319	0.0158166
677.397	0.0156272
677.475	0.0155180
677.553	0.0153890
677.631	0.0152574
677.709	0.0150978
677.788	0.0149634
677.866	0.0148078
677.944	0.0147023
678.022	0.0146831
678.100	0.0144500
678.178	0.0144183
678.256	0.0144142
678.334	0.0144098
678.413	0.0142150
678.491	0.0144904
678.569	0.0146458
678.647	0.0145522
678.725	0.0147614
678.803	0.0148193
678.881	0.0151160
678.959	0.0153767
679.038	0.0155943
679.116	0.0157049
679.194	0.0157594
679.272	0.0161179
679.350	0.0161964
679.428	0.0163235
679.506	0.0164408
679.584	0.0164643
679.663	0.0167519
679.741	0.0167020
679.819	0.0163894
679.897	0.0164398
679.975	0.0163359
680.053	0.0160703
680.131	0.0159621
680.209	0.0157888
680.288	0.0154059
680.366	0.0152912
680.444	0.0151276
680.522	0.0147955
680.600	0.0147852
680.678	0.0145372
680.756	0.0143356
680.834	0.0141441
680.913	0.0139146
680.991	0.0139705
681.069	0.0139097
681.147	0.0139448
681.225	0.0138086
681.303	0.0137939
681.381	0.0140321
681.459	0.0139600
681.538	0.0141640
681.616	0.0143389
681.694	0.0143105
681.772	0.0145123
681.850	0.0146738
681.928	0.0148750
682.006	0.0148638
682.084	0.0150021
682.163	0.0153338
682.241	0.0154998
682.319	0.0155862
682.397	0.0156813
682.475	0.0156758
682.553	0.0159910
682.631	0.0160157
682.709	0.0161456
682.788	0.0161456
682.866	0.0164288
682.944	0.0163042
683.022	0.0161947
683.100	0.0161626
683.178	0.0163918
683.256	0.0162189
683.334	0.0161224
683.413	0.0158708
683.491	0.0158640
683.569	0.0158453
683.647	0.0157240
683.725	0.0153892
683.803	0.0152815
683.881	0.0150184
683.959	0.0149620
684.038	0.0147494
684.116	0.0147566
684.194	0.0145564
684.272	0.0145152
684.350	0.0142844
684.428	0.0144125
684.506	0.0141758
684.584	0.0141504
684.663	0.0140651
684.741	0.0142180
684.819	0.0142412
684.897	0.0144521
684.975	0.0144907
685.053	0.0147060
685.131	0.0147527
685.209	0.0148621
685.288	0.0149894
685.366	0.0151465
685.444	0.0152995
685.522	0.0155875
685.600	0.0158319
685.678	0.0158432
685.756	0.0160278
685.834	0.0159415
685.913	0.0160695
685.991	0.0161177
686.069	0.0161045
686.147	0.0161221
686.225	0.0161921
686.303	0.0160497
686.381	0.0157602
686.459	0.0156802
686.538	0.0157168
686.616	0.0154575
686.694	0.0153123
686.772	0.0152283
686.850	0.0150035
686.928	0.0146868
687.006	0.0144228
687.084	0.0143270
687.163	0.0141615
687.241	0.0140437
687.319	0.0139955
687.397	0.0137906
687.475	0.0137581
687.553	0.0138467
687.631	0.0137504
687.709	0.0138617
687.788	0.0140372
687.866	0.0140773
687.944	0.0143388
688.022	0.0147472
688.100	0.0150684
688.178	0.0152808
688.256	0.0154942
688.334	0.0160243
688.413	0.0162383
688.491	0.0163668
688.569	0.0167044
688.647	0.0168740
688.725	0.0170595
688.803	0.0170258
688.881	0.0169601
688.959	0.0171629
689.038	0.0170571
689.116	0.0168578
689.194	0.0170193
689.272	0.0168587
689.350	0.0164393
689.428	0.0164782
689.506	0.0163225
689.584	0.0160136
689.663	0.0159850
689.741	0.0158978
689.819	0.0155691
689.897	0.0154002
689.975	0.0151980
690.053	0.0150749
690.131	0.0151044
690.209	0.0150227
690.288	0.0149566
690.366	0.0147405
690.444	0.0145550
690.522	0.0147156
690.600	0.0146949
690.678	0.0143872
690.756	0.0142470
690.834	0.0143911
690.913	0.0142256
690.991	0.0142362
691.069	0.0141640
691.147	0.0139965
691.225	0.0138811
691.303	0.0138271
691.381	0.0137223
691.459	0.0136029
691.538	0.0136501
691.616	0.0135973
691.694	0.0136995
691.772	0.0137630
691.850	0.0137672
691.928	0.0137672
692.006	0.0138702
692.084	0.0142176
692.163	0.0144320
692.241	0.0146890
692.319	0.0148992
692.397	0.0152631
692.475	0.0157465
692.553	0.0159751
692.631	0.0160905
692.709	0.0163720
692.788	0.0167910
692.866	0.0169701
692.944	0.0170791
693.022	0.0172388
693.100	0.0174099
693.178	0.0173395
693.256	0.0174043
693.334	0.0174989
693.413	0.0174608
693.491	0.0173203
693.569	0.0174126
693.647	0.0174035
693.725	0.0173817
693.803	0.0173260
693.881	0.0171889
693.959	0.0172044
694.038	0.0171190
694.116	0.0170556
694.194	0.0168420
694.272	0.0168721
694.350	0.0167495
694.428	0.0165722
694.506	0.0161625
694.584	0.0160931
694.663	0.0157514
694.741	0.0155341
694.819	0.0153104
694.897	0.0149344
694.975	0.0145813
695.053	0.0142329
695.131	0.0136353
695.209	0.0134305
695.288	0.0130724
695.366	0.0127107
695.444	0.0124528
695.522	0.0121266
695.600	0.0120033
695.678	0.0118742
695.756	0.0116087
695.834	0.0115989
695.913	0.0116044
695.991	0.0117488
696.069	0.0118852
696.147	0.0119536
696.225	0.0121960
696.303	0.0124770
696.381	0.0127238
696.459	0.0131127
696.538	0.0134492
696.616	0.0138927
696.694	0.0142427
696.772	0.0147199
696.850	0.0152109
696.928	0.0156117
697.006	0.0161322
697.084	0.0166421
697.163	0.0170251
697.241	0.0176185
697.319	0.0179129
697.397	0.0182460
697.475	0.0187112
697.553	0.0191170
697.631	0.0194131
697.709	0.0195786
697.788	0.0199110
697.866	0.0197795
697.944	0.0197092
698.022	0.0197179
698.100	0.0197350
698.178	0.0194257
698.256	0.0190678
698.334	0.0188341
698.413	0.0181634
698.491	0.0176429
698.569	0.0170539
698.647	0.0165105
698.725	0.0157558
698.803	0.0150819
698.881	0.0144144
698.959	0.0137017
699.038	0.0133260
699.116	0.0126717
699.194	0.0121323
699.272	0.0118980
699.350	0.0116555
699.428	0.0115360
699.506	0.0116387
699.584	0.0115672
699.663	0.0118423
699.741	0.0121019
699.819	0.0124341
699.897	0.0129436
699.975	0.0134763
700.053	0.0138890
700.131	0.0144555
700.209	0.0149479
700.288	0.0153562
700.366	0.0156039
700.444	0.0160762
700.522	0.0162779
700.600	0.0164643
700.678	0.0164685
700.756	0.0164391
700.834	0.0162693
700.913	0.0162364
700.991	0.0161091
701.069	0.0159902
701.147	0.0157758
701.225	0.0157388
701.303	0.0157034
701.381	0.0156088
701.459	0.0154317
701.538	0.0155379
701.616	0.0153520
701.694	0.0152619
701.772	0.0152773
701.850	0.0152821
701.928	0.0152143
702.006	0.0152240
702.084	0.0150784
702.163	0.0149036
702.241	0.0149973
702.319	0.0148596
702.397	0.0147173
702.475	0.0148027
702.553	0.0148754
702.631	0.0148363
702.709	0.0147749
702.788	0.0148616
702.866	0.0148436
702.944	0.0150485
703.022	0.0153181
703.100	0.0152975
703.178	0.0153414
703.256	0.0154146
703.334	0.0155226
703.413	0.0154553
703.491	0.0153991
703.569	0.0156025
703.647	0.0156638
703.725	0.0155303
703.803	0.0155011
703.881	0.0155717
703.959	0.0155353
704.038	0.0155492
704.116	0.0155061
704.194	0.0156374
704.272	0.0158030
704.350	0.0158816
704.428	0.0159482
704.506	0.0160049
704.584	0.0159338
704.663	0.0160738
704.741	0.0161444
704.819	0.0159518
704.897	0.0157856
704.975	0.0158132
705.053	0.0156384
705.131	0.0157135
705.209	0.0156021
705.288	0.0156287
705.366	0.0154886
705.444	0.0154398
705.522	0.0153321
705.600	0.0153166
705.678	0.0152238
705.756	0.0153386
705.834	0.0152363
705.913	0.0151907
705.991	0.0151275
706.069	0.0149638
706.147	0.0148639
706.225	0.0148002
706.303	0.0147541
706.381	0.0144971
706.459	0.0146669
706.538	0.0145627
706.616	0.0145687
706.694	0.0145826
706.772	0.0145628
706.850	0.0145955
706.928	0.0145229
707.006	0.0144716
707.084	0.0141629
707.163	0.0141162
707.241	0.0140704
707.319	0.0139228
707.397	0.0137991
707.475	0.0136304
707.553	0.0137090
707.631	0.0136190
707.709	0.0138449
707.788	0.0140770
707.866	0.0144233
707.944	0.0146864
708.022	0.0149844
708.100	0.0154963
708.178	0.0158276
708.256	0.0160416
708.334	0.0164672
708.413	0.0165302
708.491	0.0166931
708.569	0.0166665
708.647	0.0165484
708.725	0.0164214
708.803	0.0163551
708.881	0.0159589
708.959	0.0158415
709.038	0.0156055
709.116	0.0153972
709.194	0.0152579
709.272	0.0151662
709.350	0.0151626
709.428	0.0151538
709.506	0.0151653
709.584	0.0151900
709.663	0.0151898
709.741	0.0153719
709.819	0.0153374
709.897	0.0154465
709.975	0.0153848
710.053	0.0152810
710.131	0.0154430
710.209	0.0154214
710.288	0.0155867
710.366	0.0155060
710.444	0.0157784
710.522	0.0160491
710.600	0.0162376
710.678	0.0163094
710.756	0.0165719
710.834	0.0168631
710.913	0.0169175
710.991	0.0171016
711.069	0.0172144
711.147	0.0171729
711.225	0.0171699
711.303	0.0169925
711.381	0.0167630
711.459	0.0166058
711.538	0.0160361
711.616	0.0157824
711.694	0.0153453
711.772	0.0148802
711.850	0.0144334
711.928	0.0138670
712.006	0.0136308
712.084	0.0130676
712.163	0.0128720
712.241	0.0126085
712.319	0.0123476
712.397	0.0121660
712.475	0.0119704
712.553	0.0119366
712.631	0.0119577
712.709	0.0120731
712.788	0.0122797
712.866	0.0124049
712.944	0.0128220
713.022	0.0131813
713.100	0.0136710
713.178	0.0140670
713.256	0.0144866
713.334	0.0149663
713.413	0.0155641
713.491	0.0160117
713.569	0.0164634
713.647	0.0167625
713.725	0.0171265
713.803	0.0174901
713.881	0.0174551
713.959	0.0174968
714.038	0.0175136
714.116	0.0174539
714.194	0.0173667
714.272	0.0171542
714.350	0.0167991
714.428	0.0164393
714.506	0.0160775
714.584	0.0157570
714.663	0.0154324
714.741	0.0151656
714.819	0.0149559
714.897	0.0148546
714.975	0.0146643
715.053	0.0146380
715.131	0.0146110
715.209	0.0146942
715.288	0.0148912
715.366	0.0149516
715.444	0.0151287
715.522	0.0153304
715.600	0.0156380
715.678	0.0156946
715.756	0.0155478
715.834	0.0157848
715.913	0.0155286
715.991	0.0154967
716.069	0.0156273
716.147	0.0157030
716.225	0.0154872
716.303	0.0156064
716.381	0.0156623
716.459	0.0156607
716.538	0.0157178
716.616	0.0159730
716.694	0.0159789
716.772	0.0160744
716.850	0.0162992
716.928	0.0163093
717.006	0.0163737
717.084	0.0164681
717.163	0.0162890
717.241	0.0161333
717.319	0.0159794
717.397	0.0155501
717.475	0.0152126
717.553	0.0149285
717.631	0.0145580
717.709	0.0141637
717.788	0.0138187
717.866	0.0134433
717.944	0.0132991
718.022	0.0130231
718.100	0.0128899
718.178	0.0127510
718.256	0.0126990
718.334	0.0127057
718.413	0.0127449
718.491	0.0129012
718.569	0.0130453
718.647	0.0131244
718.725	0.0133242
718.803	0.0135156
718.881	0.0136176
718.959	0.0137132
719.038	0.0139093
719.116	0.0141413
719.194	0.0143636
719.272	0.0148164
719.350	0.0149759
719.428	0.0155357
719.506	0.0158878
719.584	0.0163335
719.663	0.0166409
719.741	0.0169082
719.819	0.0174378
719.897	0.0177990
719.975	0.0179990
720.053	0.0179594
720.131	0.0183807
720.209	0.0183844
720.288	0.0183320
720.366	0.0183658
720.444	0.0181629
720.522	0.0180479
720.600	0.0179243
720.678	0.0174760
720.756	0.0172228
720.834	0.0169858
720.913	0.0165114
720.991	0.0162551
721.069	0.0158204
721.147	0.0156495
721.225	0.0154167
721.303	0.0150586
721.381	0.0147316
721.459	0.0146777
721.538	0.0145115
721.616	0.0144711
721.694	0.0143734
721.772	0.0143552
721.850	0.0144109
721.928	0.0144303
722.006	0.0143710
722.084	0.0142216
722.163	0.0143965
722.241	0.0143430
722.319	0.0142627
722.397	0.0142612
722.475	0.0141610
722.553	0.0141673
722.631	0.0141130
722.709	0.0139123
722.788	0.0139326
722.866	0.0138205
722.944	0.0136759
723.022	0.0135072
723.100	0.0135906
723.178	0.0133986
723.256	0.0133764
723.334	0.0134326
723.413	0.0135123
723.491	0.0135440
723.569	0.0136765
723.647	0.0138298
723.725	0.0139964
723.803	0.0140572
723.881	0.0144737
723.959	0.0145607
724.038	0.0148865
724.116	0.0151520
724.194	0.0154885
724.272	0.0156477
724.350	0.0160114
724.428	0.0163548
724.506	0.0165237
724.584	0.0167767
724.663	0.0169409
724.741	0.0172401
724.819	0.0172794
724.897	0.0172855
724.975	0.0169721
725.053	0.0171847
725.131	0.0170957
725.209	0.0168306
725.288	0.0165434
725.366	0.0162863
725.444	0.0160574
725.522	0.0159768
725.600	0.0156174
725.678	0.0154536
725.756	0.0154385
725.834	0.0154067
725.913	0.0152338
725.991	0.0152074
726.069	0.0153053
726.147	0.0152519
726.225	0.0153691
726.303	0.0152889
726.381	0.0154751
726.459	0.0155453
726.538	0.0155034
726.616	0.0156424
726.694	0.0158749
726.772	0.0159817
726.850	0.0161828
726.928	0.0162424
727.006	0.0164371
727.084	0.0165271
727.163	0.0166943
727.241	0.0169215
727.319	0.0168198
727.397	0.0165181
727.475	0.0164463
727.553	0.0160742
727.631	0.0158675
727.709	0.0153424
727.788	0.0148157
727.866	0.0142465
727.944	0.0137646
728.022	0.0133060
728.100	0.0128000
728.178	0.0124796
728.256	0.0121642
728.334	0.0119699
728.413	0.0118443
728.491	0.0120270
728.569	0.0120348
728.647	0.0121112
728.725	0.0124307
728.803	0.0126446
728.881	0.0128823
728.959	0.0132487
729.038	0.0134852
729.116	0.0138014
729.194	0.0141108
729.272	0.0141891
729.350	0.0146452
729.428	0.0149880
729.506	0.0152612
729.584	0.0151604
729.663	0.0154627
729.741	0.0156963
729.819	0.0158495
729.897	0.0162139
729.975	0.0161958
730.053	0.0164494
730.131	0.0166816
730.209	0.0165723
730.288	0.0167412
730.366	0.0168240
730.444	0.0171705
730.522	0.0172180
730.600	0.0172459
730.678	0.0173663
730.756	0.0174297
730.834	0.0174771
730.913	0.0175426
730.991	0.0174874
731.069	0.0173259
731.147	0.0172927
731.225	0.0170403
731.303	0.0169489
731.381	0.0166931
731.459	0.0164096
731.538	0.0163882
731.616	0.0161269
731.694	0.0159438
731.772	0.0156751
731.850	0.0154158
731.928	0.0153264
732.006	0.0152312
732.084	0.0149203
732.163	0.0147713
732.241	0.0146946
732.319	0.0144984
732.397	0.0144993
732.475	0.0142743
732.553	0.0141797
732.631	0.0143005
732.709	0.0143888
732.788	0.0142171
732.866	0.0144721
732.944	0.0146580
733.022	0.0146689
733.100	0.0146780
733.178	0.0147952
733.256	0.0148720
733.334	0.0148743
733.413	0.0148357
733.491	0.0146738
733.569	0.0144790
733.647	0.0143403
733.725	0.0143602
733.803	0.0143947
733.881	0.0141754
733.959	0.0140058
734.038	0.0140046
734.116	0.0140826
734.194	0.0141586
734.272	0.0142002
734.350	0.0141876
734.428	0.0141923
734.506	0.0141916
734.584	0.0145419
734.663	0.0146498
734.741	0.0147544
734.819	0.0148595
734.897	0.0150294
734.975	0.0148967
735.053	0.0151781
735.131	0.0151792
735.209	0.0153183
735.288	0.0154538
735.366	0.0153876
735.444	0.0153993
735.522	0.0156234
735.600	0.0155560
735.678	0.0155264
735.756	0.0153881
735.834	0.0155138
735.913	0.0154332
735.991	0.0154406
736.069	0.0153307
736.147	0.0153179
736.225	0.0152941
736.303	0.0155058
736.381	0.0155953
736.459	0.0156266
736.538	0.0156467
736.616	0.0157239
736.694	0.0159277
736.772	0.0159514
736.850	0.0158895
736.928	0.0160725
737.006	0.0160609
737.084	0.0157605
737.163	0.0159358
737.241	0.0159564
737.319	0.0159760
737.397	0.0158176
737.475	0.0160594
737.553	0.0159666
737.631	0.0159425
737.709	0.0160210
737.788	0.0160630
737.866	0.0159193
737.944	0.0159449
738.022	0.0160879
738.100	0.0157603
738.178	0.0157976
738.256	0.0156779
738.334	0.0156288
738.413	0.0153018
738.491	0.0152947
738.569	0.0151152
738.647	0.0150934
738.725	0.0149614
738.803	0.0150114
738.881	0.0148372
738.959	0.0146237
739.038	0.0146527
739.116	0.0145794
739.194	0.0145502
739.272	0.0143385
739.350	0.0142239
739.428	0.0140419
739.506	0.0138064
739.584	0.0137592
739.663	0.0133689
739.741	0.0133933
739.819	0.0132290
739.897	0.0133514
739.975	0.0133684
740.053	0.0134113
740.131	0.0135024
740.209	0.0136228
740.288	0.0136096
740.366	0.0140393
740.444	0.0143031
740.522	0.0144347
740.600	0.0147303
740.678	0.0149838
740.756	0.0151666
740.834	0.0154037
740.913	0.0156028
740.991	0.0158355
741.069	0.0159467
741.147	0.0159095
741.225	0.0159159
741.303	0.0158521
741.381	0.0160198
741.459	0.0161568
741.538	0.0161192
741.616	0.0161240
741.694	0.0161459
741.772	0.0162178
741.850	0.0163493
741.928	0.0164164
742.006	0.0161803
742.084	0.0161460
742.163	0.0163517
742.241	0.0161253
742.319	0.0161052
742.397	0.0158648
742.475	0.0157486
742.553	0.0155646
742.631	0.0150957
742.709	0.0148838
742.788	0.0147751
742.866	0.0145661
742.944	0.0144798
743.022	0.0142809
743.100	0.0143006
743.178	0.0143990
743.256	0.0143418
743.334	0.0144682
743.413	0.0146180
743.491	0.0146525
743.569	0.0149682
743.647	0.0152122
743.725	0.0151630
743.803	0.0153091
743.881	0.0152448
743.959	0.0153867
744.038	0.0155216
744.116	0.0156400
744.194	0.0156035
744.272	0.0158378
744.350	0.0157231
744.428	0.0157921
744.506	0.0158188
744.584	0.0157388
744.663	0.0157819
744.741	0.0158090
744.819	0.0157223
744.897	0.0157289
744.975	0.0157877
745.053	0.0157723
745.131	0.0157408
745.209	0.0155183
745.288	0.0153999
745.366	0.0153068
745.444	0.0151485
745.522	0.0151103
745.600	0.0149915
745.678	0.0149465
745.756	0.0149716
745.834	0.0151256
745.913	0.0150126
745.991	0.0149977
746.069	0.0150673
746.147	0.0150885
746.225	0.0150178
746.303	0.0150419
746.381	0.0151553
746.459	0.0150419
746.538	0.0152397
746.616	0.0149786
746.694	0.0148626
746.772	0.0148384
746.850	0.0148952
746.928	0.0147887
747.006	0.0146634
747.084	0.0145335
747.163	0.0146214
747.241	0.0145844
747.319	0.0145686
747.397	0.0145493
747.475	0.0145992
747.553	0.0146781
747.631	0.0145525
747.709	0.0145875
747.788	0.0146969
747.866	0.0147803
747.944	0.0148505
748.022	0.0150575
748.100	0.0148808
748.178	0.0151302
748.256	0.0151611
748.334	0.0152510
748.413	0.0153570
748.491	0.0153101
748.569	0.0152982
748.647	0.0153133
748.725	0.0154717
748.803	0.0155490
748.881	0.0155532
748.959	0.0157251
749.038	0.0157504
749.116	0.0159049
749.194	0.0159787
749.272	0.0160782
749.350	0.0163303
749.428	0.0163798
749.506	0.0165228
749.584	0.0165253
749.663	0.0165364
749.741	0.0165418
749.819	0.0164740
749.897	0.0162904
749.975	0.0161381
750.053	0.0161401
750.131	0.0160231
750.209	0.0159501
750.288	0.0159743
750.366	0.0157291
750.444	0.0156912
750.522	0.0155991
750.600	0.0153326
750.678	0.0152267
750.756	0.0152132
750.834	0.0151060
750.913	0.0148268
750.991	0.0148392
751.069	0.0148313
751.147	0.0146484
751.225	0.0146302
751.303	0.0146719
751.381	0.0146836
751.459	0.0147212
751.538	0.0148580
751.616	0.0148890
751.694	0.0150275
751.772	0.0150262
751.850	0.0151571
751.928	0.0153780
752.006	0.0153994
752.084	0.0153130
752.163	0.0156464
752.241	0.0154632
752.319	0.0154807
752.397	0.0154665
752.475	0.0152923
752.553	0.0152803
752.631	0.0151768
752.709	0.0151208
752.788	0.0150022
752.866	0.0147971
752.944	0.0148851
753.022	0.0148047
753.100	0.0147128
753.178	0.0148034
753.256	0.0149199
753.334	0.0149417
753.413	0.0147967
753.491	0.0149873
753.569	0.0150637
753.647	0.0148148
753.725	0.0149895
753.803	0.0150100
753.881	0.0148557
753.959	0.0149644
754.038	0.0149571
754.116	0.0149275
754.194	0.0149347
754.272	0.0149394
754.350	0.0149877
754.428	0.0151225
754.506	0.0149140
754.584	0.0151621
754.663	0.0152346
754.741	0.0152596
754.819	0.0154350
754.897	0.0154528
754.975	0.0154760
755.053	0.0155492
755.131	0.0158222
755.209	0.0159491
755.288	0.0158483
755.366	0.0159656
755.444	0.0156989
755.522	0.0159261
755.600	0.0157456
755.678	0.0159093
755.756	0.0158905
755.834	0.0157203
755.913	0.0157007
755.991	0.0157017
756.069	0.0155833
756.147	0.0156820
756.225	0.0155558
756.303	0.0154426
756.381	0.0156509
756.459	0.0157810
756.538	0.0157269
756.616	0.0155637
756.694	0.0157109
756.772	0.0158802
756.850	0.0158540
756.928	0.0158084
757.006	0.0157777
757.084	0.0156965
757.163	0.0158548
757.241	0.0157574
757.319	0.0156716
757.397	0.0155346
757.475	0.0153882
757.553	0.0153214
757.631	0.0152564
757.709	0.0150632
757.788	0.0149963
757.866	0.0148273
757.944	0.0147370
758.022	0.0146114
758.100	0.0145963
758.178	0.0144577
758.256	0.0143000
758.334	0.0142534
758.413	0.0143051
758.491	0.0141200
758.569	0.0142059
758.647	0.0142272
758.725	0.0142218
758.803	0.0143858
758.881	0.0142777
758.959	0.0144328
759.038	0.0144437
759.116	0.0145663
759.194	0.0145892
759.272	0.0146360
759.350	0.0147713
759.428	0.0147464
759.506	0.0148774
759.584	0.0151064
759.663	0.0151222
759.741	0.0153307
759.819	0.0153611
759.897	0.0154265
759.975	0.0153587
760.053	0.0154775
760.131	0.0155571
760.209	0.0155299
760.288	0.0155474
760.366	0.0154373
760.444	0.0155121
760.522	0.0153091
760.600	0.0152555
760.678	0.0152470
760.756	0.0153185
760.834	0.0151871
760.913	0.0151987
760.991	0.0150836
761.069	0.0151686
761.147	0.0152805
761.225	0.0151891
761.303	0.0151547
761.381	0.0152423
761.459	0.0152140
761.538	0.0152092
761.616	0.0151534
761.694	0.0152193
761.772	0.0152303
761.850	0.0152961
761.928	0.0152711
762.006	0.0153699
762.084	0.0155144
762.163	0.0156246
762.241	0.0154886
762.319	0.0154929
762.397	0.0155686
762.475	0.0156795
762.553	0.0156458
762.631	0.0158508
762.709	0.0157159
762.788	0.0157152
762.866	0.0157352
762.944	0.0156795
763.022	0.0154803
763.100	0.0154581
763.178	0.0155124
763.256	0.0153916
763.334	0.0154787
763.413	0.0152848
763.491	0.0150968
763.569	0.0149442
763.647	0.0148849
763.725	0.0151932
763.803	0.0151471
763.881	0.0151088
763.959	0.0151109
764.038	0.0151915
764.116	0.0152077
764.194	0.0154222
764.272	0.0153370
764.350	0.0153087
764.428	0.0154140
764.506	0.0154972
764.584	0.0156119
764.663	0.0156309
764.741	0.0155223
764.819	0.0156031
764.897	0.0155579
764.975	0.0155645
765.053	0.0153481
765.131	0.0153498
765.209	0.0153927
765.288	0.0151651
765.366	0.0151237
765.444	0.0150893
765.522	0.0151126
765.600	0.0149127
765.678	0.0148781
765.756	0.0147941
765.834	0.0146098
765.913	0.0145115
765.991	0.0144872
766.069	0.0144315
766.147	0.0143666
766.225	0.0142861
766.303	0.0142376
766.381	0.0143554
766.459	0.0144187
766.538	0.0144071
766.616	0.0143952
766.694	0.0146070
766.772	0.0148260
766.850	0.0150533
766.928	0.0152152
767.006	0.0152845
767.084	0.0154047
767.163	0.0155474
767.241	0.0155875
767.319	0.0157520
767.397	0.0158693
767.475	0.0159055
767.553	0.0159230
767.631	0.0159764
767.709	0.0159686
767.788	0.0160338
767.866	0.0159650
767.944	0.0158824
768.022	0.0157290
768.100	0.0157497
768.178	0.0158814
768.256	0.0156743
768.334	0.0155872
768.413	0.0156226
768.491	0.0155497
768.569	0.0154153
768.647	0.0155200
768.725	0.0154789
768.803	0.0153545
768.881	0.0154700
768.959	0.0153819
769.038	0.0152243
769.116	0.0152306
769.194	0.0153052
769.272	0.0151996
769.350	0.0151705
769.428	0.0152887
769.506	0.0152911
769.584	0.0152750
769.663	0.0152702
769.741	0.0154330
769.819	0.0153133
769.897	0.0155579
769.975	0.0154240
770.053	0.0153484
770.131	0.0152298
770.209	0.0152202
770.288	0.0152201
770.366	0.0153117
770.444	0.0151868
770.522	0.0151757
770.600	0.0151671
770.678	0.0150887
770.756	0.0150803
770.834	0.0151305
770.913	0.0151804
770.991	0.0149520
771.069	0.0150185
771.147	0.0149713
771.225	0.0150304
771.303	0.0151562
771.381	0.0151776
771.459	0.0151797
771.538	0.0152024
771.616	0.0153587
771.694	0.0154667
771.772	0.0153439
771.850	0.0155900
771.928	0.0155371
772.006	0.0155334
772.084	0.0157101
772.163	0.0158345
772.241	0.0158269
772.319	0.0158925
772.397	0.0158811
772.475	0.0157954
772.553	0.0158009
772.631	0.0158102
772.709	0.0158677
772.788	0.0157241
772.866	0.0156109
772.944	0.0156506
773.022	0.0155436
773.100	0.0154351
773.178	0.0153892
773.256	0.0153062
773.334	0.0152647
773.413	0.0153423
773.491	0.0150383
773.569	0.0150407
773.647	0.0148709
773.725	0.0149170
773.803	0.0148827
773.881	0.0148022
773.959	0.0148671
774.038	0.0147816
774.116	0.0148641
774.194	0.0148805
774.272	0.0148179
774.350	0.0147797
774.428	0.0149419
774.506	0.0150134
774.584	0.0148837
774.663	0.0148104
774.741	0.0149809
774.819	0.0150125
774.897	0.0150297
774.975	0.0150390
775.053	0.0150491
775.131	0.0151957
775.209	0.0152919
775.288	0.0152155
775.366	0.0153889
775.444	0.0153549
775.522	0.0156188
775.600	0.0157256
775.678	0.0156521
775.756	0.0156560
775.834	0.0157348
775.913	0.0157432
775.991	0.0158287
776.069	0.0158319
776.147	0.0156148
776.225	0.0154834
776.303	0.0155885
776.381	0.0153370
776.459	0.0153178
776.538	0.0151844
776.616	0.0151591
776.694	0.0152204
776.772	0.0152028
776.850	0.0151521
776.928	0.0151926
777.006	0.0151658
777.084	0.0152084
777.163	0.0152953
777.241	0.0155202
777.319	0.0153982
777.397	0.0154549
777.475	0.0156515
777.553	0.0156224
777.631	0.0155019
777.709	0.0155540
777.788	0.0156474
777.866	0.0154700
777.944	0.0155405
778.022	0.0154002
778.100	0.0155863
778.178	0.0154694
778.256	0.0153587
778.334	0.0152563
778.413	0.0152460
778.491	0.0152272
778.569	0.0152606
778.647	0.0152354
778.725	0.0150653
778.803	0.0149062
778.881	0.0149021
778.959	0.0149424
779.038	0.0149530
779.116	0.0149275
779.194	0.0148193
779.272	0.0148270
779.350	0.0148788
779.428	0.0149604
779.506	0.0147688
779.584	0.0148684
779.663	0.0150212
779.741	0.0151095
779.819	0.0151987
779.897	0.0151389
779.975	0.0153768
780.053	0.0154884
780.131	0.0154411
780.209	0.0154350
780.288	0.0154913
780.366	0.0155827
780.444	0.0155768
780.522	0.0157391
780.600	0.0155495
780.678	0.0154874
780.756	0.0153777
780.834	0.0155010
780.913	0.0154256
780.991	0.0152351
781.069	0.0151935
781.147	0.0149897
781.225	0.0151498
781.303	0.0149648
781.381	0.0148302
781.459	0.0148280
781.538	0.0148108
781.616	0.0148008
781.694	0.0147069
781.772	0.0146577
781.850	0.0147745
781.928	0.0149320
782.006	0.0148222
782.084	0.0149374
782.163	0.0149116
782.241	0.0149205
782.319	0.0151659
782.397	0.0151785
782.475	0.0152673
782.553	0.0153455
782.631	0.0152899
782.709	0.0151525
782.788	0.0152851
782.866	0.0152962
782.944	0.0152233
783.022	0.0153435
783.100	0.0152919
783.178	0.0151169
783.256	0.0151036
783.334	0.0152179
783.413	0.0150490
783.491	0.0149683
783.569	0.0151396
783.647	0.0149527
783.725	0.0147850
783.803	0.0149945
783.881	0.0149570
783.959	0.0148794
784.038	0.0149112
784.116	0.0148622
784.194	0.0148891
784.272	0.0148371
784.350	0.0150005
784.428	0.0150009
784.506	0.0150047
784.584	0.0150524
784.663	0.0151029
784.741	0.0150042
784.819	0.0151245
784.897	0.0150711
784.975	0.0150076
785.053	0.0150781
785.131	0.0151189
785.209	0.0152073
785.288	0.0151016
785.366	0.0149605
785.444	0.0153220
785.522	0.0154147
785.600	0.0153571
785.678	0.0154146
785.756	0.0154402
785.834	0.0155327
785.913	0.0157526
785.991	0.0157578
786.069	0.0157726
786.147	0.0159367
786.225	0.0158718
786.303	0.0159464
786.381	0.0158673
786.459	0.0159341
786.538	0.0157729
786.616	0.0157265
786.694	0.0157614
786.772	0.0156307
786.850	0.0154276
786.928	0.0152251
787.006	0.0152654
787.084	0.0151527
787.163	0.0151568
787.241	0.0151060
787.319	0.0149675
787.397	0.0151206
787.475	0.0150161
787.553	0.0149043
787.631	0.0150290
787.709	0.0149155
787.788	0.0149957
787.866	0.0149000
787.944	0.0149078
788.022	0.0149229
788.100	0.0150909
788.178	0.0149497
788.256	0.0148385
788.334	0.0149252
788.413	0.0151409
788.491	0.0150444
788.569	0.0150299
788.647	0.0150972
788.725	0.0151346
788.803	0.0151084
788.881	0.0152060
788.959	0.0153255
789.038	0.0154479
789.116	0.0153431
789.194	0.0154148
789.272	0.0153657
789.350	0.0153719
789.428	0.0153584
789.506	0.0152553
789.584	0.0152511
789.663	0.0151968
789.741	0.0151991
789.819	0.0152326
789.897	0.0152557
789.975	0.0151949
790.053	0.0152627
790.131	0.0153485
790.209	0.0153593
790.288	0.0154173
790.366	0.0154366
790.444	0.0152849
790.522	0.0153729
790.600	0.0155287
790.678	0.0156258
790.756	0.0157649
790.834	0.0156414
790.913	0.0155614
790.991	0.0156351
791.069	0.0156544
791.147	0.0156141
791.225	0.0153791
791.303	0.0155369
791.381	0.0154748
791.459	0.0154549
791.538	0.0153212
791.616	0.0152813
791.694	0.0153220
791.772	0.0150828
791.850	0.0149902
791.928	0.0151073
792.006	0.0150350
792.084	0.0149537
792.163	0.0149356
792.241	0.0149196
792.319	0.0148712
792.397	0.0147817
792.475	0.0148595
792.553	0.0148745
792.631	0.0148306
792.709	0.0147402
792.788	0.0148996
792.866	0.0150064
792.944	0.0149072
793.022	0.0149632
793.100	0.0151629
793.178	0.0153814
793.256	0.0152711
793.334	0.0153545
793.413	0.0155666
793.491	0.0155844
793.569	0.0155346
793.647	0.0156645
793.725	0.0157901
793.803	0.0157309
793.881	0.0159009
793.959	0.0159708
794.038	0.0160845
794.116	0.0159710
794.194	0.0161150
794.272	0.0161874
794.350	0.0162241
794.428	0.0161739
794.506	0.0162553
794.584	0.0162982
794.663	0.0161752
794.741	0.0162537
794.819	0.0160813
794.897	0.0160430
794.975	0.0158057
795.053	0.0157540
795.131	0.0157603
795.209	0.0156194
795.288	0.0153244
795.366	0.0152066
795.444	0.0151340
795.522	0.0149480
795.600	0.0148587
795.678	0.0148592
795.756	0.0147074
795.834	0.0145889
795.913	0.0147321
795.991	0.0146954
796.069	0.0146083
796.147	0.0147240
796.225	0.0147878
796.303	0.0147180
796.381	0.0147403
796.459	0.0147856
796.538	0.0148542
796.616	0.0147909
796.694	0.0148527
796.772	0.0148960
796.850	0.0150125
796.928	0.0149095
797.006	0.0148179
797.084	0.0149955
797.163	0.0148492
797.241	0.0147808
797.319	0.0150008
797.397	0.0149719
797.475	0.0150602
797.553	0.0150462
797.631	0.0150725
797.709	0.0152194
797.788	0.0153137
797.866	0.0153542
797.944	0.0152907
798.022	0.0152629
798.100	0.0153151
798.178	0.0155039
798.256	0.0155003
798.334	0.0154096
798.413	0.0153471
798.491	0.0154591
798.569	0.0154260
798.647	0.0153326
798.725	0.0154932
798.803	0.0154545
798.881	0.0153727
798.959	0.0155379
799.038	0.0155914
799.116	0.0154522
799.194	0.0154958
799.272	0.0154507
799.350	0.0155469
799.428	0.0155051
799.506	0.0154960
799.584	0.0153652
799.663	0.0153645
799.741	0.0153451
799.819	0.0152692
799.897	0.0152310
799.975	0.0153225
800.053	0.0153260
800.131	0.0153600
800.209	0.0152618
800.288	0.0152258
800.366	0.0154486
800.444	0.0153189
800.522	0.0152767
800.600	0.0152380
800.678	0.0153116
800.756	0.0152615
800.834	0.0152619
800.913	0.0153309
800.991	0.0153376
801.069	0.0154518
801.147	0.0153319
801.225	0.0153406
801.303	0.0153922
801.381	0.0152921
801.459	0.0153022
801.538	0.0154140
801.616	0.0153153
801.694	0.0152622
801.772	0.0151562
801.850	0.0150940
801.928	0.0151997
802.006	0.0151029
802.084	0.0150005
802.163	0.0150227
802.241	0.0150797
802.319	0.0151530
802.397	0.0150678
802.475	0.0151453
802.553	0.0149622
802.631	0.0150596
802.709	0.0151746
802.788	0.0150689
802.866	0.0150710
802.944	0.0151748
803.022	0.0151572
803.100	0.0150656
803.178	0.0149489
803.256	0.0150640
803.334	0.0150202
803.413	0.0149847
803.491	0.0149636
803.569	0.0150018
803.647	0.0149796
803.725	0.0149761
803.803	0.0149805
803.881	0.0149892
803.959	0.0150765
804.038	0.0149116
804.116	0.0150755
804.194	0.0151433
804.272	0.0153042
804.350	0.0152204
804.428	0.0152594
804.506	0.0153967
804.584	0.0152917
804.663	0.0154292
804.741	0.0154416
804.819	0.0153165
804.897	0.0153590
804.975	0.0153383
805.053	0.0154007
805.131	0.0153334
805.209	0.0151643
805.288	0.0152231
805.366	0.0150324
805.444	0.0148431
805.522	0.0148717
805.600	0.0148349
805.678	0.0147343
805.756	0.0147269
805.834	0.0148693
805.913	0.0146947
805.991	0.0148271
806.069	0.0147650
806.147	0.0148595
806.225	0.0148846
806.303	0.0150490
806.381	0.0150761
806.459	0.0152564
806.538	0.0154089
806.616	0.0152461
806.694	0.0153253
806.772	0.0154203
806.850	0.0154904
806.928	0.0155054
807.006	0.0155647
807.084	0.0155642
807.163	0.0154342
807.241	0.0154765
807.319	0.0153906
807.397	0.0154154
807.475	0.0152501
807.553	0.0150922
807.631	0.0150322
807.709	0.0151276
807.788	0.0150706
807.866	0.0149953
807.944	0.0149325
808.022	0.0148920
808.100	0.0148579
808.178	0.0147971
808.256	0.0147261
808.334	0.0147492
808.413	0.0149088
808.491	0.0147934
808.569	0.0148585
808.647	0.0148222
808.725	0.0149140
808.803	0.0150634
808.881	0.0150916
808.959	0.0150229
809.038	0.0149848
809.116	0.0151221
809.194	0.0153124
809.272	0.0152318
809.350	0.0152202
809.428	0.0152319
809.506	0.0152602
809.584	0.0152377
809.663	0.0153877
809.741	0.0153278
809.819	0.0153331
809.897	0.0153719
809.975	0.0152230
810.053	0.0152723
810.131	0.0152694
810.209	0.0154369
810.288	0.0155270
810.366	0.0154772
810.444	0.0155463
810.522	0.0154404
810.600	0.0154550
810.678	0.0155325
810.756	0.0155077
810.834	0.0154697
810.913	0.0153588
810.991	0.0153708
811.069	0.0153359
811.147	0.0153016
811.225	0.0153454
811.303	0.0151511
811.381	0.0154098
811.459	0.0154062
811.538	0.0153787
811.616	0.0153955
811.694	0.0153172
811.772	0.0153911
811.850	0.0154197
811.928	0.0155312
812.006	0.0152973
812.084	0.0152728
812.163	0.0152277
812.241	0.0152565
812.319	0.0154102
812.397	0.0152953
812.475	0.0152531
812.553	0.0152032
812.631	0.0151881
812.709	0.0153158
812.788	0.0152589
812.866	0.0150868
812.944	0.0151687
813.022	0.0152401
813.100	0.0151279
813.178	0.0151717
813.256	0.0150789
813.334	0.0150711
813.413	0.0152440
813.491	0.0150628
813.569	0.0150697
813.647	0.0150574
813.725	0.0150475
813.803	0.0149575
813.881	0.0150359
813.959	0.0149374
814.038	0.0149527
814.116	0.0150021
814.194	0.0148573
814.272	0.0148320
814.350	0.0147766
814.428	0.0148638
814.506	0.0148652
814.584	0.0149013
814.663	0.0148334
814.741	0.0148380
814.819	0.0149122
814.897	0.0149633
814.975	0.0151349
815.053	0.0152013
815.131	0.0150893
815.209	0.0151318
815.288	0.0154113
815.366	0.0154976
815.444	0.0154663
815.522	0.0155004
815.600	0.0155598
815.678	0.0155923
815.756	0.0156210
815.834	0.0157558
815.913	0.0156798
815.991	0.0155969
816.069	0.0157463
816.147	0.0156242
816.225	0.0154870
816.303	0.0156058
816.381	0.0155692
816.459	0.0155045
816.538	0.0154225
816.616	0.0155416
816.694	0.0155446
816.772	0.0154263
816.850	0.0154488
816.928	0.0155145
817.006	0.0155220
817.084	0.0154168
817.163	0.0155025
817.241	0.0155290
817.319	0.0154505
817.397	0.0155772
817.475	0.0154802
817.553	0.0153846
817.631	0.0154407
817.709	0.0154899
817.788	0.0154037
817.866	0.0155360
817.944	0.0153750
818.022	0.0153191
818.100	0.0154487
818.178	0.0154369
818.256	0.0154575
818.334	0.0153105
818.413	0.0153593
818.491	0.0152615
818.569	0.0152355
818.647	0.0151849
818.725	0.0151357
818.803	0.0151521
818.881	0.0150134
818.959	0.0149727
819.038	0.0151009
819.116	0.0151210
819.194	0.0150768
819.272	0.0149933
819.350	0.0150733
819.428	0.0150985
819.506	0.0149733
819.584	0.0149722
819.663	0.0150223
819.741	0.0151823
819.819	0.0149682
819.897	0.0150201
819.975	0.0151750
820.053	0.0150126
820.131	0.0150900
820.209	0.0152283
820.288	0.0153162
820.366	0.0151860
820.444	0.0152875
820.522	0.0154389
820.600	0.0155426
820.678	0.0153425
820.756	0.0154916
820.834	0.0156046
820.913	0.0154651
820.991	0.0154631
821.069	0.0154359
821.147	0.0153327
821.225	0.0154235
821.303	0.0155400
821.381	0.0155819
821.459	0.0153314
821.538	0.0152980
821.616	0.0155017
821.694	0.0154781
821.772	0.0153561
821.850	0.0154259
821.928	0.0154769
822.006	0.0153634
822.084	0.0153312
822.163	0.0154865
822.241	0.0155720
822.319	0.0154192
822.397	0.0153593
822.475	0.0153264
822.553	0.0154597
822.631	0.0154744
822.709	0.0153983
822.788	0.0154445
822.866	0.0154387
822.944	0.0153432
823.022	0.0153475
823.100	0.0154008
823.178	0.0152495
823.256	0.0153030
823.334	0.0152103
823.413	0.0152689
823.491	0.0152482
823.569	0.0151902
823.647	0.0150776
823.725	0.0150655
823.803	0.0150392
823.881	0.0150552
823.959	0.0150034
824.038	0.0150275
824.116	0.0149466
824.194	0.0149467
824.272	0.0149454
824.350	0.0149528
824.428	0.0149860
824.506	0.0149847
824.584	0.0149022
824.663	0.0149432
824.741	0.0147897
824.819	0.0150380
824.897	0.0149122
824.975	0.0148474
825.053	0.0149390
825.131	0.0150029
825.209	0.0149114
825.288	0.0149367
825.366	0.0150713
825.444	0.0149918
825.522	0.0149108
825.600	0.0151092
825.678	0.0150767
825.756	0.0152139
825.834	0.0150730
825.913	0.0150657
825.991	0.0152417
826.069	0.0152349
826.147	0.0152399
826.225	0.0152000
826.303	0.0153980
826.381	0.0153740
826.459	0.0153995
826.538	0.0154029
826.616	0.0153094
826.694	0.0154256
826.772	0.0154459
826.850	0.0154343
826.928	0.0154285
827.006	0.0154322
827.084	0.0156418
827.163	0.0156020
827.241	0.0156284
827.319	0.0154266
827.397	0.0154555
827.475	0.0155048
827.553	0.0154885
827.631	0.0153719
827.709	0.0153466
827.788	0.0153399
827.866	0.0151757
827.944	0.0151501
828.022	0.0152952
828.100	0.0152416
828.178	0.0151724
828.256	0.0153298
828.334	0.0152054
828.413	0.0152016
828.491	0.0150656
828.569	0.0151484
828.647	0.0150774
828.725	0.0150072
828.803	0.0150997
828.881	0.0151181
828.959	0.0147987
829.038	0.0148696
829.116	0.0147826
829.194	0.0150120
829.272	0.0148142
829.350	0.0148565
829.428	0.0148817
829.506	0.0147419
829.584	0.0148632
829.663	0.0149011
829.741	0.0149397
829.819	0.0148768
829.897	0.0148418
829.975	0.0150031
830.053	0.0150234
830.131	0.0148922
830.209	0.0150638
830.288	0.0151495
830.366	0.0150601
830.444	0.0151537
830.522	0.0151057
830.600	0.0150030
830.678	0.0150066
830.756	0.0150957
830.834	0.0152506
830.913	0.0151160
830.991	0.0152234
831.069	0.0150869
831.147	0.0150654
831.225	0.0150780
831.303	0.0151209
831.381	0.0152353
831.459	0.0150860
831.538	0.0151591
831.616	0.0151630
831.694	0.0150627
831.772	0.0150161
831.850	0.0151680
831.928	0.0150933
832.006	0.0150822
832.084	0.0152544
832.163	0.0150922
832.241	0.0151294
832.319	0.0151805
832.397	0.0151692
832.475	0.0152025
832.553	0.0151963
832.631	0.0153717
832.709	0.0153590
832.788	0.0153876
832.866	0.0154687
832.944	0.0154601
833.022	0.0155809
833.100	0.0155541
833.178	0.0155513
833.256	0.0154907
833.334	0.0155586
833.413	0.0157097
833.491	0.0156180
833.569	0.0155439
833.647	0.0157495
833.725	0.0157535
833.803	0.0156188
833.881	0.0155622
833.959	0.0156310
834.038	0.0156411
834.116	0.0155625
834.194	0.0153175
834.272	0.0154929
834.350	0.0153835
834.428	0.0153599
834.506	0.0153070
834.584	0.0153158
834.663	0.0152464
834.741	0.0153447
834.819	0.0152041
834.897	0.0152200
834.975	0.0151973
835.053	0.0151267
835.131	0.0150509
835.209	0.0151483
835.288	0.0150749
835.366	0.0149242
835.444	0.0149840
835.522	0.0150569
835.600	0.0150351
835.678	0.0150652
835.756	0.0149854
835.834	0.0150298
835.913	0.0150674
835.991	0.0150014
836.069	0.0151163
836.147	0.0150410
836.225	0.0151643
836.303	0.0151934
836.381	0.0150195
836.459	0.0149528
836.538	0.0150681
836.616	0.0150640
836.694	0.0150442
836.772	0.0150650
836.850	0.0150343
836.928	0.0150988
837.006	0.0152381
837.084	0.0151530
837.163	0.0150330
837.241	0.0151300
837.319	0.0150103
837.397	0.0150237
837.475	0.0152396
837.553	0.0151904
837.631	0.0152748
837.709	0.0151551
837.788	0.0151213
837.866	0.0150708
837.944	0.0150838
838.022	0.0151057
838.100	0.0151624
838.178	0.0150922
838.256	0.0152504
838.334	0.0151379
838.413	0.0151569
838.491	0.0153152
838.569	0.0152665
838.647	0.0153259
838.725	0.0153703
838.803	0.0153370
838.881	0.0152238
838.959	0.0154328
839.038	0.0154029
839.116	0.0152386
839.194	0.0152766
839.272	0.0154600
839.350	0.0153254
839.428	0.0154393
839.506	0.0152684
839.584	0.0153760
839.663	0.0154324
839.741	0.0153008
839.819	0.0153176
839.897	0.0154304
839.975	0.0153588
840.053	0.0153300
840.131	0.0153673
840.209	0.0153052
840.288	0.0153944
840.366	0.0152271
840.444	0.0152884
840.522	0.0153500
840.600	0.0153880
840.678	0.0153412
840.756	0.0152473
840.834	0.0153144
840.913	0.0153661
840.991	0.0154702
841.069	0.0154280
841.147	0.0152473
841.225	0.0153133
841.303	0.0152676
841.381	0.0152467
841.459	0.0150939
841.538	0.0152676
841.616	0.0150627
841.694	0.0152232
841.772	0.0152551
841.850	0.0152027
841.928	0.0151982
842.006	0.0149957
842.084	0.0150888
842.163	0.0152411
842.241	0.0152212
842.319	0.0151292
842.397	0.0151854
842.475	0.0151006
842.553	0.0153081
842.631	0.0153310
842.709	0.0151497
842.788	0.0152309
842.866	0.0152554
842.944	0.0152237
843.022	0.0152370
843.100	0.0153889
843.178	0.0153980
843.256	0.0154428
843.334	0.0151823
843.413	0.0153809
843.491	0.0153198
843.569	0.0153252
843.647	0.0154566
843.725	0.0153465
843.803	0.0152970
843.881	0.0154485
843.959	0.0153797
844.038	0.0152484
844.116	0.0153278
844.194	0.0153137
844.272	0.0152250
844.350	0.0151797
844.428	0.0151492
844.506	0.0152728
844.584	0.0153401
844.663	0.0153277
844.741	0.0152718
844.819	0.0154565
844.897	0.0154893
844.975	0.0154279
845.053	0.0154576
845.131	0.0153719
845.209	0.0155421
845.288	0.0155672
845.366	0.0155959
845.444	0.0155513
845.522	0.0156383
845.600	0.0155495
845.678	0.0155038
845.756	0.0154301
845.834	0.0154720
845.913	0.0155145
845.991	0.0154202
846.069	0.0152379
846.147	0.0155108
846.225	0.0153432
846.303	0.0153893
846.381	0.0153438
846.459	0.0154370
846.538	0.0154449
846.616	0.0154584
846.694	0.0153936
846.772	0.0153667
846.850	0.0154185
846.928	0.0153738
847.006	0.0153937
847.084	0.0154089
847.163	0.0153513
847.241	0.0154057
847.319	0.0154105
847.397	0.0153056
847.475	0.0152749
847.553	0.0152654
847.631	0.0152695
847.709	0.0153613
847.788	0.0154113
847.866	0.0153220
847.944	0.0151994
848.022	0.0152625
848.100	0.0153617
848.178	0.0153354
848.256	0.0152740
848.334	0.0152738
848.413	0.0152091
848.491	0.0153121
848.569	0.0151885
848.647	0.0153577
848.725	0.0152450
848.803	0.0151221
848.881	0.0150800
848.959	0.0152242
849.038	0.0153036
849.116	0.0152451
849.194	0.0152257
849.272	0.0153046
849.350	0.0152896
849.428	0.0151744
849.506	0.0152342
849.584	0.0152151
849.663	0.0152091
849.741	0.0152367
849.819	0.0154061
849.897	0.0153033
849.975	0.0150539
850.053	0.0152227
850.131	0.0152590
850.209	0.0153405
850.288	0.0151580
850.366	0.0151744
850.444	0.0150903
850.522	0.0150903
850.600	0.0150459
850.678	0.0150352
850.756	0.0150849
850.834	0.0152174
850.913	0.0150436
850.991	0.0151225
851.069	0.0151807
851.147	0.0152439
851.225	0.0153317
851.303	0.0151945
851.381	0.0153672
851.459	0.0153899
851.538	0.0154363
851.616	0.0153664
851.694	0.0154549
851.772	0.0154810
851.850	0.0154638
851.928	0.0154045
852.006	0.0155449
852.084	0.0155212
852.163	0.0154996
852.241	0.0153910
852.319	0.0153619
852.397	0.0155067
852.475	0.0155630
852.553	0.0153806
852.631	0.0155072
852.709	0.0155235
852.788	0.0153528
852.866	0.0154724
852.944	0.0154719
853.022	0.0152757
853.100	0.0152258
853.178	0.0152478
853.256	0.0152699
853.334	0.0152045
853.413	0.0151020
853.491	0.0151743
853.569	0.0151740
853.647	0.0152444
853.725	0.0151405
853.803	0.0152242
853.881	0.0152683
853.959	0.0151100
854.038	0.0152509
854.116	0.0153915
854.194	0.0152991
854.272	0.0151936
854.350	0.0152454
854.428	0.0151953
854.506	0.0152294
854.584	0.0152082
854.663	0.0151242
854.741	0.0151591
854.819	0.0150729
854.897	0.0152282
854.975	0.0150623
855.053	0.0151126
855.131	0.0150537
855.209	0.0151633
855.288	0.0150971
855.366	0.0151057
855.444	0.0151393
855.522	0.0149823
855.600	0.0151573
855.678	0.0151183
855.756	0.0151620
855.834	0.0150848
855.913	0.0149718
855.991	0.0151017
856.069	0.0153109
856.147	0.0150880
856.225	0.0151244
856.303	0.0152546
856.381	0.0151137
856.459	0.0152661
856.538	0.0151643
856.616	0.0152010
856.694	0.0152139
856.772	0.0150906
856.850	0.0152498
856.928	0.0153585
857.006	0.0151160
857.084	0.0151067
857.163	0.0151626
857.241	0.0151854
857.319	0.0151859
857.397	0.0151150
857.475	0.0152894
857.553	0.0152569
857.631	0.0153451
857.709	0.0152753
857.788	0.0151437
857.866	0.0151060
857.944	0.0152643
858.022	0.0152089
858.100	0.0152581
858.178	0.0153368
858.256	0.0152470
858.334	0.0152286
858.413	0.0153223
858.491	0.0152541
858.569	0.0150256
858.647	0.0151291
858.725	0.0151774
858.803	0.0150818
858.881	0.0151785
858.959	0.0151350
859.038	0.0150792
859.116	0.0151638
859.194	0.0150868
859.272	0.0151539
859.350	0.0151312
859.428	0.0150841
859.506	0.0150117
859.584	0.0150409
859.663	0.0152032
859.741	0.0151572
859.819	0.0152048
859.897	0.0151900
859.975	0.0153394
860.053	0.0152303
860.131	0.0151792
860.209	0.0152038
860.288	0.0152119
860.366	0.0151093
860.444	0.0151746
860.522	0.0152898
860.600	0.0153751
860.678	0.0151964
860.756	0.0152248
860.834	0.0151617
860.913	0.0151151
860.991	0.0151737
861.069	0.0152162
861.147	0.0152321
861.225	0.0150708
861.303	0.0151028
861.381	0.0149874
861.459	0.0149792
861.538	0.0150140
861.616	0.0149725
861.694	0.0150922
861.772	0.0150462
861.850	0.0149665
861.928	0.0148836
862.006	0.0149252
862.084	0.0150803
862.163	0.0149638
862.241	0.0149655
862.319	0.0150200
862.397	0.0150275
862.475	0.0149759
862.553	0.0149437
862.631	0.0150262
862.709	0.0150568
862.788	0.0150079
862.866	0.0150026
862.944	0.0152608
863.022	0.0150571
863.100	0.0151006
863.178	0.0151891
863.256	0.0151920
863.334	0.0153165
863.413	0.0152580
863.491	0.0152642
863.569	0.0153173
863.647	0.0154208
863.725	0.0153501
863.803	0.0153667
863.881	0.0153272
863.959	0.0153623
864.038	0.0153027
864.116	0.0152572
864.194	0.0152259
864.272	0.0152750
864.350	0.0151165
864.428	0.0153144
864.506	0.0154189
864.584	0.0154713
864.663	0.0155164
864.741	0.0154047
864.819	0.0153455
864.897	0.0154959
864.975	0.0154784
865.053	0.0154652
865.131	0.0154131
865.209	0.0154556
865.288	0.0153093
865.366	0.0152843
865.444	0.0153724
865.522	0.0152711
865.600	0.0152452
865.678	0.0150362
865.756	0.0151019
865.834	0.0150675
865.913	0.0150165
865.991	0.0150748
866.069	0.0151134
866.147	0.0150849
866.225	0.0150490
866.303	0.0150643
866.381	0.0150912
866.459	0.0151335
866.538	0.0150097
866.616	0.0150238
866.694	0.0152113
866.772	0.0150790
866.850	0.0151160
866.928	0.0151524
867.006	0.0151852
867.084	0.0152215
867.163	0.0151151
867.241	0.0151368
867.319	0.0150991
867.397	0.0151527
867.475	0.0152195
867.553	0.0151991
867.631	0.0152106
867.709	0.0152966
867.788	0.0153160
867.866	0.0152273
867.944	0.0152288
868.022	0.0152113
868.100	0.0153532
868.178	0.0155465
868.256	0.0154047
868.334	0.0153285
868.413	0.0155190
868.491	0.0155202
868.569	0.0156486
868.647	0.0155959
868.725	0.0156625
868.803	0.0156927
868.881	0.0156055
868.959	0.0157551
869.038	0.0156310
869.116	0.0156057
869.194	0.0155613
869.272	0.0155656
869.350	0.0156656
869.428	0.0154895
869.506	0.0155457
869.584	0.0155064
869.663	0.0153662
869.741	0.0155007
869.819	0.0153864
869.897	0.0153302
869.975	0.0153080
870.053	0.0152377
870.131	0.0152663
870.209	0.0151797
870.288	0.0152367
870.366	0.0152666
870.444	0.0152138
870.522	0.0152116
870.600	0.0152374
870.678	0.0152873
870.756	0.0152642
870.834	0.0152481
870.913	0.0152306
870.991	0.0152537
871.069	0.0152222
871.147	0.0154035
871.225	0.0152179
871.303	0.0150142
871.381	0.0152245
871.459	0.0151279
871.538	0.0152140
871.616	0.0153515
871.694	0.0152302
871.772	0.0151532
871.850	0.0149596
871.928	0.0151262
872.006	0.0151859
872.084	0.0151510
872.163	0.0151939
872.241	0.0152666
872.319	0.0152762
872.397	0.0152577
872.475	0.0153214
872.553	0.0154681
872.631	0.0154250
872.709	0.0153549
872.788	0.0154659
872.866	0.0154084
872.944	0.0155232
873.022	0.0152745
873.100	0.0153240
873.178	0.0153951
873.256	0.0153415
873.334	0.0154316
873.413	0.0153738
873.491	0.0154119
873.569	0.0153920
873.647	0.0153363
873.725	0.0153551
873.803	0.0151780
873.881	0.0154463
873.959	0.0153507
874.038	0.0154543
874.116	0.0153303
874.194	0.0154113
874.272	0.0151549
874.350	0.0153228
874.428	0.0154446
874.506	0.0153808
874.584	0.0152724
874.663	0.0154152
874.741	0.0153740
874.819	0.0153559
874.897	0.0154022
874.975	0.0152780
875.053	0.0152537
875.131	0.0152802
875.209	0.0153246
875.288	0.0153091
875.366	0.0153799
875.444	0.0154023
875.522	0.0154776
875.600	0.0154265
875.678	0.0153497
875.756	0.0152614
875.834	0.0154552
875.913	0.0154703
875.991	0.0153873
876.069	0.0154762
876.147	0.0154725
876.225	0.0153898
876.303	0.0153940
876.381	0.0152323
876.459	0.0153665
876.538	0.0153156
876.616	0.0153015
876.694	0.0153861
876.772	0.0155112
876.850	0.0152254
876.928	0.0151086
877.006	0.0153582
877.084	0.0152666
877.163	0.0153418
877.241	0.0153233
877.319	0.0153293
877.397	0.0152914
877.475	0.0151571
877.553	0.0153604
877.631	0.0153825
877.709	0.0152777
877.788	0.0153503
877.866	0.0152331
877.944	0.0152496
878.022	0.0152355
878.100	0.0152149
878.178	0.0151649
878.256	0.0152346
878.334	0.0152431
878.413	0.0151511
878.491	0.0151461
878.569	0.0152100
878.647	0.0151261
878.725	0.0152789
878.803	0.0152843
878.881	0.0152755
878.959	0.0151295
879.038	0.0151571
879.116	0.0152290
879.194	0.0151908
879.272	0.0152410
879.350	0.0153519
879.428	0.0152781
879.506	0.0153761
879.584	0.0153452
879.663	0.0152536
879.741	0.0152860
879.819	0.0154410
879.897	0.0154192
879.975	0.0153609
880.053	0.0154044
880.131	0.0154545
880.209	0.0154114
880.288	0.0154239
880.366	0.0153426
880.444	0.0153459
880.522	0.0152869
880.600	0.0153833
880.678	0.0152959
880.756	0.0154147
880.834	0.0152156
880.913	0.0152319
880.991	0.0152592
881.069	0.0152499
881.147	0.0152499
881.225	0.0151981
881.303	0.0152956
881.381	0.0152776
881.459	0.0152824
881.538	0.0152783
881.616	0.0152022
881.694	0.0151656
881.772	0.0152142
881.850	0.0151909
881.928	0.0152784
882.006	0.0152578
882.084	0.0151537
882.163	0.0151056
882.241	0.0150209
882.319	0.0151444
882.397	0.0150433
882.475	0.0150172
882.553	0.0151185
882.631	0.0151115
882.709	0.0150169
882.788	0.0151289
882.866	0.0151634
882.944	0.0151089
883.022	0.0152406
883.100	0.0150945
883.178	0.0151031
883.256	0.0153289
883.334	0.0152182
883.413	0.0150609
883.491	0.0152187
883.569	0.0152632
883.647	0.0153322
883.725	0.0152740
883.803	0.0151748
883.881	0.0152165
883.959	0.0154095
884.038	0.0152125
884.116	0.0152933
884.194	0.0153571
884.272	0.0151922
884.350	0.0151676
884.428	0.0151704
884.506	0.0150763
884.584	0.0151428
884.663	0.0151562
884.741	0.0152083
884.819	0.0150888
884.897	0.0150008
884.975	0.0150920
885.053	0.0150523
885.131	0.0150344
885.209	0.0150081
885.288	0.0150080
885.366	0.0150504
885.444	0.0150569
885.522	0.0150642
885.600	0.0149849
885.678	0.0150705
885.756	0.0151060
885.834	0.0150181
885.913	0.0150259
885.991	0.0150707
886.069	0.0150783
886.147	0.0150108
886.225	0.0151180
886.303	0.0151469
886.381	0.0150618
886.459	0.0150486
886.538	0.0148826
886.616	0.0150200
886.694	0.0151320
886.772	0.0150929
886.850	0.0152653
886.928	0.0151062
887.006	0.0150504
887.084	0.0151360
887.163	0.0151567
887.241	0.0152618
887.319	0.0151620
887.397	0.0151926
887.475	0.0153757
887.553	0.0153165
887.631	0.0153055
887.709	0.0152154
887.788	0.0151572
887.866	0.0153019
887.944	0.0153407
888.022	0.0153038
888.100	0.0154291
888.178	0.0154050
888.256	0.0152675
888.334	0.0151717
888.413	0.0152182
888.491	0.0151501
888.569	0.0152067
888.647	0.0152534
888.725	0.0151086
888.803	0.0151540
888.881	0.0151855
888.959	0.0152910
889.038	0.0153284
889.116	0.0153088
889.194	0.0154669
889.272	0.0154205
889.350	0.0153240
889.428	0.0154510
889.506	0.0154161
889.584	0.0153761
889.663	0.0153273
889.741	0.0152961
889.819	0.0152915
889.897	0.0152747
889.975	0.0151743
890.053	0.0150430
890.131	0.0149831
890.209	0.0149942
890.288	0.0149874
890.366	0.0148243
890.444	0.0148624
890.522	0.0148372
890.600	0.0147812
890.678	0.0148183
890.756	0.0148941
890.834	0.0149653
890.913	0.0148943
890.991	0.0149722
891.069	0.0150601
891.147	0.0151389
891.225	0.0151505
891.303	0.0151498
891.381	0.0153021
891.459	0.0152869
891.538	0.0154259
891.616	0.0154016
891.694	0.0153450
891.772	0.0155766
891.850	0.0156488
891.928	0.0156265
892.006	0.0157613
892.084	0.0155367
892.163	0.0155434
892.241	0.0155471
892.319	0.0155291
892.397	0.0154671
892.475	0.0153918
892.553	0.0151715
892.631	0.0152763
892.709	0.0153216
892.788	0.0152758
892.866	0.0151677
892.944	0.0150109
893.022	0.0150264
893.100	0.0150723
893.178	0.0150975
893.256	0.0149139
893.334	0.0151080
893.413	0.0152583
893.491	0.0149886
893.569	0.0151015
893.647	0.0151141
893.725	0.0150201
893.803	0.0150857
893.881	0.0150177
893.959	0.0151881
894.038	0.0152488
894.116	0.0151896
894.194	0.0151305
894.272	0.0151980
894.350	0.0152759
894.428	0.0152921
894.506	0.0151992
894.584	0.0153076
894.663	0.0153545
894.741	0.0153082
894.819	0.0155428
894.897	0.0155032
894.975	0.0155324
895.053	0.0154060
895.131	0.0153571
895.209	0.0155224
895.288	0.0153403
895.366	0.0153176
895.444	0.0152898
895.522	0.0153526
895.600	0.0153749
895.678	0.0153136
895.756	0.0152126
895.834	0.0153081
895.913	0.0152779
895.991	0.0154919
896.069	0.0154482
896.147	0.0153075
896.225	0.0154607
896.303	0.0154554
896.381	0.0154403
896.459	0.0153512
896.538	0.0154361
896.616	0.0153633
896.694	0.0153223
896.772	0.0153358
896.850	0.0152592
896.928	0.0154791
897.006	0.0155347
897.084	0.0154573
897.163	0.0154582
897.241	0.0153869
897.319	0.0154996
897.397	0.0154760
897.475	0.0155792
897.553	0.0157020
897.631	0.0154168
897.709	0.0153632
897.788	0.0153959
897.866	0.0154620
897.944	0.0153695
898.022	0.0154005
898.100	0.0154605
898.178	0.0154118
898.256	0.0154082
898.334	0.0153187
898.413	0.0152386
898.491	0.0152641
898.569	0.0152133
898.647	0.0151913
898.725	0.0151579
898.803	0.0150652
898.881	0.0150443
898.959	0.0150610
899.038	0.0151308
899.116	0.0149648
899.194	0.0148988
899.272	0.0151006
899.350	0.0151233
899.428	0.0150885
899.506	0.0151373
899.584	0.0151579
899.663	0.0151183
899.741	0.0152551
899.819	0.0153046
899.897	0.0153987
899.975	0.0154501
900.053	0.0155260
900.131	0.0153817
900.209	0.0153665
900.288	0.0153788
900.366	0.0154594
900.444	0.0154400
900.522	0.0151776
900.600	0.0152763
900.678	0.0150564
900.756	0.0152238
900.834	0.0153046
900.913	0.0151789
900.991	0.0151545
901.069	0.0153416
901.147	0.0152939
901.225	0.0152360
901.303	0.0152959
901.381	0.0153281
901.459	0.0153725
901.538	0.0153917
901.616	0.0153378
901.694	0.0154121
901.772	0.0153669
901.850	0.0153857
901.928	0.0153915
902.006	0.0153829
902.084	0.0153287
902.163	0.0153502
902.241	0.0152489
902.319	0.0152915
902.397	0.0153586
902.475	0.0155172
902.553	0.0152528
902.631	0.0151365
902.709	0.0153051
902.788	0.0153046
902.866	0.0153367
902.944	0.0154116
903.022	0.0153364
903.100	0.0153112
903.178	0.0151336
903.256	0.0151577
903.334	0.0151467
903.413	0.0152081
903.491	0.0151768
903.569	0.0150916
903.647	0.0152100
903.725	0.0149772
903.803	0.0151033
903.881	0.0149870
903.959	0.0150004
904.038	0.0150015
904.116	0.0149995
904.194	0.0149265
904.272	0.0148856
904.350	0.0150283
904.428	0.0150421
904.506	0.0149953
904.584	0.0150411
904.663	0.0151508
904.741	0.0152295
904.819	0.0153304
904.897	0.0152509
904.975	0.0152026
905.053	0.0151729
905.131	0.0153670
905.209	0.0152876
905.288	0.0154589
905.366	0.0152958
905.444	0.0154465
905.522	0.0153170
905.600	0.0152289
905.678	0.0154355
905.756	0.0153056
905.834	0.0153921
905.913	0.0153071
905.991	0.0152536
906.069	0.0152291
906.147	0.0152524
906.225	0.0150644
906.303	0.0151028
906.381	0.0152543
906.459	0.0150288
906.538	0.0151507
906.616	0.0150948
906.694	0.0151352
906.772	0.0150092
906.850	0.0150435
906.928	0.0151930
907.006	0.0151833
907.084	0.0151534
907.163	0.0150793
907.241	0.0152344
907.319	0.0152042
907.397	0.0151164
907.475	0.0152234
907.553	0.0152621
907.631	0.0151947
907.709	0.0152163
907.788	0.0151666
907.866	0.0151326
907.944	0.0151572
908.022	0.0149736
908.100	0.0151473
908.178	0.0150593
908.256	0.0151667
908.334	0.0150550
908.413	0.0151137
908.491	0.0151962
908.569	0.0151163
908.647	0.0151442
908.725	0.0151096
908.803	0.0150357
908.881	0.0151604
908.959	0.0151480
909.038	0.0151492
909.116	0.0151980
909.194	0.0151830
909.272	0.0150108
909.350	0.0150947
909.428	0.0150858
909.506	0.0151592
909.584	0.0152576
909.663	0.0150475
909.741	0.0151397
909.819	0.0151384
909.897	0.0151572
909.975	0.0153354
910.053	0.0152118
910.131	0.0152464
910.209	0.0152621
910.288	0.0152982
910.366	0.0151369
910.444	0.0152725
910.522	0.0153480
910.600	0.0152780
910.678	0.0152718
910.756	0.0152169
910.834	0.0151485
910.913	0.0151865
910.991	0.0150247
911.069	0.0149796
911.147	0.0150824
911.225	0.0152616
911.303	0.0150954
911.381	0.0149849
911.459	0.0150354
911.538	0.0151467
911.616	0.0151006
911.694	0.0151918
911.772	0.0150548
911.850	0.0152081
911.928	0.0151530
912.006	0.0150492
912.084	0.0150188
912.163	0.0151807
912.241	0.0150728
912.319	0.0151196
912.397	0.0149589
912.475	0.0150764
912.553	0.0151443
912.631	0.0151285
912.709	0.0151000
912.788	0.0153231
912.866	0.0153028
912.944	0.0151448
913.022	0.0154381
913.100	0.0153295
913.178	0.0152798
913.256	0.0152054
913.334	0.0152809
913.413	0.0152883
913.491	0.0153474
913.569	0.0153107
913.647	0.0153432
913.725	0.0153609
913.803	0.0152484
913.881	0.0153878
913.959	0.0153178
914.038	0.0153214
914.116	0.0152157
914.194	0.0153297
914.272	0.0152969
914.350	0.0152863
914.428	0.0153368
914.506	0.0153084
914.584	0.0152467
914.663	0.0153277
914.741	0.0154081
914.819	0.0154104
914.897	0.0152660
914.975	0.0151566
915.053	0.0152781
915.131	0.0152187
915.209	0.0151837
915.288	0.0151168
915.366	0.0152188
915.444	0.0150870
915.522	0.0151865
915.600	0.0150658
915.678	0.0152138
915.756	0.0151458
915.834	0.0150845
915.913	0.0151821
915.991	0.0150861
916.069	0.0151868
916.147	0.0152922
916.225	0.0152306
916.303	0.0152751
916.381	0.0153138
916.459	0.0151913
916.538	0.0152801
916.616	0.0151620
916.694	0.0152026
916.772	0.0153250
916.850	0.0151534
916.928	0.0151339
917.006	0.0151047
917.084	0.0150919
917.163	0.0150005
917.241	0.0150580
917.319	0.0149567
917.397	0.0149987
917.475	0.0149472
917.553	0.0149873
917.631	0.0150073
917.709	0.0150333
917.788	0.0149302
917.866	0.0151380
917.944	0.0151998
918.022	0.0151977
918.100	0.0151795
918.178	0.0152487
918.256	0.0152723
918.334	0.0152107
918.413	0.0153977
918.491	0.0153577
918.569	0.0154283
918.647	0.0153524
918.725	0.0154672
918.803	0.0152899
918.881	0.0154095
918.959	0.0155594
919.038	0.0155764
919.116	0.0154124
919.194	0.0153454
919.272	0.0153509
919.350	0.0153682
919.428	0.0152437
919.506	0.0151758
919.584	0.0152319
919.663	0.0150282
919.741	0.0151476
919.819	0.0150589
919.897	0.0149255
