05/20/2022	20:36:02	Ver.	4.1	UNKNOWN
Optical Delay	599.981738	Delta X		0.078125	Sweeps	1	Scan Rate	0/0
Coordinates	Axis 1	NaN	Axis 2	NaN	Axis 3	NaN	Axis 4	NaN	Axis 5	NaN	Axis 6	0.000000
TX Power	0.000000	RX Power	0.000000

599.982	0.0152782
600.060	0.0152444
600.138	0.0152750
600.216	0.0152623
600.294	0.0151156
600.372	0.0153226
600.450	0.0152446
600.529	0.0152769
600.607	0.0152611
600.685	0.0152160
600.763	0.0152480
600.841	0.0152873
600.919	0.0152932
600.997	0.0152581
601.075	0.0151547
601.154	0.0151540
601.232	0.0152191
601.310	0.0150540
601.388	0.0151598
601.466	0.0152798
601.544	0.0152769
601.622	0.0153020
601.700	0.0151544
601.779	0.0152570
601.857	0.0152522
601.935	0.0152000
602.013	0.0151384
602.091	0.0152189
602.169	0.0152225
602.247	0.0152143
602.325	0.0151975
602.404	0.0152940
602.482	0.0154140
602.560	0.0153293
602.638	0.0151839
602.716	0.0152623
602.794	0.0151759
602.872	0.0152195
602.950	0.0151877
603.029	0.0152502
603.107	0.0151759
603.185	0.0151524
603.263	0.0152828
603.341	0.0152541
603.419	0.0154210
603.497	0.0153125
603.575	0.0151794
603.654	0.0151340
603.732	0.0153497
603.810	0.0152672
603.888	0.0151669
603.966	0.0152514
604.044	0.0152385
604.122	0.0153069
604.200	0.0152689
604.279	0.0152698
604.357	0.0151384
604.435	0.0152910
604.513	0.0151921
604.591	0.0152038
604.669	0.0151864
604.747	0.0153151
604.825	0.0152502
604.904	0.0153893
604.982	0.0153128
605.060	0.0152601
605.138	0.0152869
605.216	0.0152843
605.294	0.0152863
605.372	0.0151676
605.450	0.0153729
605.529	0.0151996
605.607	0.0153115
605.685	0.0152102
605.763	0.0152057
605.841	0.0152688
605.919	0.0153422
605.997	0.0151934
606.075	0.0151814
606.154	0.0151650
606.232	0.0152207
606.310	0.0152539
606.388	0.0152855
606.466	0.0151885
606.544	0.0151574
606.622	0.0152366
606.700	0.0151623
606.779	0.0152312
606.857	0.0151879
606.935	0.0151316
607.013	0.0151730
607.091	0.0152486
607.169	0.0153168
607.247	0.0151414
607.325	0.0151489
607.404	0.0152557
607.482	0.0150676
607.560	0.0153091
607.638	0.0153259
607.716	0.0152413
607.794	0.0152502
607.872	0.0152368
607.950	0.0153487
608.029	0.0152133
608.107	0.0152885
608.185	0.0152170
608.263	0.0150920
608.341	0.0151363
608.419	0.0153342
608.497	0.0152798
608.575	0.0151636
608.654	0.0151339
608.732	0.0153377
608.810	0.0152848
608.888	0.0152063
608.966	0.0152543
609.044	0.0152310
609.122	0.0152950
609.200	0.0153558
609.279	0.0152281
609.357	0.0151903
609.435	0.0151711
609.513	0.0152917
609.591	0.0151677
609.669	0.0153020
609.747	0.0152985
609.825	0.0152662
609.904	0.0152938
609.982	0.0151900
610.060	0.0152799
610.138	0.0154594
610.216	0.0152979
610.294	0.0153738
610.372	0.0153522
610.450	0.0151764
610.529	0.0151300
610.607	0.0153223
610.685	0.0152493
610.763	0.0152898
610.841	0.0153093
610.919	0.0152266
610.997	0.0152734
611.075	0.0151309
611.154	0.0151905
611.232	0.0152704
611.310	0.0153152
611.388	0.0152235
611.466	0.0152850
611.544	0.0152914
611.622	0.0152733
611.700	0.0151936
611.779	0.0152388
611.857	0.0152772
611.935	0.0151997
612.013	0.0151797
612.091	0.0152628
612.169	0.0151707
612.247	0.0154061
612.325	0.0153700
612.404	0.0151023
612.482	0.0155072
612.560	0.0152219
612.638	0.0152544
612.716	0.0153065
612.794	0.0151898
612.872	0.0152847
612.950	0.0151762
613.029	0.0153134
613.107	0.0152693
613.185	0.0152192
613.263	0.0152460
613.341	0.0151783
613.419	0.0152313
613.497	0.0152272
613.575	0.0151512
613.654	0.0151725
613.732	0.0152586
613.810	0.0151612
613.888	0.0152030
613.966	0.0151212
614.044	0.0152496
614.122	0.0153726
614.200	0.0152844
614.279	0.0152226
614.357	0.0153362
614.435	0.0152254
614.513	0.0153444
614.591	0.0152126
614.669	0.0152365
614.747	0.0151972
614.825	0.0153535
614.904	0.0152516
614.982	0.0152213
615.060	0.0153801
615.138	0.0152572
615.216	0.0152749
615.294	0.0152081
615.372	0.0152680
615.450	0.0151573
615.529	0.0151988
615.607	0.0152467
615.685	0.0152463
615.763	0.0153793
615.841	0.0151254
615.919	0.0151410
615.997	0.0152357
616.075	0.0154111
616.154	0.0153349
616.232	0.0152024
616.310	0.0152069
616.388	0.0153796
616.466	0.0151979
616.544	0.0151456
616.622	0.0152892
616.700	0.0152007
616.779	0.0151085
616.857	0.0151573
616.935	0.0151025
617.013	0.0154605
617.091	0.0152480
617.169	0.0152732
617.247	0.0152557
617.325	0.0152044
617.404	0.0152724
617.482	0.0152948
617.560	0.0152451
617.638	0.0152544
617.716	0.0152223
617.794	0.0152711
617.872	0.0151716
617.950	0.0152473
618.029	0.0152637
618.107	0.0153048
618.185	0.0152596
618.263	0.0152586
618.341	0.0152234
618.419	0.0153486
618.497	0.0153411
618.575	0.0151650
618.654	0.0152330
618.732	0.0154389
618.810	0.0153008
618.888	0.0152639
618.966	0.0153951
619.044	0.0152628
619.122	0.0153075
619.200	0.0151927
619.279	0.0153191
619.357	0.0151837
619.435	0.0152058
619.513	0.0150913
619.591	0.0150726
619.669	0.0152335
619.747	0.0153014
619.825	0.0152986
619.904	0.0152329
619.982	0.0153033
620.060	0.0152129
620.138	0.0152812
620.216	0.0153346
620.294	0.0153028
620.372	0.0153136
620.450	0.0151910
620.529	0.0151908
620.607	0.0153127
620.685	0.0152458
620.763	0.0152757
620.841	0.0153707
620.919	0.0152846
620.997	0.0153987
621.075	0.0152466
621.154	0.0152629
621.232	0.0152909
621.310	0.0153645
621.388	0.0152352
621.466	0.0152583
621.544	0.0152116
621.622	0.0151939
621.700	0.0152115
621.779	0.0151921
621.857	0.0153478
621.935	0.0150744
622.013	0.0151949
622.091	0.0152953
622.169	0.0151620
622.247	0.0152583
622.325	0.0152591
622.404	0.0153471
622.482	0.0152027
622.560	0.0153424
622.638	0.0152657
622.716	0.0151415
622.794	0.0152345
622.872	0.0153051
622.950	0.0152431
623.029	0.0153590
623.107	0.0152270
623.185	0.0152767
623.263	0.0153006
623.341	0.0153339
623.419	0.0152513
623.497	0.0152149
623.575	0.0154022
623.654	0.0152627
623.732	0.0151676
623.810	0.0152732
623.888	0.0152372
623.966	0.0153802
624.044	0.0152119
624.122	0.0151560
624.200	0.0153748
624.279	0.0152055
624.357	0.0152142
624.435	0.0151890
624.513	0.0154201
624.591	0.0154235
624.669	0.0153592
624.747	0.0151157
624.825	0.0153033
624.904	0.0152091
624.982	0.0153116
625.060	0.0153108
625.138	0.0152969
625.216	0.0153761
625.294	0.0152691
625.372	0.0152911
625.450	0.0152618
625.529	0.0152732
625.607	0.0152084
625.685	0.0153690
625.763	0.0153955
625.841	0.0151814
625.919	0.0153095
625.997	0.0153390
626.075	0.0152560
626.154	0.0151855
626.232	0.0152894
626.310	0.0153606
626.388	0.0153072
626.466	0.0152522
626.544	0.0152636
626.622	0.0153125
626.700	0.0152221
626.779	0.0152428
626.857	0.0151625
626.935	0.0152799
627.013	0.0152850
627.091	0.0151987
627.169	0.0152075
627.247	0.0153978
627.325	0.0151539
627.404	0.0152177
627.482	0.0151927
627.560	0.0152414
627.638	0.0152225
627.716	0.0153191
627.794	0.0153167
627.872	0.0153190
627.950	0.0152755
628.029	0.0152890
628.107	0.0153239
628.185	0.0153027
628.263	0.0152707
628.341	0.0152528
628.419	0.0152905
628.497	0.0154113
628.575	0.0152757
628.654	0.0152486
628.732	0.0153555
628.810	0.0152386
628.888	0.0153196
628.966	0.0152998
629.044	0.0154186
629.122	0.0152774
629.200	0.0151380
629.279	0.0152585
629.357	0.0151883
629.435	0.0153056
629.513	0.0153621
629.591	0.0152257
629.669	0.0153201
629.747	0.0153083
629.825	0.0152297
629.904	0.0153349
629.982	0.0152493
630.060	0.0152319
630.138	0.0153021
630.216	0.0153684
630.294	0.0153558
630.372	0.0152086
630.450	0.0152071
630.529	0.0153275
630.607	0.0153071
630.685	0.0153169
630.763	0.0153492
630.841	0.0153346
630.919	0.0151861
630.997	0.0151016
631.075	0.0152792
631.154	0.0153454
631.232	0.0152114
631.310	0.0152543
631.388	0.0153252
631.466	0.0152455
631.544	0.0151734
631.622	0.0152245
631.700	0.0153331
631.779	0.0152795
631.857	0.0151236
631.935	0.0153486
632.013	0.0153883
632.091	0.0151869
632.169	0.0151096
632.247	0.0152279
632.325	0.0152618
632.404	0.0151914
632.482	0.0153128
632.560	0.0152423
632.638	0.0153172
632.716	0.0152777
632.794	0.0153741
632.872	0.0152859
632.950	0.0153540
633.029	0.0153451
633.107	0.0152175
633.185	0.0152335
633.263	0.0152715
633.341	0.0152477
633.419	0.0152740
633.497	0.0152915
633.575	0.0152145
633.654	0.0152715
633.732	0.0152998
633.810	0.0152485
633.888	0.0152845
633.966	0.0152800
634.044	0.0152311
634.122	0.0152652
634.200	0.0154284
634.279	0.0152188
634.357	0.0152561
634.435	0.0151170
634.513	0.0152184
634.591	0.0153273
634.669	0.0153571
634.747	0.0153661
634.825	0.0152180
634.904	0.0152560
634.982	0.0152054
635.060	0.0153106
635.138	0.0151851
635.216	0.0152248
635.294	0.0153316
635.372	0.0152800
635.450	0.0152150
635.529	0.0152334
635.607	0.0153064
635.685	0.0152148
635.763	0.0151542
635.841	0.0152551
635.919	0.0153392
635.997	0.0152946
636.075	0.0152424
636.154	0.0152168
636.232	0.0151282
636.310	0.0153250
636.388	0.0152496
636.466	0.0152130
636.544	0.0153203
636.622	0.0153345
636.700	0.0153781
636.779	0.0151842
636.857	0.0152278
636.935	0.0152094
637.013	0.0153154
637.091	0.0152644
637.169	0.0153381
637.247	0.0152380
637.325	0.0153519
637.404	0.0153063
637.482	0.0152463
637.560	0.0152740
637.638	0.0153078
637.716	0.0152767
637.794	0.0152041
637.872	0.0152859
637.950	0.0153832
638.029	0.0153697
638.107	0.0152774
638.185	0.0152692
638.263	0.0152311
638.341	0.0153026
638.419	0.0152666
638.497	0.0152190
638.575	0.0153423
638.654	0.0153142
638.732	0.0152613
638.810	0.0152757
638.888	0.0153491
638.966	0.0152914
639.044	0.0153653
639.122	0.0150806
639.200	0.0152226
639.279	0.0152624
639.357	0.0152869
639.435	0.0152286
639.513	0.0151382
639.591	0.0152564
639.669	0.0152498
639.747	0.0152966
639.825	0.0152797
639.904	0.0152896
639.982	0.0153458
640.060	0.0153237
640.138	0.0151787
640.216	0.0152691
640.294	0.0152499
640.372	0.0154089
640.450	0.0152840
640.529	0.0153141
640.607	0.0152454
640.685	0.0153222
640.763	0.0152753
640.841	0.0152766
640.919	0.0151921
640.997	0.0152090
641.075	0.0152644
641.154	0.0152716
641.232	0.0153270
641.310	0.0153202
641.388	0.0153133
641.466	0.0152535
641.544	0.0152985
641.622	0.0151289
641.700	0.0152080
641.779	0.0152417
641.857	0.0154057
641.935	0.0154814
642.013	0.0151507
642.091	0.0153232
642.169	0.0152393
642.247	0.0151509
642.325	0.0151969
642.404	0.0151660
642.482	0.0153429
642.560	0.0153507
642.638	0.0152821
642.716	0.0152679
642.794	0.0152354
642.872	0.0153032
642.950	0.0154592
643.029	0.0153175
643.107	0.0153062
643.185	0.0152686
643.263	0.0153617
643.341	0.0152278
643.419	0.0153564
643.497	0.0152770
643.575	0.0152624
643.654	0.0154360
643.732	0.0151550
643.810	0.0152093
643.888	0.0152819
643.966	0.0153078
644.044	0.0153319
644.122	0.0152702
644.200	0.0154186
644.279	0.0152116
644.357	0.0152153
644.435	0.0152036
644.513	0.0152143
644.591	0.0153020
644.669	0.0152111
644.747	0.0152742
644.825	0.0154011
644.904	0.0152846
644.982	0.0152010
645.060	0.0153260
645.138	0.0153189
645.216	0.0154068
645.294	0.0152202
645.372	0.0152827
645.450	0.0152791
645.529	0.0153772
645.607	0.0152262
645.685	0.0151338
645.763	0.0152374
645.841	0.0151962
645.919	0.0152504
645.997	0.0152610
646.075	0.0154173
646.154	0.0153470
646.232	0.0152618
646.310	0.0152380
646.388	0.0153069
646.466	0.0152647
646.544	0.0151937
646.622	0.0152409
646.700	0.0153596
646.779	0.0153536
646.857	0.0153882
646.935	0.0152649
647.013	0.0154256
647.091	0.0152785
647.169	0.0152222
647.247	0.0153079
647.325	0.0152715
647.404	0.0153848
647.482	0.0152557
647.560	0.0152859
647.638	0.0152357
647.716	0.0153983
647.794	0.0152145
647.872	0.0153088
647.950	0.0153127
648.029	0.0151870
648.107	0.0154192
648.185	0.0152945
648.263	0.0152365
648.341	0.0151589
648.419	0.0151981
648.497	0.0152504
648.575	0.0152966
648.654	0.0152103
648.732	0.0151838
648.810	0.0152928
648.888	0.0153014
648.966	0.0151854
649.044	0.0152347
649.122	0.0153790
649.200	0.0152555
649.279	0.0152919
649.357	0.0152317
649.435	0.0154005
649.513	0.0152991
649.591	0.0152142
649.669	0.0153694
649.747	0.0151447
649.825	0.0152220
649.904	0.0152393
649.982	0.0151902
650.060	0.0153868
650.138	0.0153041
650.216	0.0151639
650.294	0.0152805
650.372	0.0154872
650.450	0.0152100
650.529	0.0153381
650.607	0.0153600
650.685	0.0152160
650.763	0.0152557
650.841	0.0152392
650.919	0.0153205
650.997	0.0152224
651.075	0.0154781
651.154	0.0154153
651.232	0.0153187
651.310	0.0151465
651.388	0.0151720
651.466	0.0152739
651.544	0.0153909
651.622	0.0152602
651.700	0.0152128
651.779	0.0152102
651.857	0.0152684
651.935	0.0153004
652.013	0.0152171
652.091	0.0151059
652.169	0.0153555
652.247	0.0153650
652.325	0.0153319
652.404	0.0151846
652.482	0.0153420
652.560	0.0153326
652.638	0.0152426
652.716	0.0153329
652.794	0.0153424
652.872	0.0152351
652.950	0.0153906
653.029	0.0154192
653.107	0.0153125
653.185	0.0152405
653.263	0.0151937
653.341	0.0151740
653.419	0.0152657
653.497	0.0153922
653.575	0.0153787
653.654	0.0153654
653.732	0.0152773
653.810	0.0152182
653.888	0.0152969
653.966	0.0152451
654.044	0.0153951
654.122	0.0152965
654.200	0.0152462
654.279	0.0154327
654.357	0.0153340
654.435	0.0152776
654.513	0.0152645
654.591	0.0154002
654.669	0.0153487
654.747	0.0151548
654.825	0.0153302
654.904	0.0152808
654.982	0.0153380
655.060	0.0152740
655.138	0.0153629
655.216	0.0154066
655.294	0.0153006
655.372	0.0153061
655.450	0.0152728
655.529	0.0151510
655.607	0.0152607
655.685	0.0153995
655.763	0.0153447
655.841	0.0152528
655.919	0.0153080
655.997	0.0153576
656.075	0.0153336
656.154	0.0152890
656.232	0.0153086
656.310	0.0154133
656.388	0.0152606
656.466	0.0152271
656.544	0.0153305
656.622	0.0152156
656.700	0.0153550
656.779	0.0153219
656.857	0.0153313
656.935	0.0152708
657.013	0.0151547
657.091	0.0152501
657.169	0.0152007
657.247	0.0152834
657.325	0.0153687
657.404	0.0153063
657.482	0.0152905
657.560	0.0152525
657.638	0.0153795
657.716	0.0153057
657.794	0.0152831
657.872	0.0152519
657.950	0.0151308
658.029	0.0152393
658.107	0.0151789
658.185	0.0151887
658.263	0.0151897
658.341	0.0151585
658.419	0.0152374
658.497	0.0152267
658.575	0.0152393
658.654	0.0152022
658.732	0.0151626
658.810	0.0153604
658.888	0.0153965
658.966	0.0151862
659.044	0.0153196
659.122	0.0153181
659.200	0.0152045
659.279	0.0152785
659.357	0.0152838
659.435	0.0152341
659.513	0.0153238
659.591	0.0152634
659.669	0.0152979
659.747	0.0153526
659.825	0.0153004
659.904	0.0152236
659.982	0.0153197
660.060	0.0154124
660.138	0.0153966
660.216	0.0152680
660.294	0.0152444
660.372	0.0151222
660.450	0.0152699
660.529	0.0151601
660.607	0.0152927
660.685	0.0152312
660.763	0.0151871
660.841	0.0152651
660.919	0.0153723
660.997	0.0152936
661.075	0.0152776
661.154	0.0152951
661.232	0.0152080
661.310	0.0153834
661.388	0.0152332
661.466	0.0153076
661.544	0.0153640
661.622	0.0152693
661.700	0.0152978
661.779	0.0153492
661.857	0.0152779
661.935	0.0153419
662.013	0.0152961
662.091	0.0154296
662.169	0.0152293
662.247	0.0153030
662.325	0.0151674
662.404	0.0152412
662.482	0.0152177
662.560	0.0153295
662.638	0.0151221
662.716	0.0152715
662.794	0.0151540
662.872	0.0153082
662.950	0.0153924
663.029	0.0152603
663.107	0.0152512
663.185	0.0154105
663.263	0.0153817
663.341	0.0153309
663.419	0.0152217
663.497	0.0152830
663.575	0.0152427
663.654	0.0152560
663.732	0.0153085
663.810	0.0152693
663.888	0.0153034
663.966	0.0152465
664.044	0.0152924
664.122	0.0152688
664.200	0.0153555
664.279	0.0153024
664.357	0.0152062
664.435	0.0152893
664.513	0.0153236
664.591	0.0152849
664.669	0.0154105
664.747	0.0153580
664.825	0.0152672
664.904	0.0152956
664.982	0.0152555
665.060	0.0151592
665.138	0.0153113
665.216	0.0153006
665.294	0.0152187
665.372	0.0153624
665.450	0.0151787
665.529	0.0152771
665.607	0.0152788
665.685	0.0153820
665.763	0.0152830
665.841	0.0153380
665.919	0.0153252
665.997	0.0152414
666.075	0.0153227
666.154	0.0153360
666.232	0.0152281
666.310	0.0151669
666.388	0.0152825
666.466	0.0153341
666.544	0.0152891
666.622	0.0153294
666.700	0.0152984
666.779	0.0152422
666.857	0.0153215
666.935	0.0153464
667.013	0.0153559
667.091	0.0153865
667.169	0.0153479
667.247	0.0152525
667.325	0.0153076
667.404	0.0152515
667.482	0.0152831
667.560	0.0153873
667.638	0.0152042
667.716	0.0152385
667.794	0.0153217
667.872	0.0152616
667.950	0.0153905
668.029	0.0155209
668.107	0.0153659
668.185	0.0153506
668.263	0.0154354
668.341	0.0152100
668.419	0.0151344
668.497	0.0153445
668.575	0.0153185
668.654	0.0154434
668.732	0.0151739
668.810	0.0152985
668.888	0.0153410
668.966	0.0153143
669.044	0.0152305
669.122	0.0152476
669.200	0.0154156
669.279	0.0153275
669.357	0.0152979
669.435	0.0153425
669.513	0.0153194
669.591	0.0152868
669.669	0.0152502
669.747	0.0153401
669.825	0.0152155
669.904	0.0152285
669.982	0.0152425
670.060	0.0153215
670.138	0.0153222
670.216	0.0152430
670.294	0.0153345
670.372	0.0152277
670.450	0.0151873
670.529	0.0153468
670.607	0.0153642
670.685	0.0152851
670.763	0.0151116
670.841	0.0152674
670.919	0.0151856
670.997	0.0150755
671.075	0.0152679
671.154	0.0151933
671.232	0.0152026
671.310	0.0150668
671.388	0.0152470
671.466	0.0151995
671.544	0.0151692
671.622	0.0153066
671.700	0.0153062
671.779	0.0151595
671.857	0.0152381
671.935	0.0152649
672.013	0.0152972
672.091	0.0150636
672.169	0.0151398
672.247	0.0153335
672.325	0.0152606
672.404	0.0152439
672.482	0.0151062
672.560	0.0150943
672.638	0.0150545
672.716	0.0150951
672.794	0.0151789
672.872	0.0150846
672.950	0.0151801
673.029	0.0151733
673.107	0.0152730
673.185	0.0152008
673.263	0.0150563
673.341	0.0151599
673.419	0.0151730
673.497	0.0151546
673.575	0.0152960
673.654	0.0151598
673.732	0.0152073
673.810	0.0152599
673.888	0.0151355
673.966	0.0153455
674.044	0.0151939
674.122	0.0152566
674.200	0.0152479
674.279	0.0152628
674.357	0.0152157
674.435	0.0152596
674.513	0.0152125
674.591	0.0152790
674.669	0.0152216
674.747	0.0153163
674.825	0.0153672
674.904	0.0152390
674.982	0.0152300
675.060	0.0152216
675.138	0.0154214
675.216	0.0152762
675.294	0.0152130
675.372	0.0152100
675.450	0.0152612
675.529	0.0152742
675.607	0.0153113
675.685	0.0152425
675.763	0.0152699
675.841	0.0153265
675.919	0.0153312
675.997	0.0152863
676.075	0.0153252
676.154	0.0153165
676.232	0.0152806
676.310	0.0154401
676.388	0.0154026
676.466	0.0152484
676.544	0.0152666
676.622	0.0151823
676.700	0.0153885
676.779	0.0153590
676.857	0.0154173
676.935	0.0153926
677.013	0.0153892
677.091	0.0153240
677.169	0.0153292
677.247	0.0153937
677.325	0.0153613
677.404	0.0153808
677.482	0.0154007
677.560	0.0153157
677.638	0.0153022
677.716	0.0154371
677.794	0.0153697
677.872	0.0151775
677.950	0.0153535
678.029	0.0153732
678.107	0.0153567
678.185	0.0153236
678.263	0.0153882
678.341	0.0155108
678.419	0.0154988
678.497	0.0154425
678.575	0.0153114
678.654	0.0153252
678.732	0.0153521
678.810	0.0154403
678.888	0.0153604
678.966	0.0152261
679.044	0.0153208
679.122	0.0152155
679.200	0.0152982
679.279	0.0154083
679.357	0.0153613
679.435	0.0153223
679.513	0.0154108
679.591	0.0153445
679.669	0.0154427
679.747	0.0153683
679.825	0.0152985
679.904	0.0153962
679.982	0.0153905
680.060	0.0153753
680.138	0.0155216
680.216	0.0153773
680.294	0.0154192
680.372	0.0152987
680.450	0.0153559
680.529	0.0153226
680.607	0.0153180
680.685	0.0152359
680.763	0.0153146
680.841	0.0153390
680.919	0.0153525
680.997	0.0153781
681.075	0.0152837
681.154	0.0152345
681.232	0.0153427
681.310	0.0153002
681.388	0.0152734
681.466	0.0153977
681.544	0.0153088
681.622	0.0152351
681.700	0.0152813
681.779	0.0153351
681.857	0.0153742
681.935	0.0152931
682.013	0.0151186
682.091	0.0151457
682.169	0.0153551
682.247	0.0152921
682.325	0.0151308
682.404	0.0151495
682.482	0.0152200
682.560	0.0152675
682.638	0.0152482
682.716	0.0152808
682.794	0.0153074
682.872	0.0152621
682.950	0.0152776
683.029	0.0152663
683.107	0.0150607
683.185	0.0153130
683.263	0.0153209
683.341	0.0152161
683.419	0.0152739
683.497	0.0152880
683.575	0.0152531
683.654	0.0152852
683.732	0.0151612
683.810	0.0152798
683.888	0.0152379
683.966	0.0151945
684.044	0.0151855
684.122	0.0152688
684.200	0.0153599
684.279	0.0153455
684.357	0.0152932
684.435	0.0152715
684.513	0.0153154
684.591	0.0152908
684.669	0.0152389
684.747	0.0151283
684.825	0.0151916
684.904	0.0152817
684.982	0.0152856
685.060	0.0153629
685.138	0.0151880
685.216	0.0152884
685.294	0.0152414
685.372	0.0153883
685.450	0.0152437
685.529	0.0153538
685.607	0.0153550
685.685	0.0152973
685.763	0.0152572
685.841	0.0153546
685.919	0.0153801
685.997	0.0154661
686.075	0.0153237
686.154	0.0152395
686.232	0.0153643
686.310	0.0152266
686.388	0.0152805
686.466	0.0153752
686.544	0.0153313
686.622	0.0153147
686.700	0.0153162
686.779	0.0153384
686.857	0.0152692
686.935	0.0153309
687.013	0.0151021
687.091	0.0153074
687.169	0.0153165
687.247	0.0153143
687.325	0.0153324
687.404	0.0152483
687.482	0.0152074
687.560	0.0152073
687.638	0.0152921
687.716	0.0153230
687.794	0.0154060
687.872	0.0153836
687.950	0.0152708
688.029	0.0153989
688.107	0.0153595
688.185	0.0153790
688.263	0.0154121
688.341	0.0154111
688.419	0.0154335
688.497	0.0154549
688.575	0.0154369
688.654	0.0155145
688.732	0.0154250
688.810	0.0150793
688.888	0.0149361
688.966	0.0147939
689.044	0.0147067
689.122	0.0145827
689.200	0.0145829
689.279	0.0147848
689.357	0.0149373
689.435	0.0153711
689.513	0.0158169
689.591	0.0160775
689.669	0.0164422
689.747	0.0166972
689.825	0.0170275
689.904	0.0169971
689.982	0.0168120
690.060	0.0165600
690.138	0.0162660
690.216	0.0156596
690.294	0.0150087
690.372	0.0143752
690.450	0.0136457
690.529	0.0132235
690.607	0.0127177
690.685	0.0124075
690.763	0.0123287
690.841	0.0125573
690.919	0.0129710
690.997	0.0136169
691.075	0.0142735
691.154	0.0150107
691.232	0.0160193
691.310	0.0168895
691.388	0.0175967
691.466	0.0181799
691.544	0.0185417
691.622	0.0189886
691.700	0.0189670
691.779	0.0186609
691.857	0.0185818
691.935	0.0181457
692.013	0.0171777
692.091	0.0167314
692.169	0.0158476
692.247	0.0150203
692.325	0.0141453
692.404	0.0134812
692.482	0.0127678
692.560	0.0123291
692.638	0.0119170
692.716	0.0117772
692.794	0.0116074
692.872	0.0115520
692.950	0.0118327
693.029	0.0122568
693.107	0.0124778
693.185	0.0130966
693.263	0.0137738
693.341	0.0144887
693.419	0.0151256
693.497	0.0158249
693.575	0.0162779
693.654	0.0168459
693.732	0.0173513
693.810	0.0177732
693.888	0.0180630
693.966	0.0183272
694.044	0.0183745
694.122	0.0184188
694.200	0.0183414
694.279	0.0183548
694.357	0.0180666
694.435	0.0177901
694.513	0.0174475
694.591	0.0170245
694.669	0.0165231
694.747	0.0161254
694.825	0.0156947
694.904	0.0153127
694.982	0.0148801
695.060	0.0144185
695.138	0.0141536
695.216	0.0136390
695.294	0.0134821
695.372	0.0130972
695.450	0.0129535
695.529	0.0126874
695.607	0.0125898
695.685	0.0126322
695.763	0.0126675
695.841	0.0129251
695.919	0.0129408
695.997	0.0130449
696.075	0.0132614
696.154	0.0135246
696.232	0.0138223
696.310	0.0140611
696.388	0.0144571
696.466	0.0149076
696.544	0.0151225
696.622	0.0155410
696.700	0.0160612
696.779	0.0163950
696.857	0.0167799
696.935	0.0171836
697.013	0.0174531
697.091	0.0177326
697.169	0.0180605
697.247	0.0180500
697.325	0.0182704
697.404	0.0183382
697.482	0.0181080
697.560	0.0181625
697.638	0.0178984
697.716	0.0176104
697.794	0.0172909
697.872	0.0168069
697.950	0.0162424
698.029	0.0160754
698.107	0.0156388
698.185	0.0151031
698.263	0.0145601
698.341	0.0140868
698.419	0.0136502
698.497	0.0130807
698.575	0.0129766
698.654	0.0125790
698.732	0.0124172
698.810	0.0123320
698.888	0.0122815
698.966	0.0123566
699.044	0.0126712
699.122	0.0126592
699.200	0.0129491
699.279	0.0135395
699.357	0.0140185
699.435	0.0144124
699.513	0.0149297
699.591	0.0154404
699.669	0.0158043
699.747	0.0160702
699.825	0.0163139
699.904	0.0165189
699.982	0.0167454
700.060	0.0168521
700.138	0.0168642
700.216	0.0167779
700.294	0.0168336
700.372	0.0166508
700.450	0.0164508
700.529	0.0162371
700.607	0.0159963
700.685	0.0158592
700.763	0.0156765
700.841	0.0154729
700.919	0.0152143
700.997	0.0151875
701.075	0.0151699
701.154	0.0150378
701.232	0.0150212
701.310	0.0149007
701.388	0.0149452
701.466	0.0149303
701.544	0.0148787
701.622	0.0149176
701.700	0.0150036
701.779	0.0150055
701.857	0.0152837
701.935	0.0153325
702.013	0.0155276
702.091	0.0156795
702.169	0.0155653
702.247	0.0157267
702.325	0.0157947
702.404	0.0158636
702.482	0.0158286
702.560	0.0157989
702.638	0.0158144
702.716	0.0156184
702.794	0.0155063
702.872	0.0154661
702.950	0.0153230
703.029	0.0152509
703.107	0.0150444
703.185	0.0149557
703.263	0.0148309
703.341	0.0148167
703.419	0.0147794
703.497	0.0147181
703.575	0.0147073
703.654	0.0148404
703.732	0.0147097
703.810	0.0147949
703.888	0.0150478
703.966	0.0147895
704.044	0.0149023
704.122	0.0149683
704.200	0.0149635
704.279	0.0150358
704.357	0.0152765
704.435	0.0151669
704.513	0.0153461
704.591	0.0154074
704.669	0.0156317
704.747	0.0157746
704.825	0.0157572
704.904	0.0157351
704.982	0.0158115
705.060	0.0159708
705.138	0.0159693
705.216	0.0157731
705.294	0.0158333
705.372	0.0158071
705.450	0.0156208
705.529	0.0154945
705.607	0.0154597
705.685	0.0152563
705.763	0.0150294
705.841	0.0148232
705.919	0.0147727
705.997	0.0146987
706.075	0.0147121
706.154	0.0146613
706.232	0.0145065
706.310	0.0145151
706.388	0.0146198
706.466	0.0146906
706.544	0.0148930
706.622	0.0149765
706.700	0.0151190
706.779	0.0152289
706.857	0.0153490
706.935	0.0156620
707.013	0.0159591
707.091	0.0159293
707.169	0.0160965
707.247	0.0163834
707.325	0.0164374
707.404	0.0165041
707.482	0.0166141
707.560	0.0165802
707.638	0.0164702
707.716	0.0164149
707.794	0.0162132
707.872	0.0161248
707.950	0.0158245
708.029	0.0156322
708.107	0.0155576
708.185	0.0153751
708.263	0.0151968
708.341	0.0149986
708.419	0.0147032
708.497	0.0147061
708.575	0.0145161
708.654	0.0143361
708.732	0.0143087
708.810	0.0143476
708.888	0.0142661
708.966	0.0141785
709.044	0.0141956
709.122	0.0142503
709.200	0.0142197
709.279	0.0142540
709.357	0.0143594
709.435	0.0143533
709.513	0.0145304
709.591	0.0146771
709.669	0.0148580
709.747	0.0150136
709.825	0.0152515
709.904	0.0153695
709.982	0.0154987
710.060	0.0157729
710.138	0.0159665
710.216	0.0159413
710.294	0.0160178
710.372	0.0160213
710.450	0.0159862
710.529	0.0160756
710.607	0.0159111
710.685	0.0158929
710.763	0.0157713
710.841	0.0157110
710.919	0.0155318
710.997	0.0155113
711.075	0.0154036
711.154	0.0154674
711.232	0.0154162
711.310	0.0152888
711.388	0.0152506
711.466	0.0153837
711.544	0.0152084
711.622	0.0152930
711.700	0.0155753
711.779	0.0155034
711.857	0.0155920
711.935	0.0155956
712.013	0.0157342
712.091	0.0158214
712.169	0.0157053
712.247	0.0157602
712.325	0.0157668
712.404	0.0156146
712.482	0.0153820
712.560	0.0151231
712.638	0.0151488
712.716	0.0149972
712.794	0.0148142
712.872	0.0147668
712.950	0.0147092
713.029	0.0145857
713.107	0.0145825
713.185	0.0145934
713.263	0.0146117
713.341	0.0147420
713.419	0.0148704
713.497	0.0148712
713.575	0.0150806
713.654	0.0150826
713.732	0.0150191
713.810	0.0151705
713.888	0.0152380
713.966	0.0151434
714.044	0.0152412
714.122	0.0153529
714.200	0.0154762
714.279	0.0153974
714.357	0.0153489
714.435	0.0154856
714.513	0.0155824
714.591	0.0156953
714.669	0.0155650
714.747	0.0157111
714.825	0.0157932
714.904	0.0159418
714.982	0.0160160
715.060	0.0158867
715.138	0.0158713
715.216	0.0158880
715.294	0.0157517
715.372	0.0157129
715.450	0.0156141
715.529	0.0155354
715.607	0.0154661
715.685	0.0154210
715.763	0.0153424
715.841	0.0151640
715.919	0.0151250
715.997	0.0149232
716.075	0.0149422
716.154	0.0147751
716.232	0.0147335
716.310	0.0147851
716.388	0.0144770
716.466	0.0145421
716.544	0.0146255
716.622	0.0144472
716.700	0.0144905
716.779	0.0146339
716.857	0.0146611
716.935	0.0146159
717.013	0.0147352
717.091	0.0149180
717.169	0.0148543
717.247	0.0149729
717.325	0.0150519
717.404	0.0152317
717.482	0.0153210
717.560	0.0154283
717.638	0.0154747
717.716	0.0155868
717.794	0.0155669
717.872	0.0157632
717.950	0.0157163
718.029	0.0159026
718.107	0.0158612
718.185	0.0159261
718.263	0.0158309
718.341	0.0158404
718.419	0.0158913
718.497	0.0159593
718.575	0.0158672
718.654	0.0157745
718.732	0.0157281
718.810	0.0157137
718.888	0.0157681
718.966	0.0156676
719.044	0.0156229
719.122	0.0154147
719.200	0.0154607
719.279	0.0154948
719.357	0.0154136
719.435	0.0154060
719.513	0.0154761
719.591	0.0154352
719.669	0.0154341
719.747	0.0154321
719.825	0.0153362
719.904	0.0151840
719.982	0.0150738
720.060	0.0150104
720.138	0.0152723
720.216	0.0150081
720.294	0.0148358
720.372	0.0149572
720.450	0.0148287
720.529	0.0149346
720.607	0.0148930
720.685	0.0149078
720.763	0.0150069
720.841	0.0150058
720.919	0.0152028
720.997	0.0152487
721.075	0.0152881
721.154	0.0154589
721.232	0.0154403
721.310	0.0155836
721.388	0.0156330
721.466	0.0155235
721.544	0.0157739
721.622	0.0156301
721.700	0.0155295
721.779	0.0154783
721.857	0.0152795
721.935	0.0152249
722.013	0.0151598
722.091	0.0149894
722.169	0.0148373
722.247	0.0148871
722.325	0.0147297
722.404	0.0146524
722.482	0.0147036
722.560	0.0147094
722.638	0.0146284
722.716	0.0147653
722.794	0.0147301
722.872	0.0146300
722.950	0.0148425
723.029	0.0150057
723.107	0.0150703
723.185	0.0152845
723.263	0.0151358
723.341	0.0151908
723.419	0.0153364
723.497	0.0153819
723.575	0.0153620
723.654	0.0153735
723.732	0.0156119
723.810	0.0154109
723.888	0.0153706
723.966	0.0154323
724.044	0.0153683
724.122	0.0153857
724.200	0.0152077
724.279	0.0152592
724.357	0.0152872
724.435	0.0155327
724.513	0.0155744
724.591	0.0154453
724.669	0.0156975
724.747	0.0158414
724.825	0.0159126
724.904	0.0158514
724.982	0.0161185
725.060	0.0161165
725.138	0.0161472
725.216	0.0161049
725.294	0.0159128
725.372	0.0159909
725.450	0.0157475
725.529	0.0156440
725.607	0.0156080
725.685	0.0154469
725.763	0.0153156
725.841	0.0152224
725.919	0.0152628
725.997	0.0151103
726.075	0.0150928
726.154	0.0149761
726.232	0.0149127
726.310	0.0147929
726.388	0.0148979
726.466	0.0148557
726.544	0.0147698
726.622	0.0148418
726.700	0.0149724
726.779	0.0150262
726.857	0.0151295
726.935	0.0150458
727.013	0.0153255
727.091	0.0154097
727.169	0.0153633
727.247	0.0152864
727.325	0.0153594
727.404	0.0154955
727.482	0.0154362
727.560	0.0153831
727.638	0.0154713
727.716	0.0153638
727.794	0.0152817
727.872	0.0151202
727.950	0.0150963
728.029	0.0149480
728.107	0.0149970
728.185	0.0149011
728.263	0.0148231
728.341	0.0147559
728.419	0.0146696
728.497	0.0147368
728.575	0.0146809
728.654	0.0145652
728.732	0.0147401
728.810	0.0146826
728.888	0.0148260
728.966	0.0149670
729.044	0.0148822
729.122	0.0149075
729.200	0.0150761
729.279	0.0153036
729.357	0.0154159
729.435	0.0154198
729.513	0.0155746
729.591	0.0158041
729.669	0.0157395
729.747	0.0156662
729.825	0.0157333
729.904	0.0157672
729.982	0.0158235
730.060	0.0157251
730.138	0.0157360
730.216	0.0155976
730.294	0.0157796
730.372	0.0156862
730.450	0.0156283
730.529	0.0156495
730.607	0.0156400
730.685	0.0155975
730.763	0.0157427
730.841	0.0156542
730.919	0.0156580
730.997	0.0156602
731.075	0.0155197
731.154	0.0154097
731.232	0.0153883
731.310	0.0153939
731.388	0.0153223
731.466	0.0153594
731.544	0.0151757
731.622	0.0153545
731.700	0.0153676
731.779	0.0153558
731.857	0.0152808
731.935	0.0152264
732.013	0.0152739
732.091	0.0153877
732.169	0.0153645
732.247	0.0153448
732.325	0.0153871
732.404	0.0152465
732.482	0.0153888
732.560	0.0151283
732.638	0.0150512
732.716	0.0151021
732.794	0.0150543
732.872	0.0149622
732.950	0.0150340
733.029	0.0149825
733.107	0.0150982
733.185	0.0149616
733.263	0.0148158
733.341	0.0150369
733.419	0.0149957
733.497	0.0149944
733.575	0.0150018
733.654	0.0151330
733.732	0.0151199
733.810	0.0150485
733.888	0.0150624
733.966	0.0151206
734.044	0.0152143
734.122	0.0151212
734.200	0.0149957
734.279	0.0150446
734.357	0.0151537
734.435	0.0150524
734.513	0.0149982
734.591	0.0151038
734.669	0.0152499
734.747	0.0151755
734.825	0.0151678
734.904	0.0152443
734.982	0.0152816
735.060	0.0154026
735.138	0.0152910
735.216	0.0154188
735.294	0.0155793
735.372	0.0156576
735.450	0.0155772
735.529	0.0155656
735.607	0.0155617
735.685	0.0155411
735.763	0.0154828
735.841	0.0154607
735.919	0.0156469
735.997	0.0153209
736.075	0.0153259
736.154	0.0153065
736.232	0.0152903
736.310	0.0151191
736.388	0.0152418
736.466	0.0151575
736.544	0.0151396
736.622	0.0151514
736.700	0.0151864
736.779	0.0151611
736.857	0.0151526
736.935	0.0151712
737.013	0.0153099
737.091	0.0152895
737.169	0.0153876
737.247	0.0153378
737.325	0.0153926
737.404	0.0154552
737.482	0.0153961
737.560	0.0154435
737.638	0.0154760
737.716	0.0152921
737.794	0.0153416
737.872	0.0153854
737.950	0.0154585
738.029	0.0156154
738.107	0.0154684
738.185	0.0154298
738.263	0.0156441
738.341	0.0155677
738.419	0.0155067
738.497	0.0155161
738.575	0.0154604
738.654	0.0154324
738.732	0.0153291
738.810	0.0152016
738.888	0.0151009
738.966	0.0149534
739.044	0.0148454
739.122	0.0148421
739.200	0.0149303
739.279	0.0149581
739.357	0.0148438
739.435	0.0149673
739.513	0.0148986
739.591	0.0149396
739.669	0.0149528
739.747	0.0151904
739.825	0.0152027
739.904	0.0152899
739.982	0.0155705
740.060	0.0153849
740.138	0.0153456
740.216	0.0154967
740.294	0.0156320
740.372	0.0155113
740.450	0.0154426
740.529	0.0155207
740.607	0.0155408
740.685	0.0154975
740.763	0.0154819
740.841	0.0155351
740.919	0.0155051
740.997	0.0153285
741.075	0.0153153
741.154	0.0154947
741.232	0.0153307
741.310	0.0152769
741.388	0.0151904
741.466	0.0150854
741.544	0.0151035
741.622	0.0149564
741.700	0.0150162
741.779	0.0149063
741.857	0.0148109
741.935	0.0149368
742.013	0.0149115
742.091	0.0148138
742.169	0.0148445
742.247	0.0148923
742.325	0.0150635
742.404	0.0151123
742.482	0.0150182
742.560	0.0152521
742.638	0.0152093
742.716	0.0151401
742.794	0.0150884
742.872	0.0152538
742.950	0.0152916
743.029	0.0153141
743.107	0.0152238
743.185	0.0152671
743.263	0.0152210
743.341	0.0152209
743.419	0.0151363
743.497	0.0152609
743.575	0.0152828
743.654	0.0152642
743.732	0.0153484
743.810	0.0153082
743.888	0.0153428
743.966	0.0152652
744.044	0.0154937
744.122	0.0155856
744.200	0.0156011
744.279	0.0155689
744.357	0.0156981
744.435	0.0156140
744.513	0.0156267
744.591	0.0157112
744.669	0.0155810
744.747	0.0154888
744.825	0.0155527
744.904	0.0155846
744.982	0.0154313
745.060	0.0153435
745.138	0.0153525
745.216	0.0151650
745.294	0.0151997
745.372	0.0150497
745.450	0.0149593
745.529	0.0149113
745.607	0.0149277
745.685	0.0149252
745.763	0.0149319
745.841	0.0149632
745.919	0.0149472
745.997	0.0150834
746.075	0.0150569
746.154	0.0151015
746.232	0.0151993
746.310	0.0153774
746.388	0.0151423
746.466	0.0153511
746.544	0.0153539
746.622	0.0154308
746.700	0.0152919
746.779	0.0152087
746.857	0.0152462
746.935	0.0152937
747.013	0.0152052
747.091	0.0153638
747.169	0.0151693
747.247	0.0154144
747.325	0.0153191
747.404	0.0153372
747.482	0.0155096
747.560	0.0153993
747.638	0.0153130
747.716	0.0153211
747.794	0.0154205
747.872	0.0154591
747.950	0.0154948
748.029	0.0152294
748.107	0.0152409
748.185	0.0151926
748.263	0.0150880
748.341	0.0150924
748.419	0.0149981
748.497	0.0150214
748.575	0.0150283
748.654	0.0150848
748.732	0.0150248
748.810	0.0150272
748.888	0.0151775
748.966	0.0151447
749.044	0.0151678
749.122	0.0151401
749.200	0.0153494
749.279	0.0152959
749.357	0.0152991
749.435	0.0151982
749.513	0.0152890
749.591	0.0153622
749.669	0.0154819
749.747	0.0152363
749.825	0.0152689
749.904	0.0152593
749.982	0.0153359
750.060	0.0151923
750.138	0.0153528
750.216	0.0154198
750.294	0.0152575
750.372	0.0153155
750.450	0.0153072
750.529	0.0151485
750.607	0.0151216
750.685	0.0150965
750.763	0.0152155
750.841	0.0150494
750.919	0.0151505
750.997	0.0150950
751.075	0.0150720
751.154	0.0151580
751.232	0.0151620
751.310	0.0150567
751.388	0.0152527
751.466	0.0154255
751.544	0.0154663
751.622	0.0152999
751.700	0.0155000
751.779	0.0154466
751.857	0.0154740
751.935	0.0155635
752.013	0.0154670
752.091	0.0156194
752.169	0.0155350
752.247	0.0154354
752.325	0.0153906
752.404	0.0155405
752.482	0.0155070
752.560	0.0154248
752.638	0.0153554
752.716	0.0154642
752.794	0.0153139
752.872	0.0153506
752.950	0.0152522
753.029	0.0151579
753.107	0.0153529
753.185	0.0152402
753.263	0.0151572
753.341	0.0151525
753.419	0.0152335
753.497	0.0152504
753.575	0.0152317
753.654	0.0152168
753.732	0.0153863
753.810	0.0153585
753.888	0.0153689
753.966	0.0154138
754.044	0.0153670
754.122	0.0154469
754.200	0.0155131
754.279	0.0154498
754.357	0.0154861
754.435	0.0154485
754.513	0.0153532
754.591	0.0154229
754.669	0.0153304
754.747	0.0153411
754.825	0.0152274
754.904	0.0153207
754.982	0.0152473
755.060	0.0153129
755.138	0.0153556
755.216	0.0152784
755.294	0.0153029
755.372	0.0152605
755.450	0.0153247
755.529	0.0152424
755.607	0.0152795
755.685	0.0151964
755.763	0.0151781
755.841	0.0151790
755.919	0.0152068
755.997	0.0153033
756.075	0.0151369
756.154	0.0151030
756.232	0.0151395
756.310	0.0151533
756.388	0.0149864
756.466	0.0151971
756.544	0.0149708
756.622	0.0150390
756.700	0.0150887
756.779	0.0150190
756.857	0.0150984
756.935	0.0150448
757.013	0.0150086
757.091	0.0150925
757.169	0.0150784
757.247	0.0150986
757.325	0.0151791
757.404	0.0153021
757.482	0.0152296
757.560	0.0152229
757.638	0.0152975
757.716	0.0153062
757.794	0.0152592
757.872	0.0152477
757.950	0.0153165
758.029	0.0152088
758.107	0.0151184
758.185	0.0151814
758.263	0.0152470
758.341	0.0153703
758.419	0.0153930
758.497	0.0152277
758.575	0.0152181
758.654	0.0151765
758.732	0.0152968
758.810	0.0154060
758.888	0.0152113
758.966	0.0152943
759.044	0.0154480
759.122	0.0152681
759.200	0.0152324
759.279	0.0152465
759.357	0.0151391
759.435	0.0151469
759.513	0.0151440
759.591	0.0151144
759.669	0.0153142
759.747	0.0152129
759.825	0.0153767
759.904	0.0153065
759.982	0.0155083
760.060	0.0155778
760.138	0.0154603
760.216	0.0154986
760.294	0.0155315
760.372	0.0155985
760.450	0.0156187
760.529	0.0156953
760.607	0.0155907
760.685	0.0157056
760.763	0.0157735
760.841	0.0158350
760.919	0.0156673
760.997	0.0155306
761.075	0.0155721
761.154	0.0154513
761.232	0.0153979
761.310	0.0152834
761.388	0.0153002
761.466	0.0152386
761.544	0.0153089
761.622	0.0151926
761.700	0.0151797
761.779	0.0150836
761.857	0.0149226
761.935	0.0150768
762.013	0.0150605
762.091	0.0149567
762.169	0.0148286
762.247	0.0149041
762.325	0.0149246
762.404	0.0147762
762.482	0.0150459
762.560	0.0149892
762.638	0.0149826
762.716	0.0147728
762.794	0.0149950
762.872	0.0149363
762.950	0.0149129
763.029	0.0149781
763.107	0.0151481
763.185	0.0150105
763.263	0.0150014
763.341	0.0150919
763.419	0.0150734
763.497	0.0152308
763.575	0.0152104
763.654	0.0153378
763.732	0.0154684
763.810	0.0154392
763.888	0.0155089
763.966	0.0154893
764.044	0.0156340
764.122	0.0157864
764.200	0.0156358
764.279	0.0156282
764.357	0.0156132
764.435	0.0156906
764.513	0.0155615
764.591	0.0155213
764.669	0.0155840
764.747	0.0155100
764.825	0.0153799
764.904	0.0152595
764.982	0.0154079
765.060	0.0152648
765.138	0.0152856
765.216	0.0152089
765.294	0.0153606
765.372	0.0152150
765.450	0.0152310
765.529	0.0154005
765.607	0.0152110
765.685	0.0153326
765.763	0.0152481
765.841	0.0151048
765.919	0.0151434
765.997	0.0152377
766.075	0.0152184
766.154	0.0151289
766.232	0.0152782
766.310	0.0152249
766.388	0.0152080
766.466	0.0150541
766.544	0.0152767
766.622	0.0152027
766.700	0.0150651
766.779	0.0151184
766.857	0.0151134
766.935	0.0149885
767.013	0.0151611
767.091	0.0151821
767.169	0.0151569
767.247	0.0150687
767.325	0.0151462
767.404	0.0151298
767.482	0.0152971
767.560	0.0152609
767.638	0.0151288
767.716	0.0152708
767.794	0.0153441
767.872	0.0153778
767.950	0.0152808
768.029	0.0153336
768.107	0.0154277
768.185	0.0155071
768.263	0.0154369
768.341	0.0152378
768.419	0.0153674
768.497	0.0154450
768.575	0.0152890
768.654	0.0153765
768.732	0.0153859
768.810	0.0152245
768.888	0.0153232
768.966	0.0153107
769.044	0.0153809
769.122	0.0152531
769.200	0.0153596
769.279	0.0153692
769.357	0.0151758
769.435	0.0152939
769.513	0.0152980
769.591	0.0152935
769.669	0.0152603
769.747	0.0153293
769.825	0.0153378
769.904	0.0152763
769.982	0.0152687
770.060	0.0152456
770.138	0.0154324
770.216	0.0153236
770.294	0.0152096
770.372	0.0153647
770.450	0.0154575
770.529	0.0152566
770.607	0.0152916
770.685	0.0152677
770.763	0.0152042
770.841	0.0153032
770.919	0.0153362
770.997	0.0153835
771.075	0.0151195
771.154	0.0152537
771.232	0.0152505
771.310	0.0152908
771.388	0.0152371
771.466	0.0152692
771.544	0.0153510
771.622	0.0152757
771.700	0.0151662
771.779	0.0153596
771.857	0.0153852
771.935	0.0152094
772.013	0.0152929
772.091	0.0153049
772.169	0.0152336
772.247	0.0151605
772.325	0.0153796
772.404	0.0152203
772.482	0.0150613
772.560	0.0150404
772.638	0.0150984
772.716	0.0151295
772.794	0.0149876
772.872	0.0149780
772.950	0.0149069
773.029	0.0148694
773.107	0.0148813
773.185	0.0150482
773.263	0.0150730
773.341	0.0151149
773.419	0.0152357
773.497	0.0152029
773.575	0.0152730
773.654	0.0153278
773.732	0.0154042
773.810	0.0153123
773.888	0.0154256
773.966	0.0155470
774.044	0.0153653
774.122	0.0153914
774.200	0.0155870
774.279	0.0154834
774.357	0.0155724
774.435	0.0156663
774.513	0.0156792
774.591	0.0157124
774.669	0.0155867
774.747	0.0156539
774.825	0.0155711
774.904	0.0156225
774.982	0.0154721
775.060	0.0155501
775.138	0.0153436
775.216	0.0154371
775.294	0.0153004
775.372	0.0152557
775.450	0.0151245
775.529	0.0153363
775.607	0.0152766
775.685	0.0151572
775.763	0.0152699
775.841	0.0151970
775.919	0.0151700
775.997	0.0151810
776.075	0.0152290
776.154	0.0152623
776.232	0.0153738
776.310	0.0153970
776.388	0.0153465
776.466	0.0154197
776.544	0.0153827
776.622	0.0153448
776.700	0.0154259
776.779	0.0154485
776.857	0.0153928
776.935	0.0154759
777.013	0.0153912
777.091	0.0153621
777.169	0.0154194
777.247	0.0153848
777.325	0.0153831
777.404	0.0153134
777.482	0.0151894
777.560	0.0152493
777.638	0.0151670
777.716	0.0151228
777.794	0.0152724
777.872	0.0152166
777.950	0.0152863
778.029	0.0150959
778.107	0.0151960
778.185	0.0151445
778.263	0.0151875
778.341	0.0151950
778.419	0.0152165
778.497	0.0151972
778.575	0.0151581
778.654	0.0151595
778.732	0.0152376
778.810	0.0153284
778.888	0.0153074
778.966	0.0154089
779.044	0.0154678
779.122	0.0152868
779.200	0.0154009
779.279	0.0153619
779.357	0.0154092
779.435	0.0153767
779.513	0.0154140
779.591	0.0154076
779.669	0.0153690
779.747	0.0153588
779.825	0.0153193
779.904	0.0153402
779.982	0.0153081
780.060	0.0153126
780.138	0.0151879
780.216	0.0152772
780.294	0.0152243
780.372	0.0151528
780.450	0.0152678
780.529	0.0152454
780.607	0.0153207
780.685	0.0152337
780.763	0.0151180
780.841	0.0152338
780.919	0.0152957
780.997	0.0152818
781.075	0.0151720
781.154	0.0151495
781.232	0.0151347
781.310	0.0152235
781.388	0.0153056
781.466	0.0153629
781.544	0.0153137
781.622	0.0151923
781.700	0.0153356
781.779	0.0153676
781.857	0.0153161
781.935	0.0153424
782.013	0.0152882
782.091	0.0154057
782.169	0.0155386
782.247	0.0154123
782.325	0.0154130
782.404	0.0154745
782.482	0.0154758
782.560	0.0154142
782.638	0.0154835
782.716	0.0154859
782.794	0.0154751
782.872	0.0153543
782.950	0.0155019
783.029	0.0152561
783.107	0.0152731
783.185	0.0151337
783.263	0.0151920
783.341	0.0151413
783.419	0.0150863
783.497	0.0151691
783.575	0.0152074
783.654	0.0150792
783.732	0.0151453
783.810	0.0152412
783.888	0.0151690
783.966	0.0152035
784.044	0.0151695
784.122	0.0152817
784.200	0.0153580
784.279	0.0152772
784.357	0.0154980
784.435	0.0154769
784.513	0.0152744
784.591	0.0154694
784.669	0.0155357
784.747	0.0154498
784.825	0.0155995
784.904	0.0156213
784.982	0.0154048
785.060	0.0154597
785.138	0.0154089
785.216	0.0152457
785.294	0.0153467
785.372	0.0151668
785.450	0.0150420
785.529	0.0150744
785.607	0.0152138
785.685	0.0151744
785.763	0.0151232
785.841	0.0150676
785.919	0.0151454
785.997	0.0151964
786.075	0.0151505
786.154	0.0152899
786.232	0.0152642
786.310	0.0154259
786.388	0.0153760
786.466	0.0153423
786.544	0.0153995
786.622	0.0152512
786.700	0.0154411
786.779	0.0154446
786.857	0.0153768
786.935	0.0154076
787.013	0.0154885
787.091	0.0154157
787.169	0.0153610
787.247	0.0154328
787.325	0.0153304
787.404	0.0155358
787.482	0.0154861
787.560	0.0154612
787.638	0.0154845
787.716	0.0154970
787.794	0.0155001
787.872	0.0154976
787.950	0.0153587
788.029	0.0152895
788.107	0.0155499
788.185	0.0155285
788.263	0.0153095
788.341	0.0153619
788.419	0.0152431
788.497	0.0153413
788.575	0.0153927
788.654	0.0152644
788.732	0.0152538
788.810	0.0150528
788.888	0.0151347
788.966	0.0149239
789.044	0.0149798
789.122	0.0149656
789.200	0.0149122
789.279	0.0149297
789.357	0.0149590
789.435	0.0151143
789.513	0.0149377
789.591	0.0150381
789.669	0.0149622
789.747	0.0150507
789.825	0.0150809
789.904	0.0151170
789.982	0.0150584
790.060	0.0151096
790.138	0.0152506
790.216	0.0152505
790.294	0.0153265
790.372	0.0155043
790.450	0.0155106
790.529	0.0155843
790.607	0.0157302
790.685	0.0156960
790.763	0.0156108
790.841	0.0156070
790.919	0.0156465
790.997	0.0157599
791.075	0.0157727
791.154	0.0157465
791.232	0.0155206
791.310	0.0154743
791.388	0.0155761
791.466	0.0156123
791.544	0.0154752
791.622	0.0153949
791.700	0.0152315
791.779	0.0152753
791.857	0.0152350
791.935	0.0151804
792.013	0.0149289
792.091	0.0150414
792.169	0.0149137
792.247	0.0150187
792.325	0.0149411
792.404	0.0150756
792.482	0.0149887
792.560	0.0150028
792.638	0.0149552
792.716	0.0152382
792.794	0.0151531
792.872	0.0152833
792.950	0.0152619
793.029	0.0153075
793.107	0.0153539
793.185	0.0153381
793.263	0.0154061
793.341	0.0154736
793.419	0.0154139
793.497	0.0154235
793.575	0.0155197
793.654	0.0154038
793.732	0.0153756
793.810	0.0153797
793.888	0.0154064
793.966	0.0153152
794.044	0.0152716
794.122	0.0153539
794.200	0.0152281
794.279	0.0152495
794.357	0.0152141
794.435	0.0152981
794.513	0.0152191
794.591	0.0153348
794.669	0.0151736
794.747	0.0151910
794.825	0.0151958
794.904	0.0152917
794.982	0.0152781
795.060	0.0151848
795.138	0.0152443
795.216	0.0151794
795.294	0.0152149
795.372	0.0152530
795.450	0.0151092
795.529	0.0150639
795.607	0.0149776
795.685	0.0151234
795.763	0.0150509
795.841	0.0149780
795.919	0.0149093
795.997	0.0149174
796.075	0.0149657
796.154	0.0150687
796.232	0.0150149
796.310	0.0150645
796.388	0.0151149
796.466	0.0151427
796.544	0.0151810
796.622	0.0151585
796.700	0.0152643
796.779	0.0154784
796.857	0.0154604
796.935	0.0153456
797.013	0.0154660
797.091	0.0155547
797.169	0.0156667
797.247	0.0157500
797.325	0.0154913
797.404	0.0155350
797.482	0.0156441
797.560	0.0156431
797.638	0.0155843
797.716	0.0155722
797.794	0.0155797
797.872	0.0154391
797.950	0.0152863
798.029	0.0153979
798.107	0.0154976
798.185	0.0154665
798.263	0.0152943
798.341	0.0153722
798.419	0.0151970
798.497	0.0152243
798.575	0.0153030
798.654	0.0152624
798.732	0.0153598
798.810	0.0152593
798.888	0.0152248
798.966	0.0152763
799.044	0.0151444
799.122	0.0151376
799.200	0.0154681
799.279	0.0152486
799.357	0.0151548
799.435	0.0153078
799.513	0.0153008
799.591	0.0153949
799.669	0.0153602
799.747	0.0152922
799.825	0.0153583
799.904	0.0154262
799.982	0.0154264
800.060	0.0154790
800.138	0.0152862
800.216	0.0153951
800.294	0.0154291
800.372	0.0153366
800.450	0.0153558
800.529	0.0152854
800.607	0.0152994
800.685	0.0153241
800.763	0.0152379
800.841	0.0151379
800.919	0.0152588
800.997	0.0151566
801.075	0.0150490
801.154	0.0151170
801.232	0.0151028
801.310	0.0151155
801.388	0.0151347
801.466	0.0151234
801.544	0.0152686
801.622	0.0153124
801.700	0.0150385
801.779	0.0152161
801.857	0.0152850
801.935	0.0151077
802.013	0.0151900
802.091	0.0154701
802.169	0.0154710
802.247	0.0153687
802.325	0.0154984
802.404	0.0154263
802.482	0.0154313
802.560	0.0155129
802.638	0.0154114
802.716	0.0154115
802.794	0.0153551
802.872	0.0153272
802.950	0.0152591
803.029	0.0153784
803.107	0.0153203
803.185	0.0153446
803.263	0.0154962
803.341	0.0154443
803.419	0.0154286
803.497	0.0152168
803.575	0.0152917
803.654	0.0154762
803.732	0.0154077
803.810	0.0155042
803.888	0.0154451
803.966	0.0154697
804.044	0.0155402
804.122	0.0154057
804.200	0.0154626
804.279	0.0153473
804.357	0.0154778
804.435	0.0152168
804.513	0.0153219
804.591	0.0151289
804.669	0.0152601
804.747	0.0151781
804.825	0.0151304
804.904	0.0150195
804.982	0.0150820
805.060	0.0149589
805.138	0.0148708
805.216	0.0149313
805.294	0.0150291
805.372	0.0149670
805.450	0.0150294
805.529	0.0150845
805.607	0.0149156
805.685	0.0150971
805.763	0.0151599
805.841	0.0151918
805.919	0.0151983
805.997	0.0153825
806.075	0.0152510
806.154	0.0154563
806.232	0.0154533
806.310	0.0154887
806.388	0.0155032
806.466	0.0155344
806.544	0.0155321
806.622	0.0156228
806.700	0.0154804
806.779	0.0155088
806.857	0.0154868
806.935	0.0155177
807.013	0.0154350
807.091	0.0153719
807.169	0.0154579
807.247	0.0154855
807.325	0.0152768
807.404	0.0152379
807.482	0.0152464
807.560	0.0150450
807.638	0.0151272
807.716	0.0151541
807.794	0.0151984
807.872	0.0151819
807.950	0.0151804
808.029	0.0150957
808.107	0.0151099
808.185	0.0152493
808.263	0.0151764
808.341	0.0153073
808.419	0.0152493
808.497	0.0152930
808.575	0.0153606
808.654	0.0152551
808.732	0.0153932
808.810	0.0154224
808.888	0.0153670
808.966	0.0153703
809.044	0.0154124
809.122	0.0154862
809.200	0.0154506
809.279	0.0152910
809.357	0.0152502
809.435	0.0151576
809.513	0.0153011
809.591	0.0151438
809.669	0.0150684
809.747	0.0151470
809.825	0.0151752
809.904	0.0150433
809.982	0.0151460
810.060	0.0150707
810.138	0.0151758
810.216	0.0151233
810.294	0.0150593
810.372	0.0151121
810.450	0.0151140
810.529	0.0151875
810.607	0.0152036
810.685	0.0151414
810.763	0.0153056
810.841	0.0152888
810.919	0.0153387
810.997	0.0155148
811.075	0.0154274
811.154	0.0154331
811.232	0.0155869
811.310	0.0155593
811.388	0.0155908
811.466	0.0155657
811.544	0.0154739
811.622	0.0155494
811.700	0.0155891
811.779	0.0155174
811.857	0.0155143
811.935	0.0154458
812.013	0.0154463
812.091	0.0155289
812.169	0.0154812
812.247	0.0153381
812.325	0.0152610
812.404	0.0153485
812.482	0.0150807
812.560	0.0151005
812.638	0.0151560
812.716	0.0150228
812.794	0.0151444
812.872	0.0150337
812.950	0.0149355
813.029	0.0149321
813.107	0.0149957
813.185	0.0150669
813.263	0.0149265
813.341	0.0149709
813.419	0.0151708
813.497	0.0151360
813.575	0.0150709
813.654	0.0152293
813.732	0.0153250
813.810	0.0153126
813.888	0.0152351
813.966	0.0153864
814.044	0.0153959
814.122	0.0154826
814.200	0.0153340
814.279	0.0154621
814.357	0.0154433
814.435	0.0155907
814.513	0.0155340
814.591	0.0155812
814.669	0.0156222
814.747	0.0154278
814.825	0.0154954
814.904	0.0153636
814.982	0.0155117
815.060	0.0154246
815.138	0.0154185
815.216	0.0152521
815.294	0.0151453
815.372	0.0151695
815.450	0.0149811
815.529	0.0151022
815.607	0.0149702
815.685	0.0148603
815.763	0.0148011
815.841	0.0150262
815.919	0.0151227
815.997	0.0149979
816.075	0.0150820
816.154	0.0151138
816.232	0.0151439
816.310	0.0151240
816.388	0.0152814
816.466	0.0153034
816.544	0.0152930
816.622	0.0153281
816.700	0.0153465
816.779	0.0154560
816.857	0.0154247
816.935	0.0155832
817.013	0.0155039
817.091	0.0157333
817.169	0.0155830
817.247	0.0156104
817.325	0.0156002
817.404	0.0156290
817.482	0.0154993
817.560	0.0156129
817.638	0.0154694
817.716	0.0153751
817.794	0.0154025
817.872	0.0152935
817.950	0.0152174
818.029	0.0153072
818.107	0.0151132
818.185	0.0149245
818.263	0.0150695
818.341	0.0149901
818.419	0.0149689
818.497	0.0149026
818.575	0.0147853
818.654	0.0148809
818.732	0.0148477
818.810	0.0149162
818.888	0.0147583
818.966	0.0149161
819.044	0.0149055
819.122	0.0149301
819.200	0.0150117
819.279	0.0150523
819.357	0.0150738
819.435	0.0152246
819.513	0.0151223
819.591	0.0152544
819.669	0.0153171
819.747	0.0152924
819.825	0.0153459
819.904	0.0154146
819.982	0.0153725
820.060	0.0153458
820.138	0.0153208
820.216	0.0153925
820.294	0.0154139
820.372	0.0152133
820.450	0.0151466
820.529	0.0152732
820.607	0.0151176
820.685	0.0152347
820.763	0.0151140
820.841	0.0150890
820.919	0.0150574
820.997	0.0151135
821.075	0.0152471
821.154	0.0152451
821.232	0.0151389
821.310	0.0152399
821.388	0.0151907
821.466	0.0152209
821.544	0.0153969
821.622	0.0154686
821.700	0.0155497
821.779	0.0155160
821.857	0.0156731
821.935	0.0157653
822.013	0.0157932
822.091	0.0157088
822.169	0.0156318
822.247	0.0156938
822.325	0.0157209
822.404	0.0155471
822.482	0.0156186
822.560	0.0156860
822.638	0.0154827
822.716	0.0154726
822.794	0.0154326
822.872	0.0154179
822.950	0.0153785
823.029	0.0152683
823.107	0.0151371
823.185	0.0151618
823.263	0.0149538
823.341	0.0151787
823.419	0.0152028
823.497	0.0149911
823.575	0.0149137
823.654	0.0149844
823.732	0.0150735
823.810	0.0151205
823.888	0.0151160
823.966	0.0149214
824.044	0.0150079
824.122	0.0150982
824.200	0.0150306
824.279	0.0150845
824.357	0.0150893
824.435	0.0150389
824.513	0.0150623
824.591	0.0150716
824.669	0.0151644
824.747	0.0150786
824.825	0.0150620
824.904	0.0152292
824.982	0.0152430
825.060	0.0151646
825.138	0.0150432
825.216	0.0151176
825.294	0.0152129
825.372	0.0151602
825.450	0.0149944
825.529	0.0149207
825.607	0.0150635
825.685	0.0150601
825.763	0.0151276
825.841	0.0149962
825.919	0.0150766
825.997	0.0152161
826.075	0.0152209
826.154	0.0152356
826.232	0.0153431
826.310	0.0152110
826.388	0.0151154
826.466	0.0154622
826.544	0.0156769
826.622	0.0152892
826.700	0.0154643
826.779	0.0154850
826.857	0.0155338
826.935	0.0156319
827.013	0.0155273
827.091	0.0154873
827.169	0.0157414
827.247	0.0157212
827.325	0.0157078
827.404	0.0156614
827.482	0.0155804
827.560	0.0158881
827.638	0.0158378
827.716	0.0156863
827.794	0.0156094
827.872	0.0156164
827.950	0.0155544
828.029	0.0155749
828.107	0.0155200
828.185	0.0153084
828.263	0.0153345
828.341	0.0153007
828.419	0.0150946
828.497	0.0150565
828.575	0.0151083
828.654	0.0150439
828.732	0.0148386
828.810	0.0147937
828.888	0.0147798
828.966	0.0146864
829.044	0.0147036
829.122	0.0146694
829.200	0.0146533
829.279	0.0145490
829.357	0.0147439
829.435	0.0147144
829.513	0.0148533
829.591	0.0149631
829.669	0.0148541
829.747	0.0150072
829.825	0.0149654
829.904	0.0150975
829.982	0.0152200
830.060	0.0152006
830.138	0.0153337
830.216	0.0154266
830.294	0.0154447
830.372	0.0155038
830.450	0.0156124
830.529	0.0156201
830.607	0.0155643
830.685	0.0155973
830.763	0.0156422
830.841	0.0157046
830.919	0.0156824
830.997	0.0156805
831.075	0.0155652
831.154	0.0155181
831.232	0.0155894
831.310	0.0154240
831.388	0.0154742
831.466	0.0155915
831.544	0.0153777
831.622	0.0153827
831.700	0.0154650
831.779	0.0153711
831.857	0.0153929
831.935	0.0154376
832.013	0.0151707
832.091	0.0151437
832.169	0.0152654
832.247	0.0152529
832.325	0.0153135
832.404	0.0153336
832.482	0.0151701
832.560	0.0151035
832.638	0.0151838
832.716	0.0151936
832.794	0.0150337
832.872	0.0150499
832.950	0.0150237
833.029	0.0150956
833.107	0.0149496
833.185	0.0149871
833.263	0.0149113
833.341	0.0148834
833.419	0.0149372
833.497	0.0150347
833.575	0.0149877
833.654	0.0149215
833.732	0.0149284
833.810	0.0149745
833.888	0.0150112
833.966	0.0149794
834.044	0.0150196
834.122	0.0148795
834.200	0.0151359
834.279	0.0152010
834.357	0.0153677
834.435	0.0152154
834.513	0.0151795
834.591	0.0152884
834.669	0.0154631
834.747	0.0155753
834.825	0.0154334
834.904	0.0154543
834.982	0.0156158
835.060	0.0155093
835.138	0.0156480
835.216	0.0156126
835.294	0.0156509
835.372	0.0155226
835.450	0.0156272
835.529	0.0155811
835.607	0.0156705
835.685	0.0156214
835.763	0.0155659
835.841	0.0156052
835.919	0.0155375
835.997	0.0154397
836.075	0.0155534
836.154	0.0155179
836.232	0.0154390
836.310	0.0154089
836.388	0.0153263
836.466	0.0151727
836.544	0.0151756
836.622	0.0152409
836.700	0.0152116
836.779	0.0151599
836.857	0.0152115
836.935	0.0151267
837.013	0.0152597
837.091	0.0150967
837.169	0.0152010
837.247	0.0151992
837.325	0.0151715
837.404	0.0151518
837.482	0.0151966
837.560	0.0152729
837.638	0.0152295
837.716	0.0152784
837.794	0.0152222
837.872	0.0152328
837.950	0.0152151
838.029	0.0153741
838.107	0.0152225
838.185	0.0152503
838.263	0.0152699
838.341	0.0151403
838.419	0.0151891
838.497	0.0150991
838.575	0.0151251
838.654	0.0151659
838.732	0.0151305
838.810	0.0149644
838.888	0.0150603
838.966	0.0150679
839.044	0.0150845
839.122	0.0150199
839.200	0.0150031
839.279	0.0151617
839.357	0.0151470
839.435	0.0150813
839.513	0.0152818
839.591	0.0152431
839.669	0.0151719
839.747	0.0151779
839.825	0.0151184
839.904	0.0152739
839.982	0.0152464
840.060	0.0153655
840.138	0.0155579
840.216	0.0153699
840.294	0.0154726
840.372	0.0155669
840.450	0.0155352
840.529	0.0156814
840.607	0.0156371
840.685	0.0156400
840.763	0.0156588
840.841	0.0157312
840.919	0.0156201
840.997	0.0155696
841.075	0.0154726
841.154	0.0156087
841.232	0.0155840
841.310	0.0153603
841.388	0.0153516
841.466	0.0151566
841.544	0.0150963
841.622	0.0150888
841.700	0.0150529
841.779	0.0148726
841.857	0.0149010
841.935	0.0148758
842.013	0.0148105
842.091	0.0149343
842.169	0.0148422
842.247	0.0148603
842.325	0.0148819
842.404	0.0147703
842.482	0.0148908
842.560	0.0150246
842.638	0.0149706
842.716	0.0149138
842.794	0.0150078
842.872	0.0151350
842.950	0.0152045
843.029	0.0152058
843.107	0.0154273
843.185	0.0154643
843.263	0.0153891
843.341	0.0154128
843.419	0.0156620
843.497	0.0155246
843.575	0.0156815
843.654	0.0156790
843.732	0.0157713
843.810	0.0157133
843.888	0.0158614
843.966	0.0158087
844.044	0.0157497
844.122	0.0156340
844.200	0.0155465
844.279	0.0156094
844.357	0.0156992
844.435	0.0155518
844.513	0.0156276
844.591	0.0154283
844.669	0.0152175
844.747	0.0152528
844.825	0.0151946
844.904	0.0153118
844.982	0.0152577
845.060	0.0150064
845.138	0.0150009
845.216	0.0150740
845.294	0.0150044
845.372	0.0148911
845.450	0.0150521
845.529	0.0149371
845.607	0.0148788
845.685	0.0148304
845.763	0.0149165
845.841	0.0148773
845.919	0.0150401
845.997	0.0149776
846.075	0.0148784
846.154	0.0149351
846.232	0.0150965
846.310	0.0148562
846.388	0.0150328
846.466	0.0150407
846.544	0.0150114
846.622	0.0150176
846.700	0.0150726
846.779	0.0149157
846.857	0.0150950
846.935	0.0150163
847.013	0.0150647
847.091	0.0150621
847.169	0.0150726
847.247	0.0150404
847.325	0.0151514
847.404	0.0151566
847.482	0.0150690
847.560	0.0151324
847.638	0.0152049
847.716	0.0152375
847.794	0.0153475
847.872	0.0154408
847.950	0.0154567
848.029	0.0154044
848.107	0.0154897
848.185	0.0156904
848.263	0.0157225
848.341	0.0155701
848.419	0.0156760
848.497	0.0158331
848.575	0.0157677
848.654	0.0158231
848.732	0.0157481
848.810	0.0157158
848.888	0.0157201
848.966	0.0158077
849.044	0.0157075
849.122	0.0157700
849.200	0.0156931
849.279	0.0156425
849.357	0.0158961
849.435	0.0157309
849.513	0.0156032
849.591	0.0156995
849.669	0.0157030
849.747	0.0155388
849.825	0.0155585
849.904	0.0155678
849.982	0.0155458
850.060	0.0153101
850.138	0.0153924
850.216	0.0153317
850.294	0.0152925
850.372	0.0153328
850.450	0.0154400
850.529	0.0152500
850.607	0.0151539
850.685	0.0153013
850.763	0.0149842
850.841	0.0149427
850.919	0.0149652
850.997	0.0149853
851.075	0.0147958
851.154	0.0147397
851.232	0.0148605
851.310	0.0147189
851.388	0.0146632
851.466	0.0148281
851.544	0.0148408
851.622	0.0146738
851.700	0.0146820
851.779	0.0148217
851.857	0.0147989
851.935	0.0147365
852.013	0.0148850
852.091	0.0149315
852.169	0.0148161
852.247	0.0149525
852.325	0.0149864
852.404	0.0151296
852.482	0.0151865
852.560	0.0152180
852.638	0.0152635
852.716	0.0153571
852.794	0.0153980
852.872	0.0154215
852.950	0.0153444
853.029	0.0154021
853.107	0.0155221
853.185	0.0156375
853.263	0.0155105
853.341	0.0155808
853.419	0.0155968
853.497	0.0155831
853.575	0.0156621
853.654	0.0156158
853.732	0.0156040
853.810	0.0154472
853.888	0.0154807
853.966	0.0156204
854.044	0.0155479
854.122	0.0155801
854.200	0.0155368
854.279	0.0156050
854.357	0.0156280
854.435	0.0156943
854.513	0.0155833
854.591	0.0155387
854.669	0.0156361
854.747	0.0155066
854.825	0.0155569
854.904	0.0154770
854.982	0.0154586
855.060	0.0154452
855.138	0.0154118
855.216	0.0154197
855.294	0.0152920
855.372	0.0152609
855.450	0.0152991
855.529	0.0150085
855.607	0.0150971
855.685	0.0150768
855.763	0.0149931
855.841	0.0150051
855.919	0.0149825
855.997	0.0151595
856.075	0.0150400
856.154	0.0150832
856.232	0.0150372
856.310	0.0150597
856.388	0.0151488
856.466	0.0152983
856.544	0.0152154
856.622	0.0151449
856.700	0.0151437
856.779	0.0153743
856.857	0.0153519
856.935	0.0153095
857.013	0.0152518
857.091	0.0152574
857.169	0.0153144
857.247	0.0153803
857.325	0.0153000
857.404	0.0152719
857.482	0.0153316
857.560	0.0153128
857.638	0.0153455
857.716	0.0154394
857.794	0.0153617
857.872	0.0152693
857.950	0.0153391
858.029	0.0155342
858.107	0.0155628
858.185	0.0155296
858.263	0.0154750
858.341	0.0154086
858.419	0.0154503
858.497	0.0155070
858.575	0.0154772
858.654	0.0154482
858.732	0.0153505
858.810	0.0154199
858.888	0.0155267
858.966	0.0154468
859.044	0.0154977
859.122	0.0154697
859.200	0.0153374
859.279	0.0154042
859.357	0.0154623
859.435	0.0153379
859.513	0.0153704
859.591	0.0153914
859.669	0.0152254
859.747	0.0152705
859.825	0.0150677
859.904	0.0150422
859.982	0.0149431
860.060	0.0149967
860.138	0.0151702
860.216	0.0150732
860.294	0.0148570
860.372	0.0150839
860.450	0.0150163
860.529	0.0151150
860.607	0.0149679
860.685	0.0150285
860.763	0.0149107
860.841	0.0149565
860.919	0.0149733
860.997	0.0149780
861.075	0.0149922
861.154	0.0151079
861.232	0.0150690
861.310	0.0151183
861.388	0.0150833
861.466	0.0153310
861.544	0.0152723
861.622	0.0154589
861.700	0.0153234
861.779	0.0153409
861.857	0.0154224
861.935	0.0154842
862.013	0.0155081
862.091	0.0156252
862.169	0.0155579
862.247	0.0155100
862.325	0.0155179
862.404	0.0155562
862.482	0.0155104
862.560	0.0154013
862.638	0.0154521
862.716	0.0153477
862.794	0.0154488
862.872	0.0154281
862.950	0.0154625
863.029	0.0154503
863.107	0.0155973
863.185	0.0154951
863.263	0.0153946
863.341	0.0155053
863.419	0.0155336
863.497	0.0154259
863.575	0.0154974
863.654	0.0154478
863.732	0.0154637
863.810	0.0154890
863.888	0.0156525
863.966	0.0153694
864.044	0.0154208
864.122	0.0155190
864.200	0.0154630
864.279	0.0155322
864.357	0.0155419
864.435	0.0154432
864.513	0.0153989
864.591	0.0154620
864.669	0.0154114
864.747	0.0154246
864.825	0.0153940
864.904	0.0153674
864.982	0.0154794
865.060	0.0153498
865.138	0.0155533
865.216	0.0153239
865.294	0.0153000
865.372	0.0152978
865.450	0.0152574
865.529	0.0153701
865.607	0.0152405
865.685	0.0152782
865.763	0.0151711
865.841	0.0150562
865.919	0.0153709
865.997	0.0152444
866.075	0.0150480
866.154	0.0152048
866.232	0.0150107
866.310	0.0151581
866.388	0.0151301
866.466	0.0150670
866.544	0.0150414
866.622	0.0150754
866.700	0.0151593
866.779	0.0151245
866.857	0.0150163
866.935	0.0150278
867.013	0.0151497
867.091	0.0152234
867.169	0.0151341
867.247	0.0150363
867.325	0.0151275
867.404	0.0150874
867.482	0.0150291
867.560	0.0151770
867.638	0.0152981
867.716	0.0151916
867.794	0.0152512
867.872	0.0153013
867.950	0.0152963
868.029	0.0154881
868.107	0.0154053
868.185	0.0152032
868.263	0.0154543
868.341	0.0154702
868.419	0.0153614
868.497	0.0153944
868.575	0.0154910
868.654	0.0155199
868.732	0.0153762
868.810	0.0154611
868.888	0.0154719
868.966	0.0154373
869.044	0.0155053
869.122	0.0154877
869.200	0.0154757
869.279	0.0155338
869.357	0.0154474
869.435	0.0154747
869.513	0.0155116
869.591	0.0153970
869.669	0.0154424
869.747	0.0154270
869.825	0.0154126
869.904	0.0152854
869.982	0.0153911
870.060	0.0153767
870.138	0.0153907
870.216	0.0153555
870.294	0.0153500
870.372	0.0154587
870.450	0.0153262
870.529	0.0153400
870.607	0.0154852
870.685	0.0153224
870.763	0.0153151
870.841	0.0153253
870.919	0.0154295
870.997	0.0152588
871.075	0.0152322
871.154	0.0151395
871.232	0.0151738
871.310	0.0153312
871.388	0.0151775
871.466	0.0152038
871.544	0.0152246
871.622	0.0152599
871.700	0.0151357
871.779	0.0151892
871.857	0.0150863
871.935	0.0150724
872.013	0.0151840
872.091	0.0151227
872.169	0.0151161
872.247	0.0152306
872.325	0.0151761
872.404	0.0151889
872.482	0.0152162
872.560	0.0152902
872.638	0.0152610
872.716	0.0152934
872.794	0.0152307
872.872	0.0152848
872.950	0.0153195
873.029	0.0151952
873.107	0.0152721
873.185	0.0154459
873.263	0.0154294
873.341	0.0152374
873.419	0.0153838
873.497	0.0154021
873.575	0.0152477
873.654	0.0153585
873.732	0.0154624
873.810	0.0153235
873.888	0.0153472
873.966	0.0154010
874.044	0.0153069
874.122	0.0154188
874.200	0.0152921
874.279	0.0153675
874.357	0.0154884
874.435	0.0155017
874.513	0.0154086
874.591	0.0153181
874.669	0.0155119
874.747	0.0155865
874.825	0.0153847
874.904	0.0154632
874.982	0.0155118
875.060	0.0155325
875.138	0.0155224
875.216	0.0154012
875.294	0.0152795
875.372	0.0153741
875.450	0.0154044
875.529	0.0152497
875.607	0.0152681
875.685	0.0153019
875.763	0.0153519
875.841	0.0152393
875.919	0.0151214
875.997	0.0152251
876.075	0.0152443
876.154	0.0150831
876.232	0.0151131
876.310	0.0151163
876.388	0.0151145
876.466	0.0152153
876.544	0.0151227
876.622	0.0151652
876.700	0.0150327
876.779	0.0151031
876.857	0.0150213
876.935	0.0151075
877.013	0.0151213
877.091	0.0150957
877.169	0.0149504
877.247	0.0149988
877.325	0.0152578
877.404	0.0150381
877.482	0.0150809
877.560	0.0151578
877.638	0.0151907
877.716	0.0152988
877.794	0.0153017
877.872	0.0152100
877.950	0.0152883
878.029	0.0152214
878.107	0.0153649
878.185	0.0153912
878.263	0.0153677
878.341	0.0154137
878.419	0.0153659
878.497	0.0153655
878.575	0.0154227
878.654	0.0156253
878.732	0.0155559
878.810	0.0155249
878.888	0.0155040
878.966	0.0156422
879.044	0.0155030
879.122	0.0155241
879.200	0.0156139
879.279	0.0155267
879.357	0.0154478
879.435	0.0154838
879.513	0.0154124
879.591	0.0154633
879.669	0.0155260
879.747	0.0154037
879.825	0.0154969
879.904	0.0154609
879.982	0.0152599
880.060	0.0153014
880.138	0.0153340
880.216	0.0153049
880.294	0.0152547
880.372	0.0153667
880.450	0.0152457
880.529	0.0151760
880.607	0.0151418
880.685	0.0152486
880.763	0.0151351
880.841	0.0151794
880.919	0.0152229
880.997	0.0152215
881.075	0.0153412
881.154	0.0153017
881.232	0.0153499
881.310	0.0152979
881.388	0.0154773
881.466	0.0153464
881.544	0.0153595
881.622	0.0153399
881.700	0.0154791
881.779	0.0154507
881.857	0.0151387
881.935	0.0152564
882.013	0.0150727
882.091	0.0151705
882.169	0.0149270
882.247	0.0148933
882.325	0.0148927
882.404	0.0148917
882.482	0.0149891
882.560	0.0149232
882.638	0.0149448
882.716	0.0150266
882.794	0.0149707
882.872	0.0152347
882.950	0.0153563
883.029	0.0154288
883.107	0.0154634
883.185	0.0154506
883.263	0.0154555
883.341	0.0154411
883.419	0.0154636
883.497	0.0155601
883.575	0.0155509
883.654	0.0154651
883.732	0.0154344
883.810	0.0151347
883.888	0.0152777
883.966	0.0150004
884.044	0.0150634
884.122	0.0148917
884.200	0.0148347
884.279	0.0149015
884.357	0.0148276
884.435	0.0147407
884.513	0.0147853
884.591	0.0148341
884.669	0.0151105
884.747	0.0152652
884.825	0.0152170
884.904	0.0153922
884.982	0.0154789
885.060	0.0155749
885.138	0.0154346
885.216	0.0157039
885.294	0.0157791
885.372	0.0158321
885.450	0.0159884
885.529	0.0160065
885.607	0.0159032
885.685	0.0158909
885.763	0.0158043
885.841	0.0155964
885.919	0.0157531
885.997	0.0156800
886.075	0.0155835
886.154	0.0154485
886.232	0.0154055
886.310	0.0152617
886.388	0.0152052
886.466	0.0151060
886.544	0.0152813
886.622	0.0151278
886.700	0.0149902
886.779	0.0150386
886.857	0.0151337
886.935	0.0150886
887.013	0.0149803
887.091	0.0150396
887.169	0.0151736
887.247	0.0151418
887.325	0.0151583
887.404	0.0151559
887.482	0.0152265
887.560	0.0152442
887.638	0.0153642
887.716	0.0153025
887.794	0.0154269
887.872	0.0152918
887.950	0.0153139
888.029	0.0153449
888.107	0.0152120
888.185	0.0152490
888.263	0.0152168
888.341	0.0151785
888.419	0.0152805
888.497	0.0151251
888.575	0.0151560
888.654	0.0151398
888.732	0.0152618
888.810	0.0151929
888.888	0.0151459
888.966	0.0153239
889.044	0.0151593
889.122	0.0152873
889.200	0.0152918
889.279	0.0152342
889.357	0.0153521
889.435	0.0153448
889.513	0.0151843
889.591	0.0153755
889.669	0.0154386
889.747	0.0153783
889.825	0.0154166
889.904	0.0154664
889.982	0.0153802
890.060	0.0154572
890.138	0.0153490
890.216	0.0153099
890.294	0.0153577
890.372	0.0154468
890.450	0.0152727
890.529	0.0152670
890.607	0.0152702
890.685	0.0153770
890.763	0.0153423
890.841	0.0153387
890.919	0.0152935
890.997	0.0154274
891.075	0.0152998
891.154	0.0151368
891.232	0.0151225
891.310	0.0153016
891.388	0.0152176
891.466	0.0151109
891.544	0.0151253
891.622	0.0151173
891.700	0.0150205
891.779	0.0150063
891.857	0.0149129
891.935	0.0149850
892.013	0.0150899
892.091	0.0149926
892.169	0.0150189
892.247	0.0148746
892.325	0.0149017
892.404	0.0148328
892.482	0.0149854
892.560	0.0150756
892.638	0.0150291
892.716	0.0151502
892.794	0.0151550
892.872	0.0151170
892.950	0.0152699
893.029	0.0153438
893.107	0.0152559
893.185	0.0153739
893.263	0.0154134
893.341	0.0154500
893.419	0.0154150
893.497	0.0154580
893.575	0.0154895
893.654	0.0154819
893.732	0.0155898
893.810	0.0155109
893.888	0.0154696
893.966	0.0155643
894.044	0.0154516
894.122	0.0154694
894.200	0.0154861
894.279	0.0154529
894.357	0.0156335
894.435	0.0154760
894.513	0.0153747
894.591	0.0154965
894.669	0.0153937
894.747	0.0153716
894.825	0.0154070
894.904	0.0153548
894.982	0.0152554
895.060	0.0153304
895.138	0.0152957
895.216	0.0154056
895.294	0.0153152
895.372	0.0153051
895.450	0.0152217
895.529	0.0153214
895.607	0.0152122
895.685	0.0153629
895.763	0.0153432
895.841	0.0153218
895.919	0.0153891
895.997	0.0154594
896.075	0.0152453
896.154	0.0152064
896.232	0.0153123
896.310	0.0152178
896.388	0.0152336
896.466	0.0151929
896.544	0.0151162
896.622	0.0150035
896.700	0.0150423
896.779	0.0151340
896.857	0.0150419
896.935	0.0151093
897.013	0.0150748
897.091	0.0150098
897.169	0.0149449
897.247	0.0148945
897.325	0.0150031
897.404	0.0150502
897.482	0.0150237
897.560	0.0149771
897.638	0.0150912
897.716	0.0151045
897.794	0.0151158
897.872	0.0149379
897.950	0.0150826
898.029	0.0150541
898.107	0.0152667
898.185	0.0152884
898.263	0.0152151
898.341	0.0153082
898.419	0.0153210
898.497	0.0153970
898.575	0.0154002
898.654	0.0154483
898.732	0.0154116
898.810	0.0153030
898.888	0.0154547
898.966	0.0155583
899.044	0.0154316
899.122	0.0153595
899.200	0.0153547
899.279	0.0154339
899.357	0.0153771
899.435	0.0153558
899.513	0.0154616
899.591	0.0152728
899.669	0.0151058
899.747	0.0151549
899.825	0.0153062
899.904	0.0150822
899.982	0.0151466
900.060	0.0152336
900.138	0.0151103
900.216	0.0151289
900.294	0.0151710
900.372	0.0153875
900.450	0.0152462
900.529	0.0152217
900.607	0.0155078
900.685	0.0153680
900.763	0.0154193
900.841	0.0154346
900.919	0.0154237
900.997	0.0155484
901.075	0.0156281
901.154	0.0155221
901.232	0.0154604
901.310	0.0156586
901.388	0.0155622
901.466	0.0155389
901.544	0.0154243
901.622	0.0155775
901.700	0.0155614
901.779	0.0155773
901.857	0.0154481
901.935	0.0155176
902.013	0.0154653
902.091	0.0154421
902.169	0.0152255
902.247	0.0152118
902.325	0.0151780
902.404	0.0151814
902.482	0.0153291
902.560	0.0150822
902.638	0.0150244
902.716	0.0149603
902.794	0.0150468
902.872	0.0149451
902.950	0.0150246
903.029	0.0149537
903.107	0.0149374
903.185	0.0149854
903.263	0.0149866
903.341	0.0149107
903.419	0.0150512
903.497	0.0150905
903.575	0.0150887
903.654	0.0151705
903.732	0.0152456
903.810	0.0151971
903.888	0.0152172
903.966	0.0153160
904.044	0.0155190
904.122	0.0152920
904.200	0.0152021
904.279	0.0153101
904.357	0.0154714
904.435	0.0153397
904.513	0.0152350
904.591	0.0152546
904.669	0.0153373
904.747	0.0154508
904.825	0.0153868
904.904	0.0154492
904.982	0.0152537
905.060	0.0152704
905.138	0.0152596
905.216	0.0153120
905.294	0.0153394
905.372	0.0152613
905.450	0.0151722
905.529	0.0152019
905.607	0.0152246
905.685	0.0153186
905.763	0.0152609
905.841	0.0153173
905.919	0.0151095
905.997	0.0152379
906.075	0.0154022
906.154	0.0151832
906.232	0.0153143
906.310	0.0153720
906.388	0.0154421
906.466	0.0154913
906.544	0.0154099
906.622	0.0153516
906.700	0.0153963
906.779	0.0151615
906.857	0.0152336
906.935	0.0154150
907.013	0.0151722
907.091	0.0152087
907.169	0.0151472
907.247	0.0151123
907.325	0.0151016
907.404	0.0149962
907.482	0.0149755
907.560	0.0152356
907.638	0.0152409
907.716	0.0150597
907.794	0.0150421
907.872	0.0150784
907.950	0.0151180
908.029	0.0151500
908.107	0.0151714
908.185	0.0152089
908.263	0.0151458
908.341	0.0152504
908.419	0.0151535
908.497	0.0152538
908.575	0.0154225
908.654	0.0153484
908.732	0.0153397
908.810	0.0154040
908.888	0.0155303
908.966	0.0154159
909.044	0.0155453
909.122	0.0155267
909.200	0.0155257
909.279	0.0155419
909.357	0.0156109
909.435	0.0155977
909.513	0.0154428
909.591	0.0155357
909.669	0.0155483
909.747	0.0154997
909.825	0.0153351
909.904	0.0154006
909.982	0.0153119
910.060	0.0152473
910.138	0.0152768
910.216	0.0152271
910.294	0.0150539
910.372	0.0150287
910.450	0.0150088
910.529	0.0150780
910.607	0.0152401
910.685	0.0150933
910.763	0.0149014
910.841	0.0149725
910.919	0.0150390
910.997	0.0150897
911.075	0.0151096
911.154	0.0151486
911.232	0.0151678
911.310	0.0150796
911.388	0.0150913
911.466	0.0150838
911.544	0.0150843
911.622	0.0150980
911.700	0.0151417
911.779	0.0150694
911.857	0.0150093
911.935	0.0151150
912.013	0.0151673
912.091	0.0150990
912.169	0.0152330
912.247	0.0152550
912.325	0.0152597
912.404	0.0150809
912.482	0.0152547
912.560	0.0154045
912.638	0.0152623
912.716	0.0152891
912.794	0.0153706
912.872	0.0153903
912.950	0.0153528
913.029	0.0155209
913.107	0.0154680
913.185	0.0154668
913.263	0.0154228
913.341	0.0154503
913.419	0.0154469
913.497	0.0155035
913.575	0.0155380
913.654	0.0153354
913.732	0.0153933
913.810	0.0155305
913.888	0.0153329
913.966	0.0153487
914.044	0.0153606
914.122	0.0152442
914.200	0.0154407
914.279	0.0152429
914.357	0.0151778
914.435	0.0151225
914.513	0.0151527
914.591	0.0151384
914.669	0.0151009
914.747	0.0151317
914.825	0.0151920
914.904	0.0151640
914.982	0.0151688
915.060	0.0150285
915.138	0.0150878
915.216	0.0152160
915.294	0.0152795
915.372	0.0151335
915.450	0.0152290
915.529	0.0151872
915.607	0.0152433
915.685	0.0152814
915.763	0.0153585
915.841	0.0152848
915.919	0.0152410
915.997	0.0150948
916.075	0.0152326
916.154	0.0152385
916.232	0.0152765
916.310	0.0152105
916.388	0.0150645
916.466	0.0151409
916.544	0.0151704
916.622	0.0152331
916.700	0.0151966
916.779	0.0151392
916.857	0.0152460
916.935	0.0153348
917.013	0.0152155
917.091	0.0151182
917.169	0.0152046
917.247	0.0151892
917.325	0.0151870
917.404	0.0152165
917.482	0.0151260
917.560	0.0151608
917.638	0.0152489
917.716	0.0152044
917.794	0.0152682
917.872	0.0151836
917.950	0.0151266
918.029	0.0152861
918.107	0.0152914
918.185	0.0153048
918.263	0.0153722
918.341	0.0153790
918.419	0.0153986
918.497	0.0154073
918.575	0.0154282
918.654	0.0153189
918.732	0.0154723
918.810	0.0154372
918.888	0.0153884
918.966	0.0154411
919.044	0.0154734
919.122	0.0155013
919.200	0.0154733
919.279	0.0153376
919.357	0.0152302
919.435	0.0152911
919.513	0.0152918
919.591	0.0152666
919.669	0.0152902
919.747	0.0151462
919.825	0.0152477
919.904	0.0151781
