05/20/2022	21:09:03	Ver.	4.1	UNKNOWN
Optical Delay	599.975067	Delta X		0.078125	Sweeps	1	Scan Rate	0/0
Coordinates	Axis 1	NaN	Axis 2	NaN	Axis 3	NaN	Axis 4	NaN	Axis 5	NaN	Axis 6	0.000000
TX Power	0.000000	RX Power	0.000000

599.975	0.0152558
600.053	0.0151653
600.131	0.0153142
600.209	0.0152075
600.288	0.0152003
600.366	0.0151955
600.444	0.0151474
600.522	0.0153461
600.600	0.0152279
600.678	0.0152151
600.756	0.0152430
600.834	0.0152460
600.913	0.0150492
600.991	0.0152147
601.069	0.0151614
601.147	0.0151651
601.225	0.0152634
601.303	0.0152182
601.381	0.0151621
601.459	0.0152041
601.538	0.0151184
601.616	0.0150590
601.694	0.0152251
601.772	0.0151305
601.850	0.0151612
601.928	0.0151395
602.006	0.0152092
602.084	0.0151414
602.163	0.0152252
602.241	0.0151436
602.319	0.0151953
602.397	0.0152789
602.475	0.0151319
602.553	0.0152100
602.631	0.0152172
602.709	0.0150916
602.788	0.0150979
602.866	0.0149608
602.944	0.0151628
603.022	0.0151770
603.100	0.0150813
603.178	0.0149783
603.256	0.0151991
603.334	0.0151875
603.413	0.0150506
603.491	0.0150249
603.569	0.0150787
603.647	0.0151030
603.725	0.0150541
603.803	0.0152776
603.881	0.0152105
603.959	0.0150898
604.038	0.0150922
604.116	0.0152782
604.194	0.0151064
604.272	0.0150709
604.350	0.0151205
604.428	0.0152655
604.506	0.0151955
604.584	0.0151267
604.663	0.0151789
604.741	0.0152282
604.819	0.0151740
604.897	0.0151759
604.975	0.0151313
605.053	0.0151221
605.131	0.0150256
605.209	0.0151172
605.288	0.0152284
605.366	0.0151258
605.444	0.0150713
605.522	0.0153044
605.600	0.0153300
605.678	0.0150765
605.756	0.0150394
605.834	0.0151862
605.913	0.0150706
605.991	0.0152255
606.069	0.0150880
606.147	0.0151997
606.225	0.0151797
606.303	0.0151858
606.381	0.0150354
606.459	0.0150763
606.538	0.0151235
606.616	0.0150526
606.694	0.0151089
606.772	0.0151198
606.850	0.0151301
606.928	0.0150480
607.006	0.0150922
607.084	0.0150218
607.163	0.0150348
607.241	0.0150377
607.319	0.0151208
607.397	0.0150399
607.475	0.0150204
607.553	0.0150621
607.631	0.0151175
607.709	0.0151515
607.788	0.0150867
607.866	0.0152225
607.944	0.0150754
608.022	0.0151968
608.100	0.0152038
608.178	0.0150566
608.256	0.0152250
608.334	0.0152602
608.413	0.0152037
608.491	0.0151899
608.569	0.0151455
608.647	0.0150867
608.725	0.0150787
608.803	0.0151355
608.881	0.0151988
608.959	0.0150821
609.038	0.0150463
609.116	0.0151187
609.194	0.0151685
609.272	0.0150425
609.350	0.0150405
609.428	0.0150773
609.506	0.0152132
609.584	0.0151912
609.663	0.0151817
609.741	0.0151154
609.819	0.0151085
609.897	0.0151729
609.975	0.0151849
610.053	0.0151299
610.131	0.0153411
610.209	0.0152145
610.288	0.0152017
610.366	0.0151903
610.444	0.0151480
610.522	0.0151648
610.600	0.0153126
610.678	0.0150319
610.756	0.0151164
610.834	0.0152690
610.913	0.0151491
610.991	0.0152824
611.069	0.0151437
611.147	0.0151583
611.225	0.0151141
611.303	0.0150336
611.381	0.0150699
611.459	0.0151339
611.538	0.0151740
611.616	0.0152325
611.694	0.0150993
611.772	0.0151884
611.850	0.0150751
611.928	0.0152028
612.006	0.0150571
612.084	0.0151969
612.163	0.0151512
612.241	0.0152047
612.319	0.0152181
612.397	0.0152228
612.475	0.0151578
612.553	0.0152003
612.631	0.0151073
612.709	0.0152042
612.788	0.0150600
612.866	0.0152898
612.944	0.0151528
613.022	0.0152106
613.100	0.0151875
613.178	0.0151517
613.256	0.0152267
613.334	0.0152334
613.413	0.0152075
613.491	0.0153566
613.569	0.0151777
613.647	0.0151491
613.725	0.0153004
613.803	0.0150896
613.881	0.0151064
613.959	0.0151248
614.038	0.0152357
614.116	0.0150990
614.194	0.0151711
614.272	0.0150644
614.350	0.0152191
614.428	0.0151402
614.506	0.0150834
614.584	0.0152268
614.663	0.0153270
614.741	0.0152044
614.819	0.0151514
614.897	0.0152537
614.975	0.0151936
615.053	0.0152247
615.131	0.0151914
615.209	0.0152629
615.288	0.0151845
615.366	0.0150614
615.444	0.0152862
615.522	0.0152079
615.600	0.0152095
615.678	0.0152959
615.756	0.0151644
615.834	0.0151589
615.913	0.0151923
615.991	0.0150816
616.069	0.0151014
616.147	0.0151949
616.225	0.0151762
616.303	0.0151105
616.381	0.0152429
616.459	0.0152328
616.538	0.0152224
616.616	0.0150353
616.694	0.0150369
616.772	0.0151437
616.850	0.0151524
616.928	0.0151675
617.006	0.0150911
617.084	0.0150719
617.163	0.0152158
617.241	0.0151163
617.319	0.0151009
617.397	0.0152584
617.475	0.0151609
617.553	0.0152660
617.631	0.0152877
617.709	0.0151585
617.788	0.0151821
617.866	0.0152616
617.944	0.0152363
618.022	0.0151955
618.100	0.0151680
618.178	0.0151301
618.256	0.0152755
618.334	0.0152285
618.413	0.0150943
618.491	0.0150197
618.569	0.0152277
618.647	0.0151225
618.725	0.0151955
618.803	0.0150584
618.881	0.0151214
618.959	0.0152373
619.038	0.0152244
619.116	0.0152796
619.194	0.0153194
619.272	0.0151503
619.350	0.0151316
619.428	0.0151548
619.506	0.0149215
619.584	0.0150719
619.663	0.0152010
619.741	0.0152213
619.819	0.0151209
619.897	0.0152382
619.975	0.0150009
620.053	0.0151023
620.131	0.0150841
620.209	0.0152659
620.288	0.0149740
620.366	0.0151442
620.444	0.0151424
620.522	0.0152090
620.600	0.0151504
620.678	0.0151907
620.756	0.0151909
620.834	0.0151331
620.913	0.0151431
620.991	0.0150851
621.069	0.0150941
621.147	0.0151462
621.225	0.0151780
621.303	0.0151270
621.381	0.0150787
621.459	0.0151891
621.538	0.0150859
621.616	0.0150783
621.694	0.0151093
621.772	0.0150735
621.850	0.0151953
621.928	0.0151443
622.006	0.0151226
622.084	0.0150040
622.163	0.0151405
622.241	0.0151661
622.319	0.0151240
622.397	0.0150739
622.475	0.0150407
622.553	0.0151658
622.631	0.0150965
622.709	0.0149778
622.788	0.0149424
622.866	0.0150792
622.944	0.0150329
623.022	0.0150813
623.100	0.0150805
623.178	0.0151663
623.256	0.0150220
623.334	0.0150314
623.413	0.0149995
623.491	0.0150687
623.569	0.0151766
623.647	0.0150285
623.725	0.0150523
623.803	0.0151224
623.881	0.0151983
623.959	0.0150840
624.038	0.0151140
624.116	0.0149790
624.194	0.0151098
624.272	0.0151446
624.350	0.0151163
624.428	0.0151637
624.506	0.0149825
624.584	0.0150499
624.663	0.0151029
624.741	0.0151295
624.819	0.0151900
624.897	0.0151965
624.975	0.0151715
625.053	0.0151678
625.131	0.0151131
625.209	0.0151230
625.288	0.0151525
625.366	0.0151461
625.444	0.0151700
625.522	0.0150793
625.600	0.0151871
625.678	0.0150826
625.756	0.0149532
625.834	0.0153024
625.913	0.0150430
625.991	0.0150990
626.069	0.0151512
626.147	0.0150703
626.225	0.0149928
626.303	0.0150659
626.381	0.0151031
626.459	0.0151439
626.538	0.0151479
626.616	0.0149924
626.694	0.0151409
626.772	0.0150385
626.850	0.0151600
626.928	0.0149746
627.006	0.0151041
627.084	0.0150511
627.163	0.0150520
627.241	0.0150927
627.319	0.0151039
627.397	0.0150822
627.475	0.0150816
627.553	0.0150246
627.631	0.0150249
627.709	0.0150063
627.788	0.0149976
627.866	0.0150904
627.944	0.0151078
628.022	0.0151501
628.100	0.0150993
628.178	0.0151313
628.256	0.0150848
628.334	0.0150562
628.413	0.0152160
628.491	0.0151446
628.569	0.0150852
628.647	0.0150287
628.725	0.0150397
628.803	0.0151363
628.881	0.0152101
628.959	0.0151674
629.038	0.0151591
629.116	0.0151448
629.194	0.0151059
629.272	0.0151392
629.350	0.0150577
629.428	0.0152464
629.506	0.0151048
629.584	0.0150426
629.663	0.0152426
629.741	0.0151353
629.819	0.0149938
629.897	0.0149474
629.975	0.0150938
630.053	0.0151000
630.131	0.0150327
630.209	0.0150562
630.288	0.0149713
630.366	0.0151018
630.444	0.0149686
630.522	0.0150600
630.600	0.0151250
630.678	0.0150574
630.756	0.0151971
630.834	0.0150581
630.913	0.0150253
630.991	0.0151864
631.069	0.0151977
631.147	0.0151124
631.225	0.0149258
631.303	0.0150909
631.381	0.0151125
631.459	0.0150887
631.538	0.0151530
631.616	0.0151380
631.694	0.0152409
631.772	0.0149326
631.850	0.0151240
631.928	0.0152676
632.006	0.0151934
632.084	0.0150718
632.163	0.0150974
632.241	0.0150981
632.319	0.0151833
632.397	0.0151573
632.475	0.0151130
632.553	0.0151717
632.631	0.0150840
632.709	0.0150485
632.788	0.0150802
632.866	0.0151169
632.944	0.0151359
633.022	0.0150228
633.100	0.0150487
633.178	0.0150833
633.256	0.0153115
633.334	0.0151401
633.413	0.0151003
633.491	0.0152473
633.569	0.0150789
633.647	0.0151147
633.725	0.0151606
633.803	0.0151674
633.881	0.0150381
633.959	0.0151251
634.038	0.0152512
634.116	0.0151914
634.194	0.0150863
634.272	0.0150523
634.350	0.0151290
634.428	0.0151332
634.506	0.0150156
634.584	0.0151571
634.663	0.0151043
634.741	0.0150379
634.819	0.0150748
634.897	0.0151633
634.975	0.0151295
635.053	0.0151339
635.131	0.0151308
635.209	0.0150764
635.288	0.0152313
635.366	0.0152071
635.444	0.0152901
635.522	0.0152105
635.600	0.0152039
635.678	0.0151793
635.756	0.0152621
635.834	0.0151006
635.913	0.0152299
635.991	0.0152193
636.069	0.0153770
636.147	0.0152938
636.225	0.0152419
636.303	0.0154595
636.381	0.0153704
636.459	0.0152782
636.538	0.0152917
636.616	0.0152415
636.694	0.0152831
636.772	0.0154220
636.850	0.0152319
636.928	0.0150935
637.006	0.0154015
637.084	0.0151848
637.163	0.0151821
637.241	0.0150862
637.319	0.0150316
637.397	0.0151477
637.475	0.0151844
637.553	0.0151448
637.631	0.0150788
637.709	0.0149501
637.788	0.0149448
637.866	0.0150771
637.944	0.0151632
638.022	0.0149702
638.100	0.0150047
638.178	0.0150810
638.256	0.0150140
638.334	0.0149818
638.413	0.0149599
638.491	0.0150218
638.569	0.0150924
638.647	0.0149186
638.725	0.0151472
638.803	0.0151453
638.881	0.0150607
638.959	0.0151253
639.038	0.0151878
639.116	0.0150139
639.194	0.0151870
639.272	0.0152408
639.350	0.0152333
639.428	0.0152541
639.506	0.0153079
639.584	0.0152926
639.663	0.0151429
639.741	0.0151893
639.819	0.0152885
639.897	0.0152671
639.975	0.0154774
640.053	0.0153368
640.131	0.0151620
640.209	0.0154226
640.288	0.0153855
640.366	0.0153388
640.444	0.0153837
640.522	0.0152871
640.600	0.0152662
640.678	0.0151089
640.756	0.0151360
640.834	0.0152850
640.913	0.0151781
640.991	0.0151995
641.069	0.0152682
641.147	0.0150239
641.225	0.0152044
641.303	0.0150751
641.381	0.0150687
641.459	0.0150562
641.538	0.0150098
641.616	0.0150488
641.694	0.0151582
641.772	0.0151140
641.850	0.0151538
641.928	0.0151515
642.006	0.0150433
642.084	0.0150455
642.163	0.0150107
642.241	0.0152138
642.319	0.0151677
642.397	0.0150111
642.475	0.0150610
642.553	0.0152116
642.631	0.0153125
642.709	0.0149904
642.788	0.0150097
642.866	0.0151426
642.944	0.0152808
643.022	0.0151458
643.100	0.0150565
643.178	0.0151631
643.256	0.0150832
643.334	0.0151023
643.413	0.0152314
643.491	0.0153201
643.569	0.0153446
643.647	0.0153837
643.725	0.0152666
643.803	0.0151923
643.881	0.0152428
643.959	0.0153260
644.038	0.0151488
644.116	0.0152483
644.194	0.0152496
644.272	0.0151815
644.350	0.0151376
644.428	0.0151328
644.506	0.0153388
644.584	0.0151971
644.663	0.0151281
644.741	0.0152864
644.819	0.0151091
644.897	0.0152083
644.975	0.0150916
645.053	0.0150478
645.131	0.0149807
645.209	0.0150462
645.288	0.0150552
645.366	0.0151052
645.444	0.0149915
645.522	0.0149805
645.600	0.0149370
645.678	0.0149825
645.756	0.0149144
645.834	0.0150693
645.913	0.0150853
645.991	0.0149702
646.069	0.0149995
646.147	0.0151738
646.225	0.0150330
646.303	0.0151184
646.381	0.0152568
646.459	0.0153426
646.538	0.0151555
646.616	0.0152307
646.694	0.0152172
646.772	0.0152444
646.850	0.0153190
646.928	0.0152000
647.006	0.0152040
647.084	0.0151920
647.163	0.0152349
647.241	0.0151231
647.319	0.0151882
647.397	0.0151723
647.475	0.0151723
647.553	0.0151150
647.631	0.0151646
647.709	0.0150357
647.788	0.0149608
647.866	0.0150430
647.944	0.0151041
648.022	0.0151775
648.100	0.0151454
648.178	0.0151021
648.256	0.0151756
648.334	0.0152097
648.413	0.0151460
648.491	0.0151290
648.569	0.0151125
648.647	0.0153170
648.725	0.0151827
648.803	0.0150486
648.881	0.0150631
648.959	0.0152238
649.038	0.0153265
649.116	0.0151426
649.194	0.0152562
649.272	0.0152597
649.350	0.0150980
649.428	0.0151177
649.506	0.0152038
649.584	0.0150854
649.663	0.0150767
649.741	0.0152343
649.819	0.0151020
649.897	0.0149730
649.975	0.0150910
650.053	0.0149207
650.131	0.0151108
650.209	0.0150739
650.288	0.0150164
650.366	0.0150704
650.444	0.0151470
650.522	0.0151394
650.600	0.0150961
650.678	0.0151601
650.756	0.0151357
650.834	0.0152817
650.913	0.0152973
650.991	0.0152248
651.069	0.0153797
651.147	0.0153399
651.225	0.0153712
651.303	0.0154436
651.381	0.0153350
651.459	0.0152271
651.538	0.0152217
651.616	0.0153088
651.694	0.0154235
651.772	0.0153927
651.850	0.0152543
651.928	0.0151295
652.006	0.0150869
652.084	0.0151343
652.163	0.0151918
652.241	0.0150574
652.319	0.0150705
652.397	0.0151058
652.475	0.0150928
652.553	0.0150970
652.631	0.0151996
652.709	0.0150089
652.788	0.0151881
652.866	0.0151128
652.944	0.0150826
653.022	0.0151888
653.100	0.0153111
653.178	0.0151597
653.256	0.0153423
653.334	0.0152968
653.413	0.0152793
653.491	0.0152997
653.569	0.0152686
653.647	0.0154099
653.725	0.0153683
653.803	0.0153599
653.881	0.0152693
653.959	0.0151366
654.038	0.0152785
654.116	0.0152357
654.194	0.0153833
654.272	0.0153637
654.350	0.0152068
654.428	0.0152866
654.506	0.0151350
654.584	0.0152339
654.663	0.0152114
654.741	0.0152297
654.819	0.0152681
654.897	0.0153147
654.975	0.0151357
655.053	0.0150944
655.131	0.0151776
655.209	0.0152345
655.288	0.0151600
655.366	0.0150336
655.444	0.0151013
655.522	0.0150324
655.600	0.0151079
655.678	0.0150247
655.756	0.0152026
655.834	0.0151272
655.913	0.0151263
655.991	0.0150957
656.069	0.0149998
656.147	0.0152370
656.225	0.0152809
656.303	0.0154109
656.381	0.0152472
656.459	0.0152448
656.538	0.0152850
656.616	0.0153351
656.694	0.0152653
656.772	0.0154034
656.850	0.0154739
656.928	0.0153880
657.006	0.0153075
657.084	0.0152896
657.163	0.0153317
657.241	0.0153825
657.319	0.0152155
657.397	0.0153606
657.475	0.0154334
657.553	0.0153335
657.631	0.0153234
657.709	0.0153242
657.788	0.0151520
657.866	0.0151344
657.944	0.0152520
658.022	0.0151984
658.100	0.0152348
658.178	0.0151067
658.256	0.0151274
658.334	0.0152818
658.413	0.0151978
658.491	0.0152058
658.569	0.0152331
658.647	0.0151713
658.725	0.0152656
658.803	0.0150925
658.881	0.0151692
658.959	0.0152222
659.038	0.0153257
659.116	0.0151813
659.194	0.0152533
659.272	0.0153085
659.350	0.0152681
659.428	0.0152888
659.506	0.0151444
659.584	0.0152983
659.663	0.0152398
659.741	0.0151620
659.819	0.0150961
659.897	0.0150288
659.975	0.0151066
660.053	0.0150347
660.131	0.0149902
660.209	0.0150282
660.288	0.0150363
660.366	0.0150324
660.444	0.0151225
660.522	0.0149754
660.600	0.0150156
660.678	0.0150726
660.756	0.0151031
660.834	0.0151014
660.913	0.0150610
660.991	0.0151611
661.069	0.0151830
661.147	0.0152570
661.225	0.0152206
661.303	0.0152288
661.381	0.0152949
661.459	0.0153781
661.538	0.0154277
661.616	0.0154441
661.694	0.0154078
661.772	0.0152665
661.850	0.0153143
661.928	0.0153729
662.006	0.0152820
662.084	0.0153698
662.163	0.0152599
662.241	0.0152915
662.319	0.0152288
662.397	0.0152129
662.475	0.0151500
662.553	0.0151295
662.631	0.0150910
662.709	0.0151351
662.788	0.0151159
662.866	0.0150243
662.944	0.0152362
663.022	0.0151409
663.100	0.0150809
663.178	0.0150511
663.256	0.0152702
663.334	0.0152343
663.413	0.0152911
663.491	0.0151633
663.569	0.0151980
663.647	0.0152174
663.725	0.0152547
663.803	0.0152734
663.881	0.0152166
663.959	0.0151620
664.038	0.0152114
664.116	0.0151666
664.194	0.0151230
664.272	0.0150683
664.350	0.0152222
664.428	0.0150554
664.506	0.0151849
664.584	0.0152264
664.663	0.0150172
664.741	0.0149984
664.819	0.0151009
664.897	0.0151100
664.975	0.0151059
665.053	0.0151350
665.131	0.0151609
665.209	0.0151579
665.288	0.0151268
665.366	0.0151994
665.444	0.0151810
665.522	0.0151835
665.600	0.0151198
665.678	0.0152602
665.756	0.0152797
665.834	0.0152784
665.913	0.0153155
665.991	0.0153172
666.069	0.0153045
666.147	0.0152335
666.225	0.0152697
666.303	0.0152589
666.381	0.0152691
666.459	0.0152380
666.538	0.0151966
666.616	0.0151929
666.694	0.0153868
666.772	0.0152247
666.850	0.0151363
666.928	0.0151698
667.006	0.0152412
667.084	0.0152189
667.163	0.0152515
667.241	0.0154634
667.319	0.0151557
667.397	0.0151433
667.475	0.0152727
667.553	0.0152620
667.631	0.0153671
667.709	0.0151682
667.788	0.0153569
667.866	0.0154489
667.944	0.0152992
668.022	0.0152792
668.100	0.0153420
668.178	0.0154262
668.256	0.0154350
668.334	0.0154199
668.413	0.0154630
668.491	0.0155052
668.569	0.0152566
668.647	0.0152739
668.725	0.0152527
668.803	0.0155331
668.881	0.0153352
668.959	0.0153558
669.038	0.0153656
669.116	0.0152977
669.194	0.0152544
669.272	0.0151303
669.350	0.0153403
669.428	0.0152874
669.506	0.0151086
669.584	0.0151128
669.663	0.0150745
669.741	0.0152621
669.819	0.0151579
669.897	0.0153569
669.975	0.0153758
670.053	0.0152496
670.131	0.0153116
670.209	0.0154160
670.288	0.0153706
670.366	0.0154382
670.444	0.0153104
670.522	0.0154362
670.600	0.0153239
670.678	0.0153355
670.756	0.0153796
670.834	0.0152850
670.913	0.0153812
670.991	0.0153329
671.069	0.0153552
671.147	0.0153597
671.225	0.0154320
671.303	0.0154435
671.381	0.0153481
671.459	0.0152635
671.538	0.0152458
671.616	0.0153098
671.694	0.0152191
671.772	0.0152811
671.850	0.0152586
671.928	0.0152117
672.006	0.0151376
672.084	0.0152912
672.163	0.0151453
672.241	0.0151229
672.319	0.0152363
672.397	0.0151456
672.475	0.0152495
672.553	0.0152160
672.631	0.0153030
672.709	0.0153397
672.788	0.0153256
672.866	0.0151266
672.944	0.0153854
673.022	0.0152550
673.100	0.0151865
673.178	0.0152529
673.256	0.0152207
673.334	0.0154479
673.413	0.0153083
673.491	0.0151884
673.569	0.0152399
673.647	0.0152006
673.725	0.0152097
673.803	0.0151583
673.881	0.0151369
673.959	0.0151361
674.038	0.0149521
674.116	0.0150015
674.194	0.0150012
674.272	0.0150493
674.350	0.0149277
674.428	0.0147608
674.506	0.0149603
674.584	0.0149984
674.663	0.0150113
674.741	0.0150798
674.819	0.0150957
674.897	0.0151808
674.975	0.0152328
675.053	0.0153020
675.131	0.0152633
675.209	0.0154179
675.288	0.0153869
675.366	0.0155312
675.444	0.0155988
675.522	0.0156055
675.600	0.0156078
675.678	0.0157334
675.756	0.0156738
675.834	0.0156977
675.913	0.0156270
675.991	0.0155629
676.069	0.0155035
676.147	0.0154446
676.225	0.0153243
676.303	0.0152610
676.381	0.0152046
676.459	0.0151038
676.538	0.0148357
676.616	0.0148808
676.694	0.0148084
676.772	0.0145718
676.850	0.0144108
676.928	0.0144003
677.006	0.0143044
677.084	0.0141632
677.163	0.0143478
677.241	0.0143836
677.319	0.0142455
677.397	0.0143764
677.475	0.0146529
677.553	0.0147687
677.631	0.0148611
677.709	0.0151606
677.788	0.0151296
677.866	0.0154906
677.944	0.0157184
678.022	0.0159258
678.100	0.0161388
678.178	0.0161655
678.256	0.0163509
678.334	0.0164658
678.413	0.0165914
678.491	0.0166765
678.569	0.0166586
678.647	0.0165139
678.725	0.0164116
678.803	0.0164028
678.881	0.0162238
678.959	0.0160792
679.038	0.0158366
679.116	0.0155603
679.194	0.0155519
679.272	0.0153832
679.350	0.0148056
679.428	0.0147569
679.506	0.0145652
679.584	0.0144576
679.663	0.0140508
679.741	0.0139664
679.819	0.0137182
679.897	0.0136986
679.975	0.0135608
680.053	0.0136323
680.131	0.0136099
680.209	0.0135963
680.288	0.0137286
680.366	0.0138362
680.444	0.0139825
680.522	0.0142590
680.600	0.0144395
680.678	0.0146732
680.756	0.0150266
680.834	0.0152044
680.913	0.0155346
680.991	0.0157409
681.069	0.0158665
681.147	0.0161786
681.225	0.0163792
681.303	0.0164126
681.381	0.0165321
681.459	0.0166833
681.538	0.0166178
681.616	0.0167775
681.694	0.0165775
681.772	0.0166344
681.850	0.0166462
681.928	0.0166048
682.006	0.0163668
682.084	0.0161246
682.163	0.0160593
682.241	0.0159093
682.319	0.0155917
682.397	0.0154182
682.475	0.0154023
682.553	0.0151440
682.631	0.0149533
682.709	0.0148347
682.788	0.0148150
682.866	0.0145905
682.944	0.0145615
683.022	0.0145066
683.100	0.0142717
683.178	0.0143899
683.256	0.0143400
683.334	0.0142912
683.413	0.0143067
683.491	0.0143620
683.569	0.0140971
683.647	0.0140968
683.725	0.0141284
683.803	0.0142933
683.881	0.0142444
683.959	0.0143977
684.038	0.0144613
684.116	0.0146595
684.194	0.0147505
684.272	0.0148378
684.350	0.0148286
684.428	0.0151237
684.506	0.0149825
684.584	0.0152188
684.663	0.0153530
684.741	0.0153159
684.819	0.0155118
684.897	0.0156309
684.975	0.0155689
685.053	0.0156747
685.131	0.0158102
685.209	0.0157929
685.288	0.0158896
685.366	0.0158470
685.444	0.0159348
685.522	0.0160130
685.600	0.0158561
685.678	0.0159739
685.756	0.0158327
685.834	0.0157120
685.913	0.0157810
685.991	0.0156531
686.069	0.0154799
686.147	0.0153832
686.225	0.0154710
686.303	0.0152222
686.381	0.0153188
686.459	0.0151388
686.538	0.0149451
686.616	0.0149033
686.694	0.0147960
686.772	0.0147532
686.850	0.0147012
686.928	0.0147207
687.006	0.0145816
687.084	0.0144477
687.163	0.0145305
687.241	0.0145635
687.319	0.0144746
687.397	0.0145709
687.475	0.0145000
687.553	0.0146539
687.631	0.0146367
687.709	0.0145818
687.788	0.0146739
687.866	0.0146749
687.944	0.0149033
688.022	0.0149219
688.100	0.0150144
688.178	0.0151014
688.256	0.0153857
688.334	0.0154942
688.413	0.0158065
688.491	0.0159686
688.569	0.0161897
688.647	0.0162930
688.725	0.0164939
688.803	0.0166138
688.881	0.0168324
688.959	0.0168908
689.038	0.0169962
689.116	0.0169948
689.194	0.0169234
689.272	0.0169489
689.350	0.0167308
689.428	0.0164194
689.506	0.0163052
689.584	0.0161079
689.663	0.0156588
689.741	0.0151997
689.819	0.0147892
689.897	0.0144738
689.975	0.0140704
690.053	0.0136108
690.131	0.0132397
690.209	0.0129884
690.288	0.0126894
690.366	0.0124554
690.444	0.0124422
690.522	0.0123042
690.600	0.0123704
690.678	0.0124523
690.756	0.0124838
690.834	0.0125879
690.913	0.0129181
690.991	0.0132373
691.069	0.0136806
691.147	0.0139347
691.225	0.0144607
691.303	0.0147807
691.381	0.0151669
691.459	0.0156065
691.538	0.0158698
691.616	0.0163625
691.694	0.0166225
691.772	0.0167984
691.850	0.0171697
691.928	0.0171392
692.006	0.0173830
692.084	0.0174035
692.163	0.0175445
692.241	0.0175042
692.319	0.0174191
692.397	0.0175191
692.475	0.0173506
692.553	0.0172815
692.631	0.0171368
692.709	0.0169872
692.788	0.0169486
692.866	0.0167387
692.944	0.0164194
693.022	0.0163379
693.100	0.0160196
693.178	0.0159583
693.256	0.0158987
693.334	0.0157797
693.413	0.0155308
693.491	0.0154895
693.569	0.0154589
693.647	0.0153337
693.725	0.0152082
693.803	0.0151473
693.881	0.0150289
693.959	0.0148755
694.038	0.0146132
694.116	0.0145286
694.194	0.0142065
694.272	0.0140600
694.350	0.0140908
694.428	0.0136700
694.506	0.0135069
694.584	0.0132343
694.663	0.0132566
694.741	0.0131503
694.819	0.0130170
694.897	0.0131613
694.975	0.0130701
695.053	0.0130769
695.131	0.0132556
695.209	0.0133426
695.288	0.0134804
695.366	0.0135157
695.444	0.0135133
695.522	0.0136163
695.600	0.0136198
695.678	0.0136301
695.756	0.0136891
695.834	0.0135583
695.913	0.0136143
695.991	0.0137353
696.069	0.0137473
696.147	0.0137503
696.225	0.0139863
696.303	0.0142692
696.381	0.0146346
696.459	0.0148013
696.538	0.0152258
696.616	0.0157473
696.694	0.0161494
696.772	0.0165602
696.850	0.0171198
696.928	0.0176661
697.006	0.0179992
697.084	0.0183027
697.163	0.0188450
697.241	0.0190831
697.319	0.0193546
697.397	0.0193381
697.475	0.0194691
697.553	0.0195204
697.631	0.0193811
697.709	0.0192791
697.788	0.0191409
697.866	0.0187382
697.944	0.0183690
698.022	0.0180077
698.100	0.0176786
698.178	0.0173063
698.256	0.0166291
698.334	0.0161720
698.413	0.0157273
698.491	0.0150886
698.569	0.0145836
698.647	0.0138649
698.725	0.0132178
698.803	0.0128104
698.881	0.0121445
698.959	0.0117360
699.038	0.0113263
699.116	0.0109043
699.194	0.0105632
699.272	0.0102654
699.350	0.0101598
699.428	0.0101778
699.506	0.0101999
699.584	0.0104414
699.663	0.0106789
699.741	0.0111721
699.819	0.0115941
699.897	0.0121624
699.975	0.0126031
700.053	0.0132793
700.131	0.0141100
700.209	0.0146838
700.288	0.0154709
700.366	0.0161651
700.444	0.0167043
700.522	0.0172551
700.600	0.0177654
700.678	0.0179181
700.756	0.0183391
700.834	0.0184861
700.913	0.0188686
700.991	0.0188156
701.069	0.0187368
701.147	0.0185345
701.225	0.0182174
701.303	0.0179191
701.381	0.0175812
701.459	0.0173201
701.538	0.0167939
701.616	0.0161277
701.694	0.0156904
701.772	0.0151709
701.850	0.0147452
701.928	0.0142577
702.006	0.0137308
702.084	0.0133418
702.163	0.0130860
702.241	0.0129480
702.319	0.0127376
702.397	0.0127322
702.475	0.0128593
702.553	0.0130576
702.631	0.0133233
702.709	0.0135698
702.788	0.0140005
702.866	0.0141946
702.944	0.0147298
703.022	0.0150793
703.100	0.0155236
703.178	0.0156625
703.256	0.0160590
703.334	0.0164442
703.413	0.0166401
703.491	0.0168825
703.569	0.0172019
703.647	0.0172942
703.725	0.0173562
703.803	0.0176552
703.881	0.0176028
703.959	0.0175523
704.038	0.0173954
704.116	0.0173207
704.194	0.0170741
704.272	0.0170550
704.350	0.0166055
704.428	0.0164008
704.506	0.0160306
704.584	0.0159148
704.663	0.0154015
704.741	0.0151105
704.819	0.0147411
704.897	0.0142213
704.975	0.0140279
705.053	0.0139259
705.131	0.0135084
705.209	0.0134623
705.288	0.0134189
705.366	0.0134007
705.444	0.0133974
705.522	0.0134535
705.600	0.0134928
705.678	0.0135771
705.756	0.0136146
705.834	0.0136899
705.913	0.0139040
705.991	0.0139684
706.069	0.0139413
706.147	0.0139507
706.225	0.0139214
706.303	0.0138405
706.381	0.0140527
706.459	0.0141472
706.538	0.0141065
706.616	0.0142319
706.694	0.0144086
706.772	0.0145022
706.850	0.0146772
706.928	0.0149298
707.006	0.0151899
707.084	0.0155599
707.163	0.0155647
707.241	0.0157401
707.319	0.0157926
707.397	0.0159517
707.475	0.0159065
707.553	0.0160124
707.631	0.0159460
707.709	0.0157954
707.788	0.0156963
707.866	0.0156588
707.944	0.0154128
708.022	0.0153808
708.100	0.0154684
708.178	0.0151409
708.256	0.0150601
708.334	0.0151154
708.413	0.0150247
708.491	0.0153027
708.569	0.0153548
708.647	0.0154032
708.725	0.0154972
708.803	0.0157538
708.881	0.0160901
708.959	0.0161499
709.038	0.0165176
709.116	0.0167846
709.194	0.0168607
709.272	0.0169896
709.350	0.0171687
709.428	0.0171317
709.506	0.0172334
709.584	0.0172736
709.663	0.0171535
709.741	0.0169123
709.819	0.0168436
709.897	0.0167441
709.975	0.0164031
710.053	0.0161351
710.131	0.0160793
710.209	0.0155443
710.288	0.0152881
710.366	0.0148840
710.444	0.0147339
710.522	0.0144657
710.600	0.0142294
710.678	0.0142474
710.756	0.0137446
710.834	0.0135606
710.913	0.0134422
710.991	0.0134174
711.069	0.0135626
711.147	0.0136602
711.225	0.0138708
711.303	0.0141989
711.381	0.0143922
711.459	0.0146107
711.538	0.0150022
711.616	0.0151591
711.694	0.0152683
711.772	0.0155430
711.850	0.0155792
711.928	0.0156209
712.006	0.0154909
712.084	0.0153503
712.163	0.0151637
712.241	0.0149031
712.319	0.0145855
712.397	0.0140601
712.475	0.0136940
712.553	0.0133275
712.631	0.0129482
712.709	0.0125173
712.788	0.0122707
712.866	0.0120880
712.944	0.0120255
713.022	0.0118913
713.100	0.0119619
713.178	0.0121423
713.256	0.0125173
713.334	0.0128068
713.413	0.0132713
713.491	0.0137378
713.569	0.0142034
713.647	0.0148207
713.725	0.0153950
713.803	0.0160411
713.881	0.0164207
713.959	0.0171084
714.038	0.0176883
714.116	0.0180206
714.194	0.0185409
714.272	0.0189645
714.350	0.0192962
714.428	0.0193764
714.506	0.0194657
714.584	0.0196147
714.663	0.0195406
714.741	0.0194630
714.819	0.0191545
714.897	0.0188079
714.975	0.0185058
715.053	0.0181765
715.131	0.0178180
715.209	0.0172115
715.288	0.0167525
715.366	0.0165380
715.444	0.0160627
715.522	0.0156065
715.600	0.0152683
715.678	0.0148063
715.756	0.0143151
715.834	0.0143089
715.913	0.0140139
715.991	0.0137227
716.069	0.0134795
716.147	0.0132661
716.225	0.0131097
716.303	0.0128371
716.381	0.0126699
716.459	0.0124817
716.538	0.0122367
716.616	0.0122531
716.694	0.0123685
716.772	0.0122733
716.850	0.0123795
716.928	0.0123966
717.006	0.0124951
717.084	0.0128347
717.163	0.0130936
717.241	0.0134174
717.319	0.0135498
717.397	0.0138840
717.475	0.0141483
717.553	0.0143527
717.631	0.0144037
717.709	0.0147005
717.788	0.0149518
717.866	0.0149923
717.944	0.0150758
718.022	0.0151636
718.100	0.0150819
718.178	0.0153219
718.256	0.0153817
718.334	0.0153088
718.413	0.0154930
718.491	0.0156290
718.569	0.0157189
718.647	0.0159313
718.725	0.0160722
718.803	0.0161460
718.881	0.0163440
718.959	0.0162969
719.038	0.0163622
719.116	0.0163158
719.194	0.0162685
719.272	0.0162270
719.350	0.0162774
719.428	0.0160548
719.506	0.0160002
719.584	0.0159673
719.663	0.0158881
719.741	0.0156852
719.819	0.0156809
719.897	0.0156998
719.975	0.0154251
720.053	0.0154263
720.131	0.0153239
720.209	0.0152996
720.288	0.0149660
720.366	0.0146584
720.444	0.0146803
720.522	0.0144416
720.600	0.0143964
720.678	0.0142400
720.756	0.0141547
720.834	0.0140684
720.913	0.0140446
720.991	0.0137885
721.069	0.0140052
721.147	0.0141719
721.225	0.0144302
721.303	0.0147472
721.381	0.0149091
721.459	0.0153674
721.538	0.0155473
721.616	0.0158224
721.694	0.0160676
721.772	0.0161530
721.850	0.0164841
721.928	0.0165259
722.006	0.0162939
722.084	0.0164053
722.163	0.0163290
722.241	0.0161377
722.319	0.0160183
722.397	0.0158934
722.475	0.0158736
722.553	0.0157767
722.631	0.0156112
722.709	0.0155240
722.788	0.0155219
722.866	0.0155967
722.944	0.0154455
723.022	0.0152648
723.100	0.0150211
723.178	0.0148469
723.256	0.0146696
723.334	0.0144001
723.413	0.0141779
723.491	0.0139607
723.569	0.0135895
723.647	0.0133848
723.725	0.0130225
723.803	0.0126414
723.881	0.0125568
723.959	0.0125251
724.038	0.0124761
724.116	0.0122958
724.194	0.0122481
724.272	0.0124361
724.350	0.0126036
724.428	0.0128283
724.506	0.0131699
724.584	0.0135161
724.663	0.0138892
724.741	0.0143268
724.819	0.0147733
724.897	0.0152740
724.975	0.0156294
725.053	0.0160488
725.131	0.0163653
725.209	0.0165154
725.288	0.0169330
725.366	0.0169753
725.444	0.0172854
725.522	0.0171745
725.600	0.0175275
725.678	0.0177551
725.756	0.0177725
725.834	0.0177193
725.913	0.0177045
725.991	0.0176190
726.069	0.0176276
726.147	0.0172865
726.225	0.0172456
726.303	0.0169949
726.381	0.0168969
726.459	0.0165584
726.538	0.0164323
726.616	0.0162724
726.694	0.0159652
726.772	0.0157882
726.850	0.0156145
726.928	0.0154425
727.006	0.0152724
727.084	0.0150672
727.163	0.0147775
727.241	0.0147517
727.319	0.0146234
727.397	0.0145454
727.475	0.0142191
727.553	0.0141972
727.631	0.0140939
727.709	0.0136653
727.788	0.0138174
727.866	0.0136993
727.944	0.0136704
728.022	0.0137428
728.100	0.0137112
728.178	0.0136885
728.256	0.0138797
728.334	0.0139142
728.413	0.0139362
728.491	0.0139864
728.569	0.0141663
728.647	0.0142062
728.725	0.0142667
728.803	0.0142490
728.881	0.0143633
728.959	0.0142516
729.038	0.0144185
729.116	0.0145023
729.194	0.0145661
729.272	0.0147443
729.350	0.0149371
729.428	0.0150248
729.506	0.0151678
729.584	0.0152732
729.663	0.0154341
729.741	0.0156528
729.819	0.0157820
729.897	0.0159484
729.975	0.0161973
730.053	0.0162559
730.131	0.0162560
730.209	0.0162708
730.288	0.0162822
730.366	0.0162288
730.444	0.0161028
730.522	0.0160767
730.600	0.0159706
730.678	0.0159185
730.756	0.0155637
730.834	0.0155602
730.913	0.0154247
730.991	0.0153228
731.069	0.0154502
731.147	0.0154222
731.225	0.0153497
731.303	0.0153117
731.381	0.0152409
731.459	0.0154818
731.538	0.0154500
731.616	0.0155346
731.694	0.0154797
731.772	0.0156023
731.850	0.0155006
731.928	0.0156378
732.006	0.0155513
732.084	0.0153855
732.163	0.0152109
732.241	0.0151311
732.319	0.0150301
732.397	0.0150097
732.475	0.0150170
732.553	0.0148083
732.631	0.0149779
732.709	0.0148739
732.788	0.0149895
732.866	0.0150163
732.944	0.0151753
733.022	0.0152810
733.100	0.0153698
733.178	0.0155910
733.256	0.0155077
733.334	0.0155809
733.413	0.0158945
733.491	0.0157178
733.569	0.0159511
733.647	0.0159169
733.725	0.0159757
733.803	0.0160901
733.881	0.0159854
733.959	0.0161180
734.038	0.0160229
734.116	0.0159300
734.194	0.0158781
734.272	0.0157729
734.350	0.0154617
734.428	0.0153516
734.506	0.0150945
734.584	0.0147518
734.663	0.0145760
734.741	0.0143407
734.819	0.0140808
734.897	0.0138661
734.975	0.0138073
735.053	0.0137189
735.131	0.0136946
735.209	0.0137132
735.288	0.0139334
735.366	0.0139562
735.444	0.0141470
735.522	0.0142280
735.600	0.0142473
735.678	0.0142871
735.756	0.0144628
735.834	0.0143484
735.913	0.0144197
735.991	0.0144990
736.069	0.0144386
736.147	0.0144217
736.225	0.0145271
736.303	0.0145269
736.381	0.0145065
736.459	0.0146565
736.538	0.0150317
736.616	0.0151244
736.694	0.0152166
736.772	0.0155761
736.850	0.0158620
736.928	0.0161775
737.006	0.0162749
737.084	0.0165836
737.163	0.0166996
737.241	0.0168666
737.319	0.0169918
737.397	0.0168268
737.475	0.0168993
737.553	0.0168469
737.631	0.0168878
737.709	0.0168843
737.788	0.0166819
737.866	0.0165528
737.944	0.0164129
738.022	0.0163146
738.100	0.0160899
738.178	0.0158497
738.256	0.0156453
738.334	0.0154368
738.413	0.0153159
738.491	0.0149542
738.569	0.0148150
738.647	0.0145724
738.725	0.0144740
738.803	0.0142191
738.881	0.0142180
738.959	0.0140401
739.038	0.0140086
739.116	0.0139932
739.194	0.0141659
739.272	0.0140816
739.350	0.0139933
739.428	0.0140614
739.506	0.0141533
739.584	0.0141942
739.663	0.0142647
739.741	0.0144815
739.819	0.0146259
739.897	0.0146159
739.975	0.0147199
740.053	0.0148495
740.131	0.0148527
740.209	0.0149635
740.288	0.0151295
740.366	0.0150096
740.444	0.0152380
740.522	0.0152890
740.600	0.0153777
740.678	0.0152612
740.756	0.0152635
740.834	0.0152228
740.913	0.0152286
740.991	0.0150179
741.069	0.0149986
741.147	0.0148648
741.225	0.0148032
741.303	0.0146787
741.381	0.0146715
741.459	0.0148517
741.538	0.0146739
741.616	0.0148478
741.694	0.0147661
741.772	0.0149136
741.850	0.0151589
741.928	0.0150773
742.006	0.0151843
742.084	0.0153391
742.163	0.0154517
742.241	0.0155026
742.319	0.0154362
742.397	0.0154508
742.475	0.0153570
742.553	0.0153034
742.631	0.0153125
742.709	0.0151036
742.788	0.0150469
742.866	0.0150875
742.944	0.0149232
743.022	0.0148775
743.100	0.0147323
743.178	0.0148491
743.256	0.0148811
743.334	0.0150172
743.413	0.0151230
743.491	0.0152705
743.569	0.0152768
743.647	0.0153336
743.725	0.0156838
743.803	0.0157687
743.881	0.0158399
743.959	0.0159561
744.038	0.0161057
744.116	0.0160406
744.194	0.0159083
744.272	0.0161068
744.350	0.0157465
744.428	0.0156580
744.506	0.0158333
744.584	0.0155132
744.663	0.0153981
744.741	0.0154279
744.819	0.0153595
744.897	0.0152766
744.975	0.0152245
745.053	0.0152370
745.131	0.0152374
745.209	0.0152921
745.288	0.0152081
745.366	0.0151877
745.444	0.0152766
745.522	0.0151105
745.600	0.0153162
745.678	0.0151777
745.756	0.0151878
745.834	0.0150835
745.913	0.0151349
745.991	0.0149548
746.069	0.0149445
746.147	0.0149032
746.225	0.0146380
746.303	0.0146922
746.381	0.0148504
746.459	0.0149332
746.538	0.0147148
746.616	0.0147198
746.694	0.0149025
746.772	0.0150861
746.850	0.0149696
746.928	0.0150325
747.006	0.0150643
747.084	0.0150079
747.163	0.0149862
747.241	0.0146817
747.319	0.0148526
747.397	0.0149090
747.475	0.0147504
747.553	0.0145491
747.631	0.0143560
747.709	0.0145034
747.788	0.0144035
747.866	0.0144971
747.944	0.0144680
748.022	0.0146166
748.100	0.0147020
748.178	0.0150136
748.256	0.0148799
748.334	0.0151003
748.413	0.0151978
748.491	0.0152434
748.569	0.0153050
748.647	0.0152827
748.725	0.0154169
748.803	0.0155637
748.881	0.0157516
748.959	0.0157636
749.038	0.0158248
749.116	0.0158693
749.194	0.0159131
749.272	0.0159859
749.350	0.0160247
749.428	0.0159584
749.506	0.0160385
749.584	0.0160159
749.663	0.0159020
749.741	0.0158730
749.819	0.0157322
749.897	0.0158252
749.975	0.0156835
750.053	0.0155539
750.131	0.0154398
750.209	0.0154467
750.288	0.0153592
750.366	0.0153702
750.444	0.0153777
750.522	0.0151637
750.600	0.0152058
750.678	0.0151034
750.756	0.0149700
750.834	0.0150066
750.913	0.0150446
750.991	0.0150485
751.069	0.0151052
751.147	0.0149848
751.225	0.0149536
751.303	0.0149783
751.381	0.0150112
751.459	0.0150190
751.538	0.0150190
751.616	0.0151460
751.694	0.0150131
751.772	0.0151244
751.850	0.0151633
751.928	0.0153206
752.006	0.0152533
752.084	0.0151734
752.163	0.0153584
752.241	0.0153507
752.319	0.0153918
752.397	0.0155189
752.475	0.0155066
752.553	0.0153913
752.631	0.0154073
752.709	0.0153297
752.788	0.0153504
752.866	0.0151657
752.944	0.0152049
753.022	0.0150840
753.100	0.0151007
753.178	0.0150248
753.256	0.0149039
753.334	0.0148055
753.413	0.0148669
753.491	0.0149127
753.569	0.0147981
753.647	0.0149622
753.725	0.0150627
753.803	0.0150626
753.881	0.0151696
753.959	0.0152666
754.038	0.0153185
754.116	0.0153566
754.194	0.0154391
754.272	0.0154167
754.350	0.0153714
754.428	0.0154846
754.506	0.0155513
754.584	0.0155288
754.663	0.0155340
754.741	0.0155495
754.819	0.0155283
754.897	0.0153939
754.975	0.0155109
755.053	0.0154581
755.131	0.0153505
755.209	0.0154350
755.288	0.0153728
755.366	0.0152744
755.444	0.0152945
755.522	0.0151843
755.600	0.0151884
755.678	0.0151320
755.756	0.0150819
755.834	0.0149935
755.913	0.0150282
755.991	0.0150232
756.069	0.0150375
756.147	0.0151011
756.225	0.0150782
756.303	0.0150693
756.381	0.0152439
756.459	0.0153461
756.538	0.0154161
756.616	0.0155330
756.694	0.0155227
756.772	0.0156587
756.850	0.0156818
756.928	0.0158872
757.006	0.0160455
757.084	0.0160540
757.163	0.0160368
757.241	0.0159895
757.319	0.0159986
757.397	0.0159364
757.475	0.0158559
757.553	0.0156866
757.631	0.0156301
757.709	0.0156118
757.788	0.0153925
757.866	0.0152011
757.944	0.0149612
758.022	0.0147418
758.100	0.0146967
758.178	0.0147145
758.256	0.0144437
758.334	0.0144633
758.413	0.0144945
758.491	0.0143112
758.569	0.0142826
758.647	0.0143663
758.725	0.0145268
758.803	0.0145009
758.881	0.0147559
758.959	0.0147858
759.038	0.0151215
759.116	0.0151016
759.194	0.0151925
759.272	0.0154398
759.350	0.0154055
759.428	0.0152821
759.506	0.0154548
759.584	0.0154041
759.663	0.0153218
759.741	0.0155035
759.819	0.0153285
759.897	0.0153067
759.975	0.0152868
760.053	0.0152776
760.131	0.0153010
760.209	0.0152429
760.288	0.0152660
760.366	0.0152657
760.444	0.0152905
760.522	0.0151899
760.600	0.0152773
760.678	0.0152225
760.756	0.0153485
760.834	0.0152782
760.913	0.0152790
760.991	0.0153208
761.069	0.0151160
761.147	0.0151527
761.225	0.0149979
761.303	0.0150259
761.381	0.0150498
761.459	0.0149104
761.538	0.0148994
761.616	0.0148380
761.694	0.0148206
761.772	0.0147639
761.850	0.0147170
761.928	0.0145964
762.006	0.0145347
762.084	0.0146120
762.163	0.0146790
762.241	0.0147234
762.319	0.0145930
762.397	0.0148955
762.475	0.0148230
762.553	0.0149426
762.631	0.0150091
762.709	0.0151592
762.788	0.0151517
762.866	0.0152186
762.944	0.0154350
763.022	0.0155680
763.100	0.0156598
763.178	0.0154135
763.256	0.0155820
763.334	0.0154501
763.413	0.0154607
763.491	0.0153152
763.569	0.0154118
763.647	0.0153507
763.725	0.0152304
763.803	0.0152040
763.881	0.0151831
763.959	0.0151771
764.038	0.0151913
764.116	0.0152529
764.194	0.0151965
764.272	0.0152367
764.350	0.0153820
764.428	0.0153688
764.506	0.0153850
764.584	0.0154153
764.663	0.0154413
764.741	0.0154883
764.819	0.0155846
764.897	0.0155945
764.975	0.0156284
765.053	0.0156845
765.131	0.0155959
765.209	0.0155632
765.288	0.0155653
765.366	0.0155586
765.444	0.0154943
765.522	0.0154922
765.600	0.0153133
765.678	0.0151545
765.756	0.0151617
765.834	0.0150937
765.913	0.0148933
765.991	0.0146558
766.069	0.0146053
766.147	0.0143929
766.225	0.0144552
766.303	0.0144093
766.381	0.0143185
766.459	0.0142909
766.538	0.0143023
766.616	0.0144545
766.694	0.0143945
766.772	0.0143854
766.850	0.0144334
766.928	0.0146448
767.006	0.0147396
767.084	0.0148554
767.163	0.0148308
767.241	0.0150800
767.319	0.0152495
767.397	0.0152472
767.475	0.0152926
767.553	0.0155128
767.631	0.0154858
767.709	0.0154671
767.788	0.0153013
767.866	0.0152966
767.944	0.0154015
768.022	0.0152565
768.100	0.0153436
768.178	0.0153436
768.256	0.0153330
768.334	0.0153436
768.413	0.0153101
768.491	0.0153411
768.569	0.0154057
768.647	0.0153391
768.725	0.0154043
768.803	0.0155312
768.881	0.0153834
768.959	0.0155770
769.038	0.0157289
769.116	0.0156752
769.194	0.0156657
769.272	0.0156326
769.350	0.0157687
769.428	0.0156541
769.506	0.0156077
769.584	0.0154021
769.663	0.0154460
769.741	0.0154720
769.819	0.0153922
769.897	0.0153088
769.975	0.0153740
770.053	0.0150520
770.131	0.0149613
770.209	0.0150463
770.288	0.0148881
770.366	0.0149713
770.444	0.0148135
770.522	0.0149463
770.600	0.0147005
770.678	0.0147889
770.756	0.0149163
770.834	0.0148506
770.913	0.0149043
770.991	0.0150040
771.069	0.0150857
771.147	0.0152386
771.225	0.0152512
771.303	0.0151121
771.381	0.0152178
771.459	0.0151893
771.538	0.0152274
771.616	0.0152941
771.694	0.0153082
771.772	0.0152142
771.850	0.0151315
771.928	0.0149753
772.006	0.0151249
772.084	0.0149059
772.163	0.0149654
772.241	0.0149619
772.319	0.0149212
772.397	0.0150686
772.475	0.0149525
772.553	0.0150484
772.631	0.0152292
772.709	0.0150946
772.788	0.0154295
772.866	0.0153391
772.944	0.0152747
773.022	0.0155453
773.100	0.0156220
773.178	0.0157384
773.256	0.0156657
773.334	0.0155153
773.413	0.0155767
773.491	0.0155044
773.569	0.0156096
773.647	0.0153507
773.725	0.0153114
773.803	0.0151582
773.881	0.0150616
773.959	0.0150840
774.038	0.0148800
774.116	0.0148463
774.194	0.0148849
774.272	0.0148125
774.350	0.0148962
774.428	0.0149152
774.506	0.0152412
774.584	0.0153368
774.663	0.0153448
774.741	0.0155159
774.819	0.0155314
774.897	0.0157814
774.975	0.0160664
775.053	0.0160605
775.131	0.0159877
775.209	0.0158984
775.288	0.0160600
775.366	0.0158901
775.444	0.0158727
775.522	0.0158064
775.600	0.0156412
775.678	0.0154243
775.756	0.0152772
775.834	0.0152041
775.913	0.0151068
775.991	0.0149736
776.069	0.0147792
776.147	0.0148078
776.225	0.0146089
776.303	0.0145005
776.381	0.0145584
776.459	0.0144488
776.538	0.0144321
776.616	0.0144150
776.694	0.0144035
776.772	0.0141907
776.850	0.0143304
776.928	0.0146500
777.006	0.0146326
777.084	0.0146970
777.163	0.0148862
777.241	0.0149775
777.319	0.0151769
777.397	0.0153171
777.475	0.0154240
777.553	0.0156312
777.631	0.0157262
777.709	0.0157846
777.788	0.0156714
777.866	0.0156680
777.944	0.0158282
778.022	0.0157687
778.100	0.0157543
778.178	0.0155375
778.256	0.0154586
778.334	0.0154471
778.413	0.0152847
778.491	0.0153440
778.569	0.0151392
778.647	0.0150239
778.725	0.0150106
778.803	0.0149248
778.881	0.0149615
778.959	0.0150475
779.038	0.0149342
779.116	0.0150220
779.194	0.0150262
779.272	0.0152767
779.350	0.0152562
779.428	0.0152360
779.506	0.0151974
779.584	0.0152676
779.663	0.0155303
779.741	0.0155905
779.819	0.0155518
779.897	0.0155820
779.975	0.0156798
780.053	0.0155933
780.131	0.0156205
780.209	0.0156895
780.288	0.0155613
780.366	0.0154820
780.444	0.0152801
780.522	0.0154440
780.600	0.0154566
780.678	0.0152496
780.756	0.0152483
780.834	0.0150597
780.913	0.0149981
780.991	0.0150107
781.069	0.0148177
781.147	0.0147829
781.225	0.0146455
781.303	0.0146585
781.381	0.0145501
781.459	0.0145429
781.538	0.0145739
781.616	0.0144364
781.694	0.0144086
781.772	0.0145254
781.850	0.0145630
781.928	0.0146114
782.006	0.0147099
782.084	0.0148014
782.163	0.0146768
782.241	0.0146976
782.319	0.0148644
782.397	0.0148295
782.475	0.0148908
782.553	0.0149470
782.631	0.0151508
782.709	0.0151935
782.788	0.0151792
782.866	0.0152353
782.944	0.0154250
783.022	0.0153413
783.100	0.0154707
783.178	0.0154728
783.256	0.0154579
783.334	0.0155443
783.413	0.0155199
783.491	0.0155707
783.569	0.0155598
783.647	0.0154518
783.725	0.0154794
783.803	0.0152995
783.881	0.0151434
783.959	0.0149635
784.038	0.0147942
784.116	0.0147746
784.194	0.0147228
784.272	0.0145276
784.350	0.0146382
784.428	0.0146116
784.506	0.0145837
784.584	0.0145283
784.663	0.0146961
784.741	0.0146363
784.819	0.0147041
784.897	0.0149366
784.975	0.0150145
785.053	0.0151747
785.131	0.0152430
785.209	0.0152219
785.288	0.0151927
785.366	0.0153396
785.444	0.0153990
785.522	0.0154423
785.600	0.0154403
785.678	0.0153590
785.756	0.0153854
785.834	0.0152296
785.913	0.0152850
785.991	0.0151911
786.069	0.0152256
786.147	0.0150800
786.225	0.0150532
786.303	0.0150959
786.381	0.0151176
786.459	0.0149683
786.538	0.0149125
786.616	0.0150079
786.694	0.0149294
786.772	0.0149058
786.850	0.0149020
786.928	0.0148560
787.006	0.0148322
787.084	0.0149314
787.163	0.0149509
787.241	0.0150826
787.319	0.0150893
787.397	0.0149699
787.475	0.0152187
787.553	0.0152215
787.631	0.0151746
787.709	0.0153992
787.788	0.0155376
787.866	0.0154674
787.944	0.0155460
788.022	0.0155848
788.100	0.0156538
788.178	0.0157020
788.256	0.0156204
788.334	0.0155827
788.413	0.0155740
788.491	0.0155829
788.569	0.0155025
788.647	0.0155297
788.725	0.0154738
788.803	0.0152852
788.881	0.0152307
788.959	0.0152133
789.038	0.0151846
789.116	0.0150609
789.194	0.0150565
789.272	0.0148888
789.350	0.0148931
789.428	0.0149198
789.506	0.0149005
789.584	0.0147476
789.663	0.0147015
789.741	0.0146844
789.819	0.0150207
789.897	0.0150047
789.975	0.0149289
790.053	0.0150301
790.131	0.0148672
790.209	0.0150303
790.288	0.0150653
790.366	0.0152079
790.444	0.0151138
790.522	0.0150833
790.600	0.0151746
790.678	0.0151166
790.756	0.0152257
790.834	0.0152467
790.913	0.0151958
790.991	0.0149393
791.069	0.0151562
791.147	0.0151820
791.225	0.0150191
791.303	0.0151604
791.381	0.0150117
791.459	0.0148255
791.538	0.0149191
791.616	0.0148637
791.694	0.0148970
791.772	0.0147967
791.850	0.0150385
791.928	0.0149570
792.006	0.0149760
792.084	0.0152308
792.163	0.0151466
792.241	0.0151300
792.319	0.0152055
792.397	0.0153744
792.475	0.0153667
792.553	0.0152639
792.631	0.0154440
792.709	0.0154530
792.788	0.0154118
792.866	0.0155180
792.944	0.0154465
793.022	0.0153458
793.100	0.0155733
793.178	0.0153800
793.256	0.0153956
793.334	0.0153782
793.413	0.0155114
793.491	0.0155574
793.569	0.0156721
793.647	0.0155220
793.725	0.0156467
793.803	0.0157600
793.881	0.0158228
793.959	0.0156934
794.038	0.0158018
794.116	0.0159196
794.194	0.0158816
794.272	0.0158666
794.350	0.0157339
794.428	0.0158218
794.506	0.0155638
794.584	0.0154953
794.663	0.0154959
794.741	0.0154752
794.819	0.0154021
794.897	0.0153918
794.975	0.0153815
795.053	0.0153811
795.131	0.0152235
795.209	0.0152280
795.288	0.0151760
795.366	0.0151580
795.444	0.0150867
795.522	0.0149869
795.600	0.0146645
795.678	0.0146468
795.756	0.0145508
795.834	0.0144943
795.913	0.0144090
795.991	0.0143256
796.069	0.0143146
796.147	0.0144008
796.225	0.0143610
796.303	0.0143623
796.381	0.0144941
796.459	0.0144881
796.538	0.0144416
796.616	0.0145070
796.694	0.0147000
796.772	0.0149157
796.850	0.0149725
796.928	0.0148981
797.006	0.0150021
797.084	0.0152425
797.163	0.0152380
797.241	0.0153103
797.319	0.0154222
797.397	0.0152456
797.475	0.0153234
797.553	0.0155505
797.631	0.0154417
797.709	0.0154682
797.788	0.0154589
797.866	0.0155702
797.944	0.0156421
798.022	0.0155747
798.100	0.0155268
798.178	0.0154005
798.256	0.0156703
798.334	0.0155695
798.413	0.0153290
798.491	0.0153913
798.569	0.0154214
798.647	0.0152892
798.725	0.0152145
798.803	0.0154415
798.881	0.0153460
798.959	0.0152511
799.038	0.0152233
799.116	0.0151633
799.194	0.0153628
799.272	0.0152561
799.350	0.0152648
799.428	0.0152926
799.506	0.0152966
799.584	0.0154297
799.663	0.0153144
799.741	0.0154170
799.819	0.0154414
799.897	0.0152783
799.975	0.0153163
800.053	0.0153994
800.131	0.0153920
800.209	0.0152649
800.288	0.0152647
800.366	0.0152997
800.444	0.0153055
800.522	0.0152901
800.600	0.0152792
800.678	0.0152786
800.756	0.0152605
800.834	0.0153143
800.913	0.0153897
800.991	0.0153320
801.069	0.0153686
801.147	0.0154985
801.225	0.0154577
801.303	0.0152592
801.381	0.0151749
801.459	0.0152927
801.538	0.0151250
801.616	0.0150217
801.694	0.0149567
801.772	0.0148609
801.850	0.0148681
801.928	0.0148073
802.006	0.0145769
802.084	0.0145821
802.163	0.0146652
802.241	0.0144643
802.319	0.0146726
802.397	0.0146180
802.475	0.0147478
802.553	0.0146037
802.631	0.0146418
802.709	0.0148935
802.788	0.0148211
802.866	0.0149325
802.944	0.0150442
803.022	0.0149104
803.100	0.0150346
803.178	0.0150344
803.256	0.0150937
803.334	0.0151619
803.413	0.0152060
803.491	0.0152477
803.569	0.0152412
803.647	0.0152247
803.725	0.0153815
803.803	0.0153187
803.881	0.0152567
803.959	0.0154935
804.038	0.0155392
804.116	0.0154254
804.194	0.0154314
804.272	0.0152701
804.350	0.0154126
804.428	0.0153946
804.506	0.0153951
804.584	0.0151779
804.663	0.0151457
804.741	0.0149673
804.819	0.0149390
804.897	0.0149976
804.975	0.0148404
805.053	0.0149092
805.131	0.0148852
805.209	0.0149034
805.288	0.0149123
805.366	0.0150754
805.444	0.0150216
805.522	0.0151517
805.600	0.0152825
805.678	0.0153040
805.756	0.0151893
805.834	0.0151746
805.913	0.0153571
805.991	0.0153461
806.069	0.0152496
806.147	0.0152599
806.225	0.0152584
806.303	0.0151872
806.381	0.0151721
806.459	0.0150695
806.538	0.0151024
806.616	0.0149960
806.694	0.0150443
806.772	0.0149999
806.850	0.0148820
806.928	0.0150215
807.006	0.0150974
807.084	0.0148659
807.163	0.0147339
807.241	0.0149461
807.319	0.0148936
807.397	0.0147942
807.475	0.0147920
807.553	0.0149429
807.631	0.0149226
807.709	0.0148853
807.788	0.0149576
807.866	0.0149097
807.944	0.0149293
808.022	0.0150805
808.100	0.0149001
808.178	0.0150127
808.256	0.0149598
808.334	0.0149866
808.413	0.0151404
808.491	0.0149780
808.569	0.0150816
808.647	0.0150204
808.725	0.0148732
808.803	0.0147894
808.881	0.0148730
808.959	0.0148580
809.038	0.0148266
809.116	0.0148380
809.194	0.0149151
809.272	0.0148234
809.350	0.0148416
809.428	0.0148698
809.506	0.0148956
809.584	0.0149352
809.663	0.0150375
809.741	0.0151257
809.819	0.0151820
809.897	0.0153455
809.975	0.0153691
810.053	0.0153944
810.131	0.0155684
810.209	0.0156237
810.288	0.0155497
810.366	0.0157262
810.444	0.0156384
810.522	0.0157233
810.600	0.0156607
810.678	0.0155878
810.756	0.0155737
810.834	0.0157048
810.913	0.0156509
810.991	0.0155121
811.069	0.0154288
811.147	0.0155186
811.225	0.0154678
811.303	0.0153929
811.381	0.0152489
811.459	0.0152206
811.538	0.0153388
811.616	0.0152827
811.694	0.0152950
811.772	0.0152456
811.850	0.0152581
811.928	0.0151738
812.006	0.0153028
812.084	0.0149561
812.163	0.0149685
812.241	0.0150380
812.319	0.0151552
812.397	0.0148998
812.475	0.0149924
812.553	0.0149815
812.631	0.0150085
812.709	0.0149431
812.788	0.0148454
812.866	0.0150451
812.944	0.0150121
813.022	0.0148228
813.100	0.0147342
813.178	0.0147864
813.256	0.0149001
813.334	0.0147048
813.413	0.0146635
813.491	0.0146805
813.569	0.0147395
813.647	0.0146500
813.725	0.0145907
813.803	0.0145969
813.881	0.0147422
813.959	0.0148167
814.038	0.0147712
814.116	0.0147672
814.194	0.0149762
814.272	0.0150269
814.350	0.0151051
814.428	0.0151817
814.506	0.0151716
814.584	0.0153680
814.663	0.0153180
814.741	0.0154161
814.819	0.0154044
814.897	0.0154800
814.975	0.0155858
815.053	0.0154248
815.131	0.0154774
815.209	0.0155803
815.288	0.0155311
815.366	0.0157139
815.444	0.0154937
815.522	0.0154295
815.600	0.0155042
815.678	0.0154932
815.756	0.0154712
815.834	0.0155940
815.913	0.0154816
815.991	0.0155417
816.069	0.0155587
816.147	0.0154301
816.225	0.0154530
816.303	0.0153658
816.381	0.0152514
816.459	0.0152914
816.538	0.0153036
816.616	0.0153126
816.694	0.0152369
816.772	0.0153614
816.850	0.0152545
816.928	0.0153201
817.006	0.0153249
817.084	0.0153087
817.163	0.0152399
817.241	0.0152104
817.319	0.0152318
817.397	0.0152304
817.475	0.0151723
817.553	0.0153677
817.631	0.0151362
817.709	0.0149652
817.788	0.0151415
817.866	0.0151008
817.944	0.0152307
818.022	0.0153304
818.100	0.0152901
818.178	0.0151768
818.256	0.0152618
818.334	0.0151557
818.413	0.0153166
818.491	0.0152932
818.569	0.0151675
818.647	0.0153123
818.725	0.0154243
818.803	0.0153612
818.881	0.0152375
818.959	0.0152458
819.038	0.0152254
819.116	0.0153498
819.194	0.0153394
819.272	0.0153688
819.350	0.0151142
819.428	0.0151286
819.506	0.0150314
819.584	0.0149261
819.663	0.0149609
819.741	0.0148101
819.819	0.0147913
819.897	0.0148829
819.975	0.0146651
820.053	0.0145948
820.131	0.0146922
820.209	0.0146082
820.288	0.0145588
820.366	0.0143964
820.444	0.0146586
820.522	0.0145967
820.600	0.0146576
820.678	0.0147427
820.756	0.0148138
820.834	0.0149020
820.913	0.0149162
820.991	0.0150983
821.069	0.0150427
821.147	0.0149159
821.225	0.0150845
821.303	0.0152569
821.381	0.0151891
821.459	0.0151395
821.538	0.0151133
821.616	0.0152960
821.694	0.0153516
821.772	0.0152940
821.850	0.0155451
821.928	0.0155274
822.006	0.0154507
822.084	0.0155620
822.163	0.0155320
822.241	0.0154990
822.319	0.0156712
822.397	0.0154905
822.475	0.0155105
822.553	0.0154559
822.631	0.0155220
822.709	0.0154071
822.788	0.0154401
822.866	0.0152821
822.944	0.0152289
823.022	0.0151360
823.100	0.0153010
823.178	0.0152840
823.256	0.0151709
823.334	0.0151799
823.413	0.0151324
823.491	0.0153562
823.569	0.0153664
823.647	0.0152216
823.725	0.0152205
823.803	0.0151557
823.881	0.0153044
823.959	0.0152158
824.038	0.0151414
824.116	0.0151186
824.194	0.0151807
824.272	0.0153289
824.350	0.0151646
824.428	0.0150928
824.506	0.0150888
824.584	0.0150656
824.663	0.0151660
824.741	0.0152682
824.819	0.0150623
824.897	0.0150323
824.975	0.0151803
825.053	0.0151217
825.131	0.0149234
825.209	0.0149440
825.288	0.0149401
825.366	0.0150045
825.444	0.0149466
825.522	0.0150136
825.600	0.0148780
825.678	0.0149135
825.756	0.0150648
825.834	0.0148916
825.913	0.0151000
825.991	0.0150990
826.069	0.0150867
826.147	0.0153911
826.225	0.0151751
826.303	0.0151505
826.381	0.0152544
826.459	0.0152598
826.538	0.0153699
826.616	0.0154243
826.694	0.0152664
826.772	0.0153160
826.850	0.0152394
826.928	0.0152085
827.006	0.0153099
827.084	0.0153850
827.163	0.0153886
827.241	0.0153770
827.319	0.0154169
827.397	0.0154662
827.475	0.0155260
827.553	0.0153896
827.631	0.0154924
827.709	0.0154603
827.788	0.0153838
827.866	0.0151959
827.944	0.0154789
828.022	0.0154651
828.100	0.0153629
828.178	0.0153691
828.256	0.0154507
828.334	0.0153119
828.413	0.0153578
828.491	0.0152734
828.569	0.0153506
828.647	0.0152932
828.725	0.0152264
828.803	0.0151379
828.881	0.0151640
828.959	0.0152287
829.038	0.0150388
829.116	0.0151303
829.194	0.0151251
829.272	0.0150121
829.350	0.0151716
829.428	0.0150453
829.506	0.0150270
829.584	0.0150351
829.663	0.0152381
829.741	0.0151089
829.819	0.0151284
829.897	0.0151196
829.975	0.0152458
830.053	0.0152532
830.131	0.0151115
830.209	0.0151594
830.288	0.0152212
830.366	0.0152101
830.444	0.0152324
830.522	0.0153815
830.600	0.0153600
830.678	0.0153551
830.756	0.0154156
830.834	0.0153812
830.913	0.0153596
830.991	0.0152893
831.069	0.0153660
831.147	0.0153909
831.225	0.0153337
831.303	0.0152888
831.381	0.0151842
831.459	0.0152174
831.538	0.0152318
831.616	0.0151637
831.694	0.0152236
831.772	0.0150214
831.850	0.0151013
831.928	0.0149484
832.006	0.0152052
832.084	0.0151593
832.163	0.0151128
832.241	0.0151022
832.319	0.0150993
832.397	0.0150420
832.475	0.0150687
832.553	0.0150757
832.631	0.0152301
832.709	0.0153970
832.788	0.0154259
832.866	0.0154224
832.944	0.0155198
833.022	0.0154057
833.100	0.0153481
833.178	0.0154638
833.256	0.0154244
833.334	0.0154450
833.413	0.0155129
833.491	0.0154950
833.569	0.0154256
833.647	0.0153218
833.725	0.0155308
833.803	0.0155583
833.881	0.0155232
833.959	0.0154035
834.038	0.0154999
834.116	0.0154460
834.194	0.0154266
834.272	0.0155407
834.350	0.0154441
834.428	0.0153327
834.506	0.0154269
834.584	0.0153529
834.663	0.0151550
834.741	0.0151311
834.819	0.0152636
834.897	0.0151823
834.975	0.0152052
835.053	0.0151721
835.131	0.0150461
835.209	0.0149328
835.288	0.0149300
835.366	0.0150904
835.444	0.0148870
835.522	0.0150436
835.600	0.0150664
835.678	0.0148605
835.756	0.0148174
835.834	0.0149199
835.913	0.0149982
835.991	0.0149467
836.069	0.0149947
836.147	0.0149538
836.225	0.0150114
836.303	0.0149503
836.381	0.0149845
836.459	0.0149067
836.538	0.0149001
836.616	0.0149693
836.694	0.0149330
836.772	0.0148991
836.850	0.0150273
836.928	0.0148773
837.006	0.0148859
837.084	0.0148399
837.163	0.0148115
837.241	0.0148763
837.319	0.0149582
837.397	0.0150458
837.475	0.0149474
837.553	0.0149601
837.631	0.0149622
837.709	0.0150845
837.788	0.0151255
837.866	0.0150040
837.944	0.0149175
838.022	0.0150554
838.100	0.0151392
838.178	0.0150760
838.256	0.0149608
838.334	0.0149612
838.413	0.0149458
838.491	0.0151185
838.569	0.0151803
838.647	0.0152834
838.725	0.0151607
838.803	0.0151871
838.881	0.0152066
838.959	0.0152435
839.038	0.0153732
839.116	0.0152818
839.194	0.0153284
839.272	0.0151960
839.350	0.0152534
839.428	0.0153140
839.506	0.0153411
839.584	0.0153636
839.663	0.0153046
839.741	0.0151651
839.819	0.0151855
839.897	0.0152781
839.975	0.0152102
840.053	0.0152569
840.131	0.0153013
840.209	0.0152719
840.288	0.0152690
840.366	0.0151864
840.444	0.0151550
840.522	0.0151463
840.600	0.0151131
840.678	0.0150195
840.756	0.0152214
840.834	0.0150493
840.913	0.0149783
840.991	0.0150253
841.069	0.0149257
841.147	0.0149747
841.225	0.0148799
841.303	0.0149801
841.381	0.0148942
841.459	0.0148576
841.538	0.0149360
841.616	0.0149218
841.694	0.0151006
841.772	0.0151328
841.850	0.0150086
841.928	0.0151784
842.006	0.0151950
842.084	0.0152689
842.163	0.0151665
842.241	0.0153580
842.319	0.0152663
842.397	0.0151379
842.475	0.0151437
842.553	0.0149873
842.631	0.0151309
842.709	0.0151204
842.788	0.0150083
842.866	0.0151980
842.944	0.0150500
843.022	0.0151817
843.100	0.0151295
843.178	0.0151369
843.256	0.0149774
843.334	0.0150063
843.413	0.0150107
843.491	0.0150018
843.569	0.0150010
843.647	0.0150060
843.725	0.0150368
843.803	0.0149055
843.881	0.0149950
843.959	0.0151434
844.038	0.0150448
844.116	0.0151490
844.194	0.0151696
844.272	0.0153034
844.350	0.0151411
844.428	0.0152700
844.506	0.0151458
844.584	0.0152370
844.663	0.0152555
844.741	0.0152095
844.819	0.0152573
844.897	0.0152908
844.975	0.0151055
845.053	0.0151135
845.131	0.0150929
845.209	0.0150615
845.288	0.0151279
845.366	0.0151018
845.444	0.0150497
845.522	0.0151164
845.600	0.0149333
845.678	0.0150558
845.756	0.0150829
845.834	0.0149884
845.913	0.0151555
845.991	0.0150858
846.069	0.0150033
846.147	0.0152862
846.225	0.0151802
846.303	0.0150181
846.381	0.0151820
846.459	0.0152547
846.538	0.0152433
846.616	0.0153782
846.694	0.0153204
846.772	0.0152532
846.850	0.0152657
846.928	0.0153128
847.006	0.0153442
847.084	0.0153904
847.163	0.0153008
847.241	0.0152309
847.319	0.0152703
847.397	0.0152821
847.475	0.0154077
847.553	0.0153561
847.631	0.0153730
847.709	0.0154909
847.788	0.0153491
847.866	0.0153136
847.944	0.0153844
848.022	0.0153732
848.100	0.0152234
848.178	0.0151798
848.256	0.0152450
848.334	0.0154224
848.413	0.0153614
848.491	0.0151776
848.569	0.0153333
848.647	0.0152937
848.725	0.0153001
848.803	0.0151519
848.881	0.0151266
848.959	0.0152768
849.038	0.0152900
849.116	0.0152781
849.194	0.0152304
849.272	0.0151065
849.350	0.0152850
849.428	0.0150628
849.506	0.0151516
849.584	0.0150423
849.663	0.0150852
849.741	0.0149964
849.819	0.0149463
849.897	0.0150044
849.975	0.0150610
850.053	0.0150349
850.131	0.0150407
850.209	0.0152604
850.288	0.0150533
850.366	0.0151402
850.444	0.0151689
850.522	0.0153995
850.600	0.0153929
850.678	0.0153169
850.756	0.0153858
850.834	0.0154440
850.913	0.0156424
850.991	0.0154600
851.069	0.0156146
851.147	0.0154564
851.225	0.0155360
851.303	0.0155338
851.381	0.0154989
851.459	0.0154796
851.538	0.0153871
851.616	0.0154552
851.694	0.0153889
851.772	0.0153515
851.850	0.0154549
851.928	0.0152735
852.006	0.0154068
852.084	0.0153294
852.163	0.0153027
852.241	0.0152644
852.319	0.0152467
852.397	0.0153964
852.475	0.0152924
852.553	0.0153374
852.631	0.0154935
852.709	0.0153244
852.788	0.0153033
852.866	0.0153736
852.944	0.0153792
853.022	0.0153726
853.100	0.0153131
853.178	0.0153364
853.256	0.0153329
853.334	0.0152213
853.413	0.0153667
853.491	0.0151504
853.569	0.0151302
853.647	0.0152195
853.725	0.0151837
853.803	0.0152251
853.881	0.0152718
853.959	0.0150105
854.038	0.0149332
854.116	0.0152161
854.194	0.0151083
854.272	0.0150964
854.350	0.0151448
854.428	0.0152598
854.506	0.0151576
854.584	0.0151693
854.663	0.0151125
854.741	0.0150905
854.819	0.0151463
854.897	0.0153178
854.975	0.0152792
855.053	0.0151613
855.131	0.0152209
855.209	0.0152439
855.288	0.0151999
855.366	0.0154138
855.444	0.0153339
855.522	0.0153092
855.600	0.0153616
855.678	0.0154372
855.756	0.0153039
855.834	0.0152090
855.913	0.0153004
855.991	0.0153961
856.069	0.0153971
856.147	0.0152512
856.225	0.0153761
856.303	0.0153930
856.381	0.0153475
856.459	0.0152998
856.538	0.0152664
856.616	0.0154675
856.694	0.0153226
856.772	0.0154057
856.850	0.0154749
856.928	0.0154777
857.006	0.0155032
857.084	0.0152617
857.163	0.0154932
857.241	0.0155335
857.319	0.0154898
857.397	0.0152654
857.475	0.0154127
857.553	0.0154229
857.631	0.0153771
857.709	0.0154395
857.788	0.0153327
857.866	0.0151875
857.944	0.0152470
858.022	0.0152576
858.100	0.0152961
858.178	0.0152174
858.256	0.0152160
858.334	0.0151631
858.413	0.0151444
858.491	0.0151049
858.569	0.0151537
858.647	0.0151347
858.725	0.0150505
858.803	0.0149800
858.881	0.0150525
858.959	0.0151295
859.038	0.0150669
859.116	0.0150193
859.194	0.0151348
859.272	0.0150616
859.350	0.0150825
859.428	0.0150551
859.506	0.0150051
859.584	0.0149551
859.663	0.0150053
859.741	0.0149319
859.819	0.0148874
859.897	0.0150954
859.975	0.0150269
860.053	0.0151746
860.131	0.0152132
860.209	0.0149911
860.288	0.0151156
860.366	0.0151508
860.444	0.0151275
860.522	0.0150528
860.600	0.0151418
860.678	0.0151777
860.756	0.0150921
860.834	0.0152589
860.913	0.0152625
860.991	0.0151584
861.069	0.0151082
861.147	0.0151680
861.225	0.0152007
861.303	0.0151813
861.381	0.0152869
861.459	0.0151765
861.538	0.0151030
861.616	0.0151808
861.694	0.0150920
861.772	0.0150521
861.850	0.0151694
861.928	0.0151701
862.006	0.0150476
862.084	0.0149618
862.163	0.0149978
862.241	0.0148669
862.319	0.0150600
862.397	0.0150299
862.475	0.0149195
862.553	0.0148742
862.631	0.0149065
862.709	0.0148477
862.788	0.0147205
862.866	0.0149116
862.944	0.0149197
863.022	0.0149028
863.100	0.0148163
863.178	0.0148569
863.256	0.0149178
863.334	0.0148050
863.413	0.0150139
863.491	0.0150076
863.569	0.0148865
863.647	0.0149000
863.725	0.0150027
863.803	0.0150402
863.881	0.0150632
863.959	0.0150833
864.038	0.0150312
864.116	0.0152976
864.194	0.0151414
864.272	0.0150946
864.350	0.0152846
864.428	0.0152905
864.506	0.0151744
864.584	0.0152802
864.663	0.0153958
864.741	0.0152345
864.819	0.0151506
864.897	0.0150942
864.975	0.0152342
865.053	0.0152286
865.131	0.0151416
865.209	0.0150761
865.288	0.0149885
865.366	0.0150238
865.444	0.0149311
865.522	0.0148833
865.600	0.0149560
865.678	0.0151524
865.756	0.0150281
865.834	0.0149521
865.913	0.0149351
865.991	0.0148711
866.069	0.0149032
866.147	0.0149219
866.225	0.0150037
866.303	0.0147958
866.381	0.0148475
866.459	0.0149045
866.538	0.0150105
866.616	0.0150290
866.694	0.0149267
866.772	0.0147485
866.850	0.0149255
866.928	0.0149134
867.006	0.0149221
867.084	0.0149612
867.163	0.0150317
867.241	0.0150091
867.319	0.0151646
867.397	0.0150739
867.475	0.0148463
867.553	0.0150763
867.631	0.0152888
867.709	0.0151028
867.788	0.0150357
867.866	0.0151118
867.944	0.0151279
868.022	0.0150341
868.100	0.0149601
868.178	0.0150503
868.256	0.0151337
868.334	0.0149854
868.413	0.0149269
868.491	0.0151078
868.569	0.0152221
868.647	0.0150941
868.725	0.0151440
868.803	0.0151270
868.881	0.0151009
868.959	0.0151231
869.038	0.0152462
869.116	0.0153069
869.194	0.0151398
869.272	0.0151689
869.350	0.0152866
869.428	0.0152465
869.506	0.0152268
869.584	0.0152802
869.663	0.0151965
869.741	0.0152381
869.819	0.0153500
869.897	0.0151810
869.975	0.0152179
870.053	0.0151209
870.131	0.0151158
870.209	0.0151752
870.288	0.0152615
870.366	0.0152314
870.444	0.0151974
870.522	0.0150684
870.600	0.0151297
870.678	0.0152154
870.756	0.0151005
870.834	0.0151320
870.913	0.0152397
870.991	0.0151836
871.069	0.0151899
871.147	0.0151534
871.225	0.0151934
871.303	0.0152357
871.381	0.0151456
871.459	0.0150484
871.538	0.0151342
871.616	0.0151453
871.694	0.0149733
871.772	0.0151465
871.850	0.0151535
871.928	0.0151460
872.006	0.0151550
872.084	0.0149965
872.163	0.0151311
872.241	0.0151210
872.319	0.0150502
872.397	0.0150110
872.475	0.0152453
872.553	0.0151859
872.631	0.0151541
872.709	0.0151711
872.788	0.0151361
872.866	0.0151098
872.944	0.0151415
873.022	0.0151045
873.100	0.0151852
873.178	0.0151989
873.256	0.0152505
873.334	0.0150962
873.413	0.0151934
873.491	0.0151920
873.569	0.0152912
873.647	0.0152195
873.725	0.0152187
873.803	0.0153675
873.881	0.0153099
873.959	0.0154029
874.038	0.0154792
874.116	0.0154002
874.194	0.0153859
874.272	0.0152274
874.350	0.0153001
874.428	0.0154845
874.506	0.0153309
874.584	0.0153310
874.663	0.0152961
874.741	0.0154642
874.819	0.0154553
874.897	0.0151987
874.975	0.0152055
875.053	0.0152368
875.131	0.0154520
875.209	0.0153102
875.288	0.0154089
875.366	0.0152727
875.444	0.0151021
875.522	0.0152985
875.600	0.0153071
875.678	0.0152316
875.756	0.0153117
875.834	0.0153979
875.913	0.0153213
875.991	0.0153097
876.069	0.0153655
876.147	0.0153697
876.225	0.0152930
876.303	0.0154665
876.381	0.0154490
876.459	0.0153104
876.538	0.0153500
876.616	0.0152875
876.694	0.0154070
876.772	0.0154095
876.850	0.0155701
876.928	0.0154019
877.006	0.0151840
877.084	0.0152474
877.163	0.0151636
877.241	0.0152511
877.319	0.0151807
877.397	0.0151298
877.475	0.0150983
877.553	0.0150399
877.631	0.0151207
877.709	0.0149384
877.788	0.0149206
877.866	0.0148877
877.944	0.0150472
878.022	0.0150046
878.100	0.0148126
878.178	0.0149911
878.256	0.0149195
878.334	0.0148550
878.413	0.0149421
878.491	0.0149559
878.569	0.0149792
878.647	0.0150179
878.725	0.0150703
878.803	0.0150751
878.881	0.0149779
878.959	0.0150692
879.038	0.0152479
879.116	0.0149838
879.194	0.0150305
879.272	0.0152055
879.350	0.0151910
879.428	0.0151157
879.506	0.0152118
879.584	0.0152157
879.663	0.0150301
879.741	0.0151455
879.819	0.0152180
879.897	0.0152613
879.975	0.0152602
880.053	0.0153030
880.131	0.0152918
880.209	0.0153256
880.288	0.0152392
880.366	0.0152625
880.444	0.0152947
880.522	0.0152258
880.600	0.0153498
880.678	0.0152988
880.756	0.0152972
880.834	0.0153776
880.913	0.0151606
880.991	0.0151939
881.069	0.0151922
881.147	0.0151031
881.225	0.0151398
881.303	0.0151454
881.381	0.0150697
881.459	0.0151599
881.538	0.0150854
881.616	0.0150435
881.694	0.0149367
881.772	0.0150308
881.850	0.0151140
881.928	0.0150232
882.006	0.0150967
882.084	0.0151444
882.163	0.0151337
882.241	0.0151167
882.319	0.0152083
882.397	0.0153065
882.475	0.0151858
882.553	0.0152019
882.631	0.0152323
882.709	0.0153664
882.788	0.0153385
882.866	0.0152900
882.944	0.0152136
883.022	0.0152843
883.100	0.0153653
883.178	0.0152674
883.256	0.0153567
883.334	0.0151048
883.413	0.0150620
883.491	0.0151353
883.569	0.0150783
883.647	0.0151524
883.725	0.0150385
883.803	0.0150558
883.881	0.0150363
883.959	0.0150042
884.038	0.0151374
884.116	0.0150156
884.194	0.0151333
884.272	0.0150066
884.350	0.0150176
884.428	0.0151354
884.506	0.0151537
884.584	0.0151382
884.663	0.0150217
884.741	0.0151224
884.819	0.0152139
884.897	0.0152541
884.975	0.0151757
885.053	0.0151149
885.131	0.0150605
885.209	0.0151323
885.288	0.0151382
885.366	0.0151148
885.444	0.0150287
885.522	0.0150355
885.600	0.0151327
885.678	0.0151701
885.756	0.0151468
885.834	0.0151810
885.913	0.0150359
885.991	0.0151022
886.069	0.0151527
886.147	0.0152405
886.225	0.0151950
886.303	0.0151073
886.381	0.0152799
886.459	0.0150626
886.538	0.0150724
886.616	0.0151073
886.694	0.0150951
886.772	0.0150123
886.850	0.0149083
886.928	0.0149664
887.006	0.0150568
887.084	0.0150662
887.163	0.0150289
887.241	0.0151201
887.319	0.0151432
887.397	0.0151031
887.475	0.0149132
887.553	0.0149906
887.631	0.0151758
887.709	0.0151141
887.788	0.0149846
887.866	0.0152162
887.944	0.0150189
888.022	0.0150797
888.100	0.0150756
888.178	0.0152576
888.256	0.0152113
888.334	0.0151463
888.413	0.0152522
888.491	0.0152408
888.569	0.0151834
888.647	0.0152325
888.725	0.0151627
888.803	0.0152975
888.881	0.0152502
888.959	0.0151888
889.038	0.0152950
889.116	0.0151699
889.194	0.0150988
889.272	0.0150246
889.350	0.0152172
889.428	0.0150890
889.506	0.0150333
889.584	0.0151161
889.663	0.0150311
889.741	0.0149053
889.819	0.0149199
889.897	0.0148698
889.975	0.0151642
890.053	0.0149801
890.131	0.0150311
890.209	0.0151952
890.288	0.0151192
890.366	0.0150658
890.444	0.0150774
890.522	0.0151293
890.600	0.0152654
890.678	0.0150631
890.756	0.0150493
890.834	0.0149928
890.913	0.0150779
890.991	0.0150757
891.069	0.0150533
891.147	0.0150272
891.225	0.0151486
891.303	0.0152035
891.381	0.0151618
891.459	0.0152309
891.538	0.0152051
891.616	0.0153191
891.694	0.0152628
891.772	0.0153820
891.850	0.0153757
891.928	0.0153672
892.006	0.0155182
892.084	0.0155535
892.163	0.0154283
892.241	0.0154534
892.319	0.0153683
892.397	0.0153813
892.475	0.0154293
892.553	0.0154277
892.631	0.0151936
892.709	0.0152786
892.788	0.0153274
892.866	0.0152312
892.944	0.0150830
893.022	0.0150107
893.100	0.0150829
893.178	0.0150604
893.256	0.0149983
893.334	0.0149274
893.413	0.0150362
893.491	0.0150255
893.569	0.0148622
893.647	0.0148944
893.725	0.0149707
893.803	0.0149415
893.881	0.0148594
893.959	0.0149773
894.038	0.0150639
894.116	0.0151513
894.194	0.0151295
894.272	0.0151224
894.350	0.0151477
894.428	0.0152861
894.506	0.0150778
894.584	0.0151287
894.663	0.0153094
894.741	0.0153370
894.819	0.0152125
894.897	0.0153254
894.975	0.0153983
895.053	0.0153381
895.131	0.0152327
895.209	0.0153284
895.288	0.0152482
895.366	0.0152522
895.444	0.0153638
895.522	0.0154548
895.600	0.0152505
895.678	0.0152576
895.756	0.0151394
895.834	0.0151806
895.913	0.0151134
895.991	0.0152768
896.069	0.0151609
896.147	0.0150971
896.225	0.0150060
896.303	0.0149199
896.381	0.0150220
896.459	0.0150890
896.538	0.0151850
896.616	0.0149966
896.694	0.0149831
896.772	0.0150017
896.850	0.0150634
896.928	0.0149638
897.006	0.0149754
897.084	0.0151007
897.163	0.0151474
897.241	0.0151733
897.319	0.0150749
897.397	0.0152469
897.475	0.0152912
897.553	0.0152710
897.631	0.0152482
897.709	0.0152015
897.788	0.0151062
897.866	0.0152520
897.944	0.0152922
898.022	0.0151920
898.100	0.0150925
898.178	0.0151893
898.256	0.0153410
898.334	0.0153056
898.413	0.0152033
898.491	0.0153786
898.569	0.0154163
898.647	0.0152516
898.725	0.0151426
898.803	0.0153497
898.881	0.0154968
898.959	0.0152986
899.038	0.0152016
899.116	0.0151938
899.194	0.0152046
899.272	0.0152174
899.350	0.0152356
899.428	0.0151115
899.506	0.0150527
899.584	0.0150866
899.663	0.0148637
899.741	0.0149829
899.819	0.0150109
899.897	0.0149889
899.975	0.0149723
900.053	0.0150420
900.131	0.0151102
900.209	0.0152726
900.288	0.0151844
900.366	0.0151014
900.444	0.0152052
900.522	0.0152245
900.600	0.0153535
900.678	0.0153468
900.756	0.0151742
900.834	0.0152616
900.913	0.0154377
900.991	0.0154646
901.069	0.0153892
901.147	0.0153622
901.225	0.0153466
901.303	0.0155150
901.381	0.0154961
901.459	0.0154477
901.538	0.0153100
901.616	0.0153767
901.694	0.0153638
901.772	0.0152670
901.850	0.0153311
901.928	0.0153548
902.006	0.0151815
902.084	0.0151639
902.163	0.0151786
902.241	0.0152419
902.319	0.0151898
902.397	0.0151394
902.475	0.0151579
902.553	0.0151062
902.631	0.0151595
902.709	0.0151256
902.788	0.0152021
902.866	0.0151013
902.944	0.0152127
903.022	0.0152779
903.100	0.0150845
903.178	0.0153288
903.256	0.0151926
903.334	0.0153541
903.413	0.0152501
903.491	0.0153442
903.569	0.0152862
903.647	0.0153132
903.725	0.0151422
903.803	0.0150175
903.881	0.0151579
903.959	0.0149785
904.038	0.0150095
904.116	0.0150233
904.194	0.0150385
904.272	0.0149212
904.350	0.0149108
904.428	0.0148993
904.506	0.0149588
904.584	0.0148241
904.663	0.0149480
904.741	0.0151092
904.819	0.0150280
904.897	0.0150180
904.975	0.0151987
905.053	0.0151806
905.131	0.0152288
905.209	0.0153848
905.288	0.0153959
905.366	0.0153098
905.444	0.0154331
905.522	0.0154410
905.600	0.0153136
905.678	0.0154390
905.756	0.0154577
905.834	0.0154720
905.913	0.0153966
905.991	0.0153985
906.069	0.0152795
906.147	0.0153640
906.225	0.0153889
906.303	0.0151974
906.381	0.0151290
906.459	0.0151707
906.538	0.0149948
906.616	0.0151389
906.694	0.0151485
906.772	0.0149822
906.850	0.0149281
906.928	0.0150743
907.006	0.0150303
907.084	0.0149610
907.163	0.0149513
907.241	0.0151138
907.319	0.0150903
907.397	0.0149716
907.475	0.0152222
907.553	0.0150150
907.631	0.0151030
907.709	0.0151879
907.788	0.0151316
907.866	0.0153207
907.944	0.0153115
908.022	0.0152124
908.100	0.0151273
908.178	0.0152345
908.256	0.0153065
908.334	0.0152180
908.413	0.0153366
908.491	0.0152965
908.569	0.0153587
908.647	0.0153407
908.725	0.0153600
908.803	0.0153728
908.881	0.0154762
908.959	0.0153094
909.038	0.0153304
909.116	0.0153987
909.194	0.0152651
909.272	0.0153748
909.350	0.0154469
909.428	0.0152523
909.506	0.0154089
909.584	0.0153088
909.663	0.0151480
909.741	0.0151793
909.819	0.0151014
909.897	0.0151019
909.975	0.0150634
910.053	0.0148272
910.131	0.0150050
910.209	0.0149207
910.288	0.0148555
910.366	0.0149678
910.444	0.0150082
910.522	0.0150151
910.600	0.0149142
910.678	0.0150523
910.756	0.0151019
910.834	0.0150373
910.913	0.0150729
910.991	0.0151933
911.069	0.0151038
911.147	0.0150904
911.225	0.0152824
911.303	0.0152392
911.381	0.0150771
911.459	0.0151939
911.538	0.0154005
911.616	0.0151508
911.694	0.0152277
911.772	0.0153558
911.850	0.0151414
911.928	0.0152686
912.006	0.0152162
912.084	0.0151579
912.163	0.0153056
912.241	0.0153151
912.319	0.0152312
912.397	0.0151680
912.475	0.0151929
912.553	0.0153117
912.631	0.0152030
912.709	0.0154051
912.788	0.0153653
912.866	0.0153452
912.944	0.0155128
913.022	0.0154736
913.100	0.0155284
913.178	0.0153745
913.256	0.0154173
913.334	0.0154452
913.413	0.0156233
913.491	0.0155521
913.569	0.0155651
913.647	0.0153958
913.725	0.0154186
913.803	0.0155170
913.881	0.0153403
913.959	0.0153204
914.038	0.0153892
914.116	0.0151862
914.194	0.0152930
914.272	0.0152447
914.350	0.0151643
914.428	0.0153146
914.506	0.0152036
914.584	0.0152499
914.663	0.0152345
914.741	0.0151353
914.819	0.0151663
914.897	0.0149733
914.975	0.0150826
915.053	0.0149648
915.131	0.0150961
915.209	0.0150584
915.288	0.0150770
915.366	0.0152050
915.444	0.0151028
915.522	0.0151488
915.600	0.0152181
915.678	0.0150230
915.756	0.0150450
915.834	0.0151846
915.913	0.0151909
915.991	0.0151769
916.069	0.0152195
916.147	0.0151917
916.225	0.0152599
916.303	0.0152592
916.381	0.0152842
916.459	0.0152974
916.538	0.0152990
916.616	0.0153745
916.694	0.0153351
916.772	0.0154391
916.850	0.0152523
916.928	0.0152688
917.006	0.0152316
917.084	0.0153012
917.163	0.0153466
917.241	0.0151424
917.319	0.0152702
917.397	0.0151385
917.475	0.0151326
917.553	0.0149964
917.631	0.0151273
917.709	0.0150999
917.788	0.0150269
917.866	0.0150246
917.944	0.0149548
918.022	0.0150981
918.100	0.0150414
918.178	0.0150091
918.256	0.0151437
918.334	0.0150227
918.413	0.0151355
918.491	0.0150739
918.569	0.0151783
918.647	0.0150122
918.725	0.0150938
918.803	0.0151824
918.881	0.0152184
918.959	0.0152010
919.038	0.0151672
919.116	0.0152903
919.194	0.0152116
919.272	0.0151814
919.350	0.0153140
919.428	0.0152410
919.506	0.0153272
919.584	0.0151522
919.663	0.0152495
919.741	0.0151797
919.819	0.0152073
919.897	0.0151973
