05/20/2022	21:09:33	Ver.	4.1	UNKNOWN
Optical Delay	599.975067	Delta X		0.078125	Sweeps	1	Scan Rate	0/0
Coordinates	Axis 1	NaN	Axis 2	NaN	Axis 3	NaN	Axis 4	NaN	Axis 5	NaN	Axis 6	0.000000
TX Power	0.000000	RX Power	0.000000

599.975	0.0155452
600.053	0.0154404
600.131	0.0155001
600.209	0.0155305
600.288	0.0152833
600.366	0.0155067
600.444	0.0155804
600.522	0.0155316
600.600	0.0156243
600.678	0.0155244
600.756	0.0155257
600.834	0.0155981
600.913	0.0154990
600.991	0.0154199
601.069	0.0154561
601.147	0.0157447
601.225	0.0156833
601.303	0.0155967
601.381	0.0155824
601.459	0.0154189
601.538	0.0155827
601.616	0.0155982
601.694	0.0156578
601.772	0.0155693
601.850	0.0156046
601.928	0.0154957
602.006	0.0155589
602.084	0.0156007
602.163	0.0157658
602.241	0.0155479
602.319	0.0154959
602.397	0.0155410
602.475	0.0156066
602.553	0.0155219
602.631	0.0155957
602.709	0.0154749
602.788	0.0154424
602.866	0.0153994
602.944	0.0155811
603.022	0.0155358
603.100	0.0155730
603.178	0.0155600
603.256	0.0155669
603.334	0.0155150
603.413	0.0155914
603.491	0.0155503
603.569	0.0155053
603.647	0.0155643
603.725	0.0155762
603.803	0.0155447
603.881	0.0154730
603.959	0.0156497
604.038	0.0157066
604.116	0.0155085
604.194	0.0155129
604.272	0.0154369
604.350	0.0157117
604.428	0.0155146
604.506	0.0154724
604.584	0.0155769
604.663	0.0155273
604.741	0.0154860
604.819	0.0155576
604.897	0.0156265
604.975	0.0156332
605.053	0.0154810
605.131	0.0155836
605.209	0.0156387
605.288	0.0155080
605.366	0.0155084
605.444	0.0155570
605.522	0.0156438
605.600	0.0156497
605.678	0.0157097
605.756	0.0156599
605.834	0.0156390
605.913	0.0156251
605.991	0.0155465
606.069	0.0156836
606.147	0.0155834
606.225	0.0154695
606.303	0.0154794
606.381	0.0156199
606.459	0.0155428
606.538	0.0156244
606.616	0.0155403
606.694	0.0156597
606.772	0.0155887
606.850	0.0157072
606.928	0.0156632
607.006	0.0155866
607.084	0.0155496
607.163	0.0156231
607.241	0.0156007
607.319	0.0155659
607.397	0.0156487
607.475	0.0156252
607.553	0.0157272
607.631	0.0156570
607.709	0.0154491
607.788	0.0155377
607.866	0.0156396
607.944	0.0155186
608.022	0.0155207
608.100	0.0157152
608.178	0.0157333
608.256	0.0156009
608.334	0.0157195
608.413	0.0156068
608.491	0.0155789
608.569	0.0157208
608.647	0.0155444
608.725	0.0155823
608.803	0.0155905
608.881	0.0155848
608.959	0.0155603
609.038	0.0156820
609.116	0.0156081
609.194	0.0156196
609.272	0.0156041
609.350	0.0156335
609.428	0.0155955
609.506	0.0157030
609.584	0.0156934
609.663	0.0156393
609.741	0.0156480
609.819	0.0156406
609.897	0.0155486
609.975	0.0156075
610.053	0.0155070
610.131	0.0155716
610.209	0.0156097
610.288	0.0156767
610.366	0.0155087
610.444	0.0154471
610.522	0.0155672
610.600	0.0156508
610.678	0.0156044
610.756	0.0155125
610.834	0.0155530
610.913	0.0155939
610.991	0.0154957
611.069	0.0155740
611.147	0.0154105
611.225	0.0154685
611.303	0.0155730
611.381	0.0156651
611.459	0.0155010
611.538	0.0156136
611.616	0.0155491
611.694	0.0156041
611.772	0.0155555
611.850	0.0154020
611.928	0.0155444
612.006	0.0153989
612.084	0.0156031
612.163	0.0155651
612.241	0.0157133
612.319	0.0155409
612.397	0.0155872
612.475	0.0156321
612.553	0.0156840
612.631	0.0155369
612.709	0.0155975
612.788	0.0155084
612.866	0.0155420
612.944	0.0155737
613.022	0.0155698
613.100	0.0156066
613.178	0.0155701
613.256	0.0156177
613.334	0.0155848
613.413	0.0155013
613.491	0.0155952
613.569	0.0156934
613.647	0.0154856
613.725	0.0155396
613.803	0.0155618
613.881	0.0155653
613.959	0.0156033
614.038	0.0155807
614.116	0.0155886
614.194	0.0154166
614.272	0.0157400
614.350	0.0156325
614.428	0.0156495
614.506	0.0156248
614.584	0.0154663
614.663	0.0155076
614.741	0.0156564
614.819	0.0155914
614.897	0.0155906
614.975	0.0156853
615.053	0.0155727
615.131	0.0154704
615.209	0.0154408
615.288	0.0156319
615.366	0.0156441
615.444	0.0154031
615.522	0.0156229
615.600	0.0155403
615.678	0.0156435
615.756	0.0154543
615.834	0.0154932
615.913	0.0155084
615.991	0.0155750
616.069	0.0155874
616.147	0.0156389
616.225	0.0155885
616.303	0.0155669
616.381	0.0154622
616.459	0.0155508
616.538	0.0156240
616.616	0.0155824
616.694	0.0156310
616.772	0.0154730
616.850	0.0154353
616.928	0.0155331
617.006	0.0155132
617.084	0.0153836
617.163	0.0155595
617.241	0.0156106
617.319	0.0155134
617.397	0.0154836
617.475	0.0156777
617.553	0.0156993
617.631	0.0157083
617.709	0.0156006
617.788	0.0155209
617.866	0.0154128
617.944	0.0155047
618.022	0.0154462
618.100	0.0155158
618.178	0.0156236
618.256	0.0154881
618.334	0.0154671
618.413	0.0155071
618.491	0.0155154
618.569	0.0155067
618.647	0.0154642
618.725	0.0154465
618.803	0.0155270
618.881	0.0154665
618.959	0.0155785
619.038	0.0155193
619.116	0.0153831
619.194	0.0155135
619.272	0.0152376
619.350	0.0154889
619.428	0.0152647
619.506	0.0155164
619.584	0.0154477
619.663	0.0155132
619.741	0.0155128
619.819	0.0153843
619.897	0.0155417
619.975	0.0154195
620.053	0.0154556
620.131	0.0155094
620.209	0.0153938
620.288	0.0153925
620.366	0.0154005
620.444	0.0155189
620.522	0.0153943
620.600	0.0154799
620.678	0.0154893
620.756	0.0153986
620.834	0.0155501
620.913	0.0154706
620.991	0.0155951
621.069	0.0156592
621.147	0.0155341
621.225	0.0154549
621.303	0.0156198
621.381	0.0155458
621.459	0.0155720
621.538	0.0154746
621.616	0.0154753
621.694	0.0155913
621.772	0.0153892
621.850	0.0155257
621.928	0.0155550
622.006	0.0154510
622.084	0.0156084
622.163	0.0154982
622.241	0.0155395
622.319	0.0156054
622.397	0.0155393
622.475	0.0155885
622.553	0.0155489
622.631	0.0155412
622.709	0.0155824
622.788	0.0155640
622.866	0.0155636
622.944	0.0155447
623.022	0.0155874
623.100	0.0155537
623.178	0.0156103
623.256	0.0157660
623.334	0.0155917
623.413	0.0156468
623.491	0.0156550
623.569	0.0156852
623.647	0.0156159
623.725	0.0155830
623.803	0.0156997
623.881	0.0154958
623.959	0.0155967
624.038	0.0155964
624.116	0.0156052
624.194	0.0156178
624.272	0.0156030
624.350	0.0155258
624.428	0.0156538
624.506	0.0155493
624.584	0.0156596
624.663	0.0156156
624.741	0.0157200
624.819	0.0156050
624.897	0.0153367
624.975	0.0155045
625.053	0.0156124
625.131	0.0156240
625.209	0.0156177
625.288	0.0155802
625.366	0.0154984
625.444	0.0155224
625.522	0.0156310
625.600	0.0155692
625.678	0.0157207
625.756	0.0155485
625.834	0.0155386
625.913	0.0155376
625.991	0.0157341
626.069	0.0155714
626.147	0.0155870
626.225	0.0156384
626.303	0.0156548
626.381	0.0157331
626.459	0.0156364
626.538	0.0154990
626.616	0.0155595
626.694	0.0156693
626.772	0.0156848
626.850	0.0155869
626.928	0.0155814
627.006	0.0154629
627.084	0.0157056
627.163	0.0156006
627.241	0.0156015
627.319	0.0154442
627.397	0.0154375
627.475	0.0154156
627.553	0.0155466
627.631	0.0154776
627.709	0.0155511
627.788	0.0153834
627.866	0.0154836
627.944	0.0154510
628.022	0.0154134
628.100	0.0154549
628.178	0.0155496
628.256	0.0154432
628.334	0.0154781
628.413	0.0155325
628.491	0.0155519
628.569	0.0155774
628.647	0.0153780
628.725	0.0154619
628.803	0.0155007
628.881	0.0156001
628.959	0.0155356
629.038	0.0155009
629.116	0.0156271
629.194	0.0156352
629.272	0.0155400
629.350	0.0154393
629.428	0.0155276
629.506	0.0155354
629.584	0.0155860
629.663	0.0155733
629.741	0.0155910
629.819	0.0155982
629.897	0.0154700
629.975	0.0155361
630.053	0.0155165
630.131	0.0155374
630.209	0.0157034
630.288	0.0154740
630.366	0.0155847
630.444	0.0155487
630.522	0.0156156
630.600	0.0155370
630.678	0.0153954
630.756	0.0155030
630.834	0.0156617
630.913	0.0155736
630.991	0.0154457
631.069	0.0155524
631.147	0.0155883
631.225	0.0155530
631.303	0.0155173
631.381	0.0154347
631.459	0.0155035
631.538	0.0156931
631.616	0.0156095
631.694	0.0154340
631.772	0.0155324
631.850	0.0155387
631.928	0.0155479
632.006	0.0155855
632.084	0.0156173
632.163	0.0154659
632.241	0.0152837
632.319	0.0155438
632.397	0.0155124
632.475	0.0156539
632.553	0.0155650
632.631	0.0155059
632.709	0.0155525
632.788	0.0155321
632.866	0.0155550
632.944	0.0156726
633.022	0.0157089
633.100	0.0155087
633.178	0.0156126
633.256	0.0156073
633.334	0.0157001
633.413	0.0156786
633.491	0.0156753
633.569	0.0156931
633.647	0.0157634
633.725	0.0155919
633.803	0.0155537
633.881	0.0156750
633.959	0.0156812
634.038	0.0157072
634.116	0.0155782
634.194	0.0155384
634.272	0.0156464
634.350	0.0156589
634.428	0.0156459
634.506	0.0156249
634.584	0.0156884
634.663	0.0156705
634.741	0.0155532
634.819	0.0155366
634.897	0.0153777
634.975	0.0154945
635.053	0.0156146
635.131	0.0155665
635.209	0.0153316
635.288	0.0155542
635.366	0.0156004
635.444	0.0155634
635.522	0.0153992
635.600	0.0153827
635.678	0.0154953
635.756	0.0154468
635.834	0.0155660
635.913	0.0153835
635.991	0.0154920
636.069	0.0155204
636.147	0.0155969
636.225	0.0156667
636.303	0.0155436
636.381	0.0154483
636.459	0.0156217
636.538	0.0156580
636.616	0.0154905
636.694	0.0155508
636.772	0.0156293
636.850	0.0155719
636.928	0.0156220
637.006	0.0156282
637.084	0.0156590
637.163	0.0156506
637.241	0.0155534
637.319	0.0157128
637.397	0.0156805
637.475	0.0158073
637.553	0.0156979
637.631	0.0156160
637.709	0.0158159
637.788	0.0155855
637.866	0.0157107
637.944	0.0156100
638.022	0.0156211
638.100	0.0155994
638.178	0.0155196
638.256	0.0156773
638.334	0.0155845
638.413	0.0154655
638.491	0.0155254
638.569	0.0155846
638.647	0.0154830
638.725	0.0155211
638.803	0.0156914
638.881	0.0155337
638.959	0.0155367
639.038	0.0154147
639.116	0.0155772
639.194	0.0154650
639.272	0.0155650
639.350	0.0156318
639.428	0.0155407
639.506	0.0155334
639.584	0.0154438
639.663	0.0154177
639.741	0.0156078
639.819	0.0156221
639.897	0.0156042
639.975	0.0156524
640.053	0.0155534
640.131	0.0153651
640.209	0.0156393
640.288	0.0155836
640.366	0.0155257
640.444	0.0153958
640.522	0.0156527
640.600	0.0156659
640.678	0.0156982
640.756	0.0156300
640.834	0.0154346
640.913	0.0155676
640.991	0.0156397
641.069	0.0156374
641.147	0.0157397
641.225	0.0155915
641.303	0.0156669
641.381	0.0156316
641.459	0.0157389
641.538	0.0156315
641.616	0.0156285
641.694	0.0156997
641.772	0.0157622
641.850	0.0156926
641.928	0.0156809
642.006	0.0157204
642.084	0.0156305
642.163	0.0156648
642.241	0.0155846
642.319	0.0155040
642.397	0.0155126
642.475	0.0154875
642.553	0.0155179
642.631	0.0155485
642.709	0.0154875
642.788	0.0154443
642.866	0.0154105
642.944	0.0154800
643.022	0.0155197
643.100	0.0154731
643.178	0.0154080
643.256	0.0155327
643.334	0.0155148
643.413	0.0155274
643.491	0.0155725
643.569	0.0155610
643.647	0.0155760
643.725	0.0156182
643.803	0.0154974
643.881	0.0155686
643.959	0.0157103
644.038	0.0156354
644.116	0.0156623
644.194	0.0156915
644.272	0.0156834
644.350	0.0156897
644.428	0.0156610
644.506	0.0157360
644.584	0.0157277
644.663	0.0156611
644.741	0.0155252
644.819	0.0156376
644.897	0.0155805
644.975	0.0155679
645.053	0.0155145
645.131	0.0156160
645.209	0.0155190
645.288	0.0154900
645.366	0.0155943
645.444	0.0154390
645.522	0.0154887
645.600	0.0155729
645.678	0.0155547
645.756	0.0156826
645.834	0.0155848
645.913	0.0156847
645.991	0.0157325
646.069	0.0156951
646.147	0.0155621
646.225	0.0156768
646.303	0.0157060
646.381	0.0157384
646.459	0.0157597
646.538	0.0156561
646.616	0.0157346
646.694	0.0155932
646.772	0.0156271
646.850	0.0155646
646.928	0.0155519
647.006	0.0155373
647.084	0.0155355
647.163	0.0156908
647.241	0.0155547
647.319	0.0154347
647.397	0.0155664
647.475	0.0154996
647.553	0.0153522
647.631	0.0155502
647.709	0.0153854
647.788	0.0154402
647.866	0.0154924
647.944	0.0155654
648.022	0.0153809
648.100	0.0155094
648.178	0.0156477
648.256	0.0154929
648.334	0.0155819
648.413	0.0156615
648.491	0.0155884
648.569	0.0156382
648.647	0.0157079
648.725	0.0156158
648.803	0.0156016
648.881	0.0156344
648.959	0.0156853
649.038	0.0156834
649.116	0.0154585
649.194	0.0155352
649.272	0.0156441
649.350	0.0156055
649.428	0.0155230
649.506	0.0155673
649.584	0.0154533
649.663	0.0156354
649.741	0.0154797
649.819	0.0155167
649.897	0.0154531
649.975	0.0154974
650.053	0.0155424
650.131	0.0155515
650.209	0.0154946
650.288	0.0155608
650.366	0.0156104
650.444	0.0156547
650.522	0.0155915
650.600	0.0155780
650.678	0.0156982
650.756	0.0155662
650.834	0.0156601
650.913	0.0157594
650.991	0.0156730
651.069	0.0157485
651.147	0.0157364
651.225	0.0157136
651.303	0.0156119
651.381	0.0156755
651.459	0.0156212
651.538	0.0155969
651.616	0.0156856
651.694	0.0156118
651.772	0.0154536
651.850	0.0157314
651.928	0.0155146
652.006	0.0154777
652.084	0.0156477
652.163	0.0155537
652.241	0.0155320
652.319	0.0156450
652.397	0.0155208
652.475	0.0154649
652.553	0.0155814
652.631	0.0155112
652.709	0.0155226
652.788	0.0154910
652.866	0.0154500
652.944	0.0156062
653.022	0.0154812
653.100	0.0155447
653.178	0.0154452
653.256	0.0155452
653.334	0.0154668
653.413	0.0154590
653.491	0.0156494
653.569	0.0154876
653.647	0.0155724
653.725	0.0156708
653.803	0.0155752
653.881	0.0156654
653.959	0.0155324
654.038	0.0155449
654.116	0.0157333
654.194	0.0157453
654.272	0.0156858
654.350	0.0157138
654.428	0.0156263
654.506	0.0157024
654.584	0.0156963
654.663	0.0156593
654.741	0.0154515
654.819	0.0156018
654.897	0.0158026
654.975	0.0157110
655.053	0.0156394
655.131	0.0154981
655.209	0.0155485
655.288	0.0155021
655.366	0.0154536
655.444	0.0154302
655.522	0.0156093
655.600	0.0156191
655.678	0.0155620
655.756	0.0155293
655.834	0.0156387
655.913	0.0155071
655.991	0.0155407
656.069	0.0156685
656.147	0.0157304
656.225	0.0155767
656.303	0.0156399
656.381	0.0156372
656.459	0.0156499
656.538	0.0157896
656.616	0.0156966
656.694	0.0156442
656.772	0.0157071
656.850	0.0157594
656.928	0.0157162
657.006	0.0157934
657.084	0.0158099
657.163	0.0157554
657.241	0.0156367
657.319	0.0155698
657.397	0.0156902
657.475	0.0155611
657.553	0.0155714
657.631	0.0155693
657.709	0.0156324
657.788	0.0155975
657.866	0.0156893
657.944	0.0156384
658.022	0.0155680
658.100	0.0154842
658.178	0.0156252
658.256	0.0156113
658.334	0.0155384
658.413	0.0156005
658.491	0.0156302
658.569	0.0157032
658.647	0.0156548
658.725	0.0156752
658.803	0.0157925
658.881	0.0157507
658.959	0.0157494
659.038	0.0157416
659.116	0.0156934
659.194	0.0157265
659.272	0.0157868
659.350	0.0157242
659.428	0.0157216
659.506	0.0157434
659.584	0.0157907
659.663	0.0156253
659.741	0.0157469
659.819	0.0156052
659.897	0.0155695
659.975	0.0156260
660.053	0.0155437
660.131	0.0156297
660.209	0.0156657
660.288	0.0156974
660.366	0.0156012
660.444	0.0156394
660.522	0.0155206
660.600	0.0157221
660.678	0.0157413
660.756	0.0156525
660.834	0.0157607
660.913	0.0157974
660.991	0.0158453
661.069	0.0157104
661.147	0.0157068
661.225	0.0157214
661.303	0.0157335
661.381	0.0156735
661.459	0.0157181
661.538	0.0157059
661.616	0.0154797
661.694	0.0155759
661.772	0.0156416
661.850	0.0156002
661.928	0.0156463
662.006	0.0156020
662.084	0.0156084
662.163	0.0155949
662.241	0.0154914
662.319	0.0154702
662.397	0.0156978
662.475	0.0156686
662.553	0.0157671
662.631	0.0156422
662.709	0.0154852
662.788	0.0156519
662.866	0.0155935
662.944	0.0157740
663.022	0.0156353
663.100	0.0156641
663.178	0.0156384
663.256	0.0157037
663.334	0.0157278
663.413	0.0156770
663.491	0.0157010
663.569	0.0156896
663.647	0.0156579
663.725	0.0156834
663.803	0.0157216
663.881	0.0155729
663.959	0.0156660
664.038	0.0156638
664.116	0.0157107
664.194	0.0155932
664.272	0.0155540
664.350	0.0154536
664.428	0.0156145
664.506	0.0155572
664.584	0.0155948
664.663	0.0155455
664.741	0.0155824
664.819	0.0156398
664.897	0.0155742
664.975	0.0155268
665.053	0.0154276
665.131	0.0154516
665.209	0.0155371
665.288	0.0157549
665.366	0.0156678
665.444	0.0153923
665.522	0.0156299
665.600	0.0157229
665.678	0.0156141
665.756	0.0158649
665.834	0.0156761
665.913	0.0156850
665.991	0.0158226
666.069	0.0156076
666.147	0.0158147
666.225	0.0157925
666.303	0.0157917
666.381	0.0158263
666.459	0.0156757
666.538	0.0156094
666.616	0.0155978
666.694	0.0156340
666.772	0.0155814
666.850	0.0157050
666.928	0.0155855
667.006	0.0155205
667.084	0.0156020
667.163	0.0156386
667.241	0.0155250
667.319	0.0154057
667.397	0.0156191
667.475	0.0156149
667.553	0.0156106
667.631	0.0155981
667.709	0.0154852
667.788	0.0154919
667.866	0.0156334
667.944	0.0156853
668.022	0.0157116
668.100	0.0156902
668.178	0.0156030
668.256	0.0156950
668.334	0.0155896
668.413	0.0155562
668.491	0.0155524
668.569	0.0156458
668.647	0.0155732
668.725	0.0156641
668.803	0.0155151
668.881	0.0155692
668.959	0.0154486
669.038	0.0156821
669.116	0.0156440
669.194	0.0156242
669.272	0.0156593
669.350	0.0156201
669.428	0.0156182
669.506	0.0155935
669.584	0.0155833
669.663	0.0155987
669.741	0.0157356
669.819	0.0156026
669.897	0.0155755
669.975	0.0155739
670.053	0.0156862
670.131	0.0156923
670.209	0.0155853
670.288	0.0155670
670.366	0.0155286
670.444	0.0156969
670.522	0.0155702
670.600	0.0155299
670.678	0.0155099
670.756	0.0157483
670.834	0.0155631
670.913	0.0156286
670.991	0.0154133
671.069	0.0154888
671.147	0.0155454
671.225	0.0154311
671.303	0.0157056
671.381	0.0154898
671.459	0.0154042
671.538	0.0155408
671.616	0.0155358
671.694	0.0154907
671.772	0.0155273
671.850	0.0155036
671.928	0.0155892
672.006	0.0155707
672.084	0.0155511
672.163	0.0157899
672.241	0.0155673
672.319	0.0156084
672.397	0.0155582
672.475	0.0155288
672.553	0.0155566
672.631	0.0154202
672.709	0.0155255
672.788	0.0155368
672.866	0.0156059
672.944	0.0156773
673.022	0.0155824
673.100	0.0155470
673.178	0.0156552
673.256	0.0156666
673.334	0.0155376
673.413	0.0156508
673.491	0.0157652
673.569	0.0155682
673.647	0.0153503
673.725	0.0155379
673.803	0.0156024
673.881	0.0157124
673.959	0.0155453
674.038	0.0156363
674.116	0.0157521
674.194	0.0156791
674.272	0.0156314
674.350	0.0156213
674.428	0.0157323
674.506	0.0156832
674.584	0.0157255
674.663	0.0157819
674.741	0.0158144
674.819	0.0158817
674.897	0.0157899
674.975	0.0158791
675.053	0.0160522
675.131	0.0157637
675.209	0.0158453
675.288	0.0158309
675.366	0.0157986
675.444	0.0158088
675.522	0.0156583
675.600	0.0155807
675.678	0.0154771
675.756	0.0154710
675.834	0.0152380
675.913	0.0152475
675.991	0.0152038
676.069	0.0150311
676.147	0.0150853
676.225	0.0148876
676.303	0.0149702
676.381	0.0149197
676.459	0.0149072
676.538	0.0148557
676.616	0.0149696
676.694	0.0150808
676.772	0.0150836
676.850	0.0152324
676.928	0.0154449
677.006	0.0154804
677.084	0.0156042
677.163	0.0156798
677.241	0.0160038
677.319	0.0159845
677.397	0.0162779
677.475	0.0164089
677.553	0.0164690
677.631	0.0167573
677.709	0.0168394
677.788	0.0168340
677.866	0.0168774
677.944	0.0168039
678.022	0.0169519
678.100	0.0169228
678.178	0.0168188
678.256	0.0166228
678.334	0.0163470
678.413	0.0163390
678.491	0.0160522
678.569	0.0158852
678.647	0.0155048
678.725	0.0154202
678.803	0.0151551
678.881	0.0150805
678.959	0.0147774
679.038	0.0144762
679.116	0.0143949
679.194	0.0142097
679.272	0.0142281
679.350	0.0140180
679.428	0.0139221
679.506	0.0139648
679.584	0.0139505
679.663	0.0140740
679.741	0.0141216
679.819	0.0142471
679.897	0.0143938
679.975	0.0148367
680.053	0.0150378
680.131	0.0151670
680.209	0.0154311
680.288	0.0157823
680.366	0.0161633
680.444	0.0162402
680.522	0.0165842
680.600	0.0168038
680.678	0.0169671
680.756	0.0171556
680.834	0.0172352
680.913	0.0173487
680.991	0.0172681
681.069	0.0174094
681.147	0.0174048
681.225	0.0173258
681.303	0.0171722
681.381	0.0171410
681.459	0.0168334
681.538	0.0166218
681.616	0.0165031
681.694	0.0161404
681.772	0.0159151
681.850	0.0156673
681.928	0.0154973
682.006	0.0152394
682.084	0.0151337
682.163	0.0149198
682.241	0.0147832
682.319	0.0146097
682.397	0.0147665
682.475	0.0145275
682.553	0.0145695
682.631	0.0144995
682.709	0.0143420
682.788	0.0144082
682.866	0.0144946
682.944	0.0145928
683.022	0.0146484
683.100	0.0145839
683.178	0.0146281
683.256	0.0148715
683.334	0.0148553
683.413	0.0149442
683.491	0.0150993
683.569	0.0152821
683.647	0.0152382
683.725	0.0151933
683.803	0.0154568
683.881	0.0155896
683.959	0.0154333
684.038	0.0155975
684.116	0.0157641
684.194	0.0157822
684.272	0.0158237
684.350	0.0157501
684.428	0.0160542
684.506	0.0159692
684.584	0.0159686
684.663	0.0161103
684.741	0.0162398
684.819	0.0162083
684.897	0.0161691
684.975	0.0161317
685.053	0.0163120
685.131	0.0163691
685.209	0.0163148
685.288	0.0164094
685.366	0.0161667
685.444	0.0163122
685.522	0.0163377
685.600	0.0162939
685.678	0.0162739
685.756	0.0162460
685.834	0.0161250
685.913	0.0160355
685.991	0.0157270
686.069	0.0157010
686.147	0.0156725
686.225	0.0155247
686.303	0.0152638
686.381	0.0150887
686.459	0.0149812
686.538	0.0149638
686.616	0.0148370
686.694	0.0146186
686.772	0.0145664
686.850	0.0146567
686.928	0.0144353
687.006	0.0143442
687.084	0.0143530
687.163	0.0142860
687.241	0.0142319
687.319	0.0142603
687.397	0.0142878
687.475	0.0144574
687.553	0.0144902
687.631	0.0147626
687.709	0.0149041
687.788	0.0151443
687.866	0.0154288
687.944	0.0156953
688.022	0.0160866
688.100	0.0163287
688.178	0.0165642
688.256	0.0171391
688.334	0.0173217
688.413	0.0174345
688.491	0.0177348
688.569	0.0178326
688.647	0.0179474
688.725	0.0178910
688.803	0.0178717
688.881	0.0177554
688.959	0.0176787
689.038	0.0173210
689.116	0.0170516
689.194	0.0165437
689.272	0.0161120
689.350	0.0159096
689.428	0.0154248
689.506	0.0148967
689.584	0.0146528
689.663	0.0141600
689.741	0.0136311
689.819	0.0133259
689.897	0.0130987
689.975	0.0128253
690.053	0.0124970
690.131	0.0124431
690.209	0.0124786
690.288	0.0125298
690.366	0.0126585
690.444	0.0127478
690.522	0.0130570
690.600	0.0133727
690.678	0.0136386
690.756	0.0141647
690.834	0.0146564
690.913	0.0151772
690.991	0.0157956
691.069	0.0160069
691.147	0.0163127
691.225	0.0168696
691.303	0.0174754
691.381	0.0177707
691.459	0.0180219
691.538	0.0180754
691.616	0.0182059
691.694	0.0182742
691.772	0.0184331
691.850	0.0186304
691.928	0.0184290
692.006	0.0183966
692.084	0.0181470
692.163	0.0179966
692.241	0.0178271
692.319	0.0177073
692.397	0.0172716
692.475	0.0171049
692.553	0.0168153
692.631	0.0164265
692.709	0.0162431
692.788	0.0158566
692.866	0.0156944
692.944	0.0156224
693.022	0.0152299
693.100	0.0151201
693.178	0.0147513
693.256	0.0145605
693.334	0.0145809
693.413	0.0143288
693.491	0.0143900
693.569	0.0142771
693.647	0.0143439
693.725	0.0141623
693.803	0.0142715
693.881	0.0142593
693.959	0.0142073
694.038	0.0143521
694.116	0.0142542
694.194	0.0143305
694.272	0.0143096
694.350	0.0141986
694.428	0.0142285
694.506	0.0143188
694.584	0.0143009
694.663	0.0142518
694.741	0.0142857
694.819	0.0144501
694.897	0.0143284
694.975	0.0143424
695.053	0.0143759
695.131	0.0144220
695.209	0.0144999
695.288	0.0143456
695.366	0.0143481
695.444	0.0143245
695.522	0.0144924
695.600	0.0145442
695.678	0.0145870
695.756	0.0147770
695.834	0.0149204
695.913	0.0150562
695.991	0.0153194
696.069	0.0155711
696.147	0.0158848
696.225	0.0163623
696.303	0.0167088
696.381	0.0169501
696.459	0.0172462
696.538	0.0176167
696.616	0.0178693
696.694	0.0180792
696.772	0.0181676
696.850	0.0185152
696.928	0.0187767
697.006	0.0186169
697.084	0.0188801
697.163	0.0188811
697.241	0.0187019
697.319	0.0186285
697.397	0.0186961
697.475	0.0184716
697.553	0.0183753
697.631	0.0180492
697.709	0.0177859
697.788	0.0175977
697.866	0.0173338
697.944	0.0168444
698.022	0.0164185
698.100	0.0160382
698.178	0.0155814
698.256	0.0151574
698.334	0.0147850
698.413	0.0144810
698.491	0.0140484
698.569	0.0135721
698.647	0.0133441
698.725	0.0130813
698.803	0.0126462
698.881	0.0124828
698.959	0.0122785
699.038	0.0119665
699.116	0.0118018
699.194	0.0115804
699.272	0.0114666
699.350	0.0114159
699.428	0.0114752
699.506	0.0117166
699.584	0.0117545
699.663	0.0121716
699.741	0.0124625
699.819	0.0130066
699.897	0.0134025
699.975	0.0139466
700.053	0.0144631
700.131	0.0151511
700.209	0.0157647
700.288	0.0161153
700.366	0.0167887
700.444	0.0172945
700.522	0.0178116
700.600	0.0181507
700.678	0.0186147
700.756	0.0190008
700.834	0.0190862
700.913	0.0189897
700.991	0.0191072
701.069	0.0189220
701.147	0.0187855
701.225	0.0185754
701.303	0.0182596
701.381	0.0178657
701.459	0.0176322
701.538	0.0173684
701.616	0.0169277
701.694	0.0164402
701.772	0.0161359
701.850	0.0157516
701.928	0.0155225
702.006	0.0152451
702.084	0.0148370
702.163	0.0145031
702.241	0.0144827
702.319	0.0142985
702.397	0.0141678
702.475	0.0142385
702.553	0.0143694
702.631	0.0142967
702.709	0.0143430
702.788	0.0143033
702.866	0.0145947
702.944	0.0149466
703.022	0.0150821
703.100	0.0151625
703.178	0.0156024
703.256	0.0158861
703.334	0.0160738
703.413	0.0161976
703.491	0.0164127
703.569	0.0166354
703.647	0.0166804
703.725	0.0167861
703.803	0.0169996
703.881	0.0169496
703.959	0.0170461
704.038	0.0168658
704.116	0.0169520
704.194	0.0167865
704.272	0.0167025
704.350	0.0165708
704.428	0.0164140
704.506	0.0162802
704.584	0.0160506
704.663	0.0160024
704.741	0.0156513
704.819	0.0153928
704.897	0.0152963
704.975	0.0149137
705.053	0.0145946
705.131	0.0144744
705.209	0.0142702
705.288	0.0140485
705.366	0.0137766
705.444	0.0136870
705.522	0.0135277
705.600	0.0135620
705.678	0.0134347
705.756	0.0135380
705.834	0.0135062
705.913	0.0136235
705.991	0.0137298
706.069	0.0139155
706.147	0.0140694
706.225	0.0142971
706.303	0.0145375
706.381	0.0145174
706.459	0.0147189
706.538	0.0151765
706.616	0.0151467
706.694	0.0155910
706.772	0.0158191
706.850	0.0158311
706.928	0.0161390
707.006	0.0161182
707.084	0.0162686
707.163	0.0164445
707.241	0.0163200
707.319	0.0164459
707.397	0.0165027
707.475	0.0165008
707.553	0.0163657
707.631	0.0163590
707.709	0.0161270
707.788	0.0161392
707.866	0.0160419
707.944	0.0159667
708.022	0.0158193
708.100	0.0157481
708.178	0.0157797
708.256	0.0156812
708.334	0.0157493
708.413	0.0158784
708.491	0.0160571
708.569	0.0160349
708.647	0.0161912
708.725	0.0164248
708.803	0.0166915
708.881	0.0168089
708.959	0.0171107
709.038	0.0172337
709.116	0.0174799
709.194	0.0176563
709.272	0.0178143
709.350	0.0177339
709.428	0.0180507
709.506	0.0178719
709.584	0.0178801
709.663	0.0177293
709.741	0.0174398
709.819	0.0172842
709.897	0.0169469
709.975	0.0165062
710.053	0.0160195
710.131	0.0157262
710.209	0.0153727
710.288	0.0146353
710.366	0.0141357
710.444	0.0137174
710.522	0.0133855
710.600	0.0128542
710.678	0.0124625
710.756	0.0122712
710.834	0.0121598
710.913	0.0119041
710.991	0.0119839
711.069	0.0119428
711.147	0.0121466
711.225	0.0124022
711.303	0.0127006
711.381	0.0130074
711.459	0.0134506
711.538	0.0140031
711.616	0.0145063
711.694	0.0148817
711.772	0.0152081
711.850	0.0155222
711.928	0.0160508
712.006	0.0162035
712.084	0.0163129
712.163	0.0165879
712.241	0.0167188
712.319	0.0164004
712.397	0.0160571
712.475	0.0159385
712.553	0.0159440
712.631	0.0155569
712.709	0.0152367
712.788	0.0152100
712.866	0.0150002
712.944	0.0149183
713.022	0.0146342
713.100	0.0147638
713.178	0.0148838
713.256	0.0149239
713.334	0.0148214
713.413	0.0150269
713.491	0.0151789
713.569	0.0155614
713.647	0.0155500
713.725	0.0157587
713.803	0.0159368
713.881	0.0159952
713.959	0.0162339
714.038	0.0164201
714.116	0.0164232
714.194	0.0166419
714.272	0.0168102
714.350	0.0170701
714.428	0.0171281
714.506	0.0172439
714.584	0.0176695
714.663	0.0177013
714.741	0.0179547
714.819	0.0179147
714.897	0.0181110
714.975	0.0180965
715.053	0.0180719
715.131	0.0181773
715.209	0.0178220
715.288	0.0177837
715.366	0.0178378
715.444	0.0175682
715.522	0.0175245
715.600	0.0172086
715.678	0.0169503
715.756	0.0166905
715.834	0.0165385
715.913	0.0161578
715.991	0.0159042
716.069	0.0155480
716.147	0.0152762
716.225	0.0147550
716.303	0.0142632
716.381	0.0139500
716.459	0.0135098
716.538	0.0130283
716.616	0.0126650
716.694	0.0123872
716.772	0.0121004
716.850	0.0120264
716.928	0.0119490
717.006	0.0120650
717.084	0.0120490
717.163	0.0120937
717.241	0.0123560
717.319	0.0125532
717.397	0.0127526
717.475	0.0130181
717.553	0.0133584
717.631	0.0136047
717.709	0.0139048
717.788	0.0140222
717.866	0.0142159
717.944	0.0144522
718.022	0.0147480
718.100	0.0149333
718.178	0.0151617
718.256	0.0154462
718.334	0.0158652
718.413	0.0162209
718.491	0.0164199
718.569	0.0166311
718.647	0.0170457
718.725	0.0173569
718.803	0.0177776
718.881	0.0180311
718.959	0.0182233
719.038	0.0182321
719.116	0.0186068
719.194	0.0187008
719.272	0.0187768
719.350	0.0187331
719.428	0.0185465
719.506	0.0186180
719.584	0.0184375
719.663	0.0182988
719.741	0.0182197
719.819	0.0180099
719.897	0.0175108
719.975	0.0173058
720.053	0.0169109
720.131	0.0167140
720.209	0.0163142
720.288	0.0158986
720.366	0.0157137
720.444	0.0153077
720.522	0.0150324
720.600	0.0146181
720.678	0.0143273
720.756	0.0142020
720.834	0.0139748
720.913	0.0137917
720.991	0.0137295
721.069	0.0137006
721.147	0.0137931
721.225	0.0135879
721.303	0.0137484
721.381	0.0139617
721.459	0.0143275
721.538	0.0144695
721.616	0.0146877
721.694	0.0150359
721.772	0.0151300
721.850	0.0154185
721.928	0.0156534
722.006	0.0158353
722.084	0.0158457
722.163	0.0158363
722.241	0.0159919
722.319	0.0162146
722.397	0.0160550
722.475	0.0160681
722.553	0.0161057
722.631	0.0162327
722.709	0.0162531
722.788	0.0163828
722.866	0.0164419
722.944	0.0166105
723.022	0.0166242
723.100	0.0165759
723.178	0.0165974
723.256	0.0166012
723.334	0.0164476
723.413	0.0164048
723.491	0.0161442
723.569	0.0160162
723.647	0.0157887
723.725	0.0154791
723.803	0.0151522
723.881	0.0148848
723.959	0.0146014
724.038	0.0143761
724.116	0.0140952
724.194	0.0139886
724.272	0.0137390
724.350	0.0136659
724.428	0.0134538
724.506	0.0134776
724.584	0.0135558
724.663	0.0134646
724.741	0.0134722
724.819	0.0137236
724.897	0.0140442
724.975	0.0141956
725.053	0.0143154
725.131	0.0147559
725.209	0.0151562
725.288	0.0155163
725.366	0.0157544
725.444	0.0163133
725.522	0.0166861
725.600	0.0169606
725.678	0.0174822
725.756	0.0177339
725.834	0.0178698
725.913	0.0180185
725.991	0.0181404
726.069	0.0181959
726.147	0.0181008
726.225	0.0179477
726.303	0.0176898
726.381	0.0174222
726.459	0.0169487
726.538	0.0166677
726.616	0.0162861
726.694	0.0160633
726.772	0.0157688
726.850	0.0155247
726.928	0.0151298
727.006	0.0150737
727.084	0.0150433
727.163	0.0151369
727.241	0.0152099
727.319	0.0152805
727.397	0.0154242
727.475	0.0154992
727.553	0.0157010
727.631	0.0159206
727.709	0.0158372
727.788	0.0160822
727.866	0.0159550
727.944	0.0159512
728.022	0.0160036
728.100	0.0157968
728.178	0.0156708
728.256	0.0155206
728.334	0.0154348
728.413	0.0151155
728.491	0.0150762
728.569	0.0147413
728.647	0.0144218
728.725	0.0144464
728.803	0.0142338
728.881	0.0140477
728.959	0.0140198
729.038	0.0139937
729.116	0.0138384
729.194	0.0140874
729.272	0.0140462
729.350	0.0139098
729.428	0.0139725
729.506	0.0141909
729.584	0.0142822
729.663	0.0143597
729.741	0.0147237
729.819	0.0148130
729.897	0.0149841
729.975	0.0152775
730.053	0.0156350
730.131	0.0157961
730.209	0.0159772
730.288	0.0162434
730.366	0.0165427
730.444	0.0164613
730.522	0.0165243
730.600	0.0166386
730.678	0.0167715
730.756	0.0166865
730.834	0.0165292
730.913	0.0163840
730.991	0.0162324
731.069	0.0161960
731.147	0.0160780
731.225	0.0160806
731.303	0.0159023
731.381	0.0157723
731.459	0.0158143
731.538	0.0158064
731.616	0.0156974
731.694	0.0158785
731.772	0.0158405
731.850	0.0156960
731.928	0.0156455
732.006	0.0156744
732.084	0.0157269
732.163	0.0155839
732.241	0.0154102
732.319	0.0154062
732.397	0.0153764
732.475	0.0153012
732.553	0.0154244
732.631	0.0153237
732.709	0.0153259
732.788	0.0153027
732.866	0.0153661
732.944	0.0151904
733.022	0.0151334
733.100	0.0152036
733.178	0.0153202
733.256	0.0152340
733.334	0.0151450
733.413	0.0152367
733.491	0.0152147
733.569	0.0152281
733.647	0.0152123
733.725	0.0152638
733.803	0.0153995
733.881	0.0153261
733.959	0.0154001
734.038	0.0155378
734.116	0.0157435
734.194	0.0158499
734.272	0.0157190
734.350	0.0159688
734.428	0.0161478
734.506	0.0160704
734.584	0.0162337
734.663	0.0163782
734.741	0.0161105
734.819	0.0161206
734.897	0.0162700
734.975	0.0161800
735.053	0.0160987
735.131	0.0160459
735.209	0.0159796
735.288	0.0158458
735.366	0.0157776
735.444	0.0156455
735.522	0.0155959
735.600	0.0155698
735.678	0.0154726
735.756	0.0152725
735.834	0.0152681
735.913	0.0150831
735.991	0.0150094
736.069	0.0148502
736.147	0.0146651
736.225	0.0143995
736.303	0.0144786
736.381	0.0144005
736.459	0.0141542
736.538	0.0143648
736.616	0.0142570
736.694	0.0143081
736.772	0.0143486
736.850	0.0144132
736.928	0.0147112
737.006	0.0148771
737.084	0.0151765
737.163	0.0155164
737.241	0.0155437
737.319	0.0158381
737.397	0.0160368
737.475	0.0163676
737.553	0.0164240
737.631	0.0164960
737.709	0.0166995
737.788	0.0168393
737.866	0.0168080
737.944	0.0169494
738.022	0.0168800
738.100	0.0167939
738.178	0.0167824
738.256	0.0167979
738.334	0.0165746
738.413	0.0165768
738.491	0.0164424
738.569	0.0163612
738.647	0.0162632
738.725	0.0161382
738.803	0.0159169
738.881	0.0158771
738.959	0.0157337
739.038	0.0156075
739.116	0.0155641
739.194	0.0153995
739.272	0.0153766
739.350	0.0154528
739.428	0.0152269
739.506	0.0152152
739.584	0.0153238
739.663	0.0153293
739.741	0.0151987
739.819	0.0154450
739.897	0.0153619
739.975	0.0154790
740.053	0.0155838
740.131	0.0156358
740.209	0.0157288
740.288	0.0158974
740.366	0.0159171
740.444	0.0158155
740.522	0.0159240
740.600	0.0158382
740.678	0.0159167
740.756	0.0155769
740.834	0.0156186
740.913	0.0154379
740.991	0.0152814
741.069	0.0151369
741.147	0.0149628
741.225	0.0147844
741.303	0.0148682
741.381	0.0148421
741.459	0.0146953
741.538	0.0146719
741.616	0.0147788
741.694	0.0148607
741.772	0.0150454
741.850	0.0150623
741.928	0.0151902
742.006	0.0154584
742.084	0.0156280
742.163	0.0156741
742.241	0.0157611
742.319	0.0158850
742.397	0.0158045
742.475	0.0158791
742.553	0.0161539
742.631	0.0159435
742.709	0.0161901
742.788	0.0159844
742.866	0.0159861
742.944	0.0160376
743.022	0.0160751
743.100	0.0158857
743.178	0.0158902
743.256	0.0158769
743.334	0.0158332
743.413	0.0158238
743.491	0.0158311
743.569	0.0158177
743.647	0.0157644
743.725	0.0159109
743.803	0.0159113
743.881	0.0159174
743.959	0.0159354
744.038	0.0159547
744.116	0.0162508
744.194	0.0161076
744.272	0.0159972
744.350	0.0163065
744.428	0.0162576
744.506	0.0161734
744.584	0.0162069
744.663	0.0161008
744.741	0.0160847
744.819	0.0159562
744.897	0.0160356
744.975	0.0160751
745.053	0.0160452
745.131	0.0160164
745.209	0.0158922
745.288	0.0159533
745.366	0.0158203
745.444	0.0157729
745.522	0.0157928
745.600	0.0158168
745.678	0.0156193
745.756	0.0156411
745.834	0.0154314
745.913	0.0154484
745.991	0.0153752
746.069	0.0152130
746.147	0.0152084
746.225	0.0151588
746.303	0.0150509
746.381	0.0153199
746.459	0.0154086
746.538	0.0154217
746.616	0.0154811
746.694	0.0155740
746.772	0.0156357
746.850	0.0157420
746.928	0.0157378
747.006	0.0159071
747.084	0.0159766
747.163	0.0158550
747.241	0.0158592
747.319	0.0159457
747.397	0.0158540
747.475	0.0157791
747.553	0.0157647
747.631	0.0157572
747.709	0.0157030
747.788	0.0157027
747.866	0.0156010
747.944	0.0153946
748.022	0.0155033
748.100	0.0153959
748.178	0.0154424
748.256	0.0152927
748.334	0.0152995
748.413	0.0152188
748.491	0.0152412
748.569	0.0152494
748.647	0.0151670
748.725	0.0152245
748.803	0.0152099
748.881	0.0153104
748.959	0.0154208
749.038	0.0154456
749.116	0.0153899
749.194	0.0154945
749.272	0.0154390
749.350	0.0154952
749.428	0.0156351
749.506	0.0156956
749.584	0.0156762
749.663	0.0155978
749.741	0.0158742
749.819	0.0158906
749.897	0.0157647
749.975	0.0158311
750.053	0.0159270
750.131	0.0159167
750.209	0.0160573
750.288	0.0158976
750.366	0.0159461
750.444	0.0159208
750.522	0.0159676
750.600	0.0159922
750.678	0.0160928
750.756	0.0161909
750.834	0.0160254
750.913	0.0159990
750.991	0.0161124
751.069	0.0158716
751.147	0.0159756
751.225	0.0160810
751.303	0.0159537
751.381	0.0159708
751.459	0.0158363
751.538	0.0157883
751.616	0.0156816
751.694	0.0156605
751.772	0.0155057
751.850	0.0155418
751.928	0.0154638
752.006	0.0154359
752.084	0.0151576
752.163	0.0152147
752.241	0.0150697
752.319	0.0150999
752.397	0.0150365
752.475	0.0149791
752.553	0.0149712
752.631	0.0149356
752.709	0.0148975
752.788	0.0150030
752.866	0.0147317
752.944	0.0149294
753.022	0.0151917
753.100	0.0152272
753.178	0.0152952
753.256	0.0154780
753.334	0.0153747
753.413	0.0155680
753.491	0.0156313
753.569	0.0157004
753.647	0.0156716
753.725	0.0158958
753.803	0.0158944
753.881	0.0159522
753.959	0.0160709
754.038	0.0159505
754.116	0.0159363
754.194	0.0159136
754.272	0.0159263
754.350	0.0158305
754.428	0.0158627
754.506	0.0156976
754.584	0.0157553
754.663	0.0157396
754.741	0.0156933
754.819	0.0155553
754.897	0.0155917
754.975	0.0156692
755.053	0.0155685
755.131	0.0154890
755.209	0.0154942
755.288	0.0154377
755.366	0.0154503
755.444	0.0153660
755.522	0.0155524
755.600	0.0154482
755.678	0.0154497
755.756	0.0154225
755.834	0.0155451
755.913	0.0153735
755.991	0.0154320
756.069	0.0156353
756.147	0.0154433
756.225	0.0156705
756.303	0.0155119
756.381	0.0155116
756.459	0.0155453
756.538	0.0156145
756.616	0.0158235
756.694	0.0157615
756.772	0.0155709
756.850	0.0156774
756.928	0.0157074
757.006	0.0157403
757.084	0.0157874
757.163	0.0156877
757.241	0.0155090
757.319	0.0156930
757.397	0.0157530
757.475	0.0155840
757.553	0.0155621
757.631	0.0154369
757.709	0.0154228
757.788	0.0152193
757.866	0.0151418
757.944	0.0150838
758.022	0.0150767
758.100	0.0149809
758.178	0.0148316
758.256	0.0150860
758.334	0.0149874
758.413	0.0151170
758.491	0.0151830
758.569	0.0152290
758.647	0.0152431
758.725	0.0155019
758.803	0.0156002
758.881	0.0157017
758.959	0.0156006
759.038	0.0159172
759.116	0.0157944
759.194	0.0159039
759.272	0.0160303
759.350	0.0160408
759.428	0.0160050
759.506	0.0160982
759.584	0.0159794
759.663	0.0159750
759.741	0.0160593
759.819	0.0161527
759.897	0.0160712
759.975	0.0159962
760.053	0.0160054
760.131	0.0160318
760.209	0.0159071
760.288	0.0158932
760.366	0.0157054
760.444	0.0158197
760.522	0.0157706
760.600	0.0157276
760.678	0.0155842
760.756	0.0155451
760.834	0.0154874
760.913	0.0155376
760.991	0.0154250
761.069	0.0152911
761.147	0.0154192
761.225	0.0154204
761.303	0.0152640
761.381	0.0153324
761.459	0.0154013
761.538	0.0154152
761.616	0.0154979
761.694	0.0154399
761.772	0.0156635
761.850	0.0156337
761.928	0.0157937
762.006	0.0158589
762.084	0.0158636
762.163	0.0158255
762.241	0.0158195
762.319	0.0160019
762.397	0.0158014
762.475	0.0156607
762.553	0.0156647
762.631	0.0155225
762.709	0.0154326
762.788	0.0153007
762.866	0.0152655
762.944	0.0151924
763.022	0.0150554
763.100	0.0150381
763.178	0.0149878
763.256	0.0150166
763.334	0.0150833
763.413	0.0150069
763.491	0.0150549
763.569	0.0152218
763.647	0.0154111
763.725	0.0153885
763.803	0.0155993
763.881	0.0156853
763.959	0.0158938
764.038	0.0157845
764.116	0.0160205
764.194	0.0161671
764.272	0.0161493
764.350	0.0163622
764.428	0.0163226
764.506	0.0163863
764.584	0.0165641
764.663	0.0165066
764.741	0.0164137
764.819	0.0164388
764.897	0.0163631
764.975	0.0164714
765.053	0.0163489
765.131	0.0162221
765.209	0.0161728
765.288	0.0160012
765.366	0.0157938
765.444	0.0157064
765.522	0.0156914
765.600	0.0154093
765.678	0.0155050
765.756	0.0154576
765.834	0.0153011
765.913	0.0153025
765.991	0.0153012
766.069	0.0152016
766.147	0.0153467
766.225	0.0152950
766.303	0.0153165
766.381	0.0153416
766.459	0.0156697
766.538	0.0157700
766.616	0.0156644
766.694	0.0157626
766.772	0.0158788
766.850	0.0160050
766.928	0.0160319
767.006	0.0158701
767.084	0.0158775
767.163	0.0159919
767.241	0.0159756
767.319	0.0157823
767.397	0.0158289
767.475	0.0158308
767.553	0.0155912
767.631	0.0154652
767.709	0.0154480
767.788	0.0154147
767.866	0.0153075
767.944	0.0152547
768.022	0.0153148
768.100	0.0151608
768.178	0.0149854
768.256	0.0151398
768.334	0.0151868
768.413	0.0151240
768.491	0.0151389
768.569	0.0152348
768.647	0.0154666
768.725	0.0155224
768.803	0.0155237
768.881	0.0154783
768.959	0.0156307
769.038	0.0157967
769.116	0.0157995
769.194	0.0157673
769.272	0.0158084
769.350	0.0156556
769.428	0.0158295
769.506	0.0157381
769.584	0.0158467
769.663	0.0157020
769.741	0.0158642
769.819	0.0156805
769.897	0.0157374
769.975	0.0156140
770.053	0.0156316
770.131	0.0155380
770.209	0.0156929
770.288	0.0155673
770.366	0.0156830
770.444	0.0156824
770.522	0.0155919
770.600	0.0156494
770.678	0.0156711
770.756	0.0157065
770.834	0.0156573
770.913	0.0156784
770.991	0.0155434
771.069	0.0155383
771.147	0.0155056
771.225	0.0155096
771.303	0.0155151
771.381	0.0154325
771.459	0.0154250
771.538	0.0152814
771.616	0.0153104
771.694	0.0153698
771.772	0.0152969
771.850	0.0151891
771.928	0.0152627
772.006	0.0152810
772.084	0.0152869
772.163	0.0154310
772.241	0.0154934
772.319	0.0155404
772.397	0.0155741
772.475	0.0156668
772.553	0.0156497
772.631	0.0157520
772.709	0.0156929
772.788	0.0156756
772.866	0.0156229
772.944	0.0156881
773.022	0.0156802
773.100	0.0153702
773.178	0.0153203
773.256	0.0152731
773.334	0.0152663
773.413	0.0153158
773.491	0.0151604
773.569	0.0151935
773.647	0.0151672
773.725	0.0152946
773.803	0.0151511
773.881	0.0152788
773.959	0.0152344
774.038	0.0152748
774.116	0.0155119
774.194	0.0156717
774.272	0.0156130
774.350	0.0155964
774.428	0.0157095
774.506	0.0157974
774.584	0.0157704
774.663	0.0157122
774.741	0.0158772
774.819	0.0159376
774.897	0.0157304
774.975	0.0158363
775.053	0.0158263
775.131	0.0157583
775.209	0.0158179
775.288	0.0156493
775.366	0.0156676
775.444	0.0157024
775.522	0.0156503
775.600	0.0155844
775.678	0.0153382
775.756	0.0154510
775.834	0.0153622
775.913	0.0152359
775.991	0.0153412
776.069	0.0152481
776.147	0.0151307
776.225	0.0151421
776.303	0.0150813
776.381	0.0152037
776.459	0.0151071
776.538	0.0151430
776.616	0.0150323
776.694	0.0151951
776.772	0.0150673
776.850	0.0152547
776.928	0.0154434
777.006	0.0152893
777.084	0.0154687
777.163	0.0154900
777.241	0.0155945
777.319	0.0155054
777.397	0.0158076
777.475	0.0157176
777.553	0.0157373
777.631	0.0156633
777.709	0.0157706
777.788	0.0159304
777.866	0.0158796
777.944	0.0156547
778.022	0.0155069
778.100	0.0154725
778.178	0.0154874
778.256	0.0154322
778.334	0.0152882
778.413	0.0151043
778.491	0.0153201
778.569	0.0150037
778.647	0.0150321
778.725	0.0152351
778.803	0.0151469
778.881	0.0154031
778.959	0.0154451
779.038	0.0154420
779.116	0.0155810
779.194	0.0157234
779.272	0.0156847
779.350	0.0158636
779.428	0.0159721
779.506	0.0160332
779.584	0.0160245
779.663	0.0160010
779.741	0.0160735
779.819	0.0160500
779.897	0.0160479
779.975	0.0159818
780.053	0.0160754
780.131	0.0159705
780.209	0.0158995
780.288	0.0158620
780.366	0.0158325
780.444	0.0158435
780.522	0.0157732
780.600	0.0157329
780.678	0.0158037
780.756	0.0157259
780.834	0.0156622
780.913	0.0157670
780.991	0.0157230
781.069	0.0157022
781.147	0.0157880
781.225	0.0158141
781.303	0.0158894
781.381	0.0154482
781.459	0.0155733
781.538	0.0157544
781.616	0.0155571
781.694	0.0153986
781.772	0.0152182
781.850	0.0152351
781.928	0.0151956
782.006	0.0149626
782.084	0.0151472
782.163	0.0151427
782.241	0.0150644
782.319	0.0150349
782.397	0.0151386
782.475	0.0152142
782.553	0.0154877
782.631	0.0154763
782.709	0.0155579
782.788	0.0157368
782.866	0.0157963
782.944	0.0156979
783.022	0.0157602
783.100	0.0158350
783.178	0.0159629
783.256	0.0158253
783.334	0.0156480
783.413	0.0156383
783.491	0.0155865
783.569	0.0155223
783.647	0.0154476
783.725	0.0153327
783.803	0.0154269
783.881	0.0154205
783.959	0.0152670
784.038	0.0152683
784.116	0.0155594
784.194	0.0155603
784.272	0.0155995
784.350	0.0156866
784.428	0.0157486
784.506	0.0157551
784.584	0.0157148
784.663	0.0158295
784.741	0.0157504
784.819	0.0157107
784.897	0.0159678
784.975	0.0159628
785.053	0.0157368
785.131	0.0157981
785.209	0.0156497
785.288	0.0157259
785.366	0.0158833
785.444	0.0158326
785.522	0.0157146
785.600	0.0157825
785.678	0.0158521
785.756	0.0157151
785.834	0.0156680
785.913	0.0158759
785.991	0.0158448
786.069	0.0157224
786.147	0.0156342
786.225	0.0155511
786.303	0.0153748
786.381	0.0153783
786.459	0.0152365
786.538	0.0152161
786.616	0.0150722
786.694	0.0150964
786.772	0.0151189
786.850	0.0152685
786.928	0.0151231
787.006	0.0151649
787.084	0.0152607
787.163	0.0152760
787.241	0.0152729
787.319	0.0154671
787.397	0.0157671
787.475	0.0157661
787.553	0.0158967
787.631	0.0160065
787.709	0.0161523
787.788	0.0164810
787.866	0.0162990
787.944	0.0163750
788.022	0.0165037
788.100	0.0165001
788.178	0.0163651
788.256	0.0164883
788.334	0.0164034
788.413	0.0163137
788.491	0.0162183
788.569	0.0162573
788.647	0.0160626
788.725	0.0159264
788.803	0.0158704
788.881	0.0157709
788.959	0.0155856
789.038	0.0155147
789.116	0.0154284
789.194	0.0153469
789.272	0.0152587
789.350	0.0151562
789.428	0.0150915
789.506	0.0151315
789.584	0.0151573
789.663	0.0151391
789.741	0.0151129
789.819	0.0149540
789.897	0.0150765
789.975	0.0151489
790.053	0.0151649
790.131	0.0153299
790.209	0.0153151
790.288	0.0153522
790.366	0.0154268
790.444	0.0153604
790.522	0.0154118
790.600	0.0155421
790.678	0.0154765
790.756	0.0153835
790.834	0.0154058
790.913	0.0153307
790.991	0.0153865
791.069	0.0153915
791.147	0.0153055
791.225	0.0153973
791.303	0.0152677
791.381	0.0153466
791.459	0.0154583
791.538	0.0153720
791.616	0.0154259
791.694	0.0153951
791.772	0.0153202
791.850	0.0153403
791.928	0.0152011
792.006	0.0152720
792.084	0.0152950
792.163	0.0150896
792.241	0.0152213
792.319	0.0153574
792.397	0.0152867
792.475	0.0153545
792.553	0.0154826
792.631	0.0155598
792.709	0.0156800
792.788	0.0157782
792.866	0.0160461
792.944	0.0160676
793.022	0.0160233
793.100	0.0161450
793.178	0.0162333
793.256	0.0163568
793.334	0.0163480
793.413	0.0163694
793.491	0.0164482
793.569	0.0163546
793.647	0.0162521
793.725	0.0162111
793.803	0.0162175
793.881	0.0162117
793.959	0.0159284
794.038	0.0157887
794.116	0.0158897
794.194	0.0156650
794.272	0.0156478
794.350	0.0156725
794.428	0.0156867
794.506	0.0154620
794.584	0.0154658
794.663	0.0155963
794.741	0.0154734
794.819	0.0154921
794.897	0.0154190
794.975	0.0153240
795.053	0.0155249
795.131	0.0152711
795.209	0.0151022
795.288	0.0151394
795.366	0.0151716
795.444	0.0149805
795.522	0.0148604
795.600	0.0149703
795.678	0.0148280
795.756	0.0148340
795.834	0.0146988
795.913	0.0147384
795.991	0.0147459
796.069	0.0147234
796.147	0.0147730
796.225	0.0147871
796.303	0.0149603
796.381	0.0150142
796.459	0.0148502
796.538	0.0150208
796.616	0.0152067
796.694	0.0154020
796.772	0.0153633
796.850	0.0154369
796.928	0.0155087
797.006	0.0155803
797.084	0.0156350
797.163	0.0155727
797.241	0.0158282
797.319	0.0157342
797.397	0.0158972
797.475	0.0158965
797.553	0.0159085
797.631	0.0160330
797.709	0.0159893
797.788	0.0161481
797.866	0.0159090
797.944	0.0158994
798.022	0.0160551
798.100	0.0159888
798.178	0.0159404
798.256	0.0157546
798.334	0.0158511
798.413	0.0157668
798.491	0.0158602
798.569	0.0156717
798.647	0.0156516
798.725	0.0156552
798.803	0.0156084
798.881	0.0156344
798.959	0.0154602
799.038	0.0155568
799.116	0.0154871
799.194	0.0155058
799.272	0.0154611
799.350	0.0153638
799.428	0.0153165
799.506	0.0155125
799.584	0.0153580
799.663	0.0152762
799.741	0.0152390
799.819	0.0153036
799.897	0.0152931
799.975	0.0153780
800.053	0.0153345
800.131	0.0152769
800.209	0.0154610
800.288	0.0153913
800.366	0.0155506
800.444	0.0155556
800.522	0.0155807
800.600	0.0157722
800.678	0.0156017
800.756	0.0157710
800.834	0.0159563
800.913	0.0156514
800.991	0.0156509
801.069	0.0156884
801.147	0.0156277
801.225	0.0158938
801.303	0.0156906
801.381	0.0155931
801.459	0.0155269
801.538	0.0153409
801.616	0.0154015
801.694	0.0154279
801.772	0.0151525
801.850	0.0152101
801.928	0.0153532
802.006	0.0151721
802.084	0.0151060
802.163	0.0152306
802.241	0.0152444
802.319	0.0151785
802.397	0.0152143
802.475	0.0153390
802.553	0.0153824
802.631	0.0153819
802.709	0.0154132
802.788	0.0153232
802.866	0.0153616
802.944	0.0154933
803.022	0.0155733
803.100	0.0158152
803.178	0.0156912
803.256	0.0158374
803.334	0.0159857
803.413	0.0160602
803.491	0.0160238
803.569	0.0159940
803.647	0.0159962
803.725	0.0160983
803.803	0.0159225
803.881	0.0160845
803.959	0.0158671
804.038	0.0160020
804.116	0.0158337
804.194	0.0156861
804.272	0.0157345
804.350	0.0156886
804.428	0.0155574
804.506	0.0157072
804.584	0.0157469
804.663	0.0155837
804.741	0.0155295
804.819	0.0156850
804.897	0.0158157
804.975	0.0158418
805.053	0.0156010
805.131	0.0157875
805.209	0.0157721
805.288	0.0157059
805.366	0.0157787
805.444	0.0158395
805.522	0.0157436
805.600	0.0156190
805.678	0.0157418
805.756	0.0156232
805.834	0.0156703
805.913	0.0155657
805.991	0.0154578
806.069	0.0154897
806.147	0.0156554
806.225	0.0155229
806.303	0.0156652
806.381	0.0155757
806.459	0.0155502
806.538	0.0156977
806.616	0.0155623
806.694	0.0155766
806.772	0.0155955
806.850	0.0155175
806.928	0.0155275
807.006	0.0155577
807.084	0.0153910
807.163	0.0154900
807.241	0.0153383
807.319	0.0154038
807.397	0.0153855
807.475	0.0153942
807.553	0.0153558
807.631	0.0153391
807.709	0.0152959
807.788	0.0152431
807.866	0.0152027
807.944	0.0153631
808.022	0.0154935
808.100	0.0154620
808.178	0.0154616
808.256	0.0155421
808.334	0.0153773
808.413	0.0155108
808.491	0.0154705
808.569	0.0153741
808.647	0.0153727
808.725	0.0154905
808.803	0.0154972
808.881	0.0155701
808.959	0.0156042
809.038	0.0155801
809.116	0.0156165
809.194	0.0156959
809.272	0.0155948
809.350	0.0156903
809.428	0.0158315
809.506	0.0158680
809.584	0.0159093
809.663	0.0159435
809.741	0.0159647
809.819	0.0161142
809.897	0.0160196
809.975	0.0160744
810.053	0.0160192
810.131	0.0158211
810.209	0.0160117
810.288	0.0159850
810.366	0.0158611
810.444	0.0158902
810.522	0.0157693
810.600	0.0156541
810.678	0.0157507
810.756	0.0156385
810.834	0.0156027
810.913	0.0156505
810.991	0.0158073
811.069	0.0156477
811.147	0.0158530
811.225	0.0158000
811.303	0.0157496
811.381	0.0157971
811.459	0.0158492
811.538	0.0158320
811.616	0.0156705
811.694	0.0156954
811.772	0.0155974
811.850	0.0154424
811.928	0.0155388
812.006	0.0154799
812.084	0.0154500
812.163	0.0156003
812.241	0.0156156
812.319	0.0154911
812.397	0.0155973
812.475	0.0155802
812.553	0.0156252
812.631	0.0155479
812.709	0.0155674
812.788	0.0154830
812.866	0.0153997
812.944	0.0153788
813.022	0.0152737
813.100	0.0152805
813.178	0.0151081
813.256	0.0151283
813.334	0.0150123
813.413	0.0149632
813.491	0.0150414
813.569	0.0151935
813.647	0.0150646
813.725	0.0150209
813.803	0.0151304
813.881	0.0152096
813.959	0.0153001
814.038	0.0152397
814.116	0.0153188
814.194	0.0152722
814.272	0.0153352
814.350	0.0154758
814.428	0.0155308
814.506	0.0155627
814.584	0.0155152
814.663	0.0156301
814.741	0.0156257
814.819	0.0156892
814.897	0.0158443
814.975	0.0158414
815.053	0.0160278
815.131	0.0161024
815.209	0.0160612
815.288	0.0160197
815.366	0.0161044
815.444	0.0161930
815.522	0.0160820
815.600	0.0161407
815.678	0.0160850
815.756	0.0160523
815.834	0.0159897
815.913	0.0159636
815.991	0.0156664
816.069	0.0158260
816.147	0.0158932
816.225	0.0158252
816.303	0.0158459
816.381	0.0157540
816.459	0.0157675
816.538	0.0158489
816.616	0.0158337
816.694	0.0158148
816.772	0.0157234
816.850	0.0157406
816.928	0.0158656
817.006	0.0157793
817.084	0.0158272
817.163	0.0157129
817.241	0.0155119
817.319	0.0156149
817.397	0.0154529
817.475	0.0154398
817.553	0.0153758
817.631	0.0154221
817.709	0.0155016
817.788	0.0154590
817.866	0.0155159
817.944	0.0154825
818.022	0.0153884
818.100	0.0155505
818.178	0.0154858
818.256	0.0155518
818.334	0.0156341
818.413	0.0157819
818.491	0.0158501
818.569	0.0158224
818.647	0.0157494
818.725	0.0156988
818.803	0.0157521
818.881	0.0158254
818.959	0.0157708
819.038	0.0158218
819.116	0.0157306
819.194	0.0157696
819.272	0.0156562
819.350	0.0155532
819.428	0.0154558
819.506	0.0155063
819.584	0.0155772
819.663	0.0155050
819.741	0.0154404
819.819	0.0155325
819.897	0.0154686
819.975	0.0154351
820.053	0.0155027
820.131	0.0155261
820.209	0.0154148
820.288	0.0153901
820.366	0.0153930
820.444	0.0154850
820.522	0.0155496
820.600	0.0152834
820.678	0.0152956
820.756	0.0152357
820.834	0.0154109
820.913	0.0152646
820.991	0.0154057
821.069	0.0154966
821.147	0.0155209
821.225	0.0154214
821.303	0.0155718
821.381	0.0156382
821.459	0.0157477
821.538	0.0158904
821.616	0.0158682
821.694	0.0158431
821.772	0.0160363
821.850	0.0160722
821.928	0.0159824
822.006	0.0160648
822.084	0.0160176
822.163	0.0161108
822.241	0.0161192
822.319	0.0159877
822.397	0.0161092
822.475	0.0160082
822.553	0.0159091
822.631	0.0159589
822.709	0.0160975
822.788	0.0159229
822.866	0.0158900
822.944	0.0158844
823.022	0.0158792
823.100	0.0159154
823.178	0.0158723
823.256	0.0157733
823.334	0.0157036
823.413	0.0157221
823.491	0.0156583
823.569	0.0156491
823.647	0.0156551
823.725	0.0154665
823.803	0.0155561
823.881	0.0154890
823.959	0.0154970
824.038	0.0155414
824.116	0.0154458
824.194	0.0155195
824.272	0.0155659
824.350	0.0153447
824.428	0.0154163
824.506	0.0154677
824.584	0.0154910
824.663	0.0156576
824.741	0.0155585
824.819	0.0153419
824.897	0.0153367
824.975	0.0153347
825.053	0.0153773
825.131	0.0152856
825.209	0.0152291
825.288	0.0153622
825.366	0.0152287
825.444	0.0152500
825.522	0.0153248
825.600	0.0152284
825.678	0.0153529
825.756	0.0153907
825.834	0.0154781
825.913	0.0155321
825.991	0.0154635
826.069	0.0154156
826.147	0.0154912
826.225	0.0154078
826.303	0.0154867
826.381	0.0155721
826.459	0.0155793
826.538	0.0156671
826.616	0.0155121
826.694	0.0155226
826.772	0.0156983
826.850	0.0157963
826.928	0.0156503
827.006	0.0157304
827.084	0.0157443
827.163	0.0158476
827.241	0.0158441
827.319	0.0156737
827.397	0.0158913
827.475	0.0158256
827.553	0.0158831
827.631	0.0159461
827.709	0.0159303
827.788	0.0157005
827.866	0.0158298
827.944	0.0156523
828.022	0.0157059
828.100	0.0156393
828.178	0.0156971
828.256	0.0158251
828.334	0.0156944
828.413	0.0154804
828.491	0.0155383
828.569	0.0154996
828.647	0.0155890
828.725	0.0154472
828.803	0.0155635
828.881	0.0155238
828.959	0.0153874
829.038	0.0155328
829.116	0.0154330
829.194	0.0155032
829.272	0.0155086
829.350	0.0154140
829.428	0.0153416
829.506	0.0154845
829.584	0.0153334
829.663	0.0154697
829.741	0.0155253
829.819	0.0154671
829.897	0.0153206
829.975	0.0154710
830.053	0.0155889
830.131	0.0155738
830.209	0.0155312
830.288	0.0156512
830.366	0.0156766
830.444	0.0157806
830.522	0.0157837
830.600	0.0157981
830.678	0.0156828
830.756	0.0156634
830.834	0.0156864
830.913	0.0157205
830.991	0.0155932
831.069	0.0155536
831.147	0.0154546
831.225	0.0154874
831.303	0.0154655
831.381	0.0155083
831.459	0.0154942
831.538	0.0154237
831.616	0.0153378
831.694	0.0152997
831.772	0.0153269
831.850	0.0154497
831.928	0.0154391
832.006	0.0153014
832.084	0.0155495
832.163	0.0155251
832.241	0.0153976
832.319	0.0156285
832.397	0.0155271
832.475	0.0155840
832.553	0.0156525
832.631	0.0154861
832.709	0.0156080
832.788	0.0156504
832.866	0.0156413
832.944	0.0156645
833.022	0.0157622
833.100	0.0157063
833.178	0.0156480
833.256	0.0157563
833.334	0.0157248
833.413	0.0157291
833.491	0.0157548
833.569	0.0156801
833.647	0.0157105
833.725	0.0157815
833.803	0.0158932
833.881	0.0157657
833.959	0.0158971
834.038	0.0156885
834.116	0.0157050
834.194	0.0157154
834.272	0.0157568
834.350	0.0156664
834.428	0.0158347
834.506	0.0158031
834.584	0.0159028
834.663	0.0157794
834.741	0.0157310
834.819	0.0156465
834.897	0.0157161
834.975	0.0157071
835.053	0.0156342
835.131	0.0156913
835.209	0.0155796
835.288	0.0155366
835.366	0.0156226
835.444	0.0155925
835.522	0.0154936
835.600	0.0155800
835.678	0.0154649
835.756	0.0154975
835.834	0.0153983
835.913	0.0154003
835.991	0.0155273
836.069	0.0154501
836.147	0.0155151
836.225	0.0155421
836.303	0.0154896
836.381	0.0155057
836.459	0.0155196
836.538	0.0156023
836.616	0.0155731
836.694	0.0156363
836.772	0.0156506
836.850	0.0156116
836.928	0.0154302
837.006	0.0156497
837.084	0.0157220
837.163	0.0157416
837.241	0.0154487
837.319	0.0154722
837.397	0.0154569
837.475	0.0154520
837.553	0.0153983
837.631	0.0153743
837.709	0.0153533
837.788	0.0152934
837.866	0.0153668
837.944	0.0154163
838.022	0.0154263
838.100	0.0153764
838.178	0.0153273
838.256	0.0155500
838.334	0.0156446
838.413	0.0155876
838.491	0.0156548
838.569	0.0156971
838.647	0.0157339
838.725	0.0157271
838.803	0.0157230
838.881	0.0157230
838.959	0.0158187
839.038	0.0158657
839.116	0.0158073
839.194	0.0159307
839.272	0.0158445
839.350	0.0158979
839.428	0.0159238
839.506	0.0159732
839.584	0.0160130
839.663	0.0159792
839.741	0.0158724
839.819	0.0156897
839.897	0.0159180
839.975	0.0158704
840.053	0.0157427
840.131	0.0156721
840.209	0.0157835
840.288	0.0157011
840.366	0.0157259
840.444	0.0156025
840.522	0.0156108
840.600	0.0156656
840.678	0.0156401
840.756	0.0155890
840.834	0.0157042
840.913	0.0156261
840.991	0.0155966
841.069	0.0157227
841.147	0.0155379
841.225	0.0156664
841.303	0.0156949
841.381	0.0158222
841.459	0.0157726
841.538	0.0157786
841.616	0.0158355
841.694	0.0157966
841.772	0.0156203
841.850	0.0158147
841.928	0.0156191
842.006	0.0157983
842.084	0.0157539
842.163	0.0157847
842.241	0.0157366
842.319	0.0158468
842.397	0.0157537
842.475	0.0157707
842.553	0.0156904
842.631	0.0156861
842.709	0.0156135
842.788	0.0155764
842.866	0.0156281
842.944	0.0154739
843.022	0.0156319
843.100	0.0157303
843.178	0.0155988
843.256	0.0155859
843.334	0.0155321
843.413	0.0156657
843.491	0.0155569
843.569	0.0155585
843.647	0.0154524
843.725	0.0154968
843.803	0.0156098
843.881	0.0156065
843.959	0.0154687
844.038	0.0155843
844.116	0.0155675
844.194	0.0155108
844.272	0.0155547
844.350	0.0155907
844.428	0.0155348
844.506	0.0154376
844.584	0.0156609
844.663	0.0155738
844.741	0.0155882
844.819	0.0155873
844.897	0.0157321
844.975	0.0157085
845.053	0.0156800
845.131	0.0157170
845.209	0.0155817
845.288	0.0157193
845.366	0.0157883
845.444	0.0157427
845.522	0.0158315
845.600	0.0158878
845.678	0.0157669
845.756	0.0158195
845.834	0.0159007
845.913	0.0157944
845.991	0.0158865
846.069	0.0158912
846.147	0.0160376
846.225	0.0158365
846.303	0.0156802
846.381	0.0159167
846.459	0.0158595
846.538	0.0158479
846.616	0.0157867
846.694	0.0159354
846.772	0.0157146
846.850	0.0156535
846.928	0.0156873
847.006	0.0158344
847.084	0.0156381
847.163	0.0156953
847.241	0.0157241
847.319	0.0156005
847.397	0.0158269
847.475	0.0156811
847.553	0.0157159
847.631	0.0157150
847.709	0.0156481
847.788	0.0156000
847.866	0.0155225
847.944	0.0156052
848.022	0.0157724
848.100	0.0157460
848.178	0.0157343
848.256	0.0156483
848.334	0.0156756
848.413	0.0157248
848.491	0.0157796
848.569	0.0156255
848.647	0.0156628
848.725	0.0157407
848.803	0.0156755
848.881	0.0156866
848.959	0.0155308
849.038	0.0154233
849.116	0.0154687
849.194	0.0154905
849.272	0.0153619
849.350	0.0153962
849.428	0.0154961
849.506	0.0153779
849.584	0.0154044
849.663	0.0154379
849.741	0.0153767
849.819	0.0154758
849.897	0.0154466
849.975	0.0153195
850.053	0.0154440
850.131	0.0155547
850.209	0.0155199
850.288	0.0155856
850.366	0.0156569
850.444	0.0156702
850.522	0.0156145
850.600	0.0155280
850.678	0.0155050
850.756	0.0157339
850.834	0.0156055
850.913	0.0155240
850.991	0.0155367
851.069	0.0155889
851.147	0.0155527
851.225	0.0155759
851.303	0.0155219
851.381	0.0154784
851.459	0.0154813
851.538	0.0156100
851.616	0.0155843
851.694	0.0156334
851.772	0.0157320
851.850	0.0156456
851.928	0.0156368
852.006	0.0155129
852.084	0.0157631
852.163	0.0156388
852.241	0.0156263
852.319	0.0156493
852.397	0.0156376
852.475	0.0155968
852.553	0.0156474
852.631	0.0156084
852.709	0.0155687
852.788	0.0156872
852.866	0.0155601
852.944	0.0155490
853.022	0.0153267
853.100	0.0154661
853.178	0.0155345
853.256	0.0154163
853.334	0.0153125
853.413	0.0153648
853.491	0.0153770
853.569	0.0154075
853.647	0.0152808
853.725	0.0153671
853.803	0.0153531
853.881	0.0152404
853.959	0.0152841
854.038	0.0154266
854.116	0.0152400
854.194	0.0152735
854.272	0.0152927
854.350	0.0153928
854.428	0.0154793
854.506	0.0154992
854.584	0.0153438
854.663	0.0154742
854.741	0.0154296
854.819	0.0154955
854.897	0.0154584
854.975	0.0156583
855.053	0.0154652
855.131	0.0155923
855.209	0.0154198
855.288	0.0156280
855.366	0.0156029
855.444	0.0155453
855.522	0.0155527
855.600	0.0155428
855.678	0.0155116
855.756	0.0155189
855.834	0.0156265
855.913	0.0154974
855.991	0.0154675
856.069	0.0154777
856.147	0.0154388
856.225	0.0155279
856.303	0.0156231
856.381	0.0155807
856.459	0.0155263
856.538	0.0155242
856.616	0.0154777
856.694	0.0155654
856.772	0.0156641
856.850	0.0157340
856.928	0.0156551
857.006	0.0156197
857.084	0.0156335
857.163	0.0158629
857.241	0.0157913
857.319	0.0156570
857.397	0.0157040
857.475	0.0157504
857.553	0.0157506
857.631	0.0157897
857.709	0.0157059
857.788	0.0157182
857.866	0.0157687
857.944	0.0156153
858.022	0.0158941
858.100	0.0155031
858.178	0.0155787
858.256	0.0157854
858.334	0.0156779
858.413	0.0156168
858.491	0.0155751
858.569	0.0156129
858.647	0.0154516
858.725	0.0153954
858.803	0.0154305
858.881	0.0154441
858.959	0.0154965
859.038	0.0154094
859.116	0.0154776
859.194	0.0155330
859.272	0.0154882
859.350	0.0152878
859.428	0.0153088
859.506	0.0154095
859.584	0.0155054
859.663	0.0154819
859.741	0.0154736
859.819	0.0155683
859.897	0.0154218
859.975	0.0156160
860.053	0.0155589
860.131	0.0154568
860.209	0.0155441
860.288	0.0154059
860.366	0.0155592
860.444	0.0155634
860.522	0.0155174
860.600	0.0156443
860.678	0.0154871
860.756	0.0156400
860.834	0.0155650
860.913	0.0155856
860.991	0.0155399
861.069	0.0156956
861.147	0.0157156
861.225	0.0156402
861.303	0.0158159
861.381	0.0157246
861.459	0.0156408
861.538	0.0156842
861.616	0.0157123
861.694	0.0158675
861.772	0.0157479
861.850	0.0156868
861.928	0.0157594
862.006	0.0157101
862.084	0.0157546
862.163	0.0157380
862.241	0.0157683
862.319	0.0157482
862.397	0.0156447
862.475	0.0156911
862.553	0.0157465
862.631	0.0158565
862.709	0.0158530
862.788	0.0158020
862.866	0.0156452
862.944	0.0157407
863.022	0.0155894
863.100	0.0156863
863.178	0.0156805
863.256	0.0156136
863.334	0.0156910
863.413	0.0156953
863.491	0.0156376
863.569	0.0155450
863.647	0.0156048
863.725	0.0156398
863.803	0.0156814
863.881	0.0156572
863.959	0.0155336
864.038	0.0156727
864.116	0.0156268
864.194	0.0156019
864.272	0.0156973
864.350	0.0157753
864.428	0.0157282
864.506	0.0156800
864.584	0.0155461
864.663	0.0158081
864.741	0.0158034
864.819	0.0158040
864.897	0.0157586
864.975	0.0156222
865.053	0.0157336
865.131	0.0157345
865.209	0.0157018
865.288	0.0156089
865.366	0.0155097
865.444	0.0155866
865.522	0.0156316
865.600	0.0156513
865.678	0.0156532
865.756	0.0156397
865.834	0.0155468
865.913	0.0156565
865.991	0.0156382
866.069	0.0156693
866.147	0.0156647
866.225	0.0157077
866.303	0.0155983
866.381	0.0157324
866.459	0.0158014
866.538	0.0156771
866.616	0.0155715
866.694	0.0156657
866.772	0.0156853
866.850	0.0156657
866.928	0.0157757
867.006	0.0156894
867.084	0.0156155
867.163	0.0157400
867.241	0.0155804
867.319	0.0156218
867.397	0.0155359
867.475	0.0155721
867.553	0.0155711
867.631	0.0157054
867.709	0.0155170
867.788	0.0155816
867.866	0.0156278
867.944	0.0155562
868.022	0.0155225
868.100	0.0155743
868.178	0.0155933
868.256	0.0154812
868.334	0.0155307
868.413	0.0154990
868.491	0.0155377
868.569	0.0156448
868.647	0.0155968
868.725	0.0156744
868.803	0.0157623
868.881	0.0154810
868.959	0.0155448
869.038	0.0155045
869.116	0.0156326
869.194	0.0157542
869.272	0.0157372
869.350	0.0156429
869.428	0.0156232
869.506	0.0156321
869.584	0.0156894
869.663	0.0156609
869.741	0.0156334
869.819	0.0155815
869.897	0.0157106
869.975	0.0157418
870.053	0.0156307
870.131	0.0156367
870.209	0.0155728
870.288	0.0155770
870.366	0.0156974
870.444	0.0156689
870.522	0.0155856
870.600	0.0155875
870.678	0.0155443
870.756	0.0155399
870.834	0.0155671
870.913	0.0155481
870.991	0.0156111
871.069	0.0155451
871.147	0.0154803
871.225	0.0154082
871.303	0.0155713
871.381	0.0156151
871.459	0.0156107
871.538	0.0154975
871.616	0.0155547
871.694	0.0154762
871.772	0.0154571
871.850	0.0155459
871.928	0.0155259
872.006	0.0155078
872.084	0.0155939
872.163	0.0154838
872.241	0.0152598
872.319	0.0154341
872.397	0.0156423
872.475	0.0155788
872.553	0.0155625
872.631	0.0155873
872.709	0.0155468
872.788	0.0154243
872.866	0.0156009
872.944	0.0156541
873.022	0.0156489
873.100	0.0155773
873.178	0.0156050
873.256	0.0156482
873.334	0.0157262
873.413	0.0157062
873.491	0.0155668
873.569	0.0156881
873.647	0.0157928
873.725	0.0156013
873.803	0.0155664
873.881	0.0156793
873.959	0.0155354
874.038	0.0155819
874.116	0.0157513
874.194	0.0155474
874.272	0.0155341
874.350	0.0154332
874.428	0.0155103
874.506	0.0155638
874.584	0.0156343
874.663	0.0155286
874.741	0.0154365
874.819	0.0154655
874.897	0.0154547
874.975	0.0154802
875.053	0.0154919
875.131	0.0155032
875.209	0.0155172
875.288	0.0156300
875.366	0.0155972
875.444	0.0154466
875.522	0.0156128
875.600	0.0154597
875.678	0.0154849
875.756	0.0156677
875.834	0.0156297
875.913	0.0155155
875.991	0.0155800
876.069	0.0156722
876.147	0.0157194
876.225	0.0157281
876.303	0.0156278
876.381	0.0157517
876.459	0.0156791
876.538	0.0156598
876.616	0.0157549
876.694	0.0155863
876.772	0.0156695
876.850	0.0155785
876.928	0.0156334
877.006	0.0155986
877.084	0.0155289
877.163	0.0156223
877.241	0.0155562
877.319	0.0154351
877.397	0.0155228
877.475	0.0155687
877.553	0.0154713
877.631	0.0155268
877.709	0.0155548
877.788	0.0154459
877.866	0.0154121
877.944	0.0153783
878.022	0.0154818
878.100	0.0154189
878.178	0.0155145
878.256	0.0153736
878.334	0.0154935
878.413	0.0154636
878.491	0.0155164
878.569	0.0156020
878.647	0.0155244
878.725	0.0155020
878.803	0.0155313
878.881	0.0156593
878.959	0.0155947
879.038	0.0156911
879.116	0.0156275
879.194	0.0155727
879.272	0.0157047
879.350	0.0155715
879.428	0.0156841
879.506	0.0157996
879.584	0.0156697
879.663	0.0155421
879.741	0.0157376
879.819	0.0156474
879.897	0.0156337
879.975	0.0156836
880.053	0.0156734
880.131	0.0157306
880.209	0.0157468
880.288	0.0157550
880.366	0.0157766
880.444	0.0156405
880.522	0.0156543
880.600	0.0156647
880.678	0.0156841
880.756	0.0155648
880.834	0.0156221
880.913	0.0155923
880.991	0.0155976
881.069	0.0154081
881.147	0.0154578
881.225	0.0156168
881.303	0.0155439
881.381	0.0155238
881.459	0.0155717
881.538	0.0154942
881.616	0.0155611
881.694	0.0155329
881.772	0.0155939
881.850	0.0155738
881.928	0.0156317
882.006	0.0156062
882.084	0.0155927
882.163	0.0155574
882.241	0.0156706
882.319	0.0157287
882.397	0.0157055
882.475	0.0158135
882.553	0.0157534
882.631	0.0156464
882.709	0.0156963
882.788	0.0157942
882.866	0.0157917
882.944	0.0157847
883.022	0.0156166
883.100	0.0156439
883.178	0.0156229
883.256	0.0155325
883.334	0.0154936
883.413	0.0153980
883.491	0.0153289
883.569	0.0154490
883.647	0.0153941
883.725	0.0154750
883.803	0.0154536
883.881	0.0154180
883.959	0.0153857
884.038	0.0154364
884.116	0.0154842
884.194	0.0155535
884.272	0.0155378
884.350	0.0155001
884.428	0.0157403
884.506	0.0156528
884.584	0.0156731
884.663	0.0155840
884.741	0.0155231
884.819	0.0157014
884.897	0.0155627
884.975	0.0156358
885.053	0.0156793
885.131	0.0155878
885.209	0.0156884
885.288	0.0156651
885.366	0.0157129
885.444	0.0156790
885.522	0.0157259
885.600	0.0158000
885.678	0.0157027
885.756	0.0156146
885.834	0.0156709
885.913	0.0157289
885.991	0.0156325
886.069	0.0156709
886.147	0.0153603
886.225	0.0156254
886.303	0.0155701
886.381	0.0155843
886.459	0.0153994
886.538	0.0155013
886.616	0.0154755
886.694	0.0154912
886.772	0.0153027
886.850	0.0155064
886.928	0.0153949
887.006	0.0155416
887.084	0.0154751
887.163	0.0155227
887.241	0.0155771
887.319	0.0155553
887.397	0.0155683
887.475	0.0155721
887.553	0.0155972
887.631	0.0157461
887.709	0.0156400
887.788	0.0155735
887.866	0.0157518
887.944	0.0157808
888.022	0.0157337
888.100	0.0157301
888.178	0.0155581
888.256	0.0156676
888.334	0.0157168
888.413	0.0157143
888.491	0.0154951
888.569	0.0156801
888.647	0.0155328
888.725	0.0156081
888.803	0.0155055
888.881	0.0156635
888.959	0.0156413
889.038	0.0156660
889.116	0.0155478
889.194	0.0155944
889.272	0.0155746
889.350	0.0154691
889.428	0.0155374
889.506	0.0155491
889.584	0.0155164
889.663	0.0158607
889.741	0.0156283
889.819	0.0155694
889.897	0.0155067
889.975	0.0156128
890.053	0.0155798
890.131	0.0156343
890.209	0.0156491
890.288	0.0155850
890.366	0.0156291
890.444	0.0155347
890.522	0.0155768
890.600	0.0155025
890.678	0.0156351
890.756	0.0155186
890.834	0.0154317
890.913	0.0154436
890.991	0.0155648
891.069	0.0155701
891.147	0.0155402
891.225	0.0155093
891.303	0.0156052
891.381	0.0155648
891.459	0.0156200
891.538	0.0155073
891.616	0.0156612
891.694	0.0156273
891.772	0.0157224
891.850	0.0158807
891.928	0.0158377
892.006	0.0157708
892.084	0.0158663
892.163	0.0159727
892.241	0.0158910
892.319	0.0158620
892.397	0.0159137
892.475	0.0159423
892.553	0.0157318
892.631	0.0157845
892.709	0.0157212
892.788	0.0157066
892.866	0.0157169
892.944	0.0156277
893.022	0.0154751
893.100	0.0155035
893.178	0.0155271
893.256	0.0155367
893.334	0.0154528
893.413	0.0153367
893.491	0.0153244
893.569	0.0153728
893.647	0.0152715
893.725	0.0154043
893.803	0.0153645
893.881	0.0154179
893.959	0.0152928
894.038	0.0153215
894.116	0.0152942
894.194	0.0152687
894.272	0.0154911
894.350	0.0155044
894.428	0.0154851
894.506	0.0153986
894.584	0.0155083
894.663	0.0156239
894.741	0.0156953
894.819	0.0156599
894.897	0.0156127
894.975	0.0158399
895.053	0.0157729
895.131	0.0158652
895.209	0.0158342
895.288	0.0157759
895.366	0.0158040
895.444	0.0159911
895.522	0.0160021
895.600	0.0157745
895.678	0.0157977
895.756	0.0158050
895.834	0.0158068
895.913	0.0155872
895.991	0.0156451
896.069	0.0156055
896.147	0.0157587
896.225	0.0155717
896.303	0.0155339
896.381	0.0154983
896.459	0.0155616
896.538	0.0153480
896.616	0.0156425
896.694	0.0155268
896.772	0.0153985
896.850	0.0154270
896.928	0.0155299
897.006	0.0154066
897.084	0.0154966
897.163	0.0155289
897.241	0.0154130
897.319	0.0155081
897.397	0.0156240
897.475	0.0155849
897.553	0.0155664
897.631	0.0156270
897.709	0.0154492
897.788	0.0157613
897.866	0.0156067
897.944	0.0156993
898.022	0.0156824
898.100	0.0157040
898.178	0.0156335
898.256	0.0156361
898.334	0.0156070
898.413	0.0157499
898.491	0.0156568
898.569	0.0156924
898.647	0.0156447
898.725	0.0156320
898.803	0.0159143
898.881	0.0155791
898.959	0.0155636
899.038	0.0156808
899.116	0.0157144
899.194	0.0155942
899.272	0.0155653
899.350	0.0156070
899.428	0.0155857
899.506	0.0156614
899.584	0.0156485
899.663	0.0155997
899.741	0.0157024
899.819	0.0157201
899.897	0.0155878
899.975	0.0155801
900.053	0.0157851
900.131	0.0156403
900.209	0.0156541
900.288	0.0157742
900.366	0.0156761
900.444	0.0156808
900.522	0.0157342
900.600	0.0159052
900.678	0.0158636
900.756	0.0158421
900.834	0.0157786
900.913	0.0157307
900.991	0.0158152
901.069	0.0158705
901.147	0.0159079
901.225	0.0159022
901.303	0.0157990
901.381	0.0157784
901.459	0.0157791
901.538	0.0156884
901.616	0.0158434
901.694	0.0157767
901.772	0.0155997
901.850	0.0156133
901.928	0.0155687
902.006	0.0155678
902.084	0.0155025
902.163	0.0154524
902.241	0.0154699
902.319	0.0154865
902.397	0.0154193
902.475	0.0154202
902.553	0.0153873
902.631	0.0154965
902.709	0.0155105
902.788	0.0155541
902.866	0.0155459
902.944	0.0156078
903.022	0.0157221
903.100	0.0157170
903.178	0.0157926
903.256	0.0158031
903.334	0.0157964
903.413	0.0159358
903.491	0.0159337
903.569	0.0160146
903.647	0.0159528
903.725	0.0160801
903.803	0.0159097
903.881	0.0158888
903.959	0.0160267
904.038	0.0158051
904.116	0.0158474
904.194	0.0159208
904.272	0.0158080
904.350	0.0158348
904.428	0.0157145
904.506	0.0155143
904.584	0.0157333
904.663	0.0156127
904.741	0.0156486
904.819	0.0154263
904.897	0.0156528
904.975	0.0156197
905.053	0.0154940
905.131	0.0156229
905.209	0.0156002
905.288	0.0156607
905.366	0.0157829
905.444	0.0157420
905.522	0.0156062
905.600	0.0157709
905.678	0.0157458
905.756	0.0156228
905.834	0.0156491
905.913	0.0156190
905.991	0.0155956
906.069	0.0157190
906.147	0.0158569
906.225	0.0157743
906.303	0.0157864
906.381	0.0157281
906.459	0.0157100
906.538	0.0156667
906.616	0.0156249
906.694	0.0156886
906.772	0.0158149
906.850	0.0155976
906.928	0.0154964
907.006	0.0156795
907.084	0.0156313
907.163	0.0155608
907.241	0.0156108
907.319	0.0155087
907.397	0.0155912
907.475	0.0153815
907.553	0.0154848
907.631	0.0154588
907.709	0.0154735
907.788	0.0155276
907.866	0.0153511
907.944	0.0154830
908.022	0.0154687
908.100	0.0154673
908.178	0.0153822
908.256	0.0155044
908.334	0.0155424
908.413	0.0156555
908.491	0.0154749
908.569	0.0155446
908.647	0.0156132
908.725	0.0158364
908.803	0.0156372
908.881	0.0156704
908.959	0.0157681
909.038	0.0156341
909.116	0.0158159
909.194	0.0157404
909.272	0.0157159
909.350	0.0156389
909.428	0.0156985
909.506	0.0157162
909.584	0.0156332
909.663	0.0155853
909.741	0.0155886
909.819	0.0155033
909.897	0.0155761
909.975	0.0154591
910.053	0.0154345
910.131	0.0155534
910.209	0.0155916
910.288	0.0155508
910.366	0.0154934
910.444	0.0154231
910.522	0.0155853
910.600	0.0155590
910.678	0.0154859
910.756	0.0154652
910.834	0.0154920
910.913	0.0154826
910.991	0.0155071
911.069	0.0156120
911.147	0.0154161
911.225	0.0153770
911.303	0.0155548
911.381	0.0153869
911.459	0.0153933
911.538	0.0154148
911.616	0.0155054
911.694	0.0153490
911.772	0.0153749
911.850	0.0155276
911.928	0.0154826
912.006	0.0152869
912.084	0.0154855
912.163	0.0154102
912.241	0.0153564
912.319	0.0154420
912.397	0.0153689
912.475	0.0154065
912.553	0.0154395
912.631	0.0154018
912.709	0.0155221
912.788	0.0155448
912.866	0.0154282
912.944	0.0155965
913.022	0.0155776
913.100	0.0156088
913.178	0.0157211
913.256	0.0157091
913.334	0.0157806
913.413	0.0158897
913.491	0.0156905
913.569	0.0159425
913.647	0.0158886
913.725	0.0157780
913.803	0.0158376
913.881	0.0157551
913.959	0.0156577
914.038	0.0157042
914.116	0.0155930
914.194	0.0154792
914.272	0.0155112
914.350	0.0153297
914.428	0.0154047
914.506	0.0155233
914.584	0.0153730
914.663	0.0154294
914.741	0.0152605
914.819	0.0154734
914.897	0.0154897
914.975	0.0152814
915.053	0.0155093
915.131	0.0154967
915.209	0.0153143
915.288	0.0152457
915.366	0.0153408
915.444	0.0153528
915.522	0.0152682
915.600	0.0152274
915.678	0.0154730
915.756	0.0154826
915.834	0.0153683
915.913	0.0155399
915.991	0.0155762
916.069	0.0155086
916.147	0.0155423
916.225	0.0155592
916.303	0.0158128
916.381	0.0157787
916.459	0.0158128
916.538	0.0156610
916.616	0.0157332
916.694	0.0159743
916.772	0.0159991
916.850	0.0157127
916.928	0.0158754
917.006	0.0158375
917.084	0.0158448
917.163	0.0158721
917.241	0.0157786
917.319	0.0159733
917.397	0.0158762
917.475	0.0157796
917.553	0.0158811
917.631	0.0159557
917.709	0.0157644
917.788	0.0156702
917.866	0.0158253
917.944	0.0157483
918.022	0.0156802
918.100	0.0153915
918.178	0.0155243
918.256	0.0154443
918.334	0.0153887
918.413	0.0154556
918.491	0.0152406
918.569	0.0155128
918.647	0.0153979
918.725	0.0153382
918.803	0.0152985
918.881	0.0155618
918.959	0.0155441
919.038	0.0155087
919.116	0.0155366
919.194	0.0156998
919.272	0.0156893
919.350	0.0157888
919.428	0.0159351
919.506	0.0159995
919.584	0.0158247
919.663	0.0159024
919.741	0.0159275
919.819	0.0159007
919.897	0.0158901
