05/20/2022	21:09:53	Ver.	4.1	UNKNOWN
Optical Delay	599.975067	Delta X		0.078125	Sweeps	1	Scan Rate	0/0
Coordinates	Axis 1	NaN	Axis 2	NaN	Axis 3	NaN	Axis 4	NaN	Axis 5	NaN	Axis 6	0.000000
TX Power	0.000000	RX Power	0.000000

599.975	0.0153428
600.053	0.0153484
600.131	0.0153176
600.209	0.0151605
600.288	0.0152567
600.366	0.0153899
600.444	0.0153967
600.522	0.0153080
600.600	0.0153593
600.678	0.0153989
600.756	0.0153603
600.834	0.0152945
600.913	0.0153126
600.991	0.0154345
601.069	0.0153806
601.147	0.0153529
601.225	0.0153975
601.303	0.0154057
601.381	0.0153474
601.459	0.0153010
601.538	0.0155109
601.616	0.0154231
601.694	0.0152822
601.772	0.0154063
601.850	0.0153556
601.928	0.0153816
602.006	0.0153621
602.084	0.0153493
602.163	0.0154468
602.241	0.0153443
602.319	0.0152840
602.397	0.0155539
602.475	0.0153987
602.553	0.0151134
602.631	0.0152316
602.709	0.0153796
602.788	0.0154000
602.866	0.0152149
602.944	0.0153924
603.022	0.0154057
603.100	0.0153512
603.178	0.0154089
603.256	0.0153750
603.334	0.0154147
603.413	0.0153342
603.491	0.0154472
603.569	0.0154375
603.647	0.0153857
603.725	0.0154552
603.803	0.0154958
603.881	0.0154185
603.959	0.0153725
604.038	0.0153754
604.116	0.0154400
604.194	0.0154395
604.272	0.0153128
604.350	0.0153840
604.428	0.0153831
604.506	0.0153226
604.584	0.0153768
604.663	0.0153346
604.741	0.0154049
604.819	0.0153642
604.897	0.0152338
604.975	0.0153975
605.053	0.0153098
605.131	0.0154915
605.209	0.0154509
605.288	0.0154196
605.366	0.0154271
605.444	0.0153906
605.522	0.0153342
605.600	0.0153355
605.678	0.0153504
605.756	0.0153068
605.834	0.0153294
605.913	0.0153545
605.991	0.0153611
606.069	0.0152976
606.147	0.0153242
606.225	0.0152217
606.303	0.0153142
606.381	0.0154017
606.459	0.0154194
606.538	0.0152994
606.616	0.0153413
606.694	0.0154049
606.772	0.0152486
606.850	0.0152310
606.928	0.0153308
607.006	0.0152264
607.084	0.0152321
607.163	0.0152514
607.241	0.0153547
607.319	0.0153697
607.397	0.0152744
607.475	0.0152171
607.553	0.0153002
607.631	0.0153384
607.709	0.0152876
607.788	0.0153079
607.866	0.0152811
607.944	0.0153502
608.022	0.0152769
608.100	0.0153917
608.178	0.0153281
608.256	0.0152892
608.334	0.0153980
608.413	0.0153059
608.491	0.0153621
608.569	0.0153561
608.647	0.0153435
608.725	0.0153857
608.803	0.0153790
608.881	0.0153247
608.959	0.0152238
609.038	0.0152886
609.116	0.0153448
609.194	0.0153110
609.272	0.0153025
609.350	0.0151859
609.428	0.0152929
609.506	0.0152979
609.584	0.0154158
609.663	0.0152858
609.741	0.0153143
609.819	0.0153757
609.897	0.0153008
609.975	0.0154868
610.053	0.0155373
610.131	0.0154263
610.209	0.0152116
610.288	0.0153120
610.366	0.0152528
610.444	0.0153135
610.522	0.0154183
610.600	0.0153823
610.678	0.0153634
610.756	0.0154264
610.834	0.0152492
610.913	0.0154203
610.991	0.0153690
611.069	0.0152012
611.147	0.0152907
611.225	0.0152897
611.303	0.0154063
611.381	0.0152653
611.459	0.0152148
611.538	0.0153982
611.616	0.0153755
611.694	0.0154493
611.772	0.0153310
611.850	0.0153117
611.928	0.0153036
612.006	0.0152924
612.084	0.0152380
612.163	0.0153503
612.241	0.0153957
612.319	0.0154047
612.397	0.0153404
612.475	0.0151486
612.553	0.0152694
612.631	0.0152636
612.709	0.0151451
612.788	0.0153093
612.866	0.0152570
612.944	0.0152068
613.022	0.0154205
613.100	0.0153460
613.178	0.0152456
613.256	0.0151821
613.334	0.0153166
613.413	0.0153086
613.491	0.0153002
613.569	0.0151246
613.647	0.0152499
613.725	0.0152705
613.803	0.0151838
613.881	0.0153307
613.959	0.0152086
614.038	0.0151595
614.116	0.0153004
614.194	0.0152936
614.272	0.0151687
614.350	0.0152343
614.428	0.0152214
614.506	0.0151881
614.584	0.0152151
614.663	0.0153571
614.741	0.0152742
614.819	0.0153412
614.897	0.0151626
614.975	0.0151303
615.053	0.0152080
615.131	0.0151857
615.209	0.0153129
615.288	0.0152627
615.366	0.0151188
615.444	0.0153822
615.522	0.0153747
615.600	0.0151894
615.678	0.0152183
615.756	0.0152587
615.834	0.0152589
615.913	0.0152886
615.991	0.0154274
616.069	0.0153425
616.147	0.0151443
616.225	0.0152956
616.303	0.0151981
616.381	0.0152828
616.459	0.0152397
616.538	0.0153191
616.616	0.0152882
616.694	0.0153245
616.772	0.0154542
616.850	0.0152682
616.928	0.0153653
617.006	0.0153646
617.084	0.0151834
617.163	0.0152348
617.241	0.0152077
617.319	0.0154290
617.397	0.0153217
617.475	0.0152874
617.553	0.0153424
617.631	0.0153355
617.709	0.0153460
617.788	0.0153627
617.866	0.0154598
617.944	0.0153262
618.022	0.0152757
618.100	0.0154152
618.178	0.0152551
618.256	0.0153647
618.334	0.0154495
618.413	0.0154581
618.491	0.0155973
618.569	0.0154705
618.647	0.0154940
618.725	0.0153266
618.803	0.0153919
618.881	0.0154020
618.959	0.0153401
619.038	0.0153660
619.116	0.0152873
619.194	0.0153844
619.272	0.0154803
619.350	0.0153413
619.428	0.0154852
619.506	0.0155580
619.584	0.0154662
619.663	0.0153899
619.741	0.0154240
619.819	0.0153965
619.897	0.0153632
619.975	0.0153344
620.053	0.0153438
620.131	0.0154765
620.209	0.0154199
620.288	0.0154543
620.366	0.0154749
620.444	0.0152879
620.522	0.0153540
620.600	0.0154637
620.678	0.0153396
620.756	0.0153793
620.834	0.0153719
620.913	0.0153110
620.991	0.0154505
621.069	0.0153160
621.147	0.0152560
621.225	0.0153586
621.303	0.0153998
621.381	0.0154200
621.459	0.0152876
621.538	0.0153960
621.616	0.0153293
621.694	0.0152979
621.772	0.0153275
621.850	0.0153690
621.928	0.0153181
622.006	0.0153632
622.084	0.0153613
622.163	0.0153873
622.241	0.0153600
622.319	0.0153109
622.397	0.0153497
622.475	0.0154111
622.553	0.0152519
622.631	0.0153342
622.709	0.0152624
622.788	0.0152615
622.866	0.0152292
622.944	0.0152032
623.022	0.0152335
623.100	0.0152544
623.178	0.0152982
623.256	0.0152612
623.334	0.0153027
623.413	0.0152626
623.491	0.0153309
623.569	0.0152580
623.647	0.0152460
623.725	0.0152055
623.803	0.0153337
623.881	0.0152290
623.959	0.0154350
624.038	0.0153185
624.116	0.0151535
624.194	0.0153059
624.272	0.0153924
624.350	0.0153496
624.428	0.0153240
624.506	0.0153327
624.584	0.0154011
624.663	0.0154132
624.741	0.0152262
624.819	0.0153251
624.897	0.0152818
624.975	0.0153921
625.053	0.0152911
625.131	0.0153884
625.209	0.0154640
625.288	0.0153423
625.366	0.0152292
625.444	0.0153801
625.522	0.0153493
625.600	0.0152039
625.678	0.0152884
625.756	0.0152767
625.834	0.0152290
625.913	0.0153737
625.991	0.0153034
626.069	0.0152785
626.147	0.0153313
626.225	0.0151456
626.303	0.0153008
626.381	0.0153981
626.459	0.0152670
626.538	0.0153317
626.616	0.0155013
626.694	0.0152830
626.772	0.0152072
626.850	0.0153388
626.928	0.0154518
627.006	0.0152088
627.084	0.0153489
627.163	0.0154678
627.241	0.0153929
627.319	0.0153585
627.397	0.0153126
627.475	0.0153866
627.553	0.0153418
627.631	0.0154543
627.709	0.0154140
627.788	0.0153677
627.866	0.0153526
627.944	0.0152332
628.022	0.0153905
628.100	0.0154447
628.178	0.0154043
628.256	0.0153931
628.334	0.0153069
628.413	0.0154469
628.491	0.0154879
628.569	0.0153162
628.647	0.0154539
628.725	0.0154046
628.803	0.0152319
628.881	0.0152335
628.959	0.0154046
629.038	0.0153509
629.116	0.0154438
629.194	0.0153323
629.272	0.0154678
629.350	0.0155234
629.428	0.0153593
629.506	0.0152508
629.584	0.0152583
629.663	0.0154404
629.741	0.0153533
629.819	0.0154099
629.897	0.0151817
629.975	0.0153279
630.053	0.0153971
630.131	0.0153239
630.209	0.0153630
630.288	0.0153397
630.366	0.0152744
630.444	0.0153115
630.522	0.0153896
630.600	0.0153427
630.678	0.0153396
630.756	0.0151157
630.834	0.0151916
630.913	0.0153901
630.991	0.0154302
631.069	0.0153586
631.147	0.0152328
631.225	0.0153429
631.303	0.0153176
631.381	0.0154289
631.459	0.0154290
631.538	0.0153884
631.616	0.0153688
631.694	0.0153339
631.772	0.0153929
631.850	0.0153225
631.928	0.0154410
632.006	0.0153802
632.084	0.0154487
632.163	0.0153768
632.241	0.0155157
632.319	0.0154482
632.397	0.0153783
632.475	0.0155338
632.553	0.0154459
632.631	0.0154197
632.709	0.0153628
632.788	0.0153350
632.866	0.0153997
632.944	0.0152158
633.022	0.0154103
633.100	0.0153960
633.178	0.0152660
633.256	0.0154173
633.334	0.0152784
633.413	0.0152831
633.491	0.0153809
633.569	0.0152759
633.647	0.0153075
633.725	0.0152319
633.803	0.0152035
633.881	0.0152298
633.959	0.0153045
634.038	0.0152809
634.116	0.0153324
634.194	0.0152233
634.272	0.0150547
634.350	0.0151949
634.428	0.0151916
634.506	0.0151819
634.584	0.0153840
634.663	0.0152267
634.741	0.0152002
634.819	0.0152811
634.897	0.0154130
634.975	0.0153683
635.053	0.0152284
635.131	0.0153495
635.209	0.0154095
635.288	0.0153551
635.366	0.0152734
635.444	0.0152402
635.522	0.0154321
635.600	0.0155766
635.678	0.0153004
635.756	0.0154471
635.834	0.0154028
635.913	0.0154519
635.991	0.0154137
636.069	0.0154819
636.147	0.0154791
636.225	0.0152922
636.303	0.0153714
636.381	0.0154757
636.459	0.0154272
636.538	0.0154414
636.616	0.0153665
636.694	0.0154132
636.772	0.0152699
636.850	0.0151853
636.928	0.0153432
637.006	0.0153415
637.084	0.0152070
637.163	0.0151911
637.241	0.0151842
637.319	0.0152089
637.397	0.0152048
637.475	0.0152808
637.553	0.0151588
637.631	0.0152476
637.709	0.0153531
637.788	0.0152496
637.866	0.0153070
637.944	0.0152928
638.022	0.0152494
638.100	0.0152696
638.178	0.0151696
638.256	0.0152972
638.334	0.0153711
638.413	0.0153297
638.491	0.0152301
638.569	0.0151957
638.647	0.0153156
638.725	0.0154260
638.803	0.0153644
638.881	0.0153930
638.959	0.0154173
639.038	0.0152090
639.116	0.0152991
639.194	0.0152388
639.272	0.0153859
639.350	0.0154080
639.428	0.0154140
639.506	0.0154691
639.584	0.0155773
639.663	0.0153722
639.741	0.0154332
639.819	0.0155564
639.897	0.0154640
639.975	0.0155843
640.053	0.0155969
640.131	0.0154405
640.209	0.0152825
640.288	0.0154016
640.366	0.0154118
640.444	0.0153766
640.522	0.0155599
640.600	0.0154572
640.678	0.0153570
640.756	0.0152150
640.834	0.0151547
640.913	0.0152958
640.991	0.0152972
641.069	0.0152504
641.147	0.0152354
641.225	0.0152878
641.303	0.0152435
641.381	0.0151670
641.459	0.0151539
641.538	0.0151966
641.616	0.0152300
641.694	0.0152000
641.772	0.0152002
641.850	0.0152228
641.928	0.0152699
642.006	0.0153542
642.084	0.0151179
642.163	0.0152724
642.241	0.0152576
642.319	0.0154213
642.397	0.0154690
642.475	0.0153778
642.553	0.0154375
642.631	0.0154012
642.709	0.0152428
642.788	0.0153450
642.866	0.0154970
642.944	0.0152258
643.022	0.0152768
643.100	0.0152780
643.178	0.0152106
643.256	0.0153905
643.334	0.0153207
643.413	0.0153510
643.491	0.0152448
643.569	0.0152937
643.647	0.0151962
643.725	0.0152195
643.803	0.0153532
643.881	0.0153906
643.959	0.0153315
644.038	0.0152585
644.116	0.0153408
644.194	0.0153761
644.272	0.0154475
644.350	0.0153607
644.428	0.0154401
644.506	0.0153399
644.584	0.0153527
644.663	0.0154815
644.741	0.0155833
644.819	0.0154717
644.897	0.0153687
644.975	0.0154012
645.053	0.0153855
645.131	0.0153891
645.209	0.0153093
645.288	0.0154257
645.366	0.0152954
645.444	0.0153718
645.522	0.0153687
645.600	0.0153909
645.678	0.0153388
645.756	0.0152489
645.834	0.0152145
645.913	0.0153084
645.991	0.0153172
646.069	0.0153268
646.147	0.0152154
646.225	0.0152022
646.303	0.0152402
646.381	0.0153175
646.459	0.0153896
646.538	0.0152914
646.616	0.0154269
646.694	0.0153040
646.772	0.0154175
646.850	0.0153075
646.928	0.0154778
647.006	0.0154063
647.084	0.0155138
647.163	0.0154575
647.241	0.0154734
647.319	0.0155492
647.397	0.0154876
647.475	0.0156190
647.553	0.0155606
647.631	0.0154014
647.709	0.0154394
647.788	0.0154673
647.866	0.0154323
647.944	0.0153402
648.022	0.0153372
648.100	0.0153630
648.178	0.0151982
648.256	0.0151282
648.334	0.0153024
648.413	0.0152560
648.491	0.0153660
648.569	0.0153835
648.647	0.0153326
648.725	0.0153077
648.803	0.0153201
648.881	0.0152734
648.959	0.0155084
649.038	0.0153545
649.116	0.0154080
649.194	0.0154896
649.272	0.0154702
649.350	0.0154406
649.428	0.0155510
649.506	0.0155393
649.584	0.0152871
649.663	0.0153763
649.741	0.0155281
649.819	0.0152880
649.897	0.0153669
649.975	0.0154921
650.053	0.0152843
650.131	0.0154018
650.209	0.0153268
650.288	0.0154931
650.366	0.0153968
650.444	0.0154235
650.522	0.0154395
650.600	0.0154472
650.678	0.0153511
650.756	0.0154644
650.834	0.0154667
650.913	0.0155357
650.991	0.0153534
651.069	0.0153278
651.147	0.0154562
651.225	0.0155106
651.303	0.0155069
651.381	0.0154321
651.459	0.0153285
651.538	0.0154309
651.616	0.0152975
651.694	0.0154034
651.772	0.0155064
651.850	0.0151659
651.928	0.0152435
652.006	0.0154008
652.084	0.0153414
652.163	0.0155009
652.241	0.0154898
652.319	0.0153648
652.397	0.0156154
652.475	0.0155552
652.553	0.0155450
652.631	0.0155169
652.709	0.0155032
652.788	0.0154123
652.866	0.0155676
652.944	0.0155326
653.022	0.0154282
653.100	0.0154096
653.178	0.0154153
653.256	0.0155616
653.334	0.0154948
653.413	0.0154426
653.491	0.0153950
653.569	0.0153169
653.647	0.0153782
653.725	0.0152369
653.803	0.0154507
653.881	0.0153886
653.959	0.0154285
654.038	0.0153934
654.116	0.0153650
654.194	0.0155214
654.272	0.0153405
654.350	0.0153744
654.428	0.0154507
654.506	0.0153648
654.584	0.0153532
654.663	0.0154278
654.741	0.0153604
654.819	0.0153946
654.897	0.0155174
654.975	0.0155698
655.053	0.0154597
655.131	0.0154554
655.209	0.0154398
655.288	0.0154119
655.366	0.0153640
655.444	0.0155305
655.522	0.0154485
655.600	0.0152956
655.678	0.0154187
655.756	0.0154192
655.834	0.0153278
655.913	0.0152589
655.991	0.0152624
656.069	0.0151763
656.147	0.0152378
656.225	0.0152911
656.303	0.0152043
656.381	0.0153905
656.459	0.0152829
656.538	0.0154111
656.616	0.0152526
656.694	0.0152747
656.772	0.0153091
656.850	0.0154115
656.928	0.0154286
657.006	0.0153545
657.084	0.0154012
657.163	0.0152924
657.241	0.0153859
657.319	0.0153503
657.397	0.0153838
657.475	0.0155007
657.553	0.0155897
657.631	0.0154259
657.709	0.0154317
657.788	0.0153724
657.866	0.0154736
657.944	0.0155040
658.022	0.0154239
658.100	0.0153329
658.178	0.0153265
658.256	0.0153701
658.334	0.0152811
658.413	0.0153210
658.491	0.0152582
658.569	0.0151752
658.647	0.0152662
658.725	0.0153329
658.803	0.0152616
658.881	0.0152435
658.959	0.0151986
659.038	0.0152988
659.116	0.0153994
659.194	0.0151845
659.272	0.0153532
659.350	0.0152740
659.428	0.0154892
659.506	0.0153319
659.584	0.0154801
659.663	0.0152482
659.741	0.0154631
659.819	0.0154967
659.897	0.0153408
659.975	0.0153317
660.053	0.0153148
660.131	0.0153557
660.209	0.0152643
660.288	0.0151840
660.366	0.0154076
660.444	0.0153580
660.522	0.0152582
660.600	0.0152909
660.678	0.0151854
660.756	0.0152617
660.834	0.0152876
660.913	0.0152320
660.991	0.0153676
661.069	0.0154479
661.147	0.0154104
661.225	0.0154057
661.303	0.0154000
661.381	0.0152861
661.459	0.0154366
661.538	0.0154459
661.616	0.0152629
661.694	0.0153526
661.772	0.0153642
661.850	0.0153684
661.928	0.0154578
662.006	0.0155831
662.084	0.0153710
662.163	0.0154436
662.241	0.0153625
662.319	0.0154459
662.397	0.0154354
662.475	0.0154684
662.553	0.0154368
662.631	0.0152707
662.709	0.0153642
662.788	0.0153653
662.866	0.0153949
662.944	0.0153640
663.022	0.0152124
663.100	0.0153125
663.178	0.0153756
663.256	0.0152554
663.334	0.0152272
663.413	0.0151895
663.491	0.0153015
663.569	0.0151352
663.647	0.0152742
663.725	0.0152099
663.803	0.0152767
663.881	0.0152754
663.959	0.0152821
664.038	0.0154419
664.116	0.0153761
664.194	0.0154156
664.272	0.0153195
664.350	0.0154255
664.428	0.0154525
664.506	0.0155769
664.584	0.0155109
664.663	0.0153565
664.741	0.0152276
664.819	0.0154700
664.897	0.0153036
664.975	0.0156364
665.053	0.0153107
665.131	0.0154812
665.209	0.0153774
665.288	0.0152988
665.366	0.0152750
665.444	0.0152767
665.522	0.0151659
665.600	0.0152012
665.678	0.0153845
665.756	0.0153216
665.834	0.0152158
665.913	0.0153149
665.991	0.0152788
666.069	0.0153804
666.147	0.0152881
666.225	0.0152772
666.303	0.0154004
666.381	0.0154131
666.459	0.0153096
666.538	0.0154552
666.616	0.0153781
666.694	0.0153802
666.772	0.0154286
666.850	0.0154023
666.928	0.0152879
667.006	0.0153181
667.084	0.0154231
667.163	0.0153156
667.241	0.0153778
667.319	0.0153814
667.397	0.0153458
667.475	0.0153398
667.553	0.0154169
667.631	0.0154028
667.709	0.0153803
667.788	0.0153510
667.866	0.0153884
667.944	0.0154051
668.022	0.0153773
668.100	0.0152787
668.178	0.0151547
668.256	0.0153792
668.334	0.0153680
668.413	0.0153053
668.491	0.0154179
668.569	0.0153169
668.647	0.0153127
668.725	0.0153240
668.803	0.0153522
668.881	0.0154345
668.959	0.0153619
669.038	0.0154586
669.116	0.0153958
669.194	0.0154482
669.272	0.0154423
669.350	0.0154668
669.428	0.0155308
669.506	0.0155076
669.584	0.0153644
669.663	0.0154552
669.741	0.0154356
669.819	0.0154922
669.897	0.0155602
669.975	0.0153822
670.053	0.0152550
670.131	0.0152197
670.209	0.0152732
670.288	0.0152766
670.366	0.0153760
670.444	0.0151897
670.522	0.0153159
670.600	0.0152853
670.678	0.0151425
670.756	0.0152882
670.834	0.0152964
670.913	0.0153647
670.991	0.0153501
671.069	0.0152364
671.147	0.0153113
671.225	0.0153979
671.303	0.0154489
671.381	0.0154393
671.459	0.0154568
671.538	0.0153457
671.616	0.0154297
671.694	0.0155143
671.772	0.0155096
671.850	0.0155621
671.928	0.0155432
672.006	0.0156467
672.084	0.0155770
672.163	0.0154269
672.241	0.0155737
672.319	0.0154576
672.397	0.0153597
672.475	0.0155437
672.553	0.0153452
672.631	0.0152273
672.709	0.0153397
672.788	0.0152943
672.866	0.0152188
672.944	0.0151412
673.022	0.0152391
673.100	0.0151085
673.178	0.0150563
673.256	0.0150769
673.334	0.0151373
673.413	0.0152795
673.491	0.0152865
673.569	0.0154092
673.647	0.0152951
673.725	0.0154328
673.803	0.0154466
673.881	0.0155411
673.959	0.0155908
674.038	0.0155556
674.116	0.0156979
674.194	0.0158031
674.272	0.0158231
674.350	0.0157331
674.428	0.0158335
674.506	0.0157618
674.584	0.0155875
674.663	0.0157383
674.741	0.0155402
674.819	0.0155650
674.897	0.0153770
674.975	0.0152455
675.053	0.0153102
675.131	0.0151290
675.209	0.0150661
675.288	0.0151816
675.366	0.0149670
675.444	0.0147939
675.522	0.0149374
675.600	0.0147402
675.678	0.0146845
675.756	0.0146679
675.834	0.0147919
675.913	0.0146799
675.991	0.0146809
676.069	0.0147984
676.147	0.0148081
676.225	0.0150636
676.303	0.0150424
676.381	0.0151315
676.459	0.0153851
676.538	0.0154482
676.616	0.0156660
676.694	0.0159286
676.772	0.0158961
676.850	0.0159839
676.928	0.0163400
677.006	0.0163921
677.084	0.0164471
677.163	0.0165962
677.241	0.0164663
677.319	0.0167272
677.397	0.0165438
677.475	0.0165762
677.553	0.0163918
677.631	0.0163194
677.709	0.0163531
677.788	0.0161456
677.866	0.0158446
677.944	0.0156215
678.022	0.0155370
678.100	0.0152380
678.178	0.0149567
678.256	0.0148468
678.334	0.0145602
678.413	0.0143122
678.491	0.0139708
678.569	0.0140793
678.647	0.0138810
678.725	0.0137022
678.803	0.0139259
678.881	0.0137714
678.959	0.0136652
679.038	0.0137550
679.116	0.0138858
679.194	0.0139446
679.272	0.0140733
679.350	0.0143811
679.428	0.0147388
679.506	0.0148442
679.584	0.0151588
679.663	0.0152924
679.741	0.0155636
679.819	0.0159520
679.897	0.0161573
679.975	0.0164664
680.053	0.0164552
680.131	0.0167498
680.209	0.0168467
680.288	0.0170702
680.366	0.0171820
680.444	0.0170702
680.522	0.0170072
680.600	0.0170095
680.678	0.0169522
680.756	0.0167236
680.834	0.0165707
680.913	0.0165839
680.991	0.0163226
681.069	0.0159889
681.147	0.0156620
681.225	0.0154467
681.303	0.0152559
681.381	0.0149984
681.459	0.0149154
681.538	0.0147932
681.616	0.0146577
681.694	0.0144905
681.772	0.0143609
681.850	0.0142741
681.928	0.0143437
682.006	0.0141810
682.084	0.0140335
682.163	0.0141308
682.241	0.0141277
682.319	0.0141808
682.397	0.0142300
682.475	0.0143822
682.553	0.0143411
682.631	0.0143435
682.709	0.0144496
682.788	0.0146851
682.866	0.0147268
682.944	0.0147324
683.022	0.0148840
683.100	0.0151875
683.178	0.0152264
683.256	0.0152737
683.334	0.0153339
683.413	0.0154571
683.491	0.0154129
683.569	0.0156022
683.647	0.0155774
683.725	0.0156765
683.803	0.0155656
683.881	0.0158177
683.959	0.0158495
684.038	0.0158069
684.116	0.0159281
684.194	0.0159367
684.272	0.0159824
684.350	0.0160663
684.428	0.0161879
684.506	0.0161122
684.584	0.0160918
684.663	0.0162713
684.741	0.0162245
684.819	0.0162617
684.897	0.0162201
684.975	0.0162936
685.053	0.0164551
685.131	0.0163075
685.209	0.0163080
685.288	0.0161071
685.366	0.0162219
685.444	0.0159148
685.522	0.0157488
685.600	0.0156097
685.678	0.0155810
685.756	0.0152680
685.834	0.0151165
685.913	0.0147675
685.991	0.0146728
686.069	0.0144049
686.147	0.0143967
686.225	0.0140968
686.303	0.0140762
686.381	0.0140978
686.459	0.0139422
686.538	0.0139756
686.616	0.0137979
686.694	0.0137786
686.772	0.0138411
686.850	0.0139163
686.928	0.0140141
687.006	0.0141128
687.084	0.0144324
687.163	0.0145197
687.241	0.0148026
687.319	0.0150602
687.397	0.0151906
687.475	0.0155124
687.553	0.0160667
687.631	0.0163581
687.709	0.0166572
687.788	0.0169001
687.866	0.0170448
687.944	0.0176237
688.022	0.0176091
688.100	0.0178226
688.178	0.0178288
688.256	0.0177120
688.334	0.0178564
688.413	0.0176056
688.491	0.0173556
688.569	0.0171851
688.647	0.0168140
688.725	0.0165130
688.803	0.0162234
688.881	0.0156368
688.959	0.0149581
689.038	0.0146640
689.116	0.0143155
689.194	0.0140018
689.272	0.0135040
689.350	0.0131660
689.428	0.0128397
689.506	0.0125635
689.584	0.0124195
689.663	0.0122184
689.741	0.0122538
689.819	0.0123050
689.897	0.0122721
689.975	0.0122917
690.053	0.0127103
690.131	0.0128642
690.209	0.0131813
690.288	0.0138336
690.366	0.0140778
690.444	0.0145135
690.522	0.0149629
690.600	0.0154271
690.678	0.0159224
690.756	0.0164569
690.834	0.0168115
690.913	0.0171167
690.991	0.0176134
691.069	0.0181261
691.147	0.0183018
691.225	0.0185592
691.303	0.0185070
691.381	0.0185572
691.459	0.0184210
691.538	0.0185188
691.616	0.0183374
691.694	0.0182241
691.772	0.0178632
691.850	0.0177722
691.928	0.0175027
692.006	0.0170528
692.084	0.0166653
692.163	0.0164885
692.241	0.0160175
692.319	0.0157214
692.397	0.0154772
692.475	0.0150609
692.553	0.0147215
692.631	0.0144164
692.709	0.0142430
692.788	0.0140651
692.866	0.0137202
692.944	0.0136256
693.022	0.0135653
693.100	0.0135938
693.178	0.0133911
693.256	0.0135695
693.334	0.0136624
693.413	0.0137846
693.491	0.0139063
693.569	0.0140244
693.647	0.0140065
693.725	0.0141991
693.803	0.0143272
693.881	0.0142468
693.959	0.0143434
694.038	0.0143653
694.116	0.0143800
694.194	0.0143564
694.272	0.0144788
694.350	0.0145267
694.428	0.0144189
694.506	0.0144389
694.584	0.0144703
694.663	0.0145809
694.741	0.0144765
694.819	0.0143836
694.897	0.0144847
694.975	0.0144189
695.053	0.0145558
695.131	0.0146011
695.209	0.0145966
695.288	0.0148164
695.366	0.0148928
695.444	0.0149639
695.522	0.0152605
695.600	0.0156213
695.678	0.0160071
695.756	0.0163027
695.834	0.0164967
695.913	0.0166438
695.991	0.0169871
696.069	0.0173389
696.147	0.0175650
696.225	0.0176662
696.303	0.0177694
696.381	0.0177391
696.459	0.0179065
696.538	0.0179126
696.616	0.0178242
696.694	0.0178637
696.772	0.0178999
696.850	0.0177952
696.928	0.0175478
697.006	0.0175727
697.084	0.0175105
697.163	0.0173952
697.241	0.0171019
697.319	0.0169900
697.397	0.0167822
697.475	0.0165086
697.553	0.0161757
697.631	0.0159343
697.709	0.0156212
697.788	0.0152744
697.866	0.0149171
697.944	0.0147095
698.022	0.0143603
698.100	0.0140585
698.178	0.0138146
698.256	0.0135306
698.334	0.0132265
698.413	0.0130269
698.491	0.0128040
698.569	0.0124938
698.647	0.0123853
698.725	0.0122141
698.803	0.0120756
698.881	0.0119269
698.959	0.0118353
699.038	0.0118595
699.116	0.0119313
699.194	0.0120133
699.272	0.0120377
699.350	0.0123248
699.428	0.0125790
699.506	0.0130367
699.584	0.0134541
699.663	0.0137753
699.741	0.0141317
699.819	0.0146383
699.897	0.0153832
699.975	0.0157334
700.053	0.0162405
700.131	0.0165592
700.209	0.0169771
700.288	0.0173668
700.366	0.0177996
700.444	0.0179305
700.522	0.0180585
700.600	0.0181911
700.678	0.0183006
700.756	0.0183948
700.834	0.0182134
700.913	0.0181644
700.991	0.0181078
701.069	0.0178561
701.147	0.0176861
701.225	0.0171447
701.303	0.0173314
701.381	0.0171024
701.459	0.0166972
701.538	0.0166594
701.616	0.0162457
701.694	0.0160027
701.772	0.0156388
701.850	0.0155609
701.928	0.0152206
702.006	0.0149959
702.084	0.0147569
702.163	0.0145802
702.241	0.0141991
702.319	0.0141289
702.397	0.0141826
702.475	0.0140301
702.553	0.0140290
702.631	0.0140836
702.709	0.0141963
702.788	0.0142226
702.866	0.0143590
702.944	0.0144566
703.022	0.0146404
703.100	0.0149303
703.178	0.0149943
703.256	0.0151922
703.334	0.0153289
703.413	0.0156351
703.491	0.0156593
703.569	0.0157304
703.647	0.0159663
703.725	0.0160464
703.803	0.0160609
703.881	0.0161309
703.959	0.0159375
704.038	0.0160971
704.116	0.0161565
704.194	0.0159805
704.272	0.0159767
704.350	0.0158057
704.428	0.0155724
704.506	0.0154552
704.584	0.0151906
704.663	0.0150280
704.741	0.0148827
704.819	0.0145789
704.897	0.0143938
704.975	0.0142472
705.053	0.0138236
705.131	0.0137195
705.209	0.0137273
705.288	0.0136297
705.366	0.0135138
705.444	0.0134969
705.522	0.0132799
705.600	0.0134125
705.678	0.0133791
705.756	0.0136178
705.834	0.0138921
705.913	0.0138852
705.991	0.0141517
706.069	0.0143308
706.147	0.0143813
706.225	0.0146911
706.303	0.0149133
706.381	0.0150883
706.459	0.0153334
706.538	0.0155437
706.616	0.0156546
706.694	0.0156870
706.772	0.0158851
706.850	0.0157887
706.928	0.0160300
707.006	0.0160289
707.084	0.0160074
707.163	0.0159525
707.241	0.0159348
707.319	0.0158318
707.397	0.0161050
707.475	0.0161009
707.553	0.0159559
707.631	0.0160138
707.709	0.0161259
707.788	0.0160323
707.866	0.0161107
707.944	0.0160517
708.022	0.0161716
708.100	0.0161996
708.178	0.0161370
708.256	0.0161494
708.334	0.0161626
708.413	0.0164284
708.491	0.0165090
708.569	0.0165108
708.647	0.0167464
708.725	0.0169395
708.803	0.0170223
708.881	0.0172470
708.959	0.0173725
709.038	0.0175429
709.116	0.0175357
709.194	0.0175847
709.272	0.0174191
709.350	0.0173657
709.428	0.0171497
709.506	0.0171246
709.584	0.0167287
709.663	0.0162697
709.741	0.0159293
709.819	0.0153147
709.897	0.0148455
709.975	0.0141982
710.053	0.0137089
710.131	0.0132259
710.209	0.0128118
710.288	0.0123129
710.366	0.0119369
710.444	0.0116336
710.522	0.0116194
710.600	0.0115743
710.678	0.0114400
710.756	0.0115956
710.834	0.0117156
710.913	0.0120632
710.991	0.0124016
711.069	0.0125990
711.147	0.0129594
711.225	0.0134504
711.303	0.0139713
711.381	0.0143530
711.459	0.0145834
711.538	0.0150748
711.616	0.0153780
711.694	0.0156525
711.772	0.0157864
711.850	0.0161988
711.928	0.0163500
712.006	0.0163922
712.084	0.0165263
712.163	0.0163304
712.241	0.0164417
712.319	0.0165486
712.397	0.0165446
712.475	0.0164496
712.553	0.0165064
712.631	0.0164320
712.709	0.0163796
712.788	0.0163728
712.866	0.0163838
712.944	0.0162316
713.022	0.0161876
713.100	0.0161436
713.178	0.0159243
713.256	0.0159517
713.334	0.0157726
713.413	0.0157693
713.491	0.0156463
713.569	0.0156715
713.647	0.0155256
713.725	0.0152242
713.803	0.0152454
713.881	0.0151540
713.959	0.0152067
714.038	0.0154451
714.116	0.0154108
714.194	0.0156759
714.272	0.0159606
714.350	0.0159727
714.428	0.0161758
714.506	0.0164886
714.584	0.0168247
714.663	0.0169415
714.741	0.0171718
714.819	0.0172781
714.897	0.0174776
714.975	0.0174568
715.053	0.0174525
715.131	0.0176894
715.209	0.0174309
715.288	0.0173709
715.366	0.0172244
715.444	0.0170688
715.522	0.0169447
715.600	0.0164855
715.678	0.0164368
715.756	0.0160754
715.834	0.0157038
715.913	0.0153391
715.991	0.0149352
716.069	0.0145915
716.147	0.0141537
716.225	0.0136871
716.303	0.0134315
716.381	0.0130400
716.459	0.0128684
716.538	0.0124738
716.616	0.0122556
716.694	0.0121464
716.772	0.0120766
716.850	0.0120153
716.928	0.0121263
717.006	0.0122195
717.084	0.0123362
717.163	0.0124176
717.241	0.0125084
717.319	0.0129313
717.397	0.0130058
717.475	0.0131592
717.553	0.0133376
717.631	0.0136177
717.709	0.0138856
717.788	0.0138988
717.866	0.0141865
717.944	0.0141814
718.022	0.0144666
718.100	0.0148628
718.178	0.0150621
718.256	0.0154295
718.334	0.0157378
718.413	0.0161452
718.491	0.0166113
718.569	0.0170171
718.647	0.0175515
718.725	0.0178687
718.803	0.0180743
718.881	0.0186342
718.959	0.0188519
719.038	0.0190110
719.116	0.0190660
719.194	0.0190196
719.272	0.0191180
719.350	0.0190369
719.428	0.0190572
719.506	0.0187016
719.584	0.0184248
719.663	0.0181826
719.741	0.0178929
719.819	0.0172964
719.897	0.0171702
719.975	0.0168144
720.053	0.0162115
720.131	0.0159499
720.209	0.0154558
720.288	0.0151492
720.366	0.0147601
720.444	0.0144115
720.522	0.0138942
720.600	0.0136024
720.678	0.0134763
720.756	0.0130484
720.834	0.0128745
720.913	0.0126749
720.991	0.0127535
721.069	0.0128590
721.147	0.0127174
721.225	0.0129225
721.303	0.0131107
721.381	0.0133082
721.459	0.0135226
721.538	0.0137420
721.616	0.0140556
721.694	0.0143046
721.772	0.0145846
721.850	0.0149585
721.928	0.0149941
722.006	0.0152914
722.084	0.0155186
722.163	0.0155309
722.241	0.0156629
722.319	0.0158508
722.397	0.0160826
722.475	0.0161638
722.553	0.0161945
722.631	0.0163726
722.709	0.0163772
722.788	0.0165143
722.866	0.0163587
722.944	0.0163651
723.022	0.0162852
723.100	0.0163075
723.178	0.0160578
723.256	0.0160550
723.334	0.0158031
723.413	0.0159522
723.491	0.0156756
723.569	0.0154362
723.647	0.0153595
723.725	0.0153223
723.803	0.0150146
723.881	0.0147965
723.959	0.0145285
724.038	0.0145549
724.116	0.0143993
724.194	0.0141518
724.272	0.0141144
724.350	0.0139205
724.428	0.0138855
724.506	0.0138428
724.584	0.0139278
724.663	0.0140437
724.741	0.0140545
724.819	0.0141958
724.897	0.0144063
724.975	0.0145517
725.053	0.0147440
725.131	0.0149014
725.209	0.0152869
725.288	0.0154173
725.366	0.0156683
725.444	0.0160330
725.522	0.0161095
725.600	0.0162129
725.678	0.0164574
725.756	0.0165683
725.834	0.0168131
725.913	0.0168568
725.991	0.0169349
726.069	0.0167866
726.147	0.0165920
726.225	0.0166290
726.303	0.0162752
726.381	0.0161043
726.459	0.0158964
726.538	0.0156345
726.616	0.0154433
726.694	0.0152329
726.772	0.0151874
726.850	0.0151081
726.928	0.0151441
727.006	0.0152832
727.084	0.0152417
727.163	0.0155069
727.241	0.0155927
727.319	0.0155376
727.397	0.0157237
727.475	0.0157837
727.553	0.0158304
727.631	0.0159949
727.709	0.0157426
727.788	0.0157871
727.866	0.0157780
727.944	0.0156672
728.022	0.0155245
728.100	0.0153286
728.178	0.0151765
728.256	0.0150981
728.334	0.0148113
728.413	0.0147589
728.491	0.0145490
728.569	0.0144437
728.647	0.0143289
728.725	0.0142628
728.803	0.0140109
728.881	0.0138768
728.959	0.0138291
729.038	0.0137920
729.116	0.0138111
729.194	0.0139546
729.272	0.0140280
729.350	0.0139502
729.428	0.0142691
729.506	0.0143481
729.584	0.0145315
729.663	0.0147835
729.741	0.0150645
729.819	0.0152460
729.897	0.0154118
729.975	0.0156585
730.053	0.0156411
730.131	0.0157980
730.209	0.0158068
730.288	0.0158752
730.366	0.0157894
730.444	0.0157878
730.522	0.0156805
730.600	0.0156372
730.678	0.0155576
730.756	0.0155187
730.834	0.0154861
730.913	0.0151405
730.991	0.0150627
731.069	0.0152318
731.147	0.0153368
731.225	0.0155103
731.303	0.0156987
731.381	0.0158570
731.459	0.0160620
731.538	0.0161549
731.616	0.0165331
731.694	0.0165791
731.772	0.0167437
731.850	0.0169231
731.928	0.0171526
732.006	0.0170331
732.084	0.0170116
732.163	0.0169477
732.241	0.0167523
732.319	0.0166151
732.397	0.0164087
732.475	0.0159013
732.553	0.0157449
732.631	0.0154584
732.709	0.0150448
732.788	0.0148651
732.866	0.0148162
732.944	0.0145066
733.022	0.0143484
733.100	0.0141758
733.178	0.0142533
733.256	0.0140141
733.334	0.0139917
733.413	0.0140204
733.491	0.0140504
733.569	0.0140079
733.647	0.0144865
733.725	0.0143884
733.803	0.0144891
733.881	0.0147742
733.959	0.0149303
734.038	0.0150674
734.116	0.0155819
734.194	0.0156172
734.272	0.0157400
734.350	0.0158817
734.428	0.0160212
734.506	0.0163049
734.584	0.0161298
734.663	0.0163631
734.741	0.0163735
734.819	0.0165530
734.897	0.0165849
734.975	0.0165810
735.053	0.0165063
735.131	0.0165156
735.209	0.0165266
735.288	0.0163821
735.366	0.0162229
735.444	0.0159990
735.522	0.0157680
735.600	0.0156520
735.678	0.0156351
735.756	0.0153890
735.834	0.0151028
735.913	0.0148914
735.991	0.0146643
736.069	0.0146989
736.147	0.0143526
736.225	0.0141628
736.303	0.0139970
736.381	0.0139799
736.459	0.0138023
736.538	0.0137813
736.616	0.0138045
736.694	0.0139158
736.772	0.0139116
736.850	0.0142744
736.928	0.0144402
737.006	0.0146004
737.084	0.0147590
737.163	0.0150125
737.241	0.0152618
737.319	0.0154329
737.397	0.0155684
737.475	0.0157969
737.553	0.0158384
737.631	0.0161739
737.709	0.0162111
737.788	0.0161035
737.866	0.0162254
737.944	0.0163606
738.022	0.0162892
738.100	0.0161794
738.178	0.0161615
738.256	0.0161951
738.334	0.0162404
738.413	0.0160808
738.491	0.0159552
738.569	0.0161139
738.647	0.0161140
738.725	0.0159998
738.803	0.0160091
738.881	0.0160753
738.959	0.0160550
739.038	0.0160548
739.116	0.0160444
739.194	0.0160712
739.272	0.0160821
739.350	0.0160513
739.428	0.0162553
739.506	0.0163259
739.584	0.0163743
739.663	0.0163371
739.741	0.0163379
739.819	0.0163684
739.897	0.0163202
739.975	0.0160775
740.053	0.0161694
740.131	0.0159824
740.209	0.0157920
740.288	0.0156297
740.366	0.0155926
740.444	0.0153230
740.522	0.0152880
740.600	0.0150224
740.678	0.0148608
740.756	0.0148535
740.834	0.0146593
740.913	0.0144699
740.991	0.0144324
741.069	0.0141548
741.147	0.0143356
741.225	0.0142434
741.303	0.0142298
741.381	0.0141708
741.459	0.0142901
741.538	0.0141947
741.616	0.0143411
741.694	0.0142966
741.772	0.0145052
741.850	0.0148275
741.928	0.0149961
742.006	0.0151623
742.084	0.0152724
742.163	0.0153664
742.241	0.0154453
742.319	0.0155538
742.397	0.0157910
742.475	0.0159116
742.553	0.0158312
742.631	0.0158427
742.709	0.0158064
742.788	0.0158415
742.866	0.0157376
742.944	0.0154774
743.022	0.0156263
743.100	0.0156298
743.178	0.0154727
743.256	0.0154474
743.334	0.0153671
743.413	0.0153057
743.491	0.0153294
743.569	0.0151455
743.647	0.0152930
743.725	0.0152948
743.803	0.0155016
743.881	0.0155756
743.959	0.0155117
744.038	0.0155590
744.116	0.0155586
744.194	0.0158796
744.272	0.0158527
744.350	0.0158643
744.428	0.0159425
744.506	0.0159109
744.584	0.0159735
744.663	0.0158240
744.741	0.0158421
744.819	0.0157058
744.897	0.0156610
744.975	0.0154947
745.053	0.0153803
745.131	0.0152533
745.209	0.0152000
745.288	0.0151350
745.366	0.0149768
745.444	0.0150518
745.522	0.0151338
745.600	0.0151955
745.678	0.0150500
745.756	0.0151777
745.834	0.0150617
745.913	0.0150928
745.991	0.0151303
746.069	0.0150838
746.147	0.0152013
746.225	0.0150425
746.303	0.0149693
746.381	0.0151201
746.459	0.0151524
746.538	0.0151101
746.616	0.0150864
746.694	0.0153370
746.772	0.0154084
746.850	0.0157112
746.928	0.0157854
747.006	0.0157028
747.084	0.0156848
747.163	0.0159241
747.241	0.0159151
747.319	0.0158224
747.397	0.0157196
747.475	0.0154662
747.553	0.0156549
747.631	0.0154426
747.709	0.0153230
747.788	0.0151694
747.866	0.0152479
747.944	0.0149653
748.022	0.0149075
748.100	0.0148438
748.178	0.0148877
748.256	0.0149365
748.334	0.0148512
748.413	0.0147657
748.491	0.0147921
748.569	0.0147602
748.647	0.0148998
748.725	0.0148995
748.803	0.0148749
748.881	0.0147231
748.959	0.0149014
749.038	0.0150788
749.116	0.0152064
749.194	0.0152528
749.272	0.0152825
749.350	0.0152038
749.428	0.0154218
749.506	0.0154278
749.584	0.0154686
749.663	0.0155251
749.741	0.0154780
749.819	0.0153457
749.897	0.0154906
749.975	0.0154337
750.053	0.0153176
750.131	0.0152257
750.209	0.0152077
750.288	0.0152711
750.366	0.0154478
750.444	0.0154465
750.522	0.0154951
750.600	0.0154092
750.678	0.0156742
750.756	0.0158657
750.834	0.0160464
750.913	0.0160686
750.991	0.0161443
751.069	0.0162479
751.147	0.0162041
751.225	0.0162350
751.303	0.0162244
751.381	0.0161134
751.459	0.0160043
751.538	0.0159166
751.616	0.0158109
751.694	0.0156909
751.772	0.0155395
751.850	0.0153837
751.928	0.0152480
752.006	0.0150067
752.084	0.0150184
752.163	0.0147744
752.241	0.0146626
752.319	0.0145004
752.397	0.0144935
752.475	0.0144843
752.553	0.0143649
752.631	0.0145053
752.709	0.0143556
752.788	0.0145165
752.866	0.0145816
752.944	0.0147746
753.022	0.0148256
753.100	0.0150759
753.178	0.0153008
753.256	0.0154241
753.334	0.0153533
753.413	0.0157127
753.491	0.0157139
753.569	0.0158728
753.647	0.0158107
753.725	0.0159610
753.803	0.0159637
753.881	0.0158696
753.959	0.0157940
754.038	0.0156078
754.116	0.0158419
754.194	0.0157169
754.272	0.0155044
754.350	0.0154245
754.428	0.0152863
754.506	0.0152111
754.584	0.0152728
754.663	0.0150836
754.741	0.0150104
754.819	0.0150867
754.897	0.0151011
754.975	0.0150916
755.053	0.0151627
755.131	0.0151003
755.209	0.0153043
755.288	0.0152579
755.366	0.0152931
755.444	0.0154583
755.522	0.0156317
755.600	0.0156393
755.678	0.0157116
755.756	0.0157657
755.834	0.0157494
755.913	0.0157642
755.991	0.0157146
756.069	0.0156477
756.147	0.0154599
756.225	0.0156094
756.303	0.0156809
756.381	0.0155370
756.459	0.0153919
756.538	0.0154665
756.616	0.0154790
756.694	0.0154366
756.772	0.0154058
756.850	0.0153483
756.928	0.0154205
757.006	0.0154729
757.084	0.0153484
757.163	0.0153945
757.241	0.0153535
757.319	0.0152424
757.397	0.0154256
757.475	0.0153355
757.553	0.0154092
757.631	0.0153619
757.709	0.0154240
757.788	0.0154340
757.866	0.0152757
757.944	0.0152973
758.022	0.0152757
758.100	0.0152280
758.178	0.0151717
758.256	0.0150883
758.334	0.0153112
758.413	0.0150055
758.491	0.0151704
758.569	0.0150909
758.647	0.0151006
758.725	0.0153539
758.803	0.0153856
758.881	0.0154165
758.959	0.0155489
759.038	0.0156299
759.116	0.0157993
759.194	0.0158713
759.272	0.0159895
759.350	0.0160316
759.428	0.0159288
759.506	0.0160117
759.584	0.0160189
759.663	0.0160265
759.741	0.0158162
759.819	0.0157108
759.897	0.0157206
759.975	0.0156613
760.053	0.0154648
760.131	0.0153252
760.209	0.0152917
760.288	0.0153124
760.366	0.0151846
760.444	0.0149136
760.522	0.0149664
760.600	0.0149140
760.678	0.0149772
760.756	0.0148156
760.834	0.0150230
760.913	0.0149525
760.991	0.0150035
761.069	0.0151427
761.147	0.0152922
761.225	0.0155471
761.303	0.0156292
761.381	0.0157001
761.459	0.0158259
761.538	0.0160246
761.616	0.0160497
761.694	0.0161464
761.772	0.0161258
761.850	0.0162640
761.928	0.0161142
762.006	0.0161060
762.084	0.0159432
762.163	0.0157679
762.241	0.0154475
762.319	0.0154544
762.397	0.0151790
762.475	0.0149897
762.553	0.0150163
762.631	0.0148228
762.709	0.0147836
762.788	0.0146111
762.866	0.0147223
762.944	0.0146499
763.022	0.0146027
763.100	0.0146543
763.178	0.0149370
763.256	0.0150509
763.334	0.0151358
763.413	0.0151421
763.491	0.0153484
763.569	0.0152248
763.647	0.0154812
763.725	0.0154539
763.803	0.0154616
763.881	0.0154179
763.959	0.0154154
764.038	0.0154230
764.116	0.0155344
764.194	0.0156475
764.272	0.0156194
764.350	0.0157603
764.428	0.0158076
764.506	0.0157273
764.584	0.0159416
764.663	0.0159980
764.741	0.0157884
764.819	0.0159026
764.897	0.0159219
764.975	0.0157248
765.053	0.0157266
765.131	0.0156589
765.209	0.0154662
765.288	0.0153085
765.366	0.0152559
765.444	0.0151108
765.522	0.0151120
765.600	0.0149635
765.678	0.0149375
765.756	0.0148915
765.834	0.0148675
765.913	0.0149940
765.991	0.0149773
766.069	0.0149663
766.147	0.0150779
766.225	0.0151504
766.303	0.0152168
766.381	0.0153367
766.459	0.0153154
766.538	0.0154131
766.616	0.0155881
766.694	0.0155738
766.772	0.0156464
766.850	0.0156689
766.928	0.0156687
767.006	0.0155672
767.084	0.0155996
767.163	0.0155180
767.241	0.0154448
767.319	0.0153764
767.397	0.0152814
767.475	0.0153734
767.553	0.0150854
767.631	0.0149505
767.709	0.0152200
767.788	0.0150271
767.866	0.0148696
767.944	0.0148462
768.022	0.0148084
768.100	0.0148497
768.178	0.0149072
768.256	0.0149752
768.334	0.0148317
768.413	0.0148478
768.491	0.0148315
768.569	0.0149670
768.647	0.0149464
768.725	0.0149368
768.803	0.0151109
768.881	0.0150311
768.959	0.0151364
769.038	0.0151698
769.116	0.0151174
769.194	0.0153939
769.272	0.0153503
769.350	0.0153662
769.428	0.0155351
769.506	0.0156470
769.584	0.0155764
769.663	0.0156272
769.741	0.0157022
769.819	0.0157990
769.897	0.0157249
769.975	0.0156892
770.053	0.0157867
770.131	0.0156718
770.209	0.0155388
770.288	0.0154524
770.366	0.0155006
770.444	0.0153424
770.522	0.0150490
770.600	0.0150522
770.678	0.0150741
770.756	0.0149948
770.834	0.0148509
770.913	0.0146458
770.991	0.0148217
771.069	0.0148582
771.147	0.0147110
771.225	0.0148060
771.303	0.0149375
771.381	0.0151391
771.459	0.0149825
771.538	0.0151186
771.616	0.0151853
771.694	0.0154004
771.772	0.0154265
771.850	0.0155141
771.928	0.0156626
772.006	0.0157465
772.084	0.0157276
772.163	0.0155991
772.241	0.0158427
772.319	0.0156640
772.397	0.0156046
772.475	0.0155123
772.553	0.0155113
772.631	0.0154771
772.709	0.0153497
772.788	0.0152944
772.866	0.0153209
772.944	0.0151474
773.022	0.0151285
773.100	0.0152641
773.178	0.0152341
773.256	0.0152314
773.334	0.0150983
773.413	0.0154034
773.491	0.0152264
773.569	0.0153117
773.647	0.0154806
773.725	0.0153222
773.803	0.0154582
773.881	0.0154780
773.959	0.0154919
774.038	0.0155109
774.116	0.0157043
774.194	0.0156155
774.272	0.0156371
774.350	0.0155944
774.428	0.0156361
774.506	0.0156781
774.584	0.0156582
774.663	0.0158023
774.741	0.0157005
774.819	0.0157670
774.897	0.0155992
774.975	0.0155563
775.053	0.0156079
775.131	0.0155805
775.209	0.0154031
775.288	0.0154450
775.366	0.0153189
775.444	0.0152014
775.522	0.0151891
775.600	0.0152823
775.678	0.0149802
775.756	0.0150481
775.834	0.0149712
775.913	0.0149059
775.991	0.0148351
776.069	0.0149509
776.147	0.0149723
776.225	0.0150309
776.303	0.0150459
776.381	0.0151842
776.459	0.0151125
776.538	0.0151389
776.616	0.0153203
776.694	0.0153944
776.772	0.0156232
776.850	0.0156819
776.928	0.0156350
777.006	0.0156591
777.084	0.0157500
777.163	0.0158396
777.241	0.0157269
777.319	0.0157002
777.397	0.0157915
777.475	0.0157362
777.553	0.0157260
777.631	0.0155030
777.709	0.0153600
777.788	0.0153581
777.866	0.0151933
777.944	0.0150638
778.022	0.0149339
778.100	0.0149026
778.178	0.0149265
778.256	0.0147515
778.334	0.0149052
778.413	0.0148449
778.491	0.0149882
778.569	0.0147628
778.647	0.0150177
778.725	0.0150969
778.803	0.0152630
778.881	0.0155037
778.959	0.0155548
779.038	0.0154697
779.116	0.0157747
779.194	0.0159560
779.272	0.0158435
779.350	0.0159727
779.428	0.0159270
779.506	0.0161048
779.584	0.0159625
779.663	0.0159922
779.741	0.0158070
779.819	0.0156784
779.897	0.0157194
779.975	0.0156734
780.053	0.0155881
780.131	0.0155119
780.209	0.0154211
780.288	0.0154403
780.366	0.0154559
780.444	0.0153953
780.522	0.0153261
780.600	0.0155012
780.678	0.0155289
780.756	0.0153323
780.834	0.0154347
780.913	0.0153970
780.991	0.0154188
781.069	0.0155032
781.147	0.0155087
781.225	0.0154296
781.303	0.0155280
781.381	0.0154522
781.459	0.0154179
781.538	0.0153913
781.616	0.0154579
781.694	0.0155178
781.772	0.0154191
781.850	0.0153235
781.928	0.0153777
782.006	0.0154859
782.084	0.0154882
782.163	0.0155268
782.241	0.0154846
782.319	0.0154750
782.397	0.0154210
782.475	0.0153474
782.553	0.0152896
782.631	0.0152041
782.709	0.0152477
782.788	0.0151031
782.866	0.0150417
782.944	0.0149215
783.022	0.0148188
783.100	0.0148194
783.178	0.0148678
783.256	0.0147662
783.334	0.0148379
783.413	0.0148040
783.491	0.0148855
783.569	0.0148360
783.647	0.0150604
783.725	0.0151412
783.803	0.0152563
783.881	0.0153967
783.959	0.0155587
784.038	0.0155391
784.116	0.0156434
784.194	0.0157590
784.272	0.0156213
784.350	0.0158756
784.428	0.0156879
784.506	0.0157108
784.584	0.0158701
784.663	0.0156374
784.741	0.0157582
784.819	0.0157603
784.897	0.0157809
784.975	0.0156396
785.053	0.0158184
785.131	0.0154868
785.209	0.0155675
785.288	0.0155692
785.366	0.0154964
785.444	0.0154258
785.522	0.0154600
785.600	0.0154733
785.678	0.0153597
785.756	0.0151781
785.834	0.0151026
785.913	0.0151228
785.991	0.0149571
786.069	0.0148798
786.147	0.0147334
786.225	0.0147590
786.303	0.0148166
786.381	0.0146452
786.459	0.0146518
786.538	0.0146213
786.616	0.0145941
786.694	0.0146596
786.772	0.0147527
786.850	0.0148217
786.928	0.0150221
787.006	0.0151118
787.084	0.0151871
787.163	0.0153261
787.241	0.0156413
787.319	0.0156580
787.397	0.0157950
787.475	0.0159168
787.553	0.0158321
787.631	0.0160363
787.709	0.0160746
787.788	0.0161372
787.866	0.0160432
787.944	0.0160072
788.022	0.0159210
788.100	0.0159609
788.178	0.0158791
788.256	0.0157750
788.334	0.0157110
788.413	0.0155906
788.491	0.0157000
788.569	0.0155994
788.647	0.0153748
788.725	0.0153650
788.803	0.0152413
788.881	0.0151883
788.959	0.0150324
789.038	0.0150248
789.116	0.0148625
789.194	0.0148912
789.272	0.0148409
789.350	0.0148018
789.428	0.0149378
789.506	0.0148207
789.584	0.0150414
789.663	0.0149706
789.741	0.0148748
789.819	0.0146910
789.897	0.0147674
789.975	0.0149911
790.053	0.0149474
790.131	0.0148412
790.209	0.0148271
790.288	0.0148993
790.366	0.0148230
790.444	0.0148257
790.522	0.0148537
790.600	0.0149623
790.678	0.0149780
790.756	0.0149717
790.834	0.0150747
790.913	0.0151642
790.991	0.0151380
791.069	0.0151890
791.147	0.0151857
791.225	0.0152417
791.303	0.0153692
791.381	0.0150832
791.459	0.0151134
791.538	0.0151505
791.616	0.0151175
791.694	0.0151381
791.772	0.0148238
791.850	0.0149325
791.928	0.0150346
792.006	0.0150306
792.084	0.0150747
792.163	0.0151226
792.241	0.0152513
792.319	0.0153001
792.397	0.0154737
792.475	0.0155760
792.553	0.0156160
792.631	0.0156194
792.709	0.0158511
792.788	0.0159360
792.866	0.0158163
792.944	0.0158450
793.022	0.0160547
793.100	0.0159144
793.178	0.0160246
793.256	0.0159595
793.334	0.0157872
793.413	0.0157165
793.491	0.0158257
793.569	0.0156587
793.647	0.0156435
793.725	0.0156638
793.803	0.0156437
793.881	0.0156864
793.959	0.0155978
794.038	0.0156299
794.116	0.0155128
794.194	0.0153673
794.272	0.0153555
794.350	0.0154783
794.428	0.0153567
794.506	0.0153086
794.584	0.0152937
794.663	0.0151135
794.741	0.0151380
794.819	0.0149410
794.897	0.0149570
794.975	0.0148248
795.053	0.0147619
795.131	0.0147908
795.209	0.0147149
795.288	0.0146983
795.366	0.0147456
795.444	0.0146859
795.522	0.0144971
795.600	0.0145408
795.678	0.0147055
795.756	0.0146712
795.834	0.0146352
795.913	0.0147741
795.991	0.0148125
796.069	0.0149275
796.147	0.0149706
796.225	0.0150694
796.303	0.0152256
796.381	0.0153213
796.459	0.0153624
796.538	0.0153671
796.616	0.0155082
796.694	0.0155315
796.772	0.0155701
796.850	0.0156152
796.928	0.0156042
797.006	0.0156350
797.084	0.0157384
797.163	0.0157304
797.241	0.0156994
797.319	0.0157703
797.397	0.0157553
797.475	0.0156623
797.553	0.0156592
797.631	0.0156049
797.709	0.0156336
797.788	0.0157043
797.866	0.0158144
797.944	0.0157157
798.022	0.0156209
798.100	0.0156191
798.178	0.0156303
798.256	0.0156940
798.334	0.0155114
798.413	0.0155377
798.491	0.0155315
798.569	0.0156621
798.647	0.0157233
798.725	0.0154608
798.803	0.0153213
798.881	0.0154179
798.959	0.0153494
799.038	0.0152119
799.116	0.0152101
799.194	0.0150858
799.272	0.0152813
799.350	0.0152715
799.428	0.0151501
799.506	0.0151846
799.584	0.0151579
799.663	0.0152767
799.741	0.0152251
799.819	0.0152666
799.897	0.0152096
799.975	0.0153261
800.053	0.0153125
800.131	0.0153861
800.209	0.0153882
800.288	0.0154330
800.366	0.0154661
800.444	0.0153780
800.522	0.0153569
800.600	0.0155036
800.678	0.0155238
800.756	0.0155388
800.834	0.0154029
800.913	0.0154213
800.991	0.0153898
801.069	0.0153666
801.147	0.0155302
801.225	0.0155354
801.303	0.0154957
801.381	0.0155003
801.459	0.0155222
801.538	0.0154250
801.616	0.0153272
801.694	0.0151827
801.772	0.0153455
801.850	0.0152791
801.928	0.0151351
802.006	0.0150659
802.084	0.0151627
802.163	0.0150428
802.241	0.0150320
802.319	0.0151345
802.397	0.0152197
802.475	0.0150907
802.553	0.0149773
802.631	0.0153481
802.709	0.0153533
802.788	0.0153220
802.866	0.0154343
802.944	0.0155887
803.022	0.0154765
803.100	0.0157031
803.178	0.0158132
803.256	0.0156845
803.334	0.0156660
803.413	0.0157639
803.491	0.0155271
803.569	0.0155719
803.647	0.0156428
803.725	0.0154681
803.803	0.0154529
803.881	0.0155116
803.959	0.0154899
804.038	0.0153735
804.116	0.0154395
804.194	0.0154104
804.272	0.0154218
804.350	0.0155701
804.428	0.0154748
804.506	0.0153855
804.584	0.0155015
804.663	0.0154446
804.741	0.0155733
804.819	0.0153624
804.897	0.0156588
804.975	0.0155550
805.053	0.0153786
805.131	0.0153756
805.209	0.0153951
805.288	0.0153892
805.366	0.0154866
805.444	0.0153126
805.522	0.0153320
805.600	0.0154763
805.678	0.0153830
805.756	0.0153340
805.834	0.0152969
805.913	0.0151836
805.991	0.0153571
806.069	0.0152616
806.147	0.0152708
806.225	0.0151226
806.303	0.0153124
806.381	0.0153744
806.459	0.0151115
806.538	0.0151707
806.616	0.0150789
806.694	0.0151983
806.772	0.0150754
806.850	0.0151777
806.928	0.0151170
807.006	0.0149584
807.084	0.0149545
807.163	0.0150870
807.241	0.0148805
807.319	0.0149971
807.397	0.0149551
807.475	0.0149151
807.553	0.0148926
807.631	0.0150978
807.709	0.0149461
807.788	0.0150083
807.866	0.0148842
807.944	0.0149103
808.022	0.0151160
808.100	0.0152454
808.178	0.0151751
808.256	0.0150800
808.334	0.0151902
808.413	0.0152925
808.491	0.0152876
808.569	0.0154606
808.647	0.0155100
808.725	0.0154687
808.803	0.0155035
808.881	0.0157377
808.959	0.0157381
809.038	0.0156704
809.116	0.0160150
809.194	0.0158109
809.272	0.0158498
809.350	0.0158580
809.428	0.0159229
809.506	0.0158674
809.584	0.0159274
809.663	0.0158952
809.741	0.0157085
809.819	0.0156355
809.897	0.0155953
809.975	0.0155644
810.053	0.0155750
810.131	0.0157254
810.209	0.0154955
810.288	0.0154626
810.366	0.0154358
810.444	0.0155261
810.522	0.0155229
810.600	0.0153041
810.678	0.0154312
810.756	0.0154964
810.834	0.0154613
810.913	0.0154752
810.991	0.0153915
811.069	0.0155633
811.147	0.0154256
811.225	0.0152566
811.303	0.0153802
811.381	0.0154014
811.459	0.0152713
811.538	0.0154073
811.616	0.0155006
811.694	0.0153671
811.772	0.0154553
811.850	0.0154932
811.928	0.0152079
812.006	0.0152383
812.084	0.0153592
812.163	0.0154384
812.241	0.0151854
812.319	0.0153468
812.397	0.0152409
812.475	0.0151825
812.553	0.0150356
812.631	0.0151357
812.709	0.0149940
812.788	0.0150097
812.866	0.0150024
812.944	0.0150469
813.022	0.0151045
813.100	0.0149774
813.178	0.0148869
813.256	0.0149226
813.334	0.0148922
813.413	0.0150575
813.491	0.0149260
813.569	0.0149111
813.647	0.0150310
813.725	0.0151029
813.803	0.0150850
813.881	0.0149780
813.959	0.0149594
814.038	0.0150977
814.116	0.0151466
814.194	0.0151974
814.272	0.0151732
814.350	0.0152504
814.428	0.0152860
814.506	0.0155665
814.584	0.0154705
814.663	0.0155846
814.741	0.0156004
814.819	0.0157233
814.897	0.0157989
814.975	0.0158170
815.053	0.0159086
815.131	0.0157297
815.209	0.0158399
815.288	0.0158443
815.366	0.0159019
815.444	0.0158318
815.522	0.0157114
815.600	0.0157714
815.678	0.0156342
815.756	0.0156519
815.834	0.0156482
815.913	0.0155955
815.991	0.0156160
816.069	0.0156676
816.147	0.0157638
816.225	0.0156699
816.303	0.0156466
816.381	0.0156753
816.459	0.0156110
816.538	0.0157069
816.616	0.0155552
816.694	0.0156655
816.772	0.0156873
816.850	0.0155233
816.928	0.0155632
817.006	0.0153867
817.084	0.0153770
817.163	0.0152599
817.241	0.0153065
817.319	0.0152144
817.397	0.0152211
817.475	0.0150195
817.553	0.0150481
817.631	0.0151785
817.709	0.0150591
817.788	0.0152665
817.866	0.0153488
817.944	0.0152729
818.022	0.0154066
818.100	0.0153012
818.178	0.0154478
818.256	0.0154605
818.334	0.0154520
818.413	0.0155044
818.491	0.0155457
818.569	0.0155560
818.647	0.0154803
818.725	0.0155066
818.803	0.0153992
818.881	0.0154079
818.959	0.0153527
819.038	0.0153545
819.116	0.0153152
819.194	0.0152599
819.272	0.0153083
819.350	0.0152532
819.428	0.0151340
819.506	0.0152409
819.584	0.0152354
819.663	0.0152628
819.741	0.0152830
819.819	0.0152663
819.897	0.0153064
819.975	0.0152185
820.053	0.0153062
820.131	0.0152477
820.209	0.0151730
820.288	0.0151929
820.366	0.0151965
820.444	0.0150035
820.522	0.0149015
820.600	0.0151520
820.678	0.0152058
820.756	0.0151776
820.834	0.0152728
820.913	0.0152488
820.991	0.0154440
821.069	0.0153580
821.147	0.0154401
821.225	0.0153584
821.303	0.0152637
821.381	0.0152750
821.459	0.0153791
821.538	0.0153899
821.616	0.0152710
821.694	0.0152815
821.772	0.0153595
821.850	0.0153825
821.928	0.0154494
822.006	0.0153477
822.084	0.0154536
822.163	0.0153735
822.241	0.0155720
822.319	0.0156900
822.397	0.0154427
822.475	0.0155511
822.553	0.0155191
822.631	0.0155621
822.709	0.0154777
822.788	0.0155492
822.866	0.0153699
822.944	0.0155174
823.022	0.0155190
823.100	0.0154832
823.178	0.0153076
823.256	0.0151944
823.334	0.0153916
823.413	0.0153442
823.491	0.0151938
823.569	0.0152670
823.647	0.0153544
823.725	0.0151720
823.803	0.0152417
823.881	0.0152106
823.959	0.0153024
824.038	0.0153185
824.116	0.0153607
824.194	0.0152202
824.272	0.0153387
824.350	0.0150034
824.428	0.0151786
824.506	0.0150603
824.584	0.0151649
824.663	0.0152546
824.741	0.0152232
824.819	0.0151738
824.897	0.0150852
824.975	0.0150603
825.053	0.0152472
825.131	0.0151674
825.209	0.0152371
825.288	0.0151895
825.366	0.0151926
825.444	0.0151726
825.522	0.0152760
825.600	0.0152720
825.678	0.0152607
825.756	0.0154175
825.834	0.0153108
825.913	0.0153152
825.991	0.0153568
826.069	0.0153692
826.147	0.0152332
826.225	0.0152356
826.303	0.0153306
826.381	0.0153577
826.459	0.0154051
826.538	0.0155608
826.616	0.0155334
826.694	0.0155367
826.772	0.0155154
826.850	0.0156826
826.928	0.0155273
827.006	0.0157484
827.084	0.0157105
827.163	0.0157822
827.241	0.0157677
827.319	0.0156248
827.397	0.0155782
827.475	0.0157280
827.553	0.0156194
827.631	0.0155884
827.709	0.0155577
827.788	0.0155033
827.866	0.0155466
827.944	0.0155402
828.022	0.0154995
828.100	0.0154797
828.178	0.0155763
828.256	0.0154110
828.334	0.0153900
828.413	0.0153020
828.491	0.0153946
828.569	0.0154547
828.647	0.0154192
828.725	0.0154518
828.803	0.0153508
828.881	0.0153400
828.959	0.0152985
829.038	0.0153283
829.116	0.0151672
829.194	0.0151478
829.272	0.0151883
829.350	0.0150764
829.428	0.0151614
829.506	0.0152277
829.584	0.0151233
829.663	0.0152377
829.741	0.0152278
829.819	0.0151903
829.897	0.0153581
829.975	0.0155282
830.053	0.0154510
830.131	0.0155662
830.209	0.0154725
830.288	0.0154249
830.366	0.0154584
830.444	0.0155310
830.522	0.0154411
830.600	0.0154898
830.678	0.0154854
830.756	0.0153476
830.834	0.0154074
830.913	0.0154086
830.991	0.0154664
831.069	0.0152891
831.147	0.0151904
831.225	0.0152659
831.303	0.0153857
831.381	0.0152913
831.459	0.0152533
831.538	0.0153302
831.616	0.0152843
831.694	0.0153175
831.772	0.0153790
831.850	0.0152387
831.928	0.0151534
832.006	0.0152648
832.084	0.0151945
832.163	0.0152399
832.241	0.0152959
832.319	0.0152688
832.397	0.0151885
832.475	0.0154097
832.553	0.0154973
832.631	0.0152955
832.709	0.0154156
832.788	0.0154646
832.866	0.0155054
832.944	0.0154971
833.022	0.0155199
833.100	0.0156863
833.178	0.0155566
833.256	0.0157385
833.334	0.0155535
833.413	0.0156641
833.491	0.0156179
833.569	0.0155948
833.647	0.0157951
833.725	0.0155929
833.803	0.0155791
833.881	0.0156306
833.959	0.0156017
834.038	0.0158978
834.116	0.0157454
834.194	0.0155630
834.272	0.0157097
834.350	0.0155976
834.428	0.0154463
834.506	0.0156770
834.584	0.0155404
834.663	0.0154520
834.741	0.0155367
834.819	0.0154385
834.897	0.0154716
834.975	0.0154971
835.053	0.0154301
835.131	0.0153788
835.209	0.0153946
835.288	0.0152628
835.366	0.0154378
835.444	0.0153342
835.522	0.0153518
835.600	0.0154356
835.678	0.0153770
835.756	0.0154264
835.834	0.0153292
835.913	0.0154636
835.991	0.0155206
836.069	0.0156203
836.147	0.0155889
836.225	0.0156065
836.303	0.0155653
836.381	0.0156696
836.459	0.0155656
836.538	0.0156248
836.616	0.0155547
836.694	0.0154478
836.772	0.0154112
836.850	0.0154211
836.928	0.0153754
837.006	0.0154390
837.084	0.0153091
837.163	0.0152850
837.241	0.0152642
837.319	0.0152335
837.397	0.0151624
837.475	0.0151413
837.553	0.0152141
837.631	0.0150940
837.709	0.0153021
837.788	0.0153499
837.866	0.0150934
837.944	0.0151187
838.022	0.0153992
838.100	0.0153094
838.178	0.0152464
838.256	0.0153484
838.334	0.0154720
838.413	0.0154707
838.491	0.0155056
838.569	0.0155217
838.647	0.0156477
838.725	0.0156106
838.803	0.0156240
838.881	0.0156606
838.959	0.0157282
839.038	0.0158235
839.116	0.0157500
839.194	0.0156994
839.272	0.0158397
839.350	0.0156493
839.428	0.0156097
839.506	0.0156696
839.584	0.0155984
839.663	0.0152842
839.741	0.0154808
839.819	0.0154855
839.897	0.0154024
839.975	0.0153117
840.053	0.0154664
840.131	0.0153384
840.209	0.0154063
840.288	0.0155311
840.366	0.0153119
840.444	0.0154076
840.522	0.0155260
840.600	0.0154071
840.678	0.0153773
840.756	0.0155917
840.834	0.0154658
840.913	0.0154681
840.991	0.0155666
841.069	0.0156186
841.147	0.0155890
841.225	0.0155851
841.303	0.0155297
841.381	0.0155550
841.459	0.0154539
841.538	0.0153724
841.616	0.0153613
841.694	0.0155811
841.772	0.0155202
841.850	0.0155888
841.928	0.0155865
842.006	0.0154889
842.084	0.0155898
842.163	0.0156417
842.241	0.0155519
842.319	0.0156461
842.397	0.0155151
842.475	0.0154655
842.553	0.0155862
842.631	0.0155333
842.709	0.0154548
842.788	0.0154218
842.866	0.0154369
842.944	0.0154613
843.022	0.0153551
843.100	0.0154379
843.178	0.0153848
843.256	0.0153634
843.334	0.0153106
843.413	0.0152905
843.491	0.0154424
843.569	0.0152734
843.647	0.0153036
843.725	0.0152905
843.803	0.0152556
843.881	0.0151929
843.959	0.0151218
844.038	0.0153156
844.116	0.0152099
844.194	0.0151326
844.272	0.0152766
844.350	0.0151022
844.428	0.0150536
844.506	0.0152773
844.584	0.0151942
844.663	0.0151170
844.741	0.0151912
844.819	0.0151974
844.897	0.0152300
844.975	0.0152453
845.053	0.0152579
845.131	0.0152998
845.209	0.0154887
845.288	0.0154073
845.366	0.0154154
845.444	0.0153977
845.522	0.0155070
845.600	0.0154601
845.678	0.0153294
845.756	0.0155688
845.834	0.0153777
845.913	0.0153631
845.991	0.0153931
846.069	0.0152737
846.147	0.0153362
846.225	0.0152636
846.303	0.0151649
846.381	0.0152640
846.459	0.0152426
846.538	0.0152749
846.616	0.0151740
846.694	0.0153029
846.772	0.0152370
846.850	0.0152567
846.928	0.0153017
847.006	0.0151743
847.084	0.0152155
847.163	0.0151133
847.241	0.0151391
847.319	0.0152602
847.397	0.0152262
847.475	0.0150954
847.553	0.0152482
847.631	0.0151925
847.709	0.0151909
847.788	0.0151588
847.866	0.0153088
847.944	0.0151836
848.022	0.0152048
848.100	0.0151801
848.178	0.0152193
848.256	0.0152102
848.334	0.0152709
848.413	0.0151105
848.491	0.0150940
848.569	0.0151013
848.647	0.0151615
848.725	0.0150556
848.803	0.0150558
848.881	0.0149769
848.959	0.0149941
849.038	0.0151355
849.116	0.0150507
849.194	0.0151080
849.272	0.0149405
849.350	0.0150526
849.428	0.0151230
849.506	0.0152611
849.584	0.0152858
849.663	0.0152773
849.741	0.0152445
849.819	0.0152132
849.897	0.0153218
849.975	0.0152902
850.053	0.0153403
850.131	0.0153944
850.209	0.0152811
850.288	0.0153695
850.366	0.0153723
850.444	0.0153386
850.522	0.0152923
850.600	0.0153791
850.678	0.0154176
850.756	0.0154337
850.834	0.0154477
850.913	0.0155598
850.991	0.0153957
851.069	0.0155031
851.147	0.0153794
851.225	0.0154320
851.303	0.0153480
851.381	0.0154716
851.459	0.0155434
851.538	0.0153685
851.616	0.0153191
851.694	0.0153644
851.772	0.0152740
851.850	0.0153292
851.928	0.0154157
852.006	0.0152673
852.084	0.0154031
852.163	0.0154563
852.241	0.0152953
852.319	0.0152870
852.397	0.0154066
852.475	0.0155569
852.553	0.0153368
852.631	0.0153799
852.709	0.0153117
852.788	0.0152810
852.866	0.0153624
852.944	0.0152921
853.022	0.0152853
853.100	0.0153426
853.178	0.0152637
853.256	0.0152181
853.334	0.0152611
853.413	0.0151915
853.491	0.0151550
853.569	0.0150620
853.647	0.0150066
853.725	0.0150812
853.803	0.0149933
853.881	0.0150705
853.959	0.0151480
854.038	0.0152571
854.116	0.0150522
854.194	0.0151273
854.272	0.0152626
854.350	0.0153049
854.428	0.0151845
854.506	0.0152255
854.584	0.0154516
854.663	0.0153530
854.741	0.0153468
854.819	0.0153912
854.897	0.0153788
854.975	0.0153020
855.053	0.0153957
855.131	0.0154244
855.209	0.0153755
855.288	0.0154376
855.366	0.0154106
855.444	0.0154302
855.522	0.0153807
855.600	0.0154839
855.678	0.0154968
855.756	0.0153368
855.834	0.0153738
855.913	0.0155733
855.991	0.0153563
856.069	0.0154103
856.147	0.0154308
856.225	0.0154905
856.303	0.0155455
856.381	0.0155149
856.459	0.0154148
856.538	0.0153748
856.616	0.0155322
856.694	0.0154640
856.772	0.0156421
856.850	0.0156700
856.928	0.0154827
857.006	0.0155222
857.084	0.0156499
857.163	0.0157674
857.241	0.0154723
857.319	0.0155518
857.397	0.0156178
857.475	0.0155308
857.553	0.0154812
857.631	0.0155504
857.709	0.0154986
857.788	0.0156462
857.866	0.0156755
857.944	0.0156738
858.022	0.0154572
858.100	0.0154364
858.178	0.0156175
858.256	0.0154900
858.334	0.0154288
858.413	0.0154706
858.491	0.0154914
858.569	0.0153407
858.647	0.0155054
858.725	0.0154151
858.803	0.0153928
858.881	0.0153976
858.959	0.0152523
859.038	0.0153801
859.116	0.0153560
859.194	0.0153114
859.272	0.0152593
859.350	0.0152381
859.428	0.0152894
859.506	0.0152320
859.584	0.0151466
859.663	0.0152634
859.741	0.0152220
859.819	0.0151405
859.897	0.0153240
859.975	0.0153252
860.053	0.0152640
860.131	0.0153351
860.209	0.0153595
860.288	0.0153710
860.366	0.0154085
860.444	0.0154180
860.522	0.0153953
860.600	0.0153760
860.678	0.0154224
860.756	0.0154708
860.834	0.0153999
860.913	0.0153254
860.991	0.0153300
861.069	0.0152893
861.147	0.0154585
861.225	0.0152643
861.303	0.0152962
861.381	0.0153674
861.459	0.0153600
861.538	0.0153838
861.616	0.0154185
861.694	0.0153606
861.772	0.0154214
861.850	0.0153754
861.928	0.0154935
862.006	0.0156102
862.084	0.0154629
862.163	0.0153027
862.241	0.0154152
862.319	0.0153200
862.397	0.0153503
862.475	0.0154471
862.553	0.0152469
862.631	0.0153132
862.709	0.0153664
862.788	0.0153229
862.866	0.0154527
862.944	0.0155907
863.022	0.0153671
863.100	0.0154522
863.178	0.0154338
863.256	0.0153555
863.334	0.0153809
863.413	0.0154581
863.491	0.0154863
863.569	0.0154583
863.647	0.0154668
863.725	0.0154822
863.803	0.0154095
863.881	0.0155087
863.959	0.0154230
864.038	0.0153667
864.116	0.0154678
864.194	0.0154185
864.272	0.0154067
864.350	0.0153392
864.428	0.0153482
864.506	0.0153465
864.584	0.0152945
864.663	0.0152657
864.741	0.0153403
864.819	0.0152084
864.897	0.0151979
864.975	0.0150486
865.053	0.0151325
865.131	0.0153033
865.209	0.0151327
865.288	0.0150935
865.366	0.0153220
865.444	0.0152036
865.522	0.0152663
865.600	0.0151363
865.678	0.0150532
865.756	0.0151770
865.834	0.0153784
865.913	0.0152054
865.991	0.0152724
866.069	0.0152167
866.147	0.0153254
866.225	0.0153030
866.303	0.0151728
866.381	0.0153528
866.459	0.0152733
866.538	0.0151006
866.616	0.0153146
866.694	0.0151825
866.772	0.0153069
866.850	0.0153848
866.928	0.0151385
867.006	0.0151677
867.084	0.0152549
867.163	0.0152931
867.241	0.0151628
867.319	0.0151772
867.397	0.0151962
867.475	0.0151794
867.553	0.0152000
867.631	0.0152185
867.709	0.0151530
867.788	0.0153228
867.866	0.0152953
867.944	0.0151852
868.022	0.0152579
868.100	0.0153941
868.178	0.0152306
868.256	0.0153353
868.334	0.0152557
868.413	0.0153616
868.491	0.0154844
868.569	0.0154585
868.647	0.0154073
868.725	0.0153989
868.803	0.0153304
868.881	0.0154472
868.959	0.0153706
869.038	0.0153586
869.116	0.0153947
869.194	0.0152440
869.272	0.0153133
869.350	0.0152758
869.428	0.0154353
869.506	0.0154311
869.584	0.0153111
869.663	0.0153929
869.741	0.0153315
869.819	0.0153442
869.897	0.0153971
869.975	0.0152235
870.053	0.0152328
870.131	0.0152757
870.209	0.0151139
870.288	0.0152902
870.366	0.0152180
870.444	0.0151584
870.522	0.0151241
870.600	0.0151797
870.678	0.0152081
870.756	0.0153565
870.834	0.0152766
870.913	0.0154549
870.991	0.0153098
871.069	0.0151896
871.147	0.0152325
871.225	0.0153535
871.303	0.0152058
871.381	0.0150067
871.459	0.0151702
871.538	0.0151537
871.616	0.0152653
871.694	0.0150696
871.772	0.0152080
871.850	0.0151247
871.928	0.0150712
872.006	0.0151232
872.084	0.0152396
872.163	0.0149917
872.241	0.0150683
872.319	0.0150919
872.397	0.0151933
872.475	0.0153751
872.553	0.0152877
872.631	0.0153912
872.709	0.0152954
872.788	0.0152735
872.866	0.0154457
872.944	0.0152458
873.022	0.0153983
873.100	0.0153145
873.178	0.0154649
873.256	0.0154700
873.334	0.0154443
873.413	0.0153176
873.491	0.0154131
873.569	0.0153684
873.647	0.0153465
873.725	0.0152981
873.803	0.0154608
873.881	0.0152811
873.959	0.0153822
874.038	0.0152798
874.116	0.0152982
874.194	0.0152854
874.272	0.0153120
874.350	0.0152834
874.428	0.0152297
874.506	0.0153777
874.584	0.0153477
874.663	0.0153516
874.741	0.0153757
874.819	0.0153322
874.897	0.0153118
874.975	0.0153468
875.053	0.0153887
875.131	0.0154290
875.209	0.0154925
875.288	0.0154600
875.366	0.0153165
875.444	0.0154214
875.522	0.0155122
875.600	0.0154935
875.678	0.0153763
875.756	0.0153368
875.834	0.0153981
875.913	0.0155380
875.991	0.0155276
876.069	0.0153068
876.147	0.0152570
876.225	0.0154143
876.303	0.0154911
876.381	0.0153989
876.459	0.0152748
876.538	0.0152023
876.616	0.0154076
876.694	0.0153559
876.772	0.0154460
876.850	0.0153906
876.928	0.0153606
877.006	0.0154276
877.084	0.0153338
877.163	0.0153481
877.241	0.0153384
877.319	0.0154548
877.397	0.0154536
877.475	0.0152307
877.553	0.0151884
877.631	0.0152271
877.709	0.0152056
877.788	0.0153719
877.866	0.0153230
877.944	0.0153329
878.022	0.0152517
878.100	0.0151313
878.178	0.0151905
878.256	0.0153127
878.334	0.0153413
878.413	0.0153761
878.491	0.0152031
878.569	0.0153667
878.647	0.0152968
878.725	0.0153378
878.803	0.0153466
878.881	0.0152531
878.959	0.0152377
879.038	0.0152548
879.116	0.0152571
879.194	0.0153304
879.272	0.0151875
879.350	0.0152582
879.428	0.0152895
879.506	0.0154123
879.584	0.0152466
879.663	0.0154559
879.741	0.0152944
879.819	0.0150578
879.897	0.0153249
879.975	0.0153352
880.053	0.0153735
880.131	0.0151855
880.209	0.0152316
880.288	0.0152042
880.366	0.0153574
880.444	0.0152563
880.522	0.0151349
880.600	0.0153075
880.678	0.0152458
880.756	0.0151882
880.834	0.0153056
880.913	0.0153803
880.991	0.0153104
881.069	0.0152515
881.147	0.0152675
881.225	0.0152740
881.303	0.0154385
881.381	0.0152169
881.459	0.0153858
881.538	0.0154858
881.616	0.0153669
881.694	0.0154576
881.772	0.0154977
881.850	0.0155859
881.928	0.0154913
882.006	0.0153651
882.084	0.0154353
882.163	0.0154862
882.241	0.0155268
882.319	0.0155196
882.397	0.0155791
882.475	0.0154259
882.553	0.0154072
882.631	0.0154143
882.709	0.0153233
882.788	0.0154008
882.866	0.0154221
882.944	0.0154610
883.022	0.0152985
883.100	0.0151696
883.178	0.0153242
883.256	0.0152197
883.334	0.0151518
883.413	0.0153082
883.491	0.0153170
883.569	0.0151746
883.647	0.0150880
883.725	0.0151817
883.803	0.0152240
883.881	0.0151880
883.959	0.0152390
884.038	0.0152982
884.116	0.0153689
884.194	0.0152804
884.272	0.0152994
884.350	0.0151341
884.428	0.0153575
884.506	0.0155211
884.584	0.0154775
884.663	0.0153642
884.741	0.0154030
884.819	0.0155383
884.897	0.0155772
884.975	0.0154904
885.053	0.0154967
885.131	0.0155772
885.209	0.0154024
885.288	0.0155351
885.366	0.0154116
885.444	0.0153966
885.522	0.0153328
885.600	0.0152497
885.678	0.0153860
885.756	0.0154070
885.834	0.0152396
885.913	0.0153442
885.991	0.0152473
886.069	0.0152965
886.147	0.0151989
886.225	0.0151681
886.303	0.0152237
886.381	0.0152370
886.459	0.0150398
886.538	0.0150497
886.616	0.0152042
886.694	0.0152186
886.772	0.0154214
886.850	0.0152065
886.928	0.0152859
887.006	0.0153472
887.084	0.0153880
887.163	0.0153775
887.241	0.0153805
887.319	0.0154947
887.397	0.0153158
887.475	0.0155523
887.553	0.0155521
887.631	0.0154382
887.709	0.0154134
887.788	0.0154649
887.866	0.0154041
887.944	0.0154110
888.022	0.0155132
888.100	0.0154280
888.178	0.0154001
888.256	0.0153318
888.334	0.0152491
888.413	0.0153002
888.491	0.0153702
888.569	0.0153214
888.647	0.0153920
888.725	0.0152820
888.803	0.0152915
888.881	0.0152681
888.959	0.0153117
889.038	0.0152277
889.116	0.0153135
889.194	0.0154651
889.272	0.0154970
889.350	0.0155550
889.428	0.0152686
889.506	0.0153337
889.584	0.0152241
889.663	0.0152059
889.741	0.0153867
889.819	0.0153828
889.897	0.0152125
889.975	0.0152800
890.053	0.0152196
890.131	0.0151335
890.209	0.0151424
890.288	0.0150379
890.366	0.0151003
890.444	0.0152034
890.522	0.0151947
890.600	0.0150373
890.678	0.0151028
890.756	0.0151611
890.834	0.0152734
890.913	0.0153632
890.991	0.0151018
891.069	0.0151656
891.147	0.0154106
891.225	0.0154061
891.303	0.0153885
891.381	0.0154527
891.459	0.0155363
891.538	0.0153864
891.616	0.0154865
891.694	0.0156471
891.772	0.0156606
891.850	0.0156971
891.928	0.0155844
892.006	0.0156054
892.084	0.0155833
892.163	0.0156404
892.241	0.0156024
892.319	0.0155312
892.397	0.0155927
892.475	0.0156065
892.553	0.0155091
892.631	0.0155126
892.709	0.0152803
892.788	0.0154548
892.866	0.0153188
892.944	0.0152470
893.022	0.0153480
893.100	0.0152402
893.178	0.0152786
893.256	0.0151153
893.334	0.0151031
893.413	0.0152502
893.491	0.0151304
893.569	0.0151361
893.647	0.0151758
893.725	0.0152926
893.803	0.0151154
893.881	0.0153594
893.959	0.0152808
894.038	0.0151627
894.116	0.0152547
894.194	0.0152516
894.272	0.0152174
894.350	0.0153369
894.428	0.0155038
894.506	0.0154642
894.584	0.0155144
894.663	0.0154467
894.741	0.0155958
894.819	0.0155852
894.897	0.0155697
894.975	0.0156173
895.053	0.0156865
895.131	0.0156086
895.209	0.0155766
895.288	0.0155698
895.366	0.0156789
895.444	0.0155938
895.522	0.0155031
895.600	0.0154653
895.678	0.0153905
895.756	0.0154436
895.834	0.0155414
895.913	0.0155890
895.991	0.0154789
896.069	0.0153102
896.147	0.0152239
896.225	0.0153611
896.303	0.0154165
896.381	0.0153754
896.459	0.0152512
896.538	0.0154060
896.616	0.0152680
896.694	0.0153164
896.772	0.0153295
896.850	0.0152557
896.928	0.0154579
897.006	0.0153545
897.084	0.0153314
897.163	0.0152070
897.241	0.0151596
897.319	0.0154187
897.397	0.0154531
897.475	0.0153288
897.553	0.0155996
897.631	0.0154053
897.709	0.0155853
897.788	0.0155178
897.866	0.0154884
897.944	0.0154942
898.022	0.0154202
898.100	0.0156130
898.178	0.0156257
898.256	0.0155379
898.334	0.0155156
898.413	0.0154375
898.491	0.0155042
898.569	0.0154323
898.647	0.0154755
898.725	0.0154374
898.803	0.0154680
898.881	0.0153384
898.959	0.0153670
899.038	0.0153729
899.116	0.0153208
899.194	0.0154320
899.272	0.0153674
899.350	0.0154958
899.428	0.0153906
899.506	0.0155071
899.584	0.0154964
899.663	0.0153587
899.741	0.0154158
899.819	0.0154234
899.897	0.0154266
899.975	0.0154865
900.053	0.0155553
900.131	0.0154928
900.209	0.0155682
900.288	0.0154671
900.366	0.0156205
900.444	0.0156812
900.522	0.0156680
900.600	0.0155246
900.678	0.0157100
900.756	0.0155497
900.834	0.0156565
900.913	0.0156776
900.991	0.0156989
901.069	0.0155930
901.147	0.0157124
901.225	0.0155526
901.303	0.0155648
901.381	0.0155510
901.459	0.0155132
901.538	0.0153669
901.616	0.0152367
901.694	0.0152979
901.772	0.0150951
901.850	0.0151615
901.928	0.0150273
902.006	0.0149377
902.084	0.0151834
902.163	0.0149098
902.241	0.0149847
902.319	0.0148622
902.397	0.0150769
902.475	0.0151086
902.553	0.0150713
902.631	0.0151348
902.709	0.0150711
902.788	0.0151589
902.866	0.0152299
902.944	0.0150660
903.022	0.0152406
903.100	0.0153447
903.178	0.0152983
903.256	0.0154142
903.334	0.0153908
903.413	0.0154230
903.491	0.0155430
903.569	0.0154152
903.647	0.0153844
903.725	0.0154463
903.803	0.0154517
903.881	0.0154804
903.959	0.0154272
904.038	0.0154063
904.116	0.0153613
904.194	0.0152461
904.272	0.0153130
904.350	0.0153410
904.428	0.0153683
904.506	0.0152598
904.584	0.0153643
904.663	0.0151272
904.741	0.0151847
904.819	0.0151885
904.897	0.0151615
904.975	0.0151429
905.053	0.0150466
905.131	0.0151517
905.209	0.0151452
905.288	0.0151865
905.366	0.0150817
905.444	0.0151235
905.522	0.0151686
905.600	0.0152477
905.678	0.0151673
905.756	0.0151591
905.834	0.0152389
905.913	0.0152605
905.991	0.0152913
906.069	0.0153088
906.147	0.0153366
906.225	0.0154512
906.303	0.0154041
906.381	0.0153634
906.459	0.0153265
906.538	0.0153003
906.616	0.0153593
906.694	0.0154568
906.772	0.0154662
906.850	0.0152489
906.928	0.0152715
907.006	0.0151061
907.084	0.0150878
907.163	0.0152744
907.241	0.0152034
907.319	0.0151812
907.397	0.0151707
907.475	0.0152449
907.553	0.0151915
907.631	0.0151776
907.709	0.0151974
907.788	0.0151270
907.866	0.0151813
907.944	0.0151905
908.022	0.0150411
908.100	0.0151514
908.178	0.0152365
908.256	0.0152045
908.334	0.0151465
908.413	0.0152084
908.491	0.0151809
908.569	0.0151858
908.647	0.0152315
908.725	0.0153982
908.803	0.0151628
908.881	0.0153275
908.959	0.0153584
909.038	0.0153063
909.116	0.0152663
909.194	0.0154083
909.272	0.0152876
909.350	0.0152940
909.428	0.0152156
909.506	0.0151946
909.584	0.0153008
909.663	0.0150311
909.741	0.0152554
909.819	0.0151503
909.897	0.0151147
909.975	0.0152747
910.053	0.0153373
910.131	0.0152264
910.209	0.0152362
910.288	0.0153475
910.366	0.0153701
910.444	0.0152663
910.522	0.0153665
910.600	0.0154589
910.678	0.0153602
910.756	0.0153044
910.834	0.0153853
910.913	0.0153317
910.991	0.0154720
911.069	0.0153649
911.147	0.0152934
911.225	0.0153050
911.303	0.0152773
911.381	0.0153015
911.459	0.0152869
911.538	0.0152765
911.616	0.0152076
911.694	0.0152847
911.772	0.0154588
911.850	0.0155315
911.928	0.0152744
912.006	0.0151997
912.084	0.0154444
912.163	0.0154465
912.241	0.0152625
912.319	0.0154294
912.397	0.0155486
912.475	0.0155499
912.553	0.0155531
912.631	0.0155331
912.709	0.0153859
912.788	0.0155274
912.866	0.0156823
912.944	0.0157280
913.022	0.0155424
913.100	0.0157028
913.178	0.0156641
913.256	0.0157962
913.334	0.0155093
913.413	0.0155157
913.491	0.0155959
913.569	0.0156100
913.647	0.0154996
913.725	0.0156653
913.803	0.0155821
913.881	0.0155143
913.959	0.0155598
914.038	0.0154487
914.116	0.0153894
914.194	0.0153906
914.272	0.0152843
914.350	0.0153978
914.428	0.0151746
914.506	0.0152209
914.584	0.0152554
914.663	0.0152189
914.741	0.0152661
914.819	0.0150856
914.897	0.0151493
914.975	0.0152881
915.053	0.0151491
915.131	0.0152410
915.209	0.0150860
915.288	0.0151450
915.366	0.0152778
915.444	0.0152464
915.522	0.0151968
915.600	0.0153387
915.678	0.0153226
915.756	0.0152895
915.834	0.0153388
915.913	0.0154400
915.991	0.0153756
916.069	0.0151825
916.147	0.0154185
916.225	0.0154298
916.303	0.0153688
916.381	0.0153792
916.459	0.0154860
916.538	0.0155679
916.616	0.0155657
916.694	0.0155440
916.772	0.0154850
916.850	0.0156275
916.928	0.0156013
917.006	0.0154987
917.084	0.0154482
917.163	0.0155130
917.241	0.0155936
917.319	0.0155457
917.397	0.0155183
917.475	0.0154971
917.553	0.0154227
917.631	0.0154958
917.709	0.0153255
917.788	0.0153831
917.866	0.0153962
917.944	0.0152267
918.022	0.0153011
918.100	0.0152998
918.178	0.0152966
918.256	0.0151968
918.334	0.0150665
918.413	0.0151606
918.491	0.0153772
918.569	0.0152471
918.647	0.0152694
918.725	0.0153536
918.803	0.0153156
918.881	0.0154700
918.959	0.0155347
919.038	0.0155416
919.116	0.0155930
919.194	0.0155748
919.272	0.0157056
919.350	0.0157333
919.428	0.0157214
919.506	0.0157839
919.584	0.0157413
919.663	0.0156417
919.741	0.0156120
919.819	0.0156818
919.897	0.0156934
