05/20/2022	21:10:28	Ver.	4.1	UNKNOWN
Optical Delay	599.975067	Delta X		0.078125	Sweeps	1	Scan Rate	0/0
Coordinates	Axis 1	NaN	Axis 2	NaN	Axis 3	NaN	Axis 4	NaN	Axis 5	NaN	Axis 6	0.000000
TX Power	0.000000	RX Power	0.000000

599.975	0.0150848
600.053	0.0149932
600.131	0.0151397
600.209	0.0151213
600.288	0.0150800
600.366	0.0150920
600.444	0.0151162
600.522	0.0150763
600.600	0.0150663
600.678	0.0149503
600.756	0.0149647
600.834	0.0150837
600.913	0.0150484
600.991	0.0151127
601.069	0.0151406
601.147	0.0150240
601.225	0.0150884
601.303	0.0149919
601.381	0.0150887
601.459	0.0150308
601.538	0.0150247
601.616	0.0150655
601.694	0.0150062
601.772	0.0150365
601.850	0.0151026
601.928	0.0149700
602.006	0.0150044
602.084	0.0151424
602.163	0.0149650
602.241	0.0148210
602.319	0.0150429
602.397	0.0150538
602.475	0.0150147
602.553	0.0150855
602.631	0.0149551
602.709	0.0149572
602.788	0.0151437
602.866	0.0150633
602.944	0.0150417
603.022	0.0151594
603.100	0.0150417
603.178	0.0149358
603.256	0.0150354
603.334	0.0149429
603.413	0.0151564
603.491	0.0151194
603.569	0.0150816
603.647	0.0150307
603.725	0.0150409
603.803	0.0149281
603.881	0.0151015
603.959	0.0151613
604.038	0.0150494
604.116	0.0151260
604.194	0.0149236
604.272	0.0150165
604.350	0.0151544
604.428	0.0150372
604.506	0.0150100
604.584	0.0151018
604.663	0.0151807
604.741	0.0151051
604.819	0.0149947
604.897	0.0149992
604.975	0.0150814
605.053	0.0150720
605.131	0.0148975
605.209	0.0149483
605.288	0.0151054
605.366	0.0149578
605.444	0.0150319
605.522	0.0149168
605.600	0.0150616
605.678	0.0151231
605.756	0.0149548
605.834	0.0150912
605.913	0.0149700
605.991	0.0148946
606.069	0.0149391
606.147	0.0148509
606.225	0.0151131
606.303	0.0150249
606.381	0.0149788
606.459	0.0150339
606.538	0.0149596
606.616	0.0150261
606.694	0.0150375
606.772	0.0150044
606.850	0.0150217
606.928	0.0150793
607.006	0.0150244
607.084	0.0150489
607.163	0.0150884
607.241	0.0151049
607.319	0.0149893
607.397	0.0150124
607.475	0.0150558
607.553	0.0151409
607.631	0.0150394
607.709	0.0150972
607.788	0.0150688
607.866	0.0150753
607.944	0.0152202
608.022	0.0150304
608.100	0.0149851
608.178	0.0152033
608.256	0.0150718
608.334	0.0150991
608.413	0.0153411
608.491	0.0150858
608.569	0.0151196
608.647	0.0149805
608.725	0.0150652
608.803	0.0149695
608.881	0.0151928
608.959	0.0151869
609.038	0.0150738
609.116	0.0150637
609.194	0.0151540
609.272	0.0150716
609.350	0.0149889
609.428	0.0151486
609.506	0.0150068
609.584	0.0151658
609.663	0.0150346
609.741	0.0151271
609.819	0.0150062
609.897	0.0150251
609.975	0.0150087
610.053	0.0149967
610.131	0.0150938
610.209	0.0150677
610.288	0.0150988
610.366	0.0149863
610.444	0.0150607
610.522	0.0151756
610.600	0.0150578
610.678	0.0150712
610.756	0.0150150
610.834	0.0151200
610.913	0.0150710
610.991	0.0150420
611.069	0.0151455
611.147	0.0150120
611.225	0.0150167
611.303	0.0151382
611.381	0.0151420
611.459	0.0151305
611.538	0.0152319
611.616	0.0151054
611.694	0.0150646
611.772	0.0151424
611.850	0.0150730
611.928	0.0151266
612.006	0.0151755
612.084	0.0150934
612.163	0.0150396
612.241	0.0151176
612.319	0.0152054
612.397	0.0151337
612.475	0.0151463
612.553	0.0150460
612.631	0.0150954
612.709	0.0151430
612.788	0.0150269
612.866	0.0150301
612.944	0.0150693
613.022	0.0151082
613.100	0.0150150
613.178	0.0150032
613.256	0.0151233
613.334	0.0149951
613.413	0.0150566
613.491	0.0151425
613.569	0.0148586
613.647	0.0149745
613.725	0.0150542
613.803	0.0152264
613.881	0.0151013
613.959	0.0149705
614.038	0.0149503
614.116	0.0149974
614.194	0.0150719
614.272	0.0151285
614.350	0.0151037
614.428	0.0150874
614.506	0.0150038
614.584	0.0149959
614.663	0.0149644
614.741	0.0149665
614.819	0.0151164
614.897	0.0149948
614.975	0.0149448
615.053	0.0151630
615.131	0.0151289
615.209	0.0151611
615.288	0.0150338
615.366	0.0150473
615.444	0.0149913
615.522	0.0150727
615.600	0.0149468
615.678	0.0150838
615.756	0.0150442
615.834	0.0149132
615.913	0.0151014
615.991	0.0150974
616.069	0.0149771
616.147	0.0149503
616.225	0.0151505
616.303	0.0152080
616.381	0.0149931
616.459	0.0150208
616.538	0.0151145
616.616	0.0149655
616.694	0.0150440
616.772	0.0150037
616.850	0.0149512
616.928	0.0150273
617.006	0.0149686
617.084	0.0151209
617.163	0.0151360
617.241	0.0151431
617.319	0.0150402
617.397	0.0150561
617.475	0.0150607
617.553	0.0150095
617.631	0.0151367
617.709	0.0151183
617.788	0.0152608
617.866	0.0150246
617.944	0.0151116
618.022	0.0151184
618.100	0.0150961
618.178	0.0149966
618.256	0.0151360
618.334	0.0150805
618.413	0.0151831
618.491	0.0150192
618.569	0.0150858
618.647	0.0150943
618.725	0.0151025
618.803	0.0150429
618.881	0.0151782
618.959	0.0152115
619.038	0.0150447
619.116	0.0152534
619.194	0.0152151
619.272	0.0150459
619.350	0.0151310
619.428	0.0152328
619.506	0.0152048
619.584	0.0151852
619.663	0.0151402
619.741	0.0150460
619.819	0.0151808
619.897	0.0150959
619.975	0.0149463
620.053	0.0150735
620.131	0.0150414
620.209	0.0151231
620.288	0.0151060
620.366	0.0150876
620.444	0.0150851
620.522	0.0150564
620.600	0.0150790
620.678	0.0150924
620.756	0.0151648
620.834	0.0151312
620.913	0.0151267
620.991	0.0151240
621.069	0.0151108
621.147	0.0150725
621.225	0.0151660
621.303	0.0150634
621.381	0.0151552
621.459	0.0151507
621.538	0.0150756
621.616	0.0151199
621.694	0.0152460
621.772	0.0151630
621.850	0.0150802
621.928	0.0151868
622.006	0.0152006
622.084	0.0151406
622.163	0.0152026
622.241	0.0151295
622.319	0.0149912
622.397	0.0151847
622.475	0.0150591
622.553	0.0151105
622.631	0.0152607
622.709	0.0151996
622.788	0.0150231
622.866	0.0152188
622.944	0.0151614
623.022	0.0151203
623.100	0.0150776
623.178	0.0150340
623.256	0.0150274
623.334	0.0150436
623.413	0.0151032
623.491	0.0150061
623.569	0.0149823
623.647	0.0150314
623.725	0.0150903
623.803	0.0151445
623.881	0.0150352
623.959	0.0149419
624.038	0.0150493
624.116	0.0151211
624.194	0.0150072
624.272	0.0150968
624.350	0.0150739
624.428	0.0151022
624.506	0.0150896
624.584	0.0150400
624.663	0.0152139
624.741	0.0150509
624.819	0.0152281
624.897	0.0152958
624.975	0.0151114
625.053	0.0150873
625.131	0.0151297
625.209	0.0150245
625.288	0.0152116
625.366	0.0150475
625.444	0.0149842
625.522	0.0152207
625.600	0.0151309
625.678	0.0151087
625.756	0.0151405
625.834	0.0151585
625.913	0.0150935
625.991	0.0150146
626.069	0.0151131
626.147	0.0151207
626.225	0.0151054
626.303	0.0151080
626.381	0.0151974
626.459	0.0149638
626.538	0.0150085
626.616	0.0150381
626.694	0.0148981
626.772	0.0150709
626.850	0.0150163
626.928	0.0150198
627.006	0.0150331
627.084	0.0149016
627.163	0.0150237
627.241	0.0149963
627.319	0.0151022
627.397	0.0150340
627.475	0.0149535
627.553	0.0149902
627.631	0.0150427
627.709	0.0150296
627.788	0.0150475
627.866	0.0150447
627.944	0.0151474
628.022	0.0150225
628.100	0.0149106
628.178	0.0148905
628.256	0.0148781
628.334	0.0148740
628.413	0.0149445
628.491	0.0151406
628.569	0.0151056
628.647	0.0150450
628.725	0.0149895
628.803	0.0151295
628.881	0.0149435
628.959	0.0148985
629.038	0.0150102
629.116	0.0151585
629.194	0.0150595
629.272	0.0151169
629.350	0.0150732
629.428	0.0150721
629.506	0.0151460
629.584	0.0152274
629.663	0.0150738
629.741	0.0149773
629.819	0.0149751
629.897	0.0150813
629.975	0.0150804
630.053	0.0149978
630.131	0.0150349
630.209	0.0150728
630.288	0.0151344
630.366	0.0150323
630.444	0.0150138
630.522	0.0150735
630.600	0.0150212
630.678	0.0150186
630.756	0.0151698
630.834	0.0150474
630.913	0.0150005
630.991	0.0151351
631.069	0.0150068
631.147	0.0148379
631.225	0.0149442
631.303	0.0149548
631.381	0.0148775
631.459	0.0149395
631.538	0.0150219
631.616	0.0148986
631.694	0.0149992
631.772	0.0148486
631.850	0.0149712
631.928	0.0149010
632.006	0.0150504
632.084	0.0149183
632.163	0.0150687
632.241	0.0150565
632.319	0.0152122
632.397	0.0151633
632.475	0.0151579
632.553	0.0150616
632.631	0.0150817
632.709	0.0152594
632.788	0.0152327
632.866	0.0152079
632.944	0.0149508
633.022	0.0150287
633.100	0.0151938
633.178	0.0151854
633.256	0.0151886
633.334	0.0151728
633.413	0.0152102
633.491	0.0153434
633.569	0.0151645
633.647	0.0151553
633.725	0.0151492
633.803	0.0152345
633.881	0.0150849
633.959	0.0152431
634.038	0.0151473
634.116	0.0150566
634.194	0.0151696
634.272	0.0150793
634.350	0.0150806
634.428	0.0151443
634.506	0.0149387
634.584	0.0150390
634.663	0.0150519
634.741	0.0150622
634.819	0.0149750
634.897	0.0151245
634.975	0.0151330
635.053	0.0150275
635.131	0.0150105
635.209	0.0151379
635.288	0.0151398
635.366	0.0151587
635.444	0.0149988
635.522	0.0150596
635.600	0.0150094
635.678	0.0150232
635.756	0.0152153
635.834	0.0150887
635.913	0.0150616
635.991	0.0150909
636.069	0.0151653
636.147	0.0149880
636.225	0.0151156
636.303	0.0151635
636.381	0.0150173
636.459	0.0150938
636.538	0.0151604
636.616	0.0151509
636.694	0.0151379
636.772	0.0151612
636.850	0.0152111
636.928	0.0151489
637.006	0.0151649
637.084	0.0151115
637.163	0.0151441
637.241	0.0152711
637.319	0.0152908
637.397	0.0151691
637.475	0.0151404
637.553	0.0151587
637.631	0.0152709
637.709	0.0151787
637.788	0.0151937
637.866	0.0152184
637.944	0.0150612
638.022	0.0151938
638.100	0.0152954
638.178	0.0151069
638.256	0.0150954
638.334	0.0150209
638.413	0.0152109
638.491	0.0149665
638.569	0.0149854
638.647	0.0150912
638.725	0.0151356
638.803	0.0150686
638.881	0.0150172
638.959	0.0150790
639.038	0.0150379
639.116	0.0149676
639.194	0.0150917
639.272	0.0151563
639.350	0.0150806
639.428	0.0150458
639.506	0.0150275
639.584	0.0152262
639.663	0.0152536
639.741	0.0151407
639.819	0.0150090
639.897	0.0152463
639.975	0.0152643
640.053	0.0151153
640.131	0.0152132
640.209	0.0153103
640.288	0.0153676
640.366	0.0153089
640.444	0.0151824
640.522	0.0152063
640.600	0.0152335
640.678	0.0151460
640.756	0.0152197
640.834	0.0152441
640.913	0.0150402
640.991	0.0152271
641.069	0.0152060
641.147	0.0152372
641.225	0.0151569
641.303	0.0151031
641.381	0.0152183
641.459	0.0151849
641.538	0.0152350
641.616	0.0152988
641.694	0.0153133
641.772	0.0152130
641.850	0.0152225
641.928	0.0150962
642.006	0.0151183
642.084	0.0151567
642.163	0.0151534
642.241	0.0151181
642.319	0.0151728
642.397	0.0152164
642.475	0.0151818
642.553	0.0151965
642.631	0.0152705
642.709	0.0151788
642.788	0.0150490
642.866	0.0152089
642.944	0.0149660
643.022	0.0151495
643.100	0.0152055
643.178	0.0150518
643.256	0.0150330
643.334	0.0150777
643.413	0.0151373
643.491	0.0151107
643.569	0.0151619
643.647	0.0150994
643.725	0.0151769
643.803	0.0150709
643.881	0.0153057
643.959	0.0152399
644.038	0.0152213
644.116	0.0152757
644.194	0.0152512
644.272	0.0151461
644.350	0.0152513
644.428	0.0153645
644.506	0.0152653
644.584	0.0152177
644.663	0.0152802
644.741	0.0153400
644.819	0.0152717
644.897	0.0152409
644.975	0.0152740
645.053	0.0151705
645.131	0.0152121
645.209	0.0151810
645.288	0.0150704
645.366	0.0151507
645.444	0.0151513
645.522	0.0151362
645.600	0.0151358
645.678	0.0151329
645.756	0.0151392
645.834	0.0150543
645.913	0.0151815
645.991	0.0150296
646.069	0.0151963
646.147	0.0151386
646.225	0.0150209
646.303	0.0151057
646.381	0.0152396
646.459	0.0150957
646.538	0.0150606
646.616	0.0151225
646.694	0.0152346
646.772	0.0152736
646.850	0.0152026
646.928	0.0152327
647.006	0.0152702
647.084	0.0153348
647.163	0.0152312
647.241	0.0152067
647.319	0.0152505
647.397	0.0151878
647.475	0.0150484
647.553	0.0150854
647.631	0.0151211
647.709	0.0152181
647.788	0.0151466
647.866	0.0151968
647.944	0.0151520
648.022	0.0151910
648.100	0.0150842
648.178	0.0151192
648.256	0.0152704
648.334	0.0150800
648.413	0.0151466
648.491	0.0152508
648.569	0.0150793
648.647	0.0151348
648.725	0.0150563
648.803	0.0150500
648.881	0.0150078
648.959	0.0149787
649.038	0.0151238
649.116	0.0150258
649.194	0.0150812
649.272	0.0150808
649.350	0.0150122
649.428	0.0150442
649.506	0.0151299
649.584	0.0150966
649.663	0.0151563
649.741	0.0151186
649.819	0.0150760
649.897	0.0150833
649.975	0.0151730
650.053	0.0151585
650.131	0.0151236
650.209	0.0151110
650.288	0.0151795
650.366	0.0152027
650.444	0.0151350
650.522	0.0150767
650.600	0.0150882
650.678	0.0152409
650.756	0.0151408
650.834	0.0151769
650.913	0.0151439
650.991	0.0150969
651.069	0.0150762
651.147	0.0151941
651.225	0.0150854
651.303	0.0149941
651.381	0.0149454
651.459	0.0149528
651.538	0.0151234
651.616	0.0149776
651.694	0.0152303
651.772	0.0150000
651.850	0.0149660
651.928	0.0150568
652.006	0.0150497
652.084	0.0151473
652.163	0.0150238
652.241	0.0151231
652.319	0.0152534
652.397	0.0150671
652.475	0.0151100
652.553	0.0152300
652.631	0.0152948
652.709	0.0151971
652.788	0.0152497
652.866	0.0151711
652.944	0.0150899
653.022	0.0149936
653.100	0.0152319
653.178	0.0151141
653.256	0.0150382
653.334	0.0151807
653.413	0.0150665
653.491	0.0148792
653.569	0.0148460
653.647	0.0150810
653.725	0.0150201
653.803	0.0149099
653.881	0.0150826
653.959	0.0148195
654.038	0.0149068
654.116	0.0149326
654.194	0.0150975
654.272	0.0151198
654.350	0.0151348
654.428	0.0151798
654.506	0.0151751
654.584	0.0151878
654.663	0.0151599
654.741	0.0151257
654.819	0.0151041
654.897	0.0151394
654.975	0.0152209
655.053	0.0152058
655.131	0.0150711
655.209	0.0151927
655.288	0.0152134
655.366	0.0151758
655.444	0.0151759
655.522	0.0152081
655.600	0.0151910
655.678	0.0149931
655.756	0.0149301
655.834	0.0150321
655.913	0.0150451
655.991	0.0150613
656.069	0.0150117
656.147	0.0150284
656.225	0.0151126
656.303	0.0149999
656.381	0.0151559
656.459	0.0149641
656.538	0.0151302
656.616	0.0152456
656.694	0.0150117
656.772	0.0151868
656.850	0.0151852
656.928	0.0151450
657.006	0.0150834
657.084	0.0152486
657.163	0.0151879
657.241	0.0150871
657.319	0.0151824
657.397	0.0152918
657.475	0.0150744
657.553	0.0151180
657.631	0.0151394
657.709	0.0149889
657.788	0.0152608
657.866	0.0151152
657.944	0.0150212
658.022	0.0151084
658.100	0.0148499
658.178	0.0150097
658.256	0.0150760
658.334	0.0150594
658.413	0.0151848
658.491	0.0151691
658.569	0.0150647
658.647	0.0151908
658.725	0.0151965
658.803	0.0151662
658.881	0.0152205
658.959	0.0151734
659.038	0.0150981
659.116	0.0151556
659.194	0.0152544
659.272	0.0152233
659.350	0.0151233
659.428	0.0151935
659.506	0.0152189
659.584	0.0150993
659.663	0.0151862
659.741	0.0152095
659.819	0.0152797
659.897	0.0151031
659.975	0.0151745
660.053	0.0151727
660.131	0.0151543
660.209	0.0149914
660.288	0.0150048
660.366	0.0151877
660.444	0.0150292
660.522	0.0150314
660.600	0.0150590
660.678	0.0150237
660.756	0.0149841
660.834	0.0151032
660.913	0.0152879
660.991	0.0150832
661.069	0.0149119
661.147	0.0150966
661.225	0.0151514
661.303	0.0150756
661.381	0.0151396
661.459	0.0150549
661.538	0.0151759
661.616	0.0150732
661.694	0.0151131
661.772	0.0149786
661.850	0.0151608
661.928	0.0151196
662.006	0.0153318
662.084	0.0152519
662.163	0.0150928
662.241	0.0151335
662.319	0.0151655
662.397	0.0153614
662.475	0.0151678
662.553	0.0151433
662.631	0.0151333
662.709	0.0150529
662.788	0.0151262
662.866	0.0151150
662.944	0.0150301
663.022	0.0150746
663.100	0.0151022
663.178	0.0150542
663.256	0.0150894
663.334	0.0151154
663.413	0.0151013
663.491	0.0151489
663.569	0.0151263
663.647	0.0150671
663.725	0.0152790
663.803	0.0151585
663.881	0.0152178
663.959	0.0152029
664.038	0.0151491
664.116	0.0152697
664.194	0.0151479
664.272	0.0151957
664.350	0.0153392
664.428	0.0152323
664.506	0.0152482
664.584	0.0151654
664.663	0.0151271
664.741	0.0151920
664.819	0.0153010
664.897	0.0153603
664.975	0.0152421
665.053	0.0150787
665.131	0.0152527
665.209	0.0152970
665.288	0.0151854
665.366	0.0151466
665.444	0.0152697
665.522	0.0152528
665.600	0.0152434
665.678	0.0152303
665.756	0.0151609
665.834	0.0151662
665.913	0.0151827
665.991	0.0151792
666.069	0.0152429
666.147	0.0151247
666.225	0.0152367
666.303	0.0151165
666.381	0.0152168
666.459	0.0152032
666.538	0.0151658
666.616	0.0152251
666.694	0.0152061
666.772	0.0151336
666.850	0.0152288
666.928	0.0152226
667.006	0.0151940
667.084	0.0150735
667.163	0.0152316
667.241	0.0152116
667.319	0.0153112
667.397	0.0151870
667.475	0.0151728
667.553	0.0152662
667.631	0.0152144
667.709	0.0150721
667.788	0.0151904
667.866	0.0150346
667.944	0.0152628
668.022	0.0150259
668.100	0.0151383
668.178	0.0152332
668.256	0.0151208
668.334	0.0151664
668.413	0.0152496
668.491	0.0151407
668.569	0.0152015
668.647	0.0151514
668.725	0.0151522
668.803	0.0151444
668.881	0.0151067
668.959	0.0151371
669.038	0.0151054
669.116	0.0150608
669.194	0.0149899
669.272	0.0150632
669.350	0.0151212
669.428	0.0151541
669.506	0.0151350
669.584	0.0151894
669.663	0.0151705
669.741	0.0151196
669.819	0.0150613
669.897	0.0151569
669.975	0.0150527
670.053	0.0149681
670.131	0.0151235
670.209	0.0151270
670.288	0.0150948
670.366	0.0149817
670.444	0.0149505
670.522	0.0149572
670.600	0.0149719
670.678	0.0150084
670.756	0.0150262
670.834	0.0150620
670.913	0.0150553
670.991	0.0151038
671.069	0.0150337
671.147	0.0150063
671.225	0.0151707
671.303	0.0150545
671.381	0.0150669
671.459	0.0151780
671.538	0.0150529
671.616	0.0151023
671.694	0.0151343
671.772	0.0149876
671.850	0.0151138
671.928	0.0151384
672.006	0.0150438
672.084	0.0150238
672.163	0.0150254
672.241	0.0149575
672.319	0.0148990
672.397	0.0150179
672.475	0.0148392
672.553	0.0149090
672.631	0.0149331
672.709	0.0149764
672.788	0.0149260
672.866	0.0150526
672.944	0.0150275
673.022	0.0150933
673.100	0.0150872
673.178	0.0150798
673.256	0.0151566
673.334	0.0153064
673.413	0.0151538
673.491	0.0152162
673.569	0.0153068
673.647	0.0153979
673.725	0.0151839
673.803	0.0153102
673.881	0.0152417
673.959	0.0154165
674.038	0.0154491
674.116	0.0153144
674.194	0.0152036
674.272	0.0151461
674.350	0.0151996
674.428	0.0150095
674.506	0.0151111
674.584	0.0149424
674.663	0.0147779
674.741	0.0147555
674.819	0.0145670
674.897	0.0146043
674.975	0.0145679
675.053	0.0145977
675.131	0.0144717
675.209	0.0145010
675.288	0.0145896
675.366	0.0145985
675.444	0.0146001
675.522	0.0145331
675.600	0.0144614
675.678	0.0148169
675.756	0.0147425
675.834	0.0149629
675.913	0.0150251
675.991	0.0151609
676.069	0.0154024
676.147	0.0155928
676.225	0.0155110
676.303	0.0158038
676.381	0.0159041
676.459	0.0160652
676.538	0.0160506
676.616	0.0161819
676.694	0.0160910
676.772	0.0160313
676.850	0.0161453
676.928	0.0162332
677.006	0.0160247
677.084	0.0158539
677.163	0.0158297
677.241	0.0157509
677.319	0.0154311
677.397	0.0154304
677.475	0.0151995
677.553	0.0150153
677.631	0.0146265
677.709	0.0144580
677.788	0.0143780
677.866	0.0141495
677.944	0.0138963
678.022	0.0136338
678.100	0.0137202
678.178	0.0136108
678.256	0.0135168
678.334	0.0134184
678.413	0.0134466
678.491	0.0135590
678.569	0.0136620
678.647	0.0137744
678.725	0.0139618
678.803	0.0141449
678.881	0.0143166
678.959	0.0144469
679.038	0.0149424
679.116	0.0151532
679.194	0.0154668
679.272	0.0156201
679.350	0.0159663
679.428	0.0161512
679.506	0.0163830
679.584	0.0165757
679.663	0.0167994
679.741	0.0168218
679.819	0.0169019
679.897	0.0170171
679.975	0.0168405
680.053	0.0168063
680.131	0.0167983
680.209	0.0167783
680.288	0.0165350
680.366	0.0164522
680.444	0.0161230
680.522	0.0158731
680.600	0.0155300
680.678	0.0151955
680.756	0.0151559
680.834	0.0148656
680.913	0.0146175
680.991	0.0144160
681.069	0.0141986
681.147	0.0139222
681.225	0.0138880
681.303	0.0137265
681.381	0.0136333
681.459	0.0135325
681.538	0.0135802
681.616	0.0136127
681.694	0.0135893
681.772	0.0135082
681.850	0.0137606
681.928	0.0139582
682.006	0.0140279
682.084	0.0140411
682.163	0.0142799
682.241	0.0143878
682.319	0.0146338
682.397	0.0147989
682.475	0.0149185
682.553	0.0149570
682.631	0.0149931
682.709	0.0152694
682.788	0.0153068
682.866	0.0154536
682.944	0.0154125
683.022	0.0154446
683.100	0.0154824
683.178	0.0154884
683.256	0.0156274
683.334	0.0155997
683.413	0.0154462
683.491	0.0154989
683.569	0.0155241
683.647	0.0155596
683.725	0.0156393
683.803	0.0156977
683.881	0.0158384
683.959	0.0158102
684.038	0.0156881
684.116	0.0158318
684.194	0.0159389
684.272	0.0159589
684.350	0.0161588
684.428	0.0161779
684.506	0.0160954
684.584	0.0160838
684.663	0.0161343
684.741	0.0160469
684.819	0.0160046
684.897	0.0159850
684.975	0.0157430
685.053	0.0157087
685.131	0.0154825
685.209	0.0154546
685.288	0.0151539
685.366	0.0146714
685.444	0.0145741
685.522	0.0143903
685.600	0.0140238
685.678	0.0138927
685.756	0.0135154
685.834	0.0135581
685.913	0.0134029
685.991	0.0131514
686.069	0.0132383
686.147	0.0131905
686.225	0.0131799
686.303	0.0132211
686.381	0.0131523
686.459	0.0135618
686.538	0.0135668
686.616	0.0136952
686.694	0.0140453
686.772	0.0143223
686.850	0.0144670
686.928	0.0149121
687.006	0.0151812
687.084	0.0154897
687.163	0.0157159
687.241	0.0160993
687.319	0.0164445
687.397	0.0167831
687.475	0.0170776
687.553	0.0172938
687.631	0.0173235
687.709	0.0177197
687.788	0.0177212
687.866	0.0178874
687.944	0.0178478
688.022	0.0176192
688.100	0.0174294
688.178	0.0172105
688.256	0.0170923
688.334	0.0166484
688.413	0.0162969
688.491	0.0158337
688.569	0.0155231
688.647	0.0149767
688.725	0.0145335
688.803	0.0140491
688.881	0.0135749
688.959	0.0132816
689.038	0.0129215
689.116	0.0125990
689.194	0.0123383
689.272	0.0121693
689.350	0.0121162
689.428	0.0121039
689.506	0.0119953
689.584	0.0121781
689.663	0.0124048
689.741	0.0124905
689.819	0.0126337
689.897	0.0129488
689.975	0.0132327
690.053	0.0136980
690.131	0.0140709
690.209	0.0144238
690.288	0.0149413
690.366	0.0155154
690.444	0.0159347
690.522	0.0164390
690.600	0.0169336
690.678	0.0173021
690.756	0.0177370
690.834	0.0180396
690.913	0.0182993
690.991	0.0184689
691.069	0.0186606
691.147	0.0186787
691.225	0.0187306
691.303	0.0185722
691.381	0.0183411
691.459	0.0180889
691.538	0.0177506
691.616	0.0175336
691.694	0.0171490
691.772	0.0166259
691.850	0.0162354
691.928	0.0158889
692.006	0.0153389
692.084	0.0150172
692.163	0.0145656
692.241	0.0142150
692.319	0.0137619
692.397	0.0133727
692.475	0.0131429
692.553	0.0128676
692.631	0.0127607
692.709	0.0125763
692.788	0.0125092
692.866	0.0125432
692.944	0.0124654
693.022	0.0126402
693.100	0.0127821
693.178	0.0129152
693.256	0.0130945
693.334	0.0131887
693.413	0.0134149
693.491	0.0137952
693.569	0.0138647
693.647	0.0141394
693.725	0.0141956
693.803	0.0144411
693.881	0.0145803
693.959	0.0145058
694.038	0.0146371
694.116	0.0148193
694.194	0.0149990
694.272	0.0149734
694.350	0.0150684
694.428	0.0152347
694.506	0.0152322
694.584	0.0152415
694.663	0.0152764
694.741	0.0153642
694.819	0.0153709
694.897	0.0152086
694.975	0.0154331
695.053	0.0154723
695.131	0.0154055
695.209	0.0156187
695.288	0.0157121
695.366	0.0157648
695.444	0.0160274
695.522	0.0162620
695.600	0.0161919
695.678	0.0162177
695.756	0.0165133
695.834	0.0166785
695.913	0.0166818
695.991	0.0166746
696.069	0.0167546
696.147	0.0168172
696.225	0.0166541
696.303	0.0166046
696.381	0.0165919
696.459	0.0165255
696.538	0.0163241
696.616	0.0162461
696.694	0.0162653
696.772	0.0162467
696.850	0.0158872
696.928	0.0157667
697.006	0.0156125
697.084	0.0155038
697.163	0.0152721
697.241	0.0151609
697.319	0.0153264
697.397	0.0149891
697.475	0.0147259
697.553	0.0147279
697.631	0.0146705
697.709	0.0145296
697.788	0.0144163
697.866	0.0143076
697.944	0.0140769
698.022	0.0139796
698.100	0.0137735
698.178	0.0136356
698.256	0.0134657
698.334	0.0132877
698.413	0.0132313
698.491	0.0131785
698.569	0.0131648
698.647	0.0130567
698.725	0.0129352
698.803	0.0129491
698.881	0.0131133
698.959	0.0130326
699.038	0.0130951
699.116	0.0130973
699.194	0.0131377
699.272	0.0132845
699.350	0.0134449
699.428	0.0135504
699.506	0.0137135
699.584	0.0138014
699.663	0.0138762
699.741	0.0142698
699.819	0.0146093
699.897	0.0148360
699.975	0.0150669
700.053	0.0153434
700.131	0.0155120
700.209	0.0157603
700.288	0.0160378
700.366	0.0162031
700.444	0.0165202
700.522	0.0167796
700.600	0.0168842
700.678	0.0171143
700.756	0.0172322
700.834	0.0174004
700.913	0.0175050
700.991	0.0177048
701.069	0.0176605
701.147	0.0179491
701.225	0.0179341
701.303	0.0179682
701.381	0.0181868
701.459	0.0180299
701.538	0.0180251
701.616	0.0177872
701.694	0.0173581
701.772	0.0172163
701.850	0.0167760
701.928	0.0165015
702.006	0.0161004
702.084	0.0158191
702.163	0.0154591
702.241	0.0149923
702.319	0.0146442
702.397	0.0143102
702.475	0.0138341
702.553	0.0135407
702.631	0.0134750
702.709	0.0131875
702.788	0.0128500
702.866	0.0128362
702.944	0.0127542
703.022	0.0127336
703.100	0.0127706
703.178	0.0127557
703.256	0.0129430
703.334	0.0130997
703.413	0.0132947
703.491	0.0134470
703.569	0.0137641
703.647	0.0141405
703.725	0.0142822
703.803	0.0144276
703.881	0.0147488
703.959	0.0149094
704.038	0.0150999
704.116	0.0152631
704.194	0.0151995
704.272	0.0153146
704.350	0.0154375
704.428	0.0154040
704.506	0.0154662
704.584	0.0156145
704.663	0.0156477
704.741	0.0155452
704.819	0.0155837
704.897	0.0157645
704.975	0.0156077
705.053	0.0156340
705.131	0.0153811
705.209	0.0154228
705.288	0.0153414
705.366	0.0150462
705.444	0.0149313
705.522	0.0148594
705.600	0.0147839
705.678	0.0146507
705.756	0.0145225
705.834	0.0144180
705.913	0.0143463
705.991	0.0143345
706.069	0.0144432
706.147	0.0142947
706.225	0.0142787
706.303	0.0143753
706.381	0.0143049
706.459	0.0143058
706.538	0.0143606
706.616	0.0143784
706.694	0.0143343
706.772	0.0145123
706.850	0.0146144
706.928	0.0147826
707.006	0.0147893
707.084	0.0150553
707.163	0.0154369
707.241	0.0157322
707.319	0.0159610
707.397	0.0162829
707.475	0.0163232
707.553	0.0166203
707.631	0.0168562
707.709	0.0170202
707.788	0.0170600
707.866	0.0170102
707.944	0.0170271
708.022	0.0168553
708.100	0.0168723
708.178	0.0167574
708.256	0.0166312
708.334	0.0166280
708.413	0.0164692
708.491	0.0165236
708.569	0.0165205
708.647	0.0163681
708.725	0.0163516
708.803	0.0163973
708.881	0.0163667
708.959	0.0164779
709.038	0.0163145
709.116	0.0163239
709.194	0.0162317
709.272	0.0160507
709.350	0.0158797
709.428	0.0156750
709.506	0.0155782
709.584	0.0153403
709.663	0.0150435
709.741	0.0146357
709.819	0.0142880
709.897	0.0138483
709.975	0.0135142
710.053	0.0131901
710.131	0.0126665
710.209	0.0125152
710.288	0.0121122
710.366	0.0119256
710.444	0.0117896
710.522	0.0115469
710.600	0.0114784
710.678	0.0115967
710.756	0.0115937
710.834	0.0115853
710.913	0.0118994
710.991	0.0121278
711.069	0.0122282
711.147	0.0124879
711.225	0.0128481
711.303	0.0131933
711.381	0.0134738
711.459	0.0138853
711.538	0.0142246
711.616	0.0146755
711.694	0.0150787
711.772	0.0155312
711.850	0.0157094
711.928	0.0161882
712.006	0.0165076
712.084	0.0167819
712.163	0.0171404
712.241	0.0175443
712.319	0.0177390
712.397	0.0179443
712.475	0.0180712
712.553	0.0181509
712.631	0.0181754
712.709	0.0180631
712.788	0.0179003
712.866	0.0179620
712.944	0.0176535
713.022	0.0174264
713.100	0.0170279
713.178	0.0169705
713.256	0.0167397
713.334	0.0164316
713.413	0.0161692
713.491	0.0158677
713.569	0.0157407
713.647	0.0155786
713.725	0.0153040
713.803	0.0149741
713.881	0.0148135
713.959	0.0146790
714.038	0.0146936
714.116	0.0144837
714.194	0.0145657
714.272	0.0144390
714.350	0.0143295
714.428	0.0143884
714.506	0.0144707
714.584	0.0146024
714.663	0.0146235
714.741	0.0147911
714.819	0.0150153
714.897	0.0152657
714.975	0.0153383
715.053	0.0155323
715.131	0.0156614
715.209	0.0156731
715.288	0.0158250
715.366	0.0158865
715.444	0.0157929
715.522	0.0155893
715.600	0.0155670
715.678	0.0154731
715.756	0.0153860
715.834	0.0150854
715.913	0.0151427
715.991	0.0148618
716.069	0.0145036
716.147	0.0145671
716.225	0.0144646
716.303	0.0142648
716.381	0.0142120
716.459	0.0142761
716.538	0.0141746
716.616	0.0140823
716.694	0.0139996
716.772	0.0140083
716.850	0.0139101
716.928	0.0136898
717.006	0.0138342
717.084	0.0137785
717.163	0.0135094
717.241	0.0133323
717.319	0.0133395
717.397	0.0132645
717.475	0.0129427
717.553	0.0127898
717.631	0.0130326
717.709	0.0129991
717.788	0.0127943
717.866	0.0129164
717.944	0.0129228
718.022	0.0132620
718.100	0.0132475
718.178	0.0134343
718.256	0.0137444
718.334	0.0141637
718.413	0.0145659
718.491	0.0146931
718.569	0.0153064
718.647	0.0156874
718.725	0.0160261
718.803	0.0165167
718.881	0.0168114
718.959	0.0172504
719.038	0.0176878
719.116	0.0180027
719.194	0.0184489
719.272	0.0187022
719.350	0.0187080
719.428	0.0189850
719.506	0.0190676
719.584	0.0190981
719.663	0.0190214
719.741	0.0189768
719.819	0.0187578
719.897	0.0185047
719.975	0.0182593
720.053	0.0179218
720.131	0.0173902
720.209	0.0170105
720.288	0.0164964
720.366	0.0160144
720.444	0.0156210
720.522	0.0151524
720.600	0.0146368
720.678	0.0143315
720.756	0.0138631
720.834	0.0136021
720.913	0.0131546
720.991	0.0129834
721.069	0.0127843
721.147	0.0127380
721.225	0.0125282
721.303	0.0124422
721.381	0.0123806
721.459	0.0124455
721.538	0.0125794
721.616	0.0125057
721.694	0.0127266
721.772	0.0129110
721.850	0.0129907
721.928	0.0131430
722.006	0.0131830
722.084	0.0133839
722.163	0.0135278
722.241	0.0136945
722.319	0.0137956
722.397	0.0140936
722.475	0.0141946
722.553	0.0143871
722.631	0.0145472
722.709	0.0147404
722.788	0.0150786
722.866	0.0152170
722.944	0.0155362
723.022	0.0158646
723.100	0.0160572
723.178	0.0163352
723.256	0.0166736
723.334	0.0167144
723.413	0.0168693
723.491	0.0168315
723.569	0.0168504
723.647	0.0169628
723.725	0.0169059
723.803	0.0167160
723.881	0.0165451
723.959	0.0164405
724.038	0.0161897
724.116	0.0159729
724.194	0.0156615
724.272	0.0154535
724.350	0.0153311
724.428	0.0150774
724.506	0.0147589
724.584	0.0146380
724.663	0.0145261
724.741	0.0145305
724.819	0.0144411
724.897	0.0144339
724.975	0.0145654
725.053	0.0144850
725.131	0.0145422
725.209	0.0146200
725.288	0.0148296
725.366	0.0148129
725.444	0.0149850
725.522	0.0151305
725.600	0.0151580
725.678	0.0152394
725.756	0.0153043
725.834	0.0154342
725.913	0.0154613
725.991	0.0154963
726.069	0.0155142
726.147	0.0154211
726.225	0.0155508
726.303	0.0153970
726.381	0.0154485
726.459	0.0153526
726.538	0.0152980
726.616	0.0153040
726.694	0.0152980
726.772	0.0151936
726.850	0.0152892
726.928	0.0152906
727.006	0.0152995
727.084	0.0154511
727.163	0.0153562
727.241	0.0155107
727.319	0.0155939
727.397	0.0155946
727.475	0.0158189
727.553	0.0159644
727.631	0.0159365
727.709	0.0160587
727.788	0.0162234
727.866	0.0162872
727.944	0.0164333
728.022	0.0163851
728.100	0.0162714
728.178	0.0163632
728.256	0.0161372
728.334	0.0157663
728.413	0.0157803
728.491	0.0154504
728.569	0.0151250
728.647	0.0148508
728.725	0.0146102
728.803	0.0142709
728.881	0.0142516
728.959	0.0140779
729.038	0.0139631
729.116	0.0139513
729.194	0.0139826
729.272	0.0140160
729.350	0.0140837
729.428	0.0143075
729.506	0.0144089
729.584	0.0145184
729.663	0.0145380
729.741	0.0148854
729.819	0.0148237
729.897	0.0148553
729.975	0.0147999
730.053	0.0149229
730.131	0.0150353
730.209	0.0150790
730.288	0.0149035
730.366	0.0149143
730.444	0.0148257
730.522	0.0147508
730.600	0.0146482
730.678	0.0143795
730.756	0.0143487
730.834	0.0143475
730.913	0.0143019
730.991	0.0141769
731.069	0.0142705
731.147	0.0144231
731.225	0.0144617
731.303	0.0146454
731.381	0.0148674
731.459	0.0151840
731.538	0.0153870
731.616	0.0157491
731.694	0.0160988
731.772	0.0163109
731.850	0.0166459
731.928	0.0168587
732.006	0.0170511
732.084	0.0171132
732.163	0.0171516
732.241	0.0173408
732.319	0.0170506
732.397	0.0170992
732.475	0.0168880
732.553	0.0167941
732.631	0.0165409
732.709	0.0163850
732.788	0.0161780
732.866	0.0158765
732.944	0.0157227
733.022	0.0154763
733.100	0.0151678
733.178	0.0150990
733.256	0.0148429
733.334	0.0147471
733.413	0.0144098
733.491	0.0144794
733.569	0.0143771
733.647	0.0141164
733.725	0.0140685
733.803	0.0141170
733.881	0.0141878
733.959	0.0141486
734.038	0.0139186
734.116	0.0139702
734.194	0.0140678
734.272	0.0141933
734.350	0.0141260
734.428	0.0141874
734.506	0.0141635
734.584	0.0144105
734.663	0.0145000
734.741	0.0145798
734.819	0.0148735
734.897	0.0148448
734.975	0.0149831
735.053	0.0151665
735.131	0.0154135
735.209	0.0155035
735.288	0.0157861
735.366	0.0158437
735.444	0.0159538
735.522	0.0162289
735.600	0.0162378
735.678	0.0162768
735.756	0.0163662
735.834	0.0162927
735.913	0.0162343
735.991	0.0159406
736.069	0.0158865
736.147	0.0159022
736.225	0.0155825
736.303	0.0154470
736.381	0.0153350
736.459	0.0150577
736.538	0.0148923
736.616	0.0147468
736.694	0.0145517
736.772	0.0143770
736.850	0.0142628
736.928	0.0141382
737.006	0.0141397
737.084	0.0139787
737.163	0.0140296
737.241	0.0140268
737.319	0.0142202
737.397	0.0142494
737.475	0.0141720
737.553	0.0144717
737.631	0.0143244
737.709	0.0143732
737.788	0.0144052
737.866	0.0143812
737.944	0.0146526
738.022	0.0145388
738.100	0.0145203
738.178	0.0146070
738.256	0.0145873
738.334	0.0147436
738.413	0.0148262
738.491	0.0148311
738.569	0.0149741
738.647	0.0149970
738.725	0.0152145
738.803	0.0152623
738.881	0.0152898
738.959	0.0153950
739.038	0.0155027
739.116	0.0156190
739.194	0.0157116
739.272	0.0159031
739.350	0.0161330
739.428	0.0162359
739.506	0.0163256
739.584	0.0165084
739.663	0.0165680
739.741	0.0166058
739.819	0.0167722
739.897	0.0167567
739.975	0.0166490
740.053	0.0166240
740.131	0.0166074
740.209	0.0165493
740.288	0.0165752
740.366	0.0162876
740.444	0.0159741
740.522	0.0158135
740.600	0.0155202
740.678	0.0153522
740.756	0.0149755
740.834	0.0147505
740.913	0.0143713
740.991	0.0141175
741.069	0.0139279
741.147	0.0137592
741.225	0.0134785
741.303	0.0134595
741.381	0.0133822
741.459	0.0135450
741.538	0.0136135
741.616	0.0137101
741.694	0.0137893
741.772	0.0139915
741.850	0.0142899
741.928	0.0143570
742.006	0.0146585
742.084	0.0148531
742.163	0.0148447
742.241	0.0149954
742.319	0.0150440
742.397	0.0149747
742.475	0.0150576
742.553	0.0148843
742.631	0.0148690
742.709	0.0150001
742.788	0.0149592
742.866	0.0147443
742.944	0.0147025
743.022	0.0148775
743.100	0.0146613
743.178	0.0146370
743.256	0.0147546
743.334	0.0148833
743.413	0.0148603
743.491	0.0149007
743.569	0.0148811
743.647	0.0151221
743.725	0.0152869
743.803	0.0151878
743.881	0.0153411
743.959	0.0154032
744.038	0.0155381
744.116	0.0155328
744.194	0.0156020
744.272	0.0156306
744.350	0.0157543
744.428	0.0157229
744.506	0.0157107
744.584	0.0156034
744.663	0.0157401
744.741	0.0156066
744.819	0.0154169
744.897	0.0153803
744.975	0.0154813
745.053	0.0151550
745.131	0.0150833
745.209	0.0151444
745.288	0.0151562
745.366	0.0150651
745.444	0.0149752
745.522	0.0149185
745.600	0.0148693
745.678	0.0149805
745.756	0.0148973
745.834	0.0148932
745.913	0.0148480
745.991	0.0149965
746.069	0.0150163
746.147	0.0149591
746.225	0.0149696
746.303	0.0151244
746.381	0.0151863
746.459	0.0153720
746.538	0.0153815
746.616	0.0154117
746.694	0.0156292
746.772	0.0157347
746.850	0.0158287
746.928	0.0158905
747.006	0.0156518
747.084	0.0158736
747.163	0.0158545
747.241	0.0157645
747.319	0.0158207
747.397	0.0157096
747.475	0.0155717
747.553	0.0153967
747.631	0.0154144
747.709	0.0154118
747.788	0.0152441
747.866	0.0151806
747.944	0.0150267
748.022	0.0150146
748.100	0.0150763
748.178	0.0148912
748.256	0.0149165
748.334	0.0147634
748.413	0.0148489
748.491	0.0148199
748.569	0.0147646
748.647	0.0147697
748.725	0.0146896
748.803	0.0148582
748.881	0.0147130
748.959	0.0145204
749.038	0.0146926
749.116	0.0147461
749.194	0.0147346
749.272	0.0146653
749.350	0.0147519
749.428	0.0147558
749.506	0.0148148
749.584	0.0148661
749.663	0.0148941
749.741	0.0149960
749.819	0.0150798
749.897	0.0149994
749.975	0.0150341
750.053	0.0148982
750.131	0.0150871
750.209	0.0150107
750.288	0.0148994
750.366	0.0149361
750.444	0.0149165
750.522	0.0149823
750.600	0.0150666
750.678	0.0149747
750.756	0.0149693
750.834	0.0149547
750.913	0.0149886
750.991	0.0150884
751.069	0.0152246
751.147	0.0152631
751.225	0.0151212
751.303	0.0152898
751.381	0.0153178
751.459	0.0155180
751.538	0.0155202
751.616	0.0155328
751.694	0.0155412
751.772	0.0157906
751.850	0.0157843
751.928	0.0157639
752.006	0.0158171
752.084	0.0159833
752.163	0.0158459
752.241	0.0158588
752.319	0.0159740
752.397	0.0158288
752.475	0.0156581
752.553	0.0155849
752.631	0.0156898
752.709	0.0156605
752.788	0.0153339
752.866	0.0153362
752.944	0.0152811
753.022	0.0151730
753.100	0.0151021
753.178	0.0149173
753.256	0.0148715
753.334	0.0147103
753.413	0.0148537
753.491	0.0147495
753.569	0.0146844
753.647	0.0145572
753.725	0.0146429
753.803	0.0146307
753.881	0.0145610
753.959	0.0146360
754.038	0.0147125
754.116	0.0147987
754.194	0.0147297
754.272	0.0149335
754.350	0.0149509
754.428	0.0149549
754.506	0.0151583
754.584	0.0150816
754.663	0.0151077
754.741	0.0153008
754.819	0.0152689
754.897	0.0152800
754.975	0.0151436
755.053	0.0150369
755.131	0.0151965
755.209	0.0150536
755.288	0.0150034
755.366	0.0149177
755.444	0.0148335
755.522	0.0148273
755.600	0.0148601
755.678	0.0148060
755.756	0.0147688
755.834	0.0146572
755.913	0.0148086
755.991	0.0147148
756.069	0.0148075
756.147	0.0149825
756.225	0.0150268
756.303	0.0150994
756.381	0.0151221
756.459	0.0151962
756.538	0.0153468
756.616	0.0153281
756.694	0.0155148
756.772	0.0155765
756.850	0.0154097
756.928	0.0154395
757.006	0.0154554
757.084	0.0154458
757.163	0.0154916
757.241	0.0153912
757.319	0.0153019
757.397	0.0152042
757.475	0.0149960
757.553	0.0152008
757.631	0.0149696
757.709	0.0150465
757.788	0.0148929
757.866	0.0149242
757.944	0.0148361
758.022	0.0148185
758.100	0.0149064
758.178	0.0149604
758.256	0.0149603
758.334	0.0148928
758.413	0.0148489
758.491	0.0150627
758.569	0.0150748
758.647	0.0150247
758.725	0.0150008
758.803	0.0152264
758.881	0.0152065
758.959	0.0151904
759.038	0.0153634
759.116	0.0153925
759.194	0.0153214
759.272	0.0153160
759.350	0.0154523
759.428	0.0152908
759.506	0.0151825
759.584	0.0150639
759.663	0.0149203
759.741	0.0150242
759.819	0.0148034
759.897	0.0145461
759.975	0.0146079
760.053	0.0145206
760.131	0.0144640
760.209	0.0144573
760.288	0.0144873
760.366	0.0144982
760.444	0.0145465
760.522	0.0147797
760.600	0.0147691
760.678	0.0148598
760.756	0.0151220
760.834	0.0153337
760.913	0.0152974
760.991	0.0155154
761.069	0.0154985
761.147	0.0155408
761.225	0.0156523
761.303	0.0157497
761.381	0.0155070
761.459	0.0156254
761.538	0.0156735
761.616	0.0155848
761.694	0.0154290
761.772	0.0152841
761.850	0.0154215
761.928	0.0153620
762.006	0.0150187
762.084	0.0149877
762.163	0.0150142
762.241	0.0150700
762.319	0.0148545
762.397	0.0148180
762.475	0.0148053
762.553	0.0147594
762.631	0.0147172
762.709	0.0148702
762.788	0.0147366
762.866	0.0147232
762.944	0.0148102
763.022	0.0147518
763.100	0.0146887
763.178	0.0147320
763.256	0.0147363
763.334	0.0146055
763.413	0.0148608
763.491	0.0148087
763.569	0.0146953
763.647	0.0147961
763.725	0.0147856
763.803	0.0148648
763.881	0.0149755
763.959	0.0151200
764.038	0.0150485
764.116	0.0151841
764.194	0.0151208
764.272	0.0151704
764.350	0.0152077
764.428	0.0151385
764.506	0.0151077
764.584	0.0150897
764.663	0.0150298
764.741	0.0150484
764.819	0.0152077
764.897	0.0152794
764.975	0.0151682
765.053	0.0153676
765.131	0.0153119
765.209	0.0153545
765.288	0.0154375
765.366	0.0154021
765.444	0.0154029
765.522	0.0153846
765.600	0.0154501
765.678	0.0154218
765.756	0.0155935
765.834	0.0156394
765.913	0.0154912
765.991	0.0153960
766.069	0.0152467
766.147	0.0154813
766.225	0.0153257
766.303	0.0153870
766.381	0.0154005
766.459	0.0153020
766.538	0.0152248
766.616	0.0152371
766.694	0.0151399
766.772	0.0150924
766.850	0.0150364
766.928	0.0151051
767.006	0.0151318
767.084	0.0151041
767.163	0.0150747
767.241	0.0152274
767.319	0.0151754
767.397	0.0151029
767.475	0.0152525
767.553	0.0152869
767.631	0.0152934
767.709	0.0153276
767.788	0.0152176
767.866	0.0152533
767.944	0.0153182
768.022	0.0151760
768.100	0.0151756
768.178	0.0149660
768.256	0.0148618
768.334	0.0149163
768.413	0.0148696
768.491	0.0147108
768.569	0.0148644
768.647	0.0147761
768.725	0.0147908
768.803	0.0146610
768.881	0.0147425
768.959	0.0147755
769.038	0.0149387
769.116	0.0150016
769.194	0.0151440
769.272	0.0151408
769.350	0.0152163
769.428	0.0153857
769.506	0.0154182
769.584	0.0153954
769.663	0.0154579
769.741	0.0156286
769.819	0.0154437
769.897	0.0155073
769.975	0.0155218
770.053	0.0156101
770.131	0.0155430
770.209	0.0154520
770.288	0.0152467
770.366	0.0151556
770.444	0.0152272
770.522	0.0148750
770.600	0.0149075
770.678	0.0148916
770.756	0.0149082
770.834	0.0149158
770.913	0.0148481
770.991	0.0148775
771.069	0.0148878
771.147	0.0149515
771.225	0.0150106
771.303	0.0149772
771.381	0.0150699
771.459	0.0151449
771.538	0.0151398
771.616	0.0152077
771.694	0.0152628
771.772	0.0152552
771.850	0.0152765
771.928	0.0151621
772.006	0.0151914
772.084	0.0151894
772.163	0.0150724
772.241	0.0150021
772.319	0.0150954
772.397	0.0150823
772.475	0.0151018
772.553	0.0150571
772.631	0.0150452
772.709	0.0151572
772.788	0.0152191
772.866	0.0152258
772.944	0.0151585
773.022	0.0153897
773.100	0.0153799
773.178	0.0153003
773.256	0.0153375
773.334	0.0153318
773.413	0.0153189
773.491	0.0152173
773.569	0.0152530
773.647	0.0151865
773.725	0.0150995
773.803	0.0151820
773.881	0.0151347
773.959	0.0152208
774.038	0.0152795
774.116	0.0151357
774.194	0.0152869
774.272	0.0153289
774.350	0.0152266
774.428	0.0151307
774.506	0.0152842
774.584	0.0153802
774.663	0.0152483
774.741	0.0152982
774.819	0.0151442
774.897	0.0150901
774.975	0.0151562
775.053	0.0151994
775.131	0.0150201
775.209	0.0149380
775.288	0.0148438
775.366	0.0149500
775.444	0.0147808
775.522	0.0148215
775.600	0.0148070
775.678	0.0147249
775.756	0.0147985
775.834	0.0148847
775.913	0.0147964
775.991	0.0148647
776.069	0.0149180
776.147	0.0149529
776.225	0.0149123
776.303	0.0149267
776.381	0.0148658
776.459	0.0151817
776.538	0.0151239
776.616	0.0151258
776.694	0.0154037
776.772	0.0152393
776.850	0.0152329
776.928	0.0151112
777.006	0.0151186
777.084	0.0152236
777.163	0.0152398
777.241	0.0151677
777.319	0.0152239
777.397	0.0152391
777.475	0.0152084
777.553	0.0150970
777.631	0.0149387
777.709	0.0150581
777.788	0.0149948
777.866	0.0148051
777.944	0.0148689
778.022	0.0149279
778.100	0.0149284
778.178	0.0148758
778.256	0.0149672
778.334	0.0147485
778.413	0.0150156
778.491	0.0147688
778.569	0.0148103
778.647	0.0148132
778.725	0.0148953
778.803	0.0147328
778.881	0.0148170
778.959	0.0147120
779.038	0.0148376
779.116	0.0148209
779.194	0.0147557
779.272	0.0149512
779.350	0.0150762
779.428	0.0150455
779.506	0.0151145
779.584	0.0151532
779.663	0.0152344
779.741	0.0152415
779.819	0.0150104
779.897	0.0152279
779.975	0.0152453
780.053	0.0152810
780.131	0.0153930
780.209	0.0153710
780.288	0.0153275
780.366	0.0151681
780.444	0.0152374
780.522	0.0151183
780.600	0.0150739
780.678	0.0149911
780.756	0.0149856
780.834	0.0150146
780.913	0.0150155
780.991	0.0149665
781.069	0.0149878
781.147	0.0150124
781.225	0.0150697
781.303	0.0151854
781.381	0.0151623
781.459	0.0152112
781.538	0.0154597
781.616	0.0154059
781.694	0.0152796
781.772	0.0153831
781.850	0.0154729
781.928	0.0153206
782.006	0.0153499
782.084	0.0152934
782.163	0.0152891
782.241	0.0150806
782.319	0.0148714
782.397	0.0148553
782.475	0.0146690
782.553	0.0146854
782.631	0.0145682
782.709	0.0144387
782.788	0.0144435
782.866	0.0144814
782.944	0.0143764
783.022	0.0143744
783.100	0.0143588
783.178	0.0143971
783.256	0.0146098
783.334	0.0144328
783.413	0.0145721
783.491	0.0146510
783.569	0.0145177
783.647	0.0146902
783.725	0.0146493
783.803	0.0147466
783.881	0.0149813
783.959	0.0148724
784.038	0.0150018
784.116	0.0151828
784.194	0.0152565
784.272	0.0153111
784.350	0.0154046
784.428	0.0154372
784.506	0.0155599
784.584	0.0155891
784.663	0.0154417
784.741	0.0156143
784.819	0.0156469
784.897	0.0155675
784.975	0.0155602
785.053	0.0154578
785.131	0.0154933
785.209	0.0154184
785.288	0.0153419
785.366	0.0151453
785.444	0.0152220
785.522	0.0150533
785.600	0.0150038
785.678	0.0148460
785.756	0.0148113
785.834	0.0146241
785.913	0.0146693
785.991	0.0146031
786.069	0.0145988
786.147	0.0144622
786.225	0.0143436
786.303	0.0143844
786.381	0.0144384
786.459	0.0143707
786.538	0.0144897
786.616	0.0146027
786.694	0.0148035
786.772	0.0149367
786.850	0.0148623
786.928	0.0151350
787.006	0.0153705
787.084	0.0154561
787.163	0.0154974
787.241	0.0157372
787.319	0.0157950
787.397	0.0158012
787.475	0.0159885
787.553	0.0159182
787.631	0.0159083
787.709	0.0160075
787.788	0.0160712
787.866	0.0158757
787.944	0.0157854
788.022	0.0157605
788.100	0.0155479
788.178	0.0154215
788.256	0.0154675
788.334	0.0152837
788.413	0.0150925
788.491	0.0148768
788.569	0.0149658
788.647	0.0150097
788.725	0.0147758
788.803	0.0148230
788.881	0.0148063
788.959	0.0147746
789.038	0.0148058
789.116	0.0147996
789.194	0.0147968
789.272	0.0149573
789.350	0.0149041
789.428	0.0148898
789.506	0.0149626
789.584	0.0150382
789.663	0.0150312
789.741	0.0149029
789.819	0.0150974
789.897	0.0151475
789.975	0.0150307
790.053	0.0151562
790.131	0.0151159
790.209	0.0151661
790.288	0.0152647
790.366	0.0152556
790.444	0.0152922
790.522	0.0153206
790.600	0.0152411
790.678	0.0152070
790.756	0.0151984
790.834	0.0151740
790.913	0.0150272
790.991	0.0150471
791.069	0.0150640
791.147	0.0149292
791.225	0.0148089
791.303	0.0150341
791.381	0.0149522
791.459	0.0149641
791.538	0.0149492
791.616	0.0150560
791.694	0.0152111
791.772	0.0151933
791.850	0.0153697
791.928	0.0154369
792.006	0.0154941
792.084	0.0155669
792.163	0.0154677
792.241	0.0156477
792.319	0.0157388
792.397	0.0154946
792.475	0.0155569
792.553	0.0154942
792.631	0.0155640
792.709	0.0154461
792.788	0.0152875
792.866	0.0152807
792.944	0.0153146
793.022	0.0152169
793.100	0.0152410
793.178	0.0152792
793.256	0.0153104
793.334	0.0151646
793.413	0.0152563
793.491	0.0152428
793.569	0.0151825
793.647	0.0152110
793.725	0.0152054
793.803	0.0151752
793.881	0.0152412
793.959	0.0152821
794.038	0.0152486
794.116	0.0151313
794.194	0.0150178
794.272	0.0150589
794.350	0.0150730
794.428	0.0150174
794.506	0.0151481
794.584	0.0150301
794.663	0.0149213
794.741	0.0149501
794.819	0.0149076
794.897	0.0147758
794.975	0.0148441
795.053	0.0146779
795.131	0.0147347
795.209	0.0146783
795.288	0.0146188
795.366	0.0145596
795.444	0.0146168
795.522	0.0146245
795.600	0.0144408
795.678	0.0145890
795.756	0.0146295
795.834	0.0146796
795.913	0.0145882
795.991	0.0146888
796.069	0.0148314
796.147	0.0149291
796.225	0.0150783
796.303	0.0150516
796.381	0.0150500
796.459	0.0152860
796.538	0.0150983
796.616	0.0152027
796.694	0.0153801
796.772	0.0153514
796.850	0.0154541
796.928	0.0155209
797.006	0.0155476
797.084	0.0155306
797.163	0.0155062
797.241	0.0155141
797.319	0.0156037
797.397	0.0156161
797.475	0.0156313
797.553	0.0157333
797.631	0.0156715
797.709	0.0155876
797.788	0.0157510
797.866	0.0156480
797.944	0.0156545
798.022	0.0155468
798.100	0.0156386
798.178	0.0155843
798.256	0.0155360
798.334	0.0153426
798.413	0.0154037
798.491	0.0152198
798.569	0.0149825
798.647	0.0151180
798.725	0.0151112
798.803	0.0149373
798.881	0.0148007
798.959	0.0147634
799.038	0.0148988
799.116	0.0147317
799.194	0.0146810
799.272	0.0148302
799.350	0.0148380
799.428	0.0149080
799.506	0.0147766
799.584	0.0148686
799.663	0.0148875
799.741	0.0149043
799.819	0.0149051
799.897	0.0147021
799.975	0.0148631
800.053	0.0147699
800.131	0.0148022
800.209	0.0147769
800.288	0.0147939
800.366	0.0147014
800.444	0.0147100
800.522	0.0147516
800.600	0.0148109
800.678	0.0149441
800.756	0.0149023
800.834	0.0150574
800.913	0.0150435
800.991	0.0151649
801.069	0.0151081
801.147	0.0151370
801.225	0.0150204
801.303	0.0152085
801.381	0.0151997
801.459	0.0152407
801.538	0.0151428
801.616	0.0152547
801.694	0.0151308
801.772	0.0152695
801.850	0.0150270
801.928	0.0151150
802.006	0.0151933
802.084	0.0151737
802.163	0.0151120
802.241	0.0151933
802.319	0.0151137
802.397	0.0151135
802.475	0.0151301
802.553	0.0150875
802.631	0.0150756
802.709	0.0149789
802.788	0.0151215
802.866	0.0152959
802.944	0.0152168
803.022	0.0150851
803.100	0.0150298
803.178	0.0150685
803.256	0.0151315
803.334	0.0151907
803.413	0.0151476
803.491	0.0150444
803.569	0.0151376
803.647	0.0151623
803.725	0.0153233
803.803	0.0151771
803.881	0.0151994
803.959	0.0152499
804.038	0.0151940
804.116	0.0153365
804.194	0.0154137
804.272	0.0153971
804.350	0.0152802
804.428	0.0152487
804.506	0.0153027
804.584	0.0153619
804.663	0.0152998
804.741	0.0153828
804.819	0.0154215
804.897	0.0153620
804.975	0.0155126
805.053	0.0154861
805.131	0.0154580
805.209	0.0154824
805.288	0.0153510
805.366	0.0153022
805.444	0.0153374
805.522	0.0152457
805.600	0.0151981
805.678	0.0152533
805.756	0.0150636
805.834	0.0149833
805.913	0.0149986
805.991	0.0148900
806.069	0.0147462
806.147	0.0147958
806.225	0.0148369
806.303	0.0147873
806.381	0.0147638
806.459	0.0147313
806.538	0.0146902
806.616	0.0147994
806.694	0.0148123
806.772	0.0147722
806.850	0.0147731
806.928	0.0146047
807.006	0.0146262
807.084	0.0147724
807.163	0.0146818
807.241	0.0147003
807.319	0.0146410
807.397	0.0146344
807.475	0.0146307
807.553	0.0145542
807.631	0.0144959
807.709	0.0147147
807.788	0.0148582
807.866	0.0148753
807.944	0.0148443
808.022	0.0148411
808.100	0.0149085
808.178	0.0150487
808.256	0.0150667
808.334	0.0152105
808.413	0.0152028
808.491	0.0154723
808.569	0.0154413
808.647	0.0154596
808.725	0.0155475
808.803	0.0156272
808.881	0.0155253
808.959	0.0153949
809.038	0.0155392
809.116	0.0156731
809.194	0.0156350
809.272	0.0155277
809.350	0.0154763
809.428	0.0155864
809.506	0.0155534
809.584	0.0155170
809.663	0.0155553
809.741	0.0155971
809.819	0.0155286
809.897	0.0154635
809.975	0.0154462
810.053	0.0153945
810.131	0.0153604
810.209	0.0152509
810.288	0.0152385
810.366	0.0153056
810.444	0.0152108
810.522	0.0151302
810.600	0.0149706
810.678	0.0149741
810.756	0.0149878
810.834	0.0148408
810.913	0.0147748
810.991	0.0148341
811.069	0.0149245
811.147	0.0149907
811.225	0.0149500
811.303	0.0149556
811.381	0.0149672
811.459	0.0151497
811.538	0.0151178
811.616	0.0149713
811.694	0.0151692
811.772	0.0151669
811.850	0.0150873
811.928	0.0151575
812.006	0.0150447
812.084	0.0150630
812.163	0.0150752
812.241	0.0150114
812.319	0.0150356
812.397	0.0150387
812.475	0.0148421
812.553	0.0149169
812.631	0.0150854
812.709	0.0148714
812.788	0.0148927
812.866	0.0147627
812.944	0.0148118
813.022	0.0147517
813.100	0.0147297
813.178	0.0146867
813.256	0.0147327
813.334	0.0145554
813.413	0.0146827
813.491	0.0147307
813.569	0.0146317
813.647	0.0147466
813.725	0.0148981
813.803	0.0148643
813.881	0.0148257
813.959	0.0147810
814.038	0.0149397
814.116	0.0150145
814.194	0.0152299
814.272	0.0150360
814.350	0.0149691
814.428	0.0150436
814.506	0.0149957
814.584	0.0151759
814.663	0.0151942
814.741	0.0152415
814.819	0.0150764
814.897	0.0151911
814.975	0.0152462
815.053	0.0151672
815.131	0.0152284
815.209	0.0152467
815.288	0.0151356
815.366	0.0153630
815.444	0.0153512
815.522	0.0154363
815.600	0.0154697
815.678	0.0154847
815.756	0.0154285
815.834	0.0153699
815.913	0.0154727
815.991	0.0153485
816.069	0.0155762
816.147	0.0154615
816.225	0.0154665
816.303	0.0156969
816.381	0.0155240
816.459	0.0155148
816.538	0.0155605
816.616	0.0156591
816.694	0.0154845
816.772	0.0154482
816.850	0.0154821
816.928	0.0154981
817.006	0.0154292
817.084	0.0153221
817.163	0.0154441
817.241	0.0153350
817.319	0.0151665
817.397	0.0150699
817.475	0.0150761
817.553	0.0152612
817.631	0.0149934
817.709	0.0149077
817.788	0.0149796
817.866	0.0148630
817.944	0.0148373
818.022	0.0148286
818.100	0.0147868
818.178	0.0147768
818.256	0.0146757
818.334	0.0148669
818.413	0.0147646
818.491	0.0148469
818.569	0.0148075
818.647	0.0148574
818.725	0.0150267
818.803	0.0149940
818.881	0.0149630
818.959	0.0150416
819.038	0.0150898
819.116	0.0150262
819.194	0.0149522
819.272	0.0150063
819.350	0.0149558
819.428	0.0150607
819.506	0.0151378
819.584	0.0149699
819.663	0.0149129
819.741	0.0150263
819.819	0.0149068
819.897	0.0150378
819.975	0.0151332
820.053	0.0150744
820.131	0.0152840
820.209	0.0152484
820.288	0.0152280
820.366	0.0153775
820.444	0.0154597
820.522	0.0153313
820.600	0.0152703
820.678	0.0151704
820.756	0.0153063
820.834	0.0153795
820.913	0.0152969
820.991	0.0152349
821.069	0.0151697
821.147	0.0151666
821.225	0.0151881
821.303	0.0151450
821.381	0.0152544
821.459	0.0153341
821.538	0.0151995
821.616	0.0151970
821.694	0.0151394
821.772	0.0152055
821.850	0.0151597
821.928	0.0151421
822.006	0.0151512
822.084	0.0153202
822.163	0.0152277
822.241	0.0151614
822.319	0.0150707
822.397	0.0152705
822.475	0.0151642
822.553	0.0152316
822.631	0.0151724
822.709	0.0153497
822.788	0.0152290
822.866	0.0152051
822.944	0.0151150
823.022	0.0152802
823.100	0.0151760
823.178	0.0152518
823.256	0.0152962
823.334	0.0151378
823.413	0.0151668
823.491	0.0152145
823.569	0.0150399
823.647	0.0151932
823.725	0.0149988
823.803	0.0149679
823.881	0.0150060
823.959	0.0150305
824.038	0.0150200
824.116	0.0150565
824.194	0.0151337
824.272	0.0150391
824.350	0.0149884
824.428	0.0151773
824.506	0.0152741
824.584	0.0151176
824.663	0.0150584
824.741	0.0151173
824.819	0.0152438
824.897	0.0150941
824.975	0.0152029
825.053	0.0153824
825.131	0.0154424
825.209	0.0153022
825.288	0.0151336
825.366	0.0152441
825.444	0.0152888
825.522	0.0152795
825.600	0.0152519
825.678	0.0151002
825.756	0.0151339
825.834	0.0151733
825.913	0.0151414
825.991	0.0151596
826.069	0.0150861
826.147	0.0150539
826.225	0.0150259
826.303	0.0150655
826.381	0.0150348
826.459	0.0151480
826.538	0.0151010
826.616	0.0152282
826.694	0.0151946
826.772	0.0152296
826.850	0.0152216
826.928	0.0154094
827.006	0.0152213
827.084	0.0151350
827.163	0.0151417
827.241	0.0151082
827.319	0.0151661
827.397	0.0152534
827.475	0.0150772
827.553	0.0152203
827.631	0.0152735
827.709	0.0152295
827.788	0.0151421
827.866	0.0152467
827.944	0.0151878
828.022	0.0151861
828.100	0.0152074
828.178	0.0152557
828.256	0.0153318
828.334	0.0152232
828.413	0.0150937
828.491	0.0152662
828.569	0.0152927
828.647	0.0152197
828.725	0.0152392
828.803	0.0151610
828.881	0.0151912
828.959	0.0152921
829.038	0.0151831
829.116	0.0153365
829.194	0.0152353
829.272	0.0154384
829.350	0.0152862
829.428	0.0152399
829.506	0.0152505
829.584	0.0151643
829.663	0.0152575
829.741	0.0150820
829.819	0.0151456
829.897	0.0151237
829.975	0.0152319
830.053	0.0149612
830.131	0.0151086
830.209	0.0148763
830.288	0.0149200
830.366	0.0148976
830.444	0.0149613
830.522	0.0150809
830.600	0.0151209
830.678	0.0151173
830.756	0.0150681
830.834	0.0151585
830.913	0.0151914
830.991	0.0151436
831.069	0.0151488
831.147	0.0152962
831.225	0.0151650
831.303	0.0152757
831.381	0.0151910
831.459	0.0150948
831.538	0.0152177
831.616	0.0153317
831.694	0.0152755
831.772	0.0151995
831.850	0.0151362
831.928	0.0153742
832.006	0.0152654
832.084	0.0151463
832.163	0.0152381
832.241	0.0152522
832.319	0.0150835
832.397	0.0152213
832.475	0.0153298
832.553	0.0150948
832.631	0.0151490
832.709	0.0150934
832.788	0.0150248
832.866	0.0150453
832.944	0.0150717
833.022	0.0151812
833.100	0.0151205
833.178	0.0150541
833.256	0.0150529
833.334	0.0150645
833.413	0.0150682
833.491	0.0149972
833.569	0.0150954
833.647	0.0150932
833.725	0.0152375
833.803	0.0151418
833.881	0.0150992
833.959	0.0151900
834.038	0.0150498
834.116	0.0150597
834.194	0.0152517
834.272	0.0150648
834.350	0.0150965
834.428	0.0152902
834.506	0.0152972
834.584	0.0151315
834.663	0.0152275
834.741	0.0152568
834.819	0.0149422
834.897	0.0150568
834.975	0.0150874
835.053	0.0149831
835.131	0.0150719
835.209	0.0148634
835.288	0.0148573
835.366	0.0149783
835.444	0.0149731
835.522	0.0150912
835.600	0.0150814
835.678	0.0150538
835.756	0.0151173
835.834	0.0151350
835.913	0.0152193
835.991	0.0150926
836.069	0.0151351
836.147	0.0152051
836.225	0.0151540
836.303	0.0150722
836.381	0.0149953
836.459	0.0150846
836.538	0.0149416
836.616	0.0149718
836.694	0.0148652
836.772	0.0148286
836.850	0.0148626
836.928	0.0148849
837.006	0.0148878
837.084	0.0147002
837.163	0.0148335
837.241	0.0148052
837.319	0.0146381
837.397	0.0147520
837.475	0.0146848
837.553	0.0147270
837.631	0.0147797
837.709	0.0146916
837.788	0.0148631
837.866	0.0147430
837.944	0.0147514
838.022	0.0148616
838.100	0.0149251
838.178	0.0149234
838.256	0.0149742
838.334	0.0150211
838.413	0.0150256
838.491	0.0150568
838.569	0.0149706
838.647	0.0150448
838.725	0.0150841
838.803	0.0151374
838.881	0.0150883
838.959	0.0150578
839.038	0.0151846
839.116	0.0151379
839.194	0.0151487
839.272	0.0151250
839.350	0.0152197
839.428	0.0149753
839.506	0.0150069
839.584	0.0150752
839.663	0.0150758
839.741	0.0149804
839.819	0.0150857
839.897	0.0150682
839.975	0.0149309
840.053	0.0148716
840.131	0.0149326
840.209	0.0151083
840.288	0.0151024
840.366	0.0150198
840.444	0.0148852
840.522	0.0150490
840.600	0.0150143
840.678	0.0148956
840.756	0.0148594
840.834	0.0150130
840.913	0.0150476
840.991	0.0149635
841.069	0.0150938
841.147	0.0150233
841.225	0.0150989
841.303	0.0151726
841.381	0.0150223
841.459	0.0150101
841.538	0.0150135
841.616	0.0148643
841.694	0.0151772
841.772	0.0151398
841.850	0.0150955
841.928	0.0151184
842.006	0.0151529
842.084	0.0150637
842.163	0.0150383
842.241	0.0150312
842.319	0.0150218
842.397	0.0150332
842.475	0.0149883
842.553	0.0150738
842.631	0.0149818
842.709	0.0151195
842.788	0.0149650
842.866	0.0150033
842.944	0.0148767
843.022	0.0151306
843.100	0.0151340
843.178	0.0151838
843.256	0.0149949
843.334	0.0150156
843.413	0.0151610
843.491	0.0150443
843.569	0.0150510
843.647	0.0151410
843.725	0.0151170
843.803	0.0151254
843.881	0.0150825
843.959	0.0150616
844.038	0.0149401
844.116	0.0150729
844.194	0.0149912
844.272	0.0149868
844.350	0.0149946
844.428	0.0150589
844.506	0.0151131
844.584	0.0152855
844.663	0.0151713
844.741	0.0150459
844.819	0.0152168
844.897	0.0153739
844.975	0.0152802
845.053	0.0154000
845.131	0.0152366
845.209	0.0152428
845.288	0.0153479
845.366	0.0151828
845.444	0.0151118
845.522	0.0151357
845.600	0.0152472
845.678	0.0152145
845.756	0.0150686
845.834	0.0151013
845.913	0.0151321
845.991	0.0153014
846.069	0.0151427
846.147	0.0151645
846.225	0.0151526
846.303	0.0150882
846.381	0.0150786
846.459	0.0150804
846.538	0.0152799
846.616	0.0150634
846.694	0.0150030
846.772	0.0149552
846.850	0.0151116
846.928	0.0150085
847.006	0.0149956
847.084	0.0149823
847.163	0.0150248
847.241	0.0151134
847.319	0.0151935
847.397	0.0151079
847.475	0.0151105
847.553	0.0150604
847.631	0.0150137
847.709	0.0150519
847.788	0.0151202
847.866	0.0151440
847.944	0.0151189
848.022	0.0151793
848.100	0.0151945
848.178	0.0151780
848.256	0.0150716
848.334	0.0151378
848.413	0.0150935
848.491	0.0150867
848.569	0.0151119
848.647	0.0150599
848.725	0.0151731
848.803	0.0151546
848.881	0.0150359
848.959	0.0150517
849.038	0.0152234
849.116	0.0150280
849.194	0.0151088
849.272	0.0152761
849.350	0.0153031
849.428	0.0150612
849.506	0.0152892
849.584	0.0151322
849.663	0.0150874
849.741	0.0152914
849.819	0.0151198
849.897	0.0150989
849.975	0.0152111
850.053	0.0150815
850.131	0.0151342
850.209	0.0151020
850.288	0.0151335
850.366	0.0153569
850.444	0.0151853
850.522	0.0153873
850.600	0.0154964
850.678	0.0152567
850.756	0.0152772
850.834	0.0154232
850.913	0.0153368
850.991	0.0153304
851.069	0.0151888
851.147	0.0152419
851.225	0.0153078
851.303	0.0152711
851.381	0.0151248
851.459	0.0151125
851.538	0.0150623
851.616	0.0149663
851.694	0.0149731
851.772	0.0149976
851.850	0.0149670
851.928	0.0149501
852.006	0.0149459
852.084	0.0150540
852.163	0.0149963
852.241	0.0149287
852.319	0.0149625
852.397	0.0150727
852.475	0.0151307
852.553	0.0151095
852.631	0.0150960
852.709	0.0152460
852.788	0.0149648
852.866	0.0149939
852.944	0.0151669
853.022	0.0151635
853.100	0.0151025
853.178	0.0150650
853.256	0.0150751
853.334	0.0149645
853.413	0.0151233
853.491	0.0151220
853.569	0.0151678
853.647	0.0151495
853.725	0.0150894
853.803	0.0152047
853.881	0.0150967
853.959	0.0151426
854.038	0.0151252
854.116	0.0152390
854.194	0.0151003
854.272	0.0152171
854.350	0.0151903
854.428	0.0152531
854.506	0.0152187
854.584	0.0152675
854.663	0.0151473
854.741	0.0151532
854.819	0.0151006
854.897	0.0152048
854.975	0.0153473
855.053	0.0153252
855.131	0.0152483
855.209	0.0151035
855.288	0.0152924
855.366	0.0152307
855.444	0.0151501
855.522	0.0151135
855.600	0.0149423
855.678	0.0152197
855.756	0.0151069
855.834	0.0150137
855.913	0.0150212
855.991	0.0150848
856.069	0.0149844
856.147	0.0149182
856.225	0.0149108
856.303	0.0148825
856.381	0.0149776
856.459	0.0150958
856.538	0.0151616
856.616	0.0149068
856.694	0.0149235
856.772	0.0150275
856.850	0.0150846
856.928	0.0149261
857.006	0.0151196
857.084	0.0153427
857.163	0.0152263
857.241	0.0151478
857.319	0.0151472
857.397	0.0149558
857.475	0.0151183
857.553	0.0151467
857.631	0.0150226
857.709	0.0150491
857.788	0.0151035
857.866	0.0150652
857.944	0.0150154
858.022	0.0151186
858.100	0.0150249
858.178	0.0151431
858.256	0.0150919
858.334	0.0150266
858.413	0.0150601
858.491	0.0150443
858.569	0.0148739
858.647	0.0150024
858.725	0.0148976
858.803	0.0149677
858.881	0.0148904
858.959	0.0148879
859.038	0.0150125
859.116	0.0149046
859.194	0.0150218
859.272	0.0150105
859.350	0.0149530
859.428	0.0149574
859.506	0.0148013
859.584	0.0149113
859.663	0.0150134
859.741	0.0147725
859.819	0.0149307
859.897	0.0148670
859.975	0.0148190
860.053	0.0149032
860.131	0.0149545
860.209	0.0148509
860.288	0.0149657
860.366	0.0147968
860.444	0.0148782
860.522	0.0149175
860.600	0.0148744
860.678	0.0149265
860.756	0.0149489
860.834	0.0149373
860.913	0.0148434
860.991	0.0149005
861.069	0.0149194
861.147	0.0150240
861.225	0.0150385
861.303	0.0150658
861.381	0.0151316
861.459	0.0151285
861.538	0.0150970
861.616	0.0150894
861.694	0.0151932
861.772	0.0151325
861.850	0.0151344
861.928	0.0151582
862.006	0.0152282
862.084	0.0150287
862.163	0.0150455
862.241	0.0149935
862.319	0.0148720
862.397	0.0148946
862.475	0.0150372
862.553	0.0148894
862.631	0.0149732
862.709	0.0151096
862.788	0.0148817
862.866	0.0150713
862.944	0.0150530
863.022	0.0150124
863.100	0.0150661
863.178	0.0149697
863.256	0.0151649
863.334	0.0149049
863.413	0.0150671
863.491	0.0150419
863.569	0.0150839
863.647	0.0151782
863.725	0.0151321
863.803	0.0150984
863.881	0.0150671
863.959	0.0151894
864.038	0.0150700
864.116	0.0150674
864.194	0.0150779
864.272	0.0149552
864.350	0.0151350
864.428	0.0150514
864.506	0.0150915
864.584	0.0152058
864.663	0.0151267
864.741	0.0150852
864.819	0.0151781
864.897	0.0150478
864.975	0.0149552
865.053	0.0149288
865.131	0.0150164
865.209	0.0150594
865.288	0.0149806
865.366	0.0149358
865.444	0.0149652
865.522	0.0150446
865.600	0.0150138
865.678	0.0150236
865.756	0.0151383
865.834	0.0151636
865.913	0.0152697
865.991	0.0151771
866.069	0.0152353
866.147	0.0151624
866.225	0.0151247
866.303	0.0152006
866.381	0.0149936
866.459	0.0151981
866.538	0.0150725
866.616	0.0150999
866.694	0.0150606
866.772	0.0151962
866.850	0.0153146
866.928	0.0151236
867.006	0.0150289
867.084	0.0149284
867.163	0.0151746
867.241	0.0151505
867.319	0.0150244
867.397	0.0150993
867.475	0.0150357
867.553	0.0150168
867.631	0.0150026
867.709	0.0151160
867.788	0.0150390
867.866	0.0151005
867.944	0.0151563
868.022	0.0150452
868.100	0.0151698
868.178	0.0151202
868.256	0.0151106
868.334	0.0151782
868.413	0.0151666
868.491	0.0151470
868.569	0.0152579
868.647	0.0152061
868.725	0.0151276
868.803	0.0151855
868.881	0.0152615
868.959	0.0150290
869.038	0.0151661
869.116	0.0152466
869.194	0.0152328
869.272	0.0153098
869.350	0.0150091
869.428	0.0150547
869.506	0.0152536
869.584	0.0150492
869.663	0.0149103
869.741	0.0151112
869.819	0.0151308
869.897	0.0150220
869.975	0.0150361
870.053	0.0150136
870.131	0.0149612
870.209	0.0151093
870.288	0.0151858
870.366	0.0150434
870.444	0.0151774
870.522	0.0152391
870.600	0.0152382
870.678	0.0152322
870.756	0.0151719
870.834	0.0153101
870.913	0.0153024
870.991	0.0151884
871.069	0.0151161
871.147	0.0151730
871.225	0.0150488
871.303	0.0151509
871.381	0.0150471
871.459	0.0151625
871.538	0.0150813
871.616	0.0150987
871.694	0.0151791
871.772	0.0150673
871.850	0.0149734
871.928	0.0150900
872.006	0.0150066
872.084	0.0150660
872.163	0.0151344
872.241	0.0150849
872.319	0.0151097
872.397	0.0149988
872.475	0.0151033
872.553	0.0151633
872.631	0.0151181
872.709	0.0150680
872.788	0.0150780
872.866	0.0151225
872.944	0.0149725
873.022	0.0149912
873.100	0.0150507
873.178	0.0148902
873.256	0.0151131
873.334	0.0149377
873.413	0.0150336
873.491	0.0149374
873.569	0.0149479
873.647	0.0152103
873.725	0.0150710
873.803	0.0149628
873.881	0.0149995
873.959	0.0151182
874.038	0.0150470
874.116	0.0151782
874.194	0.0151920
874.272	0.0151520
874.350	0.0152621
874.428	0.0152338
874.506	0.0152509
874.584	0.0152749
874.663	0.0152401
874.741	0.0151762
874.819	0.0152332
874.897	0.0152714
874.975	0.0151997
875.053	0.0153575
875.131	0.0153870
875.209	0.0151942
875.288	0.0152766
875.366	0.0152352
875.444	0.0151064
875.522	0.0151680
875.600	0.0151863
875.678	0.0152570
875.756	0.0151586
875.834	0.0151656
875.913	0.0151946
875.991	0.0150758
876.069	0.0151662
876.147	0.0152381
876.225	0.0151366
876.303	0.0150362
876.381	0.0151530
876.459	0.0150694
876.538	0.0151659
876.616	0.0151534
876.694	0.0152110
876.772	0.0149844
876.850	0.0151562
876.928	0.0150117
877.006	0.0151167
877.084	0.0150465
877.163	0.0150324
877.241	0.0150446
877.319	0.0150273
877.397	0.0150854
877.475	0.0150705
877.553	0.0151509
877.631	0.0150571
877.709	0.0151044
877.788	0.0151861
877.866	0.0152034
877.944	0.0150113
878.022	0.0151174
878.100	0.0151929
878.178	0.0150685
878.256	0.0151258
878.334	0.0151509
878.413	0.0151578
878.491	0.0152048
878.569	0.0151225
878.647	0.0150045
878.725	0.0150429
878.803	0.0150343
878.881	0.0150250
878.959	0.0147640
879.038	0.0148626
879.116	0.0149800
879.194	0.0149932
879.272	0.0149718
879.350	0.0150461
879.428	0.0150368
879.506	0.0150446
879.584	0.0150078
879.663	0.0150484
879.741	0.0150657
879.819	0.0151574
879.897	0.0150152
879.975	0.0149438
880.053	0.0149539
880.131	0.0151670
880.209	0.0151257
880.288	0.0149496
880.366	0.0148832
880.444	0.0149323
880.522	0.0151515
880.600	0.0149992
880.678	0.0149831
880.756	0.0149383
880.834	0.0150003
880.913	0.0148126
880.991	0.0148309
881.069	0.0149997
881.147	0.0149670
881.225	0.0149914
881.303	0.0149649
881.381	0.0150516
881.459	0.0150692
881.538	0.0152573
881.616	0.0150616
881.694	0.0152072
881.772	0.0151537
881.850	0.0151221
881.928	0.0151447
882.006	0.0151158
882.084	0.0151783
882.163	0.0152573
882.241	0.0153796
882.319	0.0151115
882.397	0.0151453
882.475	0.0151536
882.553	0.0151755
882.631	0.0149845
882.709	0.0150327
882.788	0.0151209
882.866	0.0150491
882.944	0.0150534
883.022	0.0150900
883.100	0.0148956
883.178	0.0148952
883.256	0.0150316
883.334	0.0148543
883.413	0.0150016
883.491	0.0149223
883.569	0.0149122
883.647	0.0150172
883.725	0.0148926
883.803	0.0150136
883.881	0.0148244
883.959	0.0147768
884.038	0.0151376
884.116	0.0150298
884.194	0.0150094
884.272	0.0151863
884.350	0.0151361
884.428	0.0150926
884.506	0.0150242
884.584	0.0152232
884.663	0.0151442
884.741	0.0151316
884.819	0.0152378
884.897	0.0152390
884.975	0.0151970
885.053	0.0153969
885.131	0.0152628
885.209	0.0153447
885.288	0.0151397
885.366	0.0151437
885.444	0.0152848
885.522	0.0152378
885.600	0.0152799
885.678	0.0151717
885.756	0.0151047
885.834	0.0151852
885.913	0.0150770
885.991	0.0150597
886.069	0.0151197
886.147	0.0150322
886.225	0.0150964
886.303	0.0151258
886.381	0.0150823
886.459	0.0151356
886.538	0.0151585
886.616	0.0151221
886.694	0.0152002
886.772	0.0151713
886.850	0.0151122
886.928	0.0151534
887.006	0.0151976
887.084	0.0151984
887.163	0.0153488
887.241	0.0152908
887.319	0.0150697
887.397	0.0151762
887.475	0.0153844
887.553	0.0153845
887.631	0.0154450
887.709	0.0153120
887.788	0.0153654
887.866	0.0153508
887.944	0.0153104
888.022	0.0152705
888.100	0.0152422
888.178	0.0152511
888.256	0.0153192
888.334	0.0153155
888.413	0.0153280
888.491	0.0153116
888.569	0.0152766
888.647	0.0154089
888.725	0.0152991
888.803	0.0154341
888.881	0.0154202
888.959	0.0153635
889.038	0.0154211
889.116	0.0152834
889.194	0.0153060
889.272	0.0153021
889.350	0.0152297
889.428	0.0152312
889.506	0.0151640
889.584	0.0152412
889.663	0.0151086
889.741	0.0151202
889.819	0.0150945
889.897	0.0150813
889.975	0.0150604
890.053	0.0150169
890.131	0.0149308
890.209	0.0149853
890.288	0.0149267
890.366	0.0149893
890.444	0.0150095
890.522	0.0149381
890.600	0.0150327
890.678	0.0150356
890.756	0.0151211
890.834	0.0150264
890.913	0.0151235
890.991	0.0150565
891.069	0.0151500
891.147	0.0149917
891.225	0.0150299
891.303	0.0150303
891.381	0.0150974
891.459	0.0151761
891.538	0.0150679
891.616	0.0152283
891.694	0.0153590
891.772	0.0152021
891.850	0.0152209
891.928	0.0151465
892.006	0.0152122
892.084	0.0152724
892.163	0.0153093
892.241	0.0153002
892.319	0.0151807
892.397	0.0151728
892.475	0.0151637
892.553	0.0152102
892.631	0.0152253
892.709	0.0151796
892.788	0.0150264
892.866	0.0152321
892.944	0.0151142
893.022	0.0150536
893.100	0.0151360
893.178	0.0150943
893.256	0.0149586
893.334	0.0150269
893.413	0.0151348
893.491	0.0149734
893.569	0.0149661
893.647	0.0150397
893.725	0.0148132
893.803	0.0149188
893.881	0.0148500
893.959	0.0148113
894.038	0.0149174
894.116	0.0148276
894.194	0.0149968
894.272	0.0148444
894.350	0.0148360
894.428	0.0150469
894.506	0.0150147
894.584	0.0150343
894.663	0.0151077
894.741	0.0150460
894.819	0.0150796
894.897	0.0152097
894.975	0.0152390
895.053	0.0151753
895.131	0.0152178
895.209	0.0152415
895.288	0.0153279
895.366	0.0153050
895.444	0.0152076
895.522	0.0152850
895.600	0.0152907
895.678	0.0153265
895.756	0.0152698
895.834	0.0152140
895.913	0.0152334
895.991	0.0152479
896.069	0.0151926
896.147	0.0151014
896.225	0.0150318
896.303	0.0150558
896.381	0.0150597
896.459	0.0150122
896.538	0.0150446
896.616	0.0148370
896.694	0.0150616
896.772	0.0149642
896.850	0.0149832
896.928	0.0150282
897.006	0.0148703
897.084	0.0149579
897.163	0.0148446
897.241	0.0147910
897.319	0.0148444
897.397	0.0148411
897.475	0.0148862
897.553	0.0147865
897.631	0.0147646
897.709	0.0148145
897.788	0.0149023
897.866	0.0148405
897.944	0.0149128
898.022	0.0148380
898.100	0.0148465
898.178	0.0150292
898.256	0.0151089
898.334	0.0149718
898.413	0.0150588
898.491	0.0149554
898.569	0.0150531
898.647	0.0149835
898.725	0.0150661
898.803	0.0151015
898.881	0.0150696
898.959	0.0150115
899.038	0.0151428
899.116	0.0151377
899.194	0.0151603
899.272	0.0151155
899.350	0.0149693
899.428	0.0150620
899.506	0.0151234
899.584	0.0151335
899.663	0.0151683
899.741	0.0150570
899.819	0.0151468
899.897	0.0150704
899.975	0.0152348
900.053	0.0152235
900.131	0.0150779
900.209	0.0150996
900.288	0.0152470
900.366	0.0152271
900.444	0.0153728
900.522	0.0154305
900.600	0.0153680
900.678	0.0152287
900.756	0.0152911
900.834	0.0153766
900.913	0.0152995
900.991	0.0154007
901.069	0.0152428
901.147	0.0152157
901.225	0.0152903
901.303	0.0152431
901.381	0.0152948
901.459	0.0150754
901.538	0.0149865
901.616	0.0152172
901.694	0.0151086
901.772	0.0149867
901.850	0.0149198
901.928	0.0148231
902.006	0.0149295
902.084	0.0149853
902.163	0.0149087
902.241	0.0147691
902.319	0.0147878
902.397	0.0149068
902.475	0.0149079
902.553	0.0148930
902.631	0.0149298
902.709	0.0150275
902.788	0.0150478
902.866	0.0150101
902.944	0.0150684
903.022	0.0151166
903.100	0.0151463
903.178	0.0151560
903.256	0.0151699
903.334	0.0153063
903.413	0.0153646
903.491	0.0152576
903.569	0.0153507
903.647	0.0153629
903.725	0.0152385
903.803	0.0153267
903.881	0.0153616
903.959	0.0151955
904.038	0.0153221
904.116	0.0152032
904.194	0.0151723
904.272	0.0151938
904.350	0.0151678
904.428	0.0152012
904.506	0.0149859
904.584	0.0152038
904.663	0.0150108
904.741	0.0149832
904.819	0.0150771
904.897	0.0149297
904.975	0.0150916
905.053	0.0150137
905.131	0.0150155
905.209	0.0149860
905.288	0.0151542
905.366	0.0149588
905.444	0.0150592
905.522	0.0151495
905.600	0.0149588
905.678	0.0150637
905.756	0.0149419
905.834	0.0150944
905.913	0.0151352
905.991	0.0151347
906.069	0.0150734
906.147	0.0152199
906.225	0.0150989
906.303	0.0150513
906.381	0.0150845
906.459	0.0149773
906.538	0.0150513
906.616	0.0150397
906.694	0.0150636
906.772	0.0150961
906.850	0.0150873
906.928	0.0150471
907.006	0.0150676
907.084	0.0150112
907.163	0.0151606
907.241	0.0150114
907.319	0.0151144
907.397	0.0151981
907.475	0.0150738
907.553	0.0151115
907.631	0.0152345
907.709	0.0153544
907.788	0.0151167
907.866	0.0152849
907.944	0.0151678
908.022	0.0152843
908.100	0.0151797
908.178	0.0152197
908.256	0.0151633
908.334	0.0151907
908.413	0.0151953
908.491	0.0152726
908.569	0.0152546
908.647	0.0151342
908.725	0.0152313
908.803	0.0152880
908.881	0.0152735
908.959	0.0152786
909.038	0.0152671
909.116	0.0152447
909.194	0.0152617
909.272	0.0152213
909.350	0.0151488
909.428	0.0150115
909.506	0.0151980
909.584	0.0153184
909.663	0.0152274
909.741	0.0150592
909.819	0.0151666
909.897	0.0151276
909.975	0.0152520
910.053	0.0151895
910.131	0.0151659
910.209	0.0152765
910.288	0.0152391
910.366	0.0154187
910.444	0.0152512
910.522	0.0152534
910.600	0.0153055
910.678	0.0152595
910.756	0.0152154
910.834	0.0152818
910.913	0.0153733
910.991	0.0152866
911.069	0.0153859
911.147	0.0154263
911.225	0.0152451
911.303	0.0151888
911.381	0.0152504
911.459	0.0152287
911.538	0.0152814
911.616	0.0153231
911.694	0.0152974
911.772	0.0152069
911.850	0.0150854
911.928	0.0152280
912.006	0.0151519
912.084	0.0150379
912.163	0.0151818
912.241	0.0149913
912.319	0.0151095
912.397	0.0151460
912.475	0.0151917
912.553	0.0151417
912.631	0.0150494
912.709	0.0150685
912.788	0.0151495
912.866	0.0150826
912.944	0.0150648
913.022	0.0151554
913.100	0.0151781
913.178	0.0151823
913.256	0.0152013
913.334	0.0152934
913.413	0.0150915
913.491	0.0150669
913.569	0.0151041
913.647	0.0150891
913.725	0.0151586
913.803	0.0151918
913.881	0.0150635
913.959	0.0150948
914.038	0.0150163
914.116	0.0152036
914.194	0.0151245
914.272	0.0150394
914.350	0.0151255
914.428	0.0149915
914.506	0.0151045
914.584	0.0151308
914.663	0.0150867
914.741	0.0151030
914.819	0.0151023
914.897	0.0152336
914.975	0.0150658
915.053	0.0150591
915.131	0.0152722
915.209	0.0151776
915.288	0.0151048
915.366	0.0150930
915.444	0.0150504
915.522	0.0150892
915.600	0.0149786
915.678	0.0151625
915.756	0.0152837
915.834	0.0150329
915.913	0.0149618
915.991	0.0150026
916.069	0.0150157
916.147	0.0150085
916.225	0.0150613
916.303	0.0151389
916.381	0.0151749
916.459	0.0150462
916.538	0.0151910
916.616	0.0151489
916.694	0.0153056
916.772	0.0153390
916.850	0.0153383
916.928	0.0152995
917.006	0.0153258
917.084	0.0154494
917.163	0.0152833
917.241	0.0152267
917.319	0.0152372
917.397	0.0151240
917.475	0.0151978
917.553	0.0151852
917.631	0.0152248
917.709	0.0152573
917.788	0.0150522
917.866	0.0149822
917.944	0.0151287
918.022	0.0151535
918.100	0.0151425
918.178	0.0150640
918.256	0.0148970
918.334	0.0150811
918.413	0.0149860
918.491	0.0150447
918.569	0.0149593
918.647	0.0151056
918.725	0.0152011
918.803	0.0150643
918.881	0.0150173
918.959	0.0150648
919.038	0.0151540
919.116	0.0150073
919.194	0.0150646
919.272	0.0151164
919.350	0.0151499
919.428	0.0151745
919.506	0.0152399
919.584	0.0152068
919.663	0.0152722
919.741	0.0152560
919.819	0.0152774
919.897	0.0152884
