05/20/2022	21:10:48	Ver.	4.1	UNKNOWN
Optical Delay	599.975067	Delta X		0.078125	Sweeps	1	Scan Rate	0/0
Coordinates	Axis 1	NaN	Axis 2	NaN	Axis 3	NaN	Axis 4	NaN	Axis 5	NaN	Axis 6	0.000000
TX Power	0.000000	RX Power	0.000000

599.975	0.0151427
600.053	0.0151933
600.131	0.0151567
600.209	0.0151546
600.288	0.0151471
600.366	0.0151128
600.444	0.0150697
600.522	0.0151019
600.600	0.0149767
600.678	0.0149802
600.756	0.0150725
600.834	0.0150906
600.913	0.0151647
600.991	0.0150927
601.069	0.0150727
601.147	0.0151380
601.225	0.0151809
601.303	0.0150550
601.381	0.0151633
601.459	0.0150559
601.538	0.0150140
601.616	0.0149672
601.694	0.0150385
601.772	0.0151341
601.850	0.0149490
601.928	0.0150817
602.006	0.0150263
602.084	0.0150081
602.163	0.0150531
602.241	0.0150876
602.319	0.0149473
602.397	0.0149714
602.475	0.0152404
602.553	0.0151075
602.631	0.0149973
602.709	0.0151401
602.788	0.0151225
602.866	0.0152251
602.944	0.0151372
603.022	0.0149436
603.100	0.0151820
603.178	0.0151743
603.256	0.0151360
603.334	0.0152248
603.413	0.0150866
603.491	0.0151334
603.569	0.0150739
603.647	0.0150898
603.725	0.0152188
603.803	0.0150348
603.881	0.0150170
603.959	0.0151401
604.038	0.0152505
604.116	0.0150594
604.194	0.0150938
604.272	0.0151818
604.350	0.0151333
604.428	0.0152898
604.506	0.0151704
604.584	0.0149660
604.663	0.0151260
604.741	0.0151614
604.819	0.0152663
604.897	0.0151884
604.975	0.0149902
605.053	0.0150551
605.131	0.0151785
605.209	0.0150450
605.288	0.0152142
605.366	0.0151675
605.444	0.0151665
605.522	0.0152003
605.600	0.0151572
605.678	0.0151218
605.756	0.0152556
605.834	0.0152245
605.913	0.0151048
605.991	0.0151678
606.069	0.0149455
606.147	0.0150916
606.225	0.0152286
606.303	0.0151265
606.381	0.0150843
606.459	0.0151450
606.538	0.0151960
606.616	0.0151466
606.694	0.0151460
606.772	0.0151668
606.850	0.0151446
606.928	0.0150119
607.006	0.0152847
607.084	0.0152333
607.163	0.0151654
607.241	0.0151964
607.319	0.0151196
607.397	0.0151784
607.475	0.0151804
607.553	0.0150600
607.631	0.0152352
607.709	0.0152535
607.788	0.0152787
607.866	0.0150913
607.944	0.0151565
608.022	0.0152169
608.100	0.0151498
608.178	0.0151157
608.256	0.0151647
608.334	0.0151417
608.413	0.0151199
608.491	0.0152763
608.569	0.0152184
608.647	0.0151736
608.725	0.0152293
608.803	0.0150825
608.881	0.0151123
608.959	0.0151600
609.038	0.0151943
609.116	0.0151647
609.194	0.0152925
609.272	0.0152013
609.350	0.0152000
609.428	0.0150663
609.506	0.0152023
609.584	0.0152430
609.663	0.0152363
609.741	0.0150341
609.819	0.0151126
609.897	0.0152254
609.975	0.0150695
610.053	0.0150340
610.131	0.0152291
610.209	0.0151886
610.288	0.0151111
610.366	0.0151414
610.444	0.0150922
610.522	0.0150881
610.600	0.0151185
610.678	0.0151714
610.756	0.0151503
610.834	0.0149788
610.913	0.0150961
610.991	0.0150951
611.069	0.0151364
611.147	0.0151205
611.225	0.0150908
611.303	0.0151407
611.381	0.0151538
611.459	0.0151159
611.538	0.0149699
611.616	0.0152352
611.694	0.0152760
611.772	0.0152164
611.850	0.0151077
611.928	0.0151950
612.006	0.0152001
612.084	0.0150330
612.163	0.0150406
612.241	0.0151266
612.319	0.0152300
612.397	0.0152840
612.475	0.0151102
612.553	0.0150986
612.631	0.0151315
612.709	0.0150829
612.788	0.0151583
612.866	0.0151505
612.944	0.0151755
613.022	0.0151498
613.100	0.0152435
613.178	0.0151383
613.256	0.0151555
613.334	0.0152311
613.413	0.0152633
613.491	0.0152180
613.569	0.0152304
613.647	0.0152248
613.725	0.0151587
613.803	0.0151582
613.881	0.0152909
613.959	0.0151766
614.038	0.0152504
614.116	0.0151997
614.194	0.0152275
614.272	0.0153136
614.350	0.0152024
614.428	0.0152379
614.506	0.0152666
614.584	0.0152045
614.663	0.0152080
614.741	0.0151920
614.819	0.0151682
614.897	0.0152778
614.975	0.0152085
615.053	0.0152933
615.131	0.0153463
615.209	0.0153092
615.288	0.0152938
615.366	0.0151694
615.444	0.0152264
615.522	0.0150164
615.600	0.0153671
615.678	0.0152873
615.756	0.0150793
615.834	0.0153331
615.913	0.0152525
615.991	0.0152183
616.069	0.0151955
616.147	0.0151708
616.225	0.0153078
616.303	0.0151538
616.381	0.0151713
616.459	0.0152220
616.538	0.0151810
616.616	0.0153083
616.694	0.0153536
616.772	0.0150999
616.850	0.0151927
616.928	0.0152525
617.006	0.0150957
617.084	0.0152180
617.163	0.0152859
617.241	0.0151711
617.319	0.0152625
617.397	0.0151615
617.475	0.0150403
617.553	0.0153077
617.631	0.0151807
617.709	0.0153004
617.788	0.0152542
617.866	0.0151880
617.944	0.0152750
618.022	0.0152777
618.100	0.0152231
618.178	0.0152676
618.256	0.0150719
618.334	0.0152079
618.413	0.0152484
618.491	0.0152397
618.569	0.0153086
618.647	0.0151062
618.725	0.0152357
618.803	0.0151133
618.881	0.0151567
618.959	0.0152197
619.038	0.0151348
619.116	0.0152416
619.194	0.0151803
619.272	0.0149640
619.350	0.0152505
619.428	0.0151740
619.506	0.0151630
619.584	0.0153037
619.663	0.0150918
619.741	0.0150948
619.819	0.0151535
619.897	0.0152052
619.975	0.0150857
620.053	0.0150806
620.131	0.0151529
620.209	0.0152068
620.288	0.0152386
620.366	0.0151105
620.444	0.0151614
620.522	0.0151862
620.600	0.0150991
620.678	0.0153458
620.756	0.0153793
620.834	0.0151758
620.913	0.0151872
620.991	0.0151336
621.069	0.0152354
621.147	0.0152775
621.225	0.0151876
621.303	0.0152120
621.381	0.0151834
621.459	0.0152316
621.538	0.0151643
621.616	0.0153002
621.694	0.0151066
621.772	0.0152003
621.850	0.0152493
621.928	0.0152087
622.006	0.0151714
622.084	0.0151334
622.163	0.0151427
622.241	0.0151640
622.319	0.0150948
622.397	0.0152084
622.475	0.0151645
622.553	0.0151818
622.631	0.0152850
622.709	0.0152053
622.788	0.0149804
622.866	0.0150442
622.944	0.0151633
623.022	0.0152000
623.100	0.0151410
623.178	0.0151636
623.256	0.0152290
623.334	0.0152245
623.413	0.0151582
623.491	0.0152130
623.569	0.0152676
623.647	0.0152649
623.725	0.0151450
623.803	0.0151363
623.881	0.0150801
623.959	0.0152187
624.038	0.0152287
624.116	0.0151461
624.194	0.0152264
624.272	0.0152768
624.350	0.0152016
624.428	0.0151929
624.506	0.0151090
624.584	0.0151478
624.663	0.0151971
624.741	0.0151618
624.819	0.0151543
624.897	0.0151634
624.975	0.0152274
625.053	0.0151337
625.131	0.0150945
625.209	0.0152125
625.288	0.0152544
625.366	0.0151682
625.444	0.0151942
625.522	0.0152414
625.600	0.0151616
625.678	0.0151669
625.756	0.0152319
625.834	0.0152153
625.913	0.0150942
625.991	0.0151597
626.069	0.0151364
626.147	0.0151495
626.225	0.0151796
626.303	0.0149756
626.381	0.0150846
626.459	0.0152024
626.538	0.0150675
626.616	0.0152550
626.694	0.0151767
626.772	0.0151217
626.850	0.0152568
626.928	0.0151527
627.006	0.0151094
627.084	0.0151089
627.163	0.0151571
627.241	0.0151303
627.319	0.0153038
627.397	0.0151185
627.475	0.0151763
627.553	0.0152133
627.631	0.0151557
627.709	0.0151199
627.788	0.0152062
627.866	0.0153171
627.944	0.0152505
628.022	0.0153914
628.100	0.0151278
628.178	0.0152686
628.256	0.0152817
628.334	0.0151507
628.413	0.0151009
628.491	0.0153272
628.569	0.0152974
628.647	0.0153033
628.725	0.0151898
628.803	0.0152104
628.881	0.0151984
628.959	0.0152813
629.038	0.0153212
629.116	0.0152233
629.194	0.0151517
629.272	0.0152665
629.350	0.0151094
629.428	0.0150279
629.506	0.0152356
629.584	0.0151320
629.663	0.0151646
629.741	0.0153297
629.819	0.0151962
629.897	0.0150822
629.975	0.0151142
630.053	0.0149833
630.131	0.0152494
630.209	0.0151674
630.288	0.0151895
630.366	0.0153468
630.444	0.0150220
630.522	0.0150387
630.600	0.0152138
630.678	0.0152628
630.756	0.0151301
630.834	0.0152425
630.913	0.0152243
630.991	0.0152774
631.069	0.0151674
631.147	0.0151926
631.225	0.0152801
631.303	0.0152782
631.381	0.0152373
631.459	0.0153367
631.538	0.0153132
631.616	0.0153120
631.694	0.0153307
631.772	0.0151371
631.850	0.0152066
631.928	0.0153385
632.006	0.0153386
632.084	0.0153198
632.163	0.0152744
632.241	0.0152296
632.319	0.0152161
632.397	0.0153844
632.475	0.0155055
632.553	0.0153812
632.631	0.0151524
632.709	0.0153274
632.788	0.0153130
632.866	0.0152044
632.944	0.0152319
633.022	0.0153641
633.100	0.0152411
633.178	0.0152947
633.256	0.0152726
633.334	0.0152027
633.413	0.0151981
633.491	0.0150880
633.569	0.0152924
633.647	0.0152184
633.725	0.0151811
633.803	0.0151070
633.881	0.0151679
633.959	0.0152402
634.038	0.0153618
634.116	0.0152241
634.194	0.0151384
634.272	0.0153367
634.350	0.0152317
634.428	0.0151411
634.506	0.0152026
634.584	0.0152784
634.663	0.0153268
634.741	0.0152868
634.819	0.0152186
634.897	0.0153573
634.975	0.0152634
635.053	0.0152071
635.131	0.0152634
635.209	0.0152396
635.288	0.0152788
635.366	0.0153138
635.444	0.0152497
635.522	0.0154206
635.600	0.0154171
635.678	0.0152076
635.756	0.0152503
635.834	0.0154145
635.913	0.0154529
635.991	0.0153334
636.069	0.0154410
636.147	0.0152686
636.225	0.0154404
636.303	0.0153526
636.381	0.0155702
636.459	0.0153443
636.538	0.0152710
636.616	0.0152625
636.694	0.0152927
636.772	0.0151739
636.850	0.0151975
636.928	0.0153811
637.006	0.0151970
637.084	0.0152190
637.163	0.0153619
637.241	0.0153067
637.319	0.0150855
637.397	0.0152707
637.475	0.0152033
637.553	0.0152440
637.631	0.0151609
637.709	0.0151428
637.788	0.0150819
637.866	0.0151473
637.944	0.0152071
638.022	0.0152778
638.100	0.0151083
638.178	0.0152265
638.256	0.0153723
638.334	0.0150808
638.413	0.0152618
638.491	0.0153962
638.569	0.0153141
638.647	0.0152475
638.725	0.0152586
638.803	0.0152742
638.881	0.0154253
638.959	0.0153025
639.038	0.0153836
639.116	0.0153124
639.194	0.0153716
639.272	0.0152695
639.350	0.0152338
639.428	0.0153048
639.506	0.0152904
639.584	0.0151868
639.663	0.0152312
639.741	0.0153175
639.819	0.0153263
639.897	0.0151841
639.975	0.0152830
640.053	0.0153120
640.131	0.0152919
640.209	0.0152515
640.288	0.0152201
640.366	0.0152560
640.444	0.0153985
640.522	0.0152778
640.600	0.0153738
640.678	0.0155022
640.756	0.0153361
640.834	0.0153326
640.913	0.0153837
640.991	0.0153481
641.069	0.0153649
641.147	0.0152567
641.225	0.0153136
641.303	0.0152980
641.381	0.0152157
641.459	0.0152514
641.538	0.0154037
641.616	0.0154828
641.694	0.0153146
641.772	0.0151782
641.850	0.0153284
641.928	0.0152807
642.006	0.0151417
642.084	0.0151051
642.163	0.0152425
642.241	0.0152554
642.319	0.0151844
642.397	0.0150513
642.475	0.0151985
642.553	0.0151379
642.631	0.0152161
642.709	0.0151399
642.788	0.0153628
642.866	0.0152855
642.944	0.0152676
643.022	0.0153607
643.100	0.0152872
643.178	0.0154230
643.256	0.0153436
643.334	0.0152960
643.413	0.0153195
643.491	0.0154001
643.569	0.0154370
643.647	0.0152520
643.725	0.0153743
643.803	0.0154207
643.881	0.0153127
643.959	0.0153156
644.038	0.0153883
644.116	0.0152841
644.194	0.0152774
644.272	0.0153255
644.350	0.0152706
644.428	0.0151430
644.506	0.0152724
644.584	0.0151974
644.663	0.0152184
644.741	0.0151365
644.819	0.0152289
644.897	0.0152319
644.975	0.0152013
645.053	0.0152180
645.131	0.0154309
645.209	0.0153055
645.288	0.0152256
645.366	0.0153083
645.444	0.0151180
645.522	0.0154478
645.600	0.0154514
645.678	0.0153429
645.756	0.0154412
645.834	0.0152891
645.913	0.0152119
645.991	0.0151111
646.069	0.0151957
646.147	0.0152549
646.225	0.0153242
646.303	0.0150600
646.381	0.0151750
646.459	0.0151875
646.538	0.0152045
646.616	0.0153293
646.694	0.0151639
646.772	0.0151381
646.850	0.0151632
646.928	0.0152734
647.006	0.0152389
647.084	0.0151614
647.163	0.0152303
647.241	0.0151855
647.319	0.0151339
647.397	0.0151219
647.475	0.0152138
647.553	0.0151377
647.631	0.0149979
647.709	0.0150553
647.788	0.0150623
647.866	0.0150806
647.944	0.0152066
648.022	0.0152283
648.100	0.0151244
648.178	0.0151641
648.256	0.0151278
648.334	0.0151363
648.413	0.0152374
648.491	0.0152967
648.569	0.0152624
648.647	0.0151260
648.725	0.0151433
648.803	0.0151222
648.881	0.0153608
648.959	0.0153346
649.038	0.0152171
649.116	0.0152831
649.194	0.0153919
649.272	0.0152837
649.350	0.0151797
649.428	0.0153758
649.506	0.0152292
649.584	0.0152833
649.663	0.0152908
649.741	0.0153112
649.819	0.0152195
649.897	0.0152029
649.975	0.0153072
650.053	0.0150992
650.131	0.0151008
650.209	0.0152552
650.288	0.0151337
650.366	0.0150663
650.444	0.0151601
650.522	0.0150985
650.600	0.0151603
650.678	0.0153474
650.756	0.0152599
650.834	0.0151336
650.913	0.0150930
650.991	0.0151738
651.069	0.0152732
651.147	0.0151707
651.225	0.0152724
651.303	0.0152444
651.381	0.0152429
651.459	0.0152695
651.538	0.0152088
651.616	0.0152914
651.694	0.0152323
651.772	0.0150742
651.850	0.0151753
651.928	0.0152479
652.006	0.0151460
652.084	0.0151210
652.163	0.0151360
652.241	0.0152203
652.319	0.0150393
652.397	0.0149697
652.475	0.0151826
652.553	0.0151839
652.631	0.0150680
652.709	0.0151406
652.788	0.0151488
652.866	0.0149874
652.944	0.0151143
653.022	0.0151196
653.100	0.0152037
653.178	0.0151975
653.256	0.0152626
653.334	0.0153926
653.413	0.0153240
653.491	0.0151904
653.569	0.0151508
653.647	0.0153078
653.725	0.0152010
653.803	0.0152516
653.881	0.0153844
653.959	0.0152757
654.038	0.0152432
654.116	0.0152396
654.194	0.0154021
654.272	0.0153638
654.350	0.0152826
654.428	0.0152470
654.506	0.0152730
654.584	0.0151915
654.663	0.0151755
654.741	0.0151585
654.819	0.0151241
654.897	0.0151350
654.975	0.0151496
655.053	0.0150199
655.131	0.0150742
655.209	0.0152231
655.288	0.0152469
655.366	0.0152986
655.444	0.0152169
655.522	0.0151698
655.600	0.0152991
655.678	0.0152818
655.756	0.0153106
655.834	0.0152045
655.913	0.0153722
655.991	0.0153902
656.069	0.0151363
656.147	0.0152261
656.225	0.0151859
656.303	0.0152166
656.381	0.0152108
656.459	0.0151436
656.538	0.0150974
656.616	0.0151916
656.694	0.0151790
656.772	0.0152275
656.850	0.0152074
656.928	0.0152197
657.006	0.0152497
657.084	0.0152709
657.163	0.0152076
657.241	0.0152120
657.319	0.0153109
657.397	0.0152423
657.475	0.0152163
657.553	0.0152390
657.631	0.0152586
657.709	0.0153745
657.788	0.0151804
657.866	0.0152959
657.944	0.0153011
658.022	0.0152023
658.100	0.0152252
658.178	0.0152589
658.256	0.0151737
658.334	0.0152162
658.413	0.0151779
658.491	0.0153548
658.569	0.0154661
658.647	0.0152113
658.725	0.0153381
658.803	0.0152258
658.881	0.0150852
658.959	0.0152479
659.038	0.0152037
659.116	0.0152598
659.194	0.0150662
659.272	0.0151389
659.350	0.0151730
659.428	0.0151205
659.506	0.0151923
659.584	0.0151677
659.663	0.0151981
659.741	0.0152203
659.819	0.0151810
659.897	0.0152302
659.975	0.0152084
660.053	0.0152983
660.131	0.0152824
660.209	0.0151802
660.288	0.0152607
660.366	0.0153687
660.444	0.0152448
660.522	0.0153104
660.600	0.0152964
660.678	0.0154090
660.756	0.0153469
660.834	0.0152114
660.913	0.0152934
660.991	0.0153162
661.069	0.0152715
661.147	0.0152985
661.225	0.0152960
661.303	0.0153798
661.381	0.0152421
661.459	0.0152071
661.538	0.0151881
661.616	0.0151207
661.694	0.0151116
661.772	0.0151323
661.850	0.0151824
661.928	0.0152071
662.006	0.0152069
662.084	0.0151762
662.163	0.0152372
662.241	0.0152408
662.319	0.0152983
662.397	0.0152540
662.475	0.0153281
662.553	0.0153526
662.631	0.0154016
662.709	0.0152434
662.788	0.0152855
662.866	0.0153546
662.944	0.0152731
663.022	0.0152164
663.100	0.0151388
663.178	0.0153073
663.256	0.0153692
663.334	0.0153430
663.413	0.0152430
663.491	0.0153598
663.569	0.0152121
663.647	0.0152101
663.725	0.0153534
663.803	0.0153236
663.881	0.0151830
663.959	0.0151960
664.038	0.0151931
664.116	0.0152518
664.194	0.0153364
664.272	0.0153790
664.350	0.0152316
664.428	0.0152710
664.506	0.0152525
664.584	0.0151506
664.663	0.0151177
664.741	0.0151746
664.819	0.0152860
664.897	0.0152666
664.975	0.0152304
665.053	0.0152988
665.131	0.0152713
665.209	0.0152500
665.288	0.0152019
665.366	0.0151783
665.444	0.0153419
665.522	0.0153001
665.600	0.0152570
665.678	0.0152446
665.756	0.0152937
665.834	0.0151591
665.913	0.0152083
665.991	0.0151954
666.069	0.0153779
666.147	0.0152115
666.225	0.0152888
666.303	0.0151822
666.381	0.0152413
666.459	0.0151437
666.538	0.0152982
666.616	0.0151067
666.694	0.0152449
666.772	0.0151562
666.850	0.0151923
666.928	0.0151367
667.006	0.0151279
667.084	0.0151289
667.163	0.0150912
667.241	0.0151205
667.319	0.0152411
667.397	0.0150387
667.475	0.0150899
667.553	0.0152271
667.631	0.0151767
667.709	0.0152132
667.788	0.0151987
667.866	0.0152092
667.944	0.0153607
668.022	0.0152422
668.100	0.0152436
668.178	0.0153941
668.256	0.0153399
668.334	0.0153065
668.413	0.0151257
668.491	0.0152797
668.569	0.0152249
668.647	0.0153055
668.725	0.0151933
668.803	0.0150981
668.881	0.0151610
668.959	0.0150979
669.038	0.0149543
669.116	0.0150750
669.194	0.0152655
669.272	0.0150441
669.350	0.0149692
669.428	0.0152317
669.506	0.0149697
669.584	0.0150439
669.663	0.0151692
669.741	0.0150370
669.819	0.0150134
669.897	0.0151205
669.975	0.0151330
670.053	0.0150500
670.131	0.0151379
670.209	0.0151946
670.288	0.0152227
670.366	0.0152990
670.444	0.0152877
670.522	0.0152651
670.600	0.0152350
670.678	0.0151439
670.756	0.0150878
670.834	0.0150536
670.913	0.0152116
670.991	0.0152518
671.069	0.0150811
671.147	0.0151326
671.225	0.0151856
671.303	0.0151668
671.381	0.0151347
671.459	0.0151364
671.538	0.0151133
671.616	0.0150411
671.694	0.0151272
671.772	0.0150928
671.850	0.0150769
671.928	0.0149652
672.006	0.0149871
672.084	0.0149689
672.163	0.0150661
672.241	0.0150631
672.319	0.0150809
672.397	0.0150334
672.475	0.0151212
672.553	0.0152339
672.631	0.0152484
672.709	0.0151968
672.788	0.0151661
672.866	0.0153149
672.944	0.0153318
673.022	0.0154256
673.100	0.0154937
673.178	0.0154355
673.256	0.0154359
673.334	0.0153349
673.413	0.0154591
673.491	0.0155490
673.569	0.0154189
673.647	0.0154551
673.725	0.0153778
673.803	0.0152436
673.881	0.0152962
673.959	0.0152350
674.038	0.0150227
674.116	0.0149864
674.194	0.0148363
674.272	0.0148059
674.350	0.0147751
674.428	0.0148974
674.506	0.0146951
674.584	0.0145631
674.663	0.0145644
674.741	0.0146320
674.819	0.0146481
674.897	0.0145497
674.975	0.0146825
675.053	0.0147192
675.131	0.0147610
675.209	0.0147529
675.288	0.0149974
675.366	0.0150674
675.444	0.0150037
675.522	0.0153404
675.600	0.0153577
675.678	0.0154395
675.756	0.0156367
675.834	0.0157372
675.913	0.0158694
675.991	0.0160607
676.069	0.0160585
676.147	0.0161407
676.225	0.0161113
676.303	0.0162471
676.381	0.0161702
676.459	0.0161148
676.538	0.0159445
676.616	0.0161106
676.694	0.0159418
676.772	0.0158760
676.850	0.0156231
676.928	0.0154159
677.006	0.0153634
677.084	0.0150984
677.163	0.0149432
677.241	0.0146825
677.319	0.0145441
677.397	0.0143256
677.475	0.0142822
677.553	0.0141859
677.631	0.0138918
677.709	0.0137215
677.788	0.0137144
677.866	0.0136182
677.944	0.0136155
678.022	0.0138522
678.100	0.0135989
678.178	0.0136880
678.256	0.0139398
678.334	0.0139688
678.413	0.0141434
678.491	0.0143747
678.569	0.0146872
678.647	0.0148363
678.725	0.0150867
678.803	0.0152341
678.881	0.0156814
678.959	0.0158383
679.038	0.0160341
679.116	0.0162833
679.194	0.0165154
679.272	0.0166737
679.350	0.0168135
679.428	0.0169498
679.506	0.0171818
679.584	0.0170945
679.663	0.0170054
679.741	0.0170757
679.819	0.0169022
679.897	0.0166502
679.975	0.0165421
680.053	0.0163502
680.131	0.0161300
680.209	0.0157264
680.288	0.0154409
680.366	0.0150738
680.444	0.0149309
680.522	0.0146363
680.600	0.0144572
680.678	0.0143475
680.756	0.0140269
680.834	0.0137261
680.913	0.0139339
680.991	0.0136975
681.069	0.0135938
681.147	0.0134268
681.225	0.0134291
681.303	0.0135484
681.381	0.0136472
681.459	0.0136832
681.538	0.0139339
681.616	0.0139481
681.694	0.0140041
681.772	0.0142937
681.850	0.0144445
681.928	0.0147668
682.006	0.0148515
682.084	0.0150939
682.163	0.0151452
682.241	0.0152037
682.319	0.0153484
682.397	0.0153821
682.475	0.0156442
682.553	0.0155892
682.631	0.0156792
682.709	0.0155064
682.788	0.0155866
682.866	0.0157520
682.944	0.0157217
683.022	0.0156219
683.100	0.0156495
683.178	0.0156178
683.256	0.0157210
683.334	0.0158751
683.413	0.0158432
683.491	0.0157952
683.569	0.0159225
683.647	0.0159106
683.725	0.0159746
683.803	0.0159909
683.881	0.0160741
683.959	0.0161273
684.038	0.0160714
684.116	0.0162406
684.194	0.0163592
684.272	0.0161032
684.350	0.0162093
684.428	0.0161761
684.506	0.0160303
684.584	0.0159881
684.663	0.0158260
684.741	0.0155951
684.819	0.0155410
684.897	0.0152600
684.975	0.0150533
685.053	0.0148114
685.131	0.0145176
685.209	0.0142413
685.288	0.0141909
685.366	0.0139390
685.444	0.0136994
685.522	0.0136599
685.600	0.0135161
685.678	0.0134178
685.756	0.0132694
685.834	0.0132336
685.913	0.0133189
685.991	0.0134296
686.069	0.0133762
686.147	0.0136156
686.225	0.0137478
686.303	0.0138121
686.381	0.0140820
686.459	0.0144316
686.538	0.0147002
686.616	0.0149315
686.694	0.0152182
686.772	0.0154602
686.850	0.0157824
686.928	0.0161443
687.006	0.0163939
687.084	0.0167441
687.163	0.0169848
687.241	0.0171375
687.319	0.0174814
687.397	0.0177497
687.475	0.0177425
687.553	0.0177409
687.631	0.0177958
687.709	0.0177019
687.788	0.0177673
687.866	0.0174797
687.944	0.0170864
688.022	0.0168259
688.100	0.0164867
688.178	0.0160787
688.256	0.0156107
688.334	0.0153245
688.413	0.0146439
688.491	0.0143566
688.569	0.0138730
688.647	0.0134195
688.725	0.0130218
688.803	0.0128314
688.881	0.0124403
688.959	0.0122013
689.038	0.0121863
689.116	0.0121696
689.194	0.0120215
689.272	0.0120425
689.350	0.0123334
689.428	0.0126157
689.506	0.0127227
689.584	0.0129211
689.663	0.0131339
689.741	0.0135153
689.819	0.0138966
689.897	0.0141601
689.975	0.0148215
690.053	0.0151504
690.131	0.0155207
690.209	0.0160806
690.288	0.0164296
690.366	0.0167454
690.444	0.0173091
690.522	0.0177471
690.600	0.0179306
690.678	0.0183488
690.756	0.0183990
690.834	0.0184895
690.913	0.0185660
690.991	0.0185406
691.069	0.0184180
691.147	0.0183273
691.225	0.0181896
691.303	0.0178789
691.381	0.0175023
691.459	0.0170511
691.538	0.0166479
691.616	0.0163039
691.694	0.0157306
691.772	0.0153865
691.850	0.0148567
691.928	0.0145296
692.006	0.0140656
692.084	0.0137843
692.163	0.0132671
692.241	0.0128819
692.319	0.0125840
692.397	0.0124386
692.475	0.0123870
692.553	0.0123862
692.631	0.0123026
692.709	0.0122638
692.788	0.0123634
692.866	0.0124693
692.944	0.0126649
693.022	0.0128695
693.100	0.0130189
693.178	0.0133355
693.256	0.0134974
693.334	0.0138087
693.413	0.0141253
693.491	0.0142380
693.569	0.0144793
693.647	0.0147680
693.725	0.0150002
693.803	0.0150816
693.881	0.0153434
693.959	0.0154652
694.038	0.0155304
694.116	0.0156620
694.194	0.0156841
694.272	0.0158605
694.350	0.0160508
694.428	0.0160313
694.506	0.0158538
694.584	0.0159936
694.663	0.0160215
694.741	0.0160447
694.819	0.0160694
694.897	0.0158906
694.975	0.0159779
695.053	0.0161986
695.131	0.0160336
695.209	0.0161711
695.288	0.0161887
695.366	0.0162811
695.444	0.0164077
695.522	0.0164352
695.600	0.0165143
695.678	0.0164507
695.756	0.0164460
695.834	0.0165291
695.913	0.0164449
695.991	0.0163609
696.069	0.0164431
696.147	0.0162765
696.225	0.0162154
696.303	0.0161432
696.381	0.0160258
696.459	0.0158721
696.538	0.0157549
696.616	0.0156836
696.694	0.0157257
696.772	0.0153455
696.850	0.0151490
696.928	0.0152109
697.006	0.0151055
697.084	0.0149132
697.163	0.0148921
697.241	0.0147923
697.319	0.0146902
697.397	0.0147184
697.475	0.0146848
697.553	0.0144488
697.631	0.0143089
697.709	0.0143108
697.788	0.0142909
697.866	0.0141674
697.944	0.0139528
698.022	0.0139147
698.100	0.0138265
698.178	0.0136318
698.256	0.0135783
698.334	0.0134133
698.413	0.0134997
698.491	0.0133468
698.569	0.0135677
698.647	0.0133479
698.725	0.0134219
698.803	0.0136021
698.881	0.0135753
698.959	0.0137309
699.038	0.0136800
699.116	0.0137122
699.194	0.0138236
699.272	0.0139338
699.350	0.0140850
699.428	0.0142510
699.506	0.0142619
699.584	0.0143940
699.663	0.0146027
699.741	0.0148701
699.819	0.0150397
699.897	0.0150584
699.975	0.0153738
700.053	0.0155011
700.131	0.0156297
700.209	0.0159433
700.288	0.0160915
700.366	0.0163917
700.444	0.0165468
700.522	0.0166004
700.600	0.0168539
700.678	0.0170971
700.756	0.0172785
700.834	0.0175517
700.913	0.0177116
700.991	0.0180634
701.069	0.0181855
701.147	0.0182184
701.225	0.0180675
701.303	0.0182397
701.381	0.0180115
701.459	0.0178954
701.538	0.0177200
701.616	0.0176103
701.694	0.0172996
701.772	0.0169721
701.850	0.0166440
701.928	0.0162261
702.006	0.0157851
702.084	0.0155264
702.163	0.0150838
702.241	0.0147102
702.319	0.0142294
702.397	0.0139849
702.475	0.0136337
702.553	0.0133433
702.631	0.0130987
702.709	0.0129391
702.788	0.0126286
702.866	0.0125420
702.944	0.0123913
703.022	0.0122659
703.100	0.0123054
703.178	0.0124770
703.256	0.0125316
703.334	0.0127803
703.413	0.0129004
703.491	0.0132052
703.569	0.0135365
703.647	0.0137189
703.725	0.0140292
703.803	0.0143385
703.881	0.0146198
703.959	0.0147136
704.038	0.0148529
704.116	0.0150918
704.194	0.0152351
704.272	0.0156291
704.350	0.0156267
704.428	0.0157264
704.506	0.0161285
704.584	0.0160329
704.663	0.0162428
704.741	0.0163683
704.819	0.0164124
704.897	0.0164896
704.975	0.0166161
705.053	0.0165035
705.131	0.0164577
705.209	0.0161168
705.288	0.0159637
705.366	0.0157799
705.444	0.0155666
705.522	0.0153790
705.600	0.0152567
705.678	0.0148692
705.756	0.0147130
705.834	0.0146353
705.913	0.0144189
705.991	0.0141912
706.069	0.0141838
706.147	0.0140173
706.225	0.0140553
706.303	0.0139874
706.381	0.0140890
706.459	0.0139790
706.538	0.0138919
706.616	0.0141513
706.694	0.0141854
706.772	0.0143508
706.850	0.0146796
706.928	0.0148486
707.006	0.0151315
707.084	0.0155204
707.163	0.0158422
707.241	0.0161700
707.319	0.0163622
707.397	0.0166133
707.475	0.0167726
707.553	0.0170865
707.631	0.0172384
707.709	0.0172559
707.788	0.0174070
707.866	0.0172988
707.944	0.0171524
708.022	0.0171175
708.100	0.0171430
708.178	0.0168804
708.256	0.0168978
708.334	0.0169093
708.413	0.0166174
708.491	0.0164666
708.569	0.0164588
708.647	0.0164631
708.725	0.0163410
708.803	0.0161720
708.881	0.0161464
708.959	0.0160310
709.038	0.0158174
709.116	0.0157370
709.194	0.0156666
709.272	0.0153925
709.350	0.0151770
709.428	0.0147916
709.506	0.0146484
709.584	0.0145248
709.663	0.0144436
709.741	0.0140984
709.819	0.0138555
709.897	0.0135165
709.975	0.0131893
710.053	0.0130240
710.131	0.0128426
710.209	0.0125990
710.288	0.0124907
710.366	0.0122623
710.444	0.0121442
710.522	0.0119861
710.600	0.0119804
710.678	0.0120692
710.756	0.0120342
710.834	0.0122297
710.913	0.0122437
710.991	0.0124921
711.069	0.0127484
711.147	0.0130014
711.225	0.0131651
711.303	0.0136617
711.381	0.0139918
711.459	0.0144109
711.538	0.0146285
711.616	0.0151311
711.694	0.0157396
711.772	0.0159508
711.850	0.0163491
711.928	0.0167964
712.006	0.0170787
712.084	0.0175580
712.163	0.0177149
712.241	0.0180318
712.319	0.0181359
712.397	0.0181684
712.475	0.0181552
712.553	0.0181505
712.631	0.0181290
712.709	0.0180730
712.788	0.0179265
712.866	0.0177664
712.944	0.0175279
713.022	0.0172569
713.100	0.0169498
713.178	0.0166741
713.256	0.0164240
713.334	0.0161783
713.413	0.0158678
713.491	0.0156553
713.569	0.0155648
713.647	0.0153695
713.725	0.0152754
713.803	0.0150854
713.881	0.0150423
713.959	0.0147751
714.038	0.0147220
714.116	0.0147303
714.194	0.0145392
714.272	0.0143754
714.350	0.0144169
714.428	0.0143140
714.506	0.0143395
714.584	0.0144975
714.663	0.0145890
714.741	0.0145590
714.819	0.0144418
714.897	0.0146864
714.975	0.0147130
715.053	0.0147275
715.131	0.0148794
715.209	0.0150218
715.288	0.0152061
715.366	0.0151080
715.444	0.0149756
715.522	0.0149350
715.600	0.0148674
715.678	0.0149113
715.756	0.0146828
715.834	0.0148241
715.913	0.0146951
715.991	0.0146297
716.069	0.0146647
716.147	0.0146533
716.225	0.0145496
716.303	0.0146135
716.381	0.0146599
716.459	0.0148273
716.538	0.0149284
716.616	0.0147881
716.694	0.0149274
716.772	0.0147712
716.850	0.0146471
716.928	0.0146954
717.006	0.0145387
717.084	0.0144236
717.163	0.0142525
717.241	0.0139941
717.319	0.0138268
717.397	0.0137152
717.475	0.0136136
717.553	0.0135815
717.631	0.0134574
717.709	0.0133981
717.788	0.0134336
717.866	0.0136136
717.944	0.0137291
718.022	0.0135931
718.100	0.0138503
718.178	0.0141183
718.256	0.0142352
718.334	0.0144783
718.413	0.0148349
718.491	0.0150236
718.569	0.0152855
718.647	0.0155815
718.725	0.0157792
718.803	0.0161491
718.881	0.0165088
718.959	0.0169501
719.038	0.0173101
719.116	0.0174879
719.194	0.0178592
719.272	0.0183637
719.350	0.0186533
719.428	0.0187015
719.506	0.0188343
719.584	0.0188416
719.663	0.0187551
719.741	0.0186407
719.819	0.0183926
719.897	0.0182690
719.975	0.0180063
720.053	0.0176834
720.131	0.0173814
720.209	0.0169859
720.288	0.0166602
720.366	0.0161295
720.444	0.0157271
720.522	0.0154405
720.600	0.0152903
720.678	0.0148748
720.756	0.0144324
720.834	0.0142634
720.913	0.0141367
720.991	0.0138506
721.069	0.0135789
721.147	0.0134232
721.225	0.0132425
721.303	0.0130307
721.381	0.0130657
721.459	0.0128085
721.538	0.0127334
721.616	0.0128433
721.694	0.0128021
721.772	0.0128395
721.850	0.0131160
721.928	0.0130667
722.006	0.0130383
722.084	0.0130708
722.163	0.0132629
722.241	0.0132852
722.319	0.0134132
722.397	0.0136042
722.475	0.0138583
722.553	0.0139918
722.631	0.0142368
722.709	0.0144689
722.788	0.0146985
722.866	0.0148002
722.944	0.0151958
723.022	0.0156731
723.100	0.0159714
723.178	0.0161245
723.256	0.0164546
723.334	0.0167419
723.413	0.0169514
723.491	0.0172308
723.569	0.0173657
723.647	0.0173318
723.725	0.0171922
723.803	0.0173413
723.881	0.0171779
723.959	0.0170541
724.038	0.0169003
724.116	0.0167806
724.194	0.0164109
724.272	0.0161596
724.350	0.0158723
724.428	0.0155996
724.506	0.0153972
724.584	0.0150860
724.663	0.0149480
724.741	0.0148846
724.819	0.0146883
724.897	0.0145979
724.975	0.0146071
725.053	0.0148488
725.131	0.0147182
725.209	0.0147042
725.288	0.0148846
725.366	0.0151067
725.444	0.0150500
725.522	0.0151752
725.600	0.0152728
725.678	0.0154354
725.756	0.0154620
725.834	0.0156110
725.913	0.0154002
725.991	0.0154019
726.069	0.0156351
726.147	0.0154553
726.225	0.0155762
726.303	0.0155981
726.381	0.0154886
726.459	0.0154979
726.538	0.0152279
726.616	0.0152958
726.694	0.0152246
726.772	0.0150603
726.850	0.0149102
726.928	0.0149953
727.006	0.0149237
727.084	0.0147963
727.163	0.0148538
727.241	0.0149811
727.319	0.0151266
727.397	0.0151881
727.475	0.0152667
727.553	0.0154736
727.631	0.0157151
727.709	0.0157599
727.788	0.0160682
727.866	0.0161533
727.944	0.0162094
728.022	0.0163964
728.100	0.0163362
728.178	0.0164713
728.256	0.0166460
728.334	0.0162827
728.413	0.0160986
728.491	0.0159607
728.569	0.0157700
728.647	0.0157525
728.725	0.0154218
728.803	0.0152268
728.881	0.0150866
728.959	0.0149349
729.038	0.0146149
729.116	0.0146210
729.194	0.0145361
729.272	0.0143982
729.350	0.0143655
729.428	0.0143085
729.506	0.0142960
729.584	0.0143178
729.663	0.0143534
729.741	0.0143602
729.819	0.0143542
729.897	0.0143707
729.975	0.0142078
730.053	0.0142455
730.131	0.0141328
730.209	0.0142099
730.288	0.0142514
730.366	0.0141079
730.444	0.0142092
730.522	0.0143932
730.600	0.0143089
730.678	0.0142945
730.756	0.0142900
730.834	0.0144795
730.913	0.0146507
730.991	0.0148476
731.069	0.0148182
731.147	0.0150647
731.225	0.0152071
731.303	0.0152960
731.381	0.0156312
731.459	0.0157793
731.538	0.0158888
731.616	0.0160281
731.694	0.0161926
731.772	0.0163030
731.850	0.0163552
731.928	0.0164355
732.006	0.0166653
732.084	0.0164548
732.163	0.0162914
732.241	0.0162495
732.319	0.0162237
732.397	0.0161658
732.475	0.0162007
732.553	0.0158935
732.631	0.0157552
732.709	0.0158300
732.788	0.0157869
732.866	0.0155928
732.944	0.0155180
733.022	0.0155606
733.100	0.0153816
733.178	0.0156020
733.256	0.0154946
733.334	0.0155563
733.413	0.0154627
733.491	0.0153781
733.569	0.0153803
733.647	0.0153417
733.725	0.0152161
733.803	0.0151965
733.881	0.0150299
733.959	0.0149212
734.038	0.0149208
734.116	0.0148502
734.194	0.0146587
734.272	0.0146221
734.350	0.0147261
734.428	0.0146087
734.506	0.0145401
734.584	0.0144267
734.663	0.0146079
734.741	0.0145235
734.819	0.0146859
734.897	0.0145567
734.975	0.0144384
735.053	0.0145982
735.131	0.0147062
735.209	0.0146629
735.288	0.0147657
735.366	0.0147826
735.444	0.0150008
735.522	0.0150690
735.600	0.0151598
735.678	0.0154092
735.756	0.0156025
735.834	0.0157731
735.913	0.0159381
735.991	0.0158362
736.069	0.0158328
736.147	0.0157701
736.225	0.0158224
736.303	0.0156972
736.381	0.0156865
736.459	0.0156059
736.538	0.0155361
736.616	0.0153861
736.694	0.0152402
736.772	0.0152000
736.850	0.0151605
736.928	0.0151095
737.006	0.0151079
737.084	0.0148459
737.163	0.0147675
737.241	0.0147038
737.319	0.0146371
737.397	0.0143880
737.475	0.0143159
737.553	0.0143805
737.631	0.0143824
737.709	0.0142467
737.788	0.0143974
737.866	0.0143312
737.944	0.0143616
738.022	0.0143020
738.100	0.0144941
738.178	0.0145903
738.256	0.0144720
738.334	0.0145102
738.413	0.0146384
738.491	0.0150023
738.569	0.0150272
738.647	0.0153145
738.725	0.0152544
738.803	0.0154819
738.881	0.0155790
738.959	0.0156612
739.038	0.0157698
739.116	0.0157719
739.194	0.0158994
739.272	0.0160117
739.350	0.0158340
739.428	0.0159600
739.506	0.0159722
739.584	0.0160088
739.663	0.0159858
739.741	0.0160760
739.819	0.0160014
739.897	0.0161293
739.975	0.0162070
740.053	0.0161710
740.131	0.0161653
740.209	0.0163470
740.288	0.0161656
740.366	0.0161402
740.444	0.0161253
740.522	0.0160152
740.600	0.0158472
740.678	0.0156905
740.756	0.0155170
740.834	0.0154010
740.913	0.0151452
740.991	0.0150171
741.069	0.0147127
741.147	0.0146812
741.225	0.0145937
741.303	0.0145073
741.381	0.0144368
741.459	0.0145484
741.538	0.0145170
741.616	0.0145290
741.694	0.0146009
741.772	0.0147824
741.850	0.0148088
741.928	0.0147650
742.006	0.0147832
742.084	0.0149219
742.163	0.0148257
742.241	0.0149686
742.319	0.0150227
742.397	0.0149340
742.475	0.0148583
742.553	0.0149368
742.631	0.0147976
742.709	0.0146742
742.788	0.0147726
742.866	0.0147112
742.944	0.0145441
743.022	0.0145183
743.100	0.0146900
743.178	0.0147169
743.256	0.0146090
743.334	0.0147205
743.413	0.0146827
743.491	0.0147384
743.569	0.0148798
743.647	0.0150134
743.725	0.0150217
743.803	0.0152402
743.881	0.0151819
743.959	0.0154659
744.038	0.0155424
744.116	0.0156009
744.194	0.0158293
744.272	0.0159030
744.350	0.0158704
744.428	0.0160628
744.506	0.0161559
744.584	0.0160353
744.663	0.0161789
744.741	0.0160401
744.819	0.0159892
744.897	0.0158305
744.975	0.0158652
745.053	0.0155949
745.131	0.0156161
745.209	0.0152991
745.288	0.0153529
745.366	0.0153384
745.444	0.0151371
745.522	0.0151115
745.600	0.0149461
745.678	0.0149944
745.756	0.0149672
745.834	0.0151231
745.913	0.0151476
745.991	0.0152217
746.069	0.0151770
746.147	0.0152585
746.225	0.0154902
746.303	0.0155081
746.381	0.0155356
746.459	0.0155766
746.538	0.0156427
746.616	0.0157455
746.694	0.0157659
746.772	0.0155481
746.850	0.0154714
746.928	0.0155075
747.006	0.0154528
747.084	0.0154341
747.163	0.0154907
747.241	0.0153582
747.319	0.0153442
747.397	0.0154761
747.475	0.0153632
747.553	0.0154121
747.631	0.0153529
747.709	0.0152078
747.788	0.0151318
747.866	0.0152989
747.944	0.0149522
748.022	0.0147902
748.100	0.0149194
748.178	0.0150019
748.256	0.0146880
748.334	0.0147238
748.413	0.0148401
748.491	0.0147724
748.569	0.0148885
748.647	0.0149832
748.725	0.0148849
748.803	0.0150274
748.881	0.0149435
748.959	0.0149773
749.038	0.0150877
749.116	0.0150426
749.194	0.0150972
749.272	0.0149368
749.350	0.0150319
749.428	0.0150636
749.506	0.0150732
749.584	0.0148310
749.663	0.0147533
749.741	0.0149100
749.819	0.0149654
749.897	0.0150646
749.975	0.0149407
750.053	0.0150336
750.131	0.0151179
750.209	0.0150322
750.288	0.0151203
750.366	0.0149085
750.444	0.0149468
750.522	0.0149730
750.600	0.0149532
750.678	0.0149960
750.756	0.0148129
750.834	0.0148095
750.913	0.0148093
750.991	0.0146807
751.069	0.0147620
751.147	0.0147299
751.225	0.0148374
751.303	0.0147926
751.381	0.0149861
751.459	0.0151939
751.538	0.0153266
751.616	0.0153166
751.694	0.0156742
751.772	0.0158358
751.850	0.0158728
751.928	0.0160673
752.006	0.0160886
752.084	0.0162011
752.163	0.0163185
752.241	0.0162079
752.319	0.0161996
752.397	0.0162408
752.475	0.0162642
752.553	0.0161414
752.631	0.0162466
752.709	0.0157990
752.788	0.0156805
752.866	0.0157529
752.944	0.0157216
753.022	0.0155959
753.100	0.0152757
753.178	0.0153004
753.256	0.0153438
753.334	0.0152762
753.413	0.0151247
753.491	0.0149243
753.569	0.0150435
753.647	0.0148890
753.725	0.0148467
753.803	0.0148106
753.881	0.0149435
753.959	0.0148521
754.038	0.0148160
754.116	0.0147447
754.194	0.0146917
754.272	0.0146994
754.350	0.0147148
754.428	0.0147462
754.506	0.0147332
754.584	0.0147788
754.663	0.0147819
754.741	0.0147626
754.819	0.0148228
754.897	0.0146906
754.975	0.0146135
755.053	0.0146429
755.131	0.0145313
755.209	0.0146355
755.288	0.0145834
755.366	0.0144394
755.444	0.0145782
755.522	0.0145490
755.600	0.0146777
755.678	0.0145868
755.756	0.0146203
755.834	0.0146129
755.913	0.0148174
755.991	0.0150416
756.069	0.0147866
756.147	0.0148129
756.225	0.0150694
756.303	0.0151259
756.381	0.0152459
756.459	0.0152077
756.538	0.0153894
756.616	0.0154671
756.694	0.0154960
756.772	0.0155990
756.850	0.0155112
756.928	0.0157280
757.006	0.0156564
757.084	0.0157676
757.163	0.0156519
757.241	0.0156378
757.319	0.0154836
757.397	0.0154994
757.475	0.0154781
757.553	0.0152892
757.631	0.0151602
757.709	0.0152350
757.788	0.0151234
757.866	0.0149342
757.944	0.0148177
758.022	0.0148847
758.100	0.0151129
758.178	0.0149107
758.256	0.0150719
758.334	0.0150217
758.413	0.0149955
758.491	0.0151915
758.569	0.0152875
758.647	0.0154964
758.725	0.0155279
758.803	0.0155791
758.881	0.0155407
758.959	0.0154754
759.038	0.0154314
759.116	0.0154469
759.194	0.0153655
759.272	0.0154566
759.350	0.0150697
759.428	0.0151726
759.506	0.0150734
759.584	0.0149326
759.663	0.0148372
759.741	0.0146326
759.819	0.0146980
759.897	0.0146466
759.975	0.0145576
760.053	0.0146722
760.131	0.0145358
760.209	0.0146676
760.288	0.0146556
760.366	0.0147060
760.444	0.0148384
760.522	0.0148554
760.600	0.0149149
760.678	0.0152940
760.756	0.0153207
760.834	0.0152454
760.913	0.0155419
760.991	0.0157203
761.069	0.0157139
761.147	0.0156163
761.225	0.0158569
761.303	0.0156017
761.381	0.0156409
761.459	0.0156959
761.538	0.0156429
761.616	0.0155478
761.694	0.0155246
761.772	0.0154774
761.850	0.0156066
761.928	0.0154073
762.006	0.0154035
762.084	0.0153007
762.163	0.0153667
762.241	0.0153494
762.319	0.0153055
762.397	0.0152959
762.475	0.0151626
762.553	0.0152455
762.631	0.0153236
762.709	0.0150967
762.788	0.0151443
762.866	0.0151452
762.944	0.0151629
763.022	0.0151827
763.100	0.0149411
763.178	0.0149180
763.256	0.0151914
763.334	0.0152488
763.413	0.0151096
763.491	0.0151403
763.569	0.0151405
763.647	0.0149834
763.725	0.0150401
763.803	0.0151938
763.881	0.0152197
763.959	0.0150198
764.038	0.0150357
764.116	0.0148640
764.194	0.0147435
764.272	0.0150758
764.350	0.0149495
764.428	0.0149872
764.506	0.0148905
764.584	0.0150802
764.663	0.0151585
764.741	0.0151760
764.819	0.0151224
764.897	0.0153670
764.975	0.0154378
765.053	0.0154813
765.131	0.0155429
765.209	0.0156486
765.288	0.0156087
765.366	0.0156334
765.444	0.0155773
765.522	0.0157861
765.600	0.0155756
765.678	0.0154431
765.756	0.0153471
765.834	0.0153140
765.913	0.0153237
765.991	0.0150046
766.069	0.0149122
766.147	0.0148730
766.225	0.0149734
766.303	0.0150185
766.381	0.0149520
766.459	0.0150536
766.538	0.0150933
766.616	0.0151878
766.694	0.0152972
766.772	0.0154007
766.850	0.0153259
766.928	0.0153430
767.006	0.0155332
767.084	0.0155695
767.163	0.0156211
767.241	0.0156376
767.319	0.0156797
767.397	0.0156757
767.475	0.0156214
767.553	0.0155183
767.631	0.0155151
767.709	0.0154702
767.788	0.0152736
767.866	0.0152106
767.944	0.0150861
768.022	0.0149228
768.100	0.0148368
768.178	0.0148314
768.256	0.0147907
768.334	0.0146350
768.413	0.0145945
768.491	0.0147647
768.569	0.0148707
768.647	0.0147853
768.725	0.0149022
768.803	0.0148945
768.881	0.0149184
768.959	0.0151770
769.038	0.0152383
769.116	0.0153925
769.194	0.0154690
769.272	0.0155215
769.350	0.0155801
769.428	0.0156454
769.506	0.0155487
769.584	0.0156638
769.663	0.0157206
769.741	0.0156616
769.819	0.0157091
769.897	0.0155218
769.975	0.0153430
770.053	0.0152744
770.131	0.0151382
770.209	0.0152490
770.288	0.0150230
770.366	0.0150113
770.444	0.0148951
770.522	0.0148966
770.600	0.0147735
770.678	0.0147838
770.756	0.0148267
770.834	0.0148750
770.913	0.0148484
770.991	0.0148931
771.069	0.0148656
771.147	0.0149237
771.225	0.0150564
771.303	0.0150439
771.381	0.0151647
771.459	0.0152188
771.538	0.0152527
771.616	0.0152317
771.694	0.0151750
771.772	0.0151799
771.850	0.0151145
771.928	0.0150774
772.006	0.0151402
772.084	0.0150900
772.163	0.0150726
772.241	0.0150578
772.319	0.0150137
772.397	0.0148776
772.475	0.0149089
772.553	0.0148132
772.631	0.0149895
772.709	0.0151038
772.788	0.0151014
772.866	0.0152023
772.944	0.0152044
773.022	0.0152464
773.100	0.0153135
773.178	0.0153840
773.256	0.0154659
773.334	0.0153640
773.413	0.0154692
773.491	0.0154585
773.569	0.0154320
773.647	0.0154504
773.725	0.0153812
773.803	0.0154395
773.881	0.0153273
773.959	0.0151186
774.038	0.0151659
774.116	0.0151273
774.194	0.0147753
774.272	0.0149233
774.350	0.0148966
774.428	0.0149632
774.506	0.0151530
774.584	0.0150900
774.663	0.0150272
774.741	0.0149037
774.819	0.0152631
774.897	0.0151674
774.975	0.0151713
775.053	0.0151411
775.131	0.0152266
775.209	0.0152811
775.288	0.0152939
775.366	0.0152113
775.444	0.0152372
775.522	0.0152381
775.600	0.0151796
775.678	0.0153416
775.756	0.0152345
775.834	0.0152057
775.913	0.0151958
775.991	0.0151586
776.069	0.0152551
776.147	0.0152406
776.225	0.0150043
776.303	0.0151345
776.381	0.0148835
776.459	0.0149741
776.538	0.0149477
776.616	0.0148964
776.694	0.0147087
776.772	0.0147237
776.850	0.0147372
776.928	0.0147147
777.006	0.0148130
777.084	0.0146185
777.163	0.0147961
777.241	0.0148523
777.319	0.0150452
777.397	0.0150741
777.475	0.0151307
777.553	0.0150823
777.631	0.0151097
777.709	0.0151826
777.788	0.0152429
777.866	0.0153660
777.944	0.0152921
778.022	0.0153535
778.100	0.0154091
778.178	0.0152293
778.256	0.0152514
778.334	0.0152510
778.413	0.0151131
778.491	0.0150751
778.569	0.0151762
778.647	0.0150819
778.725	0.0149638
778.803	0.0148880
778.881	0.0146329
778.959	0.0147401
779.038	0.0146803
779.116	0.0148035
779.194	0.0147018
779.272	0.0147869
779.350	0.0150011
779.428	0.0149155
779.506	0.0150538
779.584	0.0151401
779.663	0.0151477
779.741	0.0152280
779.819	0.0153249
779.897	0.0153133
779.975	0.0153691
780.053	0.0153644
780.131	0.0152485
780.209	0.0152995
780.288	0.0153196
780.366	0.0153237
780.444	0.0151503
780.522	0.0152770
780.600	0.0150460
780.678	0.0150661
780.756	0.0151489
780.834	0.0150285
780.913	0.0150990
780.991	0.0151377
781.069	0.0151878
781.147	0.0152679
781.225	0.0152286
781.303	0.0152743
781.381	0.0154043
781.459	0.0154312
781.538	0.0154777
781.616	0.0155633
781.694	0.0154073
781.772	0.0154095
781.850	0.0154382
781.928	0.0152979
782.006	0.0152556
782.084	0.0152833
782.163	0.0151886
782.241	0.0150068
782.319	0.0151591
782.397	0.0150845
782.475	0.0149330
782.553	0.0150559
782.631	0.0149751
782.709	0.0149375
782.788	0.0148810
782.866	0.0149294
782.944	0.0151471
783.022	0.0149779
783.100	0.0148567
783.178	0.0150652
783.256	0.0149404
783.334	0.0150134
783.413	0.0150073
783.491	0.0149912
783.569	0.0149451
783.647	0.0149268
783.725	0.0149348
783.803	0.0149344
783.881	0.0151148
783.959	0.0150984
784.038	0.0151463
784.116	0.0152781
784.194	0.0153394
784.272	0.0154958
784.350	0.0156969
784.428	0.0156009
784.506	0.0157478
784.584	0.0159383
784.663	0.0157457
784.741	0.0157287
784.819	0.0158002
784.897	0.0158225
784.975	0.0156762
785.053	0.0157105
785.131	0.0156066
785.209	0.0155980
785.288	0.0155482
785.366	0.0153776
785.444	0.0153833
785.522	0.0150887
785.600	0.0151073
785.678	0.0150695
785.756	0.0149646
785.834	0.0149538
785.913	0.0147353
785.991	0.0146662
786.069	0.0147458
786.147	0.0146976
786.225	0.0147444
786.303	0.0148060
786.381	0.0146651
786.459	0.0147570
786.538	0.0146802
786.616	0.0149057
786.694	0.0148530
786.772	0.0150835
786.850	0.0150995
786.928	0.0153368
787.006	0.0155099
787.084	0.0155392
787.163	0.0156030
787.241	0.0156987
787.319	0.0157394
787.397	0.0159335
787.475	0.0160133
787.553	0.0158955
787.631	0.0160247
787.709	0.0160028
787.788	0.0158963
787.866	0.0158891
787.944	0.0156343
788.022	0.0157336
788.100	0.0157131
788.178	0.0155946
788.256	0.0153875
788.334	0.0153180
788.413	0.0151894
788.491	0.0151694
788.569	0.0150345
788.647	0.0150456
788.725	0.0150255
788.803	0.0149582
788.881	0.0148125
788.959	0.0147141
789.038	0.0145573
789.116	0.0146880
789.194	0.0145950
789.272	0.0146104
789.350	0.0146623
789.428	0.0148276
789.506	0.0149691
789.584	0.0149239
789.663	0.0149033
789.741	0.0150444
789.819	0.0152184
789.897	0.0153973
789.975	0.0152793
790.053	0.0153841
790.131	0.0155245
790.209	0.0155213
790.288	0.0155642
790.366	0.0155930
790.444	0.0154192
790.522	0.0155032
790.600	0.0152635
790.678	0.0153155
790.756	0.0151905
790.834	0.0149657
790.913	0.0149729
790.991	0.0149626
791.069	0.0148907
791.147	0.0148448
791.225	0.0149402
791.303	0.0149960
791.381	0.0150047
791.459	0.0150624
791.538	0.0151649
791.616	0.0151278
791.694	0.0151985
791.772	0.0154285
791.850	0.0153353
791.928	0.0153487
792.006	0.0153545
792.084	0.0154487
792.163	0.0155463
792.241	0.0153454
792.319	0.0154357
792.397	0.0154697
792.475	0.0155086
792.553	0.0153941
792.631	0.0154051
792.709	0.0152191
792.788	0.0153777
792.866	0.0152695
792.944	0.0154149
793.022	0.0153880
793.100	0.0153506
793.178	0.0155097
793.256	0.0154078
793.334	0.0153963
793.413	0.0153706
793.491	0.0152991
793.569	0.0154716
793.647	0.0152306
793.725	0.0152189
793.803	0.0153845
793.881	0.0152187
793.959	0.0152417
794.038	0.0150282
794.116	0.0152773
794.194	0.0154208
794.272	0.0150947
794.350	0.0151742
794.428	0.0151295
794.506	0.0149496
794.584	0.0150206
794.663	0.0151141
794.741	0.0149906
794.819	0.0149576
794.897	0.0148990
794.975	0.0150588
795.053	0.0150220
795.131	0.0149387
795.209	0.0148736
795.288	0.0148813
795.366	0.0148652
795.444	0.0149985
795.522	0.0149931
795.600	0.0149049
795.678	0.0148415
795.756	0.0149608
795.834	0.0150003
795.913	0.0149056
795.991	0.0151451
796.069	0.0151584
796.147	0.0151254
796.225	0.0150960
796.303	0.0152052
796.381	0.0151604
796.459	0.0150918
796.538	0.0152553
796.616	0.0150629
796.694	0.0152100
796.772	0.0151749
796.850	0.0153037
796.928	0.0154551
797.006	0.0153673
797.084	0.0153544
797.163	0.0154221
797.241	0.0154259
797.319	0.0156855
797.397	0.0156518
797.475	0.0157893
797.553	0.0157344
797.631	0.0157134
797.709	0.0157784
797.788	0.0157883
797.866	0.0157925
797.944	0.0156257
798.022	0.0156332
798.100	0.0156400
798.178	0.0154553
798.256	0.0154050
798.334	0.0152640
798.413	0.0152291
798.491	0.0152079
798.569	0.0151185
798.647	0.0150389
798.725	0.0148706
798.803	0.0149583
798.881	0.0148694
798.959	0.0148908
799.038	0.0148737
799.116	0.0147811
799.194	0.0148579
799.272	0.0148132
799.350	0.0147150
799.428	0.0147823
799.506	0.0147270
799.584	0.0146423
799.663	0.0147808
799.741	0.0147889
799.819	0.0148381
799.897	0.0147791
799.975	0.0148389
800.053	0.0148035
800.131	0.0149017
800.209	0.0150106
800.288	0.0150456
800.366	0.0150824
800.444	0.0151112
800.522	0.0151177
800.600	0.0153103
800.678	0.0153356
800.756	0.0151011
800.834	0.0152074
800.913	0.0153113
800.991	0.0152800
801.069	0.0152915
801.147	0.0152677
801.225	0.0151851
801.303	0.0151180
801.381	0.0151198
801.459	0.0150603
801.538	0.0150850
801.616	0.0150162
801.694	0.0151490
801.772	0.0151653
801.850	0.0151707
801.928	0.0152539
802.006	0.0151093
802.084	0.0151175
802.163	0.0153110
802.241	0.0153490
802.319	0.0154540
802.397	0.0152918
802.475	0.0152892
802.553	0.0154213
802.631	0.0154017
802.709	0.0153918
802.788	0.0154341
802.866	0.0153043
802.944	0.0154496
803.022	0.0152602
803.100	0.0153525
803.178	0.0152426
803.256	0.0153513
803.334	0.0152591
803.413	0.0152132
803.491	0.0153309
803.569	0.0151141
803.647	0.0151560
803.725	0.0151622
803.803	0.0151199
803.881	0.0150944
803.959	0.0149892
804.038	0.0151392
804.116	0.0152091
804.194	0.0151852
804.272	0.0152522
804.350	0.0153016
804.428	0.0154705
804.506	0.0153764
804.584	0.0155381
804.663	0.0155525
804.741	0.0157041
804.819	0.0157113
804.897	0.0156895
804.975	0.0156400
805.053	0.0158047
805.131	0.0155940
805.209	0.0157208
805.288	0.0154721
805.366	0.0154697
805.444	0.0155043
805.522	0.0153110
805.600	0.0151827
805.678	0.0149451
805.756	0.0150333
805.834	0.0148415
805.913	0.0146865
805.991	0.0147495
806.069	0.0145727
806.147	0.0146638
806.225	0.0147515
806.303	0.0146789
806.381	0.0144040
806.459	0.0145559
806.538	0.0146511
806.616	0.0146096
806.694	0.0147040
806.772	0.0146615
806.850	0.0146117
806.928	0.0145399
807.006	0.0147085
807.084	0.0146671
807.163	0.0146002
807.241	0.0145739
807.319	0.0147166
807.397	0.0147720
807.475	0.0148626
807.553	0.0147740
807.631	0.0148930
807.709	0.0149602
807.788	0.0150536
807.866	0.0150983
807.944	0.0151358
808.022	0.0153555
808.100	0.0154743
808.178	0.0153229
808.256	0.0154818
808.334	0.0155068
808.413	0.0155769
808.491	0.0155167
808.569	0.0156937
808.647	0.0157021
808.725	0.0156683
808.803	0.0155403
808.881	0.0155482
808.959	0.0154786
809.038	0.0155640
809.116	0.0156282
809.194	0.0157202
809.272	0.0155809
809.350	0.0155226
809.428	0.0154230
809.506	0.0156528
809.584	0.0157401
809.663	0.0155446
809.741	0.0154758
809.819	0.0155310
809.897	0.0155201
809.975	0.0155155
810.053	0.0153728
810.131	0.0153182
810.209	0.0152803
810.288	0.0152801
810.366	0.0150944
810.444	0.0151308
810.522	0.0151814
810.600	0.0150717
810.678	0.0151482
810.756	0.0149596
810.834	0.0149418
810.913	0.0149283
810.991	0.0149361
811.069	0.0150565
811.147	0.0149657
811.225	0.0150025
811.303	0.0149421
811.381	0.0150294
811.459	0.0150924
811.538	0.0149950
811.616	0.0149088
811.694	0.0151024
811.772	0.0150977
811.850	0.0151898
811.928	0.0151122
812.006	0.0150642
812.084	0.0150095
812.163	0.0150220
812.241	0.0151059
812.319	0.0151433
812.397	0.0149566
812.475	0.0150246
812.553	0.0149634
812.631	0.0150465
812.709	0.0150797
812.788	0.0150646
812.866	0.0149640
812.944	0.0149790
813.022	0.0150234
813.100	0.0150636
813.178	0.0150552
813.256	0.0151289
813.334	0.0151526
813.413	0.0150517
813.491	0.0150763
813.569	0.0151958
813.647	0.0152312
813.725	0.0151234
813.803	0.0152072
813.881	0.0152636
813.959	0.0152959
814.038	0.0151370
814.116	0.0150953
814.194	0.0151805
814.272	0.0152348
814.350	0.0149892
814.428	0.0151949
814.506	0.0151597
814.584	0.0152573
814.663	0.0151368
814.741	0.0151000
814.819	0.0151963
814.897	0.0151672
814.975	0.0153330
815.053	0.0152659
815.131	0.0152663
815.209	0.0153266
815.288	0.0153073
815.366	0.0154176
815.444	0.0152082
815.522	0.0153901
815.600	0.0154469
815.678	0.0153916
815.756	0.0153154
815.834	0.0155529
815.913	0.0154933
815.991	0.0155119
816.069	0.0154247
816.147	0.0153416
816.225	0.0153948
816.303	0.0154055
816.381	0.0155379
816.459	0.0154559
816.538	0.0155305
816.616	0.0156759
816.694	0.0155170
816.772	0.0156059
816.850	0.0155835
816.928	0.0156400
817.006	0.0155738
817.084	0.0155971
817.163	0.0155239
817.241	0.0153822
817.319	0.0153735
817.397	0.0153035
817.475	0.0153042
817.553	0.0153073
817.631	0.0151228
817.709	0.0148853
817.788	0.0150336
817.866	0.0151022
817.944	0.0150174
818.022	0.0147974
818.100	0.0147784
818.178	0.0149223
818.256	0.0148271
818.334	0.0148492
818.413	0.0148495
818.491	0.0151163
818.569	0.0149284
818.647	0.0149194
818.725	0.0149940
818.803	0.0150365
818.881	0.0150542
818.959	0.0151447
819.038	0.0150684
819.116	0.0150755
819.194	0.0149252
819.272	0.0151620
819.350	0.0151092
819.428	0.0151547
819.506	0.0151977
819.584	0.0151369
819.663	0.0152786
819.741	0.0153179
819.819	0.0153361
819.897	0.0152895
819.975	0.0153527
820.053	0.0155554
820.131	0.0155618
820.209	0.0155678
820.288	0.0155055
820.366	0.0156609
820.444	0.0155341
820.522	0.0155762
820.600	0.0155502
820.678	0.0155424
820.756	0.0155114
820.834	0.0155280
820.913	0.0154279
820.991	0.0153703
821.069	0.0154620
821.147	0.0154714
821.225	0.0153957
821.303	0.0153298
821.381	0.0153767
821.459	0.0154410
821.538	0.0153587
821.616	0.0153449
821.694	0.0153271
821.772	0.0151876
821.850	0.0152239
821.928	0.0151452
822.006	0.0151376
822.084	0.0152042
822.163	0.0152049
822.241	0.0153077
822.319	0.0153456
822.397	0.0151689
822.475	0.0152646
822.553	0.0154071
822.631	0.0153201
822.709	0.0153443
822.788	0.0151883
822.866	0.0153143
822.944	0.0152097
823.022	0.0152526
823.100	0.0152434
823.178	0.0152386
823.256	0.0151395
823.334	0.0150245
823.413	0.0151173
823.491	0.0149795
823.569	0.0149719
823.647	0.0149580
823.725	0.0148829
823.803	0.0148352
823.881	0.0149625
823.959	0.0151411
824.038	0.0151104
824.116	0.0151106
824.194	0.0150900
824.272	0.0150976
824.350	0.0151771
824.428	0.0150925
824.506	0.0151759
824.584	0.0152810
824.663	0.0151807
824.741	0.0153300
824.819	0.0153680
824.897	0.0153656
824.975	0.0154961
825.053	0.0154481
825.131	0.0153833
825.209	0.0154285
825.288	0.0154325
825.366	0.0153838
825.444	0.0154428
825.522	0.0154495
825.600	0.0153690
825.678	0.0154335
825.756	0.0151905
825.834	0.0153052
825.913	0.0152258
825.991	0.0151847
826.069	0.0153486
826.147	0.0154186
826.225	0.0152540
826.303	0.0151759
826.381	0.0152840
826.459	0.0152866
826.538	0.0153640
826.616	0.0152660
826.694	0.0151876
826.772	0.0152837
826.850	0.0152981
826.928	0.0150846
827.006	0.0152333
827.084	0.0152140
827.163	0.0153551
827.241	0.0153232
827.319	0.0152363
827.397	0.0153207
827.475	0.0153425
827.553	0.0154313
827.631	0.0153704
827.709	0.0152022
827.788	0.0152520
827.866	0.0152154
827.944	0.0152367
828.022	0.0152306
828.100	0.0151868
828.178	0.0151896
828.256	0.0151399
828.334	0.0151981
828.413	0.0152390
828.491	0.0152354
828.569	0.0152422
828.647	0.0152572
828.725	0.0152831
828.803	0.0153484
828.881	0.0153372
828.959	0.0152244
829.038	0.0153310
829.116	0.0153509
829.194	0.0153553
829.272	0.0152268
829.350	0.0152619
829.428	0.0151527
829.506	0.0152380
829.584	0.0151969
829.663	0.0150153
829.741	0.0151181
829.819	0.0150150
829.897	0.0150145
829.975	0.0150560
830.053	0.0150352
830.131	0.0149210
830.209	0.0150870
830.288	0.0149673
830.366	0.0149601
830.444	0.0150028
830.522	0.0149389
830.600	0.0150080
830.678	0.0150332
830.756	0.0150330
830.834	0.0149738
830.913	0.0149500
830.991	0.0150591
831.069	0.0149986
831.147	0.0149364
831.225	0.0149682
831.303	0.0150661
831.381	0.0151310
831.459	0.0151243
831.538	0.0152205
831.616	0.0150851
831.694	0.0151337
831.772	0.0151729
831.850	0.0152315
831.928	0.0153510
832.006	0.0153246
832.084	0.0154698
832.163	0.0153536
832.241	0.0153170
832.319	0.0151133
832.397	0.0152636
832.475	0.0152995
832.553	0.0150819
832.631	0.0149365
832.709	0.0152051
832.788	0.0149382
832.866	0.0150613
832.944	0.0149897
833.022	0.0149796
833.100	0.0151823
833.178	0.0149681
833.256	0.0149106
833.334	0.0149059
833.413	0.0149257
833.491	0.0149292
833.569	0.0149750
833.647	0.0150691
833.725	0.0151210
833.803	0.0150075
833.881	0.0150015
833.959	0.0150261
834.038	0.0150806
834.116	0.0150092
834.194	0.0151286
834.272	0.0151904
834.350	0.0151178
834.428	0.0151614
834.506	0.0151988
834.584	0.0152180
834.663	0.0150751
834.741	0.0152919
834.819	0.0152138
834.897	0.0151520
834.975	0.0152750
835.053	0.0150983
835.131	0.0151084
835.209	0.0150811
835.288	0.0151479
835.366	0.0152391
835.444	0.0149959
835.522	0.0151260
835.600	0.0150086
835.678	0.0150716
835.756	0.0151160
835.834	0.0150817
835.913	0.0151196
835.991	0.0150006
836.069	0.0150491
836.147	0.0151212
836.225	0.0151162
836.303	0.0150790
836.381	0.0153122
836.459	0.0151832
836.538	0.0150384
836.616	0.0151313
836.694	0.0151682
836.772	0.0151690
836.850	0.0151708
836.928	0.0152181
837.006	0.0150618
837.084	0.0150726
837.163	0.0151525
837.241	0.0150181
837.319	0.0149895
837.397	0.0149583
837.475	0.0148713
837.553	0.0149755
837.631	0.0149464
837.709	0.0149081
837.788	0.0149257
837.866	0.0150913
837.944	0.0149751
838.022	0.0149852
838.100	0.0152020
838.178	0.0152325
838.256	0.0151177
838.334	0.0152750
838.413	0.0150774
838.491	0.0152335
838.569	0.0152592
838.647	0.0151918
838.725	0.0151193
838.803	0.0151804
838.881	0.0151068
838.959	0.0151757
839.038	0.0152576
839.116	0.0152390
839.194	0.0152444
839.272	0.0152852
839.350	0.0151923
839.428	0.0152094
839.506	0.0153523
839.584	0.0153825
839.663	0.0151312
839.741	0.0151815
839.819	0.0151331
839.897	0.0150800
839.975	0.0152530
840.053	0.0151360
840.131	0.0152784
840.209	0.0153001
840.288	0.0151676
840.366	0.0150017
840.444	0.0150590
840.522	0.0151727
840.600	0.0152241
840.678	0.0151684
840.756	0.0151981
840.834	0.0152996
840.913	0.0153450
840.991	0.0151730
841.069	0.0151701
841.147	0.0151598
841.225	0.0151981
841.303	0.0151807
841.381	0.0152727
841.459	0.0152695
841.538	0.0152521
841.616	0.0152428
841.694	0.0152991
841.772	0.0151792
841.850	0.0153151
841.928	0.0153484
842.006	0.0152666
842.084	0.0151624
842.163	0.0152202
842.241	0.0152462
842.319	0.0153656
842.397	0.0152261
842.475	0.0151612
842.553	0.0153849
842.631	0.0153648
842.709	0.0152805
842.788	0.0152158
842.866	0.0152060
842.944	0.0152509
843.022	0.0151927
843.100	0.0153248
843.178	0.0151944
843.256	0.0152994
843.334	0.0153111
843.413	0.0152444
843.491	0.0152243
843.569	0.0152842
843.647	0.0151968
843.725	0.0151745
843.803	0.0150459
843.881	0.0150847
843.959	0.0149463
844.038	0.0151656
844.116	0.0152267
844.194	0.0150422
844.272	0.0150566
844.350	0.0151138
844.428	0.0152864
844.506	0.0152162
844.584	0.0152455
844.663	0.0151774
844.741	0.0152231
844.819	0.0153017
844.897	0.0152874
844.975	0.0152307
845.053	0.0151857
845.131	0.0153584
845.209	0.0152615
845.288	0.0152188
845.366	0.0152788
845.444	0.0152425
845.522	0.0151724
845.600	0.0151150
845.678	0.0151923
845.756	0.0151322
845.834	0.0152887
845.913	0.0150940
845.991	0.0151253
846.069	0.0151555
846.147	0.0150349
846.225	0.0151345
846.303	0.0150677
846.381	0.0150679
846.459	0.0150890
846.538	0.0150984
846.616	0.0150031
846.694	0.0150434
846.772	0.0151474
846.850	0.0150779
846.928	0.0151254
847.006	0.0151345
847.084	0.0152175
847.163	0.0153681
847.241	0.0151307
847.319	0.0149305
847.397	0.0151562
847.475	0.0152353
847.553	0.0151303
847.631	0.0150546
847.709	0.0151777
847.788	0.0151523
847.866	0.0151373
847.944	0.0150904
848.022	0.0150880
848.100	0.0151887
848.178	0.0152100
848.256	0.0152147
848.334	0.0153278
848.413	0.0152227
848.491	0.0152517
848.569	0.0153029
848.647	0.0152673
848.725	0.0151762
848.803	0.0153342
848.881	0.0153504
848.959	0.0153244
849.038	0.0152322
849.116	0.0151994
849.194	0.0152649
849.272	0.0152611
849.350	0.0152046
849.428	0.0152708
849.506	0.0152247
849.584	0.0152669
849.663	0.0152747
849.741	0.0152805
849.819	0.0153777
849.897	0.0153108
849.975	0.0153062
850.053	0.0152665
850.131	0.0153657
850.209	0.0154191
850.288	0.0155214
850.366	0.0154171
850.444	0.0154342
850.522	0.0153995
850.600	0.0156141
850.678	0.0154009
850.756	0.0152366
850.834	0.0153225
850.913	0.0152309
850.991	0.0152779
851.069	0.0152631
851.147	0.0151389
851.225	0.0151898
851.303	0.0152273
851.381	0.0150814
851.459	0.0152352
851.538	0.0150373
851.616	0.0151809
851.694	0.0150998
851.772	0.0151163
851.850	0.0151672
851.928	0.0150417
852.006	0.0150134
852.084	0.0150521
852.163	0.0150315
852.241	0.0151905
852.319	0.0150630
852.397	0.0150122
852.475	0.0150343
852.553	0.0148794
852.631	0.0149596
852.709	0.0148850
852.788	0.0149399
852.866	0.0149112
852.944	0.0149241
853.022	0.0149400
853.100	0.0150127
853.178	0.0149640
853.256	0.0150128
853.334	0.0151554
853.413	0.0149792
853.491	0.0150268
853.569	0.0150487
853.647	0.0150494
853.725	0.0150715
853.803	0.0152302
853.881	0.0151950
853.959	0.0151879
854.038	0.0149467
854.116	0.0151273
854.194	0.0151785
854.272	0.0150986
854.350	0.0150392
854.428	0.0150579
854.506	0.0150921
854.584	0.0151774
854.663	0.0150332
854.741	0.0151427
854.819	0.0151851
854.897	0.0152270
854.975	0.0151442
855.053	0.0150497
855.131	0.0150871
855.209	0.0152512
855.288	0.0149656
855.366	0.0150478
855.444	0.0151719
855.522	0.0151688
855.600	0.0150897
855.678	0.0149982
855.756	0.0149078
855.834	0.0150010
855.913	0.0148816
855.991	0.0150015
856.069	0.0149699
856.147	0.0149326
856.225	0.0151115
856.303	0.0151228
856.381	0.0149239
856.459	0.0149270
856.538	0.0150344
856.616	0.0150803
856.694	0.0150455
856.772	0.0152296
856.850	0.0150919
856.928	0.0151124
857.006	0.0151452
857.084	0.0151643
857.163	0.0151147
857.241	0.0152229
857.319	0.0152670
857.397	0.0152313
857.475	0.0152302
857.553	0.0152547
857.631	0.0151579
857.709	0.0151505
857.788	0.0152943
857.866	0.0151665
857.944	0.0151026
858.022	0.0151770
858.100	0.0151173
858.178	0.0149983
858.256	0.0150733
858.334	0.0151555
858.413	0.0150278
858.491	0.0149731
858.569	0.0150517
858.647	0.0151274
858.725	0.0150977
858.803	0.0150031
858.881	0.0151514
858.959	0.0149680
859.038	0.0150076
859.116	0.0151207
859.194	0.0150861
859.272	0.0150887
859.350	0.0150701
859.428	0.0150431
859.506	0.0150262
859.584	0.0150096
859.663	0.0149331
859.741	0.0150214
859.819	0.0148762
859.897	0.0148608
859.975	0.0150612
860.053	0.0149973
860.131	0.0149216
860.209	0.0150417
860.288	0.0149328
860.366	0.0149246
860.444	0.0149081
860.522	0.0150873
860.600	0.0150451
860.678	0.0151492
860.756	0.0151230
860.834	0.0150859
860.913	0.0150117
860.991	0.0151880
861.069	0.0151342
861.147	0.0152972
861.225	0.0152625
861.303	0.0153190
861.381	0.0154371
861.459	0.0154694
861.538	0.0152139
861.616	0.0152944
861.694	0.0153279
861.772	0.0152343
861.850	0.0151472
861.928	0.0152007
862.006	0.0152673
862.084	0.0152251
862.163	0.0152579
862.241	0.0152800
862.319	0.0152248
862.397	0.0150869
862.475	0.0152927
862.553	0.0152271
862.631	0.0152370
862.709	0.0151724
862.788	0.0150854
862.866	0.0153316
862.944	0.0152988
863.022	0.0152708
863.100	0.0152597
863.178	0.0152450
863.256	0.0153561
863.334	0.0154765
863.413	0.0153455
863.491	0.0152511
863.569	0.0152219
863.647	0.0153582
863.725	0.0153250
863.803	0.0153927
863.881	0.0151300
863.959	0.0152639
864.038	0.0152300
864.116	0.0153513
864.194	0.0152798
864.272	0.0152151
864.350	0.0150024
864.428	0.0151093
864.506	0.0151783
864.584	0.0151221
864.663	0.0151318
864.741	0.0152863
864.819	0.0150974
864.897	0.0150735
864.975	0.0151649
865.053	0.0151031
865.131	0.0152171
865.209	0.0151544
865.288	0.0150823
865.366	0.0150582
865.444	0.0151176
865.522	0.0150338
865.600	0.0151246
865.678	0.0151199
865.756	0.0150549
865.834	0.0151442
865.913	0.0149870
865.991	0.0149936
866.069	0.0151167
866.147	0.0151096
866.225	0.0149911
866.303	0.0149724
866.381	0.0152710
866.459	0.0153310
866.538	0.0152320
866.616	0.0151775
866.694	0.0150672
866.772	0.0151461
866.850	0.0151483
866.928	0.0152310
867.006	0.0150847
867.084	0.0151047
867.163	0.0150110
867.241	0.0150272
867.319	0.0151320
867.397	0.0151707
867.475	0.0151769
867.553	0.0151096
867.631	0.0152332
867.709	0.0151364
867.788	0.0151013
867.866	0.0151228
867.944	0.0151392
868.022	0.0151107
868.100	0.0152510
868.178	0.0152287
868.256	0.0150729
868.334	0.0152296
868.413	0.0153371
868.491	0.0152522
868.569	0.0152618
868.647	0.0152946
868.725	0.0151713
868.803	0.0150822
868.881	0.0152582
868.959	0.0151489
869.038	0.0152233
869.116	0.0149888
869.194	0.0151321
869.272	0.0151459
869.350	0.0150410
869.428	0.0150829
869.506	0.0151379
869.584	0.0149847
869.663	0.0149418
869.741	0.0149448
869.819	0.0149738
869.897	0.0150008
869.975	0.0151887
870.053	0.0150487
870.131	0.0150564
870.209	0.0150652
870.288	0.0151768
870.366	0.0152553
870.444	0.0151984
870.522	0.0152983
870.600	0.0152451
870.678	0.0153310
870.756	0.0153382
870.834	0.0152241
870.913	0.0153888
870.991	0.0152859
871.069	0.0153806
871.147	0.0154601
871.225	0.0152873
871.303	0.0153062
871.381	0.0153843
871.459	0.0153741
871.538	0.0152794
871.616	0.0151941
871.694	0.0153172
871.772	0.0154386
871.850	0.0151759
871.928	0.0152198
872.006	0.0152779
872.084	0.0151818
872.163	0.0152668
872.241	0.0153161
872.319	0.0152100
872.397	0.0151735
872.475	0.0151726
872.553	0.0151186
872.631	0.0151208
872.709	0.0151721
872.788	0.0151086
872.866	0.0150101
872.944	0.0151966
873.022	0.0149341
873.100	0.0149876
873.178	0.0151205
873.256	0.0151228
873.334	0.0151028
873.413	0.0151750
873.491	0.0150808
873.569	0.0149683
873.647	0.0151003
873.725	0.0152425
873.803	0.0151080
873.881	0.0151965
873.959	0.0150837
874.038	0.0151340
874.116	0.0150308
874.194	0.0150904
874.272	0.0150988
874.350	0.0150822
874.428	0.0152213
874.506	0.0151657
874.584	0.0151141
874.663	0.0150602
874.741	0.0151016
874.819	0.0152991
874.897	0.0151424
874.975	0.0152100
875.053	0.0151437
875.131	0.0152081
875.209	0.0152353
875.288	0.0151191
875.366	0.0151538
875.444	0.0151736
875.522	0.0151804
875.600	0.0151940
875.678	0.0152252
875.756	0.0151125
875.834	0.0150873
875.913	0.0152062
875.991	0.0151510
876.069	0.0150265
876.147	0.0152006
876.225	0.0150701
876.303	0.0152205
876.381	0.0150344
876.459	0.0150027
876.538	0.0149942
876.616	0.0150386
876.694	0.0149607
876.772	0.0150159
876.850	0.0151225
876.928	0.0150856
877.006	0.0151962
877.084	0.0151363
877.163	0.0150648
877.241	0.0149805
877.319	0.0151842
877.397	0.0152840
877.475	0.0153063
877.553	0.0151604
877.631	0.0151267
877.709	0.0152665
877.788	0.0152471
877.866	0.0152602
877.944	0.0153172
878.022	0.0154045
878.100	0.0151455
878.178	0.0152164
878.256	0.0152253
878.334	0.0151324
878.413	0.0150856
878.491	0.0150111
878.569	0.0149580
878.647	0.0151177
878.725	0.0150835
878.803	0.0150485
878.881	0.0149510
878.959	0.0150648
879.038	0.0149884
879.116	0.0149149
879.194	0.0150846
879.272	0.0150998
879.350	0.0152064
879.428	0.0150996
879.506	0.0152229
879.584	0.0152005
879.663	0.0150967
879.741	0.0149997
879.819	0.0151105
879.897	0.0152550
879.975	0.0151753
880.053	0.0151604
880.131	0.0152055
880.209	0.0150176
880.288	0.0151377
880.366	0.0151625
880.444	0.0151512
880.522	0.0152518
880.600	0.0153011
880.678	0.0151972
880.756	0.0152077
880.834	0.0152219
880.913	0.0150539
880.991	0.0152943
881.069	0.0153484
881.147	0.0152403
881.225	0.0153357
881.303	0.0152178
881.381	0.0153941
881.459	0.0153924
881.538	0.0152132
881.616	0.0153138
881.694	0.0153332
881.772	0.0154035
881.850	0.0153725
881.928	0.0154091
882.006	0.0153227
882.084	0.0153572
882.163	0.0153215
882.241	0.0153693
882.319	0.0154031
882.397	0.0154980
882.475	0.0153101
882.553	0.0154031
882.631	0.0154558
882.709	0.0153965
882.788	0.0153787
882.866	0.0153846
882.944	0.0153890
883.022	0.0153049
883.100	0.0153020
883.178	0.0153535
883.256	0.0152489
883.334	0.0151604
883.413	0.0151239
883.491	0.0151907
883.569	0.0152204
883.647	0.0152176
883.725	0.0152641
883.803	0.0152094
883.881	0.0152750
883.959	0.0153036
884.038	0.0154162
884.116	0.0153129
884.194	0.0152329
884.272	0.0153991
884.350	0.0153085
884.428	0.0153622
884.506	0.0154542
884.584	0.0154374
884.663	0.0153863
884.741	0.0155894
884.819	0.0154439
884.897	0.0154261
884.975	0.0156384
885.053	0.0153144
885.131	0.0153762
885.209	0.0153342
885.288	0.0153479
885.366	0.0153384
885.444	0.0152427
885.522	0.0152058
885.600	0.0153576
885.678	0.0150740
885.756	0.0152151
885.834	0.0150927
885.913	0.0151588
885.991	0.0151390
886.069	0.0151776
886.147	0.0151161
886.225	0.0150943
886.303	0.0149693
886.381	0.0150613
886.459	0.0150745
886.538	0.0149949
886.616	0.0151773
886.694	0.0152128
886.772	0.0152791
886.850	0.0151493
886.928	0.0151820
887.006	0.0152493
887.084	0.0153671
887.163	0.0153084
887.241	0.0152521
887.319	0.0152771
887.397	0.0154169
887.475	0.0153378
887.553	0.0153355
887.631	0.0153639
887.709	0.0149586
887.788	0.0151913
887.866	0.0152726
887.944	0.0152544
888.022	0.0153335
888.100	0.0153378
888.178	0.0152055
888.256	0.0152026
888.334	0.0152505
888.413	0.0152800
888.491	0.0152879
888.569	0.0152399
888.647	0.0152646
888.725	0.0152731
888.803	0.0151723
888.881	0.0151725
888.959	0.0152243
889.038	0.0151711
889.116	0.0152155
889.194	0.0151549
889.272	0.0151962
889.350	0.0150996
889.428	0.0151607
889.506	0.0151481
889.584	0.0150501
889.663	0.0149806
889.741	0.0150484
889.819	0.0150702
889.897	0.0151955
889.975	0.0150058
890.053	0.0148940
890.131	0.0151231
890.209	0.0151840
890.288	0.0150738
890.366	0.0149507
890.444	0.0151041
890.522	0.0151892
890.600	0.0150960
890.678	0.0151372
890.756	0.0151762
890.834	0.0151793
890.913	0.0152375
890.991	0.0151363
891.069	0.0152115
891.147	0.0151415
891.225	0.0151431
891.303	0.0151161
891.381	0.0150872
891.459	0.0152054
891.538	0.0152676
891.616	0.0150597
891.694	0.0151167
891.772	0.0151902
891.850	0.0151077
891.928	0.0152271
892.006	0.0151572
892.084	0.0152818
892.163	0.0152290
892.241	0.0152665
892.319	0.0153317
892.397	0.0152322
892.475	0.0152547
892.553	0.0151463
892.631	0.0153128
892.709	0.0152589
892.788	0.0153433
892.866	0.0151994
892.944	0.0151477
893.022	0.0151847
893.100	0.0151524
893.178	0.0150417
893.256	0.0150489
893.334	0.0150739
893.413	0.0151835
893.491	0.0150352
893.569	0.0150900
893.647	0.0148997
893.725	0.0150479
893.803	0.0149738
893.881	0.0150260
893.959	0.0149924
894.038	0.0150005
894.116	0.0149768
894.194	0.0148626
894.272	0.0149937
894.350	0.0150350
894.428	0.0148606
894.506	0.0149873
894.584	0.0151489
894.663	0.0151370
894.741	0.0151105
894.819	0.0151553
894.897	0.0150884
894.975	0.0152215
895.053	0.0153278
895.131	0.0152555
895.209	0.0153015
895.288	0.0153591
895.366	0.0152570
895.444	0.0153700
895.522	0.0154673
895.600	0.0154693
895.678	0.0154230
895.756	0.0152911
895.834	0.0151684
895.913	0.0153877
895.991	0.0152827
896.069	0.0153330
896.147	0.0153345
896.225	0.0153822
896.303	0.0152105
896.381	0.0152031
896.459	0.0152007
896.538	0.0153282
896.616	0.0153005
896.694	0.0152729
896.772	0.0151427
896.850	0.0152007
896.928	0.0150260
897.006	0.0149807
897.084	0.0150579
897.163	0.0150133
897.241	0.0150362
897.319	0.0149654
897.397	0.0149284
897.475	0.0149588
897.553	0.0151118
897.631	0.0150906
897.709	0.0149682
897.788	0.0149986
897.866	0.0150817
897.944	0.0150496
898.022	0.0151992
898.100	0.0151234
898.178	0.0152724
898.256	0.0153296
898.334	0.0152087
898.413	0.0151070
898.491	0.0151454
898.569	0.0153156
898.647	0.0153718
898.725	0.0153178
898.803	0.0153416
898.881	0.0153198
898.959	0.0153187
899.038	0.0153474
899.116	0.0153964
899.194	0.0151961
899.272	0.0154111
899.350	0.0153584
899.428	0.0153376
899.506	0.0153672
899.584	0.0153677
899.663	0.0152849
899.741	0.0151572
899.819	0.0152989
899.897	0.0153271
899.975	0.0152679
900.053	0.0152682
900.131	0.0151389
900.209	0.0151966
900.288	0.0153147
900.366	0.0153326
900.444	0.0151239
900.522	0.0152840
900.600	0.0152477
900.678	0.0154082
900.756	0.0151945
900.834	0.0152027
900.913	0.0153183
900.991	0.0152165
901.069	0.0153669
901.147	0.0152118
901.225	0.0151307
901.303	0.0154011
901.381	0.0151565
901.459	0.0152420
901.538	0.0149974
901.616	0.0150105
901.694	0.0149802
901.772	0.0150452
901.850	0.0149319
901.928	0.0149044
902.006	0.0147577
902.084	0.0150736
902.163	0.0148627
902.241	0.0148058
902.319	0.0150580
902.397	0.0149281
902.475	0.0150011
902.553	0.0149321
902.631	0.0150771
902.709	0.0150433
902.788	0.0152487
902.866	0.0151207
902.944	0.0151248
903.022	0.0152825
903.100	0.0153208
903.178	0.0152561
903.256	0.0153368
903.334	0.0153098
903.413	0.0154008
903.491	0.0153241
903.569	0.0154837
903.647	0.0155245
903.725	0.0155312
903.803	0.0155547
903.881	0.0153397
903.959	0.0154071
904.038	0.0154525
904.116	0.0153815
904.194	0.0153479
904.272	0.0153577
904.350	0.0154347
904.428	0.0153288
904.506	0.0152113
904.584	0.0153793
904.663	0.0152106
904.741	0.0153620
904.819	0.0153178
904.897	0.0152879
904.975	0.0152158
905.053	0.0151789
905.131	0.0152593
905.209	0.0153613
905.288	0.0152885
905.366	0.0152112
905.444	0.0153364
905.522	0.0152788
905.600	0.0152629
905.678	0.0152993
905.756	0.0153925
905.834	0.0153468
905.913	0.0152976
905.991	0.0152995
906.069	0.0153072
906.147	0.0153938
906.225	0.0151242
906.303	0.0154121
906.381	0.0151700
906.459	0.0151941
906.538	0.0151689
906.616	0.0152577
906.694	0.0153367
906.772	0.0152731
906.850	0.0152460
906.928	0.0152982
907.006	0.0154350
907.084	0.0153487
907.163	0.0152356
907.241	0.0153370
907.319	0.0154366
907.397	0.0153019
907.475	0.0152534
907.553	0.0153408
907.631	0.0153420
907.709	0.0153298
907.788	0.0152635
907.866	0.0152695
907.944	0.0152197
908.022	0.0153342
908.100	0.0152670
908.178	0.0154437
908.256	0.0153519
908.334	0.0152802
908.413	0.0152484
908.491	0.0152274
908.569	0.0152523
908.647	0.0153445
908.725	0.0152981
908.803	0.0152026
908.881	0.0153347
908.959	0.0152070
909.038	0.0152570
909.116	0.0152062
909.194	0.0150529
909.272	0.0150535
909.350	0.0150436
909.428	0.0152124
909.506	0.0151886
909.584	0.0149996
909.663	0.0149140
909.741	0.0150532
909.819	0.0151387
909.897	0.0150089
909.975	0.0149620
910.053	0.0150659
910.131	0.0150569
910.209	0.0150808
910.288	0.0150481
910.366	0.0149878
910.444	0.0151067
910.522	0.0151037
910.600	0.0150369
910.678	0.0151804
910.756	0.0151714
910.834	0.0152657
910.913	0.0152599
910.991	0.0153818
911.069	0.0152625
911.147	0.0153102
911.225	0.0153242
911.303	0.0153877
911.381	0.0153032
911.459	0.0155620
911.538	0.0153594
911.616	0.0153496
911.694	0.0154127
911.772	0.0153255
911.850	0.0152721
911.928	0.0153699
912.006	0.0152780
912.084	0.0154107
912.163	0.0153400
912.241	0.0153259
912.319	0.0152219
912.397	0.0151502
912.475	0.0152576
912.553	0.0149755
912.631	0.0149687
912.709	0.0152238
912.788	0.0151769
912.866	0.0150092
912.944	0.0150759
913.022	0.0151154
913.100	0.0152522
913.178	0.0151307
913.256	0.0150676
913.334	0.0152415
913.413	0.0151816
913.491	0.0150544
913.569	0.0150999
913.647	0.0152544
913.725	0.0151472
913.803	0.0151435
913.881	0.0152262
913.959	0.0152831
914.038	0.0152857
914.116	0.0152135
914.194	0.0152204
914.272	0.0152351
914.350	0.0152714
914.428	0.0152779
914.506	0.0152229
914.584	0.0153473
914.663	0.0151875
914.741	0.0153634
914.819	0.0153226
914.897	0.0154295
914.975	0.0153436
915.053	0.0153071
915.131	0.0152337
915.209	0.0152754
915.288	0.0152809
915.366	0.0152164
915.444	0.0151232
915.522	0.0152091
915.600	0.0150670
915.678	0.0150950
915.756	0.0152132
915.834	0.0153782
915.913	0.0152189
915.991	0.0151186
916.069	0.0151436
916.147	0.0152110
916.225	0.0151789
916.303	0.0152161
916.381	0.0153483
916.459	0.0152971
916.538	0.0152488
916.616	0.0154008
916.694	0.0153905
916.772	0.0154958
916.850	0.0153789
916.928	0.0152921
917.006	0.0153939
917.084	0.0153015
917.163	0.0153880
917.241	0.0153735
917.319	0.0153664
917.397	0.0153718
917.475	0.0153463
917.553	0.0152532
917.631	0.0153308
917.709	0.0152242
917.788	0.0152151
917.866	0.0152855
917.944	0.0152531
918.022	0.0153655
918.100	0.0151534
918.178	0.0151131
918.256	0.0151888
918.334	0.0151572
918.413	0.0150918
918.491	0.0150584
918.569	0.0149896
918.647	0.0150211
918.725	0.0151739
918.803	0.0151714
918.881	0.0151855
918.959	0.0151452
919.038	0.0152086
919.116	0.0150967
919.194	0.0153152
919.272	0.0152786
919.350	0.0152930
919.428	0.0152498
919.506	0.0152964
919.584	0.0153838
919.663	0.0153600
919.741	0.0153709
919.819	0.0153505
919.897	0.0153165
