05/20/2022	20:36:22	Ver.	4.1	UNKNOWN
Optical Delay	599.981738	Delta X		0.078125	Sweeps	1	Scan Rate	0/0
Coordinates	Axis 1	NaN	Axis 2	NaN	Axis 3	NaN	Axis 4	NaN	Axis 5	NaN	Axis 6	0.000000
TX Power	0.000000	RX Power	0.000000

599.982	0.0155237
600.060	0.0154607
600.138	0.0154576
600.216	0.0154744
600.294	0.0154130
600.372	0.0154207
600.450	0.0154561
600.529	0.0155109
600.607	0.0155232
600.685	0.0154604
600.763	0.0155865
600.841	0.0156024
600.919	0.0155847
600.997	0.0155449
601.075	0.0156443
601.154	0.0156152
601.232	0.0155632
601.310	0.0154851
601.388	0.0154221
601.466	0.0154281
601.544	0.0155624
601.622	0.0154229
601.700	0.0155685
601.779	0.0155130
601.857	0.0154583
601.935	0.0155427
602.013	0.0154957
602.091	0.0154583
602.169	0.0155172
602.247	0.0154188
602.325	0.0154742
602.404	0.0156110
602.482	0.0155274
602.560	0.0155244
602.638	0.0154725
602.716	0.0156168
602.794	0.0155637
602.872	0.0155540
602.950	0.0154205
603.029	0.0154279
603.107	0.0155075
603.185	0.0154420
603.263	0.0155363
603.341	0.0154632
603.419	0.0156351
603.497	0.0155383
603.575	0.0153549
603.654	0.0154987
603.732	0.0155758
603.810	0.0154665
603.888	0.0155630
603.966	0.0154926
604.044	0.0154502
604.122	0.0156133
604.200	0.0157111
604.279	0.0154366
604.357	0.0154968
604.435	0.0155062
604.513	0.0155840
604.591	0.0156517
604.669	0.0155426
604.747	0.0154567
604.825	0.0154406
604.904	0.0155038
604.982	0.0154640
605.060	0.0154846
605.138	0.0154649
605.216	0.0154946
605.294	0.0154652
605.372	0.0155307
605.450	0.0153792
605.529	0.0154594
605.607	0.0154044
605.685	0.0152856
605.763	0.0155728
605.841	0.0156828
605.919	0.0155683
605.997	0.0155400
606.075	0.0156664
606.154	0.0155633
606.232	0.0154778
606.310	0.0154584
606.388	0.0154871
606.466	0.0155000
606.544	0.0155634
606.622	0.0155449
606.700	0.0156788
606.779	0.0154661
606.857	0.0155650
606.935	0.0153938
607.013	0.0155203
607.091	0.0155534
607.169	0.0155523
607.247	0.0156205
607.325	0.0155126
607.404	0.0154432
607.482	0.0155658
607.560	0.0154234
607.638	0.0154201
607.716	0.0154513
607.794	0.0155689
607.872	0.0156830
607.950	0.0154941
608.029	0.0154787
608.107	0.0155672
608.185	0.0156055
608.263	0.0154877
608.341	0.0154086
608.419	0.0155350
608.497	0.0154019
608.575	0.0154835
608.654	0.0155089
608.732	0.0154510
608.810	0.0156069
608.888	0.0156007
608.966	0.0156854
609.044	0.0156867
609.122	0.0155461
609.200	0.0155947
609.279	0.0155838
609.357	0.0154646
609.435	0.0154733
609.513	0.0156074
609.591	0.0156345
609.669	0.0156289
609.747	0.0155932
609.825	0.0155450
609.904	0.0155223
609.982	0.0155161
610.060	0.0155545
610.138	0.0155627
610.216	0.0155701
610.294	0.0155305
610.372	0.0155800
610.450	0.0155517
610.529	0.0156235
610.607	0.0155023
610.685	0.0155012
610.763	0.0155305
610.841	0.0154849
610.919	0.0155183
610.997	0.0155994
611.075	0.0154935
611.154	0.0154844
611.232	0.0154080
611.310	0.0154773
611.388	0.0155399
611.466	0.0155462
611.544	0.0154793
611.622	0.0156496
611.700	0.0155235
611.779	0.0155315
611.857	0.0156440
611.935	0.0154859
612.013	0.0155899
612.091	0.0155321
612.169	0.0156675
612.247	0.0156082
612.325	0.0156371
612.404	0.0156127
612.482	0.0154666
612.560	0.0155939
612.638	0.0156207
612.716	0.0154125
612.794	0.0153772
612.872	0.0154820
612.950	0.0155895
613.029	0.0156612
613.107	0.0154836
613.185	0.0155988
613.263	0.0155671
613.341	0.0156460
613.419	0.0156095
613.497	0.0155321
613.575	0.0155511
613.654	0.0155580
613.732	0.0155233
613.810	0.0154651
613.888	0.0155404
613.966	0.0156412
614.044	0.0156201
614.122	0.0154979
614.200	0.0156030
614.279	0.0155331
614.357	0.0154645
614.435	0.0155206
614.513	0.0154955
614.591	0.0156039
614.669	0.0155951
614.747	0.0154601
614.825	0.0156051
614.904	0.0155524
614.982	0.0154581
615.060	0.0154350
615.138	0.0155010
615.216	0.0156788
615.294	0.0154298
615.372	0.0153770
615.450	0.0155302
615.529	0.0154284
615.607	0.0154898
615.685	0.0156136
615.763	0.0155894
615.841	0.0155407
615.919	0.0155106
615.997	0.0154166
616.075	0.0155119
616.154	0.0154322
616.232	0.0155736
616.310	0.0155822
616.388	0.0153589
616.466	0.0154539
616.544	0.0155392
616.622	0.0155444
616.700	0.0154771
616.779	0.0154494
616.857	0.0155043
616.935	0.0155301
617.013	0.0155061
617.091	0.0155080
617.169	0.0154382
617.247	0.0155238
617.325	0.0154089
617.404	0.0155050
617.482	0.0154413
617.560	0.0156538
617.638	0.0155551
617.716	0.0154911
617.794	0.0154692
617.872	0.0154848
617.950	0.0154858
618.029	0.0155402
618.107	0.0155871
618.185	0.0156008
618.263	0.0155273
618.341	0.0154446
618.419	0.0154468
618.497	0.0153899
618.575	0.0154559
618.654	0.0154176
618.732	0.0155080
618.810	0.0154993
618.888	0.0154576
618.966	0.0155145
619.044	0.0155575
619.122	0.0154350
619.200	0.0155258
619.279	0.0154606
619.357	0.0154247
619.435	0.0155000
619.513	0.0153738
619.591	0.0155991
619.669	0.0155315
619.747	0.0155405
619.825	0.0155289
619.904	0.0154535
619.982	0.0155411
620.060	0.0155592
620.138	0.0156647
620.216	0.0156292
620.294	0.0154289
620.372	0.0154929
620.450	0.0155927
620.529	0.0155236
620.607	0.0155156
620.685	0.0154774
620.763	0.0155390
620.841	0.0155204
620.919	0.0154314
620.997	0.0154899
621.075	0.0155357
621.154	0.0155734
621.232	0.0155595
621.310	0.0156084
621.388	0.0154772
621.466	0.0154391
621.544	0.0153004
621.622	0.0154868
621.700	0.0154437
621.779	0.0156054
621.857	0.0155578
621.935	0.0155614
622.013	0.0155242
622.091	0.0155003
622.169	0.0155324
622.247	0.0155960
622.325	0.0154723
622.404	0.0153371
622.482	0.0155825
622.560	0.0155701
622.638	0.0154663
622.716	0.0155596
622.794	0.0154942
622.872	0.0154858
622.950	0.0155477
623.029	0.0154008
623.107	0.0154391
623.185	0.0154910
623.263	0.0156708
623.341	0.0156461
623.419	0.0154375
623.497	0.0155955
623.575	0.0156725
623.654	0.0154988
623.732	0.0154512
623.810	0.0154675
623.888	0.0155417
623.966	0.0155190
624.044	0.0155026
624.122	0.0155222
624.200	0.0156832
624.279	0.0155448
624.357	0.0155473
624.435	0.0156191
624.513	0.0156438
624.591	0.0155131
624.669	0.0156258
624.747	0.0156091
624.825	0.0155677
624.904	0.0155425
624.982	0.0156139
625.060	0.0156082
625.138	0.0154747
625.216	0.0155070
625.294	0.0155572
625.372	0.0155130
625.450	0.0156559
625.529	0.0155888
625.607	0.0156026
625.685	0.0155079
625.763	0.0154330
625.841	0.0155419
625.919	0.0156079
625.997	0.0154891
626.075	0.0156245
626.154	0.0155969
626.232	0.0156714
626.310	0.0156103
626.388	0.0155020
626.466	0.0155303
626.544	0.0154710
626.622	0.0155959
626.700	0.0156251
626.779	0.0154511
626.857	0.0153552
626.935	0.0154469
627.013	0.0155605
627.091	0.0154695
627.169	0.0155521
627.247	0.0155167
627.325	0.0155179
627.404	0.0156147
627.482	0.0154383
627.560	0.0155859
627.638	0.0156141
627.716	0.0154692
627.794	0.0154366
627.872	0.0155129
627.950	0.0155460
628.029	0.0154979
628.107	0.0154733
628.185	0.0155980
628.263	0.0154914
628.341	0.0155560
628.419	0.0155209
628.497	0.0155169
628.575	0.0155661
628.654	0.0156517
628.732	0.0156176
628.810	0.0154156
628.888	0.0156164
628.966	0.0155859
629.044	0.0154880
629.122	0.0154785
629.200	0.0154475
629.279	0.0155492
629.357	0.0155319
629.435	0.0156055
629.513	0.0155786
629.591	0.0155565
629.669	0.0155057
629.747	0.0154886
629.825	0.0154111
629.904	0.0153847
629.982	0.0154993
630.060	0.0155981
630.138	0.0155323
630.216	0.0154130
630.294	0.0154133
630.372	0.0155109
630.450	0.0154661
630.529	0.0155476
630.607	0.0155676
630.685	0.0154882
630.763	0.0154381
630.841	0.0154922
630.919	0.0156635
630.997	0.0155276
631.075	0.0154865
631.154	0.0155104
631.232	0.0155657
631.310	0.0154406
631.388	0.0155586
631.466	0.0154907
631.544	0.0155485
631.622	0.0155177
631.700	0.0154525
631.779	0.0155354
631.857	0.0156155
631.935	0.0155901
632.013	0.0155099
632.091	0.0153920
632.169	0.0154357
632.247	0.0155293
632.325	0.0155382
632.404	0.0155776
632.482	0.0155232
632.560	0.0154832
632.638	0.0155410
632.716	0.0155144
632.794	0.0154865
632.872	0.0154480
632.950	0.0154814
633.029	0.0155163
633.107	0.0155211
633.185	0.0155732
633.263	0.0155169
633.341	0.0154569
633.419	0.0156033
633.497	0.0154527
633.575	0.0155106
633.654	0.0154725
633.732	0.0154738
633.810	0.0154668
633.888	0.0154131
633.966	0.0154910
634.044	0.0154417
634.122	0.0154823
634.200	0.0154966
634.279	0.0155192
634.357	0.0153233
634.435	0.0154742
634.513	0.0155325
634.591	0.0155385
634.669	0.0154829
634.747	0.0155409
634.825	0.0154355
634.904	0.0154576
634.982	0.0154636
635.060	0.0156714
635.138	0.0155188
635.216	0.0154351
635.294	0.0154510
635.372	0.0154845
635.450	0.0154000
635.529	0.0154754
635.607	0.0154922
635.685	0.0154655
635.763	0.0154842
635.841	0.0154514
635.919	0.0155395
635.997	0.0154260
636.075	0.0155544
636.154	0.0155352
636.232	0.0153657
636.310	0.0155235
636.388	0.0156086
636.466	0.0154787
636.544	0.0154301
636.622	0.0154394
636.700	0.0155659
636.779	0.0155219
636.857	0.0154551
636.935	0.0154477
637.013	0.0153976
637.091	0.0155119
637.169	0.0155032
637.247	0.0155301
637.325	0.0154189
637.404	0.0155349
637.482	0.0155267
637.560	0.0155041
637.638	0.0155642
637.716	0.0155277
637.794	0.0155717
637.872	0.0155344
637.950	0.0155231
638.029	0.0153568
638.107	0.0155829
638.185	0.0156367
638.263	0.0155085
638.341	0.0155097
638.419	0.0156037
638.497	0.0154330
638.575	0.0154823
638.654	0.0155930
638.732	0.0154531
638.810	0.0154009
638.888	0.0155286
638.966	0.0154928
639.044	0.0155063
639.122	0.0154541
639.200	0.0155677
639.279	0.0154398
639.357	0.0155101
639.435	0.0155930
639.513	0.0154899
639.591	0.0154071
639.669	0.0154790
639.747	0.0155952
639.825	0.0156271
639.904	0.0155438
639.982	0.0155614
640.060	0.0155847
640.138	0.0154584
640.216	0.0155815
640.294	0.0154557
640.372	0.0155573
640.450	0.0156360
640.529	0.0154865
640.607	0.0154189
640.685	0.0155103
640.763	0.0156052
640.841	0.0155333
640.919	0.0154790
640.997	0.0155020
641.075	0.0156026
641.154	0.0155993
641.232	0.0154033
641.310	0.0154288
641.388	0.0154617
641.466	0.0156190
641.544	0.0156491
641.622	0.0154353
641.700	0.0155350
641.779	0.0155634
641.857	0.0156409
641.935	0.0154636
642.013	0.0155346
642.091	0.0155659
642.169	0.0154530
642.247	0.0155386
642.325	0.0154654
642.404	0.0155741
642.482	0.0155785
642.560	0.0155790
642.638	0.0154131
642.716	0.0154234
642.794	0.0156735
642.872	0.0156319
642.950	0.0154619
643.029	0.0156324
643.107	0.0155765
643.185	0.0157626
643.263	0.0155887
643.341	0.0155231
643.419	0.0154431
643.497	0.0154309
643.575	0.0155523
643.654	0.0155413
643.732	0.0156815
643.810	0.0156023
643.888	0.0155412
643.966	0.0154927
644.044	0.0154842
644.122	0.0155417
644.200	0.0155013
644.279	0.0155304
644.357	0.0154509
644.435	0.0154946
644.513	0.0154660
644.591	0.0155254
644.669	0.0155299
644.747	0.0154938
644.825	0.0154813
644.904	0.0156184
644.982	0.0155262
645.060	0.0155191
645.138	0.0154922
645.216	0.0154381
645.294	0.0155300
645.372	0.0154895
645.450	0.0155645
645.529	0.0155231
645.607	0.0153836
645.685	0.0156984
645.763	0.0155713
645.841	0.0154994
645.919	0.0153740
645.997	0.0154317
646.075	0.0155553
646.154	0.0155705
646.232	0.0155431
646.310	0.0154532
646.388	0.0153941
646.466	0.0154834
646.544	0.0155787
646.622	0.0155350
646.700	0.0154769
646.779	0.0154278
646.857	0.0155828
646.935	0.0155371
647.013	0.0155087
647.091	0.0155666
647.169	0.0154478
647.247	0.0154714
647.325	0.0153940
647.404	0.0155867
647.482	0.0155210
647.560	0.0154172
647.638	0.0153886
647.716	0.0155012
647.794	0.0156590
647.872	0.0154028
647.950	0.0156519
648.029	0.0155357
648.107	0.0154690
648.185	0.0155430
648.263	0.0157507
648.341	0.0156091
648.419	0.0155431
648.497	0.0154302
648.575	0.0155499
648.654	0.0154360
648.732	0.0154989
648.810	0.0155402
648.888	0.0156503
648.966	0.0154564
649.044	0.0155141
649.122	0.0156184
649.200	0.0153927
649.279	0.0155939
649.357	0.0154745
649.435	0.0156499
649.513	0.0155175
649.591	0.0154890
649.669	0.0153560
649.747	0.0154490
649.825	0.0154686
649.904	0.0156267
649.982	0.0156033
650.060	0.0154729
650.138	0.0154783
650.216	0.0154090
650.294	0.0155116
650.372	0.0155005
650.450	0.0155709
650.529	0.0156032
650.607	0.0154475
650.685	0.0154330
650.763	0.0156866
650.841	0.0155393
650.919	0.0156138
650.997	0.0155850
651.075	0.0155110
651.154	0.0155840
651.232	0.0156371
651.310	0.0155556
651.388	0.0155125
651.466	0.0155750
651.544	0.0155390
651.622	0.0156765
651.700	0.0155429
651.779	0.0155644
651.857	0.0154679
651.935	0.0155410
652.013	0.0155850
652.091	0.0156741
652.169	0.0155153
652.247	0.0154862
652.325	0.0156030
652.404	0.0155525
652.482	0.0155863
652.560	0.0155360
652.638	0.0154292
652.716	0.0155063
652.794	0.0155402
652.872	0.0156626
652.950	0.0155676
653.029	0.0156691
653.107	0.0155551
653.185	0.0156159
653.263	0.0156075
653.341	0.0155587
653.419	0.0155035
653.497	0.0156097
653.575	0.0156002
653.654	0.0155585
653.732	0.0153500
653.810	0.0155235
653.888	0.0155390
653.966	0.0155061
654.044	0.0155987
654.122	0.0155219
654.200	0.0154999
654.279	0.0155975
654.357	0.0154839
654.435	0.0154595
654.513	0.0154951
654.591	0.0155122
654.669	0.0154704
654.747	0.0154727
654.825	0.0155161
654.904	0.0154664
654.982	0.0154873
655.060	0.0153759
655.138	0.0153412
655.216	0.0155051
655.294	0.0154846
655.372	0.0155661
655.450	0.0154619
655.529	0.0154573
655.607	0.0155741
655.685	0.0155121
655.763	0.0155851
655.841	0.0155384
655.919	0.0154461
655.997	0.0154877
656.075	0.0154710
656.154	0.0155089
656.232	0.0156593
656.310	0.0156225
656.388	0.0154539
656.466	0.0156156
656.544	0.0154707
656.622	0.0154945
656.700	0.0153975
656.779	0.0154744
656.857	0.0156448
656.935	0.0155312
657.013	0.0154724
657.091	0.0154765
657.169	0.0154786
657.247	0.0155656
657.325	0.0154565
657.404	0.0155091
657.482	0.0155855
657.560	0.0156384
657.638	0.0154997
657.716	0.0155073
657.794	0.0156406
657.872	0.0155191
657.950	0.0154863
658.029	0.0154865
658.107	0.0156979
658.185	0.0155437
658.263	0.0155614
658.341	0.0155138
658.419	0.0155728
658.497	0.0155655
658.575	0.0155631
658.654	0.0154095
658.732	0.0155950
658.810	0.0155338
658.888	0.0156111
658.966	0.0156111
659.044	0.0154619
659.122	0.0154659
659.200	0.0155041
659.279	0.0155570
659.357	0.0154614
659.435	0.0154604
659.513	0.0156146
659.591	0.0156342
659.669	0.0156351
659.747	0.0155275
659.825	0.0154280
659.904	0.0154975
659.982	0.0155183
660.060	0.0156406
660.138	0.0154797
660.216	0.0153873
660.294	0.0155434
660.372	0.0155704
660.450	0.0156493
660.529	0.0155114
660.607	0.0156339
660.685	0.0156187
660.763	0.0156249
660.841	0.0155704
660.919	0.0155205
660.997	0.0154990
661.075	0.0156456
661.154	0.0155628
661.232	0.0156564
661.310	0.0155510
661.388	0.0156429
661.466	0.0155121
661.544	0.0155199
661.622	0.0155450
661.700	0.0154643
661.779	0.0156707
661.857	0.0155191
661.935	0.0154331
662.013	0.0156080
662.091	0.0156348
662.169	0.0156281
662.247	0.0154797
662.325	0.0155139
662.404	0.0156622
662.482	0.0155805
662.560	0.0155537
662.638	0.0157319
662.716	0.0156663
662.794	0.0154464
662.872	0.0154892
662.950	0.0155344
663.029	0.0155588
663.107	0.0157063
663.185	0.0155357
663.263	0.0155734
663.341	0.0154266
663.419	0.0156357
663.497	0.0156435
663.575	0.0155052
663.654	0.0153751
663.732	0.0155165
663.810	0.0156026
663.888	0.0155789
663.966	0.0154938
664.044	0.0155984
664.122	0.0154678
664.200	0.0154680
664.279	0.0155655
664.357	0.0154913
664.435	0.0154922
664.513	0.0154256
664.591	0.0156365
664.669	0.0154794
664.747	0.0154218
664.825	0.0155910
664.904	0.0155688
664.982	0.0156816
665.060	0.0155601
665.138	0.0155034
665.216	0.0155309
665.294	0.0155753
665.372	0.0154468
665.450	0.0154758
665.529	0.0154535
665.607	0.0155285
665.685	0.0156255
665.763	0.0154452
665.841	0.0155199
665.919	0.0155514
665.997	0.0155900
666.075	0.0156478
666.154	0.0156403
666.232	0.0154619
666.310	0.0154703
666.388	0.0154713
666.466	0.0154989
666.544	0.0156125
666.622	0.0155029
666.700	0.0155556
666.779	0.0155963
666.857	0.0155405
666.935	0.0156005
667.013	0.0154713
667.091	0.0155739
667.169	0.0156609
667.247	0.0156115
667.325	0.0156015
667.404	0.0155101
667.482	0.0156423
667.560	0.0156072
667.638	0.0156648
667.716	0.0155630
667.794	0.0156884
667.872	0.0155119
667.950	0.0154550
668.029	0.0154936
668.107	0.0155906
668.185	0.0156264
668.263	0.0156680
668.341	0.0154825
668.419	0.0156043
668.497	0.0155179
668.575	0.0154629
668.654	0.0155877
668.732	0.0154925
668.810	0.0155594
668.888	0.0155870
668.966	0.0157368
669.044	0.0155022
669.122	0.0154727
669.200	0.0153856
669.279	0.0154563
669.357	0.0154755
669.435	0.0154861
669.513	0.0154917
669.591	0.0154071
669.669	0.0155489
669.747	0.0154870
669.825	0.0155337
669.904	0.0155629
669.982	0.0154466
670.060	0.0154166
670.138	0.0154735
670.216	0.0153402
670.294	0.0153918
670.372	0.0155489
670.450	0.0154333
670.529	0.0154192
670.607	0.0154252
670.685	0.0154794
670.763	0.0155182
670.841	0.0154842
670.919	0.0153658
670.997	0.0153658
671.075	0.0155632
671.154	0.0154991
671.232	0.0155467
671.310	0.0154302
671.388	0.0154546
671.466	0.0154680
671.544	0.0154908
671.622	0.0155849
671.700	0.0155472
671.779	0.0151993
671.857	0.0153422
671.935	0.0154807
672.013	0.0154462
672.091	0.0154077
672.169	0.0154965
672.247	0.0154477
672.325	0.0155169
672.404	0.0154817
672.482	0.0154783
672.560	0.0155018
672.638	0.0154887
672.716	0.0154576
672.794	0.0154972
672.872	0.0154575
672.950	0.0154205
673.029	0.0153586
673.107	0.0152880
673.185	0.0154005
673.263	0.0154611
673.341	0.0154105
673.419	0.0155177
673.497	0.0155093
673.575	0.0153748
673.654	0.0155085
673.732	0.0153606
673.810	0.0154625
673.888	0.0153715
673.966	0.0152489
674.044	0.0156095
674.122	0.0156364
674.200	0.0153788
674.279	0.0154450
674.357	0.0155482
674.435	0.0155701
674.513	0.0154854
674.591	0.0154602
674.669	0.0155161
674.747	0.0154610
674.825	0.0154684
674.904	0.0154912
674.982	0.0155997
675.060	0.0154173
675.138	0.0153429
675.216	0.0155098
675.294	0.0155759
675.372	0.0156813
675.450	0.0155669
675.529	0.0155403
675.607	0.0155196
675.685	0.0154770
675.763	0.0155335
675.841	0.0155208
675.919	0.0155637
675.997	0.0155074
676.075	0.0155525
676.154	0.0155283
676.232	0.0156100
676.310	0.0156249
676.388	0.0155556
676.466	0.0155843
676.544	0.0156592
676.622	0.0156268
676.700	0.0157584
676.779	0.0155264
676.857	0.0156141
676.935	0.0155483
677.013	0.0156028
677.091	0.0156242
677.169	0.0155370
677.247	0.0156577
677.325	0.0156911
677.404	0.0157272
677.482	0.0155488
677.560	0.0156218
677.638	0.0156551
677.716	0.0155668
677.794	0.0155805
677.872	0.0155840
677.950	0.0156911
678.029	0.0156390
678.107	0.0156125
678.185	0.0156940
678.263	0.0155437
678.341	0.0156177
678.419	0.0156197
678.497	0.0155459
678.575	0.0155943
678.654	0.0154929
678.732	0.0156025
678.810	0.0157303
678.888	0.0154578
678.966	0.0155330
679.044	0.0156005
679.122	0.0155042
679.200	0.0155630
679.279	0.0156265
679.357	0.0155215
679.435	0.0154250
679.513	0.0155618
679.591	0.0155788
679.669	0.0155119
679.747	0.0156628
679.825	0.0156686
679.904	0.0155737
679.982	0.0155473
680.060	0.0157009
680.138	0.0154501
680.216	0.0155964
680.294	0.0156403
680.372	0.0154773
680.450	0.0155723
680.529	0.0155438
680.607	0.0154746
680.685	0.0155086
680.763	0.0155598
680.841	0.0155826
680.919	0.0154923
680.997	0.0155229
681.075	0.0154899
681.154	0.0155412
681.232	0.0155590
681.310	0.0154175
681.388	0.0156406
681.466	0.0155450
681.544	0.0154533
681.622	0.0155033
681.700	0.0155637
681.779	0.0154287
681.857	0.0155019
681.935	0.0154919
682.013	0.0154383
682.091	0.0154457
682.169	0.0154620
682.247	0.0156812
682.325	0.0154556
682.404	0.0153600
682.482	0.0153568
682.560	0.0153922
682.638	0.0153616
682.716	0.0153783
682.794	0.0154411
682.872	0.0154446
682.950	0.0155124
683.029	0.0155791
683.107	0.0153872
683.185	0.0154124
683.263	0.0154752
683.341	0.0154517
683.419	0.0154744
683.497	0.0154185
683.575	0.0155231
683.654	0.0155370
683.732	0.0155241
683.810	0.0154408
683.888	0.0155189
683.966	0.0154993
684.044	0.0154588
684.122	0.0154211
684.200	0.0154301
684.279	0.0154644
684.357	0.0155542
684.435	0.0155751
684.513	0.0154794
684.591	0.0153986
684.669	0.0155223
684.747	0.0154468
684.825	0.0155079
684.904	0.0153666
684.982	0.0156383
685.060	0.0156345
685.138	0.0154486
685.216	0.0154294
685.294	0.0155496
685.372	0.0155184
685.450	0.0155046
685.529	0.0155450
685.607	0.0154057
685.685	0.0154721
685.763	0.0155621
685.841	0.0155698
685.919	0.0155572
685.997	0.0155379
686.075	0.0155229
686.154	0.0155410
686.232	0.0155991
686.310	0.0156058
686.388	0.0155960
686.466	0.0156227
686.544	0.0155463
686.622	0.0155300
686.700	0.0155686
686.779	0.0155993
686.857	0.0156163
686.935	0.0154928
687.013	0.0154311
687.091	0.0155580
687.169	0.0154510
687.247	0.0154662
687.325	0.0154926
687.404	0.0155019
687.482	0.0155891
687.560	0.0156124
687.638	0.0155322
687.716	0.0155256
687.794	0.0154713
687.872	0.0156494
687.950	0.0154807
688.029	0.0154831
688.107	0.0155229
688.185	0.0156139
688.263	0.0155532
688.341	0.0157265
688.419	0.0158081
688.497	0.0158169
688.575	0.0156433
688.654	0.0158332
688.732	0.0155542
688.810	0.0154306
688.888	0.0150674
688.966	0.0149435
689.044	0.0147803
689.122	0.0146469
689.200	0.0147038
689.279	0.0149359
689.357	0.0152851
689.435	0.0156292
689.513	0.0159389
689.591	0.0165353
689.669	0.0169585
689.747	0.0173682
689.825	0.0174631
689.904	0.0176171
689.982	0.0173342
690.060	0.0171927
690.138	0.0165689
690.216	0.0159358
690.294	0.0151912
690.372	0.0141562
690.450	0.0134114
690.529	0.0126981
690.607	0.0121626
690.685	0.0118702
690.763	0.0118085
690.841	0.0121313
690.919	0.0125375
690.997	0.0134509
691.075	0.0143034
691.154	0.0153590
691.232	0.0164997
691.310	0.0175884
691.388	0.0185415
691.466	0.0194985
691.544	0.0199976
691.622	0.0202453
691.700	0.0203682
691.779	0.0199863
691.857	0.0196432
691.935	0.0190588
692.013	0.0182033
692.091	0.0172275
692.169	0.0160250
692.247	0.0150561
692.325	0.0139462
692.404	0.0127581
692.482	0.0119773
692.560	0.0114395
692.638	0.0110412
692.716	0.0108452
692.794	0.0106599
692.872	0.0108196
692.950	0.0110530
693.029	0.0114694
693.107	0.0121863
693.185	0.0128229
693.263	0.0136485
693.341	0.0143066
693.419	0.0154128
693.497	0.0163490
693.575	0.0171407
693.654	0.0177256
693.732	0.0182220
693.810	0.0188720
693.888	0.0194321
693.966	0.0196347
694.044	0.0197862
694.122	0.0197304
694.200	0.0195087
694.279	0.0192957
694.357	0.0190052
694.435	0.0186603
694.513	0.0180712
694.591	0.0174377
694.669	0.0167981
694.747	0.0163723
694.825	0.0157577
694.904	0.0149922
694.982	0.0144405
695.060	0.0139413
695.138	0.0133622
695.216	0.0130389
695.294	0.0126231
695.372	0.0124058
695.450	0.0121545
695.529	0.0119881
695.607	0.0119141
695.685	0.0121207
695.763	0.0123425
695.841	0.0126458
695.919	0.0127013
695.997	0.0129654
696.075	0.0133054
696.154	0.0137679
696.232	0.0141664
696.310	0.0145401
696.388	0.0149141
696.466	0.0153873
696.544	0.0156724
696.622	0.0161485
696.700	0.0166975
696.779	0.0171755
696.857	0.0175613
696.935	0.0178841
697.013	0.0182809
697.091	0.0185429
697.169	0.0187418
697.247	0.0188364
697.325	0.0188350
697.404	0.0186134
697.482	0.0186930
697.560	0.0184594
697.638	0.0183691
697.716	0.0179034
697.794	0.0174934
697.872	0.0172377
697.950	0.0166695
698.029	0.0160503
698.107	0.0156521
698.185	0.0151859
698.263	0.0145862
698.341	0.0141193
698.419	0.0137107
698.497	0.0130978
698.575	0.0127242
698.654	0.0124202
698.732	0.0121867
698.810	0.0120559
698.888	0.0119511
698.966	0.0120333
699.044	0.0124025
699.122	0.0124959
699.200	0.0129245
699.279	0.0131966
699.357	0.0138715
699.435	0.0143963
699.513	0.0149186
699.591	0.0152703
699.669	0.0157502
699.747	0.0162618
699.825	0.0166412
699.904	0.0169843
699.982	0.0171797
700.060	0.0172614
700.138	0.0172694
700.216	0.0173144
700.294	0.0172807
700.372	0.0170802
700.450	0.0168826
700.529	0.0166986
700.607	0.0165518
700.685	0.0164246
700.763	0.0161718
700.841	0.0159247
700.919	0.0157980
700.997	0.0155921
701.075	0.0155612
701.154	0.0152657
701.232	0.0151435
701.310	0.0152020
701.388	0.0151457
701.466	0.0151006
701.544	0.0152361
701.622	0.0150992
701.700	0.0151248
701.779	0.0153658
701.857	0.0154388
701.935	0.0155537
702.013	0.0156562
702.091	0.0159287
702.169	0.0159188
702.247	0.0160596
702.325	0.0160344
702.404	0.0162793
702.482	0.0162907
702.560	0.0162312
702.638	0.0162283
702.716	0.0161568
702.794	0.0158603
702.872	0.0156437
702.950	0.0156905
703.029	0.0155030
703.107	0.0152990
703.185	0.0152714
703.263	0.0148959
703.341	0.0149332
703.419	0.0148114
703.497	0.0146758
703.575	0.0147923
703.654	0.0147657
703.732	0.0146610
703.810	0.0146925
703.888	0.0147740
703.966	0.0148739
704.044	0.0149374
704.122	0.0149274
704.200	0.0150343
704.279	0.0152581
704.357	0.0153551
704.435	0.0157140
704.513	0.0155779
704.591	0.0156925
704.669	0.0158247
704.747	0.0159344
704.825	0.0161632
704.904	0.0161971
704.982	0.0163284
705.060	0.0164925
705.138	0.0164095
705.216	0.0164729
705.294	0.0164082
705.372	0.0162244
705.450	0.0160592
705.529	0.0159397
705.607	0.0157474
705.685	0.0154819
705.763	0.0152071
705.841	0.0149556
705.919	0.0147935
705.997	0.0144987
706.075	0.0144633
706.154	0.0144576
706.232	0.0144843
706.310	0.0145947
706.388	0.0145865
706.466	0.0147961
706.544	0.0151552
706.622	0.0152935
706.700	0.0156054
706.779	0.0157504
706.857	0.0159928
706.935	0.0161387
707.013	0.0164598
707.091	0.0166558
707.169	0.0169012
707.247	0.0171046
707.325	0.0170174
707.404	0.0169596
707.482	0.0169377
707.560	0.0169225
707.638	0.0167551
707.716	0.0166598
707.794	0.0166338
707.872	0.0162917
707.950	0.0159467
708.029	0.0156073
708.107	0.0155019
708.185	0.0150275
708.263	0.0147752
708.341	0.0145647
708.419	0.0144238
708.497	0.0141822
708.575	0.0141911
708.654	0.0141216
708.732	0.0140091
708.810	0.0140964
708.888	0.0141905
708.966	0.0141406
709.044	0.0141674
709.122	0.0142329
709.200	0.0143691
709.279	0.0144807
709.357	0.0145315
709.435	0.0146893
709.513	0.0149545
709.591	0.0150899
709.669	0.0155022
709.747	0.0157142
709.825	0.0157906
709.904	0.0161057
709.982	0.0161928
710.060	0.0162865
710.138	0.0164817
710.216	0.0164307
710.294	0.0164046
710.372	0.0164365
710.450	0.0163598
710.529	0.0163113
710.607	0.0162920
710.685	0.0159736
710.763	0.0158434
710.841	0.0158498
710.919	0.0158318
710.997	0.0156336
711.075	0.0156570
711.154	0.0156586
711.232	0.0158102
711.310	0.0157533
711.388	0.0156844
711.466	0.0157825
711.544	0.0156416
711.622	0.0156652
711.700	0.0157307
711.779	0.0157580
711.857	0.0156734
711.935	0.0156252
712.013	0.0155981
712.091	0.0157455
712.169	0.0157017
712.247	0.0154968
712.325	0.0154729
712.404	0.0153482
712.482	0.0152858
712.560	0.0152579
712.638	0.0152356
712.716	0.0152617
712.794	0.0149566
712.872	0.0148864
712.950	0.0150121
713.029	0.0149967
713.107	0.0150721
713.185	0.0151463
713.263	0.0151637
713.341	0.0152773
713.419	0.0151768
713.497	0.0153520
713.575	0.0153228
713.654	0.0152940
713.732	0.0151753
713.810	0.0153712
713.888	0.0153751
713.966	0.0152734
714.044	0.0155174
714.122	0.0155811
714.200	0.0156916
714.279	0.0156794
714.357	0.0159560
714.435	0.0159650
714.513	0.0162349
714.591	0.0162162
714.669	0.0162343
714.747	0.0164179
714.825	0.0164267
714.904	0.0161730
714.982	0.0161884
715.060	0.0160629
715.138	0.0158408
715.216	0.0156927
715.294	0.0155946
715.372	0.0155124
715.450	0.0154314
715.529	0.0154236
715.607	0.0154445
715.685	0.0154466
715.763	0.0155682
715.841	0.0155093
715.919	0.0153868
715.997	0.0153485
716.075	0.0154276
716.154	0.0153801
716.232	0.0151293
716.310	0.0150319
716.388	0.0147878
716.466	0.0146210
716.544	0.0146148
716.622	0.0145569
716.700	0.0143710
716.779	0.0144604
716.857	0.0143863
716.935	0.0145424
717.013	0.0147130
717.091	0.0149038
717.169	0.0151518
717.247	0.0152969
717.325	0.0154906
717.404	0.0157349
717.482	0.0159320
717.560	0.0161278
717.638	0.0161398
717.716	0.0162370
717.794	0.0164453
717.872	0.0164161
717.950	0.0163919
718.029	0.0164047
718.107	0.0162438
718.185	0.0162424
718.263	0.0162380
718.341	0.0161924
718.419	0.0160140
718.497	0.0159612
718.575	0.0160846
718.654	0.0160892
718.732	0.0159947
718.810	0.0159750
718.888	0.0159664
718.966	0.0159313
719.044	0.0158266
719.122	0.0158134
719.200	0.0157020
719.279	0.0156558
719.357	0.0156359
719.435	0.0153767
719.513	0.0154531
719.591	0.0153395
719.669	0.0153051
719.747	0.0152579
719.825	0.0152865
719.904	0.0150546
719.982	0.0150756
720.060	0.0151112
720.138	0.0150703
720.216	0.0151693
720.294	0.0151478
720.372	0.0152451
720.450	0.0152866
720.529	0.0150974
720.607	0.0152962
720.685	0.0151949
720.763	0.0153613
720.841	0.0154947
720.919	0.0155875
720.997	0.0156710
721.075	0.0156001
721.154	0.0158262
721.232	0.0159863
721.310	0.0160487
721.388	0.0158989
721.466	0.0159472
721.544	0.0159074
721.622	0.0158270
721.700	0.0157362
721.779	0.0156970
721.857	0.0153871
721.935	0.0155581
722.013	0.0153487
722.091	0.0152184
722.169	0.0151004
722.247	0.0151100
722.325	0.0150481
722.404	0.0148055
722.482	0.0147894
722.560	0.0146337
722.638	0.0146818
722.716	0.0148233
722.794	0.0149641
722.872	0.0146897
722.950	0.0147749
723.029	0.0148386
723.107	0.0148316
723.185	0.0149480
723.263	0.0150178
723.341	0.0153234
723.419	0.0153244
723.497	0.0154666
723.575	0.0155602
723.654	0.0157136
723.732	0.0157518
723.810	0.0156630
723.888	0.0158476
723.966	0.0158231
724.044	0.0158775
724.122	0.0158949
724.200	0.0159295
724.279	0.0157262
724.357	0.0159017
724.435	0.0159298
724.513	0.0160052
724.591	0.0160017
724.669	0.0162300
724.747	0.0162823
724.825	0.0162760
724.904	0.0163155
724.982	0.0164204
725.060	0.0163599
725.138	0.0163016
725.216	0.0163802
725.294	0.0162169
725.372	0.0161025
725.450	0.0160087
725.529	0.0159537
725.607	0.0157616
725.685	0.0156355
725.763	0.0154733
725.841	0.0153570
725.919	0.0152912
725.997	0.0153558
726.075	0.0152747
726.154	0.0152450
726.232	0.0150832
726.310	0.0149852
726.388	0.0151292
726.466	0.0152457
726.544	0.0153020
726.622	0.0152480
726.700	0.0152833
726.779	0.0153484
726.857	0.0154892
726.935	0.0155957
727.013	0.0155538
727.091	0.0156017
727.169	0.0156339
727.247	0.0155875
727.325	0.0154455
727.404	0.0154379
727.482	0.0154383
727.560	0.0154648
727.638	0.0154069
727.716	0.0150349
727.794	0.0151653
727.872	0.0152065
727.950	0.0150437
728.029	0.0149905
728.107	0.0148828
728.185	0.0149589
728.263	0.0151286
728.341	0.0152388
728.419	0.0151072
728.497	0.0152277
728.575	0.0152989
728.654	0.0152568
728.732	0.0152763
728.810	0.0151273
728.888	0.0152147
728.966	0.0152148
729.044	0.0153646
729.122	0.0152197
729.200	0.0153790
729.279	0.0155943
729.357	0.0155671
729.435	0.0156496
729.513	0.0157279
729.591	0.0156287
729.669	0.0158780
729.747	0.0159258
729.825	0.0157539
729.904	0.0159698
729.982	0.0160962
730.060	0.0159743
730.138	0.0160258
730.216	0.0159200
730.294	0.0160361
730.372	0.0158846
730.450	0.0159507
730.529	0.0160088
730.607	0.0159511
730.685	0.0160568
730.763	0.0160222
730.841	0.0158643
730.919	0.0157495
730.997	0.0158365
731.075	0.0158487
731.154	0.0157625
731.232	0.0156488
731.310	0.0157455
731.388	0.0155267
731.466	0.0155453
731.544	0.0156630
731.622	0.0156532
731.700	0.0155781
731.779	0.0156027
731.857	0.0156975
731.935	0.0156180
732.013	0.0154962
732.091	0.0155830
732.169	0.0155137
732.247	0.0156571
732.325	0.0154697
732.404	0.0153092
732.482	0.0154551
732.560	0.0153871
732.638	0.0152295
732.716	0.0152126
732.794	0.0150868
732.872	0.0148917
732.950	0.0149339
733.029	0.0150594
733.107	0.0150013
733.185	0.0151492
733.263	0.0150007
733.341	0.0148854
733.419	0.0150330
733.497	0.0151720
733.575	0.0151608
733.654	0.0152745
733.732	0.0154465
733.810	0.0153458
733.888	0.0154047
733.966	0.0153423
734.044	0.0153516
734.122	0.0154135
734.200	0.0154001
734.279	0.0154137
734.357	0.0153281
734.435	0.0153693
734.513	0.0153658
734.591	0.0154283
734.669	0.0153583
734.747	0.0153879
734.825	0.0154664
734.904	0.0153369
734.982	0.0154115
735.060	0.0154645
735.138	0.0153637
735.216	0.0154980
735.294	0.0155333
735.372	0.0155090
735.450	0.0156993
735.529	0.0157906
735.607	0.0156773
735.685	0.0157980
735.763	0.0159008
735.841	0.0158381
735.919	0.0157114
735.997	0.0157810
736.075	0.0158920
736.154	0.0157681
736.232	0.0158061
736.310	0.0156009
736.388	0.0156136
736.466	0.0154178
736.544	0.0154635
736.622	0.0154953
736.700	0.0153951
736.779	0.0154449
736.857	0.0154891
736.935	0.0154750
737.013	0.0154687
737.091	0.0154545
737.169	0.0155989
737.247	0.0155773
737.325	0.0155010
737.404	0.0156730
737.482	0.0156556
737.560	0.0155582
737.638	0.0157518
737.716	0.0156968
737.794	0.0157147
737.872	0.0157270
737.950	0.0155912
738.029	0.0156149
738.107	0.0158105
738.185	0.0157130
738.263	0.0157800
738.341	0.0157018
738.419	0.0156609
738.497	0.0156715
738.575	0.0155830
738.654	0.0154720
738.732	0.0153878
738.810	0.0153772
738.888	0.0153206
738.966	0.0153157
739.044	0.0151585
739.122	0.0150927
739.200	0.0150670
739.279	0.0151848
739.357	0.0152763
739.435	0.0152582
739.513	0.0151720
739.591	0.0152630
739.669	0.0153407
739.747	0.0156528
739.825	0.0156091
739.904	0.0155466
739.982	0.0156158
740.060	0.0155505
740.138	0.0157940
740.216	0.0157050
740.294	0.0157445
740.372	0.0156638
740.450	0.0157463
740.529	0.0157747
740.607	0.0155900
740.685	0.0156847
740.763	0.0157782
740.841	0.0157806
740.919	0.0155679
740.997	0.0155383
741.075	0.0155742
741.154	0.0156268
741.232	0.0155201
741.310	0.0153713
741.388	0.0153778
741.466	0.0152045
741.544	0.0151942
741.622	0.0151997
741.700	0.0150311
741.779	0.0149698
741.857	0.0151868
741.935	0.0150262
742.013	0.0151255
742.091	0.0152363
742.169	0.0151810
742.247	0.0153227
742.325	0.0155130
742.404	0.0155209
742.482	0.0155075
742.560	0.0154429
742.638	0.0153031
742.716	0.0154938
742.794	0.0155458
742.872	0.0154594
742.950	0.0153857
743.029	0.0153731
743.107	0.0154768
743.185	0.0154440
743.263	0.0154957
743.341	0.0153724
743.419	0.0154984
743.497	0.0153741
743.575	0.0154478
743.654	0.0154944
743.732	0.0156566
743.810	0.0156203
743.888	0.0156303
743.966	0.0156761
744.044	0.0158219
744.122	0.0159928
744.200	0.0159506
744.279	0.0159829
744.357	0.0159851
744.435	0.0160673
744.513	0.0158636
744.591	0.0158745
744.669	0.0158926
744.747	0.0158307
744.825	0.0158099
744.904	0.0156606
744.982	0.0154993
745.060	0.0152830
745.138	0.0153386
745.216	0.0153626
745.294	0.0152158
745.372	0.0150911
745.450	0.0151826
745.529	0.0149667
745.607	0.0150204
745.685	0.0150069
745.763	0.0152491
745.841	0.0152428
745.919	0.0153120
745.997	0.0154675
746.075	0.0153219
746.154	0.0153648
746.232	0.0154962
746.310	0.0155853
746.388	0.0156297
746.466	0.0156068
746.544	0.0157030
746.622	0.0155408
746.700	0.0155206
746.779	0.0157319
746.857	0.0156478
746.935	0.0155318
747.013	0.0156551
747.091	0.0157274
747.169	0.0155841
747.247	0.0155759
747.325	0.0157298
747.404	0.0158441
747.482	0.0157480
747.560	0.0156019
747.638	0.0155855
747.716	0.0154226
747.794	0.0154200
747.872	0.0155817
747.950	0.0154733
748.029	0.0154984
748.107	0.0153593
748.185	0.0152575
748.263	0.0150820
748.341	0.0152008
748.419	0.0152920
748.497	0.0151101
748.575	0.0150845
748.654	0.0151283
748.732	0.0152801
748.810	0.0151897
748.888	0.0152867
748.966	0.0154808
749.044	0.0153683
749.122	0.0154610
749.200	0.0154467
749.279	0.0154391
749.357	0.0155910
749.435	0.0156058
749.513	0.0156036
749.591	0.0156718
749.669	0.0156681
749.747	0.0156737
749.825	0.0155403
749.904	0.0158012
749.982	0.0155842
750.060	0.0156191
750.138	0.0157496
750.216	0.0157605
750.294	0.0155146
750.372	0.0155176
750.450	0.0155731
750.529	0.0154070
750.607	0.0153323
750.685	0.0153616
750.763	0.0153217
750.841	0.0151244
750.919	0.0152709
750.997	0.0151727
751.075	0.0152358
751.154	0.0153010
751.232	0.0153170
751.310	0.0154393
751.388	0.0155045
751.466	0.0156760
751.544	0.0156447
751.622	0.0157867
751.700	0.0159303
751.779	0.0159406
751.857	0.0159906
751.935	0.0159097
752.013	0.0159126
752.091	0.0158724
752.169	0.0159949
752.247	0.0157629
752.325	0.0157821
752.404	0.0156958
752.482	0.0157806
752.560	0.0156123
752.638	0.0155440
752.716	0.0155412
752.794	0.0154787
752.872	0.0154353
752.950	0.0154551
753.029	0.0153489
753.107	0.0154248
753.185	0.0154173
753.263	0.0151975
753.341	0.0153555
753.419	0.0154718
753.497	0.0154240
753.575	0.0156017
753.654	0.0155984
753.732	0.0157566
753.810	0.0156590
753.888	0.0157931
753.966	0.0157277
754.044	0.0156062
754.122	0.0157552
754.200	0.0159213
754.279	0.0157903
754.357	0.0156934
754.435	0.0156802
754.513	0.0155219
754.591	0.0156029
754.669	0.0155939
754.747	0.0156357
754.825	0.0156586
754.904	0.0155112
754.982	0.0154587
755.060	0.0155573
755.138	0.0155389
755.216	0.0153999
755.294	0.0155842
755.372	0.0155344
755.450	0.0155544
755.529	0.0154010
755.607	0.0155555
755.685	0.0154102
755.763	0.0153683
755.841	0.0154861
755.919	0.0154697
755.997	0.0152789
756.075	0.0152882
756.154	0.0152529
756.232	0.0151907
756.310	0.0151291
756.388	0.0151667
756.466	0.0151416
756.544	0.0152744
756.622	0.0153559
756.700	0.0152055
756.779	0.0152758
756.857	0.0151806
756.935	0.0153028
757.013	0.0154268
757.091	0.0153779
757.169	0.0154949
757.247	0.0153821
757.325	0.0154665
757.404	0.0156145
757.482	0.0156957
757.560	0.0154864
757.638	0.0156116
757.716	0.0155834
757.794	0.0156187
757.872	0.0155346
757.950	0.0156991
758.029	0.0154382
758.107	0.0155560
758.185	0.0155297
758.263	0.0153465
758.341	0.0154453
758.419	0.0155346
758.497	0.0154469
758.575	0.0155094
758.654	0.0154692
758.732	0.0153445
758.810	0.0155272
758.888	0.0153914
758.966	0.0154623
759.044	0.0154004
759.122	0.0155754
759.200	0.0155924
759.279	0.0153966
759.357	0.0154235
759.435	0.0156087
759.513	0.0155460
759.591	0.0156738
759.669	0.0156667
759.747	0.0156118
759.825	0.0156974
759.904	0.0156623
759.982	0.0158118
760.060	0.0158231
760.138	0.0158512
760.216	0.0159779
760.294	0.0159747
760.372	0.0160678
760.450	0.0158663
760.529	0.0160643
760.607	0.0159587
760.685	0.0159502
760.763	0.0160421
760.841	0.0159626
760.919	0.0159454
760.997	0.0158640
761.075	0.0156054
761.154	0.0157644
761.232	0.0155470
761.310	0.0154855
761.388	0.0154459
761.466	0.0153345
761.544	0.0152522
761.622	0.0151999
761.700	0.0153873
761.779	0.0151839
761.857	0.0151421
761.935	0.0149583
762.013	0.0152000
762.091	0.0152539
762.169	0.0152368
762.247	0.0151955
762.325	0.0151133
762.404	0.0151210
762.482	0.0151095
762.560	0.0152032
762.638	0.0149426
762.716	0.0151414
762.794	0.0151134
762.872	0.0152191
762.950	0.0151170
763.029	0.0153307
763.107	0.0152570
763.185	0.0153040
763.263	0.0154713
763.341	0.0154777
763.419	0.0155536
763.497	0.0155314
763.575	0.0156170
763.654	0.0156676
763.732	0.0156284
763.810	0.0157755
763.888	0.0158173
763.966	0.0157220
764.044	0.0158366
764.122	0.0158934
764.200	0.0158725
764.279	0.0158698
764.357	0.0159149
764.435	0.0157668
764.513	0.0157852
764.591	0.0158440
764.669	0.0157380
764.747	0.0155669
764.825	0.0155449
764.904	0.0155212
764.982	0.0156501
765.060	0.0154633
765.138	0.0155164
765.216	0.0155544
765.294	0.0155362
765.372	0.0156017
765.450	0.0154646
765.529	0.0154269
765.607	0.0154764
765.685	0.0155098
765.763	0.0155533
765.841	0.0154818
765.919	0.0154293
765.997	0.0154665
766.075	0.0153025
766.154	0.0153489
766.232	0.0154603
766.310	0.0154177
766.388	0.0154765
766.466	0.0153661
766.544	0.0153468
766.622	0.0154221
766.700	0.0153564
766.779	0.0153011
766.857	0.0153114
766.935	0.0153229
767.013	0.0152767
767.091	0.0152958
767.169	0.0153382
767.247	0.0155091
767.325	0.0154938
767.404	0.0155355
767.482	0.0156104
767.560	0.0155090
767.638	0.0156343
767.716	0.0157103
767.794	0.0156615
767.872	0.0156851
767.950	0.0157216
768.029	0.0157651
768.107	0.0156511
768.185	0.0156594
768.263	0.0156625
768.341	0.0156390
768.419	0.0156034
768.497	0.0156808
768.575	0.0155036
768.654	0.0155102
768.732	0.0154671
768.810	0.0156201
768.888	0.0155978
768.966	0.0157101
769.044	0.0156362
769.122	0.0156893
769.200	0.0156154
769.279	0.0156308
769.357	0.0155117
769.435	0.0155970
769.513	0.0156679
769.591	0.0156243
769.669	0.0155965
769.747	0.0155881
769.825	0.0154150
769.904	0.0154808
769.982	0.0154097
770.060	0.0155373
770.138	0.0155742
770.216	0.0155531
770.294	0.0155279
770.372	0.0155436
770.450	0.0154776
770.529	0.0154939
770.607	0.0156771
770.685	0.0155959
770.763	0.0156503
770.841	0.0157323
770.919	0.0155743
770.997	0.0156144
771.075	0.0157500
771.154	0.0156306
771.232	0.0157111
771.310	0.0154363
771.388	0.0155534
771.466	0.0155211
771.544	0.0156841
771.622	0.0156447
771.700	0.0154581
771.779	0.0155055
771.857	0.0154640
771.935	0.0154803
772.013	0.0154102
772.091	0.0153899
772.169	0.0155126
772.247	0.0152592
772.325	0.0153149
772.404	0.0153783
772.482	0.0153594
772.560	0.0153649
772.638	0.0153535
772.716	0.0153027
772.794	0.0152479
772.872	0.0152437
772.950	0.0151900
773.029	0.0152345
773.107	0.0152572
773.185	0.0153281
773.263	0.0154951
773.341	0.0156238
773.419	0.0154962
773.497	0.0154102
773.575	0.0155304
773.654	0.0156294
773.732	0.0157017
773.810	0.0157034
773.888	0.0157751
773.966	0.0156599
774.044	0.0158405
774.122	0.0158118
774.200	0.0159029
774.279	0.0158681
774.357	0.0160452
774.435	0.0159302
774.513	0.0160126
774.591	0.0158151
774.669	0.0158585
774.747	0.0159618
774.825	0.0158627
774.904	0.0157392
774.982	0.0157701
775.060	0.0157243
775.138	0.0156219
775.216	0.0155766
775.294	0.0155535
775.372	0.0155480
775.450	0.0153853
775.529	0.0154456
775.607	0.0154651
775.685	0.0155209
775.763	0.0154832
775.841	0.0154578
775.919	0.0155084
775.997	0.0156516
776.075	0.0155450
776.154	0.0155286
776.232	0.0156623
776.310	0.0157244
776.388	0.0156941
776.466	0.0157344
776.544	0.0157567
776.622	0.0158321
776.700	0.0157617
776.779	0.0158275
776.857	0.0158294
776.935	0.0155884
777.013	0.0156259
777.091	0.0156642
777.169	0.0155795
777.247	0.0155231
777.325	0.0155455
777.404	0.0154451
777.482	0.0154546
777.560	0.0154176
777.638	0.0154531
777.716	0.0154846
777.794	0.0153242
777.872	0.0154463
777.950	0.0153361
778.029	0.0153757
778.107	0.0153606
778.185	0.0154423
778.263	0.0151816
778.341	0.0152698
778.419	0.0154423
778.497	0.0153193
778.575	0.0154984
778.654	0.0154395
778.732	0.0154465
778.810	0.0155427
778.888	0.0154948
778.966	0.0155232
779.044	0.0156615
779.122	0.0155685
779.200	0.0156085
779.279	0.0156940
779.357	0.0156599
779.435	0.0157055
779.513	0.0155022
779.591	0.0155656
779.669	0.0155770
779.747	0.0156126
779.825	0.0156225
779.904	0.0156191
779.982	0.0155431
780.060	0.0155094
780.138	0.0155349
780.216	0.0153569
780.294	0.0155769
780.372	0.0153889
780.450	0.0152853
780.529	0.0155129
780.607	0.0153333
780.685	0.0153691
780.763	0.0153587
780.841	0.0154037
780.919	0.0154787
780.997	0.0155141
781.075	0.0155017
781.154	0.0154042
781.232	0.0155299
781.310	0.0156984
781.388	0.0155988
781.466	0.0155096
781.544	0.0155917
781.622	0.0156229
781.700	0.0156364
781.779	0.0156904
781.857	0.0156628
781.935	0.0157433
782.013	0.0157986
782.091	0.0156811
782.169	0.0156303
782.247	0.0157462
782.325	0.0157099
782.404	0.0156832
782.482	0.0157314
782.560	0.0159225
782.638	0.0158106
782.716	0.0155761
782.794	0.0157832
782.872	0.0157152
782.950	0.0155890
783.029	0.0155590
783.107	0.0154004
783.185	0.0154057
783.263	0.0153948
783.341	0.0154772
783.419	0.0154482
783.497	0.0152921
783.575	0.0153311
783.654	0.0153806
783.732	0.0152348
783.810	0.0154095
783.888	0.0153368
783.966	0.0153486
784.044	0.0154459
784.122	0.0155324
784.200	0.0154583
784.279	0.0155207
784.357	0.0156519
784.435	0.0158085
784.513	0.0157601
784.591	0.0156828
784.669	0.0156638
784.747	0.0158864
784.825	0.0157861
784.904	0.0156126
784.982	0.0156990
785.060	0.0157353
785.138	0.0156385
785.216	0.0154680
785.294	0.0155691
785.372	0.0154553
785.450	0.0152819
785.529	0.0154117
785.607	0.0154079
785.685	0.0154183
785.763	0.0152492
785.841	0.0153056
785.919	0.0154531
785.997	0.0153753
786.075	0.0155627
786.154	0.0154749
786.232	0.0155440
786.310	0.0155070
786.388	0.0156594
786.466	0.0157253
786.544	0.0156578
786.622	0.0155634
786.700	0.0156162
786.779	0.0155482
786.857	0.0155338
786.935	0.0154987
787.013	0.0155867
787.091	0.0155634
787.169	0.0155045
787.247	0.0155282
787.325	0.0156488
787.404	0.0155879
787.482	0.0157083
787.560	0.0157043
787.638	0.0157275
787.716	0.0156960
787.794	0.0157764
787.872	0.0157609
787.950	0.0157275
788.029	0.0158125
788.107	0.0157842
788.185	0.0156824
788.263	0.0157499
788.341	0.0155846
788.419	0.0155309
788.497	0.0155976
788.575	0.0155219
788.654	0.0153516
788.732	0.0155070
788.810	0.0153221
788.888	0.0153178
788.966	0.0150724
789.044	0.0151090
789.122	0.0151458
789.200	0.0150253
789.279	0.0150098
789.357	0.0151492
789.435	0.0151164
789.513	0.0150550
789.591	0.0149516
789.669	0.0152232
789.747	0.0152148
789.825	0.0151192
789.904	0.0152448
789.982	0.0154002
790.060	0.0154788
790.138	0.0156294
790.216	0.0155701
790.294	0.0155848
790.372	0.0157248
790.450	0.0158982
790.529	0.0158941
790.607	0.0158406
790.685	0.0159949
790.763	0.0160711
790.841	0.0160339
790.919	0.0160860
790.997	0.0161627
791.075	0.0159613
791.154	0.0159630
791.232	0.0159717
791.310	0.0159111
791.388	0.0158939
791.466	0.0157124
791.544	0.0156849
791.622	0.0155331
791.700	0.0155138
791.779	0.0154435
791.857	0.0154077
791.935	0.0153222
792.013	0.0150285
792.091	0.0152166
792.169	0.0150815
792.247	0.0151234
792.325	0.0152504
792.404	0.0151746
792.482	0.0152009
792.560	0.0153482
792.638	0.0153866
792.716	0.0153110
792.794	0.0155365
792.872	0.0155556
792.950	0.0154886
793.029	0.0155927
793.107	0.0156075
793.185	0.0156625
793.263	0.0157951
793.341	0.0157144
793.419	0.0157542
793.497	0.0157771
793.575	0.0156651
793.654	0.0157648
793.732	0.0158962
793.810	0.0156866
793.888	0.0157214
793.966	0.0156699
794.044	0.0156353
794.122	0.0156192
794.200	0.0155918
794.279	0.0155241
794.357	0.0156163
794.435	0.0155321
794.513	0.0155017
794.591	0.0154852
794.669	0.0154726
794.747	0.0154389
794.825	0.0154712
794.904	0.0154034
794.982	0.0154225
795.060	0.0154104
795.138	0.0153491
795.216	0.0154501
795.294	0.0154460
795.372	0.0152824
795.450	0.0151169
795.529	0.0152289
795.607	0.0151619
795.685	0.0150075
795.763	0.0150400
795.841	0.0152132
795.919	0.0151747
795.997	0.0151114
796.075	0.0152172
796.154	0.0152469
796.232	0.0152731
796.310	0.0152123
796.388	0.0152580
796.466	0.0154844
796.544	0.0153952
796.622	0.0155286
796.700	0.0156126
796.779	0.0157794
796.857	0.0157633
796.935	0.0157746
797.013	0.0158239
797.091	0.0158503
797.169	0.0159421
797.247	0.0159749
797.325	0.0158988
797.404	0.0159555
797.482	0.0159539
797.560	0.0158430
797.638	0.0158863
797.716	0.0158104
797.794	0.0158936
797.872	0.0158240
797.950	0.0156683
798.029	0.0156749
798.107	0.0155894
798.185	0.0156611
798.263	0.0155973
798.341	0.0154687
798.419	0.0153274
798.497	0.0154366
798.575	0.0153221
798.654	0.0154897
798.732	0.0153445
798.810	0.0153032
798.888	0.0154240
798.966	0.0155376
799.044	0.0156308
799.122	0.0154241
799.200	0.0155379
799.279	0.0154824
799.357	0.0156140
799.435	0.0155395
799.513	0.0155424
799.591	0.0156431
799.669	0.0156041
799.747	0.0156900
799.825	0.0156278
799.904	0.0156763
799.982	0.0157133
800.060	0.0155868
800.138	0.0155859
800.216	0.0154313
800.294	0.0153995
800.372	0.0154779
800.450	0.0154527
800.529	0.0154231
800.607	0.0152807
800.685	0.0153852
800.763	0.0151990
800.841	0.0153033
800.919	0.0152905
800.997	0.0153485
801.075	0.0153139
801.154	0.0154530
801.232	0.0152996
801.310	0.0153835
801.388	0.0154297
801.466	0.0154745
801.544	0.0153394
801.622	0.0155573
801.700	0.0155951
801.779	0.0155115
801.857	0.0157158
801.935	0.0156479
802.013	0.0156641
802.091	0.0158022
802.169	0.0156091
802.247	0.0157252
802.325	0.0156843
802.404	0.0155980
802.482	0.0157967
802.560	0.0155450
802.638	0.0154628
802.716	0.0156295
802.794	0.0155831
802.872	0.0155769
802.950	0.0155038
803.029	0.0153597
803.107	0.0155210
803.185	0.0156073
803.263	0.0156190
803.341	0.0155431
803.419	0.0155627
803.497	0.0155083
803.575	0.0156531
803.654	0.0156867
803.732	0.0157175
803.810	0.0156950
803.888	0.0156187
803.966	0.0156947
804.044	0.0157692
804.122	0.0158128
804.200	0.0155935
804.279	0.0155266
804.357	0.0155460
804.435	0.0154579
804.513	0.0153752
804.591	0.0154784
804.669	0.0154168
804.747	0.0153432
804.825	0.0152674
804.904	0.0153767
804.982	0.0151611
805.060	0.0152385
805.138	0.0152676
805.216	0.0152847
805.294	0.0153321
805.372	0.0153162
805.450	0.0153753
805.529	0.0153908
805.607	0.0155383
805.685	0.0155251
805.763	0.0156232
805.841	0.0156220
805.919	0.0155035
805.997	0.0157790
806.075	0.0156644
806.154	0.0158360
806.232	0.0156471
806.310	0.0157801
806.388	0.0157041
806.466	0.0156019
806.544	0.0157992
806.622	0.0157075
806.700	0.0156426
806.779	0.0157109
806.857	0.0157054
806.935	0.0155885
807.013	0.0155560
807.091	0.0155030
807.169	0.0154401
807.247	0.0153458
807.325	0.0153351
807.404	0.0154235
807.482	0.0153343
807.560	0.0151886
807.638	0.0151819
807.716	0.0152832
807.794	0.0153223
807.872	0.0152655
807.950	0.0153787
808.029	0.0153712
808.107	0.0155120
808.185	0.0154203
808.263	0.0155128
808.341	0.0156837
808.419	0.0156658
808.497	0.0156561
808.575	0.0157506
808.654	0.0157039
808.732	0.0157590
808.810	0.0158219
808.888	0.0157114
808.966	0.0156483
809.044	0.0156934
809.122	0.0155882
809.200	0.0156339
809.279	0.0155846
809.357	0.0155702
809.435	0.0154758
809.513	0.0154075
809.591	0.0154308
809.669	0.0153401
809.747	0.0153472
809.825	0.0153416
809.904	0.0153440
809.982	0.0153320
810.060	0.0153379
810.138	0.0154150
810.216	0.0153202
810.294	0.0153123
810.372	0.0154946
810.450	0.0154533
810.529	0.0155855
810.607	0.0155614
810.685	0.0154924
810.763	0.0155519
810.841	0.0156461
810.919	0.0155856
810.997	0.0157426
811.075	0.0155944
811.154	0.0156409
811.232	0.0156705
811.310	0.0156214
811.388	0.0157641
811.466	0.0157508
811.544	0.0157433
811.622	0.0156760
811.700	0.0156651
811.779	0.0156587
811.857	0.0156355
811.935	0.0155574
812.013	0.0155765
812.091	0.0155094
812.169	0.0155844
812.247	0.0155522
812.325	0.0153659
812.404	0.0153818
812.482	0.0154003
812.560	0.0153973
812.638	0.0155063
812.716	0.0154594
812.794	0.0153149
812.872	0.0153790
812.950	0.0152593
813.029	0.0153686
813.107	0.0153615
813.185	0.0154119
813.263	0.0154515
813.341	0.0153116
813.419	0.0152013
813.497	0.0152596
813.575	0.0154636
813.654	0.0153677
813.732	0.0154234
813.810	0.0153171
813.888	0.0155740
813.966	0.0155118
814.044	0.0153688
814.122	0.0153973
814.200	0.0155961
814.279	0.0155638
814.357	0.0157130
814.435	0.0157414
814.513	0.0158109
814.591	0.0157172
814.669	0.0158425
814.747	0.0158051
814.825	0.0158342
814.904	0.0157817
814.982	0.0159251
815.060	0.0158321
815.138	0.0156300
815.216	0.0156674
815.294	0.0154807
815.372	0.0155074
815.450	0.0156016
815.529	0.0154510
815.607	0.0154689
815.685	0.0154418
815.763	0.0154479
815.841	0.0154576
815.919	0.0152618
815.997	0.0154507
816.075	0.0154076
816.154	0.0154339
816.232	0.0153878
816.310	0.0154238
816.388	0.0155488
816.466	0.0154996
816.544	0.0155002
816.622	0.0156062
816.700	0.0155177
816.779	0.0155252
816.857	0.0156219
816.935	0.0157970
817.013	0.0157654
817.091	0.0155688
817.169	0.0158556
817.247	0.0157441
817.325	0.0157690
817.404	0.0156601
817.482	0.0158168
817.560	0.0157453
817.638	0.0156756
817.716	0.0156528
817.794	0.0156258
817.872	0.0154948
817.950	0.0154504
818.029	0.0153735
818.107	0.0152349
818.185	0.0152052
818.263	0.0152259
818.341	0.0151670
818.419	0.0149818
818.497	0.0149619
818.575	0.0151665
818.654	0.0151315
818.732	0.0151977
818.810	0.0152036
818.888	0.0151450
818.966	0.0153027
819.044	0.0151926
819.122	0.0152908
819.200	0.0152099
819.279	0.0153707
819.357	0.0155213
819.435	0.0154839
819.513	0.0155004
819.591	0.0155901
819.669	0.0156424
819.747	0.0155404
819.825	0.0157103
819.904	0.0156642
819.982	0.0157708
820.060	0.0157431
820.138	0.0156045
820.216	0.0157011
820.294	0.0156541
820.372	0.0156372
820.450	0.0156345
820.529	0.0155941
820.607	0.0157100
820.685	0.0156300
820.763	0.0155876
820.841	0.0156459
820.919	0.0154853
820.997	0.0157762
821.075	0.0157102
821.154	0.0157597
821.232	0.0158054
821.310	0.0158321
821.388	0.0158247
821.466	0.0158866
821.544	0.0157968
821.622	0.0159472
821.700	0.0157900
821.779	0.0159081
821.857	0.0159409
821.935	0.0158877
822.013	0.0158691
822.091	0.0158513
822.169	0.0157553
822.247	0.0156622
822.325	0.0155876
822.404	0.0156840
822.482	0.0156513
822.560	0.0154369
822.638	0.0154716
822.716	0.0153807
822.794	0.0153526
822.872	0.0152615
822.950	0.0152398
823.029	0.0151741
823.107	0.0151582
823.185	0.0150867
823.263	0.0151112
823.341	0.0152027
823.419	0.0151862
823.497	0.0150599
823.575	0.0151403
823.654	0.0150690
823.732	0.0151885
823.810	0.0153030
823.888	0.0153117
823.966	0.0151942
824.044	0.0152821
824.122	0.0152776
824.200	0.0151208
824.279	0.0153585
824.357	0.0154943
824.435	0.0154343
824.513	0.0153279
824.591	0.0154302
824.669	0.0154963
824.747	0.0155850
824.825	0.0155008
824.904	0.0156261
824.982	0.0156741
825.060	0.0155499
825.138	0.0154949
825.216	0.0156804
825.294	0.0156936
825.372	0.0157904
825.450	0.0157189
825.529	0.0156127
825.607	0.0155011
825.685	0.0156201
825.763	0.0155969
825.841	0.0156111
825.919	0.0156534
825.997	0.0156819
826.075	0.0157442
826.154	0.0156755
826.232	0.0155996
826.310	0.0156697
826.388	0.0155221
826.466	0.0156009
826.544	0.0156384
826.622	0.0157974
826.700	0.0157518
826.779	0.0157156
826.857	0.0157851
826.935	0.0158275
827.013	0.0158981
827.091	0.0157985
827.169	0.0157455
827.247	0.0159566
827.325	0.0159267
827.404	0.0158716
827.482	0.0158455
827.560	0.0158459
827.638	0.0157310
827.716	0.0156953
827.794	0.0158107
827.872	0.0155827
827.950	0.0154334
828.029	0.0155757
828.107	0.0154362
828.185	0.0153733
828.263	0.0153613
828.341	0.0152301
828.419	0.0150874
828.497	0.0149567
828.575	0.0150321
828.654	0.0150520
828.732	0.0150323
828.810	0.0150217
828.888	0.0148302
828.966	0.0147792
829.044	0.0148127
829.122	0.0148811
829.200	0.0149725
829.279	0.0148650
829.357	0.0150045
829.435	0.0150796
829.513	0.0151282
829.591	0.0152383
829.669	0.0153201
829.747	0.0153712
829.825	0.0155770
829.904	0.0156171
829.982	0.0158385
830.060	0.0158255
830.138	0.0157361
830.216	0.0158321
830.294	0.0159022
830.372	0.0160365
830.450	0.0159562
830.529	0.0160664
830.607	0.0160595
830.685	0.0160013
830.763	0.0161542
830.841	0.0161998
830.919	0.0161534
830.997	0.0159591
831.075	0.0160341
831.154	0.0160030
831.232	0.0160275
831.310	0.0159389
831.388	0.0159499
831.466	0.0156881
831.544	0.0156231
831.622	0.0155299
831.700	0.0156419
831.779	0.0155018
831.857	0.0155291
831.935	0.0154955
832.013	0.0155039
832.091	0.0153285
832.169	0.0153709
832.247	0.0153756
832.325	0.0153443
832.404	0.0152277
832.482	0.0152974
832.560	0.0151361
832.638	0.0151471
832.716	0.0152819
832.794	0.0152281
832.872	0.0151946
832.950	0.0151148
833.029	0.0152518
833.107	0.0151198
833.185	0.0152312
833.263	0.0149907
833.341	0.0151134
833.419	0.0151361
833.497	0.0151451
833.575	0.0151257
833.654	0.0151614
833.732	0.0151588
833.810	0.0152924
833.888	0.0152551
833.966	0.0153873
834.044	0.0155186
834.122	0.0153761
834.200	0.0154967
834.279	0.0155813
834.357	0.0156380
834.435	0.0155428
834.513	0.0158283
834.591	0.0157610
834.669	0.0157382
834.747	0.0159412
834.825	0.0158585
834.904	0.0159060
834.982	0.0158370
835.060	0.0159080
835.138	0.0159579
835.216	0.0159522
835.294	0.0159442
835.372	0.0159354
835.450	0.0159142
835.529	0.0159274
835.607	0.0158344
835.685	0.0159241
835.763	0.0158540
835.841	0.0157153
835.919	0.0158312
835.997	0.0156534
836.075	0.0156494
836.154	0.0156699
836.232	0.0156337
836.310	0.0153661
836.388	0.0153838
836.466	0.0153431
836.544	0.0152633
836.622	0.0152489
836.700	0.0153167
836.779	0.0151991
836.857	0.0151881
836.935	0.0153561
837.013	0.0153567
837.091	0.0154459
837.169	0.0153658
837.247	0.0153075
837.325	0.0153857
837.404	0.0153532
837.482	0.0154706
837.560	0.0154707
837.638	0.0154655
837.716	0.0154708
837.794	0.0154915
837.872	0.0154466
837.950	0.0154056
838.029	0.0154312
838.107	0.0153995
838.185	0.0154004
838.263	0.0154862
838.341	0.0154557
838.419	0.0154680
838.497	0.0153802
838.575	0.0153957
838.654	0.0154370
838.732	0.0153893
838.810	0.0154829
838.888	0.0153143
838.966	0.0153409
839.044	0.0153534
839.122	0.0152684
839.200	0.0154562
839.279	0.0153738
839.357	0.0153967
839.435	0.0154608
839.513	0.0154024
839.591	0.0154456
839.669	0.0154279
839.747	0.0155817
839.825	0.0155921
839.904	0.0155104
839.982	0.0157802
840.060	0.0157208
840.138	0.0157859
840.216	0.0158543
840.294	0.0158425
840.372	0.0159879
840.450	0.0159817
840.529	0.0157279
840.607	0.0159210
840.685	0.0159816
840.763	0.0161204
840.841	0.0159138
840.919	0.0158609
840.997	0.0157459
841.075	0.0156839
841.154	0.0156636
841.232	0.0154974
841.310	0.0154759
841.388	0.0153731
841.466	0.0153344
841.544	0.0152487
841.622	0.0151775
841.700	0.0152423
841.779	0.0151346
841.857	0.0150620
841.935	0.0151391
842.013	0.0152135
842.091	0.0151580
842.169	0.0150459
842.247	0.0151259
842.325	0.0151578
842.404	0.0153395
842.482	0.0152785
842.560	0.0152766
842.638	0.0153187
842.716	0.0154474
842.794	0.0154802
842.872	0.0155085
842.950	0.0156120
843.029	0.0157539
843.107	0.0156440
843.185	0.0158231
843.263	0.0158572
843.341	0.0158511
843.419	0.0158357
843.497	0.0158430
843.575	0.0161233
843.654	0.0159755
843.732	0.0158334
843.810	0.0158591
843.888	0.0159071
843.966	0.0159293
844.044	0.0156943
844.122	0.0157426
844.200	0.0157021
844.279	0.0156947
844.357	0.0156196
844.435	0.0155131
844.513	0.0155633
844.591	0.0154118
844.669	0.0154234
844.747	0.0153502
844.825	0.0151893
844.904	0.0152415
844.982	0.0153231
845.060	0.0151429
845.138	0.0150834
845.216	0.0151614
845.294	0.0150352
845.372	0.0150436
845.450	0.0152466
845.529	0.0151309
845.607	0.0150568
845.685	0.0151237
845.763	0.0151305
845.841	0.0152245
845.919	0.0152319
845.997	0.0151649
846.075	0.0152097
846.154	0.0151608
846.232	0.0152739
846.310	0.0151745
846.388	0.0155033
846.466	0.0153990
846.544	0.0153368
846.622	0.0153996
846.700	0.0153680
846.779	0.0153288
846.857	0.0154388
846.935	0.0154036
847.013	0.0154253
847.091	0.0155942
847.169	0.0155636
847.247	0.0155848
847.325	0.0157614
847.404	0.0158006
847.482	0.0157355
847.560	0.0158175
847.638	0.0157751
847.716	0.0158609
847.794	0.0160854
847.872	0.0159245
847.950	0.0159383
848.029	0.0159789
848.107	0.0160346
848.185	0.0159933
848.263	0.0160352
848.341	0.0159051
848.419	0.0160654
848.497	0.0158481
848.575	0.0158555
848.654	0.0159949
848.732	0.0159095
848.810	0.0159775
848.888	0.0160827
848.966	0.0158839
849.044	0.0158810
849.122	0.0158437
849.200	0.0156290
849.279	0.0157008
849.357	0.0156799
849.435	0.0157063
849.513	0.0156454
849.591	0.0155292
849.669	0.0154713
849.747	0.0154998
849.825	0.0154268
849.904	0.0153177
849.982	0.0154467
850.060	0.0153657
850.138	0.0152654
850.216	0.0152276
850.294	0.0151131
850.372	0.0150930
850.450	0.0151157
850.529	0.0150663
850.607	0.0150642
850.685	0.0150288
850.763	0.0149453
850.841	0.0150306
850.919	0.0150737
850.997	0.0150067
851.075	0.0150388
851.154	0.0150819
851.232	0.0151132
851.310	0.0150711
851.388	0.0151498
851.466	0.0151996
851.544	0.0152208
851.622	0.0153104
851.700	0.0151751
851.779	0.0153617
851.857	0.0153797
851.935	0.0153224
852.013	0.0154024
852.091	0.0154218
852.169	0.0154379
852.247	0.0155345
852.325	0.0154395
852.404	0.0156735
852.482	0.0156655
852.560	0.0157361
852.638	0.0157976
852.716	0.0157394
852.794	0.0158274
852.872	0.0160001
852.950	0.0158761
853.029	0.0158842
853.107	0.0160812
853.185	0.0159338
853.263	0.0159566
853.341	0.0159830
853.419	0.0159586
853.497	0.0159856
853.575	0.0158514
853.654	0.0160284
853.732	0.0159489
853.810	0.0159473
853.888	0.0158409
853.966	0.0157948
854.044	0.0157159
854.122	0.0157603
854.200	0.0158178
854.279	0.0156851
854.357	0.0158388
854.435	0.0155166
854.513	0.0154967
854.591	0.0153983
854.669	0.0155325
854.747	0.0155523
854.825	0.0153692
854.904	0.0153813
854.982	0.0154564
855.060	0.0152198
855.138	0.0152844
855.216	0.0153516
855.294	0.0153314
855.372	0.0152841
855.450	0.0152004
855.529	0.0152149
855.607	0.0152826
855.685	0.0151847
855.763	0.0150849
855.841	0.0152210
855.919	0.0153777
855.997	0.0152834
856.075	0.0151257
856.154	0.0151843
856.232	0.0152232
856.310	0.0152369
856.388	0.0152859
856.466	0.0153331
856.544	0.0153892
856.622	0.0152998
856.700	0.0153600
856.779	0.0154891
856.857	0.0155739
856.935	0.0155968
857.013	0.0155370
857.091	0.0155074
857.169	0.0157629
857.247	0.0156649
857.325	0.0157388
857.404	0.0157797
857.482	0.0158141
857.560	0.0158776
857.638	0.0160000
857.716	0.0158601
857.794	0.0158445
857.872	0.0160136
857.950	0.0159509
858.029	0.0160284
858.107	0.0159171
858.185	0.0160003
858.263	0.0159460
858.341	0.0158777
858.419	0.0158910
858.497	0.0158846
858.575	0.0158653
858.654	0.0158817
858.732	0.0157472
858.810	0.0157430
858.888	0.0156535
858.966	0.0157482
859.044	0.0155604
859.122	0.0156477
859.200	0.0155476
859.279	0.0153786
859.357	0.0154873
859.435	0.0154803
859.513	0.0154961
859.591	0.0154783
859.669	0.0154075
859.747	0.0153249
859.825	0.0153577
859.904	0.0152320
859.982	0.0152528
860.060	0.0153729
860.138	0.0152769
860.216	0.0151153
860.294	0.0151048
860.372	0.0151383
860.450	0.0151927
860.529	0.0150925
860.607	0.0150430
860.685	0.0149911
860.763	0.0150820
860.841	0.0150943
860.919	0.0151806
860.997	0.0151340
861.075	0.0151653
861.154	0.0151721
861.232	0.0152224
861.310	0.0151796
861.388	0.0153232
861.466	0.0154874
861.544	0.0156095
861.622	0.0155463
861.700	0.0155985
861.779	0.0155373
861.857	0.0156125
861.935	0.0158192
862.013	0.0158481
862.091	0.0159664
862.169	0.0158707
862.247	0.0159908
862.325	0.0158269
862.404	0.0157912
862.482	0.0157636
862.560	0.0159181
862.638	0.0158208
862.716	0.0158321
862.794	0.0158524
862.872	0.0157146
862.950	0.0157590
863.029	0.0156303
863.107	0.0158525
863.185	0.0158012
863.263	0.0157055
863.341	0.0157330
863.419	0.0156855
863.497	0.0158305
863.575	0.0157761
863.654	0.0156867
863.732	0.0157141
863.810	0.0155978
863.888	0.0155463
863.966	0.0155332
864.044	0.0157101
864.122	0.0155830
864.200	0.0155928
864.279	0.0156572
864.357	0.0155727
864.435	0.0155959
864.513	0.0155801
864.591	0.0156909
864.669	0.0155807
864.747	0.0155318
864.825	0.0154772
864.904	0.0154937
864.982	0.0154439
865.060	0.0155130
865.138	0.0155865
865.216	0.0155202
865.294	0.0155227
865.372	0.0155598
865.450	0.0156448
865.529	0.0156465
865.607	0.0154880
865.685	0.0154585
865.763	0.0155001
865.841	0.0155431
865.919	0.0154539
865.997	0.0153629
866.075	0.0153175
866.154	0.0152768
866.232	0.0152516
866.310	0.0151906
866.388	0.0153578
866.466	0.0151871
866.544	0.0151272
866.622	0.0150451
866.700	0.0152602
866.779	0.0153342
866.857	0.0151932
866.935	0.0152502
867.013	0.0153427
867.091	0.0153799
867.169	0.0153098
867.247	0.0154630
867.325	0.0154919
867.404	0.0155971
867.482	0.0154716
867.560	0.0155615
867.638	0.0155769
867.716	0.0156683
867.794	0.0157368
867.872	0.0155845
867.950	0.0157601
868.029	0.0158154
868.107	0.0157305
868.185	0.0157969
868.263	0.0158446
868.341	0.0158418
868.419	0.0158453
868.497	0.0158348
868.575	0.0157705
868.654	0.0158051
868.732	0.0157771
868.810	0.0157727
868.888	0.0156174
868.966	0.0156127
869.044	0.0156306
869.122	0.0154984
869.200	0.0155476
869.279	0.0154959
869.357	0.0155525
869.435	0.0155075
869.513	0.0154681
869.591	0.0155283
869.669	0.0155018
869.747	0.0155637
869.825	0.0156010
869.904	0.0155463
869.982	0.0154789
870.060	0.0155277
870.138	0.0155406
870.216	0.0155997
870.294	0.0156809
870.372	0.0155885
870.450	0.0154722
870.529	0.0156507
870.607	0.0156370
870.685	0.0155341
870.763	0.0155773
870.841	0.0156330
870.919	0.0154796
870.997	0.0154475
871.075	0.0154501
871.154	0.0154176
871.232	0.0152965
871.310	0.0153204
871.388	0.0155219
871.466	0.0153505
871.544	0.0153536
871.622	0.0154674
871.700	0.0154758
871.779	0.0152784
871.857	0.0154080
871.935	0.0152966
872.013	0.0153481
872.091	0.0153915
872.169	0.0155029
872.247	0.0154522
872.325	0.0153406
872.404	0.0154597
872.482	0.0156157
872.560	0.0155744
872.638	0.0155803
872.716	0.0156274
872.794	0.0157032
872.872	0.0155828
872.950	0.0157159
873.029	0.0157967
873.107	0.0157547
873.185	0.0157314
873.263	0.0157056
873.341	0.0156570
873.419	0.0156808
873.497	0.0157517
873.575	0.0157436
873.654	0.0155961
873.732	0.0157033
873.810	0.0157449
873.888	0.0157585
873.966	0.0157089
874.044	0.0157105
874.122	0.0157708
874.200	0.0157528
874.279	0.0156704
874.357	0.0156145
874.435	0.0156087
874.513	0.0156428
874.591	0.0156504
874.669	0.0155938
874.747	0.0156796
874.825	0.0155819
874.904	0.0156078
874.982	0.0154144
875.060	0.0154995
875.138	0.0155280
875.216	0.0154609
875.294	0.0154030
875.372	0.0152323
875.450	0.0153819
875.529	0.0154104
875.607	0.0153888
875.685	0.0152461
875.763	0.0152745
875.841	0.0152557
875.919	0.0153246
875.997	0.0152774
876.075	0.0151679
876.154	0.0152666
876.232	0.0152293
876.310	0.0151687
876.388	0.0152245
876.466	0.0152444
876.544	0.0155058
876.622	0.0153138
876.700	0.0153592
876.779	0.0153246
876.857	0.0153282
876.935	0.0152775
877.013	0.0154218
877.091	0.0152832
877.169	0.0152957
877.247	0.0152533
877.325	0.0153799
877.404	0.0153790
877.482	0.0154176
877.560	0.0153838
877.638	0.0156000
877.716	0.0155310
877.794	0.0155381
877.872	0.0155723
877.950	0.0155743
878.029	0.0156805
878.107	0.0156818
878.185	0.0156527
878.263	0.0158123
878.341	0.0158219
878.419	0.0159296
878.497	0.0159332
878.575	0.0158821
878.654	0.0158470
878.732	0.0158345
878.810	0.0158821
878.888	0.0159674
878.966	0.0160416
879.044	0.0160560
879.122	0.0158799
879.200	0.0158315
879.279	0.0158492
879.357	0.0159193
879.435	0.0158923
879.513	0.0156640
879.591	0.0155309
879.669	0.0157250
879.747	0.0155958
879.825	0.0155419
879.904	0.0156383
879.982	0.0155676
880.060	0.0157320
880.138	0.0154653
880.216	0.0154954
880.294	0.0154565
880.372	0.0154461
880.450	0.0153526
880.529	0.0154206
880.607	0.0154535
880.685	0.0152477
880.763	0.0152803
880.841	0.0153535
880.919	0.0153595
880.997	0.0153441
881.075	0.0153783
881.154	0.0154112
881.232	0.0153601
881.310	0.0156048
881.388	0.0156286
881.466	0.0155399
881.544	0.0156184
881.622	0.0155038
881.700	0.0155406
881.779	0.0155560
881.857	0.0154485
881.935	0.0153927
882.013	0.0153372
882.091	0.0150995
882.169	0.0150739
882.247	0.0149268
882.325	0.0150287
882.404	0.0150317
882.482	0.0150818
882.560	0.0152111
882.638	0.0152172
882.716	0.0152761
882.794	0.0155121
882.872	0.0155721
882.950	0.0158147
883.029	0.0158474
883.107	0.0159147
883.185	0.0159525
883.263	0.0160648
883.341	0.0158930
883.419	0.0160286
883.497	0.0159768
883.575	0.0158726
883.654	0.0158527
883.732	0.0156653
883.810	0.0156666
883.888	0.0155060
883.966	0.0154032
884.044	0.0154304
884.122	0.0152133
884.200	0.0150911
884.279	0.0151064
884.357	0.0149039
884.435	0.0150401
884.513	0.0150098
884.591	0.0153381
884.669	0.0153061
884.747	0.0153226
884.825	0.0155861
884.904	0.0156513
884.982	0.0158208
885.060	0.0158881
885.138	0.0160225
885.216	0.0160229
885.294	0.0159824
885.372	0.0163097
885.450	0.0162991
885.529	0.0164129
885.607	0.0162768
885.685	0.0160861
885.763	0.0160356
885.841	0.0160352
885.919	0.0159499
885.997	0.0157878
886.075	0.0156658
886.154	0.0155058
886.232	0.0153842
886.310	0.0152569
886.388	0.0150956
886.466	0.0151991
886.544	0.0150712
886.622	0.0148898
886.700	0.0150484
886.779	0.0149574
886.857	0.0150666
886.935	0.0150393
887.013	0.0149555
887.091	0.0150716
887.169	0.0152810
887.247	0.0151343
887.325	0.0151938
887.404	0.0152586
887.482	0.0153007
887.560	0.0155560
887.638	0.0154419
887.716	0.0154273
887.794	0.0155002
887.872	0.0157291
887.950	0.0156170
888.029	0.0155646
888.107	0.0155196
888.185	0.0156040
888.263	0.0154922
888.341	0.0156485
888.419	0.0156203
888.497	0.0154523
888.575	0.0156295
888.654	0.0156079
888.732	0.0155782
888.810	0.0156366
888.888	0.0156828
888.966	0.0156748
889.044	0.0156304
889.122	0.0155321
889.200	0.0158092
889.279	0.0156802
889.357	0.0157047
889.435	0.0158183
889.513	0.0157700
889.591	0.0157104
889.669	0.0157304
889.747	0.0157594
889.825	0.0155993
889.904	0.0158736
889.982	0.0156826
890.060	0.0156761
890.138	0.0157320
890.216	0.0157977
890.294	0.0156042
890.372	0.0156656
890.450	0.0155914
890.529	0.0156819
890.607	0.0155630
890.685	0.0154948
890.763	0.0156351
890.841	0.0156291
890.919	0.0154332
890.997	0.0154748
891.075	0.0154875
891.154	0.0155083
891.232	0.0154615
891.310	0.0153877
891.388	0.0153002
891.466	0.0154391
891.544	0.0153111
891.622	0.0152747
891.700	0.0153858
891.779	0.0152626
891.857	0.0152588
891.935	0.0152520
892.013	0.0151910
892.091	0.0150650
892.169	0.0152008
892.247	0.0151461
892.325	0.0151269
892.404	0.0151105
892.482	0.0151530
892.560	0.0152865
892.638	0.0153467
892.716	0.0153135
892.794	0.0155109
892.872	0.0155154
892.950	0.0154667
893.029	0.0155535
893.107	0.0156351
893.185	0.0156072
893.263	0.0156862
893.341	0.0156410
893.419	0.0157735
893.497	0.0157737
893.575	0.0157658
893.654	0.0158341
893.732	0.0157798
893.810	0.0158609
893.888	0.0158039
893.966	0.0158309
894.044	0.0157469
894.122	0.0157018
894.200	0.0157100
894.279	0.0156943
894.357	0.0156489
894.435	0.0156377
894.513	0.0155293
894.591	0.0155064
894.669	0.0153788
894.747	0.0154054
894.825	0.0153593
894.904	0.0153236
894.982	0.0153856
895.060	0.0154139
895.138	0.0154257
895.216	0.0154848
895.294	0.0153883
895.372	0.0155677
895.450	0.0154861
895.529	0.0154732
895.607	0.0155677
895.685	0.0154305
895.763	0.0156012
895.841	0.0155836
895.919	0.0155284
895.997	0.0155592
896.075	0.0156387
896.154	0.0154956
896.232	0.0155904
896.310	0.0154417
896.388	0.0154974
896.466	0.0155071
896.544	0.0153318
896.622	0.0153184
896.700	0.0153384
896.779	0.0151495
896.857	0.0152576
896.935	0.0151607
897.013	0.0151260
897.091	0.0150629
897.169	0.0151116
897.247	0.0151992
897.325	0.0151235
897.404	0.0149133
897.482	0.0149261
897.560	0.0150769
897.638	0.0152692
897.716	0.0152118
897.794	0.0152819
897.872	0.0152039
897.950	0.0153097
898.029	0.0153517
898.107	0.0153790
898.185	0.0155614
898.263	0.0156139
898.341	0.0156190
898.419	0.0156306
898.497	0.0155894
898.575	0.0157662
898.654	0.0156469
898.732	0.0156297
898.810	0.0158345
898.888	0.0157616
898.966	0.0157965
899.044	0.0157165
899.122	0.0157182
899.200	0.0155086
899.279	0.0155253
899.357	0.0154185
899.435	0.0155277
899.513	0.0155163
899.591	0.0155296
899.669	0.0154289
899.747	0.0153495
899.825	0.0153716
899.904	0.0152666
899.982	0.0153638
900.060	0.0152775
900.138	0.0153239
900.216	0.0152111
900.294	0.0153523
900.372	0.0154624
900.450	0.0154443
900.529	0.0155521
900.607	0.0156377
900.685	0.0155088
900.763	0.0156165
900.841	0.0156643
900.919	0.0156329
900.997	0.0156432
901.075	0.0156056
901.154	0.0157269
901.232	0.0157467
901.310	0.0157625
901.388	0.0155534
901.466	0.0158080
901.544	0.0158342
901.622	0.0156618
901.700	0.0155289
901.779	0.0156590
901.857	0.0154921
901.935	0.0153336
902.013	0.0154913
902.091	0.0154015
902.169	0.0154294
902.247	0.0153458
902.325	0.0151908
902.404	0.0152871
902.482	0.0153400
902.560	0.0151904
902.638	0.0150953
902.716	0.0152087
902.794	0.0150581
902.872	0.0151424
902.950	0.0150556
903.029	0.0151540
903.107	0.0151205
903.185	0.0150554
903.263	0.0152007
903.341	0.0152653
903.419	0.0152510
903.497	0.0152501
903.575	0.0153452
903.654	0.0154290
903.732	0.0155318
903.810	0.0154946
903.888	0.0156754
903.966	0.0156442
904.044	0.0157277
904.122	0.0156251
904.200	0.0155452
904.279	0.0156676
904.357	0.0156471
904.435	0.0157275
904.513	0.0155537
904.591	0.0156136
904.669	0.0156944
904.747	0.0156475
904.825	0.0155740
904.904	0.0156525
904.982	0.0155291
905.060	0.0155659
905.138	0.0155673
905.216	0.0155751
905.294	0.0155918
905.372	0.0155714
905.450	0.0155258
905.529	0.0154781
905.607	0.0154601
905.685	0.0155587
905.763	0.0154163
905.841	0.0154673
905.919	0.0156102
905.997	0.0154305
906.075	0.0155067
906.154	0.0154954
906.232	0.0157161
906.310	0.0156963
906.388	0.0155789
906.466	0.0155741
906.544	0.0155209
906.622	0.0155708
906.700	0.0156465
906.779	0.0155950
906.857	0.0155813
906.935	0.0155317
907.013	0.0154018
907.091	0.0153599
907.169	0.0153225
907.247	0.0154423
907.325	0.0153474
907.404	0.0151786
907.482	0.0151766
907.560	0.0154166
907.638	0.0153992
907.716	0.0152451
907.794	0.0152273
907.872	0.0152476
907.950	0.0153159
908.029	0.0152858
908.107	0.0153559
908.185	0.0154340
908.263	0.0153803
908.341	0.0154190
908.419	0.0154253
908.497	0.0154701
908.575	0.0155173
908.654	0.0155357
908.732	0.0154424
908.810	0.0156073
908.888	0.0156026
908.966	0.0157418
909.044	0.0158526
909.122	0.0158897
909.200	0.0158536
909.279	0.0158819
909.357	0.0158193
909.435	0.0157634
909.513	0.0157661
909.591	0.0158085
909.669	0.0156268
909.747	0.0156451
909.825	0.0154548
909.904	0.0154063
909.982	0.0153857
910.060	0.0154678
910.138	0.0153534
910.216	0.0152834
910.294	0.0151955
910.372	0.0152650
910.450	0.0151618
910.529	0.0152271
910.607	0.0152793
910.685	0.0151924
910.763	0.0152438
910.841	0.0152773
910.919	0.0153482
910.997	0.0152818
911.075	0.0154706
911.154	0.0152677
911.232	0.0152568
911.310	0.0152952
911.388	0.0153363
911.466	0.0152792
911.544	0.0155097
911.622	0.0154444
911.700	0.0153455
911.779	0.0153899
911.857	0.0154886
911.935	0.0154364
912.013	0.0155747
912.091	0.0155774
912.169	0.0155811
912.247	0.0155259
912.325	0.0156369
912.404	0.0156014
912.482	0.0156898
912.560	0.0157178
912.638	0.0157175
912.716	0.0157875
912.794	0.0156638
912.872	0.0156050
912.950	0.0156455
913.029	0.0157745
913.107	0.0155219
913.185	0.0156069
913.263	0.0156298
913.341	0.0154559
913.419	0.0156006
913.497	0.0155338
913.575	0.0155376
913.654	0.0156344
913.732	0.0154842
913.810	0.0153484
913.888	0.0154781
913.966	0.0154523
914.044	0.0153371
914.122	0.0153764
914.200	0.0154685
914.279	0.0153864
914.357	0.0153925
914.435	0.0153749
914.513	0.0152681
914.591	0.0153059
914.669	0.0153530
914.747	0.0153786
914.825	0.0154288
914.904	0.0153901
914.982	0.0154768
915.060	0.0156207
915.138	0.0154987
915.216	0.0154358
915.294	0.0155456
915.372	0.0155581
915.450	0.0156479
915.529	0.0155034
915.607	0.0156676
915.685	0.0154790
915.763	0.0154256
915.841	0.0154924
915.919	0.0153687
915.997	0.0154268
916.075	0.0154789
916.154	0.0153793
916.232	0.0153187
916.310	0.0153438
916.388	0.0154021
916.466	0.0154111
916.544	0.0154337
916.622	0.0154612
916.700	0.0154237
916.779	0.0155467
916.857	0.0154990
916.935	0.0155568
917.013	0.0155784
917.091	0.0155004
917.169	0.0155280
917.247	0.0156260
917.325	0.0155843
917.404	0.0154762
917.482	0.0154666
917.560	0.0156330
917.638	0.0155293
917.716	0.0155529
917.794	0.0157117
917.872	0.0156618
917.950	0.0156392
918.029	0.0156790
918.107	0.0156720
918.185	0.0155820
918.263	0.0157087
918.341	0.0156380
918.419	0.0157249
918.497	0.0156937
918.575	0.0156936
918.654	0.0156809
918.732	0.0156911
918.810	0.0155006
918.888	0.0156737
918.966	0.0157391
919.044	0.0155427
919.122	0.0155726
919.200	0.0155949
919.279	0.0156007
919.357	0.0155065
919.435	0.0153632
919.513	0.0154422
919.591	0.0154916
919.669	0.0154716
919.747	0.0154071
919.825	0.0153187
919.904	0.0153628
