05/20/2022	21:12:14	Ver.	4.1	UNKNOWN
Optical Delay	599.975067	Delta X		0.078125	Sweeps	1	Scan Rate	0/0
Coordinates	Axis 1	NaN	Axis 2	NaN	Axis 3	NaN	Axis 4	NaN	Axis 5	NaN	Axis 6	0.000000
TX Power	0.000000	RX Power	0.000000

599.975	0.0152019
600.053	0.0151608
600.131	0.0153338
600.209	0.0152024
600.288	0.0151962
600.366	0.0151699
600.444	0.0152469
600.522	0.0153347
600.600	0.0151556
600.678	0.0151487
600.756	0.0150774
600.834	0.0151372
600.913	0.0153893
600.991	0.0153144
601.069	0.0153077
601.147	0.0152605
601.225	0.0151521
601.303	0.0150933
601.381	0.0152793
601.459	0.0153593
601.538	0.0152117
601.616	0.0152302
601.694	0.0152249
601.772	0.0152748
601.850	0.0152001
601.928	0.0152898
602.006	0.0152945
602.084	0.0152168
602.163	0.0152410
602.241	0.0151307
602.319	0.0152631
602.397	0.0152283
602.475	0.0151867
602.553	0.0154010
602.631	0.0152323
602.709	0.0152032
602.788	0.0151295
602.866	0.0151204
602.944	0.0152445
603.022	0.0151862
603.100	0.0152891
603.178	0.0151156
603.256	0.0151755
603.334	0.0152352
603.413	0.0152486
603.491	0.0152022
603.569	0.0151258
603.647	0.0151820
603.725	0.0150991
603.803	0.0151765
603.881	0.0151669
603.959	0.0151888
604.038	0.0151241
604.116	0.0151836
604.194	0.0151513
604.272	0.0151693
604.350	0.0150506
604.428	0.0152010
604.506	0.0153135
604.584	0.0150970
604.663	0.0151001
604.741	0.0151583
604.819	0.0151822
604.897	0.0150509
604.975	0.0151370
605.053	0.0150213
605.131	0.0151298
605.209	0.0150006
605.288	0.0150512
605.366	0.0149921
605.444	0.0151286
605.522	0.0149731
605.600	0.0150626
605.678	0.0151469
605.756	0.0149738
605.834	0.0151019
605.913	0.0151162
605.991	0.0151211
606.069	0.0150512
606.147	0.0150484
606.225	0.0152018
606.303	0.0151204
606.381	0.0151810
606.459	0.0151692
606.538	0.0152221
606.616	0.0152074
606.694	0.0151619
606.772	0.0151995
606.850	0.0151362
606.928	0.0152736
607.006	0.0152702
607.084	0.0152270
607.163	0.0151763
607.241	0.0152143
607.319	0.0152834
607.397	0.0152010
607.475	0.0154115
607.553	0.0150859
607.631	0.0153353
607.709	0.0151974
607.788	0.0151851
607.866	0.0152949
607.944	0.0152261
608.022	0.0152710
608.100	0.0152935
608.178	0.0151616
608.256	0.0152557
608.334	0.0152251
608.413	0.0151380
608.491	0.0151842
608.569	0.0152330
608.647	0.0152223
608.725	0.0153772
608.803	0.0151799
608.881	0.0152132
608.959	0.0152676
609.038	0.0151320
609.116	0.0152455
609.194	0.0153141
609.272	0.0152220
609.350	0.0152374
609.428	0.0152315
609.506	0.0152228
609.584	0.0151810
609.663	0.0152396
609.741	0.0152343
609.819	0.0151810
609.897	0.0151575
609.975	0.0151279
610.053	0.0152126
610.131	0.0151978
610.209	0.0152481
610.288	0.0150121
610.366	0.0152910
610.444	0.0152157
610.522	0.0150538
610.600	0.0152197
610.678	0.0152685
610.756	0.0151637
610.834	0.0153014
610.913	0.0152802
610.991	0.0152625
611.069	0.0151711
611.147	0.0150591
611.225	0.0151521
611.303	0.0151496
611.381	0.0153932
611.459	0.0151727
611.538	0.0152949
611.616	0.0151714
611.694	0.0151966
611.772	0.0151923
611.850	0.0151823
611.928	0.0151777
612.006	0.0152358
612.084	0.0153255
612.163	0.0152302
612.241	0.0152468
612.319	0.0153529
612.397	0.0153351
612.475	0.0152554
612.553	0.0152841
612.631	0.0152809
612.709	0.0152775
612.788	0.0152483
612.866	0.0152865
612.944	0.0154726
613.022	0.0153407
613.100	0.0152483
613.178	0.0153760
613.256	0.0152947
613.334	0.0152358
613.413	0.0152681
613.491	0.0153323
613.569	0.0153573
613.647	0.0152296
613.725	0.0153510
613.803	0.0153198
613.881	0.0153238
613.959	0.0152845
614.038	0.0153056
614.116	0.0152802
614.194	0.0153085
614.272	0.0153542
614.350	0.0152529
614.428	0.0152342
614.506	0.0152962
614.584	0.0153213
614.663	0.0152607
614.741	0.0152487
614.819	0.0151836
614.897	0.0153023
614.975	0.0152634
615.053	0.0151669
615.131	0.0153213
615.209	0.0153456
615.288	0.0153153
615.366	0.0153500
615.444	0.0154550
615.522	0.0154132
615.600	0.0153106
615.678	0.0152952
615.756	0.0152653
615.834	0.0153355
615.913	0.0154094
615.991	0.0153819
616.069	0.0153558
616.147	0.0154130
616.225	0.0153726
616.303	0.0153190
616.381	0.0151055
616.459	0.0152827
616.538	0.0153188
616.616	0.0152310
616.694	0.0151844
616.772	0.0153545
616.850	0.0152419
616.928	0.0153101
617.006	0.0154691
617.084	0.0152512
617.163	0.0152467
617.241	0.0152393
617.319	0.0153274
617.397	0.0152969
617.475	0.0153478
617.553	0.0153100
617.631	0.0153911
617.709	0.0153034
617.788	0.0154670
617.866	0.0154011
617.944	0.0153363
618.022	0.0153642
618.100	0.0154644
618.178	0.0152873
618.256	0.0152457
618.334	0.0153244
618.413	0.0154202
618.491	0.0153380
618.569	0.0153301
618.647	0.0152845
618.725	0.0153310
618.803	0.0155004
618.881	0.0154038
618.959	0.0152261
619.038	0.0152097
619.116	0.0153453
619.194	0.0153480
619.272	0.0153344
619.350	0.0153615
619.428	0.0153888
619.506	0.0153280
619.584	0.0154683
619.663	0.0152385
619.741	0.0153375
619.819	0.0153619
619.897	0.0154698
619.975	0.0153472
620.053	0.0153156
620.131	0.0153876
620.209	0.0154591
620.288	0.0153257
620.366	0.0152144
620.444	0.0152718
620.522	0.0153548
620.600	0.0153086
620.678	0.0151987
620.756	0.0153053
620.834	0.0153693
620.913	0.0152927
620.991	0.0151961
621.069	0.0151983
621.147	0.0152477
621.225	0.0153118
621.303	0.0154173
621.381	0.0152613
621.459	0.0152045
621.538	0.0152760
621.616	0.0153780
621.694	0.0152747
621.772	0.0152872
621.850	0.0153371
621.928	0.0151766
622.006	0.0153506
622.084	0.0152826
622.163	0.0152503
622.241	0.0153506
622.319	0.0153888
622.397	0.0154092
622.475	0.0155437
622.553	0.0154778
622.631	0.0155212
622.709	0.0154424
622.788	0.0153326
622.866	0.0154697
622.944	0.0153957
623.022	0.0154268
623.100	0.0154411
623.178	0.0153373
623.256	0.0154159
623.334	0.0152731
623.413	0.0153649
623.491	0.0154280
623.569	0.0153490
623.647	0.0153706
623.725	0.0152159
623.803	0.0153220
623.881	0.0153259
623.959	0.0153053
624.038	0.0153050
624.116	0.0151485
624.194	0.0152203
624.272	0.0153286
624.350	0.0154111
624.428	0.0153465
624.506	0.0154053
624.584	0.0152360
624.663	0.0152464
624.741	0.0154328
624.819	0.0153210
624.897	0.0152589
624.975	0.0153959
625.053	0.0153577
625.131	0.0152600
625.209	0.0153320
625.288	0.0152557
625.366	0.0152486
625.444	0.0154614
625.522	0.0153958
625.600	0.0153551
625.678	0.0154055
625.756	0.0154063
625.834	0.0154978
625.913	0.0155431
625.991	0.0153109
626.069	0.0153936
626.147	0.0155776
626.225	0.0154795
626.303	0.0154728
626.381	0.0154854
626.459	0.0154903
626.538	0.0154581
626.616	0.0153288
626.694	0.0153896
626.772	0.0154326
626.850	0.0155442
626.928	0.0155861
627.006	0.0154574
627.084	0.0153248
627.163	0.0154849
627.241	0.0153355
627.319	0.0153358
627.397	0.0153993
627.475	0.0153793
627.553	0.0153072
627.631	0.0153613
627.709	0.0153030
627.788	0.0153056
627.866	0.0153246
627.944	0.0153509
628.022	0.0152968
628.100	0.0151990
628.178	0.0152827
628.256	0.0154483
628.334	0.0153600
628.413	0.0152551
628.491	0.0152482
628.569	0.0153159
628.647	0.0154745
628.725	0.0153242
628.803	0.0152644
628.881	0.0152097
628.959	0.0152618
629.038	0.0153037
629.116	0.0152829
629.194	0.0151904
629.272	0.0153607
629.350	0.0152339
629.428	0.0151520
629.506	0.0151566
629.584	0.0152307
629.663	0.0151852
629.741	0.0151415
629.819	0.0152974
629.897	0.0151425
629.975	0.0151608
630.053	0.0152344
630.131	0.0151449
630.209	0.0152704
630.288	0.0152393
630.366	0.0152225
630.444	0.0152933
630.522	0.0153311
630.600	0.0152750
630.678	0.0152031
630.756	0.0154041
630.834	0.0151540
630.913	0.0153587
630.991	0.0152262
631.069	0.0149608
631.147	0.0150364
631.225	0.0151651
631.303	0.0150732
631.381	0.0151736
631.459	0.0151620
631.538	0.0151630
631.616	0.0150185
631.694	0.0149706
631.772	0.0150142
631.850	0.0150269
631.928	0.0150372
632.006	0.0150929
632.084	0.0149381
632.163	0.0149297
632.241	0.0150293
632.319	0.0150299
632.397	0.0151915
632.475	0.0150580
632.553	0.0151570
632.631	0.0151305
632.709	0.0152176
632.788	0.0151090
632.866	0.0151176
632.944	0.0151134
633.022	0.0152270
633.100	0.0151591
633.178	0.0152859
633.256	0.0152691
633.334	0.0151991
633.413	0.0152161
633.491	0.0152785
633.569	0.0153143
633.647	0.0152710
633.725	0.0153148
633.803	0.0154124
633.881	0.0153674
633.959	0.0153190
634.038	0.0152256
634.116	0.0152142
634.194	0.0152660
634.272	0.0152389
634.350	0.0153001
634.428	0.0153049
634.506	0.0152986
634.584	0.0152055
634.663	0.0151631
634.741	0.0152139
634.819	0.0152378
634.897	0.0151564
634.975	0.0151594
635.053	0.0151810
635.131	0.0151981
635.209	0.0152232
635.288	0.0152194
635.366	0.0152924
635.444	0.0151822
635.522	0.0151567
635.600	0.0152094
635.678	0.0152614
635.756	0.0152064
635.834	0.0151724
635.913	0.0152288
635.991	0.0152689
636.069	0.0152476
636.147	0.0151740
636.225	0.0152521
636.303	0.0152777
636.381	0.0152518
636.459	0.0153709
636.538	0.0151786
636.616	0.0153221
636.694	0.0152349
636.772	0.0151759
636.850	0.0152897
636.928	0.0150981
637.006	0.0153145
637.084	0.0152170
637.163	0.0152534
637.241	0.0151329
637.319	0.0152444
637.397	0.0150890
637.475	0.0152647
637.553	0.0153269
637.631	0.0152708
637.709	0.0152170
637.788	0.0153952
637.866	0.0155016
637.944	0.0153761
638.022	0.0153559
638.100	0.0154125
638.178	0.0154042
638.256	0.0153056
638.334	0.0154034
638.413	0.0154357
638.491	0.0154893
638.569	0.0154485
638.647	0.0153754
638.725	0.0151019
638.803	0.0152764
638.881	0.0152960
638.959	0.0153908
639.038	0.0152806
639.116	0.0152979
639.194	0.0152254
639.272	0.0151613
639.350	0.0151500
639.428	0.0151529
639.506	0.0152668
639.584	0.0152911
639.663	0.0154316
639.741	0.0151888
639.819	0.0153420
639.897	0.0151406
639.975	0.0152901
640.053	0.0152546
640.131	0.0153598
640.209	0.0154263
640.288	0.0153591
640.366	0.0152856
640.444	0.0152801
640.522	0.0152863
640.600	0.0152960
640.678	0.0152211
640.756	0.0152136
640.834	0.0151163
640.913	0.0151825
640.991	0.0151725
641.069	0.0152300
641.147	0.0152834
641.225	0.0152068
641.303	0.0152435
641.381	0.0150738
641.459	0.0154184
641.538	0.0153710
641.616	0.0152322
641.694	0.0152384
641.772	0.0152927
641.850	0.0152439
641.928	0.0153753
642.006	0.0153510
642.084	0.0150490
642.163	0.0152914
642.241	0.0152449
642.319	0.0151266
642.397	0.0151572
642.475	0.0151851
642.553	0.0151424
642.631	0.0151360
642.709	0.0151529
642.788	0.0150418
642.866	0.0151450
642.944	0.0150999
643.022	0.0151612
643.100	0.0150877
643.178	0.0150606
643.256	0.0152377
643.334	0.0151236
643.413	0.0150449
643.491	0.0152615
643.569	0.0151776
643.647	0.0152301
643.725	0.0153656
643.803	0.0151417
643.881	0.0151790
643.959	0.0152348
644.038	0.0151398
644.116	0.0151049
644.194	0.0153049
644.272	0.0153726
644.350	0.0152586
644.428	0.0152391
644.506	0.0151254
644.584	0.0152789
644.663	0.0153235
644.741	0.0153818
644.819	0.0154391
644.897	0.0153292
644.975	0.0151739
645.053	0.0151692
645.131	0.0153533
645.209	0.0153650
645.288	0.0152943
645.366	0.0152784
645.444	0.0153449
645.522	0.0152807
645.600	0.0152467
645.678	0.0153384
645.756	0.0154362
645.834	0.0154809
645.913	0.0155161
645.991	0.0154076
646.069	0.0154489
646.147	0.0154519
646.225	0.0154897
646.303	0.0155537
646.381	0.0155331
646.459	0.0154660
646.538	0.0155016
646.616	0.0155699
646.694	0.0154871
646.772	0.0156139
646.850	0.0154360
646.928	0.0154044
647.006	0.0153613
647.084	0.0153111
647.163	0.0155355
647.241	0.0154353
647.319	0.0153893
647.397	0.0153783
647.475	0.0154144
647.553	0.0153538
647.631	0.0153567
647.709	0.0155043
647.788	0.0154942
647.866	0.0155154
647.944	0.0156541
648.022	0.0155328
648.100	0.0156348
648.178	0.0154701
648.256	0.0156461
648.334	0.0154330
648.413	0.0155030
648.491	0.0155522
648.569	0.0156183
648.647	0.0154868
648.725	0.0156675
648.803	0.0156504
648.881	0.0155278
648.959	0.0155532
649.038	0.0155185
649.116	0.0153638
649.194	0.0154536
649.272	0.0154265
649.350	0.0153408
649.428	0.0152797
649.506	0.0151892
649.584	0.0153123
649.663	0.0153400
649.741	0.0152105
649.819	0.0152591
649.897	0.0151514
649.975	0.0152999
650.053	0.0153993
650.131	0.0152412
650.209	0.0154388
650.288	0.0152673
650.366	0.0152306
650.444	0.0153065
650.522	0.0152634
650.600	0.0153414
650.678	0.0153091
650.756	0.0152847
650.834	0.0152632
650.913	0.0153631
650.991	0.0151763
651.069	0.0152983
651.147	0.0152158
651.225	0.0152828
651.303	0.0151273
651.381	0.0150518
651.459	0.0150014
651.538	0.0151172
651.616	0.0150845
651.694	0.0150887
651.772	0.0150586
651.850	0.0150421
651.928	0.0151334
652.006	0.0150607
652.084	0.0151744
652.163	0.0151141
652.241	0.0151614
652.319	0.0153133
652.397	0.0152691
652.475	0.0152795
652.553	0.0152191
652.631	0.0153526
652.709	0.0153148
652.788	0.0153059
652.866	0.0152885
652.944	0.0152402
653.022	0.0151738
653.100	0.0153436
653.178	0.0152494
653.256	0.0152106
653.334	0.0151732
653.413	0.0151634
653.491	0.0151985
653.569	0.0152452
653.647	0.0150040
653.725	0.0149636
653.803	0.0150594
653.881	0.0151158
653.959	0.0150131
654.038	0.0151862
654.116	0.0150861
654.194	0.0149569
654.272	0.0150842
654.350	0.0151200
654.428	0.0150028
654.506	0.0150581
654.584	0.0151362
654.663	0.0152283
654.741	0.0150123
654.819	0.0150366
654.897	0.0152325
654.975	0.0150856
655.053	0.0150736
655.131	0.0151886
655.209	0.0151040
655.288	0.0151315
655.366	0.0152946
655.444	0.0152250
655.522	0.0151962
655.600	0.0152338
655.678	0.0150942
655.756	0.0152443
655.834	0.0152510
655.913	0.0151611
655.991	0.0151861
656.069	0.0150323
656.147	0.0150728
656.225	0.0151719
656.303	0.0149020
656.381	0.0149375
656.459	0.0151189
656.538	0.0150236
656.616	0.0150361
656.694	0.0149906
656.772	0.0149282
656.850	0.0150730
656.928	0.0151302
657.006	0.0151166
657.084	0.0151386
657.163	0.0151494
657.241	0.0152816
657.319	0.0150653
657.397	0.0149874
657.475	0.0151221
657.553	0.0151482
657.631	0.0152302
657.709	0.0152428
657.788	0.0152901
657.866	0.0152971
657.944	0.0150803
658.022	0.0153009
658.100	0.0152779
658.178	0.0150974
658.256	0.0152030
658.334	0.0153838
658.413	0.0153292
658.491	0.0151458
658.569	0.0152488
658.647	0.0151894
658.725	0.0151887
658.803	0.0152042
658.881	0.0151145
658.959	0.0150811
659.038	0.0151054
659.116	0.0153139
659.194	0.0151933
659.272	0.0151649
659.350	0.0151017
659.428	0.0150713
659.506	0.0150039
659.584	0.0151600
659.663	0.0151283
659.741	0.0152045
659.819	0.0151745
659.897	0.0150468
659.975	0.0151845
660.053	0.0151836
660.131	0.0151392
660.209	0.0152061
660.288	0.0151738
660.366	0.0152238
660.444	0.0150799
660.522	0.0150620
660.600	0.0151322
660.678	0.0151395
660.756	0.0150348
660.834	0.0152203
660.913	0.0151681
660.991	0.0150433
661.069	0.0150583
661.147	0.0151084
661.225	0.0149124
661.303	0.0150558
661.381	0.0149612
661.459	0.0151111
661.538	0.0151849
661.616	0.0150092
661.694	0.0149664
661.772	0.0148809
661.850	0.0150956
661.928	0.0150332
662.006	0.0149674
662.084	0.0150641
662.163	0.0150433
662.241	0.0150214
662.319	0.0150555
662.397	0.0150459
662.475	0.0150220
662.553	0.0151272
662.631	0.0150058
662.709	0.0150744
662.788	0.0150631
662.866	0.0150710
662.944	0.0150346
663.022	0.0151129
663.100	0.0152681
663.178	0.0151237
663.256	0.0151350
663.334	0.0153322
663.413	0.0151654
663.491	0.0149563
663.569	0.0151199
663.647	0.0151195
663.725	0.0149232
663.803	0.0150319
663.881	0.0151311
663.959	0.0149368
664.038	0.0149259
664.116	0.0149530
664.194	0.0149754
664.272	0.0150303
664.350	0.0149873
664.428	0.0148569
664.506	0.0150201
664.584	0.0149675
664.663	0.0149236
664.741	0.0152106
664.819	0.0150121
664.897	0.0150198
664.975	0.0150633
665.053	0.0151206
665.131	0.0150095
665.209	0.0152151
665.288	0.0152261
665.366	0.0150859
665.444	0.0149928
665.522	0.0151653
665.600	0.0152753
665.678	0.0152841
665.756	0.0150387
665.834	0.0149748
665.913	0.0150871
665.991	0.0152635
666.069	0.0151815
666.147	0.0151920
666.225	0.0151889
666.303	0.0151057
666.381	0.0151102
666.459	0.0151261
666.538	0.0151458
666.616	0.0150349
666.694	0.0152685
666.772	0.0151720
666.850	0.0150359
666.928	0.0150492
667.006	0.0153136
667.084	0.0151393
667.163	0.0150658
667.241	0.0151266
667.319	0.0150475
667.397	0.0150600
667.475	0.0153351
667.553	0.0151605
667.631	0.0152391
667.709	0.0152662
667.788	0.0152985
667.866	0.0152310
667.944	0.0152888
668.022	0.0153501
668.100	0.0153784
668.178	0.0153645
668.256	0.0154017
668.334	0.0152740
668.413	0.0154433
668.491	0.0154481
668.569	0.0153851
668.647	0.0153072
668.725	0.0152631
668.803	0.0152921
668.881	0.0153741
668.959	0.0153798
669.038	0.0154823
669.116	0.0154249
669.194	0.0152112
669.272	0.0153441
669.350	0.0152955
669.428	0.0151536
669.506	0.0152277
669.584	0.0153033
669.663	0.0151895
669.741	0.0152419
669.819	0.0153630
669.897	0.0152043
669.975	0.0153680
670.053	0.0153139
670.131	0.0152380
670.209	0.0152650
670.288	0.0152758
670.366	0.0152639
670.444	0.0152835
670.522	0.0153735
670.600	0.0153513
670.678	0.0152997
670.756	0.0152935
670.834	0.0153655
670.913	0.0153244
670.991	0.0153788
671.069	0.0152500
671.147	0.0153248
671.225	0.0153873
671.303	0.0153933
671.381	0.0154439
671.459	0.0153627
671.538	0.0154541
671.616	0.0153052
671.694	0.0155127
671.772	0.0155856
671.850	0.0154812
671.928	0.0154760
672.006	0.0155699
672.084	0.0155522
672.163	0.0155801
672.241	0.0154391
672.319	0.0153535
672.397	0.0153120
672.475	0.0153635
672.553	0.0153107
672.631	0.0151976
672.709	0.0151541
672.788	0.0150972
672.866	0.0150191
672.944	0.0151161
673.022	0.0148904
673.100	0.0149854
673.178	0.0150789
673.256	0.0148772
673.334	0.0148862
673.413	0.0149599
673.491	0.0149315
673.569	0.0150271
673.647	0.0149812
673.725	0.0150112
673.803	0.0151966
673.881	0.0153116
673.959	0.0153120
674.038	0.0154997
674.116	0.0155164
674.194	0.0155142
674.272	0.0158454
674.350	0.0159367
674.428	0.0159190
674.506	0.0159019
674.584	0.0159526
674.663	0.0159974
674.741	0.0161414
674.819	0.0161156
674.897	0.0160480
674.975	0.0160135
675.053	0.0160088
675.131	0.0159997
675.209	0.0159656
675.288	0.0158017
675.366	0.0156941
675.444	0.0156877
675.522	0.0155212
675.600	0.0152776
675.678	0.0152721
675.756	0.0149356
675.834	0.0148526
675.913	0.0146605
675.991	0.0144792
676.069	0.0143252
676.147	0.0142735
676.225	0.0141338
676.303	0.0140094
676.381	0.0139303
676.459	0.0139144
676.538	0.0138228
676.616	0.0138651
676.694	0.0139961
676.772	0.0139513
676.850	0.0141965
676.928	0.0141234
677.006	0.0143946
677.084	0.0146980
677.163	0.0147488
677.241	0.0150234
677.319	0.0151900
677.397	0.0154250
677.475	0.0156698
677.553	0.0158558
677.631	0.0161286
677.709	0.0162979
677.788	0.0165851
677.866	0.0167518
677.944	0.0168713
678.022	0.0169546
678.100	0.0171213
678.178	0.0171931
678.256	0.0171603
678.334	0.0169909
678.413	0.0168768
678.491	0.0167584
678.569	0.0167202
678.647	0.0164796
678.725	0.0160965
678.803	0.0158412
678.881	0.0155995
678.959	0.0151887
679.038	0.0149824
679.116	0.0146463
679.194	0.0145073
679.272	0.0143285
679.350	0.0139290
679.428	0.0136985
679.506	0.0137035
679.584	0.0135070
679.663	0.0132639
679.741	0.0131046
679.819	0.0131673
679.897	0.0132156
679.975	0.0134344
680.053	0.0133270
680.131	0.0135791
680.209	0.0138209
680.288	0.0138902
680.366	0.0139697
680.444	0.0141910
680.522	0.0144278
680.600	0.0148750
680.678	0.0149638
680.756	0.0152060
680.834	0.0154611
680.913	0.0154993
680.991	0.0158700
681.069	0.0158313
681.147	0.0159762
681.225	0.0162202
681.303	0.0162591
681.381	0.0163277
681.459	0.0164234
681.538	0.0162142
681.616	0.0162385
681.694	0.0162090
681.772	0.0162469
681.850	0.0160564
681.928	0.0160926
682.006	0.0159100
682.084	0.0158543
682.163	0.0157365
682.241	0.0157018
682.319	0.0157069
682.397	0.0157457
682.475	0.0157245
682.553	0.0156402
682.631	0.0156882
682.709	0.0157423
682.788	0.0156944
682.866	0.0156310
682.944	0.0156601
683.022	0.0155588
683.100	0.0154184
683.178	0.0154092
683.256	0.0151217
683.334	0.0150393
683.413	0.0151440
683.491	0.0147720
683.569	0.0146963
683.647	0.0145348
683.725	0.0142949
683.803	0.0141942
683.881	0.0139016
683.959	0.0139331
684.038	0.0137672
684.116	0.0137351
684.194	0.0136757
684.272	0.0132767
684.350	0.0132617
684.428	0.0132051
684.506	0.0130751
684.584	0.0131298
684.663	0.0131087
684.741	0.0131074
684.819	0.0131435
684.897	0.0131863
684.975	0.0133647
685.053	0.0136152
685.131	0.0137603
685.209	0.0138807
685.288	0.0141618
685.366	0.0144524
685.444	0.0147415
685.522	0.0150228
685.600	0.0153334
685.678	0.0157199
685.756	0.0158755
685.834	0.0162869
685.913	0.0165292
685.991	0.0168089
686.069	0.0169993
686.147	0.0172709
686.225	0.0174364
686.303	0.0173841
686.381	0.0173994
686.459	0.0174895
686.538	0.0174065
686.616	0.0174197
686.694	0.0171667
686.772	0.0169901
686.850	0.0165953
686.928	0.0165005
687.006	0.0163498
687.084	0.0158965
687.163	0.0157223
687.241	0.0154195
687.319	0.0150160
687.397	0.0148086
687.475	0.0143564
687.553	0.0140366
687.631	0.0138105
687.709	0.0134952
687.788	0.0132550
687.866	0.0131221
687.944	0.0128800
688.022	0.0128436
688.100	0.0127637
688.178	0.0127240
688.256	0.0128560
688.334	0.0129837
688.413	0.0132404
688.491	0.0133244
688.569	0.0138277
688.647	0.0140549
688.725	0.0143324
688.803	0.0147382
688.881	0.0149722
688.959	0.0153873
689.038	0.0157676
689.116	0.0160519
689.194	0.0163331
689.272	0.0166838
689.350	0.0169572
689.428	0.0171515
689.506	0.0173014
689.584	0.0175817
689.663	0.0176327
689.741	0.0178017
689.819	0.0178632
689.897	0.0180018
689.975	0.0181066
690.053	0.0182715
690.131	0.0181315
690.209	0.0179938
690.288	0.0182104
690.366	0.0178849
690.444	0.0175281
690.522	0.0173216
690.600	0.0171973
690.678	0.0167573
690.756	0.0164281
690.834	0.0159693
690.913	0.0156680
690.991	0.0151238
691.069	0.0148261
691.147	0.0143761
691.225	0.0139056
691.303	0.0135358
691.381	0.0132106
691.459	0.0130325
691.538	0.0126841
691.616	0.0124960
691.694	0.0122749
691.772	0.0120227
691.850	0.0118970
691.928	0.0120045
692.006	0.0120782
692.084	0.0122139
692.163	0.0123792
692.241	0.0125101
692.319	0.0126951
692.397	0.0129122
692.475	0.0133518
692.553	0.0138396
692.631	0.0141080
692.709	0.0146809
692.788	0.0152052
692.866	0.0155151
692.944	0.0160604
693.022	0.0164574
693.100	0.0168867
693.178	0.0173144
693.256	0.0174614
693.334	0.0176028
693.413	0.0180133
693.491	0.0182745
693.569	0.0182589
693.647	0.0181912
693.725	0.0182605
693.803	0.0180874
693.881	0.0179630
693.959	0.0179286
694.038	0.0178354
694.116	0.0176158
694.194	0.0173002
694.272	0.0171389
694.350	0.0168610
694.428	0.0165964
694.506	0.0162054
694.584	0.0160767
694.663	0.0158042
694.741	0.0154506
694.819	0.0150693
694.897	0.0147175
694.975	0.0144994
695.053	0.0143285
695.131	0.0139378
695.209	0.0137910
695.288	0.0136928
695.366	0.0136056
695.444	0.0136119
695.522	0.0134863
695.600	0.0136196
695.678	0.0136515
695.756	0.0137940
695.834	0.0138709
695.913	0.0140799
695.991	0.0142541
696.069	0.0142509
696.147	0.0146518
696.225	0.0147215
696.303	0.0148757
696.381	0.0149204
696.459	0.0150269
696.538	0.0148155
696.616	0.0149306
696.694	0.0149512
696.772	0.0149201
696.850	0.0149306
696.928	0.0149890
697.006	0.0149842
697.084	0.0147954
697.163	0.0148381
697.241	0.0148013
697.319	0.0147694
697.397	0.0146606
697.475	0.0148043
697.553	0.0149027
697.631	0.0148804
697.709	0.0148378
697.788	0.0150115
697.866	0.0149488
697.944	0.0148937
698.022	0.0148160
698.100	0.0149502
698.178	0.0149786
698.256	0.0147375
698.334	0.0148260
698.413	0.0148693
698.491	0.0146864
698.569	0.0144793
698.647	0.0145200
698.725	0.0146574
698.803	0.0146101
698.881	0.0146439
698.959	0.0147586
699.038	0.0147592
699.116	0.0149077
699.194	0.0150747
699.272	0.0150825
699.350	0.0152158
699.428	0.0153640
699.506	0.0155247
699.584	0.0154835
699.663	0.0156796
699.741	0.0157212
699.819	0.0157568
699.897	0.0158571
699.975	0.0158915
700.053	0.0160937
700.131	0.0160646
700.209	0.0162220
700.288	0.0163488
700.366	0.0164046
700.444	0.0164850
700.522	0.0168075
700.600	0.0168255
700.678	0.0168867
700.756	0.0171003
700.834	0.0171007
700.913	0.0172118
700.991	0.0172819
701.069	0.0171291
701.147	0.0172328
701.225	0.0172356
701.303	0.0170892
701.381	0.0170216
701.459	0.0169778
701.538	0.0167932
701.616	0.0167594
701.694	0.0164422
701.772	0.0162922
701.850	0.0160838
701.928	0.0159043
702.006	0.0153699
702.084	0.0151944
702.163	0.0148612
702.241	0.0142751
702.319	0.0138341
702.397	0.0134047
702.475	0.0128537
702.553	0.0124506
702.631	0.0121161
702.709	0.0115874
702.788	0.0112996
702.866	0.0112881
702.944	0.0108333
703.022	0.0108265
703.100	0.0108810
703.178	0.0109099
703.256	0.0111899
703.334	0.0112551
703.413	0.0116783
703.491	0.0120142
703.569	0.0125278
703.647	0.0129986
703.725	0.0136938
703.803	0.0141449
703.881	0.0148901
703.959	0.0155959
704.038	0.0160851
704.116	0.0165344
704.194	0.0173200
704.272	0.0178917
704.350	0.0184587
704.428	0.0188332
704.506	0.0192158
704.584	0.0195349
704.663	0.0197036
704.741	0.0197425
704.819	0.0198608
704.897	0.0196909
704.975	0.0194965
705.053	0.0192843
705.131	0.0190471
705.209	0.0185863
705.288	0.0180389
705.366	0.0177967
705.444	0.0172211
705.522	0.0167516
705.600	0.0162290
705.678	0.0156691
705.756	0.0154829
705.834	0.0150350
705.913	0.0145146
705.991	0.0141528
706.069	0.0139564
706.147	0.0136428
706.225	0.0134874
706.303	0.0133472
706.381	0.0134058
706.459	0.0133014
706.538	0.0132171
706.616	0.0133067
706.694	0.0135326
706.772	0.0136650
706.850	0.0140565
706.928	0.0141877
707.006	0.0144229
707.084	0.0146135
707.163	0.0149851
707.241	0.0151911
707.319	0.0155032
707.397	0.0157491
707.475	0.0159151
707.553	0.0161421
707.631	0.0163691
707.709	0.0163967
707.788	0.0167424
707.866	0.0167413
707.944	0.0167677
708.022	0.0166747
708.100	0.0169243
708.178	0.0166676
708.256	0.0166361
708.334	0.0166319
708.413	0.0163953
708.491	0.0162850
708.569	0.0160883
708.647	0.0158544
708.725	0.0156493
708.803	0.0154289
708.881	0.0152130
708.959	0.0149345
709.038	0.0146168
709.116	0.0145758
709.194	0.0143251
709.272	0.0141608
709.350	0.0141890
709.428	0.0139317
709.506	0.0139072
709.584	0.0138549
709.663	0.0136642
709.741	0.0137012
709.819	0.0136486
709.897	0.0136093
709.975	0.0137234
710.053	0.0136792
710.131	0.0137386
710.209	0.0136786
710.288	0.0138309
710.366	0.0138417
710.444	0.0138530
710.522	0.0139118
710.600	0.0141656
710.678	0.0143815
710.756	0.0145565
710.834	0.0145721
710.913	0.0148205
710.991	0.0149795
711.069	0.0151029
711.147	0.0152562
711.225	0.0154999
711.303	0.0156848
711.381	0.0158226
711.459	0.0159537
711.538	0.0162351
711.616	0.0162727
711.694	0.0165324
711.772	0.0166196
711.850	0.0169922
711.928	0.0169832
712.006	0.0172202
712.084	0.0176143
712.163	0.0177663
712.241	0.0180314
712.319	0.0182086
712.397	0.0184395
712.475	0.0184739
712.553	0.0185156
712.631	0.0186617
712.709	0.0186983
712.788	0.0185945
712.866	0.0182500
712.944	0.0181463
713.022	0.0179826
713.100	0.0176239
713.178	0.0175925
713.256	0.0171148
713.334	0.0167427
713.413	0.0164165
713.491	0.0161536
713.569	0.0157420
713.647	0.0152715
713.725	0.0149789
713.803	0.0146429
713.881	0.0142350
713.959	0.0139926
714.038	0.0134719
714.116	0.0132118
714.194	0.0131519
714.272	0.0130160
714.350	0.0124866
714.428	0.0125480
714.506	0.0126236
714.584	0.0125295
714.663	0.0126002
714.741	0.0127848
714.819	0.0129227
714.897	0.0131337
714.975	0.0132233
715.053	0.0134361
715.131	0.0134830
715.209	0.0134629
715.288	0.0135840
715.366	0.0138068
715.444	0.0137404
715.522	0.0138427
715.600	0.0137602
715.678	0.0137613
715.756	0.0139433
715.834	0.0138562
715.913	0.0138988
715.991	0.0139420
716.069	0.0140132
716.147	0.0142542
716.225	0.0143401
716.303	0.0145110
716.381	0.0146402
716.459	0.0147311
716.538	0.0150603
716.616	0.0151752
716.694	0.0153560
716.772	0.0154981
716.850	0.0157314
716.928	0.0159716
717.006	0.0161656
717.084	0.0163688
717.163	0.0166773
717.241	0.0166840
717.319	0.0168540
717.397	0.0170526
717.475	0.0172014
717.553	0.0173719
717.631	0.0173704
717.709	0.0175397
717.788	0.0173850
717.866	0.0173245
717.944	0.0171791
718.022	0.0170930
718.100	0.0170336
718.178	0.0169308
718.256	0.0166642
718.334	0.0162751
718.413	0.0158814
718.491	0.0157112
718.569	0.0155959
718.647	0.0152389
718.725	0.0151150
718.803	0.0150019
718.881	0.0148429
718.959	0.0146849
719.038	0.0144148
719.116	0.0143545
719.194	0.0143382
719.272	0.0143316
719.350	0.0143331
719.428	0.0142708
719.506	0.0143072
719.584	0.0143508
719.663	0.0144992
719.741	0.0146523
719.819	0.0149214
719.897	0.0151028
719.975	0.0153159
720.053	0.0155333
720.131	0.0157331
720.209	0.0159618
720.288	0.0159770
720.366	0.0161320
720.444	0.0164035
720.522	0.0163627
720.600	0.0164878
720.678	0.0165762
720.756	0.0164252
720.834	0.0163215
720.913	0.0162300
720.991	0.0159531
721.069	0.0160552
721.147	0.0157808
721.225	0.0155494
721.303	0.0154300
721.381	0.0152585
721.459	0.0150666
721.538	0.0148547
721.616	0.0145864
721.694	0.0144793
721.772	0.0143234
721.850	0.0142044
721.928	0.0140255
722.006	0.0140698
722.084	0.0138630
722.163	0.0138541
722.241	0.0138649
722.319	0.0136615
722.397	0.0138243
722.475	0.0138201
722.553	0.0138799
722.631	0.0138560
722.709	0.0139882
722.788	0.0140106
722.866	0.0138895
722.944	0.0139626
723.022	0.0141604
723.100	0.0141876
723.178	0.0141486
723.256	0.0143007
723.334	0.0144382
723.413	0.0144439
723.491	0.0146266
723.569	0.0147132
723.647	0.0148917
723.725	0.0152043
723.803	0.0153516
723.881	0.0156898
723.959	0.0158714
724.038	0.0159514
724.116	0.0161913
724.194	0.0162995
724.272	0.0166248
724.350	0.0167893
724.428	0.0171918
724.506	0.0172348
724.584	0.0173653
724.663	0.0172920
724.741	0.0173743
724.819	0.0175603
724.897	0.0175526
724.975	0.0176109
725.053	0.0173933
725.131	0.0171845
725.209	0.0173541
725.288	0.0171878
725.366	0.0169048
725.444	0.0167162
725.522	0.0164943
725.600	0.0163277
725.678	0.0160247
725.756	0.0157752
725.834	0.0156027
725.913	0.0153641
725.991	0.0150415
726.069	0.0146415
726.147	0.0144511
726.225	0.0141306
726.303	0.0139827
726.381	0.0136147
726.459	0.0134728
726.538	0.0133569
726.616	0.0133422
726.694	0.0131441
726.772	0.0131253
726.850	0.0131443
726.928	0.0132675
727.006	0.0134559
727.084	0.0136494
727.163	0.0138805
727.241	0.0141615
727.319	0.0143095
727.397	0.0145685
727.475	0.0149203
727.553	0.0151692
727.631	0.0152135
727.709	0.0154842
727.788	0.0157003
727.866	0.0158176
727.944	0.0159998
728.022	0.0159327
728.100	0.0159350
728.178	0.0158697
728.256	0.0157424
728.334	0.0158048
728.413	0.0156698
728.491	0.0156921
728.569	0.0153957
728.647	0.0152859
728.725	0.0151993
728.803	0.0151953
728.881	0.0150764
728.959	0.0149030
729.038	0.0147568
729.116	0.0147276
729.194	0.0146575
729.272	0.0146626
729.350	0.0147248
729.428	0.0148180
729.506	0.0147803
729.584	0.0148175
729.663	0.0148716
729.741	0.0148277
729.819	0.0150082
729.897	0.0147881
729.975	0.0148145
730.053	0.0148783
730.131	0.0149314
730.209	0.0148492
730.288	0.0149096
730.366	0.0149832
730.444	0.0152123
730.522	0.0152451
730.600	0.0152450
730.678	0.0154059
730.756	0.0153592
730.834	0.0154230
730.913	0.0154596
730.991	0.0156956
731.069	0.0156767
731.147	0.0158862
731.225	0.0159511
731.303	0.0158799
731.381	0.0159642
731.459	0.0161756
731.538	0.0163954
731.616	0.0165837
731.694	0.0166922
731.772	0.0168368
731.850	0.0169352
731.928	0.0169849
732.006	0.0169770
732.084	0.0168559
732.163	0.0168286
732.241	0.0167391
732.319	0.0165511
732.397	0.0163730
732.475	0.0160413
732.553	0.0158710
732.631	0.0156269
732.709	0.0151649
732.788	0.0149889
732.866	0.0147137
732.944	0.0147061
733.022	0.0146046
733.100	0.0144376
733.178	0.0143433
733.256	0.0143024
733.334	0.0141890
733.413	0.0143086
733.491	0.0144199
733.569	0.0145531
733.647	0.0145599
733.725	0.0146909
733.803	0.0148438
733.881	0.0149753
733.959	0.0150829
734.038	0.0151796
734.116	0.0153221
734.194	0.0154379
734.272	0.0154774
734.350	0.0153803
734.428	0.0155238
734.506	0.0155082
734.584	0.0155978
734.663	0.0155779
734.741	0.0156403
734.819	0.0156650
734.897	0.0157750
734.975	0.0156566
735.053	0.0157063
735.131	0.0155175
735.209	0.0156463
735.288	0.0155843
735.366	0.0154660
735.444	0.0155477
735.522	0.0153951
735.600	0.0152489
735.678	0.0153232
735.756	0.0150926
735.834	0.0150241
735.913	0.0148387
735.991	0.0147496
736.069	0.0146561
736.147	0.0146635
736.225	0.0146344
736.303	0.0144598
736.381	0.0146546
736.459	0.0145097
736.538	0.0143165
736.616	0.0144412
736.694	0.0143102
736.772	0.0144549
736.850	0.0143674
736.928	0.0143266
737.006	0.0144073
737.084	0.0143205
737.163	0.0143890
737.241	0.0145775
737.319	0.0146255
737.397	0.0147931
737.475	0.0148864
737.553	0.0150647
737.631	0.0152827
737.709	0.0155533
737.788	0.0157294
737.866	0.0159325
737.944	0.0162480
738.022	0.0163830
738.100	0.0163878
738.178	0.0164291
738.256	0.0165749
738.334	0.0165244
738.413	0.0164545
738.491	0.0164127
738.569	0.0162392
738.647	0.0161143
738.725	0.0158945
738.803	0.0157130
738.881	0.0155512
738.959	0.0152601
739.038	0.0151384
739.116	0.0149105
739.194	0.0146109
739.272	0.0146654
739.350	0.0143252
739.428	0.0143802
739.506	0.0143575
739.584	0.0145686
739.663	0.0143748
739.741	0.0144076
739.819	0.0144402
739.897	0.0145418
739.975	0.0146649
740.053	0.0147724
740.131	0.0147881
740.209	0.0149157
740.288	0.0151513
740.366	0.0152672
740.444	0.0152510
740.522	0.0153831
740.600	0.0154642
740.678	0.0155094
740.756	0.0154421
740.834	0.0157181
740.913	0.0157932
740.991	0.0157495
741.069	0.0156658
741.147	0.0157233
741.225	0.0157179
741.303	0.0157647
741.381	0.0156305
741.459	0.0154456
741.538	0.0153477
741.616	0.0153748
741.694	0.0150819
741.772	0.0150332
741.850	0.0150500
741.928	0.0148734
742.006	0.0149416
742.084	0.0148233
742.163	0.0148846
742.241	0.0148869
742.319	0.0149134
742.397	0.0147822
742.475	0.0148902
742.553	0.0149119
742.631	0.0148321
742.709	0.0149227
742.788	0.0149257
742.866	0.0149760
742.944	0.0150003
743.022	0.0149701
743.100	0.0151480
743.178	0.0150360
743.256	0.0148738
743.334	0.0150515
743.413	0.0148998
743.491	0.0147176
743.569	0.0149043
743.647	0.0147794
743.725	0.0145559
743.803	0.0145811
743.881	0.0143639
743.959	0.0143379
744.038	0.0143616
744.116	0.0142432
744.194	0.0142146
744.272	0.0143854
744.350	0.0144072
744.428	0.0145596
744.506	0.0144286
744.584	0.0146825
744.663	0.0148306
744.741	0.0149591
744.819	0.0151176
744.897	0.0153966
744.975	0.0154171
745.053	0.0156399
745.131	0.0157472
745.209	0.0159976
745.288	0.0160253
745.366	0.0161761
745.444	0.0163387
745.522	0.0164688
745.600	0.0165198
745.678	0.0166381
745.756	0.0166380
745.834	0.0167030
745.913	0.0167735
745.991	0.0166360
746.069	0.0166941
746.147	0.0166312
746.225	0.0164735
746.303	0.0165350
746.381	0.0165382
746.459	0.0162241
746.538	0.0162513
746.616	0.0160602
746.694	0.0157883
746.772	0.0156737
746.850	0.0156943
746.928	0.0155966
747.006	0.0153287
747.084	0.0151683
747.163	0.0151461
747.241	0.0151455
747.319	0.0152529
747.397	0.0150909
747.475	0.0151489
747.553	0.0150854
747.631	0.0148672
747.709	0.0150546
747.788	0.0150317
747.866	0.0149953
747.944	0.0150385
748.022	0.0149797
748.100	0.0150401
748.178	0.0150417
748.256	0.0149558
748.334	0.0150938
748.413	0.0151609
748.491	0.0151525
748.569	0.0151194
748.647	0.0152740
748.725	0.0152650
748.803	0.0153272
748.881	0.0152519
748.959	0.0153260
749.038	0.0153655
749.116	0.0154462
749.194	0.0152025
749.272	0.0153911
749.350	0.0152401
749.428	0.0152351
749.506	0.0152537
749.584	0.0151682
749.663	0.0150892
749.741	0.0150627
749.819	0.0150241
749.897	0.0149033
749.975	0.0148931
750.053	0.0147305
750.131	0.0145403
750.209	0.0145835
750.288	0.0146960
750.366	0.0147148
750.444	0.0146365
750.522	0.0146309
750.600	0.0147476
750.678	0.0148557
750.756	0.0147277
750.834	0.0147630
750.913	0.0147157
750.991	0.0148730
751.069	0.0148535
751.147	0.0149373
751.225	0.0149606
751.303	0.0148129
751.381	0.0148734
751.459	0.0148553
751.538	0.0148917
751.616	0.0148112
751.694	0.0148846
751.772	0.0150388
751.850	0.0150143
751.928	0.0150381
752.006	0.0151382
752.084	0.0151038
752.163	0.0151884
752.241	0.0152452
752.319	0.0153495
752.397	0.0154264
752.475	0.0156581
752.553	0.0155623
752.631	0.0156797
752.709	0.0157554
752.788	0.0158829
752.866	0.0160454
752.944	0.0160802
753.022	0.0162365
753.100	0.0162276
753.178	0.0163344
753.256	0.0163426
753.334	0.0163123
753.413	0.0164252
753.491	0.0164094
753.569	0.0163568
753.647	0.0161608
753.725	0.0161329
753.803	0.0160545
753.881	0.0159901
753.959	0.0156805
754.038	0.0155946
754.116	0.0155588
754.194	0.0153116
754.272	0.0152440
754.350	0.0151397
754.428	0.0148272
754.506	0.0149246
754.584	0.0148958
754.663	0.0147813
754.741	0.0146624
754.819	0.0143446
754.897	0.0146236
754.975	0.0145813
755.053	0.0144692
755.131	0.0145914
755.209	0.0145649
755.288	0.0144999
755.366	0.0145090
755.444	0.0145129
755.522	0.0143613
755.600	0.0145124
755.678	0.0145126
755.756	0.0145404
755.834	0.0144735
755.913	0.0145466
755.991	0.0145811
756.069	0.0144875
756.147	0.0145113
756.225	0.0146642
756.303	0.0145612
756.381	0.0146963
756.459	0.0150005
756.538	0.0149348
756.616	0.0148911
756.694	0.0148312
756.772	0.0149646
756.850	0.0152085
756.928	0.0151468
757.006	0.0152731
757.084	0.0151204
757.163	0.0151180
757.241	0.0153119
757.319	0.0152342
757.397	0.0152963
757.475	0.0151456
757.553	0.0152241
757.631	0.0152206
757.709	0.0152775
757.788	0.0152522
757.866	0.0151839
757.944	0.0152163
758.022	0.0151002
758.100	0.0150445
758.178	0.0150484
758.256	0.0151022
758.334	0.0151540
758.413	0.0151070
758.491	0.0151715
758.569	0.0150163
758.647	0.0152260
758.725	0.0153265
758.803	0.0153683
758.881	0.0154668
758.959	0.0156485
759.038	0.0157565
759.116	0.0157198
759.194	0.0157384
759.272	0.0159560
759.350	0.0159354
759.428	0.0158150
759.506	0.0159469
759.584	0.0159634
759.663	0.0158345
759.741	0.0156478
759.819	0.0156588
759.897	0.0153431
759.975	0.0152323
760.053	0.0150660
760.131	0.0149860
760.209	0.0149464
760.288	0.0147824
760.366	0.0145110
760.444	0.0145187
760.522	0.0147456
760.600	0.0147336
760.678	0.0146362
760.756	0.0147681
760.834	0.0148268
760.913	0.0150272
760.991	0.0149512
761.069	0.0150210
761.147	0.0149403
761.225	0.0152318
761.303	0.0154425
761.381	0.0153191
761.459	0.0154392
761.538	0.0153221
761.616	0.0152519
761.694	0.0152353
761.772	0.0151687
761.850	0.0151662
761.928	0.0151975
762.006	0.0151777
762.084	0.0150861
762.163	0.0149763
762.241	0.0149928
762.319	0.0147945
762.397	0.0148065
762.475	0.0147251
762.553	0.0147699
762.631	0.0148664
762.709	0.0147446
762.788	0.0147544
762.866	0.0148643
762.944	0.0149152
763.022	0.0148187
763.100	0.0150137
763.178	0.0151930
763.256	0.0152171
763.334	0.0151605
763.413	0.0152697
763.491	0.0154616
763.569	0.0155355
763.647	0.0156081
763.725	0.0157327
763.803	0.0156432
763.881	0.0158382
763.959	0.0159540
764.038	0.0159608
764.116	0.0159470
764.194	0.0158022
764.272	0.0159239
764.350	0.0159782
764.428	0.0158120
764.506	0.0156850
764.584	0.0157907
764.663	0.0155576
764.741	0.0154179
764.819	0.0152993
764.897	0.0153156
764.975	0.0150997
765.053	0.0150175
765.131	0.0148483
765.209	0.0146801
765.288	0.0145940
765.366	0.0144913
765.444	0.0143688
765.522	0.0142835
765.600	0.0142397
765.678	0.0142588
765.756	0.0143446
765.834	0.0144720
765.913	0.0145240
765.991	0.0145707
766.069	0.0147260
766.147	0.0148052
766.225	0.0150069
766.303	0.0151255
766.381	0.0154133
766.459	0.0155968
766.538	0.0156610
766.616	0.0157558
766.694	0.0158531
766.772	0.0160491
766.850	0.0160415
766.928	0.0159648
767.006	0.0160168
767.084	0.0159555
767.163	0.0159375
767.241	0.0159283
767.319	0.0158212
767.397	0.0158450
767.475	0.0157612
767.553	0.0158052
767.631	0.0156416
767.709	0.0155412
767.788	0.0154041
767.866	0.0153300
767.944	0.0152657
768.022	0.0152853
768.100	0.0152173
768.178	0.0151196
768.256	0.0150526
768.334	0.0151019
768.413	0.0151561
768.491	0.0149986
768.569	0.0148843
768.647	0.0150304
768.725	0.0151897
768.803	0.0150092
768.881	0.0150874
768.959	0.0150756
769.038	0.0152502
769.116	0.0152298
769.194	0.0152905
769.272	0.0154245
769.350	0.0154562
769.428	0.0155629
769.506	0.0154247
769.584	0.0154960
769.663	0.0154911
769.741	0.0154259
769.819	0.0153896
769.897	0.0153332
769.975	0.0150797
770.053	0.0150655
770.131	0.0152220
770.209	0.0150745
770.288	0.0148906
770.366	0.0149691
770.444	0.0147884
770.522	0.0147063
770.600	0.0146457
770.678	0.0149036
770.756	0.0148164
770.834	0.0148742
770.913	0.0149105
770.991	0.0150756
771.069	0.0150974
771.147	0.0152103
771.225	0.0154221
771.303	0.0154327
771.381	0.0155171
771.459	0.0156022
771.538	0.0157333
771.616	0.0156004
771.694	0.0155340
771.772	0.0155753
771.850	0.0156383
771.928	0.0155989
772.006	0.0154864
772.084	0.0155746
772.163	0.0156457
772.241	0.0156421
772.319	0.0156915
772.397	0.0157446
772.475	0.0157507
772.553	0.0157154
772.631	0.0157501
772.709	0.0157366
772.788	0.0158769
772.866	0.0158382
772.944	0.0157446
773.022	0.0157937
773.100	0.0156407
773.178	0.0155910
773.256	0.0154506
773.334	0.0154053
773.413	0.0150415
773.491	0.0151199
773.569	0.0150340
773.647	0.0147562
773.725	0.0146478
773.803	0.0146873
773.881	0.0146140
773.959	0.0147466
774.038	0.0147562
774.116	0.0146572
774.194	0.0147833
774.272	0.0150216
774.350	0.0150587
774.428	0.0152257
774.506	0.0153400
774.584	0.0155095
774.663	0.0157954
774.741	0.0156281
774.819	0.0158805
774.897	0.0160817
774.975	0.0160260
775.053	0.0160441
775.131	0.0160337
775.209	0.0160317
775.288	0.0159636
775.366	0.0157271
775.444	0.0155616
775.522	0.0156420
775.600	0.0156199
775.678	0.0152455
775.756	0.0151691
775.834	0.0149450
775.913	0.0148538
775.991	0.0147144
776.069	0.0145881
776.147	0.0144917
776.225	0.0144842
776.303	0.0145936
776.381	0.0145716
776.459	0.0145914
776.538	0.0147834
776.616	0.0148107
776.694	0.0149803
776.772	0.0149590
776.850	0.0150881
776.928	0.0153123
777.006	0.0153703
777.084	0.0155411
777.163	0.0156754
777.241	0.0155756
777.319	0.0156642
777.397	0.0157772
777.475	0.0157621
777.553	0.0158485
777.631	0.0157178
777.709	0.0157204
777.788	0.0157016
777.866	0.0155019
777.944	0.0154563
778.022	0.0153320
778.100	0.0151282
778.178	0.0150734
778.256	0.0151463
778.334	0.0150275
778.413	0.0147973
778.491	0.0149353
778.569	0.0149222
778.647	0.0148367
778.725	0.0148654
778.803	0.0149596
778.881	0.0147794
778.959	0.0147711
779.038	0.0149776
779.116	0.0148843
779.194	0.0150787
779.272	0.0151548
779.350	0.0153035
779.428	0.0155615
779.506	0.0154070
779.584	0.0156081
779.663	0.0155150
779.741	0.0156323
779.819	0.0156132
779.897	0.0156670
779.975	0.0156729
780.053	0.0157537
780.131	0.0156614
780.209	0.0153733
780.288	0.0154261
780.366	0.0152759
780.444	0.0152274
780.522	0.0151026
780.600	0.0149731
780.678	0.0150137
780.756	0.0147377
780.834	0.0145571
780.913	0.0147482
780.991	0.0147964
781.069	0.0146448
781.147	0.0148099
781.225	0.0148129
781.303	0.0147988
781.381	0.0149205
781.459	0.0151028
781.538	0.0151450
781.616	0.0151968
781.694	0.0152351
781.772	0.0153609
781.850	0.0152207
781.928	0.0155180
782.006	0.0154221
782.084	0.0154325
782.163	0.0155561
782.241	0.0155488
782.319	0.0154483
782.397	0.0155581
782.475	0.0156606
782.553	0.0156764
782.631	0.0156434
782.709	0.0155259
782.788	0.0156092
782.866	0.0155628
782.944	0.0157535
783.022	0.0156545
783.100	0.0156440
783.178	0.0156018
783.256	0.0156080
783.334	0.0157069
783.413	0.0155227
783.491	0.0156134
783.569	0.0154707
783.647	0.0155311
783.725	0.0152495
783.803	0.0151511
783.881	0.0152299
783.959	0.0150536
784.038	0.0148888
784.116	0.0149429
784.194	0.0150492
784.272	0.0147795
784.350	0.0147594
784.428	0.0148406
784.506	0.0147279
784.584	0.0147572
784.663	0.0148135
784.741	0.0148189
784.819	0.0151033
784.897	0.0149419
784.975	0.0148746
785.053	0.0149986
785.131	0.0153371
785.209	0.0152188
785.288	0.0152118
785.366	0.0153203
785.444	0.0153359
785.522	0.0153666
785.600	0.0152539
785.678	0.0153158
785.756	0.0152950
785.834	0.0152701
785.913	0.0152718
785.991	0.0152149
786.069	0.0151889
786.147	0.0150793
786.225	0.0150405
786.303	0.0150980
786.381	0.0149770
786.459	0.0149939
786.538	0.0150676
786.616	0.0151159
786.694	0.0150775
786.772	0.0150769
786.850	0.0153485
786.928	0.0153374
787.006	0.0154040
787.084	0.0155059
787.163	0.0156345
787.241	0.0155683
787.319	0.0157021
787.397	0.0158102
787.475	0.0157658
787.553	0.0157103
787.631	0.0157146
787.709	0.0156020
787.788	0.0157336
787.866	0.0155690
787.944	0.0154449
788.022	0.0153356
788.100	0.0152412
788.178	0.0150922
788.256	0.0150669
788.334	0.0149134
788.413	0.0148146
788.491	0.0147849
788.569	0.0146310
788.647	0.0146432
788.725	0.0146491
788.803	0.0144510
788.881	0.0146032
788.959	0.0147379
789.038	0.0146929
789.116	0.0148685
789.194	0.0146746
789.272	0.0148189
789.350	0.0150035
789.428	0.0150452
789.506	0.0153876
789.584	0.0153548
789.663	0.0155327
789.741	0.0156757
789.819	0.0157701
789.897	0.0159190
789.975	0.0160771
790.053	0.0162197
790.131	0.0162511
790.209	0.0163084
790.288	0.0164006
790.366	0.0162567
790.444	0.0162998
790.522	0.0163714
790.600	0.0160942
790.678	0.0158395
790.756	0.0159200
790.834	0.0156171
790.913	0.0154173
790.991	0.0152526
791.069	0.0153503
791.147	0.0150814
791.225	0.0148929
791.303	0.0147732
791.381	0.0146488
791.459	0.0146571
791.538	0.0146698
791.616	0.0147344
791.694	0.0147260
791.772	0.0147439
791.850	0.0148146
791.928	0.0150067
792.006	0.0150558
792.084	0.0150307
792.163	0.0152577
792.241	0.0153308
792.319	0.0153934
792.397	0.0154405
792.475	0.0156273
792.553	0.0156337
792.631	0.0155158
792.709	0.0155673
792.788	0.0157044
792.866	0.0157536
792.944	0.0156920
793.022	0.0155251
793.100	0.0156225
793.178	0.0155214
793.256	0.0154250
793.334	0.0154580
793.413	0.0154751
793.491	0.0153008
793.569	0.0152124
793.647	0.0151768
793.725	0.0151093
793.803	0.0149364
793.881	0.0149907
793.959	0.0150967
794.038	0.0148739
794.116	0.0149585
794.194	0.0149380
794.272	0.0149940
794.350	0.0149287
794.428	0.0149738
794.506	0.0149612
794.584	0.0148944
794.663	0.0151125
794.741	0.0151208
794.819	0.0149587
794.897	0.0150632
794.975	0.0152296
795.053	0.0151661
795.131	0.0151158
795.209	0.0152048
795.288	0.0151807
795.366	0.0149819
795.444	0.0151897
795.522	0.0152174
795.600	0.0153242
795.678	0.0153609
795.756	0.0152145
795.834	0.0151625
795.913	0.0153352
795.991	0.0153341
796.069	0.0150214
796.147	0.0153026
796.225	0.0154066
796.303	0.0155664
796.381	0.0153661
796.459	0.0153851
796.538	0.0154633
796.616	0.0155366
796.694	0.0154358
796.772	0.0157326
796.850	0.0156490
796.928	0.0156319
797.006	0.0156422
797.084	0.0156522
797.163	0.0157307
797.241	0.0156552
797.319	0.0156505
797.397	0.0156287
797.475	0.0155098
797.553	0.0156020
797.631	0.0156403
797.709	0.0155868
797.788	0.0156311
797.866	0.0157403
797.944	0.0155727
798.022	0.0154678
798.100	0.0156802
798.178	0.0155096
798.256	0.0154493
798.334	0.0154976
798.413	0.0153494
798.491	0.0153098
798.569	0.0152131
798.647	0.0151872
798.725	0.0152438
798.803	0.0150864
798.881	0.0150581
798.959	0.0150092
799.038	0.0150136
799.116	0.0148971
799.194	0.0148457
799.272	0.0149088
799.350	0.0146889
799.428	0.0148817
799.506	0.0146461
799.584	0.0146304
799.663	0.0145482
799.741	0.0145476
799.819	0.0144476
799.897	0.0143903
799.975	0.0144904
800.053	0.0144432
800.131	0.0146043
800.209	0.0146902
800.288	0.0147249
800.366	0.0147433
800.444	0.0149888
800.522	0.0150160
800.600	0.0151830
800.678	0.0152550
800.756	0.0152938
800.834	0.0154578
800.913	0.0155264
800.991	0.0156847
801.069	0.0157150
801.147	0.0158273
801.225	0.0159407
801.303	0.0158965
801.381	0.0158646
801.459	0.0157677
801.538	0.0159467
801.616	0.0160275
801.694	0.0158495
801.772	0.0158160
801.850	0.0157861
801.928	0.0158311
802.006	0.0156831
802.084	0.0156973
802.163	0.0155544
802.241	0.0154552
802.319	0.0153696
802.397	0.0153445
802.475	0.0152473
802.553	0.0152773
802.631	0.0151952
802.709	0.0151027
802.788	0.0150512
802.866	0.0152179
802.944	0.0149883
803.022	0.0150541
803.100	0.0152291
803.178	0.0151481
803.256	0.0151661
803.334	0.0152055
803.413	0.0152896
803.491	0.0153251
803.569	0.0154280
803.647	0.0154392
803.725	0.0153778
803.803	0.0155399
803.881	0.0154874
803.959	0.0154980
804.038	0.0155946
804.116	0.0156628
804.194	0.0156084
804.272	0.0155514
804.350	0.0155341
804.428	0.0155482
804.506	0.0155729
804.584	0.0155308
804.663	0.0155154
804.741	0.0156245
804.819	0.0154276
804.897	0.0154414
804.975	0.0154378
805.053	0.0154520
805.131	0.0154104
805.209	0.0152968
805.288	0.0152615
805.366	0.0153848
805.444	0.0152502
805.522	0.0151591
805.600	0.0151257
805.678	0.0151188
805.756	0.0150391
805.834	0.0149415
805.913	0.0150997
805.991	0.0150047
806.069	0.0149107
806.147	0.0149551
806.225	0.0149988
806.303	0.0150782
806.381	0.0151606
806.459	0.0151512
806.538	0.0152455
806.616	0.0152795
806.694	0.0153189
806.772	0.0154040
806.850	0.0154350
806.928	0.0153516
807.006	0.0153175
807.084	0.0153439
807.163	0.0154018
807.241	0.0154977
807.319	0.0155544
807.397	0.0154494
807.475	0.0153481
807.553	0.0153789
807.631	0.0154543
807.709	0.0152688
807.788	0.0152311
807.866	0.0152213
807.944	0.0153739
808.022	0.0153918
808.100	0.0153148
808.178	0.0153175
808.256	0.0153883
808.334	0.0155468
808.413	0.0156382
808.491	0.0154984
808.569	0.0156542
808.647	0.0156927
808.725	0.0155973
808.803	0.0156188
808.881	0.0157864
808.959	0.0156519
809.038	0.0156412
809.116	0.0157257
809.194	0.0156364
809.272	0.0156109
809.350	0.0154762
809.428	0.0154617
809.506	0.0155332
809.584	0.0154999
809.663	0.0153972
809.741	0.0153943
809.819	0.0154501
809.897	0.0153170
809.975	0.0151422
810.053	0.0151037
810.131	0.0150674
810.209	0.0151060
810.288	0.0150116
810.366	0.0149413
810.444	0.0150710
810.522	0.0149892
810.600	0.0149608
810.678	0.0151086
810.756	0.0150846
810.834	0.0150179
810.913	0.0150062
810.991	0.0150838
811.069	0.0152197
811.147	0.0151617
811.225	0.0151112
811.303	0.0151360
811.381	0.0150832
811.459	0.0152297
811.538	0.0150804
811.616	0.0150963
811.694	0.0150431
811.772	0.0151705
811.850	0.0149552
811.928	0.0149647
812.006	0.0149747
812.084	0.0149813
812.163	0.0149534
812.241	0.0150668
812.319	0.0150729
812.397	0.0149776
812.475	0.0150308
812.553	0.0150751
812.631	0.0151647
812.709	0.0151266
812.788	0.0150965
812.866	0.0152084
812.944	0.0152244
813.022	0.0152029
813.100	0.0153811
813.178	0.0153034
813.256	0.0153615
813.334	0.0154819
813.413	0.0153690
813.491	0.0153738
813.569	0.0156201
813.647	0.0156008
813.725	0.0156130
813.803	0.0154511
813.881	0.0155766
813.959	0.0156622
814.038	0.0157272
814.116	0.0156207
814.194	0.0156573
814.272	0.0156680
814.350	0.0156912
814.428	0.0157548
814.506	0.0155830
814.584	0.0154669
814.663	0.0154586
814.741	0.0155032
814.819	0.0153410
814.897	0.0152060
814.975	0.0152370
815.053	0.0152204
815.131	0.0152194
815.209	0.0151418
815.288	0.0150302
815.366	0.0149509
815.444	0.0149951
815.522	0.0150741
815.600	0.0150221
815.678	0.0149783
815.756	0.0151578
815.834	0.0149753
815.913	0.0150259
815.991	0.0151153
816.069	0.0151878
816.147	0.0152232
816.225	0.0150986
816.303	0.0152537
816.381	0.0152311
816.459	0.0153585
816.538	0.0151939
816.616	0.0152593
816.694	0.0153959
816.772	0.0152937
816.850	0.0154005
816.928	0.0154454
817.006	0.0153148
817.084	0.0152363
817.163	0.0153558
817.241	0.0152990
817.319	0.0152611
817.397	0.0152728
817.475	0.0150523
817.553	0.0151802
817.631	0.0151479
817.709	0.0149979
817.788	0.0147940
817.866	0.0149033
817.944	0.0149220
818.022	0.0148969
818.100	0.0147054
818.178	0.0146600
818.256	0.0146958
818.334	0.0147543
818.413	0.0146685
818.491	0.0147427
818.569	0.0149478
818.647	0.0147681
818.725	0.0147826
818.803	0.0148830
818.881	0.0150111
818.959	0.0150406
819.038	0.0150674
819.116	0.0150019
819.194	0.0150284
819.272	0.0149722
819.350	0.0151221
819.428	0.0150761
819.506	0.0151883
819.584	0.0150825
819.663	0.0153229
819.741	0.0152347
819.819	0.0151877
819.897	0.0153329
819.975	0.0153487
820.053	0.0154036
820.131	0.0155478
820.209	0.0155425
820.288	0.0153375
820.366	0.0153764
820.444	0.0154395
820.522	0.0153465
820.600	0.0153744
820.678	0.0154107
820.756	0.0154128
820.834	0.0152473
820.913	0.0153905
820.991	0.0152525
821.069	0.0153738
821.147	0.0153093
821.225	0.0152782
821.303	0.0154722
821.381	0.0153476
821.459	0.0153892
821.538	0.0154872
821.616	0.0154169
821.694	0.0155143
821.772	0.0156264
821.850	0.0157035
821.928	0.0155131
822.006	0.0156806
822.084	0.0154934
822.163	0.0155444
822.241	0.0156335
822.319	0.0153981
822.397	0.0155077
822.475	0.0154783
822.553	0.0153945
822.631	0.0153297
822.709	0.0152306
822.788	0.0150759
822.866	0.0150815
822.944	0.0149949
823.022	0.0149695
823.100	0.0150089
823.178	0.0148943
823.256	0.0149171
823.334	0.0149086
823.413	0.0149306
823.491	0.0149609
823.569	0.0150124
823.647	0.0150877
823.725	0.0151704
823.803	0.0150819
823.881	0.0151957
823.959	0.0151955
824.038	0.0151126
824.116	0.0150858
824.194	0.0151926
824.272	0.0151601
824.350	0.0152187
824.428	0.0152113
824.506	0.0152137
824.584	0.0152859
824.663	0.0153879
824.741	0.0154027
824.819	0.0155521
824.897	0.0157445
824.975	0.0156107
825.053	0.0156267
825.131	0.0156245
825.209	0.0155537
825.288	0.0156941
825.366	0.0154136
825.444	0.0155282
825.522	0.0155011
825.600	0.0155624
825.678	0.0154513
825.756	0.0153252
825.834	0.0154118
825.913	0.0152893
825.991	0.0153927
826.069	0.0153989
826.147	0.0155055
826.225	0.0154292
826.303	0.0153787
826.381	0.0154880
826.459	0.0154116
826.538	0.0153365
826.616	0.0153526
826.694	0.0152197
826.772	0.0152399
826.850	0.0153218
826.928	0.0152417
827.006	0.0152294
827.084	0.0152824
827.163	0.0152797
827.241	0.0152614
827.319	0.0152738
827.397	0.0151469
827.475	0.0152406
827.553	0.0152903
827.631	0.0151628
827.709	0.0153158
827.788	0.0152878
827.866	0.0152184
827.944	0.0153325
828.022	0.0154079
828.100	0.0153621
828.178	0.0155281
828.256	0.0153989
828.334	0.0153986
828.413	0.0155333
828.491	0.0153955
828.569	0.0152956
828.647	0.0155019
828.725	0.0154445
828.803	0.0152813
828.881	0.0153699
828.959	0.0154394
829.038	0.0153919
829.116	0.0152490
829.194	0.0152402
829.272	0.0151811
829.350	0.0151357
829.428	0.0150642
829.506	0.0149529
829.584	0.0149202
829.663	0.0149662
829.741	0.0149015
829.819	0.0148535
829.897	0.0145786
829.975	0.0147253
830.053	0.0146543
830.131	0.0148505
830.209	0.0147384
830.288	0.0149503
830.366	0.0149480
830.444	0.0150016
830.522	0.0150295
830.600	0.0151134
830.678	0.0152613
830.756	0.0151839
830.834	0.0152576
830.913	0.0153902
830.991	0.0154330
831.069	0.0154436
831.147	0.0153664
831.225	0.0154187
831.303	0.0155149
831.381	0.0154449
831.459	0.0154990
831.538	0.0153650
831.616	0.0155230
831.694	0.0154112
831.772	0.0152460
831.850	0.0154708
831.928	0.0153947
832.006	0.0151418
832.084	0.0152856
832.163	0.0152085
832.241	0.0152071
832.319	0.0152346
832.397	0.0152854
832.475	0.0153722
832.553	0.0152778
832.631	0.0151698
832.709	0.0150613
832.788	0.0150764
832.866	0.0152013
832.944	0.0152055
833.022	0.0151778
833.100	0.0151894
833.178	0.0150771
833.256	0.0152657
833.334	0.0152658
833.413	0.0151391
833.491	0.0151479
833.569	0.0152725
833.647	0.0153002
833.725	0.0153167
833.803	0.0153237
833.881	0.0153976
833.959	0.0154443
834.038	0.0155605
834.116	0.0155981
834.194	0.0155933
834.272	0.0155513
834.350	0.0154043
834.428	0.0155322
834.506	0.0154745
834.584	0.0154211
834.663	0.0156676
834.741	0.0155457
834.819	0.0155070
834.897	0.0154762
834.975	0.0152555
835.053	0.0154649
835.131	0.0153936
835.209	0.0153178
835.288	0.0152133
835.366	0.0152901
835.444	0.0153823
835.522	0.0154253
835.600	0.0153388
835.678	0.0151436
835.756	0.0151489
835.834	0.0151711
835.913	0.0149842
835.991	0.0152845
836.069	0.0151246
836.147	0.0151717
836.225	0.0150644
836.303	0.0151516
836.381	0.0151481
836.459	0.0151814
836.538	0.0151875
836.616	0.0153037
836.694	0.0152283
836.772	0.0154057
836.850	0.0154350
836.928	0.0153947
837.006	0.0154718
837.084	0.0154267
837.163	0.0153510
837.241	0.0154597
837.319	0.0154398
837.397	0.0154685
837.475	0.0153719
837.553	0.0153874
837.631	0.0153975
837.709	0.0155087
837.788	0.0152581
837.866	0.0153562
837.944	0.0153623
838.022	0.0153444
838.100	0.0152697
838.178	0.0152410
838.256	0.0152190
838.334	0.0152169
838.413	0.0150876
838.491	0.0151099
838.569	0.0150131
838.647	0.0149618
838.725	0.0149370
838.803	0.0149197
838.881	0.0148293
838.959	0.0148837
839.038	0.0148196
839.116	0.0147416
839.194	0.0149104
839.272	0.0147906
839.350	0.0148328
839.428	0.0147025
839.506	0.0149106
839.584	0.0148576
839.663	0.0149217
839.741	0.0149094
839.819	0.0149105
839.897	0.0148589
839.975	0.0148874
840.053	0.0150626
840.131	0.0150695
840.209	0.0150108
840.288	0.0150549
840.366	0.0150993
840.444	0.0152160
840.522	0.0150816
840.600	0.0149677
840.678	0.0151221
840.756	0.0151804
840.834	0.0151408
840.913	0.0150895
840.991	0.0152062
841.069	0.0152214
841.147	0.0153663
841.225	0.0152665
841.303	0.0151746
841.381	0.0153917
841.459	0.0154893
841.538	0.0153312
841.616	0.0152752
841.694	0.0154301
841.772	0.0155370
841.850	0.0155199
841.928	0.0153645
842.006	0.0153609
842.084	0.0154583
842.163	0.0154505
842.241	0.0155372
842.319	0.0153790
842.397	0.0154278
842.475	0.0154286
842.553	0.0153010
842.631	0.0154838
842.709	0.0155319
842.788	0.0154736
842.866	0.0154419
842.944	0.0154842
843.022	0.0156271
843.100	0.0155252
843.178	0.0156887
843.256	0.0155843
843.334	0.0155580
843.413	0.0155232
843.491	0.0154471
843.569	0.0155382
843.647	0.0155907
843.725	0.0153682
843.803	0.0155238
843.881	0.0153485
843.959	0.0153357
844.038	0.0153489
844.116	0.0152972
844.194	0.0153522
844.272	0.0153300
844.350	0.0152321
844.428	0.0152268
844.506	0.0152695
844.584	0.0152689
844.663	0.0152054
844.741	0.0153487
844.819	0.0152699
844.897	0.0151453
844.975	0.0152556
845.053	0.0152101
845.131	0.0151291
845.209	0.0153142
845.288	0.0152523
845.366	0.0152983
845.444	0.0152302
845.522	0.0151319
845.600	0.0150629
845.678	0.0152654
845.756	0.0151679
845.834	0.0151408
845.913	0.0153220
845.991	0.0154025
846.069	0.0152866
846.147	0.0154030
846.225	0.0153413
846.303	0.0154215
846.381	0.0152766
846.459	0.0153142
846.538	0.0154189
846.616	0.0155394
846.694	0.0153834
846.772	0.0154530
846.850	0.0155371
846.928	0.0156470
847.006	0.0155823
847.084	0.0154340
847.163	0.0154983
847.241	0.0155202
847.319	0.0155415
847.397	0.0154718
847.475	0.0153888
847.553	0.0154783
847.631	0.0154800
847.709	0.0155061
847.788	0.0155091
847.866	0.0152727
847.944	0.0154446
848.022	0.0152890
848.100	0.0152575
848.178	0.0153481
848.256	0.0153203
848.334	0.0153633
848.413	0.0152985
848.491	0.0152249
848.569	0.0152727
848.647	0.0153783
848.725	0.0153996
848.803	0.0155320
848.881	0.0153528
848.959	0.0154245
849.038	0.0156001
849.116	0.0155054
849.194	0.0154069
849.272	0.0153928
849.350	0.0154112
849.428	0.0154047
849.506	0.0154388
849.584	0.0153264
849.663	0.0152062
849.741	0.0152121
849.819	0.0152605
849.897	0.0151510
849.975	0.0151206
850.053	0.0151404
850.131	0.0150856
850.209	0.0151574
850.288	0.0151514
850.366	0.0151043
850.444	0.0150805
850.522	0.0152390
850.600	0.0152199
850.678	0.0151858
850.756	0.0151814
850.834	0.0151160
850.913	0.0151456
850.991	0.0152247
851.069	0.0151413
851.147	0.0152084
851.225	0.0150216
851.303	0.0150452
851.381	0.0151981
851.459	0.0150726
851.538	0.0150159
851.616	0.0150319
851.694	0.0150623
851.772	0.0150088
851.850	0.0151318
851.928	0.0149235
852.006	0.0149863
852.084	0.0150771
852.163	0.0151476
852.241	0.0150901
852.319	0.0150082
852.397	0.0149996
852.475	0.0149403
852.553	0.0151048
852.631	0.0151641
852.709	0.0151020
852.788	0.0150066
852.866	0.0151062
852.944	0.0149274
853.022	0.0150716
853.100	0.0151597
853.178	0.0150215
853.256	0.0151678
853.334	0.0150888
853.413	0.0150602
853.491	0.0151058
853.569	0.0152025
853.647	0.0150737
853.725	0.0150573
853.803	0.0151344
853.881	0.0152055
853.959	0.0151118
854.038	0.0152909
854.116	0.0153533
854.194	0.0152399
854.272	0.0152527
854.350	0.0152888
854.428	0.0152464
854.506	0.0153496
854.584	0.0152678
854.663	0.0152147
854.741	0.0152703
854.819	0.0153973
854.897	0.0152390
854.975	0.0153494
855.053	0.0154074
855.131	0.0153666
855.209	0.0154568
855.288	0.0153868
855.366	0.0152930
855.444	0.0154030
855.522	0.0154784
855.600	0.0153657
855.678	0.0155042
855.756	0.0153970
855.834	0.0154026
855.913	0.0154595
855.991	0.0154256
856.069	0.0155010
856.147	0.0155470
856.225	0.0154326
856.303	0.0153927
856.381	0.0154686
856.459	0.0154171
856.538	0.0155180
856.616	0.0155180
856.694	0.0152784
856.772	0.0152429
856.850	0.0153278
856.928	0.0153276
857.006	0.0151633
857.084	0.0154057
857.163	0.0152299
857.241	0.0151954
857.319	0.0150001
857.397	0.0151757
857.475	0.0151424
857.553	0.0149246
857.631	0.0150064
857.709	0.0150531
857.788	0.0150472
857.866	0.0149495
857.944	0.0150008
858.022	0.0150497
858.100	0.0150964
858.178	0.0150378
858.256	0.0150372
858.334	0.0150710
858.413	0.0152065
858.491	0.0152129
858.569	0.0150169
858.647	0.0150154
858.725	0.0151925
858.803	0.0150993
858.881	0.0150920
858.959	0.0151647
859.038	0.0151383
859.116	0.0151752
859.194	0.0151703
859.272	0.0150827
859.350	0.0151537
859.428	0.0151376
859.506	0.0150677
859.584	0.0151451
859.663	0.0151442
859.741	0.0150979
859.819	0.0151238
859.897	0.0152122
859.975	0.0153091
860.053	0.0153181
860.131	0.0152576
860.209	0.0151643
860.288	0.0151956
860.366	0.0152805
860.444	0.0153077
860.522	0.0153078
860.600	0.0153008
860.678	0.0153055
860.756	0.0153870
860.834	0.0152433
860.913	0.0154018
860.991	0.0153961
861.069	0.0153234
861.147	0.0155274
861.225	0.0154282
861.303	0.0152200
861.381	0.0154425
861.459	0.0154926
861.538	0.0154916
861.616	0.0154971
861.694	0.0154373
861.772	0.0154321
861.850	0.0154560
861.928	0.0154808
862.006	0.0153735
862.084	0.0153545
862.163	0.0154617
862.241	0.0153097
862.319	0.0152096
862.397	0.0152036
862.475	0.0153817
862.553	0.0152114
862.631	0.0151634
862.709	0.0153371
862.788	0.0153770
862.866	0.0152477
862.944	0.0153658
863.022	0.0153131
863.100	0.0153424
863.178	0.0152870
863.256	0.0153088
863.334	0.0154507
863.413	0.0154142
863.491	0.0153924
863.569	0.0153491
863.647	0.0154234
863.725	0.0155610
863.803	0.0153323
863.881	0.0153445
863.959	0.0154176
864.038	0.0153876
864.116	0.0153910
864.194	0.0153320
864.272	0.0152746
864.350	0.0152695
864.428	0.0152599
864.506	0.0153299
864.584	0.0152322
864.663	0.0153630
864.741	0.0152846
864.819	0.0151772
864.897	0.0152428
864.975	0.0150448
865.053	0.0153060
865.131	0.0153844
865.209	0.0152763
865.288	0.0153380
865.366	0.0153333
865.444	0.0153223
865.522	0.0153669
865.600	0.0154221
865.678	0.0152969
865.756	0.0153660
865.834	0.0152868
865.913	0.0154232
865.991	0.0153526
866.069	0.0152356
866.147	0.0153644
866.225	0.0152465
866.303	0.0150925
866.381	0.0151876
866.459	0.0151350
866.538	0.0152097
866.616	0.0152827
866.694	0.0153983
866.772	0.0152906
866.850	0.0152715
866.928	0.0153411
867.006	0.0154444
867.084	0.0154755
867.163	0.0152615
867.241	0.0153329
867.319	0.0153971
867.397	0.0154551
867.475	0.0155052
867.553	0.0153614
867.631	0.0154420
867.709	0.0153461
867.788	0.0153554
867.866	0.0151768
867.944	0.0151978
868.022	0.0151731
868.100	0.0152428
868.178	0.0150986
868.256	0.0152600
868.334	0.0150163
868.413	0.0151332
868.491	0.0151679
868.569	0.0153142
868.647	0.0152012
868.725	0.0152279
868.803	0.0151868
868.881	0.0152673
868.959	0.0151769
869.038	0.0151732
869.116	0.0153171
869.194	0.0152895
869.272	0.0152685
869.350	0.0153107
869.428	0.0152798
869.506	0.0152402
869.584	0.0152615
869.663	0.0152628
869.741	0.0153263
869.819	0.0153120
869.897	0.0151602
869.975	0.0152335
870.053	0.0153767
870.131	0.0152177
870.209	0.0151129
870.288	0.0151646
870.366	0.0151255
870.444	0.0150337
870.522	0.0152184
870.600	0.0151975
870.678	0.0152023
870.756	0.0151628
870.834	0.0151708
870.913	0.0152434
870.991	0.0151046
871.069	0.0150375
871.147	0.0150945
871.225	0.0151797
871.303	0.0152056
871.381	0.0151577
871.459	0.0152824
871.538	0.0151614
871.616	0.0151596
871.694	0.0151788
871.772	0.0151456
871.850	0.0151728
871.928	0.0151483
872.006	0.0152629
872.084	0.0151695
872.163	0.0151595
872.241	0.0150463
872.319	0.0152747
872.397	0.0150894
872.475	0.0152446
872.553	0.0150224
872.631	0.0150745
872.709	0.0152625
872.788	0.0150829
872.866	0.0150955
872.944	0.0152417
873.022	0.0151143
873.100	0.0152789
873.178	0.0151077
873.256	0.0152168
873.334	0.0152856
873.413	0.0153024
873.491	0.0152354
873.569	0.0152395
873.647	0.0152348
873.725	0.0152222
873.803	0.0152790
873.881	0.0152359
873.959	0.0152724
874.038	0.0151971
874.116	0.0152290
874.194	0.0152028
874.272	0.0152251
874.350	0.0153203
874.428	0.0154121
874.506	0.0153121
874.584	0.0152748
874.663	0.0153571
874.741	0.0153690
874.819	0.0153060
874.897	0.0152814
874.975	0.0153822
875.053	0.0154189
875.131	0.0154131
875.209	0.0153465
875.288	0.0154660
875.366	0.0155160
875.444	0.0154743
875.522	0.0154128
875.600	0.0153936
875.678	0.0154894
875.756	0.0154363
875.834	0.0153381
875.913	0.0154446
875.991	0.0152598
876.069	0.0153374
876.147	0.0153714
876.225	0.0154215
876.303	0.0154697
876.381	0.0154131
876.459	0.0153384
876.538	0.0154842
876.616	0.0153155
876.694	0.0153336
876.772	0.0153989
876.850	0.0154598
876.928	0.0153197
877.006	0.0152160
877.084	0.0153329
877.163	0.0153157
877.241	0.0152150
877.319	0.0152296
877.397	0.0153159
877.475	0.0153310
877.553	0.0153962
877.631	0.0154026
877.709	0.0152769
877.788	0.0153206
877.866	0.0152564
877.944	0.0153529
878.022	0.0152496
878.100	0.0154604
878.178	0.0155043
878.256	0.0152740
878.334	0.0153090
878.413	0.0154790
878.491	0.0153784
878.569	0.0152255
878.647	0.0153870
878.725	0.0153832
878.803	0.0153480
878.881	0.0152743
878.959	0.0153551
879.038	0.0151240
879.116	0.0151939
879.194	0.0150068
879.272	0.0151470
879.350	0.0151835
879.428	0.0150432
879.506	0.0150301
879.584	0.0150537
879.663	0.0149666
879.741	0.0150318
879.819	0.0150262
879.897	0.0150838
879.975	0.0151380
880.053	0.0151694
880.131	0.0151869
880.209	0.0151735
880.288	0.0152124
880.366	0.0152825
880.444	0.0152247
880.522	0.0150817
880.600	0.0151128
880.678	0.0151923
880.756	0.0152362
880.834	0.0152843
880.913	0.0152322
880.991	0.0152027
881.069	0.0152210
881.147	0.0151327
881.225	0.0151041
881.303	0.0151501
881.381	0.0151477
881.459	0.0151652
881.538	0.0150684
881.616	0.0151422
881.694	0.0152939
881.772	0.0152206
881.850	0.0153288
881.928	0.0151723
882.006	0.0150790
882.084	0.0152343
882.163	0.0153292
882.241	0.0152574
882.319	0.0151497
882.397	0.0152511
882.475	0.0151788
882.553	0.0152724
882.631	0.0152365
882.709	0.0150977
882.788	0.0152022
882.866	0.0152387
882.944	0.0151462
883.022	0.0152786
883.100	0.0151679
883.178	0.0152008
883.256	0.0151998
883.334	0.0152422
883.413	0.0151521
883.491	0.0152049
883.569	0.0154164
883.647	0.0153938
883.725	0.0154150
883.803	0.0154646
883.881	0.0155382
883.959	0.0154893
884.038	0.0155720
884.116	0.0155119
884.194	0.0155285
884.272	0.0154604
884.350	0.0154965
884.428	0.0155341
884.506	0.0154350
884.584	0.0154356
884.663	0.0154255
884.741	0.0152323
884.819	0.0153251
884.897	0.0153445
884.975	0.0152476
885.053	0.0152157
885.131	0.0152892
885.209	0.0152471
885.288	0.0151928
885.366	0.0150713
885.444	0.0151720
885.522	0.0151852
885.600	0.0151920
885.678	0.0149231
885.756	0.0152094
885.834	0.0153110
885.913	0.0151273
885.991	0.0151334
886.069	0.0151659
886.147	0.0151390
886.225	0.0153484
886.303	0.0152871
886.381	0.0151715
886.459	0.0152040
886.538	0.0152733
886.616	0.0152940
886.694	0.0153339
886.772	0.0154462
886.850	0.0154057
886.928	0.0152962
887.006	0.0154526
887.084	0.0154209
887.163	0.0154719
887.241	0.0153352
887.319	0.0155115
887.397	0.0154511
887.475	0.0155288
887.553	0.0153036
887.631	0.0155196
887.709	0.0155550
887.788	0.0154987
887.866	0.0156330
887.944	0.0155928
888.022	0.0154916
888.100	0.0156120
888.178	0.0154597
888.256	0.0155046
888.334	0.0153846
888.413	0.0153632
888.491	0.0153602
888.569	0.0154060
888.647	0.0153955
888.725	0.0155462
888.803	0.0154022
888.881	0.0153425
888.959	0.0151746
889.038	0.0152352
889.116	0.0154932
889.194	0.0153821
889.272	0.0153333
889.350	0.0154424
889.428	0.0153400
889.506	0.0153351
889.584	0.0153906
889.663	0.0153770
889.741	0.0153321
889.819	0.0152937
889.897	0.0153246
889.975	0.0152264
890.053	0.0152077
890.131	0.0153082
890.209	0.0153483
890.288	0.0153069
890.366	0.0153383
890.444	0.0154038
890.522	0.0153493
890.600	0.0154009
890.678	0.0154240
890.756	0.0154200
890.834	0.0154436
890.913	0.0155172
890.991	0.0155034
891.069	0.0154784
891.147	0.0154892
891.225	0.0154662
891.303	0.0155228
891.381	0.0155325
891.459	0.0154383
891.538	0.0155042
891.616	0.0154589
891.694	0.0155173
891.772	0.0154167
891.850	0.0155830
891.928	0.0154303
892.006	0.0154524
892.084	0.0153877
892.163	0.0154599
892.241	0.0154149
892.319	0.0154869
892.397	0.0154665
892.475	0.0154284
892.553	0.0155214
892.631	0.0154453
892.709	0.0153172
892.788	0.0153828
892.866	0.0154143
892.944	0.0151910
893.022	0.0153603
893.100	0.0154766
893.178	0.0153133
893.256	0.0152431
893.334	0.0151404
893.413	0.0150879
893.491	0.0152521
893.569	0.0152927
893.647	0.0151572
893.725	0.0152629
893.803	0.0152296
893.881	0.0152423
893.959	0.0151940
894.038	0.0149779
894.116	0.0150860
894.194	0.0150906
894.272	0.0151093
894.350	0.0151702
894.428	0.0149883
894.506	0.0152457
894.584	0.0151524
894.663	0.0152121
894.741	0.0152110
894.819	0.0153520
894.897	0.0153468
894.975	0.0153641
895.053	0.0154067
895.131	0.0155187
895.209	0.0156673
895.288	0.0154442
895.366	0.0156057
895.444	0.0156268
895.522	0.0154649
895.600	0.0154224
895.678	0.0156547
895.756	0.0156287
895.834	0.0154021
895.913	0.0155242
895.991	0.0155002
896.069	0.0153880
896.147	0.0156286
896.225	0.0154512
896.303	0.0153145
896.381	0.0152571
896.459	0.0152048
896.538	0.0151418
896.616	0.0150731
896.694	0.0149217
896.772	0.0149164
896.850	0.0149304
896.928	0.0148464
897.006	0.0147047
897.084	0.0148049
897.163	0.0148806
897.241	0.0147686
897.319	0.0146918
897.397	0.0147702
897.475	0.0146844
897.553	0.0148463
897.631	0.0147246
897.709	0.0148600
897.788	0.0149043
897.866	0.0149281
897.944	0.0149165
898.022	0.0150333
898.100	0.0150556
898.178	0.0151673
898.256	0.0152449
898.334	0.0153365
898.413	0.0152176
898.491	0.0152514
898.569	0.0153790
898.647	0.0154231
898.725	0.0155510
898.803	0.0154277
898.881	0.0154398
898.959	0.0156490
899.038	0.0153230
899.116	0.0153725
899.194	0.0154507
899.272	0.0154013
899.350	0.0155790
899.428	0.0156009
899.506	0.0154192
899.584	0.0152850
899.663	0.0152847
899.741	0.0153262
899.819	0.0152559
899.897	0.0152036
899.975	0.0152375
900.053	0.0152670
900.131	0.0153420
900.209	0.0153119
900.288	0.0152433
900.366	0.0151775
900.444	0.0151633
900.522	0.0152628
900.600	0.0151799
900.678	0.0152168
900.756	0.0152586
900.834	0.0151682
900.913	0.0151756
900.991	0.0152083
901.069	0.0152438
901.147	0.0152856
901.225	0.0153525
901.303	0.0151104
901.381	0.0150568
901.459	0.0152739
901.538	0.0153834
901.616	0.0153159
901.694	0.0154017
901.772	0.0151917
901.850	0.0153401
901.928	0.0154095
902.006	0.0154385
902.084	0.0152605
902.163	0.0153230
902.241	0.0154192
902.319	0.0154036
902.397	0.0155446
902.475	0.0154440
902.553	0.0155387
902.631	0.0155531
902.709	0.0155091
902.788	0.0154166
902.866	0.0153336
902.944	0.0154413
903.022	0.0154200
903.100	0.0153124
903.178	0.0154083
903.256	0.0153604
903.334	0.0153608
903.413	0.0154350
903.491	0.0153530
903.569	0.0153519
903.647	0.0154593
903.725	0.0153339
903.803	0.0153793
903.881	0.0153996
903.959	0.0153835
904.038	0.0154262
904.116	0.0154020
904.194	0.0153587
904.272	0.0154705
904.350	0.0153419
904.428	0.0152930
904.506	0.0154127
904.584	0.0152834
904.663	0.0151820
904.741	0.0151709
904.819	0.0151633
904.897	0.0152560
904.975	0.0151080
905.053	0.0150196
905.131	0.0150330
905.209	0.0150453
905.288	0.0148981
905.366	0.0149129
905.444	0.0149690
905.522	0.0150679
905.600	0.0150334
905.678	0.0150237
905.756	0.0150825
905.834	0.0150777
905.913	0.0151218
905.991	0.0151488
906.069	0.0151914
906.147	0.0150963
906.225	0.0152048
906.303	0.0152608
906.381	0.0151606
906.459	0.0153514
906.538	0.0153905
906.616	0.0154726
906.694	0.0153341
906.772	0.0153321
906.850	0.0154710
906.928	0.0154316
907.006	0.0153317
907.084	0.0154585
907.163	0.0154844
907.241	0.0154066
907.319	0.0154655
907.397	0.0154327
907.475	0.0155068
907.553	0.0154314
907.631	0.0155003
907.709	0.0154530
907.788	0.0154010
907.866	0.0154311
907.944	0.0154911
908.022	0.0154291
908.100	0.0154145
908.178	0.0153515
908.256	0.0153633
908.334	0.0153252
908.413	0.0153728
908.491	0.0153089
908.569	0.0151784
908.647	0.0154532
908.725	0.0153524
908.803	0.0152169
908.881	0.0151928
908.959	0.0151718
909.038	0.0151794
909.116	0.0151757
909.194	0.0153774
909.272	0.0151360
909.350	0.0151839
909.428	0.0152871
909.506	0.0151891
909.584	0.0151752
909.663	0.0151401
909.741	0.0151436
909.819	0.0151574
909.897	0.0150954
909.975	0.0150115
910.053	0.0150460
910.131	0.0152207
910.209	0.0151785
910.288	0.0151888
910.366	0.0151594
910.444	0.0151001
910.522	0.0151510
910.600	0.0151402
910.678	0.0152791
910.756	0.0152844
910.834	0.0153388
910.913	0.0152615
910.991	0.0152941
911.069	0.0153210
911.147	0.0154047
911.225	0.0154379
911.303	0.0153159
911.381	0.0153739
911.459	0.0155057
911.538	0.0153383
911.616	0.0154814
911.694	0.0153751
911.772	0.0153716
911.850	0.0154189
911.928	0.0153587
912.006	0.0153780
912.084	0.0153226
912.163	0.0152928
912.241	0.0154132
912.319	0.0152222
912.397	0.0151304
912.475	0.0151699
912.553	0.0151972
912.631	0.0151785
912.709	0.0151540
912.788	0.0151009
912.866	0.0150694
912.944	0.0151811
913.022	0.0152505
913.100	0.0150745
913.178	0.0151789
913.256	0.0151017
913.334	0.0152197
913.413	0.0150701
913.491	0.0152676
913.569	0.0153417
913.647	0.0153961
913.725	0.0152966
913.803	0.0153040
913.881	0.0153085
913.959	0.0153651
914.038	0.0151456
914.116	0.0153465
914.194	0.0151371
914.272	0.0153760
914.350	0.0152242
914.428	0.0152917
914.506	0.0152547
914.584	0.0152014
914.663	0.0151585
914.741	0.0151804
914.819	0.0152618
914.897	0.0151891
914.975	0.0151422
915.053	0.0151348
915.131	0.0150275
915.209	0.0151758
915.288	0.0151364
915.366	0.0152654
915.444	0.0151564
915.522	0.0150736
915.600	0.0150976
915.678	0.0150909
915.756	0.0151473
915.834	0.0150385
915.913	0.0151088
915.991	0.0152235
916.069	0.0150573
916.147	0.0151214
916.225	0.0150939
916.303	0.0151040
916.381	0.0152624
916.459	0.0151050
916.538	0.0150867
916.616	0.0152178
916.694	0.0152139
916.772	0.0151479
916.850	0.0151019
916.928	0.0151505
917.006	0.0151221
917.084	0.0151118
917.163	0.0153611
917.241	0.0153248
917.319	0.0151947
917.397	0.0153075
917.475	0.0152689
917.553	0.0152171
917.631	0.0152145
917.709	0.0152438
917.788	0.0152231
917.866	0.0152095
917.944	0.0151785
918.022	0.0151471
918.100	0.0151281
918.178	0.0151454
918.256	0.0152210
918.334	0.0151991
918.413	0.0150259
918.491	0.0150819
918.569	0.0150219
918.647	0.0151446
918.725	0.0152770
918.803	0.0153187
918.881	0.0152974
918.959	0.0153902
919.038	0.0153878
919.116	0.0153699
919.194	0.0153031
919.272	0.0153383
919.350	0.0153987
919.428	0.0154774
919.506	0.0154337
919.584	0.0153884
919.663	0.0154243
919.741	0.0153971
919.819	0.0154002
919.897	0.0153664
