05/20/2022	21:12:49	Ver.	4.1	UNKNOWN
Optical Delay	599.975067	Delta X		0.078125	Sweeps	1	Scan Rate	0/0
Coordinates	Axis 1	NaN	Axis 2	NaN	Axis 3	NaN	Axis 4	NaN	Axis 5	NaN	Axis 6	0.000000
TX Power	0.000000	RX Power	0.000000

599.975	0.0153104
600.053	0.0153637
600.131	0.0152490
600.209	0.0152242
600.288	0.0152313
600.366	0.0153566
600.444	0.0153448
600.522	0.0152037
600.600	0.0152873
600.678	0.0152769
600.756	0.0152773
600.834	0.0153113
600.913	0.0152553
600.991	0.0153679
601.069	0.0153075
601.147	0.0153862
601.225	0.0152813
601.303	0.0153317
601.381	0.0152393
601.459	0.0152208
601.538	0.0152314
601.616	0.0155539
601.694	0.0153270
601.772	0.0151528
601.850	0.0153276
601.928	0.0153691
602.006	0.0152199
602.084	0.0154759
602.163	0.0152016
602.241	0.0152843
602.319	0.0153325
602.397	0.0153342
602.475	0.0153098
602.553	0.0153790
602.631	0.0154194
602.709	0.0152678
602.788	0.0153979
602.866	0.0153571
602.944	0.0153021
603.022	0.0153792
603.100	0.0152323
603.178	0.0153704
603.256	0.0154188
603.334	0.0152489
603.413	0.0154135
603.491	0.0154155
603.569	0.0152334
603.647	0.0153201
603.725	0.0152338
603.803	0.0154051
603.881	0.0154047
603.959	0.0152100
604.038	0.0152523
604.116	0.0154034
604.194	0.0153053
604.272	0.0153899
604.350	0.0152866
604.428	0.0152126
604.506	0.0153050
604.584	0.0152997
604.663	0.0153138
604.741	0.0153971
604.819	0.0154176
604.897	0.0153481
604.975	0.0152550
605.053	0.0153583
605.131	0.0154238
605.209	0.0153935
605.288	0.0153318
605.366	0.0152873
605.444	0.0153378
605.522	0.0154393
605.600	0.0152837
605.678	0.0152367
605.756	0.0153824
605.834	0.0153823
605.913	0.0153457
605.991	0.0153555
606.069	0.0153922
606.147	0.0154301
606.225	0.0153414
606.303	0.0153532
606.381	0.0153754
606.459	0.0152941
606.538	0.0154285
606.616	0.0152657
606.694	0.0153194
606.772	0.0155401
606.850	0.0152966
606.928	0.0153452
607.006	0.0154399
607.084	0.0154158
607.163	0.0153900
607.241	0.0152625
607.319	0.0153448
607.397	0.0153571
607.475	0.0153069
607.553	0.0153965
607.631	0.0154453
607.709	0.0153310
607.788	0.0152412
607.866	0.0153443
607.944	0.0152402
608.022	0.0153291
608.100	0.0152824
608.178	0.0154646
608.256	0.0154208
608.334	0.0152809
608.413	0.0153314
608.491	0.0153725
608.569	0.0153310
608.647	0.0152773
608.725	0.0152972
608.803	0.0153260
608.881	0.0153496
608.959	0.0155338
609.038	0.0153882
609.116	0.0152819
609.194	0.0153754
609.272	0.0151548
609.350	0.0153533
609.428	0.0153002
609.506	0.0152260
609.584	0.0154160
609.663	0.0153265
609.741	0.0153244
609.819	0.0152427
609.897	0.0153030
609.975	0.0152529
610.053	0.0151369
610.131	0.0152934
610.209	0.0152514
610.288	0.0153601
610.366	0.0154548
610.444	0.0152390
610.522	0.0153780
610.600	0.0152934
610.678	0.0154692
610.756	0.0153710
610.834	0.0153616
610.913	0.0153114
610.991	0.0154056
611.069	0.0154277
611.147	0.0154720
611.225	0.0154217
611.303	0.0153430
611.381	0.0153436
611.459	0.0154196
611.538	0.0153191
611.616	0.0153676
611.694	0.0154016
611.772	0.0154430
611.850	0.0153918
611.928	0.0153601
612.006	0.0154531
612.084	0.0155362
612.163	0.0154366
612.241	0.0153062
612.319	0.0153984
612.397	0.0155579
612.475	0.0153236
612.553	0.0153804
612.631	0.0155784
612.709	0.0154945
612.788	0.0153458
612.866	0.0154317
612.944	0.0155833
613.022	0.0153934
613.100	0.0154202
613.178	0.0153281
613.256	0.0155197
613.334	0.0153971
613.413	0.0153401
613.491	0.0154162
613.569	0.0153568
613.647	0.0154727
613.725	0.0154640
613.803	0.0153134
613.881	0.0155128
613.959	0.0154129
614.038	0.0154558
614.116	0.0154868
614.194	0.0152352
614.272	0.0154032
614.350	0.0153670
614.428	0.0154011
614.506	0.0153944
614.584	0.0153726
614.663	0.0155020
614.741	0.0153271
614.819	0.0153466
614.897	0.0153828
614.975	0.0155401
615.053	0.0154031
615.131	0.0153072
615.209	0.0153684
615.288	0.0154948
615.366	0.0154913
615.444	0.0152820
615.522	0.0154458
615.600	0.0154245
615.678	0.0155043
615.756	0.0154998
615.834	0.0154191
615.913	0.0153926
615.991	0.0154167
616.069	0.0154187
616.147	0.0153566
616.225	0.0153226
616.303	0.0153676
616.381	0.0154554
616.459	0.0153720
616.538	0.0153455
616.616	0.0152890
616.694	0.0153015
616.772	0.0154357
616.850	0.0153586
616.928	0.0153191
617.006	0.0154970
617.084	0.0153930
617.163	0.0153602
617.241	0.0154317
617.319	0.0153186
617.397	0.0153989
617.475	0.0153444
617.553	0.0152948
617.631	0.0153505
617.709	0.0154245
617.788	0.0153026
617.866	0.0154989
617.944	0.0153394
618.022	0.0152205
618.100	0.0154575
618.178	0.0153914
618.256	0.0154345
618.334	0.0154383
618.413	0.0154246
618.491	0.0153754
618.569	0.0153658
618.647	0.0153555
618.725	0.0154126
618.803	0.0153339
618.881	0.0153227
618.959	0.0153044
619.038	0.0154255
619.116	0.0153504
619.194	0.0154181
619.272	0.0154480
619.350	0.0154385
619.428	0.0153542
619.506	0.0153397
619.584	0.0155434
619.663	0.0154581
619.741	0.0155039
619.819	0.0154225
619.897	0.0154491
619.975	0.0153657
620.053	0.0154736
620.131	0.0154417
620.209	0.0154484
620.288	0.0154735
620.366	0.0154692
620.444	0.0154780
620.522	0.0154899
620.600	0.0154372
620.678	0.0154514
620.756	0.0153941
620.834	0.0155291
620.913	0.0155952
620.991	0.0154239
621.069	0.0155348
621.147	0.0153661
621.225	0.0154350
621.303	0.0154412
621.381	0.0154388
621.459	0.0155318
621.538	0.0154715
621.616	0.0154060
621.694	0.0154797
621.772	0.0155225
621.850	0.0154102
621.928	0.0154140
622.006	0.0152908
622.084	0.0153819
622.163	0.0154514
622.241	0.0153493
622.319	0.0154810
622.397	0.0154963
622.475	0.0154038
622.553	0.0153632
622.631	0.0153642
622.709	0.0155305
622.788	0.0153893
622.866	0.0153656
622.944	0.0155348
623.022	0.0154559
623.100	0.0154292
623.178	0.0153461
623.256	0.0153964
623.334	0.0153925
623.413	0.0153282
623.491	0.0152252
623.569	0.0152274
623.647	0.0152234
623.725	0.0153349
623.803	0.0153482
623.881	0.0153212
623.959	0.0154171
624.038	0.0152665
624.116	0.0153893
624.194	0.0153230
624.272	0.0153318
624.350	0.0152406
624.428	0.0152653
624.506	0.0154527
624.584	0.0152636
624.663	0.0152396
624.741	0.0151878
624.819	0.0153117
624.897	0.0151271
624.975	0.0152144
625.053	0.0151804
625.131	0.0152007
625.209	0.0152707
625.288	0.0151996
625.366	0.0152635
625.444	0.0150992
625.522	0.0152358
625.600	0.0152060
625.678	0.0152316
625.756	0.0152853
625.834	0.0151537
625.913	0.0151203
625.991	0.0151813
626.069	0.0152033
626.147	0.0152168
626.225	0.0150121
626.303	0.0151093
626.381	0.0151617
626.459	0.0151331
626.538	0.0151897
626.616	0.0153111
626.694	0.0152058
626.772	0.0151349
626.850	0.0150744
626.928	0.0152959
627.006	0.0152748
627.084	0.0152509
627.163	0.0152287
627.241	0.0153992
627.319	0.0152811
627.397	0.0151426
627.475	0.0152995
627.553	0.0152932
627.631	0.0153912
627.709	0.0153037
627.788	0.0153987
627.866	0.0154736
627.944	0.0153683
628.022	0.0152975
628.100	0.0153220
628.178	0.0153151
628.256	0.0153017
628.334	0.0154279
628.413	0.0153203
628.491	0.0152110
628.569	0.0152331
628.647	0.0152624
628.725	0.0151926
628.803	0.0151460
628.881	0.0152682
628.959	0.0151095
629.038	0.0152573
629.116	0.0151754
629.194	0.0152185
629.272	0.0151319
629.350	0.0149857
629.428	0.0151565
629.506	0.0151699
629.584	0.0150275
629.663	0.0151685
629.741	0.0151881
629.819	0.0150975
629.897	0.0150576
629.975	0.0152198
630.053	0.0150430
630.131	0.0151893
630.209	0.0150838
630.288	0.0152128
630.366	0.0151619
630.444	0.0151093
630.522	0.0151916
630.600	0.0152641
630.678	0.0152936
630.756	0.0151696
630.834	0.0153053
630.913	0.0150926
630.991	0.0152143
631.069	0.0152930
631.147	0.0152930
631.225	0.0152105
631.303	0.0153152
631.381	0.0153031
631.459	0.0153543
631.538	0.0153303
631.616	0.0154337
631.694	0.0152703
631.772	0.0153203
631.850	0.0153661
631.928	0.0152812
632.006	0.0152283
632.084	0.0152682
632.163	0.0154017
632.241	0.0152998
632.319	0.0152531
632.397	0.0153440
632.475	0.0154598
632.553	0.0153674
632.631	0.0154179
632.709	0.0154578
632.788	0.0154531
632.866	0.0154841
632.944	0.0154589
633.022	0.0153804
633.100	0.0153807
633.178	0.0154789
633.256	0.0153165
633.334	0.0153978
633.413	0.0154681
633.491	0.0153632
633.569	0.0152669
633.647	0.0153838
633.725	0.0153364
633.803	0.0153713
633.881	0.0154906
633.959	0.0152593
634.038	0.0152657
634.116	0.0153755
634.194	0.0155421
634.272	0.0153725
634.350	0.0152937
634.428	0.0153579
634.506	0.0152953
634.584	0.0151860
634.663	0.0153518
634.741	0.0152513
634.819	0.0154243
634.897	0.0152523
634.975	0.0152740
635.053	0.0154424
635.131	0.0153924
635.209	0.0151940
635.288	0.0153509
635.366	0.0153112
635.444	0.0153941
635.522	0.0153008
635.600	0.0153883
635.678	0.0153481
635.756	0.0154100
635.834	0.0153239
635.913	0.0153058
635.991	0.0153391
636.069	0.0152325
636.147	0.0152607
636.225	0.0153364
636.303	0.0153171
636.381	0.0152882
636.459	0.0151761
636.538	0.0153930
636.616	0.0151889
636.694	0.0151851
636.772	0.0153240
636.850	0.0152753
636.928	0.0151260
637.006	0.0152652
637.084	0.0153763
637.163	0.0152937
637.241	0.0154073
637.319	0.0155527
637.397	0.0154315
637.475	0.0154118
637.553	0.0154297
637.631	0.0154938
637.709	0.0154635
637.788	0.0154571
637.866	0.0154112
637.944	0.0154131
638.022	0.0155003
638.100	0.0155264
638.178	0.0154683
638.256	0.0155417
638.334	0.0154273
638.413	0.0154485
638.491	0.0155538
638.569	0.0155436
638.647	0.0154196
638.725	0.0155765
638.803	0.0155563
638.881	0.0155429
638.959	0.0154517
639.038	0.0155778
639.116	0.0155984
639.194	0.0154615
639.272	0.0155244
639.350	0.0155383
639.428	0.0156826
639.506	0.0154897
639.584	0.0155772
639.663	0.0155534
639.741	0.0155712
639.819	0.0155827
639.897	0.0154828
639.975	0.0155644
640.053	0.0155623
640.131	0.0155795
640.209	0.0156587
640.288	0.0154638
640.366	0.0155934
640.444	0.0155773
640.522	0.0154474
640.600	0.0156821
640.678	0.0156992
640.756	0.0156618
640.834	0.0156355
640.913	0.0156986
640.991	0.0157795
641.069	0.0157293
641.147	0.0156712
641.225	0.0156940
641.303	0.0156036
641.381	0.0155848
641.459	0.0157085
641.538	0.0154932
641.616	0.0156256
641.694	0.0155412
641.772	0.0156970
641.850	0.0157822
641.928	0.0156671
642.006	0.0156084
642.084	0.0155354
642.163	0.0155158
642.241	0.0156052
642.319	0.0155243
642.397	0.0155381
642.475	0.0155866
642.553	0.0154934
642.631	0.0154270
642.709	0.0155950
642.788	0.0154373
642.866	0.0153743
642.944	0.0155185
643.022	0.0155107
643.100	0.0154855
643.178	0.0155448
643.256	0.0155097
643.334	0.0154369
643.413	0.0155032
643.491	0.0155420
643.569	0.0155279
643.647	0.0154288
643.725	0.0154227
643.803	0.0153921
643.881	0.0153758
643.959	0.0152586
644.038	0.0153371
644.116	0.0153367
644.194	0.0152788
644.272	0.0152077
644.350	0.0151634
644.428	0.0151926
644.506	0.0151444
644.584	0.0152473
644.663	0.0151241
644.741	0.0152151
644.819	0.0152741
644.897	0.0152728
644.975	0.0153040
645.053	0.0152806
645.131	0.0153206
645.209	0.0153999
645.288	0.0151930
645.366	0.0153300
645.444	0.0152967
645.522	0.0152611
645.600	0.0152444
645.678	0.0154607
645.756	0.0154393
645.834	0.0155083
645.913	0.0153571
645.991	0.0152986
646.069	0.0153094
646.147	0.0152322
646.225	0.0152688
646.303	0.0152676
646.381	0.0153074
646.459	0.0151485
646.538	0.0150314
646.616	0.0151277
646.694	0.0149896
646.772	0.0150576
646.850	0.0149623
646.928	0.0149370
647.006	0.0150250
647.084	0.0152066
647.163	0.0151809
647.241	0.0151266
647.319	0.0150777
647.397	0.0151759
647.475	0.0152406
647.553	0.0151514
647.631	0.0152769
647.709	0.0151118
647.788	0.0152775
647.866	0.0152148
647.944	0.0152249
648.022	0.0150568
648.100	0.0150435
648.178	0.0152404
648.256	0.0151782
648.334	0.0152089
648.413	0.0152764
648.491	0.0152371
648.569	0.0151540
648.647	0.0151703
648.725	0.0150862
648.803	0.0150966
648.881	0.0150907
648.959	0.0151527
649.038	0.0150237
649.116	0.0151534
649.194	0.0152209
649.272	0.0151642
649.350	0.0149782
649.428	0.0151684
649.506	0.0152650
649.584	0.0151900
649.663	0.0152999
649.741	0.0152930
649.819	0.0151922
649.897	0.0152441
649.975	0.0152551
650.053	0.0153115
650.131	0.0152679
650.209	0.0153339
650.288	0.0151622
650.366	0.0151508
650.444	0.0150835
650.522	0.0152236
650.600	0.0152399
650.678	0.0152674
650.756	0.0152185
650.834	0.0152049
650.913	0.0152235
650.991	0.0150970
651.069	0.0151087
651.147	0.0151351
651.225	0.0153519
651.303	0.0151694
651.381	0.0152058
651.459	0.0153237
651.538	0.0152289
651.616	0.0152351
651.694	0.0151608
651.772	0.0151929
651.850	0.0151857
651.928	0.0150935
652.006	0.0152666
652.084	0.0151467
652.163	0.0152908
652.241	0.0152236
652.319	0.0153721
652.397	0.0153038
652.475	0.0153643
652.553	0.0152429
652.631	0.0152512
652.709	0.0153863
652.788	0.0151928
652.866	0.0152881
652.944	0.0153748
653.022	0.0152985
653.100	0.0152266
653.178	0.0151630
653.256	0.0151933
653.334	0.0152149
653.413	0.0153018
653.491	0.0152082
653.569	0.0149902
653.647	0.0151752
653.725	0.0151251
653.803	0.0150899
653.881	0.0150636
653.959	0.0151094
654.038	0.0151673
654.116	0.0151050
654.194	0.0151728
654.272	0.0150258
654.350	0.0151615
654.428	0.0151058
654.506	0.0152795
654.584	0.0152325
654.663	0.0151972
654.741	0.0151754
654.819	0.0151288
654.897	0.0149436
654.975	0.0151519
655.053	0.0152251
655.131	0.0152245
655.209	0.0151529
655.288	0.0152959
655.366	0.0151646
655.444	0.0151848
655.522	0.0153250
655.600	0.0151805
655.678	0.0150574
655.756	0.0151585
655.834	0.0151653
655.913	0.0151035
655.991	0.0151763
656.069	0.0151731
656.147	0.0151106
656.225	0.0150884
656.303	0.0152988
656.381	0.0152521
656.459	0.0151808
656.538	0.0150030
656.616	0.0151434
656.694	0.0152050
656.772	0.0151098
656.850	0.0150336
656.928	0.0152305
657.006	0.0151691
657.084	0.0151874
657.163	0.0151353
657.241	0.0151912
657.319	0.0151509
657.397	0.0149577
657.475	0.0152228
657.553	0.0151411
657.631	0.0153188
657.709	0.0152364
657.788	0.0151213
657.866	0.0151965
657.944	0.0151627
658.022	0.0150638
658.100	0.0151650
658.178	0.0151322
658.256	0.0152001
658.334	0.0151090
658.413	0.0151793
658.491	0.0153139
658.569	0.0152440
658.647	0.0151005
658.725	0.0152631
658.803	0.0152547
658.881	0.0150127
658.959	0.0151533
659.038	0.0152578
659.116	0.0150060
659.194	0.0150967
659.272	0.0152585
659.350	0.0151780
659.428	0.0151296
659.506	0.0152060
659.584	0.0153157
659.663	0.0151235
659.741	0.0151219
659.819	0.0152749
659.897	0.0153336
659.975	0.0153314
660.053	0.0153205
660.131	0.0153358
660.209	0.0152199
660.288	0.0154059
660.366	0.0153119
660.444	0.0152634
660.522	0.0153898
660.600	0.0153416
660.678	0.0152740
660.756	0.0152221
660.834	0.0153905
660.913	0.0153277
660.991	0.0152081
661.069	0.0153678
661.147	0.0153324
661.225	0.0153366
661.303	0.0152151
661.381	0.0152382
661.459	0.0152226
661.538	0.0153516
661.616	0.0152725
661.694	0.0153007
661.772	0.0153457
661.850	0.0154233
661.928	0.0152082
662.006	0.0152733
662.084	0.0155016
662.163	0.0153815
662.241	0.0154837
662.319	0.0154297
662.397	0.0155276
662.475	0.0155678
662.553	0.0154939
662.631	0.0155305
662.709	0.0155046
662.788	0.0154522
662.866	0.0155272
662.944	0.0155135
663.022	0.0154454
663.100	0.0154766
663.178	0.0153885
663.256	0.0154000
663.334	0.0153162
663.413	0.0155187
663.491	0.0154119
663.569	0.0154643
663.647	0.0154282
663.725	0.0153859
663.803	0.0155136
663.881	0.0153674
663.959	0.0154040
664.038	0.0153191
664.116	0.0154727
664.194	0.0154372
664.272	0.0154348
664.350	0.0154268
664.428	0.0152765
664.506	0.0153776
664.584	0.0155750
664.663	0.0154958
664.741	0.0153612
664.819	0.0153281
664.897	0.0154128
664.975	0.0154739
665.053	0.0155105
665.131	0.0153310
665.209	0.0153146
665.288	0.0153325
665.366	0.0153596
665.444	0.0155350
665.522	0.0153504
665.600	0.0153164
665.678	0.0152623
665.756	0.0153401
665.834	0.0154479
665.913	0.0153787
665.991	0.0153204
666.069	0.0153027
666.147	0.0153480
666.225	0.0152742
666.303	0.0153359
666.381	0.0152843
666.459	0.0153503
666.538	0.0152103
666.616	0.0153150
666.694	0.0153047
666.772	0.0152465
666.850	0.0152431
666.928	0.0153131
667.006	0.0152728
667.084	0.0152969
667.163	0.0153076
667.241	0.0153553
667.319	0.0153096
667.397	0.0153880
667.475	0.0152920
667.553	0.0154134
667.631	0.0154705
667.709	0.0152686
667.788	0.0154272
667.866	0.0153970
667.944	0.0153458
668.022	0.0153454
668.100	0.0154534
668.178	0.0153822
668.256	0.0153354
668.334	0.0153657
668.413	0.0154050
668.491	0.0152699
668.569	0.0153241
668.647	0.0155016
668.725	0.0153479
668.803	0.0152842
668.881	0.0153682
668.959	0.0153465
669.038	0.0152560
669.116	0.0151702
669.194	0.0153230
669.272	0.0153394
669.350	0.0151616
669.428	0.0153168
669.506	0.0153529
669.584	0.0153448
669.663	0.0152302
669.741	0.0152328
669.819	0.0152707
669.897	0.0152336
669.975	0.0153934
670.053	0.0154757
670.131	0.0153568
670.209	0.0153606
670.288	0.0153799
670.366	0.0153751
670.444	0.0153738
670.522	0.0154468
670.600	0.0153289
670.678	0.0153588
670.756	0.0153342
670.834	0.0154852
670.913	0.0153531
670.991	0.0152901
671.069	0.0154530
671.147	0.0154194
671.225	0.0152560
671.303	0.0153123
671.381	0.0151426
671.459	0.0151173
671.538	0.0151225
671.616	0.0149796
671.694	0.0151434
671.772	0.0151306
671.850	0.0149754
671.928	0.0149384
672.006	0.0148460
672.084	0.0149325
672.163	0.0149833
672.241	0.0148790
672.319	0.0146506
672.397	0.0148323
672.475	0.0148336
672.553	0.0148837
672.631	0.0148797
672.709	0.0150847
672.788	0.0150942
672.866	0.0150256
672.944	0.0150942
673.022	0.0150390
673.100	0.0152592
673.178	0.0153240
673.256	0.0153589
673.334	0.0155585
673.413	0.0155671
673.491	0.0155981
673.569	0.0157491
673.647	0.0158191
673.725	0.0159277
673.803	0.0156997
673.881	0.0158358
673.959	0.0158352
674.038	0.0158379
674.116	0.0158161
674.194	0.0158091
674.272	0.0157764
674.350	0.0157407
674.428	0.0155159
674.506	0.0155515
674.584	0.0154414
674.663	0.0152434
674.741	0.0153014
674.819	0.0150365
674.897	0.0147431
674.975	0.0146206
675.053	0.0145689
675.131	0.0143808
675.209	0.0142961
675.288	0.0141676
675.366	0.0140346
675.444	0.0140018
675.522	0.0140365
675.600	0.0139673
675.678	0.0139549
675.756	0.0140120
675.834	0.0141824
675.913	0.0141248
675.991	0.0141772
676.069	0.0141978
676.147	0.0143513
676.225	0.0147166
676.303	0.0148657
676.381	0.0148779
676.459	0.0152477
676.538	0.0154843
676.616	0.0157633
676.694	0.0160049
676.772	0.0159618
676.850	0.0161884
676.928	0.0164452
677.006	0.0167497
677.084	0.0167341
677.163	0.0166967
677.241	0.0167990
677.319	0.0169221
677.397	0.0169088
677.475	0.0167245
677.553	0.0167253
677.631	0.0165130
677.709	0.0164259
677.788	0.0162305
677.866	0.0161874
677.944	0.0158804
678.022	0.0155827
678.100	0.0151960
678.178	0.0150735
678.256	0.0146807
678.334	0.0144678
678.413	0.0143560
678.491	0.0139687
678.569	0.0138140
678.647	0.0134137
678.725	0.0133136
678.803	0.0132028
678.881	0.0130793
678.959	0.0130750
679.038	0.0131116
679.116	0.0130473
679.194	0.0130523
679.272	0.0133450
679.350	0.0135544
679.428	0.0134863
679.506	0.0138166
679.584	0.0141209
679.663	0.0143917
679.741	0.0145948
679.819	0.0149300
679.897	0.0150072
679.975	0.0153478
680.053	0.0156976
680.131	0.0158000
680.209	0.0161452
680.288	0.0162579
680.366	0.0164158
680.444	0.0167646
680.522	0.0166428
680.600	0.0167902
680.678	0.0168091
680.756	0.0168913
680.834	0.0167735
680.913	0.0168081
680.991	0.0167896
681.069	0.0166608
681.147	0.0166081
681.225	0.0165290
681.303	0.0164601
681.381	0.0162451
681.459	0.0163007
681.538	0.0162492
681.616	0.0161410
681.694	0.0162346
681.772	0.0160500
681.850	0.0158824
681.928	0.0157148
682.006	0.0158251
682.084	0.0157564
682.163	0.0157095
682.241	0.0155369
682.319	0.0154418
682.397	0.0154837
682.475	0.0153613
682.553	0.0151613
682.631	0.0151787
682.709	0.0150334
682.788	0.0149385
682.866	0.0148148
682.944	0.0148661
683.022	0.0147466
683.100	0.0147147
683.178	0.0145989
683.256	0.0144532
683.334	0.0144239
683.413	0.0143159
683.491	0.0143002
683.569	0.0144225
683.647	0.0143428
683.725	0.0142791
683.803	0.0142124
683.881	0.0142863
683.959	0.0143935
684.038	0.0144179
684.116	0.0144215
684.194	0.0144997
684.272	0.0145989
684.350	0.0147769
684.428	0.0148901
684.506	0.0149184
684.584	0.0151546
684.663	0.0153493
684.741	0.0155629
684.819	0.0157008
684.897	0.0159653
684.975	0.0163128
685.053	0.0166148
685.131	0.0169097
685.209	0.0172312
685.288	0.0175430
685.366	0.0176415
685.444	0.0178377
685.522	0.0178535
685.600	0.0179617
685.678	0.0178794
685.756	0.0175450
685.834	0.0175885
685.913	0.0175040
685.991	0.0171881
686.069	0.0168850
686.147	0.0166335
686.225	0.0162608
686.303	0.0161358
686.381	0.0157079
686.459	0.0154808
686.538	0.0152049
686.616	0.0147713
686.694	0.0147153
686.772	0.0142825
686.850	0.0140341
686.928	0.0137697
687.006	0.0135494
687.084	0.0133595
687.163	0.0130562
687.241	0.0130028
687.319	0.0128846
687.397	0.0128862
687.475	0.0128983
687.553	0.0131219
687.631	0.0131458
687.709	0.0132812
687.788	0.0133566
687.866	0.0135065
687.944	0.0138682
688.022	0.0141908
688.100	0.0144440
688.178	0.0147238
688.256	0.0149993
688.334	0.0154268
688.413	0.0156316
688.491	0.0158757
688.569	0.0161659
688.647	0.0163949
688.725	0.0164753
688.803	0.0166322
688.881	0.0166583
688.959	0.0169941
689.038	0.0169553
689.116	0.0169726
689.194	0.0169626
689.272	0.0169627
689.350	0.0169543
689.428	0.0170203
689.506	0.0168494
689.584	0.0168776
689.663	0.0168867
689.741	0.0168059
689.819	0.0167475
689.897	0.0166169
689.975	0.0163515
690.053	0.0161385
690.131	0.0160521
690.209	0.0157224
690.288	0.0151389
690.366	0.0149728
690.444	0.0147361
690.522	0.0143672
690.600	0.0140245
690.678	0.0138213
690.756	0.0134169
690.834	0.0131992
690.913	0.0128854
690.991	0.0127346
691.069	0.0125591
691.147	0.0124527
691.225	0.0123113
691.303	0.0122351
691.381	0.0122393
691.459	0.0122206
691.538	0.0123943
691.616	0.0125658
691.694	0.0126699
691.772	0.0128089
691.850	0.0132389
691.928	0.0134895
692.006	0.0136728
692.084	0.0141636
692.163	0.0145898
692.241	0.0150629
692.319	0.0156189
692.397	0.0159996
692.475	0.0164280
692.553	0.0168825
692.631	0.0172209
692.709	0.0177174
692.788	0.0179666
692.866	0.0182880
692.944	0.0184335
693.022	0.0185173
693.100	0.0186997
693.178	0.0184863
693.256	0.0186042
693.334	0.0184751
693.413	0.0183171
693.491	0.0182287
693.569	0.0178178
693.647	0.0175657
693.725	0.0173239
693.803	0.0167982
693.881	0.0165732
693.959	0.0162956
694.038	0.0158204
694.116	0.0154041
694.194	0.0149106
694.272	0.0146794
694.350	0.0142339
694.428	0.0140975
694.506	0.0137732
694.584	0.0135710
694.663	0.0133995
694.741	0.0131248
694.819	0.0129674
694.897	0.0130290
694.975	0.0131618
695.053	0.0130586
695.131	0.0132193
695.209	0.0132596
695.288	0.0136049
695.366	0.0138040
695.444	0.0141449
695.522	0.0143747
695.600	0.0146039
695.678	0.0149840
695.756	0.0150491
695.834	0.0155018
695.913	0.0157803
695.991	0.0157733
696.069	0.0159366
696.147	0.0160398
696.225	0.0161699
696.303	0.0160326
696.381	0.0161290
696.459	0.0160062
696.538	0.0159554
696.616	0.0160275
696.694	0.0157495
696.772	0.0158509
696.850	0.0157436
696.928	0.0157721
697.006	0.0155819
697.084	0.0156738
697.163	0.0156050
697.241	0.0155573
697.319	0.0155724
697.397	0.0154783
697.475	0.0156413
697.553	0.0156683
697.631	0.0155281
697.709	0.0155121
697.788	0.0153346
697.866	0.0154086
697.944	0.0153253
698.022	0.0153535
698.100	0.0152078
698.178	0.0152348
698.256	0.0151830
698.334	0.0152533
698.413	0.0152431
698.491	0.0150479
698.569	0.0151347
698.647	0.0153495
698.725	0.0151614
698.803	0.0153305
698.881	0.0152626
698.959	0.0152576
699.038	0.0153967
699.116	0.0154858
699.194	0.0153980
699.272	0.0154190
699.350	0.0153378
699.428	0.0155367
699.506	0.0155363
699.584	0.0155442
699.663	0.0154830
699.741	0.0156860
699.819	0.0157465
699.897	0.0159773
699.975	0.0161048
700.053	0.0160691
700.131	0.0161751
700.209	0.0166668
700.288	0.0166533
700.366	0.0166779
700.444	0.0168097
700.522	0.0169946
700.600	0.0169613
700.678	0.0170550
700.756	0.0170108
700.834	0.0170559
700.913	0.0170126
700.991	0.0169573
701.069	0.0168367
701.147	0.0168818
701.225	0.0168237
701.303	0.0168481
701.381	0.0165929
701.459	0.0163493
701.538	0.0162926
701.616	0.0161641
701.694	0.0157129
701.772	0.0155250
701.850	0.0153292
701.928	0.0149142
702.006	0.0143502
702.084	0.0138937
702.163	0.0134294
702.241	0.0129459
702.319	0.0124297
702.397	0.0119112
702.475	0.0114783
702.553	0.0112157
702.631	0.0109689
702.709	0.0107785
702.788	0.0105822
702.866	0.0105896
702.944	0.0106199
703.022	0.0109087
703.100	0.0113867
703.178	0.0115958
703.256	0.0120058
703.334	0.0125710
703.413	0.0130817
703.491	0.0136629
703.569	0.0144627
703.647	0.0151110
703.725	0.0158594
703.803	0.0166068
703.881	0.0172311
703.959	0.0180141
704.038	0.0185848
704.116	0.0193127
704.194	0.0197355
704.272	0.0201929
704.350	0.0206121
704.428	0.0208853
704.506	0.0209332
704.584	0.0211810
704.663	0.0209618
704.741	0.0209293
704.819	0.0206647
704.897	0.0203082
704.975	0.0198638
705.053	0.0193195
705.131	0.0188774
705.209	0.0181937
705.288	0.0174982
705.366	0.0168606
705.444	0.0162120
705.522	0.0156023
705.600	0.0149181
705.678	0.0143423
705.756	0.0138407
705.834	0.0133553
705.913	0.0128481
705.991	0.0126132
706.069	0.0124083
706.147	0.0122302
706.225	0.0121057
706.303	0.0121861
706.381	0.0124039
706.459	0.0126980
706.538	0.0126831
706.616	0.0127422
706.694	0.0130537
706.772	0.0134644
706.850	0.0136550
706.928	0.0138825
707.006	0.0143566
707.084	0.0142888
707.163	0.0147160
707.241	0.0149649
707.319	0.0152333
707.397	0.0154124
707.475	0.0156264
707.553	0.0159265
707.631	0.0160284
707.709	0.0161380
707.788	0.0162434
707.866	0.0163766
707.944	0.0163687
708.022	0.0161862
708.100	0.0163620
708.178	0.0163483
708.256	0.0160348
708.334	0.0159450
708.413	0.0157065
708.491	0.0155978
708.569	0.0154001
708.647	0.0152259
708.725	0.0152445
708.803	0.0148810
708.881	0.0146774
708.959	0.0145349
709.038	0.0145708
709.116	0.0143076
709.194	0.0140305
709.272	0.0140693
709.350	0.0139874
709.428	0.0139861
709.506	0.0140060
709.584	0.0136810
709.663	0.0135798
709.741	0.0135996
709.819	0.0135701
709.897	0.0137144
709.975	0.0137266
710.053	0.0139587
710.131	0.0139034
710.209	0.0139526
710.288	0.0141901
710.366	0.0143364
710.444	0.0144664
710.522	0.0146558
710.600	0.0148734
710.678	0.0149647
710.756	0.0151109
710.834	0.0153487
710.913	0.0153834
710.991	0.0156682
711.069	0.0159105
711.147	0.0158865
711.225	0.0159917
711.303	0.0161024
711.381	0.0162225
711.459	0.0165909
711.538	0.0167375
711.616	0.0169686
711.694	0.0172224
711.772	0.0175259
711.850	0.0176260
711.928	0.0178034
712.006	0.0180841
712.084	0.0181409
712.163	0.0182524
712.241	0.0182354
712.319	0.0183288
712.397	0.0183626
712.475	0.0182370
712.553	0.0181029
712.631	0.0178182
712.709	0.0175975
712.788	0.0172459
712.866	0.0169052
712.944	0.0165546
713.022	0.0162167
713.100	0.0157717
713.178	0.0154489
713.256	0.0151124
713.334	0.0146823
713.413	0.0142935
713.491	0.0140950
713.569	0.0136176
713.647	0.0132543
713.725	0.0131068
713.803	0.0128611
713.881	0.0127515
713.959	0.0125343
714.038	0.0124623
714.116	0.0124469
714.194	0.0124654
714.272	0.0124934
714.350	0.0126214
714.428	0.0129335
714.506	0.0129030
714.584	0.0130422
714.663	0.0133562
714.741	0.0135700
714.819	0.0138650
714.897	0.0140472
714.975	0.0140426
715.053	0.0141137
715.131	0.0144082
715.209	0.0145338
715.288	0.0145930
715.366	0.0146572
715.444	0.0149478
715.522	0.0151118
715.600	0.0151647
715.678	0.0153199
715.756	0.0153548
715.834	0.0152833
715.913	0.0154873
715.991	0.0156896
716.069	0.0156567
716.147	0.0157996
716.225	0.0158847
716.303	0.0159180
716.381	0.0159422
716.459	0.0161839
716.538	0.0162337
716.616	0.0165129
716.694	0.0165603
716.772	0.0165425
716.850	0.0168961
716.928	0.0169530
717.006	0.0170502
717.084	0.0171064
717.163	0.0171976
717.241	0.0172124
717.319	0.0173119
717.397	0.0174256
717.475	0.0173496
717.553	0.0171216
717.631	0.0170676
717.709	0.0170509
717.788	0.0168304
717.866	0.0168246
717.944	0.0166630
718.022	0.0164196
718.100	0.0162185
718.178	0.0161105
718.256	0.0158456
718.334	0.0156271
718.413	0.0156503
718.491	0.0154280
718.569	0.0152122
718.647	0.0152424
718.725	0.0148713
718.803	0.0147714
718.881	0.0146008
718.959	0.0144436
719.038	0.0144678
719.116	0.0142155
719.194	0.0139930
719.272	0.0140150
719.350	0.0139133
719.428	0.0137833
719.506	0.0138969
719.584	0.0137970
719.663	0.0138769
719.741	0.0138241
719.819	0.0140746
719.897	0.0141476
719.975	0.0142588
720.053	0.0144167
720.131	0.0146503
720.209	0.0148705
720.288	0.0149364
720.366	0.0152755
720.444	0.0155335
720.522	0.0156934
720.600	0.0156859
720.678	0.0157797
720.756	0.0160273
720.834	0.0160468
720.913	0.0160929
720.991	0.0161743
721.069	0.0159725
721.147	0.0161272
721.225	0.0161264
721.303	0.0159270
721.381	0.0157011
721.459	0.0157807
721.538	0.0155895
721.616	0.0154344
721.694	0.0153177
721.772	0.0152851
721.850	0.0150368
721.928	0.0148845
722.006	0.0147498
722.084	0.0145330
722.163	0.0143867
722.241	0.0142819
722.319	0.0140094
722.397	0.0140404
722.475	0.0139655
722.553	0.0140228
722.631	0.0138385
722.709	0.0139191
722.788	0.0138584
722.866	0.0139721
722.944	0.0140190
723.022	0.0141740
723.100	0.0143303
723.178	0.0144415
723.256	0.0146255
723.334	0.0149416
723.413	0.0149432
723.491	0.0151402
723.569	0.0152680
723.647	0.0154724
723.725	0.0156486
723.803	0.0158567
723.881	0.0158482
723.959	0.0160567
724.038	0.0160425
724.116	0.0161835
724.194	0.0163821
724.272	0.0165295
724.350	0.0165247
724.428	0.0167767
724.506	0.0168713
724.584	0.0170866
724.663	0.0170440
724.741	0.0172404
724.819	0.0174416
724.897	0.0173997
724.975	0.0174557
725.053	0.0173421
725.131	0.0171924
725.209	0.0173534
725.288	0.0171969
725.366	0.0170545
725.444	0.0169378
725.522	0.0168890
725.600	0.0166177
725.678	0.0165997
725.756	0.0164840
725.834	0.0163765
725.913	0.0162850
725.991	0.0161842
726.069	0.0159808
726.147	0.0158681
726.225	0.0157297
726.303	0.0156325
726.381	0.0153383
726.459	0.0151141
726.538	0.0149202
726.616	0.0145293
726.694	0.0143405
726.772	0.0139433
726.850	0.0138629
726.928	0.0135954
727.006	0.0132959
727.084	0.0132473
727.163	0.0130405
727.241	0.0132249
727.319	0.0132906
727.397	0.0132116
727.475	0.0132368
727.553	0.0134053
727.631	0.0135857
727.709	0.0136298
727.788	0.0139106
727.866	0.0140007
727.944	0.0142381
728.022	0.0142445
728.100	0.0145554
728.178	0.0147947
728.256	0.0149901
728.334	0.0150331
728.413	0.0151589
728.491	0.0153092
728.569	0.0155935
728.647	0.0157018
728.725	0.0156675
728.803	0.0156917
728.881	0.0158099
728.959	0.0157806
729.038	0.0158619
729.116	0.0158901
729.194	0.0158044
729.272	0.0157370
729.350	0.0158394
729.428	0.0157421
729.506	0.0157209
729.584	0.0156520
729.663	0.0155955
729.741	0.0154227
729.819	0.0152957
729.897	0.0153602
729.975	0.0153849
730.053	0.0152783
730.131	0.0153505
730.209	0.0152412
730.288	0.0151892
730.366	0.0151534
730.444	0.0153057
730.522	0.0153671
730.600	0.0154363
730.678	0.0154948
730.756	0.0157449
730.834	0.0158567
730.913	0.0160751
730.991	0.0161160
731.069	0.0161963
731.147	0.0165101
731.225	0.0164303
731.303	0.0166051
731.381	0.0165916
731.459	0.0166067
731.538	0.0164997
731.616	0.0165256
731.694	0.0163555
731.772	0.0160341
731.850	0.0158720
731.928	0.0157138
732.006	0.0154844
732.084	0.0154102
732.163	0.0150291
732.241	0.0148801
732.319	0.0149065
732.397	0.0147115
732.475	0.0144563
732.553	0.0145450
732.631	0.0144374
732.709	0.0143068
732.788	0.0143606
732.866	0.0142995
732.944	0.0141620
733.022	0.0141936
733.100	0.0142736
733.178	0.0142136
733.256	0.0143757
733.334	0.0142595
733.413	0.0144267
733.491	0.0145221
733.569	0.0145086
733.647	0.0146912
733.725	0.0147488
733.803	0.0148051
733.881	0.0149170
733.959	0.0149966
734.038	0.0152112
734.116	0.0152886
734.194	0.0154262
734.272	0.0154019
734.350	0.0154864
734.428	0.0156546
734.506	0.0156834
734.584	0.0155441
734.663	0.0156083
734.741	0.0157254
734.819	0.0156747
734.897	0.0157272
734.975	0.0156969
735.053	0.0156716
735.131	0.0155132
735.209	0.0155798
735.288	0.0152279
735.366	0.0152620
735.444	0.0151888
735.522	0.0149700
735.600	0.0150204
735.678	0.0147430
735.756	0.0146301
735.834	0.0146613
735.913	0.0146552
735.991	0.0146553
736.069	0.0146191
736.147	0.0146153
736.225	0.0145718
736.303	0.0146516
736.381	0.0149955
736.459	0.0148750
736.538	0.0150307
736.616	0.0150518
736.694	0.0152573
736.772	0.0155285
736.850	0.0154532
736.928	0.0156766
737.006	0.0156361
737.084	0.0157667
737.163	0.0159393
737.241	0.0160689
737.319	0.0161288
737.397	0.0161446
737.475	0.0161733
737.553	0.0160796
737.631	0.0163007
737.709	0.0161096
737.788	0.0160728
737.866	0.0159370
737.944	0.0159119
738.022	0.0156261
738.100	0.0156073
738.178	0.0154224
738.256	0.0153348
738.334	0.0151421
738.413	0.0148571
738.491	0.0148719
738.569	0.0147889
738.647	0.0147708
738.725	0.0146872
738.803	0.0146904
738.881	0.0147100
738.959	0.0147808
739.038	0.0149265
739.116	0.0149255
739.194	0.0149432
739.272	0.0152098
739.350	0.0153268
739.428	0.0155127
739.506	0.0155074
739.584	0.0156287
739.663	0.0157958
739.741	0.0158057
739.819	0.0160946
739.897	0.0161172
739.975	0.0162200
740.053	0.0163107
740.131	0.0163652
740.209	0.0163847
740.288	0.0162142
740.366	0.0164509
740.444	0.0162672
740.522	0.0164548
740.600	0.0164810
740.678	0.0162252
740.756	0.0162193
740.834	0.0161556
740.913	0.0161320
740.991	0.0161964
741.069	0.0160257
741.147	0.0160210
741.225	0.0157582
741.303	0.0156534
741.381	0.0155021
741.459	0.0153396
741.538	0.0154289
741.616	0.0153127
741.694	0.0150562
741.772	0.0149306
741.850	0.0147931
741.928	0.0148788
742.006	0.0147884
742.084	0.0146481
742.163	0.0146022
742.241	0.0146003
742.319	0.0143644
742.397	0.0142841
742.475	0.0143395
742.553	0.0143751
742.631	0.0144134
742.709	0.0141986
742.788	0.0142792
742.866	0.0143850
742.944	0.0146285
743.022	0.0143858
743.100	0.0146751
743.178	0.0146967
743.256	0.0147912
743.334	0.0147581
743.413	0.0147823
743.491	0.0149361
743.569	0.0147999
743.647	0.0149484
743.725	0.0147982
743.803	0.0147963
743.881	0.0148169
743.959	0.0148306
744.038	0.0148342
744.116	0.0147155
744.194	0.0148871
744.272	0.0150561
744.350	0.0149580
744.428	0.0150417
744.506	0.0151399
744.584	0.0152121
744.663	0.0153870
744.741	0.0155062
744.819	0.0155334
744.897	0.0156190
744.975	0.0158935
745.053	0.0159393
745.131	0.0158705
745.209	0.0160380
745.288	0.0162110
745.366	0.0162513
745.444	0.0163544
745.522	0.0162431
745.600	0.0162230
745.678	0.0161988
745.756	0.0160831
745.834	0.0162990
745.913	0.0160873
745.991	0.0159840
746.069	0.0158889
746.147	0.0156298
746.225	0.0154640
746.303	0.0154198
746.381	0.0152730
746.459	0.0152899
746.538	0.0151304
746.616	0.0150558
746.694	0.0150109
746.772	0.0150912
746.850	0.0151572
746.928	0.0152101
747.006	0.0151672
747.084	0.0152155
747.163	0.0152758
747.241	0.0152925
747.319	0.0152977
747.397	0.0153744
747.475	0.0154405
747.553	0.0154380
747.631	0.0153812
747.709	0.0152598
747.788	0.0153463
747.866	0.0154467
747.944	0.0152015
748.022	0.0152566
748.100	0.0151788
748.178	0.0149918
748.256	0.0149552
748.334	0.0147304
748.413	0.0148603
748.491	0.0148748
748.569	0.0146798
748.647	0.0146543
748.725	0.0145467
748.803	0.0145461
748.881	0.0146545
748.959	0.0145962
749.038	0.0145278
749.116	0.0145364
749.194	0.0147485
749.272	0.0146501
749.350	0.0147495
749.428	0.0148778
749.506	0.0149700
749.584	0.0149305
749.663	0.0151208
749.741	0.0150742
749.819	0.0152950
749.897	0.0152540
749.975	0.0153665
750.053	0.0152271
750.131	0.0151675
750.209	0.0151865
750.288	0.0151163
750.366	0.0150920
750.444	0.0150049
750.522	0.0149822
750.600	0.0148735
750.678	0.0148268
750.756	0.0146911
750.834	0.0147157
750.913	0.0146687
750.991	0.0145850
751.069	0.0148379
751.147	0.0147238
751.225	0.0148856
751.303	0.0149873
751.381	0.0150230
751.459	0.0151092
751.538	0.0150385
751.616	0.0151508
751.694	0.0153072
751.772	0.0152789
751.850	0.0153302
751.928	0.0154548
752.006	0.0154720
752.084	0.0155580
752.163	0.0154545
752.241	0.0156505
752.319	0.0156607
752.397	0.0157410
752.475	0.0158239
752.553	0.0158889
752.631	0.0159409
752.709	0.0160968
752.788	0.0160589
752.866	0.0160403
752.944	0.0161572
753.022	0.0161280
753.100	0.0162392
753.178	0.0161607
753.256	0.0162861
753.334	0.0162891
753.413	0.0163404
753.491	0.0162769
753.569	0.0161313
753.647	0.0161688
753.725	0.0159814
753.803	0.0158883
753.881	0.0158234
753.959	0.0156501
754.038	0.0155372
754.116	0.0153808
754.194	0.0152177
754.272	0.0151508
754.350	0.0150849
754.428	0.0150970
754.506	0.0148567
754.584	0.0147607
754.663	0.0148286
754.741	0.0147253
754.819	0.0146871
754.897	0.0144672
754.975	0.0144672
755.053	0.0145212
755.131	0.0145689
755.209	0.0147623
755.288	0.0148791
755.366	0.0148148
755.444	0.0147934
755.522	0.0148122
755.600	0.0149294
755.678	0.0150309
755.756	0.0151215
755.834	0.0151197
755.913	0.0151226
755.991	0.0151030
756.069	0.0152258
756.147	0.0152536
756.225	0.0152750
756.303	0.0150806
756.381	0.0150738
756.459	0.0150420
756.538	0.0148849
756.616	0.0148555
756.694	0.0146940
756.772	0.0147296
756.850	0.0145393
756.928	0.0144692
757.006	0.0144453
757.084	0.0144136
757.163	0.0144697
757.241	0.0145036
757.319	0.0145078
757.397	0.0146805
757.475	0.0148888
757.553	0.0148384
757.631	0.0149227
757.709	0.0152277
757.788	0.0152991
757.866	0.0153892
757.944	0.0154046
758.022	0.0157774
758.100	0.0159019
758.178	0.0159397
758.256	0.0159165
758.334	0.0159697
758.413	0.0160009
758.491	0.0160344
758.569	0.0160362
758.647	0.0159893
758.725	0.0159675
758.803	0.0159234
758.881	0.0157891
758.959	0.0157584
759.038	0.0156748
759.116	0.0158445
759.194	0.0158288
759.272	0.0157056
759.350	0.0157216
759.428	0.0156812
759.506	0.0155790
759.584	0.0156824
759.663	0.0157642
759.741	0.0157368
759.819	0.0157707
759.897	0.0159487
759.975	0.0158451
760.053	0.0158735
760.131	0.0158243
760.209	0.0158705
760.288	0.0159362
760.366	0.0157617
760.444	0.0157621
760.522	0.0157566
760.600	0.0156673
760.678	0.0157393
760.756	0.0154674
760.834	0.0153837
760.913	0.0155182
760.991	0.0155607
761.069	0.0153339
761.147	0.0152428
761.225	0.0151346
761.303	0.0151543
761.381	0.0150610
761.459	0.0149387
761.538	0.0149194
761.616	0.0148903
761.694	0.0147966
761.772	0.0146694
761.850	0.0145521
761.928	0.0144527
762.006	0.0145276
762.084	0.0142553
762.163	0.0143055
762.241	0.0142699
762.319	0.0143103
762.397	0.0142467
762.475	0.0142708
762.553	0.0144775
762.631	0.0145834
762.709	0.0148080
762.788	0.0148993
762.866	0.0150867
762.944	0.0152115
763.022	0.0153104
763.100	0.0154939
763.178	0.0157451
763.256	0.0157123
763.334	0.0156365
763.413	0.0159335
763.491	0.0159888
763.569	0.0159673
763.647	0.0160551
763.725	0.0160654
763.803	0.0159958
763.881	0.0160376
763.959	0.0160971
764.038	0.0158968
764.116	0.0158954
764.194	0.0158528
764.272	0.0157860
764.350	0.0156939
764.428	0.0156811
764.506	0.0156190
764.584	0.0153373
764.663	0.0153650
764.741	0.0152508
764.819	0.0152476
764.897	0.0151449
764.975	0.0149841
765.053	0.0148786
765.131	0.0149197
765.209	0.0148965
765.288	0.0149193
765.366	0.0149088
765.444	0.0149354
765.522	0.0148837
765.600	0.0147995
765.678	0.0148402
765.756	0.0148354
765.834	0.0149756
765.913	0.0149728
765.991	0.0150974
766.069	0.0150443
766.147	0.0150951
766.225	0.0151883
766.303	0.0152309
766.381	0.0154186
766.459	0.0155908
766.538	0.0155580
766.616	0.0156442
766.694	0.0157521
766.772	0.0158313
766.850	0.0159805
766.928	0.0159620
767.006	0.0159837
767.084	0.0158462
767.163	0.0160242
767.241	0.0159090
767.319	0.0157322
767.397	0.0156985
767.475	0.0154903
767.553	0.0156570
767.631	0.0155933
767.709	0.0154695
767.788	0.0153445
767.866	0.0153458
767.944	0.0151725
768.022	0.0152494
768.100	0.0152431
768.178	0.0153976
768.256	0.0153047
768.334	0.0151406
768.413	0.0151939
768.491	0.0151150
768.569	0.0152363
768.647	0.0153332
768.725	0.0152494
768.803	0.0152665
768.881	0.0153577
768.959	0.0153629
769.038	0.0152139
769.116	0.0153851
769.194	0.0153262
769.272	0.0151528
769.350	0.0152591
769.428	0.0151897
769.506	0.0150764
769.584	0.0150428
769.663	0.0149130
769.741	0.0148115
769.819	0.0149337
769.897	0.0149322
769.975	0.0148608
770.053	0.0147733
770.131	0.0146965
770.209	0.0146864
770.288	0.0148598
770.366	0.0146889
770.444	0.0146307
770.522	0.0148683
770.600	0.0148030
770.678	0.0147488
770.756	0.0147633
770.834	0.0148732
770.913	0.0150688
770.991	0.0149220
771.069	0.0150973
771.147	0.0151498
771.225	0.0152354
771.303	0.0154083
771.381	0.0154607
771.459	0.0155701
771.538	0.0156453
771.616	0.0157163
771.694	0.0159032
771.772	0.0158064
771.850	0.0160715
771.928	0.0159629
772.006	0.0159689
772.084	0.0159972
772.163	0.0160797
772.241	0.0160638
772.319	0.0158664
772.397	0.0156224
772.475	0.0156747
772.553	0.0154402
772.631	0.0153210
772.709	0.0152876
772.788	0.0151137
772.866	0.0149630
772.944	0.0149072
773.022	0.0147268
773.100	0.0147749
773.178	0.0147729
773.256	0.0147349
773.334	0.0146980
773.413	0.0147308
773.491	0.0145848
773.569	0.0148891
773.647	0.0150787
773.725	0.0150211
773.803	0.0151517
773.881	0.0154757
773.959	0.0154646
774.038	0.0155371
774.116	0.0155563
774.194	0.0154887
774.272	0.0157289
774.350	0.0157195
774.428	0.0157446
774.506	0.0157184
774.584	0.0156084
774.663	0.0156589
774.741	0.0155495
774.819	0.0153318
774.897	0.0152508
774.975	0.0151643
775.053	0.0151579
775.131	0.0150183
775.209	0.0150037
775.288	0.0150080
775.366	0.0148640
775.444	0.0148623
775.522	0.0149436
775.600	0.0147847
775.678	0.0148582
775.756	0.0148800
775.834	0.0148757
775.913	0.0148713
775.991	0.0152254
776.069	0.0151016
776.147	0.0152592
776.225	0.0152560
776.303	0.0152080
776.381	0.0153214
776.459	0.0155071
776.538	0.0156156
776.616	0.0154333
776.694	0.0156097
776.772	0.0155992
776.850	0.0157229
776.928	0.0156963
777.006	0.0157427
777.084	0.0157737
777.163	0.0156756
777.241	0.0157379
777.319	0.0157129
777.397	0.0156575
777.475	0.0155785
777.553	0.0154984
777.631	0.0153940
777.709	0.0153637
777.788	0.0153539
777.866	0.0153293
777.944	0.0153564
778.022	0.0152229
778.100	0.0151741
778.178	0.0152078
778.256	0.0150486
778.334	0.0151391
778.413	0.0152955
778.491	0.0151388
778.569	0.0151688
778.647	0.0151458
778.725	0.0151694
778.803	0.0152954
778.881	0.0153173
778.959	0.0153103
779.038	0.0154121
779.116	0.0155002
779.194	0.0155050
779.272	0.0154591
779.350	0.0153836
779.428	0.0152752
779.506	0.0154964
779.584	0.0153417
779.663	0.0153519
779.741	0.0153045
779.819	0.0152497
779.897	0.0152890
779.975	0.0152093
780.053	0.0151159
780.131	0.0149052
780.209	0.0150565
780.288	0.0150961
780.366	0.0152294
780.444	0.0150234
780.522	0.0151133
780.600	0.0149628
780.678	0.0151268
780.756	0.0152888
780.834	0.0152823
780.913	0.0152214
780.991	0.0152649
781.069	0.0153158
781.147	0.0152684
781.225	0.0153451
781.303	0.0154074
781.381	0.0153278
781.459	0.0155183
781.538	0.0155053
781.616	0.0155402
781.694	0.0155056
781.772	0.0156456
781.850	0.0156277
781.928	0.0156337
782.006	0.0156792
782.084	0.0157232
782.163	0.0159785
782.241	0.0159966
782.319	0.0161072
782.397	0.0159164
782.475	0.0160233
782.553	0.0160802
782.631	0.0160194
782.709	0.0159005
782.788	0.0158123
782.866	0.0159313
782.944	0.0156372
783.022	0.0155813
783.100	0.0155175
783.178	0.0153020
783.256	0.0152856
783.334	0.0150248
783.413	0.0149793
783.491	0.0149767
783.569	0.0148198
783.647	0.0147970
783.725	0.0146689
783.803	0.0146341
783.881	0.0147353
783.959	0.0147988
784.038	0.0147956
784.116	0.0149837
784.194	0.0149480
784.272	0.0149831
784.350	0.0150031
784.428	0.0152296
784.506	0.0151225
784.584	0.0152285
784.663	0.0153872
784.741	0.0154459
784.819	0.0154785
784.897	0.0155163
784.975	0.0154093
785.053	0.0155066
785.131	0.0153709
785.209	0.0153671
785.288	0.0152686
785.366	0.0152999
785.444	0.0151632
785.522	0.0152164
785.600	0.0151923
785.678	0.0151117
785.756	0.0150443
785.834	0.0150866
785.913	0.0149789
785.991	0.0151543
786.069	0.0150946
786.147	0.0152663
786.225	0.0152013
786.303	0.0152999
786.381	0.0154608
786.459	0.0155170
786.538	0.0155022
786.616	0.0155512
786.694	0.0155956
786.772	0.0154778
786.850	0.0156825
786.928	0.0155734
787.006	0.0156136
787.084	0.0155368
787.163	0.0155060
787.241	0.0155034
787.319	0.0155747
787.397	0.0154146
787.475	0.0153001
787.553	0.0153228
787.631	0.0153432
787.709	0.0150961
787.788	0.0152059
787.866	0.0150122
787.944	0.0149030
788.022	0.0146918
788.100	0.0146407
788.178	0.0144641
788.256	0.0143109
788.334	0.0143887
788.413	0.0144025
788.491	0.0143208
788.569	0.0141251
788.647	0.0142690
788.725	0.0143391
788.803	0.0144630
788.881	0.0147253
788.959	0.0147953
789.038	0.0151030
789.116	0.0153226
789.194	0.0155176
789.272	0.0156696
789.350	0.0159000
789.428	0.0159117
789.506	0.0160703
789.584	0.0163017
789.663	0.0164024
789.741	0.0163985
789.819	0.0163936
789.897	0.0163868
789.975	0.0163508
790.053	0.0161658
790.131	0.0160663
790.209	0.0160314
790.288	0.0158813
790.366	0.0157212
790.444	0.0155106
790.522	0.0153762
790.600	0.0153129
790.678	0.0150931
790.756	0.0150425
790.834	0.0148788
790.913	0.0148172
790.991	0.0149242
791.069	0.0146399
791.147	0.0148322
791.225	0.0147762
791.303	0.0147990
791.381	0.0147689
791.459	0.0148078
791.538	0.0149194
791.616	0.0148371
791.694	0.0151198
791.772	0.0151848
791.850	0.0151392
791.928	0.0152502
792.006	0.0153003
792.084	0.0151398
792.163	0.0153810
792.241	0.0153317
792.319	0.0154028
792.397	0.0154037
792.475	0.0153268
792.553	0.0153483
792.631	0.0153432
792.709	0.0153272
792.788	0.0154277
792.866	0.0152972
792.944	0.0153385
793.022	0.0152299
793.100	0.0152367
793.178	0.0151575
793.256	0.0152504
793.334	0.0152643
793.413	0.0153384
793.491	0.0153271
793.569	0.0151921
793.647	0.0151344
793.725	0.0150508
793.803	0.0150396
793.881	0.0151800
793.959	0.0151920
794.038	0.0152628
794.116	0.0152209
794.194	0.0150381
794.272	0.0151379
794.350	0.0151385
794.428	0.0151540
794.506	0.0150191
794.584	0.0151485
794.663	0.0153772
794.741	0.0154060
794.819	0.0152750
794.897	0.0155026
794.975	0.0156922
795.053	0.0155984
795.131	0.0156281
795.209	0.0156105
795.288	0.0154777
795.366	0.0156792
795.444	0.0156979
795.522	0.0156231
795.600	0.0155673
795.678	0.0154605
795.756	0.0156889
795.834	0.0155685
795.913	0.0154689
795.991	0.0154577
796.069	0.0154388
796.147	0.0153900
796.225	0.0154223
796.303	0.0154318
796.381	0.0152953
796.459	0.0152847
796.538	0.0153573
796.616	0.0154765
796.694	0.0155066
796.772	0.0154804
796.850	0.0154158
796.928	0.0155032
797.006	0.0154888
797.084	0.0153975
797.163	0.0153702
797.241	0.0155093
797.319	0.0154465
797.397	0.0153538
797.475	0.0154126
797.553	0.0153702
797.631	0.0154942
797.709	0.0154345
797.788	0.0156329
797.866	0.0156035
797.944	0.0156255
798.022	0.0156420
798.100	0.0156239
798.178	0.0157498
798.256	0.0157219
798.334	0.0157088
798.413	0.0156128
798.491	0.0155849
798.569	0.0154823
798.647	0.0153374
798.725	0.0150819
798.803	0.0149428
798.881	0.0148534
798.959	0.0147734
799.038	0.0146682
799.116	0.0145265
799.194	0.0145322
799.272	0.0143478
799.350	0.0142345
799.428	0.0141999
799.506	0.0143725
799.584	0.0144124
799.663	0.0144455
799.741	0.0146133
799.819	0.0146788
799.897	0.0147569
799.975	0.0148950
800.053	0.0151132
800.131	0.0152337
800.209	0.0154401
800.288	0.0155950
800.366	0.0157498
800.444	0.0158073
800.522	0.0159007
800.600	0.0159606
800.678	0.0160492
800.756	0.0162758
800.834	0.0161954
800.913	0.0162312
800.991	0.0161976
801.069	0.0161627
801.147	0.0161966
801.225	0.0161459
801.303	0.0161025
801.381	0.0160153
801.459	0.0158412
801.538	0.0158427
801.616	0.0156943
801.694	0.0156205
801.772	0.0156245
801.850	0.0153755
801.928	0.0153426
802.006	0.0151929
802.084	0.0150840
802.163	0.0149633
802.241	0.0150465
802.319	0.0149689
802.397	0.0150097
802.475	0.0150148
802.553	0.0150160
802.631	0.0149514
802.709	0.0149268
802.788	0.0149916
802.866	0.0150803
802.944	0.0148927
803.022	0.0149424
803.100	0.0150648
803.178	0.0150980
803.256	0.0150574
803.334	0.0151434
803.413	0.0150344
803.491	0.0151603
803.569	0.0152972
803.647	0.0153250
803.725	0.0152970
803.803	0.0152369
803.881	0.0152455
803.959	0.0153175
804.038	0.0151643
804.116	0.0153213
804.194	0.0153720
804.272	0.0153506
804.350	0.0152961
804.428	0.0152911
804.506	0.0154124
804.584	0.0155013
804.663	0.0154549
804.741	0.0154265
804.819	0.0154639
804.897	0.0153042
804.975	0.0153827
805.053	0.0153294
805.131	0.0153023
805.209	0.0151942
805.288	0.0151396
805.366	0.0153573
805.444	0.0152440
805.522	0.0151222
805.600	0.0151852
805.678	0.0151964
805.756	0.0150323
805.834	0.0151768
805.913	0.0152400
805.991	0.0150299
806.069	0.0151449
806.147	0.0152219
806.225	0.0150532
806.303	0.0152558
806.381	0.0153261
806.459	0.0151759
806.538	0.0151598
806.616	0.0151819
806.694	0.0153461
806.772	0.0153125
806.850	0.0152676
806.928	0.0153289
807.006	0.0153465
807.084	0.0154168
807.163	0.0154707
807.241	0.0154153
807.319	0.0153743
807.397	0.0153191
807.475	0.0153908
807.553	0.0152573
807.631	0.0151330
807.709	0.0151279
807.788	0.0151527
807.866	0.0151955
807.944	0.0151024
808.022	0.0153182
808.100	0.0152146
808.178	0.0151934
808.256	0.0152933
808.334	0.0154362
808.413	0.0154033
808.491	0.0152950
808.569	0.0155651
808.647	0.0155604
808.725	0.0155134
808.803	0.0157195
808.881	0.0156164
808.959	0.0155966
809.038	0.0156802
809.116	0.0156998
809.194	0.0156975
809.272	0.0157081
809.350	0.0155679
809.428	0.0155725
809.506	0.0154900
809.584	0.0153844
809.663	0.0153765
809.741	0.0152475
809.819	0.0152104
809.897	0.0152305
809.975	0.0151350
810.053	0.0150501
810.131	0.0149915
810.209	0.0149583
810.288	0.0149382
810.366	0.0149808
810.444	0.0147875
810.522	0.0147127
810.600	0.0147048
810.678	0.0147684
810.756	0.0146661
810.834	0.0147300
810.913	0.0148677
810.991	0.0148605
811.069	0.0149065
811.147	0.0149756
811.225	0.0150562
811.303	0.0149358
811.381	0.0152260
811.459	0.0152417
811.538	0.0152915
811.616	0.0152261
811.694	0.0152177
811.772	0.0151569
811.850	0.0152882
811.928	0.0149953
812.006	0.0151460
812.084	0.0150951
812.163	0.0149935
812.241	0.0150539
812.319	0.0149091
812.397	0.0149479
812.475	0.0149392
812.553	0.0149208
812.631	0.0150772
812.709	0.0150641
812.788	0.0151713
812.866	0.0152087
812.944	0.0151484
813.022	0.0152676
813.100	0.0153343
813.178	0.0154923
813.256	0.0154799
813.334	0.0153828
813.413	0.0156762
813.491	0.0155490
813.569	0.0156973
813.647	0.0157493
813.725	0.0159467
813.803	0.0156708
813.881	0.0157689
813.959	0.0156962
814.038	0.0156207
814.116	0.0157674
814.194	0.0157320
814.272	0.0155906
814.350	0.0154823
814.428	0.0156964
814.506	0.0155569
814.584	0.0154480
814.663	0.0154165
814.741	0.0156716
814.819	0.0153149
814.897	0.0151706
814.975	0.0152045
815.053	0.0150704
815.131	0.0151658
815.209	0.0150582
815.288	0.0152380
815.366	0.0150643
815.444	0.0151080
815.522	0.0150027
815.600	0.0149923
815.678	0.0150945
815.756	0.0151004
815.834	0.0150755
815.913	0.0151075
815.991	0.0151537
816.069	0.0152538
816.147	0.0152735
816.225	0.0152323
816.303	0.0152425
816.381	0.0152185
816.459	0.0151360
816.538	0.0152767
816.616	0.0152637
816.694	0.0153951
816.772	0.0153572
816.850	0.0154672
816.928	0.0155166
817.006	0.0154383
817.084	0.0154961
817.163	0.0154663
817.241	0.0154132
817.319	0.0154948
817.397	0.0154619
817.475	0.0154711
817.553	0.0153357
817.631	0.0154663
817.709	0.0153597
817.788	0.0152255
817.866	0.0154896
817.944	0.0153459
818.022	0.0153596
818.100	0.0154103
818.178	0.0153431
818.256	0.0152873
818.334	0.0153381
818.413	0.0155489
818.491	0.0154993
818.569	0.0153333
818.647	0.0154721
818.725	0.0156076
818.803	0.0156306
818.881	0.0156220
818.959	0.0156223
819.038	0.0155286
819.116	0.0156766
819.194	0.0155007
819.272	0.0156219
819.350	0.0155067
819.428	0.0154002
819.506	0.0155817
819.584	0.0153506
819.663	0.0153876
819.741	0.0154234
819.819	0.0152985
819.897	0.0152481
819.975	0.0152070
820.053	0.0152529
820.131	0.0151218
820.209	0.0152300
820.288	0.0151553
820.366	0.0150938
820.444	0.0151106
820.522	0.0152607
820.600	0.0151579
820.678	0.0151131
820.756	0.0151739
820.834	0.0151354
820.913	0.0151669
820.991	0.0151675
821.069	0.0152267
821.147	0.0151379
821.225	0.0154259
821.303	0.0153775
821.381	0.0154900
821.459	0.0152751
821.538	0.0153693
821.616	0.0155347
821.694	0.0154871
821.772	0.0155523
821.850	0.0156588
821.928	0.0155950
822.006	0.0156002
822.084	0.0155727
822.163	0.0154733
822.241	0.0156659
822.319	0.0156207
822.397	0.0155444
822.475	0.0154691
822.553	0.0154909
822.631	0.0155200
822.709	0.0154113
822.788	0.0153458
822.866	0.0152302
822.944	0.0152081
823.022	0.0150558
823.100	0.0151258
823.178	0.0150718
823.256	0.0149353
823.334	0.0151682
823.413	0.0149476
823.491	0.0149229
823.569	0.0149158
823.647	0.0149442
823.725	0.0149812
823.803	0.0150860
823.881	0.0149697
823.959	0.0150321
824.038	0.0149547
824.116	0.0150134
824.194	0.0150508
824.272	0.0149934
824.350	0.0150693
824.428	0.0151909
824.506	0.0152046
824.584	0.0151711
824.663	0.0152196
824.741	0.0153888
824.819	0.0153996
824.897	0.0151964
824.975	0.0152273
825.053	0.0153173
825.131	0.0152785
825.209	0.0153551
825.288	0.0153773
825.366	0.0154300
825.444	0.0153500
825.522	0.0152489
825.600	0.0155560
825.678	0.0153802
825.756	0.0152309
825.834	0.0152824
825.913	0.0152146
825.991	0.0152261
826.069	0.0152779
826.147	0.0152905
826.225	0.0153399
826.303	0.0152540
826.381	0.0152232
826.459	0.0152663
826.538	0.0153941
826.616	0.0154088
826.694	0.0154037
826.772	0.0154379
826.850	0.0154346
826.928	0.0155509
827.006	0.0155231
827.084	0.0155350
827.163	0.0154005
827.241	0.0156131
827.319	0.0155489
827.397	0.0154118
827.475	0.0155956
827.553	0.0155472
827.631	0.0155958
827.709	0.0156010
827.788	0.0155161
827.866	0.0155125
827.944	0.0156298
828.022	0.0156242
828.100	0.0155717
828.178	0.0153840
828.256	0.0155038
828.334	0.0154381
828.413	0.0151642
828.491	0.0151878
828.569	0.0153397
828.647	0.0151399
828.725	0.0151624
828.803	0.0150803
828.881	0.0148861
828.959	0.0150219
829.038	0.0149152
829.116	0.0148195
829.194	0.0148550
829.272	0.0148101
829.350	0.0148744
829.428	0.0148532
829.506	0.0147314
829.584	0.0148740
829.663	0.0149162
829.741	0.0148440
829.819	0.0149413
829.897	0.0148873
829.975	0.0151347
830.053	0.0151371
830.131	0.0151199
830.209	0.0153234
830.288	0.0152158
830.366	0.0152674
830.444	0.0152769
830.522	0.0153349
830.600	0.0153629
830.678	0.0153869
830.756	0.0155367
830.834	0.0155486
830.913	0.0155583
830.991	0.0154311
831.069	0.0153519
831.147	0.0154482
831.225	0.0155700
831.303	0.0153743
831.381	0.0152534
831.459	0.0154514
831.538	0.0153293
831.616	0.0154518
831.694	0.0152795
831.772	0.0152265
831.850	0.0151640
831.928	0.0152449
832.006	0.0150158
832.084	0.0150784
832.163	0.0150539
832.241	0.0150550
832.319	0.0150804
832.397	0.0151580
832.475	0.0150412
832.553	0.0149091
832.631	0.0150842
832.709	0.0152565
832.788	0.0150666
832.866	0.0152271
832.944	0.0151686
833.022	0.0151006
833.100	0.0152071
833.178	0.0152607
833.256	0.0153150
833.334	0.0153523
833.413	0.0152630
833.491	0.0152609
833.569	0.0152152
833.647	0.0153287
833.725	0.0152528
833.803	0.0153619
833.881	0.0153193
833.959	0.0152676
834.038	0.0153411
834.116	0.0154082
834.194	0.0153291
834.272	0.0152583
834.350	0.0152869
834.428	0.0153577
834.506	0.0152836
834.584	0.0152643
834.663	0.0153223
834.741	0.0153318
834.819	0.0154829
834.897	0.0154048
834.975	0.0154226
835.053	0.0153379
835.131	0.0153259
835.209	0.0153883
835.288	0.0153138
835.366	0.0152801
835.444	0.0153460
835.522	0.0153499
835.600	0.0153133
835.678	0.0153041
835.756	0.0152610
835.834	0.0151449
835.913	0.0153183
835.991	0.0153027
836.069	0.0152533
836.147	0.0151205
836.225	0.0152184
836.303	0.0152348
836.381	0.0152234
836.459	0.0150777
836.538	0.0152071
836.616	0.0152254
836.694	0.0152229
836.772	0.0153304
836.850	0.0153892
836.928	0.0152689
837.006	0.0154198
837.084	0.0153882
837.163	0.0154967
837.241	0.0154758
837.319	0.0155945
837.397	0.0154311
837.475	0.0155061
837.553	0.0155627
837.631	0.0156854
837.709	0.0155016
837.788	0.0154292
837.866	0.0155197
837.944	0.0153338
838.022	0.0154797
838.100	0.0153306
838.178	0.0153266
838.256	0.0153073
838.334	0.0153922
838.413	0.0153500
838.491	0.0152737
838.569	0.0153049
838.647	0.0152230
838.725	0.0154681
838.803	0.0153548
838.881	0.0155561
838.959	0.0153844
839.038	0.0153857
839.116	0.0155782
839.194	0.0155589
839.272	0.0155495
839.350	0.0155573
839.428	0.0154944
839.506	0.0155516
839.584	0.0155029
839.663	0.0154692
839.741	0.0155638
839.819	0.0154472
839.897	0.0154371
839.975	0.0154503
840.053	0.0153517
840.131	0.0154989
840.209	0.0153761
840.288	0.0152911
840.366	0.0153501
840.444	0.0154424
840.522	0.0151784
840.600	0.0153408
840.678	0.0154374
840.756	0.0152334
840.834	0.0152181
840.913	0.0154893
840.991	0.0154694
841.069	0.0154561
841.147	0.0154749
841.225	0.0155498
841.303	0.0153690
841.381	0.0154560
841.459	0.0153555
841.538	0.0155074
841.616	0.0154317
841.694	0.0154043
841.772	0.0153851
841.850	0.0154017
841.928	0.0153393
842.006	0.0154327
842.084	0.0153263
842.163	0.0153571
842.241	0.0152867
842.319	0.0152206
842.397	0.0152830
842.475	0.0153059
842.553	0.0153617
842.631	0.0153465
842.709	0.0152679
842.788	0.0153751
842.866	0.0152278
842.944	0.0153214
843.022	0.0152857
843.100	0.0152605
843.178	0.0153100
843.256	0.0151327
843.334	0.0151895
843.413	0.0153107
843.491	0.0153437
843.569	0.0152735
843.647	0.0152757
843.725	0.0152491
843.803	0.0152138
843.881	0.0151813
843.959	0.0153266
844.038	0.0151748
844.116	0.0150143
844.194	0.0149673
844.272	0.0150600
844.350	0.0149057
844.428	0.0148322
844.506	0.0149250
844.584	0.0149572
844.663	0.0147565
844.741	0.0148638
844.819	0.0149272
844.897	0.0148412
844.975	0.0149688
845.053	0.0149246
845.131	0.0148470
845.209	0.0150253
845.288	0.0149368
845.366	0.0151007
845.444	0.0151836
845.522	0.0151017
845.600	0.0151383
845.678	0.0152319
845.756	0.0153764
845.834	0.0153281
845.913	0.0152689
845.991	0.0153300
846.069	0.0152090
846.147	0.0151919
846.225	0.0152978
846.303	0.0154494
846.381	0.0154148
846.459	0.0154022
846.538	0.0154482
846.616	0.0154565
846.694	0.0153847
846.772	0.0153634
846.850	0.0152588
846.928	0.0152618
847.006	0.0152905
847.084	0.0152880
847.163	0.0152014
847.241	0.0152083
847.319	0.0151663
847.397	0.0151123
847.475	0.0150969
847.553	0.0151501
847.631	0.0151987
847.709	0.0151965
847.788	0.0152279
847.866	0.0152796
847.944	0.0153057
848.022	0.0153803
848.100	0.0153149
848.178	0.0153941
848.256	0.0154102
848.334	0.0155000
848.413	0.0153305
848.491	0.0154987
848.569	0.0153774
848.647	0.0153988
848.725	0.0154261
848.803	0.0154325
848.881	0.0153011
848.959	0.0154356
849.038	0.0154357
849.116	0.0152964
849.194	0.0153572
849.272	0.0153353
849.350	0.0152673
849.428	0.0153069
849.506	0.0153571
849.584	0.0153197
849.663	0.0151799
849.741	0.0152887
849.819	0.0153893
849.897	0.0154133
849.975	0.0152048
850.053	0.0152270
850.131	0.0153534
850.209	0.0153141
850.288	0.0153304
850.366	0.0153089
850.444	0.0152169
850.522	0.0152058
850.600	0.0152810
850.678	0.0151293
850.756	0.0152176
850.834	0.0153406
850.913	0.0152373
850.991	0.0152538
851.069	0.0152605
851.147	0.0152168
851.225	0.0152921
851.303	0.0153367
851.381	0.0153195
851.459	0.0153384
851.538	0.0152131
851.616	0.0151590
851.694	0.0154036
851.772	0.0151659
851.850	0.0151317
851.928	0.0151287
852.006	0.0152374
852.084	0.0149721
852.163	0.0150542
852.241	0.0151064
852.319	0.0151408
852.397	0.0150671
852.475	0.0150684
852.553	0.0150162
852.631	0.0150596
852.709	0.0150245
852.788	0.0150955
852.866	0.0149365
852.944	0.0150623
853.022	0.0150205
853.100	0.0151503
853.178	0.0151643
853.256	0.0151497
853.334	0.0151837
853.413	0.0152237
853.491	0.0151289
853.569	0.0151800
853.647	0.0153558
853.725	0.0154218
853.803	0.0153529
853.881	0.0154470
853.959	0.0154327
854.038	0.0153346
854.116	0.0154435
854.194	0.0155199
854.272	0.0154897
854.350	0.0155288
854.428	0.0155447
854.506	0.0154990
854.584	0.0155595
854.663	0.0156860
854.741	0.0154494
854.819	0.0155846
854.897	0.0155029
854.975	0.0154288
855.053	0.0155692
855.131	0.0154459
855.209	0.0154116
855.288	0.0154025
855.366	0.0156409
855.444	0.0156192
855.522	0.0154137
855.600	0.0153394
855.678	0.0155418
855.756	0.0155981
855.834	0.0154817
855.913	0.0154150
855.991	0.0154105
856.069	0.0155650
856.147	0.0154585
856.225	0.0153853
856.303	0.0154276
856.381	0.0154058
856.459	0.0153041
856.538	0.0151330
856.616	0.0152995
856.694	0.0153950
856.772	0.0152721
856.850	0.0152427
856.928	0.0153408
857.006	0.0151991
857.084	0.0152992
857.163	0.0154031
857.241	0.0153415
857.319	0.0153049
857.397	0.0153342
857.475	0.0153675
857.553	0.0152800
857.631	0.0153198
857.709	0.0152536
857.788	0.0153111
857.866	0.0152945
857.944	0.0151858
858.022	0.0151517
858.100	0.0151600
858.178	0.0151071
858.256	0.0152357
858.334	0.0150998
858.413	0.0150398
858.491	0.0152501
858.569	0.0152399
858.647	0.0152686
858.725	0.0151645
858.803	0.0151640
858.881	0.0151807
858.959	0.0154156
859.038	0.0153023
859.116	0.0153293
859.194	0.0154143
859.272	0.0152827
859.350	0.0153839
859.428	0.0154842
859.506	0.0154729
859.584	0.0154239
859.663	0.0154805
859.741	0.0155352
859.819	0.0154562
859.897	0.0153755
859.975	0.0155533
860.053	0.0154475
860.131	0.0153773
860.209	0.0155025
860.288	0.0155014
860.366	0.0155075
860.444	0.0155190
860.522	0.0154656
860.600	0.0154564
860.678	0.0154198
860.756	0.0153269
860.834	0.0154448
860.913	0.0153278
860.991	0.0154286
861.069	0.0153487
861.147	0.0154373
861.225	0.0153907
861.303	0.0153160
861.381	0.0153304
861.459	0.0152409
861.538	0.0154163
861.616	0.0151945
861.694	0.0152549
861.772	0.0151730
861.850	0.0151925
861.928	0.0152035
862.006	0.0151311
862.084	0.0150864
862.163	0.0151176
862.241	0.0150631
862.319	0.0150851
862.397	0.0150512
862.475	0.0151186
862.553	0.0148882
862.631	0.0149902
862.709	0.0150668
862.788	0.0151265
862.866	0.0151740
862.944	0.0150801
863.022	0.0152425
863.100	0.0152304
863.178	0.0152285
863.256	0.0152135
863.334	0.0152427
863.413	0.0151721
863.491	0.0152534
863.569	0.0151258
863.647	0.0152658
863.725	0.0151942
863.803	0.0150558
863.881	0.0151594
863.959	0.0153073
864.038	0.0152248
864.116	0.0151862
864.194	0.0151527
864.272	0.0151540
864.350	0.0152853
864.428	0.0152003
864.506	0.0153302
864.584	0.0151472
864.663	0.0153749
864.741	0.0152939
864.819	0.0151854
864.897	0.0152936
864.975	0.0153152
865.053	0.0152231
865.131	0.0151075
865.209	0.0152834
865.288	0.0151144
865.366	0.0150759
865.444	0.0153349
865.522	0.0150345
865.600	0.0150858
865.678	0.0152345
865.756	0.0151237
865.834	0.0152164
865.913	0.0151579
865.991	0.0151216
866.069	0.0153170
866.147	0.0152393
866.225	0.0152379
866.303	0.0153431
866.381	0.0152924
866.459	0.0153530
866.538	0.0153518
866.616	0.0154126
866.694	0.0154293
866.772	0.0153621
866.850	0.0155015
866.928	0.0154472
867.006	0.0154291
867.084	0.0153112
867.163	0.0153505
867.241	0.0154288
867.319	0.0153799
867.397	0.0154231
867.475	0.0153806
867.553	0.0154459
867.631	0.0154411
867.709	0.0154763
867.788	0.0154476
867.866	0.0155544
867.944	0.0154596
868.022	0.0154783
868.100	0.0154408
868.178	0.0154844
868.256	0.0154588
868.334	0.0154665
868.413	0.0154535
868.491	0.0154896
868.569	0.0156335
868.647	0.0155846
868.725	0.0155074
868.803	0.0155045
868.881	0.0153899
868.959	0.0154497
869.038	0.0154754
869.116	0.0154188
869.194	0.0154087
869.272	0.0154158
869.350	0.0154420
869.428	0.0155676
869.506	0.0155054
869.584	0.0154382
869.663	0.0153290
869.741	0.0153556
869.819	0.0154221
869.897	0.0155550
869.975	0.0154755
870.053	0.0154776
870.131	0.0155448
870.209	0.0153465
870.288	0.0152538
870.366	0.0154026
870.444	0.0153848
870.522	0.0153448
870.600	0.0153529
870.678	0.0153127
870.756	0.0152837
870.834	0.0151407
870.913	0.0151232
870.991	0.0152687
871.069	0.0153234
871.147	0.0152773
871.225	0.0154261
871.303	0.0151869
871.381	0.0152965
871.459	0.0152116
871.538	0.0153036
871.616	0.0152849
871.694	0.0152081
871.772	0.0153683
871.850	0.0153193
871.928	0.0152988
872.006	0.0153947
872.084	0.0153433
872.163	0.0153053
872.241	0.0154362
872.319	0.0154171
872.397	0.0153846
872.475	0.0153485
872.553	0.0154296
872.631	0.0153825
872.709	0.0153221
872.788	0.0152782
872.866	0.0151671
872.944	0.0151787
873.022	0.0150993
873.100	0.0152247
873.178	0.0152004
873.256	0.0152952
873.334	0.0150900
873.413	0.0151383
873.491	0.0151629
873.569	0.0150104
873.647	0.0151154
873.725	0.0151233
873.803	0.0151404
873.881	0.0151025
873.959	0.0153040
874.038	0.0151661
874.116	0.0151939
874.194	0.0153663
874.272	0.0153506
874.350	0.0151906
874.428	0.0152922
874.506	0.0151537
874.584	0.0152304
874.663	0.0153016
874.741	0.0153023
874.819	0.0151998
874.897	0.0152155
874.975	0.0153197
875.053	0.0152978
875.131	0.0152553
875.209	0.0151978
875.288	0.0151271
875.366	0.0152026
875.444	0.0152271
875.522	0.0153130
875.600	0.0152535
875.678	0.0152487
875.756	0.0152697
875.834	0.0151585
875.913	0.0152789
875.991	0.0153722
876.069	0.0153875
876.147	0.0151424
876.225	0.0152325
876.303	0.0153152
876.381	0.0151211
876.459	0.0151840
876.538	0.0152177
876.616	0.0151153
876.694	0.0152289
876.772	0.0153344
876.850	0.0152215
876.928	0.0151771
877.006	0.0151583
877.084	0.0152471
877.163	0.0152942
877.241	0.0153821
877.319	0.0153734
877.397	0.0152910
877.475	0.0153804
877.553	0.0151724
877.631	0.0153524
877.709	0.0153722
877.788	0.0152916
877.866	0.0153239
877.944	0.0153821
878.022	0.0153574
878.100	0.0154433
878.178	0.0153405
878.256	0.0153699
878.334	0.0152560
878.413	0.0151769
878.491	0.0153233
878.569	0.0153534
878.647	0.0153344
878.725	0.0152512
878.803	0.0152602
878.881	0.0153426
878.959	0.0153018
879.038	0.0153616
879.116	0.0152737
879.194	0.0153008
879.272	0.0153027
879.350	0.0153705
879.428	0.0153103
879.506	0.0153156
879.584	0.0153072
879.663	0.0151821
879.741	0.0151984
879.819	0.0152141
879.897	0.0154107
879.975	0.0153905
880.053	0.0152745
880.131	0.0153232
880.209	0.0152728
880.288	0.0154200
880.366	0.0154128
880.444	0.0154021
880.522	0.0154088
880.600	0.0154561
880.678	0.0154394
880.756	0.0152081
880.834	0.0153554
880.913	0.0152876
880.991	0.0153455
881.069	0.0152538
881.147	0.0152408
881.225	0.0153755
881.303	0.0152551
881.381	0.0152773
881.459	0.0153847
881.538	0.0153050
881.616	0.0152806
881.694	0.0153570
881.772	0.0153075
881.850	0.0152038
881.928	0.0151445
882.006	0.0153078
882.084	0.0152275
882.163	0.0154975
882.241	0.0152961
882.319	0.0152380
882.397	0.0153619
882.475	0.0153863
882.553	0.0154165
882.631	0.0154427
882.709	0.0154831
882.788	0.0154836
882.866	0.0154719
882.944	0.0155088
883.022	0.0154641
883.100	0.0155455
883.178	0.0155823
883.256	0.0156198
883.334	0.0156207
883.413	0.0155759
883.491	0.0156924
883.569	0.0155997
883.647	0.0156968
883.725	0.0157670
883.803	0.0156527
883.881	0.0156981
883.959	0.0155669
884.038	0.0156226
884.116	0.0155984
884.194	0.0156557
884.272	0.0154388
884.350	0.0155576
884.428	0.0156715
884.506	0.0154843
884.584	0.0155172
884.663	0.0153600
884.741	0.0154327
884.819	0.0154443
884.897	0.0153550
884.975	0.0153384
885.053	0.0153168
885.131	0.0153033
885.209	0.0152362
885.288	0.0152251
885.366	0.0152499
885.444	0.0151493
885.522	0.0152088
885.600	0.0152207
885.678	0.0151142
885.756	0.0151965
885.834	0.0151899
885.913	0.0151624
885.991	0.0151783
886.069	0.0152831
886.147	0.0152439
886.225	0.0150900
886.303	0.0151235
886.381	0.0151817
886.459	0.0152734
886.538	0.0153216
886.616	0.0153349
886.694	0.0153711
886.772	0.0152636
886.850	0.0152363
886.928	0.0153834
887.006	0.0155412
887.084	0.0153252
887.163	0.0152747
887.241	0.0152780
887.319	0.0154620
887.397	0.0153815
887.475	0.0154167
887.553	0.0153440
887.631	0.0154809
887.709	0.0153464
887.788	0.0154946
887.866	0.0153324
887.944	0.0153958
888.022	0.0154302
888.100	0.0153675
888.178	0.0152628
888.256	0.0151743
888.334	0.0151440
888.413	0.0152280
888.491	0.0151223
888.569	0.0150681
888.647	0.0150983
888.725	0.0150086
888.803	0.0150879
888.881	0.0150294
888.959	0.0151986
889.038	0.0152269
889.116	0.0150573
889.194	0.0151172
889.272	0.0152136
889.350	0.0149758
889.428	0.0150336
889.506	0.0151768
889.584	0.0151491
889.663	0.0150842
889.741	0.0151486
889.819	0.0149529
889.897	0.0151257
889.975	0.0151093
890.053	0.0152191
890.131	0.0152279
890.209	0.0150732
890.288	0.0151286
890.366	0.0152287
890.444	0.0152056
890.522	0.0152663
890.600	0.0153304
890.678	0.0152682
890.756	0.0152882
890.834	0.0153239
890.913	0.0153107
890.991	0.0152397
891.069	0.0152636
891.147	0.0152074
891.225	0.0154092
891.303	0.0153242
891.381	0.0153281
891.459	0.0152731
891.538	0.0151260
891.616	0.0152305
891.694	0.0154918
891.772	0.0153584
891.850	0.0152796
891.928	0.0153426
892.006	0.0154692
892.084	0.0155118
892.163	0.0153233
892.241	0.0153601
892.319	0.0155070
892.397	0.0155261
892.475	0.0152911
892.553	0.0152596
892.631	0.0153712
892.709	0.0153087
892.788	0.0153074
892.866	0.0154279
892.944	0.0154276
893.022	0.0153166
893.100	0.0153284
893.178	0.0153419
893.256	0.0153265
893.334	0.0153717
893.413	0.0151543
893.491	0.0153818
893.569	0.0153101
893.647	0.0153196
893.725	0.0152962
893.803	0.0153290
893.881	0.0152941
893.959	0.0151952
894.038	0.0152299
894.116	0.0153064
894.194	0.0152464
894.272	0.0152931
894.350	0.0154476
894.428	0.0153674
894.506	0.0153684
894.584	0.0154035
894.663	0.0154463
894.741	0.0155032
894.819	0.0154862
894.897	0.0155039
894.975	0.0157026
895.053	0.0156642
895.131	0.0155827
895.209	0.0155784
895.288	0.0156425
895.366	0.0156324
895.444	0.0156895
895.522	0.0158675
895.600	0.0157559
895.678	0.0157692
895.756	0.0157806
895.834	0.0158379
895.913	0.0159560
895.991	0.0157813
896.069	0.0155614
896.147	0.0156590
896.225	0.0158064
896.303	0.0156568
896.381	0.0155545
896.459	0.0154772
896.538	0.0153757
896.616	0.0153366
896.694	0.0152464
896.772	0.0152720
896.850	0.0151424
896.928	0.0151385
897.006	0.0152545
897.084	0.0152908
897.163	0.0150911
897.241	0.0149911
897.319	0.0150343
897.397	0.0150359
897.475	0.0152161
897.553	0.0151723
897.631	0.0149937
897.709	0.0151235
897.788	0.0151883
897.866	0.0153249
897.944	0.0152474
898.022	0.0152498
898.100	0.0152514
898.178	0.0153410
898.256	0.0154671
898.334	0.0153349
898.413	0.0154452
898.491	0.0152886
898.569	0.0153322
898.647	0.0154227
898.725	0.0154041
898.803	0.0155473
898.881	0.0154623
898.959	0.0154317
899.038	0.0154181
899.116	0.0154150
899.194	0.0153352
899.272	0.0152372
899.350	0.0153458
899.428	0.0153077
899.506	0.0152827
899.584	0.0150584
899.663	0.0152979
899.741	0.0153763
899.819	0.0151889
899.897	0.0152714
899.975	0.0152662
900.053	0.0153179
900.131	0.0154029
900.209	0.0152620
900.288	0.0153531
900.366	0.0152950
900.444	0.0153058
900.522	0.0151730
900.600	0.0153342
900.678	0.0151871
900.756	0.0152519
900.834	0.0152701
900.913	0.0153857
900.991	0.0152824
901.069	0.0152393
901.147	0.0152932
901.225	0.0153284
901.303	0.0153930
901.381	0.0152538
901.459	0.0155514
901.538	0.0153857
901.616	0.0153393
901.694	0.0153481
901.772	0.0153748
901.850	0.0153256
901.928	0.0152804
902.006	0.0152646
902.084	0.0153010
902.163	0.0153629
902.241	0.0153173
902.319	0.0151678
902.397	0.0153745
902.475	0.0153123
902.553	0.0152406
902.631	0.0151424
902.709	0.0151337
902.788	0.0152449
902.866	0.0152354
902.944	0.0152456
903.022	0.0152921
903.100	0.0153648
903.178	0.0151804
903.256	0.0152574
903.334	0.0153603
903.413	0.0153206
903.491	0.0152222
903.569	0.0153742
903.647	0.0154256
903.725	0.0154305
903.803	0.0152653
903.881	0.0153893
903.959	0.0153329
904.038	0.0152929
904.116	0.0153539
904.194	0.0153316
904.272	0.0151968
904.350	0.0151517
904.428	0.0151911
904.506	0.0151794
904.584	0.0149570
904.663	0.0150616
904.741	0.0150195
904.819	0.0150440
904.897	0.0150827
904.975	0.0149692
905.053	0.0150581
905.131	0.0151135
905.209	0.0149759
905.288	0.0150751
905.366	0.0151421
905.444	0.0151335
905.522	0.0151301
905.600	0.0152305
905.678	0.0153057
905.756	0.0151864
905.834	0.0151837
905.913	0.0150562
905.991	0.0151232
906.069	0.0153410
906.147	0.0153699
906.225	0.0153156
906.303	0.0153681
906.381	0.0153909
906.459	0.0154721
906.538	0.0155569
906.616	0.0155021
906.694	0.0154282
906.772	0.0154169
906.850	0.0155169
906.928	0.0154166
907.006	0.0154721
907.084	0.0153936
907.163	0.0152882
907.241	0.0153290
907.319	0.0153063
907.397	0.0152943
907.475	0.0152531
907.553	0.0153707
907.631	0.0152756
907.709	0.0153372
907.788	0.0153390
907.866	0.0153351
907.944	0.0152854
908.022	0.0152700
908.100	0.0151187
908.178	0.0153111
908.256	0.0153036
908.334	0.0151911
908.413	0.0152827
908.491	0.0151539
908.569	0.0152827
908.647	0.0152518
908.725	0.0152969
908.803	0.0151836
908.881	0.0152435
908.959	0.0152502
909.038	0.0151562
909.116	0.0150433
909.194	0.0150795
909.272	0.0151932
909.350	0.0152346
909.428	0.0152245
909.506	0.0151956
909.584	0.0151906
909.663	0.0150845
909.741	0.0151531
909.819	0.0152223
909.897	0.0154298
909.975	0.0152810
910.053	0.0153017
910.131	0.0153883
910.209	0.0153569
910.288	0.0153358
910.366	0.0153495
910.444	0.0153600
910.522	0.0153667
910.600	0.0155402
910.678	0.0153847
910.756	0.0155591
910.834	0.0153727
910.913	0.0153849
910.991	0.0153738
911.069	0.0155413
911.147	0.0156219
911.225	0.0153660
911.303	0.0156240
911.381	0.0155231
911.459	0.0153963
911.538	0.0154779
911.616	0.0153287
911.694	0.0154430
911.772	0.0153683
911.850	0.0154123
911.928	0.0154575
912.006	0.0154130
912.084	0.0154666
912.163	0.0154665
912.241	0.0153047
912.319	0.0155181
912.397	0.0154308
912.475	0.0153815
912.553	0.0153466
912.631	0.0153526
912.709	0.0153862
912.788	0.0152554
912.866	0.0152147
912.944	0.0152381
913.022	0.0152658
913.100	0.0152430
913.178	0.0153500
913.256	0.0151707
913.334	0.0151866
913.413	0.0151434
913.491	0.0151303
913.569	0.0152731
913.647	0.0150954
913.725	0.0151473
913.803	0.0152325
913.881	0.0152076
913.959	0.0151192
914.038	0.0152304
914.116	0.0150725
914.194	0.0151974
914.272	0.0152505
914.350	0.0152868
914.428	0.0152015
914.506	0.0151958
914.584	0.0150769
914.663	0.0152401
914.741	0.0151517
914.819	0.0152397
914.897	0.0151427
914.975	0.0152209
915.053	0.0152225
915.131	0.0151365
915.209	0.0152091
915.288	0.0151752
915.366	0.0151684
915.444	0.0151956
915.522	0.0150111
915.600	0.0150237
915.678	0.0150819
915.756	0.0151677
915.834	0.0151233
915.913	0.0150921
915.991	0.0150269
916.069	0.0151788
916.147	0.0151870
916.225	0.0151222
916.303	0.0150927
916.381	0.0152480
916.459	0.0151307
916.538	0.0150169
916.616	0.0151283
916.694	0.0151762
916.772	0.0151060
916.850	0.0152417
916.928	0.0149876
917.006	0.0150629
917.084	0.0152872
917.163	0.0152410
917.241	0.0151693
917.319	0.0151134
917.397	0.0152669
917.475	0.0152457
917.553	0.0152293
917.631	0.0152396
917.709	0.0152759
917.788	0.0152724
917.866	0.0152137
917.944	0.0153121
918.022	0.0153778
918.100	0.0152327
918.178	0.0150791
918.256	0.0151968
918.334	0.0152064
918.413	0.0152645
918.491	0.0152616
918.569	0.0151352
918.647	0.0153232
918.725	0.0151517
918.803	0.0151457
918.881	0.0151984
918.959	0.0152753
919.038	0.0152424
919.116	0.0151737
919.194	0.0151733
919.272	0.0153228
919.350	0.0154538
919.428	0.0153257
919.506	0.0152807
919.584	0.0153629
919.663	0.0152386
919.741	0.0152741
919.819	0.0152859
919.897	0.0153386
