05/20/2022	21:13:09	Ver.	4.1	UNKNOWN
Optical Delay	599.975067	Delta X		0.078125	Sweeps	1	Scan Rate	0/0
Coordinates	Axis 1	NaN	Axis 2	NaN	Axis 3	NaN	Axis 4	NaN	Axis 5	NaN	Axis 6	0.000000
TX Power	0.000000	RX Power	0.000000

599.975	0.0156055
600.053	0.0156839
600.131	0.0156559
600.209	0.0158262
600.288	0.0156170
600.366	0.0156398
600.444	0.0156599
600.522	0.0156100
600.600	0.0157213
600.678	0.0157041
600.756	0.0156922
600.834	0.0155995
600.913	0.0157356
600.991	0.0156870
601.069	0.0157959
601.147	0.0157583
601.225	0.0157659
601.303	0.0157097
601.381	0.0157378
601.459	0.0156859
601.538	0.0157598
601.616	0.0157600
601.694	0.0157204
601.772	0.0157140
601.850	0.0156931
601.928	0.0157664
602.006	0.0156794
602.084	0.0156476
602.163	0.0157515
602.241	0.0156462
602.319	0.0157259
602.397	0.0157574
602.475	0.0157427
602.553	0.0156036
602.631	0.0157066
602.709	0.0157314
602.788	0.0156750
602.866	0.0157656
602.944	0.0157132
603.022	0.0158248
603.100	0.0157508
603.178	0.0157230
603.256	0.0157018
603.334	0.0156617
603.413	0.0156174
603.491	0.0156062
603.569	0.0157200
603.647	0.0156652
603.725	0.0157160
603.803	0.0158925
603.881	0.0157754
603.959	0.0158279
604.038	0.0158463
604.116	0.0157144
604.194	0.0156299
604.272	0.0157590
604.350	0.0156979
604.428	0.0157571
604.506	0.0157366
604.584	0.0157587
604.663	0.0156622
604.741	0.0158167
604.819	0.0156874
604.897	0.0157555
604.975	0.0156398
605.053	0.0156207
605.131	0.0157910
605.209	0.0157556
605.288	0.0156668
605.366	0.0157339
605.444	0.0156998
605.522	0.0155150
605.600	0.0156205
605.678	0.0156357
605.756	0.0156548
605.834	0.0157718
605.913	0.0156802
605.991	0.0157557
606.069	0.0155811
606.147	0.0157694
606.225	0.0156232
606.303	0.0155967
606.381	0.0155811
606.459	0.0158083
606.538	0.0156590
606.616	0.0155752
606.694	0.0157967
606.772	0.0158100
606.850	0.0155740
606.928	0.0157079
607.006	0.0156224
607.084	0.0156918
607.163	0.0157813
607.241	0.0156472
607.319	0.0156989
607.397	0.0157978
607.475	0.0156754
607.553	0.0156785
607.631	0.0157836
607.709	0.0156736
607.788	0.0158023
607.866	0.0157832
607.944	0.0156604
608.022	0.0156866
608.100	0.0158164
608.178	0.0157844
608.256	0.0156290
608.334	0.0158061
608.413	0.0159361
608.491	0.0157342
608.569	0.0156376
608.647	0.0157899
608.725	0.0158240
608.803	0.0156997
608.881	0.0157141
608.959	0.0156267
609.038	0.0157083
609.116	0.0157421
609.194	0.0159269
609.272	0.0158479
609.350	0.0157706
609.428	0.0157560
609.506	0.0157040
609.584	0.0157469
609.663	0.0156741
609.741	0.0155992
609.819	0.0158184
609.897	0.0157730
609.975	0.0157370
610.053	0.0157001
610.131	0.0158080
610.209	0.0156858
610.288	0.0156993
610.366	0.0157362
610.444	0.0156480
610.522	0.0157283
610.600	0.0157168
610.678	0.0157610
610.756	0.0157425
610.834	0.0157292
610.913	0.0157529
610.991	0.0157516
611.069	0.0156521
611.147	0.0157343
611.225	0.0156552
611.303	0.0156337
611.381	0.0158203
611.459	0.0157716
611.538	0.0157886
611.616	0.0156853
611.694	0.0157151
611.772	0.0157826
611.850	0.0155978
611.928	0.0157044
612.006	0.0157243
612.084	0.0157181
612.163	0.0156455
612.241	0.0156977
612.319	0.0157909
612.397	0.0157164
612.475	0.0156213
612.553	0.0156907
612.631	0.0156290
612.709	0.0156573
612.788	0.0156378
612.866	0.0157136
612.944	0.0157230
613.022	0.0156505
613.100	0.0157067
613.178	0.0157290
613.256	0.0157126
613.334	0.0156238
613.413	0.0156586
613.491	0.0157203
613.569	0.0157773
613.647	0.0156960
613.725	0.0157138
613.803	0.0157302
613.881	0.0157684
613.959	0.0157065
614.038	0.0157013
614.116	0.0158106
614.194	0.0156319
614.272	0.0157869
614.350	0.0157614
614.428	0.0156636
614.506	0.0157906
614.584	0.0157633
614.663	0.0156078
614.741	0.0157271
614.819	0.0157777
614.897	0.0157774
614.975	0.0157754
615.053	0.0157151
615.131	0.0157287
615.209	0.0156635
615.288	0.0157415
615.366	0.0158254
615.444	0.0156837
615.522	0.0156285
615.600	0.0157829
615.678	0.0157716
615.756	0.0159026
615.834	0.0157252
615.913	0.0157436
615.991	0.0158123
616.069	0.0157472
616.147	0.0156854
616.225	0.0157304
616.303	0.0156032
616.381	0.0157082
616.459	0.0158650
616.538	0.0157719
616.616	0.0158749
616.694	0.0157368
616.772	0.0158259
616.850	0.0158149
616.928	0.0157853
617.006	0.0157665
617.084	0.0158430
617.163	0.0157909
617.241	0.0156820
617.319	0.0159600
617.397	0.0159974
617.475	0.0158414
617.553	0.0158994
617.631	0.0158704
617.709	0.0158402
617.788	0.0157516
617.866	0.0158434
617.944	0.0158909
618.022	0.0159285
618.100	0.0160401
618.178	0.0157701
618.256	0.0158836
618.334	0.0158725
618.413	0.0159708
618.491	0.0158919
618.569	0.0159306
618.647	0.0159954
618.725	0.0159298
618.803	0.0159099
618.881	0.0158782
618.959	0.0156907
619.038	0.0158247
619.116	0.0158630
619.194	0.0158287
619.272	0.0157855
619.350	0.0158283
619.428	0.0157858
619.506	0.0157487
619.584	0.0157204
619.663	0.0157466
619.741	0.0156261
619.819	0.0155556
619.897	0.0155919
619.975	0.0157432
620.053	0.0156084
620.131	0.0154781
620.209	0.0155869
620.288	0.0154613
620.366	0.0155733
620.444	0.0155280
620.522	0.0155061
620.600	0.0156267
620.678	0.0154400
620.756	0.0154928
620.834	0.0155248
620.913	0.0157045
620.991	0.0154924
621.069	0.0157086
621.147	0.0155579
621.225	0.0155380
621.303	0.0155283
621.381	0.0154842
621.459	0.0156374
621.538	0.0155068
621.616	0.0155654
621.694	0.0155711
621.772	0.0156258
621.850	0.0155343
621.928	0.0156292
622.006	0.0155906
622.084	0.0156493
622.163	0.0155034
622.241	0.0155289
622.319	0.0155096
622.397	0.0155831
622.475	0.0155479
622.553	0.0155988
622.631	0.0155661
622.709	0.0154685
622.788	0.0155122
622.866	0.0156478
622.944	0.0154928
623.022	0.0154705
623.100	0.0154906
623.178	0.0154522
623.256	0.0154341
623.334	0.0155639
623.413	0.0155589
623.491	0.0154774
623.569	0.0154484
623.647	0.0153752
623.725	0.0154398
623.803	0.0157044
623.881	0.0154862
623.959	0.0155349
624.038	0.0155365
624.116	0.0154816
624.194	0.0155331
624.272	0.0155121
624.350	0.0154315
624.428	0.0155691
624.506	0.0154046
624.584	0.0156006
624.663	0.0155458
624.741	0.0154800
624.819	0.0155074
624.897	0.0154636
624.975	0.0154802
625.053	0.0155865
625.131	0.0155685
625.209	0.0154288
625.288	0.0154777
625.366	0.0154542
625.444	0.0154836
625.522	0.0155990
625.600	0.0154969
625.678	0.0154678
625.756	0.0157040
625.834	0.0156461
625.913	0.0154406
625.991	0.0154707
626.069	0.0154855
626.147	0.0155269
626.225	0.0156942
626.303	0.0155482
626.381	0.0154420
626.459	0.0154288
626.538	0.0155376
626.616	0.0155148
626.694	0.0155175
626.772	0.0154355
626.850	0.0155197
626.928	0.0153748
627.006	0.0154671
627.084	0.0154632
627.163	0.0154266
627.241	0.0155392
627.319	0.0155982
627.397	0.0155056
627.475	0.0155449
627.553	0.0155170
627.631	0.0154252
627.709	0.0156219
627.788	0.0155496
627.866	0.0156773
627.944	0.0155241
628.022	0.0156370
628.100	0.0156156
628.178	0.0156127
628.256	0.0155942
628.334	0.0155980
628.413	0.0156974
628.491	0.0157162
628.569	0.0157458
628.647	0.0157975
628.725	0.0157369
628.803	0.0156927
628.881	0.0158598
628.959	0.0157132
629.038	0.0157092
629.116	0.0157752
629.194	0.0158152
629.272	0.0157023
629.350	0.0157175
629.428	0.0157587
629.506	0.0158598
629.584	0.0157793
629.663	0.0157024
629.741	0.0155280
629.819	0.0157487
629.897	0.0156625
629.975	0.0155936
630.053	0.0157816
630.131	0.0158052
630.209	0.0156930
630.288	0.0156316
630.366	0.0156197
630.444	0.0154982
630.522	0.0155735
630.600	0.0155470
630.678	0.0156657
630.756	0.0155061
630.834	0.0156639
630.913	0.0156670
630.991	0.0155103
631.069	0.0157027
631.147	0.0157124
631.225	0.0156685
631.303	0.0156174
631.381	0.0157213
631.459	0.0156543
631.538	0.0156081
631.616	0.0157343
631.694	0.0157703
631.772	0.0157932
631.850	0.0157849
631.928	0.0156834
632.006	0.0156689
632.084	0.0157263
632.163	0.0157140
632.241	0.0155561
632.319	0.0157495
632.397	0.0157585
632.475	0.0157070
632.553	0.0157629
632.631	0.0156634
632.709	0.0156444
632.788	0.0156686
632.866	0.0157877
632.944	0.0156465
633.022	0.0156664
633.100	0.0155693
633.178	0.0156406
633.256	0.0157395
633.334	0.0156761
633.413	0.0156607
633.491	0.0157808
633.569	0.0158016
633.647	0.0157028
633.725	0.0157372
633.803	0.0158089
633.881	0.0159017
633.959	0.0158135
634.038	0.0158527
634.116	0.0158173
634.194	0.0157758
634.272	0.0159215
634.350	0.0157047
634.428	0.0157254
634.506	0.0156184
634.584	0.0157716
634.663	0.0158179
634.741	0.0157137
634.819	0.0158854
634.897	0.0157826
634.975	0.0156099
635.053	0.0157687
635.131	0.0157649
635.209	0.0156812
635.288	0.0158002
635.366	0.0159882
635.444	0.0157574
635.522	0.0158548
635.600	0.0157655
635.678	0.0159433
635.756	0.0159836
635.834	0.0160852
635.913	0.0160011
635.991	0.0160072
636.069	0.0159567
636.147	0.0159853
636.225	0.0159278
636.303	0.0160531
636.381	0.0159848
636.459	0.0159909
636.538	0.0160580
636.616	0.0158593
636.694	0.0158639
636.772	0.0160585
636.850	0.0159936
636.928	0.0159077
637.006	0.0158827
637.084	0.0160704
637.163	0.0160415
637.241	0.0158736
637.319	0.0158493
637.397	0.0161205
637.475	0.0159808
637.553	0.0159273
637.631	0.0159032
637.709	0.0160333
637.788	0.0159286
637.866	0.0159184
637.944	0.0159301
638.022	0.0158353
638.100	0.0158636
638.178	0.0158746
638.256	0.0158340
638.334	0.0158739
638.413	0.0157755
638.491	0.0156628
638.569	0.0158766
638.647	0.0158324
638.725	0.0157650
638.803	0.0157717
638.881	0.0159097
638.959	0.0158413
639.038	0.0157593
639.116	0.0157897
639.194	0.0157350
639.272	0.0156495
639.350	0.0156927
639.428	0.0157918
639.506	0.0157124
639.584	0.0157902
639.663	0.0157672
639.741	0.0157468
639.819	0.0158755
639.897	0.0157095
639.975	0.0158026
640.053	0.0157269
640.131	0.0157400
640.209	0.0158305
640.288	0.0157261
640.366	0.0157442
640.444	0.0157588
640.522	0.0158573
640.600	0.0156397
640.678	0.0157007
640.756	0.0155965
640.834	0.0156360
640.913	0.0156425
640.991	0.0155719
641.069	0.0155782
641.147	0.0155843
641.225	0.0155305
641.303	0.0155649
641.381	0.0155490
641.459	0.0155772
641.538	0.0155500
641.616	0.0156182
641.694	0.0156358
641.772	0.0155545
641.850	0.0155414
641.928	0.0155462
642.006	0.0155981
642.084	0.0155903
642.163	0.0155853
642.241	0.0154662
642.319	0.0154786
642.397	0.0154046
642.475	0.0153825
642.553	0.0154429
642.631	0.0154665
642.709	0.0153548
642.788	0.0153558
642.866	0.0153825
642.944	0.0152670
643.022	0.0152467
643.100	0.0152525
643.178	0.0153298
643.256	0.0154420
643.334	0.0153339
643.413	0.0152836
643.491	0.0153258
643.569	0.0154761
643.647	0.0154579
643.725	0.0154933
643.803	0.0154659
643.881	0.0155091
643.959	0.0154762
644.038	0.0155469
644.116	0.0155349
644.194	0.0154345
644.272	0.0156371
644.350	0.0157001
644.428	0.0156438
644.506	0.0155341
644.584	0.0156246
644.663	0.0153693
644.741	0.0155698
644.819	0.0154829
644.897	0.0154733
644.975	0.0154694
645.053	0.0153708
645.131	0.0154417
645.209	0.0153914
645.288	0.0155008
645.366	0.0154724
645.444	0.0154293
645.522	0.0154594
645.600	0.0154720
645.678	0.0155443
645.756	0.0154001
645.834	0.0154660
645.913	0.0155800
645.991	0.0155565
646.069	0.0155948
646.147	0.0155334
646.225	0.0157669
646.303	0.0155065
646.381	0.0154549
646.459	0.0156203
646.538	0.0155926
646.616	0.0157642
646.694	0.0155457
646.772	0.0155015
646.850	0.0155100
646.928	0.0154837
647.006	0.0156210
647.084	0.0155997
647.163	0.0154324
647.241	0.0154362
647.319	0.0153444
647.397	0.0155401
647.475	0.0154597
647.553	0.0153906
647.631	0.0154327
647.709	0.0154778
647.788	0.0154639
647.866	0.0157072
647.944	0.0154534
648.022	0.0154230
648.100	0.0156354
648.178	0.0156333
648.256	0.0155906
648.334	0.0156126
648.413	0.0155947
648.491	0.0156230
648.569	0.0156285
648.647	0.0155522
648.725	0.0155615
648.803	0.0156635
648.881	0.0155624
648.959	0.0155537
649.038	0.0156336
649.116	0.0156464
649.194	0.0155515
649.272	0.0154778
649.350	0.0154839
649.428	0.0154279
649.506	0.0155341
649.584	0.0154939
649.663	0.0154283
649.741	0.0155531
649.819	0.0156059
649.897	0.0154981
649.975	0.0155485
650.053	0.0155194
650.131	0.0155373
650.209	0.0154238
650.288	0.0156269
650.366	0.0153460
650.444	0.0154729
650.522	0.0154877
650.600	0.0154912
650.678	0.0155792
650.756	0.0155518
650.834	0.0155941
650.913	0.0154192
650.991	0.0155681
651.069	0.0156783
651.147	0.0156554
651.225	0.0155466
651.303	0.0155053
651.381	0.0155973
651.459	0.0155599
651.538	0.0154763
651.616	0.0155650
651.694	0.0154997
651.772	0.0156536
651.850	0.0153976
651.928	0.0153362
652.006	0.0155614
652.084	0.0153907
652.163	0.0154174
652.241	0.0154887
652.319	0.0154736
652.397	0.0154202
652.475	0.0153426
652.553	0.0155215
652.631	0.0155223
652.709	0.0155784
652.788	0.0154636
652.866	0.0154855
652.944	0.0155396
653.022	0.0155429
653.100	0.0156463
653.178	0.0156519
653.256	0.0154769
653.334	0.0155378
653.413	0.0156281
653.491	0.0156000
653.569	0.0155748
653.647	0.0157188
653.725	0.0155328
653.803	0.0155199
653.881	0.0156175
653.959	0.0155097
654.038	0.0155397
654.116	0.0156606
654.194	0.0157891
654.272	0.0155398
654.350	0.0155666
654.428	0.0156182
654.506	0.0155145
654.584	0.0155608
654.663	0.0155253
654.741	0.0157204
654.819	0.0156099
654.897	0.0155534
654.975	0.0155494
655.053	0.0155576
655.131	0.0155315
655.209	0.0155052
655.288	0.0156132
655.366	0.0156451
655.444	0.0156740
655.522	0.0156654
655.600	0.0157547
655.678	0.0156748
655.756	0.0156832
655.834	0.0156973
655.913	0.0156175
655.991	0.0156452
656.069	0.0157150
656.147	0.0156540
656.225	0.0156821
656.303	0.0157167
656.381	0.0156040
656.459	0.0156690
656.538	0.0157105
656.616	0.0157296
656.694	0.0156184
656.772	0.0157609
656.850	0.0156039
656.928	0.0155654
657.006	0.0156384
657.084	0.0156445
657.163	0.0155804
657.241	0.0156780
657.319	0.0158123
657.397	0.0156613
657.475	0.0154948
657.553	0.0157824
657.631	0.0156640
657.709	0.0157510
657.788	0.0157958
657.866	0.0157092
657.944	0.0156350
658.022	0.0157380
658.100	0.0157681
658.178	0.0156445
658.256	0.0157948
658.334	0.0157953
658.413	0.0157798
658.491	0.0157771
658.569	0.0158714
658.647	0.0158629
658.725	0.0158648
658.803	0.0158124
658.881	0.0159286
658.959	0.0158519
659.038	0.0158558
659.116	0.0158951
659.194	0.0158644
659.272	0.0157867
659.350	0.0157392
659.428	0.0157545
659.506	0.0156807
659.584	0.0156541
659.663	0.0156652
659.741	0.0155785
659.819	0.0156620
659.897	0.0157027
659.975	0.0156332
660.053	0.0155981
660.131	0.0155982
660.209	0.0155779
660.288	0.0156395
660.366	0.0157250
660.444	0.0156887
660.522	0.0156162
660.600	0.0157009
660.678	0.0157632
660.756	0.0156915
660.834	0.0157037
660.913	0.0157867
660.991	0.0158397
661.069	0.0157645
661.147	0.0157330
661.225	0.0157639
661.303	0.0156417
661.381	0.0157264
661.459	0.0158011
661.538	0.0157430
661.616	0.0156868
661.694	0.0157838
661.772	0.0157015
661.850	0.0156683
661.928	0.0158451
662.006	0.0158149
662.084	0.0156751
662.163	0.0156650
662.241	0.0158121
662.319	0.0157718
662.397	0.0159026
662.475	0.0157401
662.553	0.0156545
662.631	0.0157587
662.709	0.0156333
662.788	0.0157323
662.866	0.0156939
662.944	0.0156467
663.022	0.0156622
663.100	0.0156492
663.178	0.0156529
663.256	0.0156452
663.334	0.0157088
663.413	0.0157247
663.491	0.0157071
663.569	0.0156919
663.647	0.0155903
663.725	0.0156508
663.803	0.0157487
663.881	0.0158279
663.959	0.0157962
664.038	0.0157465
664.116	0.0157101
664.194	0.0157555
664.272	0.0158185
664.350	0.0157395
664.428	0.0158964
664.506	0.0157257
664.584	0.0156126
664.663	0.0156017
664.741	0.0157236
664.819	0.0155156
664.897	0.0155503
664.975	0.0157514
665.053	0.0156364
665.131	0.0155772
665.209	0.0155900
665.288	0.0155780
665.366	0.0155435
665.444	0.0156461
665.522	0.0155315
665.600	0.0155940
665.678	0.0156245
665.756	0.0155296
665.834	0.0155174
665.913	0.0157536
665.991	0.0156791
666.069	0.0155716
666.147	0.0156704
666.225	0.0155637
666.303	0.0155151
666.381	0.0156630
666.459	0.0155945
666.538	0.0155606
666.616	0.0154969
666.694	0.0155650
666.772	0.0154288
666.850	0.0155251
666.928	0.0156419
667.006	0.0156014
667.084	0.0155933
667.163	0.0153799
667.241	0.0153004
667.319	0.0154581
667.397	0.0156381
667.475	0.0155505
667.553	0.0154405
667.631	0.0154313
667.709	0.0153327
667.788	0.0155987
667.866	0.0156070
667.944	0.0154919
668.022	0.0154034
668.100	0.0155024
668.178	0.0154637
668.256	0.0155135
668.334	0.0155158
668.413	0.0155382
668.491	0.0154800
668.569	0.0156425
668.647	0.0155210
668.725	0.0154918
668.803	0.0153867
668.881	0.0155327
668.959	0.0156184
669.038	0.0154675
669.116	0.0154948
669.194	0.0154611
669.272	0.0153613
669.350	0.0152918
669.428	0.0153072
669.506	0.0154816
669.584	0.0155054
669.663	0.0154180
669.741	0.0154243
669.819	0.0153626
669.897	0.0154300
669.975	0.0154280
670.053	0.0154269
670.131	0.0155695
670.209	0.0155640
670.288	0.0154534
670.366	0.0156522
670.444	0.0157686
670.522	0.0156650
670.600	0.0156671
670.678	0.0156998
670.756	0.0157434
670.834	0.0156525
670.913	0.0156402
670.991	0.0156384
671.069	0.0153918
671.147	0.0154868
671.225	0.0155103
671.303	0.0154598
671.381	0.0154065
671.459	0.0153709
671.538	0.0151943
671.616	0.0151904
671.694	0.0151984
671.772	0.0153120
671.850	0.0151321
671.928	0.0151086
672.006	0.0153474
672.084	0.0152828
672.163	0.0152464
672.241	0.0153861
672.319	0.0154591
672.397	0.0155076
672.475	0.0154471
672.553	0.0156242
672.631	0.0155595
672.709	0.0156728
672.788	0.0157892
672.866	0.0157970
672.944	0.0156937
673.022	0.0157672
673.100	0.0159650
673.178	0.0160022
673.256	0.0159029
673.334	0.0159435
673.413	0.0160312
673.491	0.0160150
673.569	0.0160692
673.647	0.0160063
673.725	0.0160497
673.803	0.0160482
673.881	0.0159541
673.959	0.0159866
674.038	0.0159817
674.116	0.0157970
674.194	0.0156749
674.272	0.0155761
674.350	0.0153927
674.428	0.0152586
674.506	0.0152785
674.584	0.0149286
674.663	0.0147372
674.741	0.0145778
674.819	0.0144717
674.897	0.0144390
674.975	0.0144388
675.053	0.0143868
675.131	0.0143027
675.209	0.0144234
675.288	0.0144834
675.366	0.0144978
675.444	0.0145052
675.522	0.0146134
675.600	0.0146635
675.678	0.0148746
675.756	0.0150665
675.834	0.0150701
675.913	0.0152320
675.991	0.0156367
676.069	0.0157605
676.147	0.0160399
676.225	0.0162222
676.303	0.0164983
676.381	0.0166289
676.459	0.0169240
676.538	0.0170342
676.616	0.0174197
676.694	0.0173548
676.772	0.0174437
676.850	0.0173858
676.928	0.0174892
677.006	0.0174612
677.084	0.0173865
677.163	0.0171705
677.241	0.0172300
677.319	0.0172052
677.397	0.0168454
677.475	0.0165820
677.553	0.0164140
677.631	0.0161540
677.709	0.0158357
677.788	0.0156346
677.866	0.0154142
677.944	0.0150675
678.022	0.0148924
678.100	0.0146149
678.178	0.0144940
678.256	0.0143241
678.334	0.0140816
678.413	0.0140502
678.491	0.0138915
678.569	0.0138763
678.647	0.0138573
678.725	0.0137953
678.803	0.0138075
678.881	0.0140141
678.959	0.0141051
679.038	0.0143449
679.116	0.0144624
679.194	0.0146770
679.272	0.0148080
679.350	0.0150677
679.428	0.0154655
679.506	0.0157700
679.584	0.0160955
679.663	0.0162418
679.741	0.0163719
679.819	0.0165524
679.897	0.0170549
679.975	0.0171696
680.053	0.0171690
680.131	0.0173203
680.209	0.0174651
680.288	0.0175935
680.366	0.0176024
680.444	0.0175319
680.522	0.0174221
680.600	0.0173284
680.678	0.0171821
680.756	0.0171514
680.834	0.0171430
680.913	0.0169375
680.991	0.0168751
681.069	0.0166013
681.147	0.0164818
681.225	0.0165387
681.303	0.0164294
681.381	0.0162625
681.459	0.0161072
681.538	0.0159212
681.616	0.0158540
681.694	0.0157415
681.772	0.0155624
681.850	0.0155215
681.928	0.0153946
682.006	0.0151513
682.084	0.0151580
682.163	0.0149657
682.241	0.0150086
682.319	0.0150519
682.397	0.0149335
682.475	0.0149243
682.553	0.0148006
682.631	0.0147642
682.709	0.0147118
682.788	0.0147785
682.866	0.0146094
682.944	0.0146751
683.022	0.0146184
683.100	0.0144358
683.178	0.0144758
683.256	0.0145922
683.334	0.0145657
683.413	0.0145609
683.491	0.0145437
683.569	0.0145245
683.647	0.0146910
683.725	0.0147044
683.803	0.0147721
683.881	0.0148675
683.959	0.0148891
684.038	0.0150629
684.116	0.0153131
684.194	0.0152732
684.272	0.0153443
684.350	0.0158479
684.428	0.0159859
684.506	0.0161161
684.584	0.0162514
684.663	0.0163718
684.741	0.0167678
684.819	0.0169732
684.897	0.0171230
684.975	0.0173595
685.053	0.0174089
685.131	0.0174789
685.209	0.0174918
685.288	0.0174374
685.366	0.0174694
685.444	0.0173972
685.522	0.0171150
685.600	0.0170501
685.678	0.0169422
685.756	0.0165283
685.834	0.0164592
685.913	0.0161495
685.991	0.0160103
686.069	0.0157656
686.147	0.0153989
686.225	0.0151307
686.303	0.0149068
686.381	0.0146182
686.459	0.0144122
686.538	0.0142332
686.616	0.0139607
686.694	0.0139138
686.772	0.0136324
686.850	0.0134709
686.928	0.0133278
687.006	0.0133424
687.084	0.0133377
687.163	0.0132568
687.241	0.0133790
687.319	0.0134163
687.397	0.0136895
687.475	0.0138581
687.553	0.0139592
687.631	0.0142632
687.709	0.0144306
687.788	0.0147502
687.866	0.0151582
687.944	0.0154583
688.022	0.0157889
688.100	0.0158928
688.178	0.0162435
688.256	0.0165265
688.334	0.0167103
688.413	0.0169902
688.491	0.0171993
688.569	0.0172833
688.647	0.0172856
688.725	0.0173674
688.803	0.0176509
688.881	0.0175084
688.959	0.0175956
689.038	0.0175034
689.116	0.0175731
689.194	0.0176817
689.272	0.0175533
689.350	0.0174226
689.428	0.0171670
689.506	0.0172207
689.584	0.0171137
689.663	0.0169572
689.741	0.0167855
689.819	0.0164760
689.897	0.0163383
689.975	0.0160873
690.053	0.0158456
690.131	0.0154240
690.209	0.0152746
690.288	0.0150153
690.366	0.0146376
690.444	0.0145097
690.522	0.0141179
690.600	0.0139318
690.678	0.0138726
690.756	0.0136546
690.834	0.0135218
690.913	0.0135302
690.991	0.0132621
691.069	0.0131759
691.147	0.0130560
691.225	0.0131843
691.303	0.0131264
691.381	0.0132584
691.459	0.0132251
691.538	0.0134807
691.616	0.0136722
691.694	0.0139000
691.772	0.0142756
691.850	0.0146476
691.928	0.0150941
692.006	0.0155760
692.084	0.0160168
692.163	0.0163136
692.241	0.0167944
692.319	0.0173299
692.397	0.0175739
692.475	0.0180457
692.553	0.0182003
692.631	0.0184366
692.709	0.0186061
692.788	0.0189204
692.866	0.0190202
692.944	0.0191408
693.022	0.0191294
693.100	0.0188581
693.178	0.0187381
693.256	0.0187519
693.334	0.0184395
693.413	0.0179099
693.491	0.0178271
693.569	0.0174998
693.647	0.0170242
693.725	0.0167104
693.803	0.0161226
693.881	0.0156803
693.959	0.0153276
694.038	0.0150777
694.116	0.0146252
694.194	0.0144048
694.272	0.0140764
694.350	0.0137827
694.428	0.0135642
694.506	0.0134152
694.584	0.0133469
694.663	0.0133150
694.741	0.0132836
694.819	0.0133225
694.897	0.0133044
694.975	0.0134855
695.053	0.0136323
695.131	0.0137376
695.209	0.0139787
695.288	0.0143974
695.366	0.0146802
695.444	0.0150965
695.522	0.0153946
695.600	0.0156367
695.678	0.0159092
695.756	0.0161354
695.834	0.0164542
695.913	0.0166000
695.991	0.0166286
696.069	0.0167709
696.147	0.0167435
696.225	0.0165177
696.303	0.0165913
696.381	0.0167964
696.459	0.0167310
696.538	0.0165286
696.616	0.0165089
696.694	0.0164793
696.772	0.0163914
696.850	0.0163679
696.928	0.0163261
697.006	0.0163361
697.084	0.0161290
697.163	0.0160581
697.241	0.0161063
697.319	0.0160318
697.397	0.0159937
697.475	0.0158247
697.553	0.0158122
697.631	0.0157709
697.709	0.0157818
697.788	0.0156528
697.866	0.0156251
697.944	0.0157232
698.022	0.0156786
698.100	0.0156131
698.178	0.0155513
698.256	0.0156409
698.334	0.0158285
698.413	0.0155361
698.491	0.0154884
698.569	0.0156631
698.647	0.0155193
698.725	0.0155544
698.803	0.0153338
698.881	0.0155682
698.959	0.0154851
699.038	0.0153822
699.116	0.0156096
699.194	0.0154967
699.272	0.0154176
699.350	0.0155838
699.428	0.0156827
699.506	0.0158142
699.584	0.0158540
699.663	0.0158613
699.741	0.0160135
699.819	0.0162265
699.897	0.0163270
699.975	0.0163937
700.053	0.0164986
700.131	0.0166095
700.209	0.0166573
700.288	0.0168192
700.366	0.0169893
700.444	0.0171124
700.522	0.0171314
700.600	0.0171497
700.678	0.0172993
700.756	0.0174821
700.834	0.0172033
700.913	0.0173351
700.991	0.0172316
701.069	0.0172657
701.147	0.0172467
701.225	0.0171691
701.303	0.0169926
701.381	0.0167720
701.459	0.0166674
701.538	0.0163347
701.616	0.0161995
701.694	0.0159145
701.772	0.0156642
701.850	0.0151358
701.928	0.0147427
702.006	0.0141618
702.084	0.0137480
702.163	0.0133396
702.241	0.0127242
702.319	0.0122749
702.397	0.0120294
702.475	0.0116179
702.553	0.0114262
702.631	0.0113024
702.709	0.0111047
702.788	0.0109932
702.866	0.0111596
702.944	0.0113991
703.022	0.0115888
703.100	0.0121072
703.178	0.0123792
703.256	0.0129595
703.334	0.0133389
703.413	0.0140308
703.491	0.0148256
703.569	0.0154159
703.647	0.0163203
703.725	0.0169229
703.803	0.0174329
703.881	0.0183726
703.959	0.0190391
704.038	0.0195557
704.116	0.0199706
704.194	0.0205112
704.272	0.0207459
704.350	0.0210652
704.428	0.0211703
704.506	0.0212588
704.584	0.0210784
704.663	0.0209586
704.741	0.0207192
704.819	0.0202709
704.897	0.0197010
704.975	0.0193468
705.053	0.0186367
705.131	0.0179146
705.209	0.0173260
705.288	0.0165563
705.366	0.0156927
705.444	0.0151319
705.522	0.0144424
705.600	0.0138201
705.678	0.0132805
705.756	0.0128418
705.834	0.0123119
705.913	0.0119767
705.991	0.0118320
706.069	0.0117896
706.147	0.0116498
706.225	0.0117226
706.303	0.0119358
706.381	0.0119885
706.459	0.0122300
706.538	0.0125977
706.616	0.0128078
706.694	0.0132067
706.772	0.0134617
706.850	0.0138728
706.928	0.0144300
707.006	0.0146783
707.084	0.0150795
707.163	0.0152413
707.241	0.0156216
707.319	0.0159046
707.397	0.0161874
707.475	0.0164365
707.553	0.0167337
707.631	0.0168871
707.709	0.0169068
707.788	0.0171074
707.866	0.0172568
707.944	0.0172904
708.022	0.0172275
708.100	0.0172564
708.178	0.0172243
708.256	0.0171478
708.334	0.0169394
708.413	0.0168935
708.491	0.0167431
708.569	0.0167147
708.647	0.0165190
708.725	0.0164125
708.803	0.0162168
708.881	0.0160915
708.959	0.0159660
709.038	0.0157172
709.116	0.0155251
709.194	0.0153176
709.272	0.0151090
709.350	0.0149679
709.428	0.0148201
709.506	0.0145680
709.584	0.0143285
709.663	0.0144605
709.741	0.0144094
709.819	0.0142959
709.897	0.0141006
709.975	0.0142181
710.053	0.0142103
710.131	0.0143060
710.209	0.0144006
710.288	0.0145552
710.366	0.0146482
710.444	0.0146594
710.522	0.0146564
710.600	0.0148908
710.678	0.0150783
710.756	0.0152634
710.834	0.0155012
710.913	0.0154738
710.991	0.0158881
711.069	0.0159290
711.147	0.0161695
711.225	0.0164201
711.303	0.0164878
711.381	0.0168410
711.459	0.0172350
711.538	0.0173194
711.616	0.0174311
711.694	0.0177334
711.772	0.0179710
711.850	0.0180383
711.928	0.0181696
712.006	0.0183508
712.084	0.0184893
712.163	0.0184073
712.241	0.0184469
712.319	0.0184936
712.397	0.0184527
712.475	0.0182220
712.553	0.0180151
712.631	0.0178232
712.709	0.0176522
712.788	0.0171894
712.866	0.0170040
712.944	0.0164596
713.022	0.0160036
713.100	0.0156633
713.178	0.0152306
713.256	0.0148875
713.334	0.0143977
713.413	0.0140458
713.491	0.0138320
713.569	0.0135212
713.647	0.0132893
713.725	0.0130723
713.803	0.0129697
713.881	0.0129144
713.959	0.0129108
714.038	0.0130081
714.116	0.0127853
714.194	0.0130015
714.272	0.0130078
714.350	0.0131498
714.428	0.0133803
714.506	0.0134497
714.584	0.0136175
714.663	0.0137527
714.741	0.0139130
714.819	0.0140690
714.897	0.0141724
714.975	0.0143241
715.053	0.0145239
715.131	0.0146979
715.209	0.0149397
715.288	0.0151005
715.366	0.0152493
715.444	0.0153659
715.522	0.0156598
715.600	0.0159003
715.678	0.0159898
715.756	0.0160196
715.834	0.0162302
715.913	0.0163274
715.991	0.0164351
716.069	0.0164764
716.147	0.0164259
716.225	0.0163978
716.303	0.0165384
716.381	0.0165459
716.459	0.0165806
716.538	0.0166585
716.616	0.0166840
716.694	0.0166158
716.772	0.0168790
716.850	0.0169455
716.928	0.0168487
717.006	0.0171130
717.084	0.0172644
717.163	0.0172255
717.241	0.0172242
717.319	0.0172197
717.397	0.0170401
717.475	0.0171090
717.553	0.0170428
717.631	0.0170564
717.709	0.0168499
717.788	0.0168897
717.866	0.0168718
717.944	0.0166919
718.022	0.0166371
718.100	0.0164591
718.178	0.0165366
718.256	0.0164190
718.334	0.0161362
718.413	0.0161448
718.491	0.0160180
718.569	0.0158759
718.647	0.0157694
718.725	0.0155288
718.803	0.0154359
718.881	0.0152382
718.959	0.0150829
719.038	0.0149309
719.116	0.0146883
719.194	0.0145448
719.272	0.0145116
719.350	0.0143388
719.428	0.0142359
719.506	0.0141085
719.584	0.0139092
719.663	0.0139076
719.741	0.0138931
719.819	0.0139392
719.897	0.0140990
719.975	0.0142116
720.053	0.0143214
720.131	0.0144961
720.209	0.0148227
720.288	0.0149701
720.366	0.0151258
720.444	0.0154453
720.522	0.0155419
720.600	0.0156530
720.678	0.0159652
720.756	0.0161129
720.834	0.0161531
720.913	0.0163624
720.991	0.0165073
721.069	0.0166325
721.147	0.0164975
721.225	0.0164664
721.303	0.0166336
721.381	0.0166035
721.459	0.0163732
721.538	0.0165015
721.616	0.0163644
721.694	0.0161832
721.772	0.0160524
721.850	0.0160201
721.928	0.0158070
722.006	0.0156085
722.084	0.0155470
722.163	0.0154471
722.241	0.0152773
722.319	0.0151541
722.397	0.0151950
722.475	0.0150837
722.553	0.0151521
722.631	0.0150623
722.709	0.0150913
722.788	0.0149306
722.866	0.0150545
722.944	0.0149891
723.022	0.0150647
723.100	0.0149947
723.178	0.0151145
723.256	0.0151960
723.334	0.0152099
723.413	0.0152728
723.491	0.0151439
723.569	0.0154395
723.647	0.0154382
723.725	0.0156517
723.803	0.0155119
723.881	0.0157105
723.959	0.0157449
724.038	0.0156773
724.116	0.0158208
724.194	0.0158412
724.272	0.0159737
724.350	0.0159969
724.428	0.0161480
724.506	0.0161019
724.584	0.0161520
724.663	0.0164017
724.741	0.0164753
724.819	0.0167050
724.897	0.0166866
724.975	0.0168408
725.053	0.0169344
725.131	0.0170270
725.209	0.0172784
725.288	0.0172261
725.366	0.0174412
725.444	0.0173716
725.522	0.0173582
725.600	0.0172902
725.678	0.0174249
725.756	0.0173497
725.834	0.0173170
725.913	0.0173222
725.991	0.0171716
726.069	0.0170100
726.147	0.0170608
726.225	0.0167093
726.303	0.0165005
726.381	0.0162679
726.459	0.0159698
726.538	0.0157925
726.616	0.0153474
726.694	0.0150047
726.772	0.0147649
726.850	0.0144265
726.928	0.0139902
727.006	0.0137488
727.084	0.0135104
727.163	0.0132332
727.241	0.0129266
727.319	0.0129433
727.397	0.0129449
727.475	0.0125758
727.553	0.0127157
727.631	0.0127557
727.709	0.0127707
727.788	0.0130573
727.866	0.0131457
727.944	0.0132471
728.022	0.0135233
728.100	0.0138297
728.178	0.0140312
728.256	0.0142206
728.334	0.0147313
728.413	0.0148837
728.491	0.0152856
728.569	0.0154980
728.647	0.0157705
728.725	0.0160824
728.803	0.0162641
728.881	0.0163544
728.959	0.0164297
729.038	0.0164822
729.116	0.0166049
729.194	0.0166471
729.272	0.0165588
729.350	0.0164877
729.428	0.0163518
729.506	0.0162479
729.584	0.0163605
729.663	0.0160598
729.741	0.0160813
729.819	0.0160835
729.897	0.0158467
729.975	0.0160217
730.053	0.0159716
730.131	0.0157802
730.209	0.0159995
730.288	0.0161343
730.366	0.0161231
730.444	0.0162730
730.522	0.0162612
730.600	0.0163757
730.678	0.0166119
730.756	0.0164990
730.834	0.0167119
730.913	0.0167044
730.991	0.0168563
731.069	0.0169756
731.147	0.0167886
731.225	0.0169007
731.303	0.0167547
731.381	0.0166824
731.459	0.0166519
731.538	0.0165736
731.616	0.0162071
731.694	0.0161974
731.772	0.0161163
731.850	0.0159423
731.928	0.0158139
732.006	0.0156576
732.084	0.0155405
732.163	0.0154259
732.241	0.0152779
732.319	0.0151962
732.397	0.0150381
732.475	0.0149599
732.553	0.0147508
732.631	0.0147862
732.709	0.0146450
732.788	0.0146513
732.866	0.0144804
732.944	0.0146990
733.022	0.0144746
733.100	0.0147044
733.178	0.0147572
733.256	0.0147211
733.334	0.0148831
733.413	0.0150689
733.491	0.0151044
733.569	0.0151289
733.647	0.0154133
733.725	0.0155540
733.803	0.0155095
733.881	0.0155877
733.959	0.0155453
734.038	0.0157294
734.116	0.0157972
734.194	0.0158217
734.272	0.0157833
734.350	0.0157353
734.428	0.0157343
734.506	0.0156691
734.584	0.0156323
734.663	0.0156161
734.741	0.0157046
734.819	0.0155376
734.897	0.0156073
734.975	0.0156715
735.053	0.0155777
735.131	0.0155499
735.209	0.0153496
735.288	0.0155804
735.366	0.0154700
735.444	0.0154984
735.522	0.0154038
735.600	0.0154197
735.678	0.0154546
735.756	0.0155074
735.834	0.0155974
735.913	0.0156424
735.991	0.0154882
736.069	0.0155880
736.147	0.0155173
736.225	0.0156303
736.303	0.0156654
736.381	0.0156954
736.459	0.0156561
736.538	0.0157407
736.616	0.0158953
736.694	0.0160899
736.772	0.0161194
736.850	0.0161955
736.928	0.0163428
737.006	0.0164261
737.084	0.0164970
737.163	0.0164691
737.241	0.0163193
737.319	0.0163525
737.397	0.0165644
737.475	0.0166004
737.553	0.0164507
737.631	0.0164777
737.709	0.0165845
737.788	0.0164854
737.866	0.0163424
737.944	0.0162363
738.022	0.0162005
738.100	0.0159184
738.178	0.0158377
738.256	0.0155948
738.334	0.0154538
738.413	0.0152712
738.491	0.0150735
738.569	0.0148641
738.647	0.0147313
738.725	0.0146156
738.803	0.0145171
738.881	0.0145718
738.959	0.0145177
739.038	0.0143543
739.116	0.0145161
739.194	0.0147459
739.272	0.0147021
739.350	0.0147801
739.428	0.0148612
739.506	0.0151658
739.584	0.0152679
739.663	0.0152348
739.741	0.0156699
739.819	0.0158758
739.897	0.0160415
739.975	0.0160815
740.053	0.0162887
740.131	0.0165692
740.209	0.0166418
740.288	0.0167259
740.366	0.0169370
740.444	0.0170299
740.522	0.0170296
740.600	0.0170903
740.678	0.0170479
740.756	0.0169399
740.834	0.0167540
740.913	0.0166690
740.991	0.0166609
741.069	0.0164105
741.147	0.0161102
741.225	0.0160205
741.303	0.0158385
741.381	0.0156619
741.459	0.0157401
741.538	0.0154665
741.616	0.0152398
741.694	0.0153993
741.772	0.0151730
741.850	0.0151610
741.928	0.0151604
742.006	0.0149942
742.084	0.0148669
742.163	0.0147952
742.241	0.0146806
742.319	0.0144207
742.397	0.0144644
742.475	0.0144691
742.553	0.0142271
742.631	0.0141479
742.709	0.0140673
742.788	0.0138567
742.866	0.0139867
742.944	0.0138017
743.022	0.0139156
743.100	0.0140955
743.178	0.0140355
743.256	0.0140886
743.334	0.0141621
743.413	0.0142005
743.491	0.0146573
743.569	0.0147595
743.647	0.0147147
743.725	0.0148753
743.803	0.0149915
743.881	0.0151951
743.959	0.0154166
744.038	0.0153840
744.116	0.0155437
744.194	0.0158084
744.272	0.0157256
744.350	0.0158739
744.428	0.0161549
744.506	0.0161969
744.584	0.0162666
744.663	0.0164480
744.741	0.0166335
744.819	0.0166413
744.897	0.0168053
744.975	0.0168007
745.053	0.0168976
745.131	0.0170200
745.209	0.0169437
745.288	0.0171066
745.366	0.0170344
745.444	0.0169142
745.522	0.0167322
745.600	0.0167044
745.678	0.0165076
745.756	0.0162913
745.834	0.0161723
745.913	0.0161231
745.991	0.0157407
746.069	0.0157092
746.147	0.0155431
746.225	0.0155804
746.303	0.0152387
746.381	0.0154008
746.459	0.0153072
746.538	0.0151955
746.616	0.0150747
746.694	0.0151228
746.772	0.0153504
746.850	0.0153111
746.928	0.0153639
747.006	0.0155193
747.084	0.0156169
747.163	0.0156573
747.241	0.0158763
747.319	0.0157026
747.397	0.0158155
747.475	0.0157918
747.553	0.0157551
747.631	0.0158018
747.709	0.0157962
747.788	0.0157159
747.866	0.0156811
747.944	0.0155168
748.022	0.0154414
748.100	0.0151727
748.178	0.0150831
748.256	0.0150620
748.334	0.0148725
748.413	0.0149940
748.491	0.0147976
748.569	0.0147315
748.647	0.0147885
748.725	0.0150172
748.803	0.0149193
748.881	0.0148948
748.959	0.0151275
749.038	0.0150139
749.116	0.0151927
749.194	0.0152332
749.272	0.0154388
749.350	0.0156389
749.428	0.0156981
749.506	0.0156183
749.584	0.0157941
749.663	0.0158280
749.741	0.0158657
749.819	0.0159904
749.897	0.0159920
749.975	0.0158231
750.053	0.0157866
750.131	0.0157817
750.209	0.0156181
750.288	0.0156596
750.366	0.0156133
750.444	0.0155416
750.522	0.0153694
750.600	0.0153293
750.678	0.0153224
750.756	0.0152450
750.834	0.0152924
750.913	0.0152367
750.991	0.0151093
751.069	0.0151493
751.147	0.0151332
751.225	0.0153420
751.303	0.0152544
751.381	0.0153045
751.459	0.0153538
751.538	0.0154433
751.616	0.0156033
751.694	0.0156746
751.772	0.0157291
751.850	0.0159447
751.928	0.0158031
752.006	0.0158465
752.084	0.0160007
752.163	0.0160895
752.241	0.0160753
752.319	0.0160699
752.397	0.0161389
752.475	0.0160263
752.553	0.0161451
752.631	0.0162507
752.709	0.0161233
752.788	0.0161609
752.866	0.0160052
752.944	0.0160980
753.022	0.0160357
753.100	0.0161179
753.178	0.0160950
753.256	0.0160680
753.334	0.0161352
753.413	0.0160826
753.491	0.0161757
753.569	0.0162579
753.647	0.0161599
753.725	0.0162498
753.803	0.0160004
753.881	0.0160103
753.959	0.0161482
754.038	0.0160287
754.116	0.0160774
754.194	0.0159706
754.272	0.0159476
754.350	0.0159131
754.428	0.0158363
754.506	0.0157852
754.584	0.0156349
754.663	0.0155283
754.741	0.0154178
754.819	0.0154832
754.897	0.0154137
754.975	0.0152132
755.053	0.0152537
755.131	0.0151804
755.209	0.0153201
755.288	0.0151979
755.366	0.0152297
755.444	0.0152242
755.522	0.0154256
755.600	0.0152780
755.678	0.0155521
755.756	0.0155616
755.834	0.0156194
755.913	0.0156830
755.991	0.0157491
756.069	0.0157793
756.147	0.0158946
756.225	0.0156947
756.303	0.0157636
756.381	0.0157386
756.459	0.0155174
756.538	0.0155773
756.616	0.0152979
756.694	0.0153567
756.772	0.0152085
756.850	0.0151807
756.928	0.0151455
757.006	0.0148803
757.084	0.0148158
757.163	0.0149339
757.241	0.0149068
757.319	0.0150480
757.397	0.0150649
757.475	0.0150470
757.553	0.0151379
757.631	0.0151673
757.709	0.0154745
757.788	0.0154961
757.866	0.0155653
757.944	0.0156878
758.022	0.0157645
758.100	0.0158771
758.178	0.0159174
758.256	0.0160249
758.334	0.0160158
758.413	0.0160191
758.491	0.0158577
758.569	0.0160255
758.647	0.0159930
758.725	0.0159937
758.803	0.0158759
758.881	0.0159483
758.959	0.0159622
759.038	0.0159698
759.116	0.0161507
759.194	0.0160831
759.272	0.0161636
759.350	0.0160539
759.428	0.0160606
759.506	0.0161621
759.584	0.0162053
759.663	0.0162389
759.741	0.0164445
759.819	0.0163516
759.897	0.0164042
759.975	0.0164140
760.053	0.0164174
760.131	0.0163155
760.209	0.0164722
760.288	0.0164188
760.366	0.0163234
760.444	0.0162923
760.522	0.0162766
760.600	0.0161092
760.678	0.0159837
760.756	0.0160655
760.834	0.0157981
760.913	0.0158743
760.991	0.0158148
761.069	0.0157067
761.147	0.0154883
761.225	0.0154937
761.303	0.0152696
761.381	0.0152374
761.459	0.0150455
761.538	0.0150161
761.616	0.0148557
761.694	0.0146981
761.772	0.0147025
761.850	0.0145615
761.928	0.0147324
762.006	0.0146709
762.084	0.0146205
762.163	0.0145222
762.241	0.0146516
762.319	0.0147812
762.397	0.0147041
762.475	0.0148679
762.553	0.0149664
762.631	0.0151014
762.709	0.0152036
762.788	0.0152186
762.866	0.0152795
762.944	0.0153790
763.022	0.0153214
763.100	0.0154916
763.178	0.0155968
763.256	0.0156622
763.334	0.0157963
763.413	0.0158408
763.491	0.0159673
763.569	0.0159777
763.647	0.0159548
763.725	0.0161911
763.803	0.0161257
763.881	0.0161392
763.959	0.0161199
764.038	0.0162215
764.116	0.0161433
764.194	0.0161758
764.272	0.0160442
764.350	0.0160128
764.428	0.0158308
764.506	0.0159705
764.584	0.0158301
764.663	0.0156371
764.741	0.0155760
764.819	0.0155672
764.897	0.0154902
764.975	0.0153219
765.053	0.0151845
765.131	0.0152801
765.209	0.0152218
765.288	0.0151784
765.366	0.0150105
765.444	0.0152428
765.522	0.0152296
765.600	0.0152873
765.678	0.0153163
765.756	0.0152647
765.834	0.0155075
765.913	0.0155157
765.991	0.0154830
766.069	0.0155111
766.147	0.0155718
766.225	0.0156857
766.303	0.0157809
766.381	0.0158862
766.459	0.0158332
766.538	0.0158572
766.616	0.0158643
766.694	0.0158402
766.772	0.0158483
766.850	0.0158816
766.928	0.0157227
767.006	0.0157650
767.084	0.0156976
767.163	0.0157716
767.241	0.0157793
767.319	0.0157149
767.397	0.0156770
767.475	0.0156726
767.553	0.0156470
767.631	0.0157727
767.709	0.0157780
767.788	0.0157652
767.866	0.0156911
767.944	0.0158762
768.022	0.0159859
768.100	0.0158226
768.178	0.0158849
768.256	0.0160662
768.334	0.0161057
768.413	0.0160007
768.491	0.0159175
768.569	0.0157761
768.647	0.0158936
768.725	0.0158644
768.803	0.0158042
768.881	0.0156287
768.959	0.0156344
769.038	0.0156256
769.116	0.0155409
769.194	0.0155452
769.272	0.0155254
769.350	0.0154761
769.428	0.0154672
769.506	0.0153589
769.584	0.0153371
769.663	0.0153581
769.741	0.0153188
769.819	0.0153985
769.897	0.0152242
769.975	0.0152133
770.053	0.0152248
770.131	0.0151082
770.209	0.0151636
770.288	0.0151585
770.366	0.0149805
770.444	0.0149525
770.522	0.0150619
770.600	0.0150073
770.678	0.0149596
770.756	0.0151102
770.834	0.0150891
770.913	0.0150681
770.991	0.0151859
771.069	0.0152779
771.147	0.0153470
771.225	0.0154800
771.303	0.0154274
771.381	0.0154855
771.459	0.0156740
771.538	0.0160019
771.616	0.0159402
771.694	0.0161451
771.772	0.0160498
771.850	0.0160288
771.928	0.0160079
772.006	0.0161395
772.084	0.0159728
772.163	0.0160240
772.241	0.0160361
772.319	0.0159876
772.397	0.0159738
772.475	0.0159217
772.553	0.0159241
772.631	0.0158457
772.709	0.0158672
772.788	0.0156492
772.866	0.0155801
772.944	0.0156387
773.022	0.0155905
773.100	0.0155539
773.178	0.0155701
773.256	0.0154710
773.334	0.0155263
773.413	0.0156879
773.491	0.0156418
773.569	0.0156329
773.647	0.0157133
773.725	0.0156628
773.803	0.0157990
773.881	0.0157749
773.959	0.0156741
774.038	0.0157944
774.116	0.0157228
774.194	0.0158353
774.272	0.0158408
774.350	0.0157686
774.428	0.0157896
774.506	0.0158623
774.584	0.0158406
774.663	0.0158633
774.741	0.0157917
774.819	0.0157475
774.897	0.0156891
774.975	0.0157058
775.053	0.0155704
775.131	0.0155340
775.209	0.0154928
775.288	0.0156059
775.366	0.0155190
775.444	0.0155327
775.522	0.0153867
775.600	0.0153737
775.678	0.0154946
775.756	0.0154893
775.834	0.0153532
775.913	0.0155594
775.991	0.0155872
776.069	0.0156818
776.147	0.0158839
776.225	0.0160201
776.303	0.0160011
776.381	0.0159411
776.459	0.0162627
776.538	0.0160352
776.616	0.0162278
776.694	0.0161053
776.772	0.0162379
776.850	0.0162497
776.928	0.0162739
777.006	0.0160928
777.084	0.0162090
777.163	0.0161636
777.241	0.0162581
777.319	0.0160339
777.397	0.0159124
777.475	0.0158978
777.553	0.0158409
777.631	0.0158606
777.709	0.0157497
777.788	0.0156930
777.866	0.0156915
777.944	0.0155518
778.022	0.0153995
778.100	0.0156398
778.178	0.0156090
778.256	0.0156143
778.334	0.0154103
778.413	0.0154522
778.491	0.0157025
778.569	0.0156180
778.647	0.0156485
778.725	0.0157080
778.803	0.0155765
778.881	0.0155289
778.959	0.0155062
779.038	0.0155576
779.116	0.0156180
779.194	0.0154177
779.272	0.0154300
779.350	0.0155067
779.428	0.0154663
779.506	0.0154504
779.584	0.0155737
779.663	0.0154413
779.741	0.0154408
779.819	0.0153483
779.897	0.0154518
779.975	0.0154681
780.053	0.0154395
780.131	0.0154512
780.209	0.0154128
780.288	0.0153854
780.366	0.0154958
780.444	0.0153915
780.522	0.0153132
780.600	0.0154135
780.678	0.0155658
780.756	0.0152684
780.834	0.0154696
780.913	0.0155309
780.991	0.0155731
781.069	0.0155865
781.147	0.0155785
781.225	0.0156635
781.303	0.0157241
781.381	0.0158691
781.459	0.0157903
781.538	0.0159023
781.616	0.0160382
781.694	0.0160938
781.772	0.0162345
781.850	0.0161876
781.928	0.0161845
782.006	0.0163222
782.084	0.0162450
782.163	0.0162278
782.241	0.0163562
782.319	0.0163904
782.397	0.0161533
782.475	0.0161327
782.553	0.0160621
782.631	0.0159358
782.709	0.0158513
782.788	0.0157348
782.866	0.0155511
782.944	0.0155609
783.022	0.0154192
783.100	0.0154269
783.178	0.0152711
783.256	0.0151358
783.334	0.0151155
783.413	0.0149849
783.491	0.0149691
783.569	0.0149905
783.647	0.0152974
783.725	0.0150123
783.803	0.0150200
783.881	0.0151083
783.959	0.0152662
784.038	0.0152592
784.116	0.0154578
784.194	0.0155219
784.272	0.0155013
784.350	0.0155531
784.428	0.0155551
784.506	0.0156080
784.584	0.0155966
784.663	0.0155962
784.741	0.0155859
784.819	0.0155167
784.897	0.0155366
784.975	0.0154247
785.053	0.0152702
785.131	0.0153326
785.209	0.0152358
785.288	0.0152416
785.366	0.0154053
785.444	0.0152522
785.522	0.0153575
785.600	0.0153374
785.678	0.0151991
785.756	0.0155341
785.834	0.0155637
785.913	0.0153667
785.991	0.0155919
786.069	0.0156496
786.147	0.0157851
786.225	0.0160059
786.303	0.0160058
786.381	0.0158993
786.459	0.0160445
786.538	0.0160396
786.616	0.0160988
786.694	0.0160529
786.772	0.0161986
786.850	0.0162277
786.928	0.0161559
787.006	0.0162414
787.084	0.0161713
787.163	0.0160651
787.241	0.0159037
787.319	0.0159532
787.397	0.0159023
787.475	0.0157806
787.553	0.0156937
787.631	0.0155408
787.709	0.0155420
787.788	0.0153428
787.866	0.0152813
787.944	0.0152050
788.022	0.0149175
788.100	0.0149603
788.178	0.0150262
788.256	0.0148236
788.334	0.0147786
788.413	0.0147809
788.491	0.0149751
788.569	0.0151221
788.647	0.0150192
788.725	0.0151733
788.803	0.0154031
788.881	0.0155124
788.959	0.0156238
789.038	0.0158160
789.116	0.0158588
789.194	0.0159534
789.272	0.0161257
789.350	0.0163340
789.428	0.0164993
789.506	0.0164655
789.584	0.0165096
789.663	0.0166106
789.741	0.0163778
789.819	0.0164896
789.897	0.0164067
789.975	0.0162697
790.053	0.0162029
790.131	0.0161163
790.209	0.0160309
790.288	0.0160376
790.366	0.0159821
790.444	0.0157431
790.522	0.0156592
790.600	0.0156030
790.678	0.0155424
790.756	0.0155733
790.834	0.0154164
790.913	0.0153700
790.991	0.0152314
791.069	0.0152386
791.147	0.0153951
791.225	0.0152538
791.303	0.0151870
791.381	0.0153493
791.459	0.0155071
791.538	0.0155025
791.616	0.0155373
791.694	0.0155541
791.772	0.0155217
791.850	0.0155923
791.928	0.0156315
792.006	0.0156767
792.084	0.0156403
792.163	0.0156954
792.241	0.0156880
792.319	0.0157558
792.397	0.0158179
792.475	0.0157059
792.553	0.0157888
792.631	0.0156402
792.709	0.0156821
792.788	0.0157191
792.866	0.0156238
792.944	0.0156288
793.022	0.0156369
793.100	0.0155738
793.178	0.0155811
793.256	0.0155174
793.334	0.0153625
793.413	0.0155514
793.491	0.0153782
793.569	0.0154153
793.647	0.0153716
793.725	0.0154396
793.803	0.0154648
793.881	0.0153757
793.959	0.0153785
794.038	0.0153624
794.116	0.0154359
794.194	0.0154142
794.272	0.0154063
794.350	0.0156085
794.428	0.0156621
794.506	0.0156073
794.584	0.0155886
794.663	0.0157069
794.741	0.0158311
794.819	0.0158134
794.897	0.0158508
794.975	0.0159398
795.053	0.0158704
795.131	0.0158943
795.209	0.0159475
795.288	0.0158826
795.366	0.0158326
795.444	0.0159779
795.522	0.0158548
795.600	0.0157830
795.678	0.0157899
795.756	0.0158408
795.834	0.0158611
795.913	0.0156691
795.991	0.0157774
796.069	0.0157572
796.147	0.0158683
796.225	0.0158453
796.303	0.0158036
796.381	0.0158422
796.459	0.0157946
796.538	0.0157784
796.616	0.0158402
796.694	0.0156998
796.772	0.0158105
796.850	0.0157188
796.928	0.0156928
797.006	0.0159331
797.084	0.0158273
797.163	0.0157629
797.241	0.0157769
797.319	0.0157428
797.397	0.0158313
797.475	0.0159010
797.553	0.0158881
797.631	0.0158857
797.709	0.0160239
797.788	0.0160847
797.866	0.0161720
797.944	0.0160465
798.022	0.0161240
798.100	0.0159599
798.178	0.0159834
798.256	0.0159748
798.334	0.0157408
798.413	0.0156931
798.491	0.0157192
798.569	0.0154501
798.647	0.0153671
798.725	0.0153397
798.803	0.0150922
798.881	0.0148814
798.959	0.0149441
799.038	0.0148412
799.116	0.0146528
799.194	0.0147231
799.272	0.0146899
799.350	0.0146838
799.428	0.0147930
799.506	0.0149448
799.584	0.0148904
799.663	0.0149569
799.741	0.0151737
799.819	0.0152565
799.897	0.0153861
799.975	0.0154668
800.053	0.0156486
800.131	0.0159148
800.209	0.0159174
800.288	0.0161595
800.366	0.0161980
800.444	0.0163139
800.522	0.0163557
800.600	0.0165128
800.678	0.0165127
800.756	0.0164443
800.834	0.0165571
800.913	0.0165902
800.991	0.0164332
801.069	0.0164738
801.147	0.0165118
801.225	0.0162842
801.303	0.0162601
801.381	0.0163632
801.459	0.0162635
801.538	0.0160324
801.616	0.0161071
801.694	0.0160915
801.772	0.0159268
801.850	0.0157722
801.928	0.0156855
802.006	0.0156205
802.084	0.0155350
802.163	0.0154524
802.241	0.0153347
802.319	0.0151993
802.397	0.0152676
802.475	0.0153038
802.553	0.0151676
802.631	0.0151606
802.709	0.0152895
802.788	0.0150552
802.866	0.0149081
802.944	0.0152596
803.022	0.0151460
803.100	0.0151857
803.178	0.0153607
803.256	0.0154160
803.334	0.0153497
803.413	0.0154416
803.491	0.0154430
803.569	0.0154478
803.647	0.0154140
803.725	0.0154282
803.803	0.0155664
803.881	0.0155605
803.959	0.0157394
804.038	0.0159032
804.116	0.0156912
804.194	0.0157030
804.272	0.0157748
804.350	0.0157730
804.428	0.0157195
804.506	0.0157043
804.584	0.0158350
804.663	0.0157757
804.741	0.0158757
804.819	0.0158849
804.897	0.0158101
804.975	0.0157685
805.053	0.0157458
805.131	0.0158412
805.209	0.0159400
805.288	0.0159058
805.366	0.0157305
805.444	0.0157360
805.522	0.0157108
805.600	0.0157651
805.678	0.0156509
805.756	0.0154733
805.834	0.0154888
805.913	0.0155794
805.991	0.0155518
806.069	0.0155750
806.147	0.0155443
806.225	0.0154385
806.303	0.0155690
806.381	0.0155810
806.459	0.0157116
806.538	0.0157414
806.616	0.0156851
806.694	0.0157423
806.772	0.0155618
806.850	0.0157256
806.928	0.0158256
807.006	0.0156837
807.084	0.0156784
807.163	0.0156625
807.241	0.0155478
807.319	0.0154243
807.397	0.0155506
807.475	0.0154581
807.553	0.0154518
807.631	0.0152277
807.709	0.0153619
807.788	0.0153766
807.866	0.0152918
807.944	0.0153271
808.022	0.0154226
808.100	0.0155042
808.178	0.0156109
808.256	0.0155196
808.334	0.0155239
808.413	0.0157607
808.491	0.0157816
808.569	0.0157381
808.647	0.0158042
808.725	0.0158773
808.803	0.0160117
808.881	0.0158474
808.959	0.0159091
809.038	0.0159549
809.116	0.0158618
809.194	0.0158428
809.272	0.0158214
809.350	0.0157471
809.428	0.0157418
809.506	0.0156910
809.584	0.0158775
809.663	0.0154622
809.741	0.0155064
809.819	0.0153893
809.897	0.0153434
809.975	0.0153011
810.053	0.0154430
810.131	0.0152265
810.209	0.0152042
810.288	0.0152218
810.366	0.0152229
810.444	0.0152811
810.522	0.0150831
810.600	0.0152952
810.678	0.0151993
810.756	0.0153468
810.834	0.0154903
810.913	0.0154477
810.991	0.0154523
811.069	0.0156258
811.147	0.0157779
811.225	0.0156903
811.303	0.0156621
811.381	0.0155356
811.459	0.0158005
811.538	0.0157693
811.616	0.0157503
811.694	0.0158444
811.772	0.0157855
811.850	0.0157308
811.928	0.0158303
812.006	0.0157690
812.084	0.0157443
812.163	0.0155453
812.241	0.0155527
812.319	0.0156988
812.397	0.0156503
812.475	0.0156660
812.553	0.0156553
812.631	0.0156357
812.709	0.0155706
812.788	0.0157416
812.866	0.0157070
812.944	0.0157375
813.022	0.0158620
813.100	0.0158829
813.178	0.0158305
813.256	0.0159304
813.334	0.0159821
813.413	0.0159706
813.491	0.0161387
813.569	0.0160124
813.647	0.0161546
813.725	0.0162395
813.803	0.0160480
813.881	0.0162242
813.959	0.0163174
814.038	0.0161146
814.116	0.0161243
814.194	0.0160333
814.272	0.0160301
814.350	0.0160338
814.428	0.0159257
814.506	0.0158328
814.584	0.0157822
814.663	0.0156771
814.741	0.0157051
814.819	0.0155975
814.897	0.0155046
814.975	0.0155085
815.053	0.0154175
815.131	0.0155433
815.209	0.0154176
815.288	0.0153899
815.366	0.0153523
815.444	0.0156130
815.522	0.0154771
815.600	0.0154154
815.678	0.0154241
815.756	0.0152943
815.834	0.0154461
815.913	0.0155378
815.991	0.0153835
816.069	0.0153397
816.147	0.0154071
816.225	0.0152854
816.303	0.0152844
816.381	0.0152795
816.459	0.0152975
816.538	0.0154468
816.616	0.0154702
816.694	0.0153875
816.772	0.0153225
816.850	0.0153764
816.928	0.0154390
817.006	0.0156150
817.084	0.0153149
817.163	0.0153843
817.241	0.0153456
817.319	0.0154202
817.397	0.0155538
817.475	0.0156192
817.553	0.0156321
817.631	0.0156516
817.709	0.0155285
817.788	0.0155518
817.866	0.0156423
817.944	0.0155490
818.022	0.0156186
818.100	0.0156502
818.178	0.0157287
818.256	0.0157156
818.334	0.0158401
818.413	0.0156970
818.491	0.0158762
818.569	0.0158177
818.647	0.0158813
818.725	0.0159129
818.803	0.0158780
818.881	0.0157430
818.959	0.0158892
819.038	0.0157198
819.116	0.0156631
819.194	0.0156860
819.272	0.0157377
819.350	0.0156643
819.428	0.0158312
819.506	0.0158543
819.584	0.0156918
819.663	0.0156129
819.741	0.0157166
819.819	0.0156689
819.897	0.0155061
819.975	0.0154631
820.053	0.0156686
820.131	0.0157176
820.209	0.0156778
820.288	0.0156010
820.366	0.0155827
820.444	0.0156002
820.522	0.0155531
820.600	0.0154810
820.678	0.0154411
820.756	0.0157841
820.834	0.0154766
820.913	0.0153773
820.991	0.0154129
821.069	0.0155379
821.147	0.0155126
821.225	0.0154058
821.303	0.0154253
821.381	0.0155328
821.459	0.0155211
821.538	0.0158032
821.616	0.0156495
821.694	0.0158921
821.772	0.0157714
821.850	0.0158120
821.928	0.0160291
822.006	0.0160306
822.084	0.0161070
822.163	0.0160845
822.241	0.0160262
822.319	0.0160659
822.397	0.0160011
822.475	0.0159460
822.553	0.0158834
822.631	0.0159329
822.709	0.0158216
822.788	0.0158504
822.866	0.0158453
822.944	0.0155776
823.022	0.0156076
823.100	0.0156117
823.178	0.0155511
823.256	0.0155605
823.334	0.0154728
823.413	0.0153811
823.491	0.0153426
823.569	0.0152776
823.647	0.0154428
823.725	0.0152680
823.803	0.0152773
823.881	0.0153053
823.959	0.0153629
824.038	0.0154247
824.116	0.0152637
824.194	0.0152986
824.272	0.0153191
824.350	0.0155280
824.428	0.0156263
824.506	0.0155202
824.584	0.0154946
824.663	0.0155963
824.741	0.0156206
824.819	0.0155339
824.897	0.0156657
824.975	0.0157774
825.053	0.0157212
825.131	0.0157165
825.209	0.0155776
825.288	0.0156568
825.366	0.0156985
825.444	0.0156023
825.522	0.0157193
825.600	0.0156863
825.678	0.0157301
825.756	0.0155640
825.834	0.0156962
825.913	0.0155231
825.991	0.0155200
826.069	0.0156226
826.147	0.0156378
826.225	0.0156461
826.303	0.0157130
826.381	0.0158072
826.459	0.0157360
826.538	0.0156364
826.616	0.0157835
826.694	0.0158592
826.772	0.0158276
826.850	0.0159068
826.928	0.0159236
827.006	0.0159405
827.084	0.0160793
827.163	0.0159519
827.241	0.0158795
827.319	0.0158311
827.397	0.0159270
827.475	0.0160658
827.553	0.0160113
827.631	0.0158591
827.709	0.0158958
827.788	0.0159245
827.866	0.0158363
827.944	0.0157958
828.022	0.0155540
828.100	0.0156052
828.178	0.0155673
828.256	0.0156220
828.334	0.0154161
828.413	0.0154561
828.491	0.0152975
828.569	0.0153430
828.647	0.0151670
828.725	0.0151911
828.803	0.0152491
828.881	0.0151678
828.959	0.0152852
829.038	0.0152487
829.116	0.0152767
829.194	0.0152359
829.272	0.0152694
829.350	0.0152013
829.428	0.0152705
829.506	0.0152921
829.584	0.0153311
829.663	0.0153457
829.741	0.0152609
829.819	0.0153082
829.897	0.0153645
829.975	0.0154250
830.053	0.0154696
830.131	0.0153578
830.209	0.0155347
830.288	0.0155556
830.366	0.0155655
830.444	0.0157922
830.522	0.0157029
830.600	0.0158246
830.678	0.0158128
830.756	0.0158327
830.834	0.0159197
830.913	0.0159540
830.991	0.0159892
831.069	0.0162004
831.147	0.0160578
831.225	0.0159398
831.303	0.0159330
831.381	0.0158558
831.459	0.0158135
831.538	0.0159162
831.616	0.0156728
831.694	0.0156811
831.772	0.0157050
831.850	0.0156819
831.928	0.0154923
832.006	0.0155663
832.084	0.0155454
832.163	0.0156081
832.241	0.0155035
832.319	0.0154947
832.397	0.0155551
832.475	0.0156403
832.553	0.0156101
832.631	0.0156379
832.709	0.0156920
832.788	0.0156881
832.866	0.0156447
832.944	0.0157773
833.022	0.0157604
833.100	0.0159270
833.178	0.0157909
833.256	0.0158578
833.334	0.0157789
833.413	0.0158099
833.491	0.0157731
833.569	0.0157407
833.647	0.0157274
833.725	0.0157539
833.803	0.0157623
833.881	0.0156789
833.959	0.0156863
834.038	0.0158085
834.116	0.0156759
834.194	0.0156059
834.272	0.0157498
834.350	0.0156240
834.428	0.0158186
834.506	0.0157104
834.584	0.0155840
834.663	0.0156008
834.741	0.0157734
834.819	0.0158146
834.897	0.0158813
834.975	0.0159743
835.053	0.0158138
835.131	0.0158576
835.209	0.0158702
835.288	0.0158825
835.366	0.0158729
835.444	0.0159871
835.522	0.0159927
835.600	0.0159520
835.678	0.0158415
835.756	0.0159504
835.834	0.0158169
835.913	0.0159280
835.991	0.0158485
836.069	0.0157722
836.147	0.0159739
836.225	0.0158125
836.303	0.0157940
836.381	0.0158334
836.459	0.0158813
836.538	0.0157939
836.616	0.0157561
836.694	0.0158718
836.772	0.0158617
836.850	0.0158497
836.928	0.0159158
837.006	0.0159771
837.084	0.0159895
837.163	0.0159069
837.241	0.0157711
837.319	0.0157953
837.397	0.0159034
837.475	0.0158662
837.553	0.0157895
837.631	0.0157182
837.709	0.0156254
837.788	0.0156884
837.866	0.0155795
837.944	0.0156161
838.022	0.0155871
838.100	0.0156498
838.178	0.0155135
838.256	0.0155083
838.334	0.0155990
838.413	0.0154789
838.491	0.0154719
838.569	0.0154408
838.647	0.0154732
838.725	0.0153954
838.803	0.0155786
838.881	0.0154247
838.959	0.0154462
839.038	0.0153436
839.116	0.0153515
839.194	0.0152766
839.272	0.0154082
839.350	0.0152546
839.428	0.0152802
839.506	0.0153569
839.584	0.0152956
839.663	0.0152923
839.741	0.0153683
839.819	0.0154518
839.897	0.0152380
839.975	0.0154508
840.053	0.0153679
840.131	0.0153055
840.209	0.0153320
840.288	0.0154599
840.366	0.0153965
840.444	0.0153281
840.522	0.0154701
840.600	0.0155222
840.678	0.0155434
840.756	0.0156265
840.834	0.0155322
840.913	0.0157693
840.991	0.0156168
841.069	0.0156675
841.147	0.0156584
841.225	0.0158672
841.303	0.0158791
841.381	0.0157561
841.459	0.0157549
841.538	0.0157610
841.616	0.0158762
841.694	0.0158594
841.772	0.0158103
841.850	0.0159457
841.928	0.0159541
842.006	0.0158057
842.084	0.0158109
842.163	0.0159550
842.241	0.0156982
842.319	0.0157663
842.397	0.0158930
842.475	0.0158863
842.553	0.0157708
842.631	0.0156776
842.709	0.0157494
842.788	0.0157391
842.866	0.0156074
842.944	0.0157119
843.022	0.0156616
843.100	0.0156517
843.178	0.0156680
843.256	0.0156523
843.334	0.0157366
843.413	0.0156310
843.491	0.0156668
843.569	0.0155570
843.647	0.0155669
843.725	0.0156221
843.803	0.0155755
843.881	0.0155431
843.959	0.0155964
844.038	0.0155000
844.116	0.0155127
844.194	0.0153839
844.272	0.0153882
844.350	0.0155131
844.428	0.0154308
844.506	0.0153019
844.584	0.0152666
844.663	0.0154481
844.741	0.0153420
844.819	0.0153667
844.897	0.0153869
844.975	0.0151318
845.053	0.0153193
845.131	0.0155199
845.209	0.0155417
845.288	0.0153745
845.366	0.0155525
845.444	0.0155170
845.522	0.0155845
845.600	0.0157604
845.678	0.0156618
845.756	0.0157265
845.834	0.0157101
845.913	0.0158615
845.991	0.0158246
846.069	0.0157259
846.147	0.0156685
846.225	0.0159016
846.303	0.0157504
846.381	0.0157910
846.459	0.0158685
846.538	0.0156673
846.616	0.0158118
846.694	0.0158022
846.772	0.0156713
846.850	0.0156664
846.928	0.0156870
847.006	0.0156969
847.084	0.0156001
847.163	0.0155798
847.241	0.0157317
847.319	0.0157226
847.397	0.0156870
847.475	0.0156254
847.553	0.0156830
847.631	0.0155801
847.709	0.0156944
847.788	0.0154676
847.866	0.0156352
847.944	0.0156210
848.022	0.0154887
848.100	0.0155655
848.178	0.0156544
848.256	0.0154175
848.334	0.0155738
848.413	0.0155526
848.491	0.0156231
848.569	0.0156601
848.647	0.0154342
848.725	0.0154505
848.803	0.0155936
848.881	0.0156010
848.959	0.0155861
849.038	0.0155504
849.116	0.0155552
849.194	0.0156277
849.272	0.0155734
849.350	0.0156477
849.428	0.0155252
849.506	0.0156158
849.584	0.0157045
849.663	0.0156723
849.741	0.0155719
849.819	0.0156110
849.897	0.0155562
849.975	0.0156110
850.053	0.0155010
850.131	0.0155682
850.209	0.0155686
850.288	0.0156496
850.366	0.0156115
850.444	0.0155388
850.522	0.0156403
850.600	0.0156699
850.678	0.0156970
850.756	0.0155471
850.834	0.0156639
850.913	0.0156266
850.991	0.0156039
851.069	0.0157539
851.147	0.0158250
851.225	0.0156470
851.303	0.0156590
851.381	0.0156775
851.459	0.0156330
851.538	0.0155460
851.616	0.0156165
851.694	0.0157220
851.772	0.0155947
851.850	0.0156027
851.928	0.0158157
852.006	0.0157386
852.084	0.0156341
852.163	0.0156351
852.241	0.0157373
852.319	0.0156086
852.397	0.0156059
852.475	0.0155921
852.553	0.0156232
852.631	0.0156502
852.709	0.0155967
852.788	0.0156478
852.866	0.0156642
852.944	0.0154594
853.022	0.0154848
853.100	0.0155159
853.178	0.0154824
853.256	0.0153880
853.334	0.0155183
853.413	0.0155498
853.491	0.0154366
853.569	0.0154939
853.647	0.0155556
853.725	0.0158137
853.803	0.0157314
853.881	0.0155823
853.959	0.0155001
854.038	0.0155847
854.116	0.0157024
854.194	0.0158581
854.272	0.0156721
854.350	0.0157723
854.428	0.0158526
854.506	0.0158656
854.584	0.0158260
854.663	0.0157749
854.741	0.0159561
854.819	0.0158671
854.897	0.0157965
854.975	0.0158578
855.053	0.0158431
855.131	0.0159412
855.209	0.0159863
855.288	0.0160126
855.366	0.0158344
855.444	0.0158756
855.522	0.0158681
855.600	0.0157991
855.678	0.0157966
855.756	0.0157918
855.834	0.0158744
855.913	0.0158069
855.991	0.0158543
856.069	0.0155821
856.147	0.0155730
856.225	0.0157707
856.303	0.0158667
856.381	0.0157104
856.459	0.0157026
856.538	0.0157553
856.616	0.0158164
856.694	0.0156612
856.772	0.0157496
856.850	0.0158290
856.928	0.0156224
857.006	0.0156801
857.084	0.0156113
857.163	0.0155611
857.241	0.0156582
857.319	0.0154977
857.397	0.0156470
857.475	0.0155436
857.553	0.0154154
857.631	0.0155272
857.709	0.0153214
857.788	0.0155232
857.866	0.0153362
857.944	0.0154722
858.022	0.0154477
858.100	0.0152292
858.178	0.0154607
858.256	0.0154459
858.334	0.0154137
858.413	0.0153274
858.491	0.0154767
858.569	0.0154187
858.647	0.0154701
858.725	0.0154578
858.803	0.0154428
858.881	0.0152838
858.959	0.0155564
859.038	0.0155276
859.116	0.0155085
859.194	0.0154998
859.272	0.0155527
859.350	0.0152876
859.428	0.0154489
859.506	0.0155031
859.584	0.0155284
859.663	0.0156671
859.741	0.0155769
859.819	0.0156301
859.897	0.0156582
859.975	0.0155746
860.053	0.0156842
860.131	0.0158328
860.209	0.0158063
860.288	0.0158181
860.366	0.0158128
860.444	0.0157056
860.522	0.0156839
860.600	0.0158017
860.678	0.0158014
860.756	0.0158891
860.834	0.0158307
860.913	0.0156787
860.991	0.0157272
861.069	0.0157503
861.147	0.0157791
861.225	0.0157866
861.303	0.0157580
861.381	0.0157078
861.459	0.0156298
861.538	0.0158041
861.616	0.0157726
861.694	0.0156280
861.772	0.0154468
861.850	0.0156680
861.928	0.0156396
862.006	0.0155599
862.084	0.0155732
862.163	0.0155320
862.241	0.0156294
862.319	0.0156043
862.397	0.0156541
862.475	0.0155998
862.553	0.0155165
862.631	0.0157339
862.709	0.0156628
862.788	0.0157752
862.866	0.0157565
862.944	0.0155914
863.022	0.0157434
863.100	0.0159232
863.178	0.0156991
863.256	0.0156262
863.334	0.0156468
863.413	0.0158118
863.491	0.0157713
863.569	0.0156674
863.647	0.0158415
863.725	0.0157439
863.803	0.0156841
863.881	0.0157278
863.959	0.0158566
864.038	0.0158542
864.116	0.0158491
864.194	0.0157203
864.272	0.0158978
864.350	0.0159193
864.428	0.0159146
864.506	0.0159402
864.584	0.0158856
864.663	0.0158536
864.741	0.0158884
864.819	0.0160815
864.897	0.0158057
864.975	0.0157938
865.053	0.0157697
865.131	0.0159806
865.209	0.0158515
865.288	0.0158816
865.366	0.0158626
865.444	0.0157722
865.522	0.0157618
865.600	0.0158043
865.678	0.0157523
865.756	0.0158148
865.834	0.0158331
865.913	0.0157515
865.991	0.0158032
866.069	0.0158370
866.147	0.0156895
866.225	0.0156499
866.303	0.0157494
866.381	0.0157008
866.459	0.0156890
866.538	0.0157207
866.616	0.0156821
866.694	0.0156762
866.772	0.0157300
866.850	0.0156706
866.928	0.0156001
867.006	0.0157619
867.084	0.0155849
867.163	0.0156856
867.241	0.0157104
867.319	0.0156977
867.397	0.0158295
867.475	0.0156513
867.553	0.0157124
867.631	0.0158664
867.709	0.0158717
867.788	0.0159605
867.866	0.0159657
867.944	0.0158736
868.022	0.0157670
868.100	0.0159190
868.178	0.0159570
868.256	0.0157818
868.334	0.0159532
868.413	0.0158189
868.491	0.0157524
868.569	0.0158576
868.647	0.0158167
868.725	0.0157380
868.803	0.0157397
868.881	0.0158456
868.959	0.0157841
869.038	0.0157497
869.116	0.0155833
869.194	0.0155883
869.272	0.0156783
869.350	0.0157043
869.428	0.0155819
869.506	0.0155453
869.584	0.0155812
869.663	0.0155495
869.741	0.0155821
869.819	0.0154735
869.897	0.0153326
869.975	0.0153983
870.053	0.0152798
870.131	0.0154133
870.209	0.0152682
870.288	0.0153342
870.366	0.0154165
870.444	0.0152747
870.522	0.0154476
870.600	0.0154620
870.678	0.0154654
870.756	0.0153252
870.834	0.0154893
870.913	0.0155612
870.991	0.0156064
871.069	0.0154905
871.147	0.0156530
871.225	0.0155820
871.303	0.0155574
871.381	0.0156678
871.459	0.0157599
871.538	0.0155561
871.616	0.0156246
871.694	0.0156091
871.772	0.0156705
871.850	0.0155447
871.928	0.0155293
872.006	0.0156702
872.084	0.0155928
872.163	0.0155492
872.241	0.0155461
872.319	0.0156269
872.397	0.0154797
872.475	0.0155578
872.553	0.0156055
872.631	0.0155996
872.709	0.0154890
872.788	0.0155869
872.866	0.0156129
872.944	0.0156441
873.022	0.0156756
873.100	0.0155355
873.178	0.0156079
873.256	0.0156476
873.334	0.0157045
873.413	0.0156838
873.491	0.0157293
873.569	0.0156600
873.647	0.0157880
873.725	0.0157963
873.803	0.0156611
873.881	0.0156577
873.959	0.0157436
874.038	0.0158337
874.116	0.0156371
874.194	0.0155940
874.272	0.0155969
874.350	0.0157619
874.428	0.0157508
874.506	0.0157487
874.584	0.0155473
874.663	0.0155521
874.741	0.0155167
874.819	0.0156561
874.897	0.0156191
874.975	0.0157195
875.053	0.0158015
875.131	0.0156715
875.209	0.0157032
875.288	0.0157454
875.366	0.0157666
875.444	0.0157005
875.522	0.0156547
875.600	0.0157843
875.678	0.0157391
875.756	0.0158340
875.834	0.0155987
875.913	0.0156748
875.991	0.0157206
876.069	0.0157727
876.147	0.0156753
876.225	0.0155550
876.303	0.0157961
876.381	0.0157610
876.459	0.0156557
876.538	0.0158575
876.616	0.0157109
876.694	0.0157832
876.772	0.0156290
876.850	0.0157299
876.928	0.0158149
877.006	0.0158636
877.084	0.0157335
877.163	0.0158447
877.241	0.0157453
877.319	0.0156376
877.397	0.0156853
877.475	0.0158443
877.553	0.0157551
877.631	0.0155891
877.709	0.0157578
877.788	0.0158263
877.866	0.0156731
877.944	0.0156747
878.022	0.0156715
878.100	0.0156026
878.178	0.0157150
878.256	0.0156300
878.334	0.0157640
878.413	0.0157053
878.491	0.0155260
878.569	0.0157210
878.647	0.0157187
878.725	0.0157007
878.803	0.0157061
878.881	0.0157153
878.959	0.0157183
879.038	0.0158514
879.116	0.0157130
879.194	0.0157602
879.272	0.0156460
879.350	0.0157554
879.428	0.0157082
879.506	0.0157468
879.584	0.0157085
879.663	0.0156985
879.741	0.0156956
879.819	0.0158743
879.897	0.0158441
879.975	0.0158679
880.053	0.0158549
880.131	0.0158607
880.209	0.0158240
880.288	0.0158777
880.366	0.0158264
880.444	0.0158145
880.522	0.0157046
880.600	0.0157417
880.678	0.0158158
880.756	0.0156605
880.834	0.0157305
880.913	0.0157121
880.991	0.0156442
881.069	0.0156432
881.147	0.0157516
881.225	0.0156950
881.303	0.0155990
881.381	0.0155598
881.459	0.0154758
881.538	0.0154307
881.616	0.0156631
881.694	0.0155343
881.772	0.0153753
881.850	0.0154926
881.928	0.0154080
882.006	0.0153807
882.084	0.0154827
882.163	0.0154650
882.241	0.0156385
882.319	0.0155453
882.397	0.0154142
882.475	0.0154063
882.553	0.0155527
882.631	0.0156067
882.709	0.0155982
882.788	0.0154472
882.866	0.0157133
882.944	0.0156405
883.022	0.0155984
883.100	0.0157886
883.178	0.0156963
883.256	0.0156738
883.334	0.0158654
883.413	0.0156575
883.491	0.0158831
883.569	0.0159116
883.647	0.0157754
883.725	0.0158064
883.803	0.0158340
883.881	0.0158311
883.959	0.0157805
884.038	0.0158654
884.116	0.0157276
884.194	0.0158419
884.272	0.0155927
884.350	0.0158040
884.428	0.0156400
884.506	0.0156655
884.584	0.0157261
884.663	0.0156618
884.741	0.0156311
884.819	0.0156142
884.897	0.0156290
884.975	0.0154714
885.053	0.0155888
885.131	0.0155359
885.209	0.0154638
885.288	0.0155534
885.366	0.0153913
885.444	0.0152295
885.522	0.0152924
885.600	0.0153846
885.678	0.0153935
885.756	0.0153299
885.834	0.0154793
885.913	0.0153241
885.991	0.0154457
886.069	0.0155032
886.147	0.0153819
886.225	0.0154024
886.303	0.0155473
886.381	0.0155410
886.459	0.0155432
886.538	0.0154890
886.616	0.0155104
886.694	0.0154910
886.772	0.0155670
886.850	0.0157300
886.928	0.0155428
887.006	0.0155608
887.084	0.0157295
887.163	0.0156891
887.241	0.0157265
887.319	0.0157643
887.397	0.0156634
887.475	0.0157909
887.553	0.0156432
887.631	0.0157779
887.709	0.0157699
887.788	0.0158525
887.866	0.0157050
887.944	0.0157476
888.022	0.0156179
888.100	0.0156847
888.178	0.0157564
888.256	0.0155697
888.334	0.0156784
888.413	0.0157285
888.491	0.0156747
888.569	0.0157368
888.647	0.0157150
888.725	0.0157605
888.803	0.0155206
888.881	0.0157545
888.959	0.0157596
889.038	0.0157350
889.116	0.0157806
889.194	0.0157446
889.272	0.0156937
889.350	0.0156391
889.428	0.0156956
889.506	0.0157121
889.584	0.0155894
889.663	0.0157395
889.741	0.0157411
889.819	0.0157276
889.897	0.0157808
889.975	0.0157678
890.053	0.0157796
890.131	0.0157323
890.209	0.0156843
890.288	0.0158960
890.366	0.0159413
890.444	0.0156384
890.522	0.0156758
890.600	0.0158565
890.678	0.0158123
890.756	0.0157530
890.834	0.0159085
890.913	0.0158836
890.991	0.0157091
891.069	0.0158365
891.147	0.0159499
891.225	0.0158659
891.303	0.0158702
891.381	0.0160361
891.459	0.0159486
891.538	0.0159021
891.616	0.0160044
891.694	0.0160789
891.772	0.0159637
891.850	0.0160311
891.928	0.0160728
892.006	0.0159594
892.084	0.0159602
892.163	0.0159326
892.241	0.0159804
892.319	0.0160072
892.397	0.0157624
892.475	0.0159989
892.553	0.0160895
892.631	0.0158241
892.709	0.0156898
892.788	0.0158298
892.866	0.0156957
892.944	0.0157175
893.022	0.0156840
893.100	0.0156190
893.178	0.0157529
893.256	0.0155013
893.334	0.0155827
893.413	0.0156235
893.491	0.0155559
893.569	0.0155958
893.647	0.0155560
893.725	0.0154192
893.803	0.0155328
893.881	0.0154750
893.959	0.0153709
894.038	0.0153973
894.116	0.0154109
894.194	0.0154374
894.272	0.0153510
894.350	0.0154189
894.428	0.0154823
894.506	0.0152541
894.584	0.0155103
894.663	0.0155643
894.741	0.0154028
894.819	0.0153590
894.897	0.0155632
894.975	0.0157200
895.053	0.0155024
895.131	0.0155975
895.209	0.0156793
895.288	0.0156712
895.366	0.0157710
895.444	0.0157037
895.522	0.0156848
895.600	0.0157859
895.678	0.0158037
895.756	0.0159414
895.834	0.0158352
895.913	0.0159096
895.991	0.0156869
896.069	0.0158067
896.147	0.0157431
896.225	0.0159290
896.303	0.0157478
896.381	0.0157647
896.459	0.0157211
896.538	0.0156421
896.616	0.0156301
896.694	0.0155638
896.772	0.0155072
896.850	0.0153909
896.928	0.0155476
897.006	0.0156120
897.084	0.0154641
897.163	0.0154472
897.241	0.0153528
897.319	0.0154816
897.397	0.0155945
897.475	0.0155171
897.553	0.0153547
897.631	0.0154523
897.709	0.0155111
897.788	0.0154124
897.866	0.0155518
897.944	0.0154813
898.022	0.0155430
898.100	0.0155022
898.178	0.0156233
898.256	0.0156810
898.334	0.0156518
898.413	0.0158089
898.491	0.0156468
898.569	0.0156752
898.647	0.0156339
898.725	0.0155673
898.803	0.0155588
898.881	0.0156176
898.959	0.0155325
899.038	0.0155997
899.116	0.0154675
899.194	0.0155341
899.272	0.0153942
899.350	0.0155070
899.428	0.0154179
899.506	0.0153837
899.584	0.0155462
899.663	0.0155262
899.741	0.0154716
899.819	0.0154529
899.897	0.0153419
899.975	0.0153513
900.053	0.0152438
900.131	0.0153641
900.209	0.0153557
900.288	0.0155274
900.366	0.0154305
900.444	0.0152845
900.522	0.0153684
900.600	0.0156052
900.678	0.0155398
900.756	0.0155704
900.834	0.0154929
900.913	0.0155343
900.991	0.0154964
901.069	0.0156015
901.147	0.0156509
901.225	0.0156454
901.303	0.0156895
901.381	0.0155834
901.459	0.0156149
901.538	0.0156372
901.616	0.0156288
901.694	0.0156026
901.772	0.0157008
901.850	0.0156196
901.928	0.0156194
902.006	0.0157195
902.084	0.0156205
902.163	0.0156727
902.241	0.0156580
902.319	0.0156990
902.397	0.0156669
902.475	0.0157098
902.553	0.0156898
902.631	0.0157094
902.709	0.0157718
902.788	0.0157814
902.866	0.0156454
902.944	0.0157973
903.022	0.0158660
903.100	0.0157998
903.178	0.0157733
903.256	0.0157620
903.334	0.0156908
903.413	0.0157682
903.491	0.0157525
903.569	0.0158382
903.647	0.0158405
903.725	0.0158022
903.803	0.0158220
903.881	0.0156212
903.959	0.0157652
904.038	0.0156563
904.116	0.0156064
904.194	0.0156013
904.272	0.0155509
904.350	0.0155665
904.428	0.0154765
904.506	0.0154955
904.584	0.0155795
904.663	0.0154826
904.741	0.0155185
904.819	0.0155414
904.897	0.0155871
904.975	0.0154723
905.053	0.0154718
905.131	0.0154367
905.209	0.0154388
905.288	0.0155206
905.366	0.0155466
905.444	0.0154050
905.522	0.0156209
905.600	0.0155582
905.678	0.0154561
905.756	0.0155701
905.834	0.0157503
905.913	0.0157203
905.991	0.0156740
906.069	0.0156989
906.147	0.0157134
906.225	0.0157332
906.303	0.0158288
906.381	0.0158765
906.459	0.0157567
906.538	0.0158943
906.616	0.0158134
906.694	0.0157294
906.772	0.0157596
906.850	0.0157333
906.928	0.0157136
907.006	0.0158953
907.084	0.0159437
907.163	0.0157095
907.241	0.0156104
907.319	0.0157522
907.397	0.0157565
907.475	0.0157371
907.553	0.0156714
907.631	0.0156929
907.709	0.0157308
907.788	0.0156618
907.866	0.0156168
907.944	0.0156963
908.022	0.0157479
908.100	0.0155548
908.178	0.0156007
908.256	0.0156867
908.334	0.0157349
908.413	0.0155151
908.491	0.0155124
908.569	0.0156415
908.647	0.0156220
908.725	0.0155382
908.803	0.0156252
908.881	0.0155194
908.959	0.0157474
909.038	0.0155391
909.116	0.0155382
909.194	0.0155724
909.272	0.0155228
909.350	0.0155613
909.428	0.0157146
909.506	0.0155229
909.584	0.0156672
909.663	0.0156596
909.741	0.0156061
909.819	0.0155070
909.897	0.0154219
909.975	0.0155801
910.053	0.0156889
910.131	0.0155234
910.209	0.0155128
910.288	0.0156537
910.366	0.0156042
910.444	0.0155798
910.522	0.0156522
910.600	0.0155315
910.678	0.0156273
910.756	0.0156468
910.834	0.0154879
910.913	0.0155392
910.991	0.0154988
911.069	0.0154551
911.147	0.0154971
911.225	0.0155401
911.303	0.0157088
911.381	0.0154784
911.459	0.0155425
911.538	0.0155376
911.616	0.0155502
911.694	0.0154469
911.772	0.0154604
911.850	0.0155659
911.928	0.0155138
912.006	0.0153836
912.084	0.0156025
912.163	0.0154758
912.241	0.0154917
912.319	0.0155627
912.397	0.0154567
912.475	0.0154681
912.553	0.0155833
912.631	0.0155494
912.709	0.0154535
912.788	0.0154166
912.866	0.0155052
912.944	0.0155212
913.022	0.0154299
913.100	0.0154197
913.178	0.0155848
913.256	0.0155228
913.334	0.0154684
913.413	0.0156293
913.491	0.0154877
913.569	0.0155901
913.647	0.0155659
913.725	0.0154823
913.803	0.0155788
913.881	0.0156246
913.959	0.0155554
914.038	0.0156073
914.116	0.0157513
914.194	0.0156562
914.272	0.0155082
914.350	0.0156918
914.428	0.0156725
914.506	0.0156329
914.584	0.0157089
914.663	0.0157720
914.741	0.0156629
914.819	0.0155444
914.897	0.0156120
914.975	0.0157787
915.053	0.0154864
915.131	0.0155833
915.209	0.0155788
915.288	0.0157251
915.366	0.0156469
915.444	0.0157036
915.522	0.0154986
915.600	0.0157127
915.678	0.0155516
915.756	0.0156643
915.834	0.0155894
915.913	0.0155551
915.991	0.0155981
916.069	0.0155939
916.147	0.0155647
916.225	0.0156135
916.303	0.0156497
916.381	0.0155079
916.459	0.0154970
916.538	0.0156321
916.616	0.0157319
916.694	0.0156615
916.772	0.0155103
916.850	0.0155108
916.928	0.0155048
917.006	0.0155525
917.084	0.0155869
917.163	0.0155357
917.241	0.0156190
917.319	0.0156036
917.397	0.0155408
917.475	0.0156837
917.553	0.0155418
917.631	0.0156104
917.709	0.0155516
917.788	0.0154687
917.866	0.0155812
917.944	0.0155451
918.022	0.0156042
918.100	0.0155885
918.178	0.0154237
918.256	0.0155989
918.334	0.0155350
918.413	0.0154513
918.491	0.0155293
918.569	0.0154533
918.647	0.0154665
918.725	0.0154985
918.803	0.0155389
918.881	0.0154506
918.959	0.0155766
919.038	0.0155756
919.116	0.0156535
919.194	0.0155722
919.272	0.0156499
919.350	0.0156195
919.428	0.0156400
919.506	0.0157623
919.584	0.0156467
919.663	0.0156657
919.741	0.0157828
919.819	0.0156213
919.897	0.0156494
