06/03/2022	16:02:07	Ver.	4.1	UNKNOWN
Optical Delay	550.020508	Delta X		0.078125	Sweeps	1	Scan Rate	0/0
Coordinates	Axis 1	NaN	Axis 2	NaN	Axis 3	NaN	Axis 4	NaN	Axis 5	NaN	Axis 6	0.000000
TX Power	0.000000	RX Power	0.000000

550.021	0.0165345
550.099	0.0165359
550.177	0.0165778
550.255	0.0166562
550.333	0.0166225
550.411	0.0166483
550.489	0.0165460
550.567	0.0165272
550.646	0.0166318
550.724	0.0166518
550.802	0.0166452
550.880	0.0166328
550.958	0.0166574
551.036	0.0167236
551.114	0.0166595
551.192	0.0165782
551.271	0.0167271
551.349	0.0167358
551.427	0.0165945
551.505	0.0166470
551.583	0.0166087
551.661	0.0165895
551.739	0.0165528
551.817	0.0166370
551.896	0.0167786
551.974	0.0165816
552.052	0.0165569
552.130	0.0165940
552.208	0.0166470
552.286	0.0165517
552.364	0.0167402
552.442	0.0166519
552.521	0.0166473
552.599	0.0167384
552.677	0.0165846
552.755	0.0166003
552.833	0.0167586
552.911	0.0166347
552.989	0.0165575
553.067	0.0168406
553.146	0.0167075
553.224	0.0164919
553.302	0.0166808
553.380	0.0167304
553.458	0.0167798
553.536	0.0165577
553.614	0.0166357
553.692	0.0165427
553.771	0.0166492
553.849	0.0165946
553.927	0.0167278
554.005	0.0165915
554.083	0.0164809
554.161	0.0166357
554.239	0.0168195
554.317	0.0165548
554.396	0.0165492
554.474	0.0166359
554.552	0.0165788
554.630	0.0165607
554.708	0.0167409
554.786	0.0165366
554.864	0.0165231
554.942	0.0167183
555.021	0.0166130
555.099	0.0164387
555.177	0.0164861
555.255	0.0166900
555.333	0.0166804
555.411	0.0166529
555.489	0.0165693
555.567	0.0166344
555.646	0.0164683
555.724	0.0165651
555.802	0.0166300
555.880	0.0166430
555.958	0.0165261
556.036	0.0165270
556.114	0.0167104
556.192	0.0166621
556.271	0.0166130
556.349	0.0166585
556.427	0.0165527
556.505	0.0164517
556.583	0.0165149
556.661	0.0166011
556.739	0.0165424
556.817	0.0165872
556.896	0.0165549
556.974	0.0165435
557.052	0.0166459
557.130	0.0166840
557.208	0.0165936
557.286	0.0165752
557.364	0.0164959
557.442	0.0166451
557.521	0.0166184
557.599	0.0167082
557.677	0.0166262
557.755	0.0166264
557.833	0.0166477
557.911	0.0166100
557.989	0.0166968
558.067	0.0166222
558.146	0.0164783
558.224	0.0164536
558.302	0.0165942
558.380	0.0167200
558.458	0.0166843
558.536	0.0164544
558.614	0.0164755
558.692	0.0166384
558.771	0.0165909
558.849	0.0164668
558.927	0.0166254
559.005	0.0166248
559.083	0.0165902
559.161	0.0166000
559.239	0.0166222
559.317	0.0166521
559.396	0.0164873
559.474	0.0165674
559.552	0.0166341
559.630	0.0166692
559.708	0.0167154
559.786	0.0165143
559.864	0.0164728
559.942	0.0167240
560.021	0.0167164
560.099	0.0165864
560.177	0.0165977
560.255	0.0165681
560.333	0.0165148
560.411	0.0165993
560.489	0.0165559
560.567	0.0166188
560.646	0.0166917
560.724	0.0165862
560.802	0.0165356
560.880	0.0165351
560.958	0.0166047
561.036	0.0164932
561.114	0.0164631
561.192	0.0167365
561.271	0.0166029
561.349	0.0165779
561.427	0.0166309
561.505	0.0165723
561.583	0.0165791
561.661	0.0165022
561.739	0.0165722
561.817	0.0167299
561.896	0.0165649
561.974	0.0166269
562.052	0.0167023
562.130	0.0166512
562.208	0.0165400
562.286	0.0165598
562.364	0.0165211
562.442	0.0166288
562.521	0.0166906
562.599	0.0166566
562.677	0.0165746
562.755	0.0165343
562.833	0.0164558
562.911	0.0165685
562.989	0.0165817
563.067	0.0165604
563.146	0.0164725
563.224	0.0164472
563.302	0.0164392
563.380	0.0165724
563.458	0.0165804
563.536	0.0165930
563.614	0.0164892
563.692	0.0166103
563.771	0.0164601
563.849	0.0164814
563.927	0.0165708
564.005	0.0166573
564.083	0.0165742
564.161	0.0164480
564.239	0.0166277
564.317	0.0166714
564.396	0.0165092
564.474	0.0165890
564.552	0.0165107
564.630	0.0164718
564.708	0.0164985
564.786	0.0166773
564.864	0.0165619
564.942	0.0164645
565.021	0.0164560
565.099	0.0165261
565.177	0.0165867
565.255	0.0165069
565.333	0.0165062
565.411	0.0166258
565.489	0.0167139
565.567	0.0165363
565.646	0.0164566
565.724	0.0165533
565.802	0.0166500
565.880	0.0165836
565.958	0.0164303
566.036	0.0164703
566.114	0.0165237
566.192	0.0166138
566.271	0.0166258
566.349	0.0165500
566.427	0.0165326
566.505	0.0165630
566.583	0.0166517
566.661	0.0165864
566.739	0.0165305
566.817	0.0164877
566.896	0.0165749
566.974	0.0165561
567.052	0.0165473
567.130	0.0165952
567.208	0.0167529
567.286	0.0166836
567.364	0.0165035
567.442	0.0165259
567.521	0.0165179
567.599	0.0166053
567.677	0.0165493
567.755	0.0166212
567.833	0.0165962
567.911	0.0167384
567.989	0.0166254
568.067	0.0165903
568.146	0.0167764
568.224	0.0165730
568.302	0.0167101
568.380	0.0166018
568.458	0.0166698
568.536	0.0166536
568.614	0.0166908
568.692	0.0167060
568.771	0.0165493
568.849	0.0165018
568.927	0.0167427
569.005	0.0165428
569.083	0.0167018
569.161	0.0165356
569.239	0.0166622
569.317	0.0166914
569.396	0.0165571
569.474	0.0166126
569.552	0.0165562
569.630	0.0165504
569.708	0.0165632
569.786	0.0167206
569.864	0.0166824
569.942	0.0166495
570.021	0.0166850
570.099	0.0165965
570.177	0.0166682
570.255	0.0166258
570.333	0.0167010
570.411	0.0166192
570.489	0.0165996
570.567	0.0166504
570.646	0.0165525
570.724	0.0166860
570.802	0.0165916
570.880	0.0166927
570.958	0.0166026
571.036	0.0166091
571.114	0.0167357
571.192	0.0165090
571.271	0.0166818
571.349	0.0166471
571.427	0.0166083
571.505	0.0165256
571.583	0.0165897
571.661	0.0166704
571.739	0.0166767
571.817	0.0166843
571.896	0.0166218
571.974	0.0164481
572.052	0.0164954
572.130	0.0167712
572.208	0.0166433
572.286	0.0165781
572.364	0.0165742
572.442	0.0166222
572.521	0.0164404
572.599	0.0165817
572.677	0.0165495
572.755	0.0167059
572.833	0.0167774
572.911	0.0165942
572.989	0.0166702
573.067	0.0166643
573.146	0.0164881
573.224	0.0165801
573.302	0.0166523
573.380	0.0166975
573.458	0.0166769
573.536	0.0165633
573.614	0.0165224
573.692	0.0165555
573.771	0.0166015
573.849	0.0167561
573.927	0.0166497
574.005	0.0165524
574.083	0.0165405
574.161	0.0167247
574.239	0.0166409
574.317	0.0167123
574.396	0.0166927
574.474	0.0164584
574.552	0.0165607
574.630	0.0167394
574.708	0.0165923
574.786	0.0165966
574.864	0.0168041
574.942	0.0166571
575.021	0.0165666
575.099	0.0165820
575.177	0.0165594
575.255	0.0164949
575.333	0.0166001
575.411	0.0166189
575.489	0.0167204
575.567	0.0165844
575.646	0.0165159
575.724	0.0167270
575.802	0.0166980
575.880	0.0166276
575.958	0.0166194
576.036	0.0166649
576.114	0.0165454
576.192	0.0165918
576.271	0.0166930
576.349	0.0166662
576.427	0.0165537
576.505	0.0165127
576.583	0.0166947
576.661	0.0167191
576.739	0.0166264
576.817	0.0166546
576.896	0.0167206
576.974	0.0165585
577.052	0.0166336
577.130	0.0166055
577.208	0.0166389
577.286	0.0165694
577.364	0.0166931
577.442	0.0166669
577.521	0.0165074
577.599	0.0166676
577.677	0.0166569
577.755	0.0165874
577.833	0.0166274
577.911	0.0166744
577.989	0.0166395
578.067	0.0165636
578.146	0.0165773
578.224	0.0165768
578.302	0.0166177
578.380	0.0165036
578.458	0.0166667
578.536	0.0166411
578.614	0.0166850
578.692	0.0166340
578.771	0.0165759
578.849	0.0166912
578.927	0.0166759
579.005	0.0166837
579.083	0.0165662
579.161	0.0165608
579.239	0.0165704
579.317	0.0165921
579.396	0.0167064
579.474	0.0164862
579.552	0.0166167
579.630	0.0167109
579.708	0.0165304
579.786	0.0165238
579.864	0.0165433
579.942	0.0165693
580.021	0.0165737
580.099	0.0165806
580.177	0.0165550
580.255	0.0165500
580.333	0.0165929
580.411	0.0165292
580.489	0.0165341
580.567	0.0165823
580.646	0.0166210
580.724	0.0165815
580.802	0.0165805
580.880	0.0166542
580.958	0.0166302
581.036	0.0165493
581.114	0.0165790
581.192	0.0164952
581.271	0.0166031
581.349	0.0167741
581.427	0.0165744
581.505	0.0165542
581.583	0.0166189
581.661	0.0166431
581.739	0.0166995
581.817	0.0165682
581.896	0.0166386
581.974	0.0164992
582.052	0.0165729
582.130	0.0166561
582.208	0.0164891
582.286	0.0166212
582.364	0.0166043
582.442	0.0165455
582.521	0.0165958
582.599	0.0165781
582.677	0.0166244
582.755	0.0165958
582.833	0.0165746
582.911	0.0165725
582.989	0.0166510
583.067	0.0167179
583.146	0.0166363
583.224	0.0166232
583.302	0.0166566
583.380	0.0165362
583.458	0.0166737
583.536	0.0165775
583.614	0.0165405
583.692	0.0165720
583.771	0.0165845
583.849	0.0166152
583.927	0.0165697
584.005	0.0165474
584.083	0.0166518
584.161	0.0165260
584.239	0.0164581
584.317	0.0166544
584.396	0.0166621
584.474	0.0165263
584.552	0.0165102
584.630	0.0166047
584.708	0.0164629
584.786	0.0164862
584.864	0.0166591
584.942	0.0166052
585.021	0.0165992
585.099	0.0164735
585.177	0.0165028
585.255	0.0164665
585.333	0.0165371
585.411	0.0165347
585.489	0.0165420
585.567	0.0163666
585.646	0.0164160
585.724	0.0163856
585.802	0.0165089
585.880	0.0165486
585.958	0.0163399
586.036	0.0163536
586.114	0.0164529
586.192	0.0164451
586.271	0.0164247
586.349	0.0163938
586.427	0.0163802
586.505	0.0165649
586.583	0.0165167
586.661	0.0165446
586.739	0.0164517
586.817	0.0164570
586.896	0.0162720
586.974	0.0163592
587.052	0.0164689
587.130	0.0165017
587.208	0.0164876
587.286	0.0164803
587.364	0.0165759
587.442	0.0165578
587.521	0.0165060
587.599	0.0164248
587.677	0.0164593
587.755	0.0164928
587.833	0.0164391
587.911	0.0164954
587.989	0.0165325
588.067	0.0166351
588.146	0.0166241
588.224	0.0164880
588.302	0.0164678
588.380	0.0166080
588.458	0.0166492
588.536	0.0166487
588.614	0.0164625
588.692	0.0165572
588.771	0.0166345
588.849	0.0165002
588.927	0.0164558
589.005	0.0165156
589.083	0.0164853
589.161	0.0165733
589.239	0.0165771
589.317	0.0165150
589.396	0.0165192
589.474	0.0165764
589.552	0.0164239
589.630	0.0166180
589.708	0.0165874
589.786	0.0164983
589.864	0.0164816
589.942	0.0165529
590.021	0.0165833
590.099	0.0165639
590.177	0.0166237
590.255	0.0165874
590.333	0.0166140
590.411	0.0167057
590.489	0.0166314
590.567	0.0165763
590.646	0.0166842
590.724	0.0166290
590.802	0.0165658
590.880	0.0167696
590.958	0.0167113
591.036	0.0165479
591.114	0.0166049
591.192	0.0166524
591.271	0.0165885
591.349	0.0166130
591.427	0.0165297
591.505	0.0165218
591.583	0.0165897
591.661	0.0165367
591.739	0.0165994
591.817	0.0164962
591.896	0.0165811
591.974	0.0165120
592.052	0.0165260
592.130	0.0164698
592.208	0.0163734
592.286	0.0165994
592.364	0.0164670
592.442	0.0166107
592.521	0.0165790
592.599	0.0166180
592.677	0.0166170
592.755	0.0165636
592.833	0.0167078
592.911	0.0165487
592.989	0.0167015
593.067	0.0167117
593.146	0.0166535
593.224	0.0167732
593.302	0.0168011
593.380	0.0167432
593.458	0.0166910
593.536	0.0168296
593.614	0.0167267
593.692	0.0166163
593.771	0.0166206
593.849	0.0166650
593.927	0.0167652
594.005	0.0166437
594.083	0.0166859
594.161	0.0167577
594.239	0.0167062
594.317	0.0167453
594.396	0.0166969
594.474	0.0167373
594.552	0.0167426
594.630	0.0167871
594.708	0.0167851
594.786	0.0166408
594.864	0.0167204
594.942	0.0168170
595.021	0.0166602
595.099	0.0167519
595.177	0.0167001
595.255	0.0168025
595.333	0.0166069
595.411	0.0166494
595.489	0.0167919
595.567	0.0166827
595.646	0.0167750
595.724	0.0167139
595.802	0.0166704
595.880	0.0168451
595.958	0.0167992
596.036	0.0167422
596.114	0.0167853
596.192	0.0167175
596.271	0.0168831
596.349	0.0166682
596.427	0.0166164
596.505	0.0167648
596.583	0.0166922
596.661	0.0166773
596.739	0.0167860
596.817	0.0166494
596.896	0.0166879
596.974	0.0167436
597.052	0.0166684
597.130	0.0165905
597.208	0.0166051
597.286	0.0166621
597.364	0.0167117
597.442	0.0166331
597.521	0.0165483
597.599	0.0166454
597.677	0.0167445
597.755	0.0166414
597.833	0.0166938
597.911	0.0166314
597.989	0.0167014
598.067	0.0167506
598.146	0.0166758
598.224	0.0167085
598.302	0.0166847
598.380	0.0167643
598.458	0.0166200
598.536	0.0166920
598.614	0.0166348
598.692	0.0165749
598.771	0.0166313
598.849	0.0166116
598.927	0.0165774
599.005	0.0165694
599.083	0.0165550
599.161	0.0166641
599.239	0.0166866
599.317	0.0166398
599.396	0.0167488
599.474	0.0166839
599.552	0.0165738
599.630	0.0167124
599.708	0.0167265
599.786	0.0166924
599.864	0.0166940
599.942	0.0166145
600.021	0.0165766
600.099	0.0167310
600.177	0.0167614
600.255	0.0166347
600.333	0.0165788
600.411	0.0166275
600.489	0.0166420
600.567	0.0166553
600.646	0.0166619
600.724	0.0166858
600.802	0.0165732
600.880	0.0165968
600.958	0.0165562
601.036	0.0166270
601.114	0.0165676
601.192	0.0166189
601.271	0.0165961
601.349	0.0164980
601.427	0.0165197
601.505	0.0166373
601.583	0.0165229
601.661	0.0164922
601.739	0.0165077
601.817	0.0164693
601.896	0.0165853
601.974	0.0165131
602.052	0.0164768
602.130	0.0165698
602.208	0.0166346
602.286	0.0164532
602.364	0.0165463
602.442	0.0164526
602.521	0.0163502
602.599	0.0164135
602.677	0.0165376
602.755	0.0164899
602.833	0.0165063
602.911	0.0164444
602.989	0.0164456
603.067	0.0164417
603.146	0.0164217
603.224	0.0164147
603.302	0.0164789
603.380	0.0165055
603.458	0.0164218
603.536	0.0164494
603.614	0.0164851
603.692	0.0164730
603.771	0.0163631
603.849	0.0163586
603.927	0.0163036
604.005	0.0164684
604.083	0.0164888
604.161	0.0164854
604.239	0.0164638
604.317	0.0164771
604.396	0.0164354
604.474	0.0165559
604.552	0.0164450
604.630	0.0165105
604.708	0.0166319
604.786	0.0164246
604.864	0.0164492
604.942	0.0165235
605.021	0.0165385
605.099	0.0164507
605.177	0.0164466
605.255	0.0164973
605.333	0.0164918
605.411	0.0165073
605.489	0.0165047
605.567	0.0164947
605.646	0.0164659
605.724	0.0164912
605.802	0.0164028
605.880	0.0165757
605.958	0.0166026
606.036	0.0165553
606.114	0.0165701
606.192	0.0166297
606.271	0.0165553
606.349	0.0165270
606.427	0.0165369
606.505	0.0167064
606.583	0.0165799
606.661	0.0166402
606.739	0.0165993
606.817	0.0166073
606.896	0.0164661
606.974	0.0165929
607.052	0.0165829
607.130	0.0166453
607.208	0.0166011
607.286	0.0165626
607.364	0.0164822
607.442	0.0165532
607.521	0.0165905
607.599	0.0166599
607.677	0.0166640
607.755	0.0164258
607.833	0.0164294
607.911	0.0166315
607.989	0.0166026
608.067	0.0165097
608.146	0.0167039
608.224	0.0166854
608.302	0.0165711
608.380	0.0166080
608.458	0.0166545
608.536	0.0165710
608.614	0.0166266
608.692	0.0165946
608.771	0.0167025
608.849	0.0165461
608.927	0.0164465
609.005	0.0167819
609.083	0.0165977
609.161	0.0166381
609.239	0.0166422
609.317	0.0166300
609.396	0.0166074
609.474	0.0166579
609.552	0.0166830
609.630	0.0166422
609.708	0.0165196
609.786	0.0166492
609.864	0.0167661
609.942	0.0166839
610.021	0.0166192
610.099	0.0166621
610.177	0.0166022
610.255	0.0167010
610.333	0.0166518
610.411	0.0166019
610.489	0.0165770
610.567	0.0166430
610.646	0.0167035
610.724	0.0165501
610.802	0.0165937
610.880	0.0167158
610.958	0.0165921
611.036	0.0164993
611.114	0.0165385
611.192	0.0165477
611.271	0.0166453
611.349	0.0165088
611.427	0.0165421
611.505	0.0166133
611.583	0.0165805
611.661	0.0165392
611.739	0.0164764
611.817	0.0165612
611.896	0.0165637
611.974	0.0166259
612.052	0.0165541
612.130	0.0164830
612.208	0.0165383
612.286	0.0165480
612.364	0.0164716
612.442	0.0166592
612.521	0.0166697
612.599	0.0166360
612.677	0.0165524
612.755	0.0166367
612.833	0.0165630
612.911	0.0164875
612.989	0.0164395
613.067	0.0167520
613.146	0.0165578
613.224	0.0164420
613.302	0.0166801
613.380	0.0164446
613.458	0.0165905
613.536	0.0166764
613.614	0.0166775
613.692	0.0166231
613.771	0.0165186
613.849	0.0164876
613.927	0.0165063
614.005	0.0166185
614.083	0.0165002
614.161	0.0165309
614.239	0.0164616
614.317	0.0166409
614.396	0.0164862
614.474	0.0165096
614.552	0.0165327
614.630	0.0165668
614.708	0.0165075
614.786	0.0164940
614.864	0.0165071
614.942	0.0166311
615.021	0.0166386
615.099	0.0165128
615.177	0.0166557
615.255	0.0167150
615.333	0.0165454
615.411	0.0165083
615.489	0.0166896
615.567	0.0167139
615.646	0.0165862
615.724	0.0166797
615.802	0.0167658
615.880	0.0165521
615.958	0.0167104
616.036	0.0167352
616.114	0.0166381
616.192	0.0165800
616.271	0.0165786
616.349	0.0166266
616.427	0.0166993
616.505	0.0167125
616.583	0.0167348
616.661	0.0166357
616.739	0.0166862
616.817	0.0167487
616.896	0.0166396
616.974	0.0165994
617.052	0.0166376
617.130	0.0167072
617.208	0.0165974
617.286	0.0166143
617.364	0.0166779
617.442	0.0167393
617.521	0.0166424
617.599	0.0166546
617.677	0.0166333
617.755	0.0165480
617.833	0.0166639
617.911	0.0167791
617.989	0.0168238
618.067	0.0167884
618.146	0.0166717
618.224	0.0167191
618.302	0.0166095
618.380	0.0167297
618.458	0.0168130
618.536	0.0165946
618.614	0.0167060
618.692	0.0167170
618.771	0.0167545
618.849	0.0167667
618.927	0.0167815
619.005	0.0168952
619.083	0.0167529
619.161	0.0166746
619.239	0.0167260
619.317	0.0168430
619.396	0.0168536
619.474	0.0166818
619.552	0.0166945
619.630	0.0167088
619.708	0.0168056
619.786	0.0167420
619.864	0.0167767
619.942	0.0166357
620.021	0.0166272
620.099	0.0167094
620.177	0.0167086
620.255	0.0167484
620.333	0.0166058
620.411	0.0165946
620.489	0.0166857
620.567	0.0166250
620.646	0.0167409
620.724	0.0167062
620.802	0.0165739
620.880	0.0166760
620.958	0.0167718
621.036	0.0166435
621.114	0.0167358
621.192	0.0166251
621.271	0.0166764
621.349	0.0167730
621.427	0.0166444
621.505	0.0166808
621.583	0.0167258
621.661	0.0166508
621.739	0.0166832
621.817	0.0166388
621.896	0.0166618
621.974	0.0166735
622.052	0.0165041
622.130	0.0165514
622.208	0.0166431
622.286	0.0166492
622.364	0.0166240
622.442	0.0166234
622.521	0.0167362
622.599	0.0166388
622.677	0.0166141
622.755	0.0166951
622.833	0.0166673
622.911	0.0166168
622.989	0.0164694
623.067	0.0164566
623.146	0.0166148
623.224	0.0165745
623.302	0.0164500
623.380	0.0164133
623.458	0.0165226
623.536	0.0166026
623.614	0.0165749
623.692	0.0164473
623.771	0.0165751
623.849	0.0164503
623.927	0.0164874
624.005	0.0166917
624.083	0.0166451
624.161	0.0167029
624.239	0.0165191
624.317	0.0165288
624.396	0.0165661
624.474	0.0165931
624.552	0.0166106
624.630	0.0164448
624.708	0.0164312
624.786	0.0166477
624.864	0.0165031
624.942	0.0165633
625.021	0.0166016
625.099	0.0165559
625.177	0.0165537
625.255	0.0165606
625.333	0.0167091
625.411	0.0165077
625.489	0.0164715
625.567	0.0165141
625.646	0.0164529
625.724	0.0165266
625.802	0.0165322
625.880	0.0165736
625.958	0.0164809
626.036	0.0164594
626.114	0.0165913
626.192	0.0166276
626.271	0.0166317
626.349	0.0164658
626.427	0.0165609
626.505	0.0165876
626.583	0.0165012
626.661	0.0165553
626.739	0.0165415
626.817	0.0166663
626.896	0.0165685
626.974	0.0165453
627.052	0.0165913
627.130	0.0166622
627.208	0.0165875
627.286	0.0164195
627.364	0.0166105
627.442	0.0164880
627.521	0.0164006
627.599	0.0165636
627.677	0.0165981
627.755	0.0165585
627.833	0.0166357
627.911	0.0165614
627.989	0.0165536
628.067	0.0165212
628.146	0.0165775
628.224	0.0164874
628.302	0.0167027
628.380	0.0166518
628.458	0.0165070
628.536	0.0166320
628.614	0.0165503
628.692	0.0163757
628.771	0.0166330
628.849	0.0166798
628.927	0.0165238
629.005	0.0165585
629.083	0.0164976
629.161	0.0165046
629.239	0.0165657
629.317	0.0166261
629.396	0.0166209
629.474	0.0166367
629.552	0.0165855
629.630	0.0166139
629.708	0.0165406
629.786	0.0165993
629.864	0.0165108
629.942	0.0165532
630.021	0.0166757
630.099	0.0166148
630.177	0.0165952
630.255	0.0166275
630.333	0.0165616
630.411	0.0165618
630.489	0.0165565
630.567	0.0166760
630.646	0.0164910
630.724	0.0165936
630.802	0.0167046
630.880	0.0166035
630.958	0.0165146
631.036	0.0165456
631.114	0.0165250
631.192	0.0165364
631.271	0.0165643
631.349	0.0164727
631.427	0.0165591
631.505	0.0165027
631.583	0.0165331
631.661	0.0165686
631.739	0.0165656
631.817	0.0165143
631.896	0.0165715
631.974	0.0165526
632.052	0.0165131
632.130	0.0163635
632.208	0.0164893
632.286	0.0167467
632.364	0.0165713
632.442	0.0165968
632.521	0.0166068
632.599	0.0166158
632.677	0.0164835
632.755	0.0164715
632.833	0.0165742
632.911	0.0165092
632.989	0.0166814
633.067	0.0165907
633.146	0.0166275
633.224	0.0165401
633.302	0.0166352
633.380	0.0166042
633.458	0.0164384
633.536	0.0165910
633.614	0.0166970
633.692	0.0166372
633.771	0.0166152
633.849	0.0166211
633.927	0.0167161
634.005	0.0165537
634.083	0.0167082
634.161	0.0165526
634.239	0.0165403
634.317	0.0165636
634.396	0.0166147
634.474	0.0165286
634.552	0.0165982
634.630	0.0165533
634.708	0.0167325
634.786	0.0166475
634.864	0.0166643
634.942	0.0165622
635.021	0.0165934
635.099	0.0165950
635.177	0.0164680
635.255	0.0166272
635.333	0.0166287
635.411	0.0165171
635.489	0.0165215
635.567	0.0165504
635.646	0.0166617
635.724	0.0166768
635.802	0.0165549
635.880	0.0164624
635.958	0.0165480
636.036	0.0165499
636.114	0.0165858
636.192	0.0165121
636.271	0.0166029
636.349	0.0166987
636.427	0.0166640
636.505	0.0164684
636.583	0.0165759
636.661	0.0166137
636.739	0.0165932
636.817	0.0165975
636.896	0.0167170
636.974	0.0165825
637.052	0.0166103
637.130	0.0165392
637.208	0.0167721
637.286	0.0166752
637.364	0.0166496
637.442	0.0165508
637.521	0.0165578
637.599	0.0166447
637.677	0.0167474
637.755	0.0166643
637.833	0.0165026
637.911	0.0167212
637.989	0.0166210
638.067	0.0165741
638.146	0.0165788
638.224	0.0167271
638.302	0.0166967
638.380	0.0166146
638.458	0.0167867
638.536	0.0166892
638.614	0.0166871
638.692	0.0166521
638.771	0.0166239
638.849	0.0166475
638.927	0.0167746
639.005	0.0168364
639.083	0.0167137
639.161	0.0167490
639.239	0.0167877
639.317	0.0167448
639.396	0.0167184
639.474	0.0167266
639.552	0.0167274
639.630	0.0167174
639.708	0.0168143
639.786	0.0166655
639.864	0.0167300
639.942	0.0168159
640.021	0.0168330
640.099	0.0169160
640.177	0.0167592
640.255	0.0167692
640.333	0.0169033
640.411	0.0167345
640.489	0.0166552
640.567	0.0169249
640.646	0.0167773
640.724	0.0167695
640.802	0.0167196
640.880	0.0167095
640.958	0.0166963
641.036	0.0168428
641.114	0.0167920
641.192	0.0168340
641.271	0.0168608
641.349	0.0167947
641.427	0.0167413
641.505	0.0169138
641.583	0.0168231
641.661	0.0168977
641.739	0.0167198
641.817	0.0168892
641.896	0.0168394
641.974	0.0167795
642.052	0.0167287
642.130	0.0167055
642.208	0.0167614
642.286	0.0167902
642.364	0.0167426
642.442	0.0167034
642.521	0.0168382
642.599	0.0167013
642.677	0.0167017
642.755	0.0166583
642.833	0.0165163
642.911	0.0166476
642.989	0.0167622
643.067	0.0166627
643.146	0.0166817
643.224	0.0166555
643.302	0.0167318
643.380	0.0167242
643.458	0.0166773
643.536	0.0166322
643.614	0.0165399
643.692	0.0167268
643.771	0.0166254
643.849	0.0167150
643.927	0.0165591
644.005	0.0166112
644.083	0.0165977
644.161	0.0167233
644.239	0.0165538
644.317	0.0166846
644.396	0.0166225
644.474	0.0166867
644.552	0.0166646
644.630	0.0167554
644.708	0.0167290
644.786	0.0166563
644.864	0.0165802
644.942	0.0165908
645.021	0.0165904
645.099	0.0166812
645.177	0.0166077
645.255	0.0167849
645.333	0.0166248
645.411	0.0164531
645.489	0.0166387
645.567	0.0165842
645.646	0.0167583
645.724	0.0166406
645.802	0.0165720
645.880	0.0167514
645.958	0.0165327
646.036	0.0166620
646.114	0.0167196
646.192	0.0165895
646.271	0.0166570
646.349	0.0167076
646.427	0.0166578
646.505	0.0167841
646.583	0.0166679
646.661	0.0167221
646.739	0.0165166
646.817	0.0168204
646.896	0.0166761
646.974	0.0166481
647.052	0.0166466
647.130	0.0166389
647.208	0.0166334
647.286	0.0166850
647.364	0.0166346
647.442	0.0165942
647.521	0.0167017
647.599	0.0167789
647.677	0.0167636
647.755	0.0167310
647.833	0.0165810
647.911	0.0166884
647.989	0.0166492
648.067	0.0167227
648.146	0.0167080
648.224	0.0167032
648.302	0.0166655
648.380	0.0168001
648.458	0.0167316
648.536	0.0167509
648.614	0.0166846
648.692	0.0167348
648.771	0.0167471
648.849	0.0167655
648.927	0.0166705
649.005	0.0167376
649.083	0.0165208
649.161	0.0166486
649.239	0.0167443
649.317	0.0165816
649.396	0.0166663
649.474	0.0166678
649.552	0.0165363
649.630	0.0165707
649.708	0.0167929
649.786	0.0167775
649.864	0.0166843
649.942	0.0166308
650.021	0.0166250
650.099	0.0165508
650.177	0.0165318
650.255	0.0165707
650.333	0.0166216
650.411	0.0166062
650.489	0.0165689
650.567	0.0164480
650.646	0.0166366
650.724	0.0166254
650.802	0.0164767
650.880	0.0166126
650.958	0.0165718
651.036	0.0166299
651.114	0.0166202
651.192	0.0166273
651.271	0.0165923
651.349	0.0165196
651.427	0.0164904
651.505	0.0164339
651.583	0.0164686
651.661	0.0164057
651.739	0.0165055
651.817	0.0164160
651.896	0.0165182
651.974	0.0165250
652.052	0.0164666
652.130	0.0164372
652.208	0.0165366
652.286	0.0165929
652.364	0.0165362
652.442	0.0165590
652.521	0.0165083
652.599	0.0164141
652.677	0.0166703
652.755	0.0165755
652.833	0.0165386
652.911	0.0164265
652.989	0.0164963
653.067	0.0165237
653.146	0.0164289
653.224	0.0164639
653.302	0.0166264
653.380	0.0165488
653.458	0.0165023
653.536	0.0164767
653.614	0.0165322
653.692	0.0165665
653.771	0.0164481
653.849	0.0164890
653.927	0.0165591
654.005	0.0164909
654.083	0.0164979
654.161	0.0165761
654.239	0.0165542
654.317	0.0165083
654.396	0.0165038
654.474	0.0165469
654.552	0.0164964
654.630	0.0165150
654.708	0.0165444
654.786	0.0164581
654.864	0.0165726
654.942	0.0164050
655.021	0.0164961
655.099	0.0166637
655.177	0.0165733
655.255	0.0163904
655.333	0.0166028
655.411	0.0166617
655.489	0.0165292
655.567	0.0165055
655.646	0.0165306
655.724	0.0165958
655.802	0.0165660
655.880	0.0165442
655.958	0.0165945
656.036	0.0166288
656.114	0.0165096
656.192	0.0164802
656.271	0.0165910
656.349	0.0166480
656.427	0.0166483
656.505	0.0165840
656.583	0.0165222
656.661	0.0166099
656.739	0.0164491
656.817	0.0166106
656.896	0.0166469
656.974	0.0163904
657.052	0.0166047
657.130	0.0165985
657.208	0.0165162
657.286	0.0165376
657.364	0.0165081
657.442	0.0165027
657.521	0.0165739
657.599	0.0165750
657.677	0.0166476
657.755	0.0165074
657.833	0.0166293
657.911	0.0165775
657.989	0.0165359
658.067	0.0165215
658.146	0.0166322
658.224	0.0166364
658.302	0.0165781
658.380	0.0166026
658.458	0.0165353
658.536	0.0165259
658.614	0.0166685
658.692	0.0166691
658.771	0.0164664
658.849	0.0165128
658.927	0.0167151
659.005	0.0165557
659.083	0.0165138
659.161	0.0166334
659.239	0.0165705
659.317	0.0165254
659.396	0.0166393
659.474	0.0164722
659.552	0.0165987
659.630	0.0166287
659.708	0.0165063
659.786	0.0165932
659.864	0.0166200
659.942	0.0164950
660.021	0.0166703
660.099	0.0165488
660.177	0.0166476
660.255	0.0165424
660.333	0.0166235
660.411	0.0167828
660.489	0.0165498
660.567	0.0166489
660.646	0.0164908
660.724	0.0165407
660.802	0.0166666
660.880	0.0164979
660.958	0.0166578
661.036	0.0165524
661.114	0.0165576
661.192	0.0166135
661.271	0.0165520
661.349	0.0164861
661.427	0.0166215
661.505	0.0165462
661.583	0.0166913
661.661	0.0165971
661.739	0.0165325
661.817	0.0164988
661.896	0.0166080
661.974	0.0165024
662.052	0.0166323
662.130	0.0165613
662.208	0.0164216
662.286	0.0166641
662.364	0.0166209
662.442	0.0165097
662.521	0.0165224
662.599	0.0166001
662.677	0.0166502
662.755	0.0166192
662.833	0.0166908
662.911	0.0166174
662.989	0.0166093
663.067	0.0164679
663.146	0.0164828
663.224	0.0164716
663.302	0.0164977
663.380	0.0166648
663.458	0.0166207
663.536	0.0166297
663.614	0.0164881
663.692	0.0167321
663.771	0.0165810
663.849	0.0165534
663.927	0.0164419
664.005	0.0166007
664.083	0.0165824
664.161	0.0165223
664.239	0.0164914
664.317	0.0166036
664.396	0.0164992
664.474	0.0166527
664.552	0.0165875
664.630	0.0165032
664.708	0.0165645
664.786	0.0166144
664.864	0.0165753
664.942	0.0165251
665.021	0.0165591
665.099	0.0165871
665.177	0.0166125
665.255	0.0164652
665.333	0.0165213
665.411	0.0165202
665.489	0.0165950
665.567	0.0165469
665.646	0.0166566
665.724	0.0164996
665.802	0.0165763
665.880	0.0166073
665.958	0.0166042
666.036	0.0165546
666.114	0.0165064
666.192	0.0166644
666.271	0.0165411
666.349	0.0165572
666.427	0.0165859
666.505	0.0165791
666.583	0.0165417
666.661	0.0165501
666.739	0.0166205
666.817	0.0167168
666.896	0.0165622
666.974	0.0164607
667.052	0.0165582
667.130	0.0165550
667.208	0.0165763
667.286	0.0165932
667.364	0.0166033
667.442	0.0164232
667.521	0.0167346
667.599	0.0165440
667.677	0.0165756
667.755	0.0165923
667.833	0.0166803
667.911	0.0165396
667.989	0.0165580
668.067	0.0165740
668.146	0.0165047
668.224	0.0165499
668.302	0.0167080
668.380	0.0166642
668.458	0.0165589
668.536	0.0165556
668.614	0.0166518
668.692	0.0164664
668.771	0.0165784
668.849	0.0166597
668.927	0.0165894
669.005	0.0165355
669.083	0.0166669
669.161	0.0166762
669.239	0.0165806
669.317	0.0165276
669.396	0.0167824
669.474	0.0165309
669.552	0.0166357
669.630	0.0167611
669.708	0.0166936
669.786	0.0167010
669.864	0.0165886
669.942	0.0164845
670.021	0.0166409
670.099	0.0165693
670.177	0.0164777
670.255	0.0166045
670.333	0.0165092
670.411	0.0166574
670.489	0.0166447
670.567	0.0165012
670.646	0.0165327
670.724	0.0166456
670.802	0.0165305
670.880	0.0165805
670.958	0.0165887
671.036	0.0165662
671.114	0.0166643
671.192	0.0165710
671.271	0.0166758
671.349	0.0165786
671.427	0.0165118
671.505	0.0165884
671.583	0.0164080
671.661	0.0165710
671.739	0.0166631
671.817	0.0165028
671.896	0.0164830
671.974	0.0165867
672.052	0.0165266
672.130	0.0167278
672.208	0.0166631
672.286	0.0166215
672.364	0.0165455
672.442	0.0164424
672.521	0.0167570
672.599	0.0166293
672.677	0.0166761
672.755	0.0166856
672.833	0.0167055
672.911	0.0166716
672.989	0.0165611
673.067	0.0166022
673.146	0.0166872
673.224	0.0166812
673.302	0.0167505
673.380	0.0166877
673.458	0.0166583
673.536	0.0165429
673.614	0.0166635
673.692	0.0167254
673.771	0.0166350
673.849	0.0165514
673.927	0.0166097
674.005	0.0166263
674.083	0.0165836
674.161	0.0166427
674.239	0.0165247
674.317	0.0165881
674.396	0.0165830
674.474	0.0167039
674.552	0.0166824
674.630	0.0165915
674.708	0.0165556
674.786	0.0165030
674.864	0.0165407
674.942	0.0165385
675.021	0.0166135
675.099	0.0166331
675.177	0.0164689
675.255	0.0165759
675.333	0.0164779
675.411	0.0165299
675.489	0.0165617
675.567	0.0164661
675.646	0.0165115
675.724	0.0165649
675.802	0.0166372
675.880	0.0165403
675.958	0.0164626
676.036	0.0163862
676.114	0.0165897
676.192	0.0166288
676.271	0.0164961
676.349	0.0166476
676.427	0.0166273
676.505	0.0167726
676.583	0.0167070
676.661	0.0165784
676.739	0.0165247
676.817	0.0165827
676.896	0.0166125
676.974	0.0166696
677.052	0.0166251
677.130	0.0166989
677.208	0.0166283
677.286	0.0167206
677.364	0.0165921
677.442	0.0166121
677.521	0.0165665
677.599	0.0164977
677.677	0.0165851
677.755	0.0165172
677.833	0.0164554
677.911	0.0163320
677.989	0.0164529
678.067	0.0164995
678.146	0.0164117
678.224	0.0164377
678.302	0.0164413
678.380	0.0164252
678.458	0.0163232
678.536	0.0163644
678.614	0.0163705
678.692	0.0162658
678.771	0.0162209
678.849	0.0161761
678.927	0.0163893
679.005	0.0163821
679.083	0.0165650
679.161	0.0164400
679.239	0.0164819
679.317	0.0163531
679.396	0.0164001
679.474	0.0164123
679.552	0.0165191
679.630	0.0164896
679.708	0.0164436
679.786	0.0164773
679.864	0.0165704
679.942	0.0166910
680.021	0.0165036
680.099	0.0165138
680.177	0.0166267
680.255	0.0166257
680.333	0.0164546
680.411	0.0164254
680.489	0.0165423
680.567	0.0165526
680.646	0.0163965
680.724	0.0164398
680.802	0.0164165
680.880	0.0164098
680.958	0.0164415
681.036	0.0163450
681.114	0.0163940
681.192	0.0163068
681.271	0.0164257
681.349	0.0165772
681.427	0.0164998
681.505	0.0163916
681.583	0.0164285
681.661	0.0163222
681.739	0.0163525
681.817	0.0163853
681.896	0.0166034
681.974	0.0163786
682.052	0.0166599
682.130	0.0165346
682.208	0.0165002
682.286	0.0163642
682.364	0.0164581
682.442	0.0164211
682.521	0.0163885
682.599	0.0164832
682.677	0.0164077
682.755	0.0164056
682.833	0.0164040
682.911	0.0162843
682.989	0.0163091
683.067	0.0162085
683.146	0.0162390
683.224	0.0162684
683.302	0.0161686
683.380	0.0162818
683.458	0.0163378
683.536	0.0163204
683.614	0.0163143
683.692	0.0163212
683.771	0.0163799
683.849	0.0165221
683.927	0.0165414
684.005	0.0165503
684.083	0.0165983
684.161	0.0166716
684.239	0.0167748
684.317	0.0167334
684.396	0.0168008
684.474	0.0167854
684.552	0.0167406
684.630	0.0167982
684.708	0.0168658
684.786	0.0166534
684.864	0.0165989
684.942	0.0164891
685.021	0.0165172
685.099	0.0164193
685.177	0.0164594
685.255	0.0163692
685.333	0.0161743
685.411	0.0162626
685.489	0.0162756
685.567	0.0163013
685.646	0.0161468
685.724	0.0161903
685.802	0.0160264
685.880	0.0161244
685.958	0.0162200
686.036	0.0161844
686.114	0.0161322
686.192	0.0161644
686.271	0.0163456
686.349	0.0162749
686.427	0.0164547
686.505	0.0163804
686.583	0.0165337
686.661	0.0166338
686.739	0.0166055
686.817	0.0167184
686.896	0.0168050
686.974	0.0167368
687.052	0.0167496
687.130	0.0166531
687.208	0.0166561
687.286	0.0167917
687.364	0.0167435
687.442	0.0166705
687.521	0.0166566
687.599	0.0167453
687.677	0.0166994
687.755	0.0166573
687.833	0.0167043
687.911	0.0167877
687.989	0.0167075
688.067	0.0166243
688.146	0.0165938
688.224	0.0166844
688.302	0.0167445
688.380	0.0168613
688.458	0.0167377
688.536	0.0166530
688.614	0.0167245
688.692	0.0167677
688.771	0.0166544
688.849	0.0166559
688.927	0.0167285
689.005	0.0166311
689.083	0.0165568
689.161	0.0165128
689.239	0.0164265
689.317	0.0164053
689.396	0.0164278
689.474	0.0163372
689.552	0.0162688
689.630	0.0162383
689.708	0.0162234
689.786	0.0163319
689.864	0.0162469
689.942	0.0161829
690.021	0.0163287
690.099	0.0163554
690.177	0.0163089
690.255	0.0165742
690.333	0.0165350
690.411	0.0164433
690.489	0.0167396
690.567	0.0167924
690.646	0.0168347
690.724	0.0169246
690.802	0.0170043
690.880	0.0169232
690.958	0.0169672
691.036	0.0170091
691.114	0.0169822
691.192	0.0169828
691.271	0.0168127
691.349	0.0167577
691.427	0.0169940
691.505	0.0167899
691.583	0.0167441
691.661	0.0167566
691.739	0.0165570
691.817	0.0165583
691.896	0.0164736
691.974	0.0162500
692.052	0.0163051
692.130	0.0162678
692.208	0.0161346
692.286	0.0162697
692.364	0.0163918
692.442	0.0161860
692.521	0.0162916
692.599	0.0163146
692.677	0.0164926
692.755	0.0165459
692.833	0.0164886
692.911	0.0166232
692.989	0.0166107
693.067	0.0167702
693.146	0.0167593
693.224	0.0168447
693.302	0.0168156
693.380	0.0167207
693.458	0.0166592
693.536	0.0165949
693.614	0.0166902
693.692	0.0165785
693.771	0.0166138
693.849	0.0164753
693.927	0.0163593
694.005	0.0163247
694.083	0.0162923
694.161	0.0163478
694.239	0.0161641
694.317	0.0163576
694.396	0.0163570
694.474	0.0162997
694.552	0.0165196
694.630	0.0163504
694.708	0.0164006
694.786	0.0165379
694.864	0.0165288
694.942	0.0166988
695.021	0.0167872
695.099	0.0168375
695.177	0.0169780
695.255	0.0169229
695.333	0.0170129
695.411	0.0171722
695.489	0.0171682
695.567	0.0171960
695.646	0.0171135
695.724	0.0168604
695.802	0.0169382
695.880	0.0169609
695.958	0.0170059
696.036	0.0167857
696.114	0.0168266
696.192	0.0167387
696.271	0.0166739
696.349	0.0166062
696.427	0.0166824
696.505	0.0166746
696.583	0.0166320
696.661	0.0164599
696.739	0.0165637
696.817	0.0164945
696.896	0.0165317
696.974	0.0164028
697.052	0.0164149
697.130	0.0164009
697.208	0.0164782
697.286	0.0164886
697.364	0.0164196
697.442	0.0164864
697.521	0.0165561
697.599	0.0165978
697.677	0.0164254
697.755	0.0165956
697.833	0.0166667
697.911	0.0163860
697.989	0.0165349
698.067	0.0166227
698.146	0.0167050
698.224	0.0167411
698.302	0.0167090
698.380	0.0165305
698.458	0.0166284
698.536	0.0167690
698.614	0.0166782
698.692	0.0165675
698.771	0.0166789
698.849	0.0165830
698.927	0.0166058
699.005	0.0166102
699.083	0.0165827
699.161	0.0165008
699.239	0.0165242
699.317	0.0165233
699.396	0.0166208
699.474	0.0166933
699.552	0.0165314
699.630	0.0166016
699.708	0.0165894
699.786	0.0168204
699.864	0.0168696
699.942	0.0167889
700.021	0.0167489
700.099	0.0167705
700.177	0.0165583
700.255	0.0166871
700.333	0.0167667
700.411	0.0167202
700.489	0.0167691
700.567	0.0167873
700.646	0.0168200
700.724	0.0167977
700.802	0.0167443
700.880	0.0167130
700.958	0.0166810
701.036	0.0167107
701.114	0.0169335
701.192	0.0168412
701.271	0.0168168
701.349	0.0168844
701.427	0.0169739
701.505	0.0170155
701.583	0.0170615
701.661	0.0171223
701.739	0.0169782
701.817	0.0169494
701.896	0.0168468
701.974	0.0169595
702.052	0.0167723
702.130	0.0165705
702.208	0.0165305
702.286	0.0162786
702.364	0.0163805
702.442	0.0164423
702.521	0.0161963
702.599	0.0160795
702.677	0.0160243
702.755	0.0159221
702.833	0.0160454
702.911	0.0158891
702.989	0.0158376
703.067	0.0158563
703.146	0.0160246
703.224	0.0161453
703.302	0.0160136
703.380	0.0162002
703.458	0.0162765
703.536	0.0163499
703.614	0.0162682
703.692	0.0162531
703.771	0.0162201
703.849	0.0162762
703.927	0.0162322
704.005	0.0161969
704.083	0.0162811
704.161	0.0162847
704.239	0.0162380
704.317	0.0162154
704.396	0.0163586
704.474	0.0163631
704.552	0.0162389
704.630	0.0164731
704.708	0.0162879
704.786	0.0163667
704.864	0.0165691
704.942	0.0166435
705.021	0.0166185
705.099	0.0169006
705.177	0.0169896
705.255	0.0169447
705.333	0.0171035
705.411	0.0172209
705.489	0.0171731
705.567	0.0172685
705.646	0.0172428
705.724	0.0172977
705.802	0.0174451
705.880	0.0172509
705.958	0.0172406
706.036	0.0171069
706.114	0.0169643
706.192	0.0169778
706.271	0.0168507
706.349	0.0167929
706.427	0.0166797
706.505	0.0164691
706.583	0.0163888
706.661	0.0162999
706.739	0.0161893
706.817	0.0162751
706.896	0.0160857
706.974	0.0160171
707.052	0.0161173
707.130	0.0161171
707.208	0.0161480
707.286	0.0162048
707.364	0.0161064
707.442	0.0162651
707.521	0.0164210
707.599	0.0164806
707.677	0.0166510
707.755	0.0167006
707.833	0.0168300
707.911	0.0169829
707.989	0.0170387
708.067	0.0171199
708.146	0.0169513
708.224	0.0169449
708.302	0.0170293
708.380	0.0168951
708.458	0.0167456
708.536	0.0166893
708.614	0.0167437
708.692	0.0167551
708.771	0.0166248
708.849	0.0164371
708.927	0.0165099
709.005	0.0165074
709.083	0.0164389
709.161	0.0163332
709.239	0.0163542
709.317	0.0162495
709.396	0.0163063
709.474	0.0162544
709.552	0.0162826
709.630	0.0163098
709.708	0.0161491
709.786	0.0162604
709.864	0.0161725
709.942	0.0161208
710.021	0.0162251
710.099	0.0161228
710.177	0.0161044
710.255	0.0161489
710.333	0.0161998
710.411	0.0163082
710.489	0.0163041
710.567	0.0163405
710.646	0.0164224
710.724	0.0165202
710.802	0.0167082
710.880	0.0167649
710.958	0.0169125
711.036	0.0168544
711.114	0.0169695
711.192	0.0171579
711.271	0.0170795
711.349	0.0171908
711.427	0.0170941
711.505	0.0171461
711.583	0.0170720
711.661	0.0171931
711.739	0.0171947
711.817	0.0170748
711.896	0.0170670
711.974	0.0168298
712.052	0.0167448
712.130	0.0167846
712.208	0.0167256
712.286	0.0166003
712.364	0.0165697
712.442	0.0164591
712.521	0.0166422
712.599	0.0166376
712.677	0.0164652
712.755	0.0165405
712.833	0.0166027
712.911	0.0166310
712.989	0.0166269
713.067	0.0167721
713.146	0.0166809
713.224	0.0167656
713.302	0.0167123
713.380	0.0168037
713.458	0.0169563
713.536	0.0168410
713.614	0.0169236
713.692	0.0171523
713.771	0.0171035
713.849	0.0170641
713.927	0.0170212
714.005	0.0170682
714.083	0.0171284
714.161	0.0169898
714.239	0.0168605
714.317	0.0166943
714.396	0.0165186
714.474	0.0163315
714.552	0.0164066
714.630	0.0162911
714.708	0.0161910
714.786	0.0159581
714.864	0.0159432
714.942	0.0160456
715.021	0.0160104
715.099	0.0160147
715.177	0.0160708
715.255	0.0160850
715.333	0.0160864
715.411	0.0162359
715.489	0.0163816
715.567	0.0163593
715.646	0.0164713
715.724	0.0166135
715.802	0.0167808
715.880	0.0167828
715.958	0.0169568
716.036	0.0170864
716.114	0.0171449
716.192	0.0171006
716.271	0.0173155
716.349	0.0172255
716.427	0.0172397
716.505	0.0172795
716.583	0.0172680
716.661	0.0172802
716.739	0.0171413
716.817	0.0171189
716.896	0.0170048
716.974	0.0170223
717.052	0.0168638
717.130	0.0169884
717.208	0.0169133
717.286	0.0167723
717.364	0.0167453
717.442	0.0166768
717.521	0.0166788
717.599	0.0167858
717.677	0.0167830
717.755	0.0167236
717.833	0.0166697
717.911	0.0168409
717.989	0.0169261
718.067	0.0169328
718.146	0.0169949
718.224	0.0170052
718.302	0.0170537
718.380	0.0170003
718.458	0.0169433
718.536	0.0169606
718.614	0.0168372
718.692	0.0169704
718.771	0.0167810
718.849	0.0165316
718.927	0.0164233
719.005	0.0164353
719.083	0.0163260
719.161	0.0160937
719.239	0.0157429
719.317	0.0156976
719.396	0.0155681
719.474	0.0154517
719.552	0.0155074
719.630	0.0153932
719.708	0.0153100
719.786	0.0151474
719.864	0.0151894
719.942	0.0153226
720.021	0.0154811
720.099	0.0157159
720.177	0.0158210
720.255	0.0159239
720.333	0.0163338
720.411	0.0166273
720.489	0.0168065
720.567	0.0170355
720.646	0.0172886
720.724	0.0176479
720.802	0.0179047
720.880	0.0180448
720.958	0.0181863
721.036	0.0183769
721.114	0.0184285
721.192	0.0183591
721.271	0.0185001
721.349	0.0184537
721.427	0.0180971
721.505	0.0182463
721.583	0.0180454
721.661	0.0178980
721.739	0.0177056
721.817	0.0175887
721.896	0.0173159
721.974	0.0170336
722.052	0.0169881
722.130	0.0166919
722.208	0.0165901
722.286	0.0163615
722.364	0.0161356
722.442	0.0159662
722.521	0.0158363
722.599	0.0156983
722.677	0.0154747
722.755	0.0153930
722.833	0.0152219
722.911	0.0152011
722.989	0.0151408
723.067	0.0152674
723.146	0.0151091
723.224	0.0152034
723.302	0.0151827
723.380	0.0151766
723.458	0.0151398
723.536	0.0152007
723.614	0.0154018
723.692	0.0153300
723.771	0.0155469
723.849	0.0157580
723.927	0.0157689
724.005	0.0161973
724.083	0.0161746
724.161	0.0165475
724.239	0.0166882
724.317	0.0167818
724.396	0.0169550
724.474	0.0170436
724.552	0.0173450
724.630	0.0175239
724.708	0.0174471
724.786	0.0174538
724.864	0.0175970
724.942	0.0177824
725.021	0.0176760
725.099	0.0176607
725.177	0.0175986
725.255	0.0174123
725.333	0.0176351
725.411	0.0174768
725.489	0.0173946
725.567	0.0173818
725.646	0.0172739
725.724	0.0171674
725.802	0.0171580
725.880	0.0169703
725.958	0.0168089
726.036	0.0166914
726.114	0.0166473
726.192	0.0164721
726.271	0.0162355
726.349	0.0162775
726.427	0.0163014
726.505	0.0162253
726.583	0.0160035
726.661	0.0159888
726.739	0.0159476
726.817	0.0159447
726.896	0.0158340
726.974	0.0159168
727.052	0.0156984
727.130	0.0157721
727.208	0.0158298
727.286	0.0157836
727.364	0.0159711
727.442	0.0159419
727.521	0.0159061
727.599	0.0162240
727.677	0.0162782
727.755	0.0163570
727.833	0.0163793
727.911	0.0164122
727.989	0.0164880
728.067	0.0164452
728.146	0.0165040
728.224	0.0166172
728.302	0.0166764
728.380	0.0166632
728.458	0.0166218
728.536	0.0166193
728.614	0.0165887
728.692	0.0165697
728.771	0.0167213
728.849	0.0165911
728.927	0.0167500
729.005	0.0167624
729.083	0.0168730
729.161	0.0169673
729.239	0.0171381
729.317	0.0171973
729.396	0.0172996
729.474	0.0172157
729.552	0.0172189
729.630	0.0174798
729.708	0.0175459
729.786	0.0174036
729.864	0.0172611
729.942	0.0174593
730.021	0.0173103
730.099	0.0173559
730.177	0.0173020
730.255	0.0173878
730.333	0.0170495
730.411	0.0170129
730.489	0.0169457
730.567	0.0167643
730.646	0.0167767
730.724	0.0165114
730.802	0.0164512
730.880	0.0163622
730.958	0.0162594
731.036	0.0161594
731.114	0.0159745
731.192	0.0157942
731.271	0.0156094
731.349	0.0155987
731.427	0.0155132
731.505	0.0155339
731.583	0.0153375
731.661	0.0153978
731.739	0.0154060
731.817	0.0156721
731.896	0.0156756
731.974	0.0154366
732.052	0.0157579
732.130	0.0158912
732.208	0.0159908
732.286	0.0161320
732.364	0.0164944
732.442	0.0164253
732.521	0.0166326
732.599	0.0168062
732.677	0.0169982
732.755	0.0168738
732.833	0.0169237
732.911	0.0170234
732.989	0.0170105
733.067	0.0170202
733.146	0.0169552
733.224	0.0170054
733.302	0.0169416
733.380	0.0169366
733.458	0.0167631
733.536	0.0167295
733.614	0.0166946
733.692	0.0165324
733.771	0.0164590
733.849	0.0163898
733.927	0.0163680
734.005	0.0164574
734.083	0.0165893
734.161	0.0165181
734.239	0.0166055
734.317	0.0168481
734.396	0.0167491
734.474	0.0167997
734.552	0.0170724
734.630	0.0171554
734.708	0.0171162
734.786	0.0173106
734.864	0.0172265
734.942	0.0173502
735.021	0.0174787
735.099	0.0174756
735.177	0.0175359
735.255	0.0173655
735.333	0.0172764
735.411	0.0173489
735.489	0.0171448
735.567	0.0170569
735.646	0.0169061
735.724	0.0167199
735.802	0.0166759
735.880	0.0165215
735.958	0.0162570
736.036	0.0163754
736.114	0.0162234
736.192	0.0160703
736.271	0.0160115
736.349	0.0159516
736.427	0.0159140
736.505	0.0159400
736.583	0.0160175
736.661	0.0160162
736.739	0.0160979
736.817	0.0159966
736.896	0.0160401
736.974	0.0161103
737.052	0.0161073
737.130	0.0161052
737.208	0.0161229
737.286	0.0160810
737.364	0.0161246
737.442	0.0159426
737.521	0.0163215
737.599	0.0163084
737.677	0.0163268
737.755	0.0162820
737.833	0.0164022
737.911	0.0164903
737.989	0.0165544
738.067	0.0167757
738.146	0.0167741
738.224	0.0168556
738.302	0.0168683
738.380	0.0170339
738.458	0.0171951
738.536	0.0173891
738.614	0.0171680
738.692	0.0172468
738.771	0.0173783
738.849	0.0174413
738.927	0.0173076
739.005	0.0174162
739.083	0.0173882
739.161	0.0172705
739.239	0.0171038
739.317	0.0170606
739.396	0.0170190
739.474	0.0168470
739.552	0.0166224
739.630	0.0164282
739.708	0.0165355
739.786	0.0164982
739.864	0.0162439
739.942	0.0162475
740.021	0.0162421
740.099	0.0162534
740.177	0.0161607
740.255	0.0161290
740.333	0.0161376
740.411	0.0159752
740.489	0.0159623
740.567	0.0160183
740.646	0.0162533
740.724	0.0161378
740.802	0.0162476
740.880	0.0163958
740.958	0.0163948
741.036	0.0165261
741.114	0.0166692
741.192	0.0167643
741.271	0.0169881
741.349	0.0171994
741.427	0.0170910
741.505	0.0173263
741.583	0.0173034
741.661	0.0174516
741.739	0.0175888
741.817	0.0176778
741.896	0.0175592
741.974	0.0174213
742.052	0.0175806
742.130	0.0172317
742.208	0.0172386
742.286	0.0171384
742.364	0.0170531
742.442	0.0168808
742.521	0.0166362
742.599	0.0165635
742.677	0.0162852
742.755	0.0160927
742.833	0.0159831
742.911	0.0157886
742.989	0.0155186
743.067	0.0156438
743.146	0.0156338
743.224	0.0155250
743.302	0.0153995
743.380	0.0155366
743.458	0.0156651
743.536	0.0156370
743.614	0.0156738
743.692	0.0158150
743.771	0.0160586
743.849	0.0162308
743.927	0.0163184
744.005	0.0164280
744.083	0.0165711
744.161	0.0166651
744.239	0.0167902
744.317	0.0170166
744.396	0.0168409
744.474	0.0171520
744.552	0.0173693
744.630	0.0172311
744.708	0.0173294
744.786	0.0173009
744.864	0.0173945
744.942	0.0174561
745.021	0.0173250
745.099	0.0172870
745.177	0.0171339
745.255	0.0171576
745.333	0.0170473
745.411	0.0169525
745.489	0.0169570
745.567	0.0168396
745.646	0.0167441
745.724	0.0167061
745.802	0.0168297
745.880	0.0166008
745.958	0.0167162
746.036	0.0164646
746.114	0.0165858
746.192	0.0163438
746.271	0.0163924
746.349	0.0162650
746.427	0.0162504
746.505	0.0161827
746.583	0.0160526
746.661	0.0159657
746.739	0.0159544
746.817	0.0159723
746.896	0.0159525
746.974	0.0160310
747.052	0.0160985
747.130	0.0160719
747.208	0.0161984
747.286	0.0161537
747.364	0.0161174
747.442	0.0161868
747.521	0.0162285
747.599	0.0161191
747.677	0.0162022
747.755	0.0160164
747.833	0.0160961
747.911	0.0159017
747.989	0.0160660
748.067	0.0160704
748.146	0.0160175
748.224	0.0159966
748.302	0.0160539
748.380	0.0159089
748.458	0.0162318
748.536	0.0161786
748.614	0.0163222
748.692	0.0163319
748.771	0.0164292
748.849	0.0165725
748.927	0.0167304
749.005	0.0166291
749.083	0.0167804
749.161	0.0167169
749.239	0.0168333
749.317	0.0169908
749.396	0.0171079
749.474	0.0170750
749.552	0.0171272
749.630	0.0170119
749.708	0.0172464
749.786	0.0169772
749.864	0.0168962
749.942	0.0170533
750.021	0.0170309
750.099	0.0169560
750.177	0.0171128
750.255	0.0170467
750.333	0.0170547
750.411	0.0170534
750.489	0.0170227
750.567	0.0171158
750.646	0.0169551
750.724	0.0169739
750.802	0.0168893
750.880	0.0167740
750.958	0.0167167
751.036	0.0167654
751.114	0.0165305
751.192	0.0163490
751.271	0.0161948
751.349	0.0161492
751.427	0.0160027
751.505	0.0157800
751.583	0.0157070
751.661	0.0156053
751.739	0.0155002
751.817	0.0154598
751.896	0.0155091
751.974	0.0156198
752.052	0.0155756
752.130	0.0157569
752.208	0.0157320
752.286	0.0159161
752.364	0.0160746
752.442	0.0163303
752.521	0.0164429
752.599	0.0164788
752.677	0.0166798
752.755	0.0168817
752.833	0.0171516
752.911	0.0172948
752.989	0.0171440
753.067	0.0174141
753.146	0.0175056
753.224	0.0173642
753.302	0.0175472
753.380	0.0175591
753.458	0.0173109
753.536	0.0172826
753.614	0.0169940
753.692	0.0167130
753.771	0.0166173
753.849	0.0164911
753.927	0.0160986
754.005	0.0158349
754.083	0.0157877
754.161	0.0155325
754.239	0.0152422
754.317	0.0152187
754.396	0.0151392
754.474	0.0150503
754.552	0.0150777
754.630	0.0149837
754.708	0.0150399
754.786	0.0152836
754.864	0.0153899
754.942	0.0153878
755.021	0.0155486
755.099	0.0158714
755.177	0.0160365
755.255	0.0161761
755.333	0.0165862
755.411	0.0167534
755.489	0.0168807
755.567	0.0171481
755.646	0.0174111
755.724	0.0176183
755.802	0.0178658
755.880	0.0178793
755.958	0.0179298
756.036	0.0180086
756.114	0.0181068
756.192	0.0181255
756.271	0.0181062
756.349	0.0180503
756.427	0.0179591
756.505	0.0179833
756.583	0.0178045
756.661	0.0177610
756.739	0.0176028
756.817	0.0174151
756.896	0.0172826
756.974	0.0171586
757.052	0.0168960
757.130	0.0167948
757.208	0.0167601
757.286	0.0166875
757.364	0.0165279
757.442	0.0163494
757.521	0.0161708
757.599	0.0162126
757.677	0.0158920
757.755	0.0158166
757.833	0.0156482
757.911	0.0156518
757.989	0.0156792
758.067	0.0155962
758.146	0.0156690
758.224	0.0157072
758.302	0.0157246
758.380	0.0156666
758.458	0.0157783
758.536	0.0158429
758.614	0.0158817
758.692	0.0161693
758.771	0.0162260
758.849	0.0163781
758.927	0.0164491
759.005	0.0164342
759.083	0.0165154
759.161	0.0166288
759.239	0.0166956
759.317	0.0166470
759.396	0.0167354
759.474	0.0167856
759.552	0.0168275
759.630	0.0166592
759.708	0.0166650
759.786	0.0165681
759.864	0.0167648
759.942	0.0165062
760.021	0.0164584
760.099	0.0164263
760.177	0.0165418
760.255	0.0162498
760.333	0.0164188
760.411	0.0164259
760.489	0.0163014
760.567	0.0164912
760.646	0.0165018
760.724	0.0166172
760.802	0.0166526
760.880	0.0166743
760.958	0.0169217
761.036	0.0169547
761.114	0.0169847
761.192	0.0169290
761.271	0.0170109
761.349	0.0172865
761.427	0.0171456
761.505	0.0172480
761.583	0.0173321
761.661	0.0172975
761.739	0.0173688
761.817	0.0174312
761.896	0.0172899
761.974	0.0172957
762.052	0.0173519
762.130	0.0173729
762.208	0.0172815
762.286	0.0173387
762.364	0.0172042
762.442	0.0171082
762.521	0.0169171
762.599	0.0169068
762.677	0.0168472
762.755	0.0166754
762.833	0.0166158
762.911	0.0164323
762.989	0.0163087
763.067	0.0162040
763.146	0.0163407
763.224	0.0160056
763.302	0.0159711
763.380	0.0158254
763.458	0.0158308
763.536	0.0155602
763.614	0.0156499
763.692	0.0156148
763.771	0.0156135
763.849	0.0155849
763.927	0.0156377
764.005	0.0155429
764.083	0.0156690
764.161	0.0156814
764.239	0.0158881
764.317	0.0158469
764.396	0.0159787
764.474	0.0159978
764.552	0.0162062
764.630	0.0163577
764.708	0.0163579
764.786	0.0165645
764.864	0.0165417
764.942	0.0167432
765.021	0.0167805
765.099	0.0169003
765.177	0.0169468
765.255	0.0169058
765.333	0.0168311
765.411	0.0169786
765.489	0.0170233
765.567	0.0169450
765.646	0.0170431
765.724	0.0170140
765.802	0.0170355
765.880	0.0171130
765.958	0.0170695
766.036	0.0170747
766.114	0.0170303
766.192	0.0169840
766.271	0.0168325
766.349	0.0168758
766.427	0.0168286
766.505	0.0168368
766.583	0.0165875
766.661	0.0166797
766.739	0.0165285
766.817	0.0164647
766.896	0.0163123
766.974	0.0163773
767.052	0.0164895
767.130	0.0165076
767.208	0.0162847
767.286	0.0163773
767.364	0.0164082
767.442	0.0163232
767.521	0.0165380
767.599	0.0164751
767.677	0.0165275
767.755	0.0164666
767.833	0.0164372
767.911	0.0165757
767.989	0.0166030
768.067	0.0166021
768.146	0.0166416
768.224	0.0166601
768.302	0.0164880
768.380	0.0166725
768.458	0.0165282
768.536	0.0164285
768.614	0.0164259
768.692	0.0163534
768.771	0.0162720
768.849	0.0163606
768.927	0.0162035
769.005	0.0162337
769.083	0.0163802
769.161	0.0163209
769.239	0.0162724
769.317	0.0162482
769.396	0.0164141
769.474	0.0164958
769.552	0.0164928
769.630	0.0166740
769.708	0.0166811
769.786	0.0167782
769.864	0.0167416
769.942	0.0166992
770.021	0.0168021
770.099	0.0168299
770.177	0.0169224
770.255	0.0169154
770.333	0.0169038
770.411	0.0168774
770.489	0.0168089
770.567	0.0168531
770.646	0.0168161
770.724	0.0169472
770.802	0.0167553
770.880	0.0166412
770.958	0.0165939
771.036	0.0164561
771.114	0.0165183
771.192	0.0164764
771.271	0.0163682
771.349	0.0164024
771.427	0.0162775
771.505	0.0161951
771.583	0.0162788
771.661	0.0162460
771.739	0.0162276
771.817	0.0162460
771.896	0.0162843
771.974	0.0162229
772.052	0.0162720
772.130	0.0164235
772.208	0.0164034
772.286	0.0165290
772.364	0.0164210
772.442	0.0165958
772.521	0.0165759
772.599	0.0165362
772.677	0.0166380
772.755	0.0166538
772.833	0.0167312
772.911	0.0168479
772.989	0.0168128
773.067	0.0169778
773.146	0.0169132
773.224	0.0168874
773.302	0.0170847
773.380	0.0168517
773.458	0.0170599
773.536	0.0170473
773.614	0.0169121
773.692	0.0169984
773.771	0.0168641
773.849	0.0169667
773.927	0.0168606
774.005	0.0168919
774.083	0.0167690
774.161	0.0166837
774.239	0.0166537
774.317	0.0166216
774.396	0.0163963
774.474	0.0163802
774.552	0.0163548
774.630	0.0164241
774.708	0.0162186
774.786	0.0161974
774.864	0.0162785
774.942	0.0162112
775.021	0.0163361
775.099	0.0162664
775.177	0.0162302
775.255	0.0161602
775.333	0.0163849
775.411	0.0162955
775.489	0.0162905
775.567	0.0163035
775.646	0.0165125
775.724	0.0164230
775.802	0.0164940
775.880	0.0166904
775.958	0.0165771
776.036	0.0165717
776.114	0.0168711
776.192	0.0166909
776.271	0.0166997
776.349	0.0168428
776.427	0.0168003
776.505	0.0168746
776.583	0.0169781
776.661	0.0169627
776.739	0.0168418
776.817	0.0167671
776.896	0.0166225
776.974	0.0167677
777.052	0.0166750
777.130	0.0165449
777.208	0.0165308
777.286	0.0164942
777.364	0.0165614
777.442	0.0164127
777.521	0.0163462
777.599	0.0164343
777.677	0.0165231
777.755	0.0163472
777.833	0.0163381
777.911	0.0164312
777.989	0.0165806
778.067	0.0165571
778.146	0.0164713
778.224	0.0164816
778.302	0.0166354
778.380	0.0166795
778.458	0.0167422
778.536	0.0168420
778.614	0.0167934
778.692	0.0169196
778.771	0.0169287
778.849	0.0171423
778.927	0.0169913
779.005	0.0169296
779.083	0.0170047
779.161	0.0169934
779.239	0.0169868
779.317	0.0169519
779.396	0.0169422
779.474	0.0166983
779.552	0.0167110
779.630	0.0165559
779.708	0.0164987
779.786	0.0165356
779.864	0.0164905
779.942	0.0164244
780.021	0.0162863
780.099	0.0163312
780.177	0.0163539
780.255	0.0163886
780.333	0.0163267
780.411	0.0162668
780.489	0.0161826
780.567	0.0162859
780.646	0.0163598
780.724	0.0162708
780.802	0.0162809
780.880	0.0161516
780.958	0.0163276
781.036	0.0163057
781.114	0.0162328
781.192	0.0164540
781.271	0.0163398
781.349	0.0163649
781.427	0.0165034
781.505	0.0165839
781.583	0.0165297
781.661	0.0164632
781.739	0.0166500
781.817	0.0166109
781.896	0.0167974
781.974	0.0168752
782.052	0.0168303
782.130	0.0170049
782.208	0.0169314
782.286	0.0169871
782.364	0.0171207
782.442	0.0171370
782.521	0.0170378
782.599	0.0169556
782.677	0.0169318
782.755	0.0170142
782.833	0.0169073
782.911	0.0167421
782.989	0.0166327
783.067	0.0164764
783.146	0.0164792
783.224	0.0164561
783.302	0.0162962
783.380	0.0163902
783.458	0.0161965
783.536	0.0160603
783.614	0.0160331
783.692	0.0160767
783.771	0.0160169
783.849	0.0159985
783.927	0.0160280
784.005	0.0160415
784.083	0.0162586
784.161	0.0163399
784.239	0.0163243
784.317	0.0164761
784.396	0.0163669
784.474	0.0167132
784.552	0.0167590
784.630	0.0167565
784.708	0.0168838
784.786	0.0169360
784.864	0.0171587
784.942	0.0173158
785.021	0.0172366
785.099	0.0172052
785.177	0.0172847
785.255	0.0171967
785.333	0.0171906
785.411	0.0172182
785.489	0.0171330
785.567	0.0170638
785.646	0.0170233
785.724	0.0169155
785.802	0.0169101
785.880	0.0167703
785.958	0.0164457
786.036	0.0166347
786.114	0.0163067
786.192	0.0160930
786.271	0.0159697
786.349	0.0161854
786.427	0.0160372
786.505	0.0159804
786.583	0.0157268
786.661	0.0159277
786.739	0.0157796
786.817	0.0158849
786.896	0.0158595
786.974	0.0159663
787.052	0.0159003
787.130	0.0161452
787.208	0.0161898
787.286	0.0161694
787.364	0.0162866
787.442	0.0162974
787.521	0.0163946
787.599	0.0163937
787.677	0.0166667
787.755	0.0166445
787.833	0.0166022
787.911	0.0167667
787.989	0.0167381
788.067	0.0166439
788.146	0.0168817
788.224	0.0168933
788.302	0.0167708
788.380	0.0169646
788.458	0.0168200
788.536	0.0167883
788.614	0.0169209
788.692	0.0169946
788.771	0.0168540
788.849	0.0167709
788.927	0.0168417
789.005	0.0168983
789.083	0.0168634
789.161	0.0167590
789.239	0.0167504
789.317	0.0166333
789.396	0.0165565
789.474	0.0165059
789.552	0.0163676
789.630	0.0164268
789.708	0.0163269
789.786	0.0163427
789.864	0.0163692
789.942	0.0164816
790.021	0.0164136
790.099	0.0163698
790.177	0.0164865
790.255	0.0166270
790.333	0.0165976
790.411	0.0165852
790.489	0.0166440
790.567	0.0166627
790.646	0.0167750
790.724	0.0166618
790.802	0.0167892
790.880	0.0167989
790.958	0.0167773
791.036	0.0167341
791.114	0.0168242
791.192	0.0167682
791.271	0.0166631
791.349	0.0168402
791.427	0.0168375
791.505	0.0168131
791.583	0.0165798
791.661	0.0166476
791.739	0.0164806
791.817	0.0164952
791.896	0.0164884
791.974	0.0163681
792.052	0.0163887
792.130	0.0164690
792.208	0.0162720
792.286	0.0162856
792.364	0.0163243
792.442	0.0162421
792.521	0.0163107
792.599	0.0163069
792.677	0.0163726
792.755	0.0163917
792.833	0.0163299
792.911	0.0164518
792.989	0.0163912
793.067	0.0164969
793.146	0.0164996
793.224	0.0165991
793.302	0.0167020
793.380	0.0166324
793.458	0.0166885
793.536	0.0169236
793.614	0.0170278
793.692	0.0169003
793.771	0.0169393
793.849	0.0170335
793.927	0.0168693
794.005	0.0170148
794.083	0.0169620
794.161	0.0168837
794.239	0.0167525
794.317	0.0168083
794.396	0.0168445
794.474	0.0167887
794.552	0.0167233
794.630	0.0166154
794.708	0.0165497
794.786	0.0164088
794.864	0.0164615
794.942	0.0163899
795.021	0.0162502
795.099	0.0162330
795.177	0.0160046
795.255	0.0160698
795.333	0.0160391
795.411	0.0161610
795.489	0.0162101
795.567	0.0160482
795.646	0.0162674
795.724	0.0161027
795.802	0.0161544
795.880	0.0162649
795.958	0.0163754
796.036	0.0163850
796.114	0.0165266
796.192	0.0166643
796.271	0.0167702
796.349	0.0167488
796.427	0.0168687
796.505	0.0169187
796.583	0.0169817
796.661	0.0171372
796.739	0.0170390
796.817	0.0170415
796.896	0.0170439
796.974	0.0171651
797.052	0.0171754
797.130	0.0171851
797.208	0.0171356
797.286	0.0171136
797.364	0.0171481
797.442	0.0171204
797.521	0.0169521
797.599	0.0169552
797.677	0.0168948
797.755	0.0168287
797.833	0.0167458
797.911	0.0167685
797.989	0.0166785
798.067	0.0164447
798.146	0.0165348
798.224	0.0164429
798.302	0.0164545
798.380	0.0162383
798.458	0.0160889
798.536	0.0161742
798.614	0.0162339
798.692	0.0161327
798.771	0.0160842
798.849	0.0160848
798.927	0.0162325
799.005	0.0162192
799.083	0.0161423
799.161	0.0162267
799.239	0.0162025
799.317	0.0162618
799.396	0.0161968
799.474	0.0163927
799.552	0.0162783
799.630	0.0163819
799.708	0.0165858
799.786	0.0165199
799.864	0.0164647
799.942	0.0166998
800.021	0.0167659
800.099	0.0167327
800.177	0.0165456
800.255	0.0168433
800.333	0.0169199
800.411	0.0167776
800.489	0.0167647
800.567	0.0168105
800.646	0.0168576
800.724	0.0168971
800.802	0.0167233
800.880	0.0165643
800.958	0.0165282
801.036	0.0166515
801.114	0.0168085
801.192	0.0165212
801.271	0.0165680
801.349	0.0164831
801.427	0.0164836
801.505	0.0164645
801.583	0.0165023
801.661	0.0165173
801.739	0.0166140
801.817	0.0165687
801.896	0.0166779
801.974	0.0165606
802.052	0.0165055
802.130	0.0166748
802.208	0.0165575
802.286	0.0166748
802.364	0.0166371
802.442	0.0166806
802.521	0.0165444
802.599	0.0165697
802.677	0.0166141
802.755	0.0164753
802.833	0.0164809
802.911	0.0165564
802.989	0.0165704
803.067	0.0167364
803.146	0.0165169
803.224	0.0163903
803.302	0.0163889
803.380	0.0164289
803.458	0.0163279
803.536	0.0163562
803.614	0.0163724
803.692	0.0165225
803.771	0.0164870
803.849	0.0164350
803.927	0.0163573
804.005	0.0165127
804.083	0.0165443
804.161	0.0165061
804.239	0.0163869
804.317	0.0165148
804.396	0.0165031
804.474	0.0166358
804.552	0.0165752
804.630	0.0166738
804.708	0.0166578
804.786	0.0166357
804.864	0.0166076
804.942	0.0166657
805.021	0.0165842
805.099	0.0166270
805.177	0.0166490
805.255	0.0167007
805.333	0.0167694
805.411	0.0166460
805.489	0.0166990
805.567	0.0167309
805.646	0.0167944
805.724	0.0168587
805.802	0.0167971
805.880	0.0166922
805.958	0.0168446
806.036	0.0167077
806.114	0.0169590
806.192	0.0168391
806.271	0.0168207
806.349	0.0168120
806.427	0.0166937
806.505	0.0166659
806.583	0.0168342
806.661	0.0166924
806.739	0.0164852
806.817	0.0164233
806.896	0.0163771
806.974	0.0162697
807.052	0.0161725
807.130	0.0162352
807.208	0.0163480
807.286	0.0164250
807.364	0.0162739
807.442	0.0163162
807.521	0.0162847
807.599	0.0163688
807.677	0.0163869
807.755	0.0163649
807.833	0.0164147
807.911	0.0165032
807.989	0.0165536
808.067	0.0165498
808.146	0.0166421
808.224	0.0165939
808.302	0.0167162
808.380	0.0167341
808.458	0.0167336
808.536	0.0168555
808.614	0.0170473
808.692	0.0169378
808.771	0.0168680
808.849	0.0170833
808.927	0.0169199
809.005	0.0169669
809.083	0.0170946
809.161	0.0170255
809.239	0.0169993
809.317	0.0169775
809.396	0.0169928
809.474	0.0169244
809.552	0.0167262
809.630	0.0167570
809.708	0.0167955
809.786	0.0166953
809.864	0.0165536
809.942	0.0166048
810.021	0.0164735
810.099	0.0164172
810.177	0.0165368
810.255	0.0163767
810.333	0.0163176
810.411	0.0162331
810.489	0.0163213
810.567	0.0163870
810.646	0.0163297
810.724	0.0163745
810.802	0.0164451
810.880	0.0164909
810.958	0.0164618
811.036	0.0165881
811.114	0.0164916
811.192	0.0165647
811.271	0.0167576
811.349	0.0167092
811.427	0.0167577
811.505	0.0167371
811.583	0.0168741
811.661	0.0168967
811.739	0.0167655
811.817	0.0168792
811.896	0.0167799
811.974	0.0166608
812.052	0.0167193
812.130	0.0167469
812.208	0.0166754
812.286	0.0167091
812.364	0.0166653
812.442	0.0165703
812.521	0.0165574
812.599	0.0164445
812.677	0.0165409
812.755	0.0164308
812.833	0.0163801
812.911	0.0165421
812.989	0.0164242
813.067	0.0164598
813.146	0.0162936
813.224	0.0163776
813.302	0.0164114
813.380	0.0163618
813.458	0.0164149
813.536	0.0161992
813.614	0.0164745
813.692	0.0164025
813.771	0.0163129
813.849	0.0164428
813.927	0.0164639
814.005	0.0165129
814.083	0.0167576
814.161	0.0168001
814.239	0.0168480
814.317	0.0168307
814.396	0.0169579
814.474	0.0170295
814.552	0.0168697
814.630	0.0169394
814.708	0.0169957
814.786	0.0169840
814.864	0.0168797
814.942	0.0167801
815.021	0.0166763
815.099	0.0167167
815.177	0.0168234
815.255	0.0166661
815.333	0.0166687
815.411	0.0164434
815.489	0.0163017
815.567	0.0164043
815.646	0.0164599
815.724	0.0163731
815.802	0.0162340
815.880	0.0164658
815.958	0.0164053
816.036	0.0163067
816.114	0.0162546
816.192	0.0163876
816.271	0.0162808
816.349	0.0163556
816.427	0.0163402
816.505	0.0162610
816.583	0.0163624
816.661	0.0163497
816.739	0.0162540
816.817	0.0162742
816.896	0.0163503
816.974	0.0163503
817.052	0.0164071
817.130	0.0163270
817.208	0.0163549
817.286	0.0165769
817.364	0.0165709
817.442	0.0166807
817.521	0.0167473
817.599	0.0167546
817.677	0.0166709
817.755	0.0167141
817.833	0.0169682
817.911	0.0168717
817.989	0.0167872
818.067	0.0169311
818.146	0.0167878
818.224	0.0167048
818.302	0.0167830
818.380	0.0168959
818.458	0.0167064
818.536	0.0166911
818.614	0.0166747
818.692	0.0166777
818.771	0.0166422
818.849	0.0165856
818.927	0.0166634
819.005	0.0166880
819.083	0.0164790
819.161	0.0164984
819.239	0.0165391
819.317	0.0166026
819.396	0.0165016
819.474	0.0165049
819.552	0.0165509
819.630	0.0163707
819.708	0.0165595
819.786	0.0166018
819.864	0.0165147
819.942	0.0165351
820.021	0.0165018
820.099	0.0164298
820.177	0.0164310
820.255	0.0164467
820.333	0.0165268
820.411	0.0166017
820.489	0.0165079
820.567	0.0164683
820.646	0.0165449
820.724	0.0167494
820.802	0.0165939
820.880	0.0166380
820.958	0.0166859
821.036	0.0165546
821.114	0.0166839
821.192	0.0167719
821.271	0.0167430
821.349	0.0168607
821.427	0.0169427
821.505	0.0168864
821.583	0.0169279
821.661	0.0170345
821.739	0.0168883
821.817	0.0168320
821.896	0.0169787
821.974	0.0169448
822.052	0.0168349
822.130	0.0168327
822.208	0.0168987
822.286	0.0168591
822.364	0.0168335
822.442	0.0169253
822.521	0.0169810
822.599	0.0168362
822.677	0.0169556
822.755	0.0166821
822.833	0.0168407
822.911	0.0169392
822.989	0.0169695
823.067	0.0169816
823.146	0.0169132
823.224	0.0168984
823.302	0.0171172
823.380	0.0169378
823.458	0.0167093
823.536	0.0168661
823.614	0.0168137
823.692	0.0168455
823.771	0.0165914
823.849	0.0166744
823.927	0.0165383
824.005	0.0165366
824.083	0.0163914
824.161	0.0164218
824.239	0.0162914
824.317	0.0163568
824.396	0.0162613
824.474	0.0161720
824.552	0.0161627
824.630	0.0162147
824.708	0.0161440
824.786	0.0162759
824.864	0.0161546
824.942	0.0161785
825.021	0.0162673
825.099	0.0161683
825.177	0.0162647
825.255	0.0160423
825.333	0.0162074
825.411	0.0164547
825.489	0.0163183
825.567	0.0163065
825.646	0.0165057
825.724	0.0164766
825.802	0.0166444
825.880	0.0166050
825.958	0.0166745
826.036	0.0166795
826.114	0.0167555
826.192	0.0166354
826.271	0.0167591
826.349	0.0168825
826.427	0.0168973
826.505	0.0167728
826.583	0.0167435
826.661	0.0168684
826.739	0.0166867
826.817	0.0167225
826.896	0.0168401
826.974	0.0167829
827.052	0.0166958
827.130	0.0167172
827.208	0.0167213
827.286	0.0166641
827.364	0.0166110
827.442	0.0166310
827.521	0.0166282
827.599	0.0165701
827.677	0.0163705
827.755	0.0165746
827.833	0.0165508
827.911	0.0163440
827.989	0.0163721
828.067	0.0164142
828.146	0.0163920
828.224	0.0164964
828.302	0.0164794
828.380	0.0163449
828.458	0.0166206
828.536	0.0163567
828.614	0.0163848
828.692	0.0164906
828.771	0.0166674
828.849	0.0164796
828.927	0.0165269
829.005	0.0165256
829.083	0.0165930
829.161	0.0165225
829.239	0.0165137
829.317	0.0165839
829.396	0.0167579
829.474	0.0167412
829.552	0.0166640
829.630	0.0167979
829.708	0.0165735
829.786	0.0166515
829.864	0.0165875
829.942	0.0167104
830.021	0.0168520
830.099	0.0167266
830.177	0.0166754
830.255	0.0167177
830.333	0.0166322
830.411	0.0166853
830.489	0.0167469
830.567	0.0167602
830.646	0.0168041
830.724	0.0166956
830.802	0.0166459
830.880	0.0166290
830.958	0.0166364
831.036	0.0165433
831.114	0.0166620
831.192	0.0164899
831.271	0.0164600
831.349	0.0165639
831.427	0.0166724
831.505	0.0165765
831.583	0.0165092
831.661	0.0165697
831.739	0.0164966
831.817	0.0164307
831.896	0.0164822
831.974	0.0162762
832.052	0.0163770
832.130	0.0164057
832.208	0.0163745
832.286	0.0164416
832.364	0.0163978
832.442	0.0164293
832.521	0.0164954
832.599	0.0164997
832.677	0.0164149
832.755	0.0165022
832.833	0.0164966
832.911	0.0165005
832.989	0.0167045
833.067	0.0165343
833.146	0.0164996
833.224	0.0166319
833.302	0.0165662
833.380	0.0166363
833.458	0.0166050
833.536	0.0165882
833.614	0.0166183
833.692	0.0166132
833.771	0.0164536
833.849	0.0164443
833.927	0.0165958
834.005	0.0164879
834.083	0.0162802
834.161	0.0164703
834.239	0.0165813
834.317	0.0164901
834.396	0.0165482
834.474	0.0164469
834.552	0.0164334
834.630	0.0166582
834.708	0.0167549
834.786	0.0166388
834.864	0.0166092
834.942	0.0166898
835.021	0.0167995
835.099	0.0167258
835.177	0.0167689
835.255	0.0167484
835.333	0.0168370
835.411	0.0168905
835.489	0.0168314
835.567	0.0167059
835.646	0.0167694
835.724	0.0168419
835.802	0.0167739
835.880	0.0165540
835.958	0.0166628
836.036	0.0166028
836.114	0.0167515
836.192	0.0166587
836.271	0.0166217
836.349	0.0166920
836.427	0.0166397
836.505	0.0165785
836.583	0.0166537
836.661	0.0167298
836.739	0.0165728
836.817	0.0166045
836.896	0.0166003
836.974	0.0165351
837.052	0.0166677
837.130	0.0167352
837.208	0.0166383
837.286	0.0166988
837.364	0.0165997
837.442	0.0166690
837.521	0.0166787
837.599	0.0165723
837.677	0.0164349
837.755	0.0165443
837.833	0.0165405
837.911	0.0166690
837.989	0.0165135
838.067	0.0165504
838.146	0.0165313
838.224	0.0165688
838.302	0.0166568
838.380	0.0167097
838.458	0.0165462
838.536	0.0163799
838.614	0.0165229
838.692	0.0166264
838.771	0.0166405
838.849	0.0163925
838.927	0.0165331
839.005	0.0166583
839.083	0.0165244
839.161	0.0164882
839.239	0.0166074
839.317	0.0165575
839.396	0.0165416
839.474	0.0166066
839.552	0.0167339
839.630	0.0167305
839.708	0.0166122
839.786	0.0167121
839.864	0.0167065
839.942	0.0166436
840.021	0.0166637
840.099	0.0166361
840.177	0.0165246
840.255	0.0164591
840.333	0.0167055
840.411	0.0164571
840.489	0.0164620
840.567	0.0165811
840.646	0.0164113
840.724	0.0163389
840.802	0.0164008
840.880	0.0163964
840.958	0.0163132
841.036	0.0163953
841.114	0.0162991
841.192	0.0162326
841.271	0.0164456
841.349	0.0164745
841.427	0.0164091
841.505	0.0164782
841.583	0.0164623
841.661	0.0165289
841.739	0.0165381
841.817	0.0166218
841.896	0.0166391
841.974	0.0166661
842.052	0.0168872
842.130	0.0168296
842.208	0.0167341
842.286	0.0166689
842.364	0.0166725
842.442	0.0167698
842.521	0.0165795
842.599	0.0165659
842.677	0.0166402
842.755	0.0166389
842.833	0.0165988
842.911	0.0164925
842.989	0.0166763
843.067	0.0164021
843.146	0.0164774
843.224	0.0165081
843.302	0.0165813
843.380	0.0165515
843.458	0.0165885
843.536	0.0165389
843.614	0.0166181
843.692	0.0165781
843.771	0.0165635
843.849	0.0165991
843.927	0.0164288
844.005	0.0165715
844.083	0.0166693
844.161	0.0166135
844.239	0.0166399
844.317	0.0165411
844.396	0.0165343
844.474	0.0165397
844.552	0.0166429
844.630	0.0166277
844.708	0.0166038
844.786	0.0165482
844.864	0.0164206
844.942	0.0167104
845.021	0.0167239
845.099	0.0167401
845.177	0.0165281
845.255	0.0165560
845.333	0.0165536
845.411	0.0165887
845.489	0.0166895
845.567	0.0165964
845.646	0.0165347
845.724	0.0167303
845.802	0.0165983
845.880	0.0165060
845.958	0.0165633
846.036	0.0165974
846.114	0.0166656
846.192	0.0165371
846.271	0.0164233
846.349	0.0166258
846.427	0.0165685
846.505	0.0165439
846.583	0.0165349
846.661	0.0166387
846.739	0.0165390
846.817	0.0167220
846.896	0.0166437
846.974	0.0165957
847.052	0.0166344
847.130	0.0167126
847.208	0.0166830
847.286	0.0167652
847.364	0.0166697
847.442	0.0166896
847.521	0.0166746
847.599	0.0166259
847.677	0.0167118
847.755	0.0166843
847.833	0.0165520
847.911	0.0165932
847.989	0.0166100
848.067	0.0165045
848.146	0.0164978
848.224	0.0165997
848.302	0.0164447
848.380	0.0164305
848.458	0.0165238
848.536	0.0165453
848.614	0.0165262
848.692	0.0166909
848.771	0.0165880
848.849	0.0165563
848.927	0.0167273
849.005	0.0166576
849.083	0.0166066
849.161	0.0166664
849.239	0.0166608
849.317	0.0166085
849.396	0.0166724
849.474	0.0167496
849.552	0.0167025
849.630	0.0167336
849.708	0.0166499
849.786	0.0166901
849.864	0.0166686
849.942	0.0167448
850.021	0.0166689
850.099	0.0165816
850.177	0.0165896
850.255	0.0165403
850.333	0.0167457
850.411	0.0166397
850.489	0.0166325
850.567	0.0166498
850.646	0.0167554
850.724	0.0166119
850.802	0.0166217
850.880	0.0166298
850.958	0.0163816
851.036	0.0164434
851.114	0.0166109
851.192	0.0166335
851.271	0.0165141
851.349	0.0165050
851.427	0.0165847
851.505	0.0165151
851.583	0.0165765
851.661	0.0165769
851.739	0.0165781
851.817	0.0165477
851.896	0.0165960
851.974	0.0166234
852.052	0.0166595
852.130	0.0166928
852.208	0.0166280
852.286	0.0167909
852.364	0.0166960
852.442	0.0167622
852.521	0.0166496
852.599	0.0167370
852.677	0.0167038
852.755	0.0167342
852.833	0.0166959
852.911	0.0167122
852.989	0.0165506
853.067	0.0166196
853.146	0.0165334
853.224	0.0164836
853.302	0.0166060
853.380	0.0166179
853.458	0.0165636
853.536	0.0165911
853.614	0.0166203
853.692	0.0165649
853.771	0.0166238
853.849	0.0165749
853.927	0.0166434
854.005	0.0165688
854.083	0.0164608
854.161	0.0166435
854.239	0.0166306
854.317	0.0165628
854.396	0.0165980
854.474	0.0164767
854.552	0.0164995
854.630	0.0164883
854.708	0.0164754
854.786	0.0163418
854.864	0.0162570
854.942	0.0162312
855.021	0.0163731
855.099	0.0163345
855.177	0.0163582
855.255	0.0164383
855.333	0.0163337
855.411	0.0162966
855.489	0.0163117
855.567	0.0163862
855.646	0.0163983
855.724	0.0165553
855.802	0.0165158
855.880	0.0164548
855.958	0.0163647
856.036	0.0165444
856.114	0.0165172
856.192	0.0165008
856.271	0.0165640
856.349	0.0166638
856.427	0.0166187
856.505	0.0166094
856.583	0.0167457
856.661	0.0167700
856.739	0.0168543
856.817	0.0168743
856.896	0.0167425
856.974	0.0169070
857.052	0.0169351
857.130	0.0170717
857.208	0.0168864
857.286	0.0169353
857.364	0.0170172
857.442	0.0169556
857.521	0.0169170
857.599	0.0170100
857.677	0.0168424
857.755	0.0168597
857.833	0.0168174
857.911	0.0166981
857.989	0.0168433
858.067	0.0166547
858.146	0.0165033
858.224	0.0165965
858.302	0.0165808
858.380	0.0164794
858.458	0.0164974
858.536	0.0166743
858.614	0.0166391
858.692	0.0165899
858.771	0.0163900
858.849	0.0166904
858.927	0.0166538
859.005	0.0166324
859.083	0.0165679
859.161	0.0165482
859.239	0.0166312
859.317	0.0167907
859.396	0.0166028
859.474	0.0165438
859.552	0.0166129
859.630	0.0165678
859.708	0.0165638
859.786	0.0164770
859.864	0.0165498
859.942	0.0164854
860.021	0.0165767
860.099	0.0165262
860.177	0.0164579
860.255	0.0165446
860.333	0.0164393
860.411	0.0163874
860.489	0.0165038
860.567	0.0164059
860.646	0.0163665
860.724	0.0164196
860.802	0.0164873
860.880	0.0165073
860.958	0.0163336
861.036	0.0164451
861.114	0.0164116
861.192	0.0163750
861.271	0.0164104
861.349	0.0163278
861.427	0.0164496
861.505	0.0165115
861.583	0.0164324
861.661	0.0164677
861.739	0.0164722
861.817	0.0163757
861.896	0.0163110
861.974	0.0164069
862.052	0.0164070
862.130	0.0162920
862.208	0.0164581
862.286	0.0164806
862.364	0.0165960
862.442	0.0163182
862.521	0.0165204
862.599	0.0166039
862.677	0.0165775
862.755	0.0166842
862.833	0.0165442
862.911	0.0165260
862.989	0.0165952
863.067	0.0165334
863.146	0.0166019
863.224	0.0165102
863.302	0.0165052
863.380	0.0163258
863.458	0.0164811
863.536	0.0164816
863.614	0.0164604
863.692	0.0164529
863.771	0.0165915
863.849	0.0166032
863.927	0.0165831
864.005	0.0165077
864.083	0.0165842
864.161	0.0164917
864.239	0.0166461
864.317	0.0166148
864.396	0.0165736
864.474	0.0164826
864.552	0.0165592
864.630	0.0164937
864.708	0.0165068
864.786	0.0166090
864.864	0.0164882
864.942	0.0163698
865.021	0.0164758
865.099	0.0165623
865.177	0.0163950
865.255	0.0164388
865.333	0.0164892
865.411	0.0164405
865.489	0.0164551
865.567	0.0165208
865.646	0.0165755
865.724	0.0165482
865.802	0.0166278
865.880	0.0165978
865.958	0.0166534
866.036	0.0165118
866.114	0.0166653
866.192	0.0166374
866.271	0.0166695
866.349	0.0166234
866.427	0.0166732
866.505	0.0165930
866.583	0.0164855
866.661	0.0166851
866.739	0.0167451
866.817	0.0166168
866.896	0.0165890
866.974	0.0166821
867.052	0.0166984
867.130	0.0167036
867.208	0.0167699
867.286	0.0166496
867.364	0.0166467
867.442	0.0165765
867.521	0.0166867
867.599	0.0166335
867.677	0.0164828
867.755	0.0165470
867.833	0.0165759
867.911	0.0166605
867.989	0.0166596
868.067	0.0165218
868.146	0.0165896
868.224	0.0165132
868.302	0.0166119
868.380	0.0165451
868.458	0.0165440
868.536	0.0164320
868.614	0.0163163
868.692	0.0164649
868.771	0.0164507
868.849	0.0164216
868.927	0.0165852
869.005	0.0164355
869.083	0.0164286
869.161	0.0164426
869.239	0.0165623
869.317	0.0164579
869.396	0.0164590
869.474	0.0165589
869.552	0.0164944
869.630	0.0164778
869.708	0.0165974
869.786	0.0164370
869.864	0.0165939
869.942	0.0165888
