06/03/2022	16:02:27	Ver.	4.1	UNKNOWN
Optical Delay	550.020508	Delta X		0.078125	Sweeps	1	Scan Rate	0/0
Coordinates	Axis 1	NaN	Axis 2	NaN	Axis 3	NaN	Axis 4	NaN	Axis 5	NaN	Axis 6	0.000000
TX Power	0.000000	RX Power	0.000000

550.021	0.0166735
550.099	0.0166893
550.177	0.0166991
550.255	0.0166129
550.333	0.0167197
550.411	0.0166003
550.489	0.0168259
550.567	0.0167079
550.646	0.0165732
550.724	0.0166856
550.802	0.0166388
550.880	0.0166104
550.958	0.0165437
551.036	0.0164742
551.114	0.0166571
551.192	0.0166504
551.271	0.0167845
551.349	0.0165739
551.427	0.0165749
551.505	0.0166917
551.583	0.0167530
551.661	0.0165862
551.739	0.0165246
551.817	0.0165418
551.896	0.0165437
551.974	0.0167047
552.052	0.0165508
552.130	0.0165698
552.208	0.0165936
552.286	0.0166628
552.364	0.0167815
552.442	0.0167311
552.521	0.0166354
552.599	0.0165850
552.677	0.0165242
552.755	0.0167164
552.833	0.0166434
552.911	0.0166296
552.989	0.0165852
553.067	0.0165982
553.146	0.0165646
553.224	0.0167023
553.302	0.0165195
553.380	0.0165828
553.458	0.0165502
553.536	0.0166106
553.614	0.0166649
553.692	0.0166243
553.771	0.0165408
553.849	0.0165589
553.927	0.0166226
554.005	0.0165185
554.083	0.0165994
554.161	0.0168279
554.239	0.0166553
554.317	0.0166765
554.396	0.0166324
554.474	0.0165916
554.552	0.0166651
554.630	0.0167754
554.708	0.0165415
554.786	0.0166499
554.864	0.0166232
554.942	0.0166720
555.021	0.0166420
555.099	0.0166341
555.177	0.0166529
555.255	0.0165250
555.333	0.0165806
555.411	0.0165346
555.489	0.0166764
555.567	0.0167517
555.646	0.0166136
555.724	0.0165710
555.802	0.0165723
555.880	0.0165574
555.958	0.0165966
556.036	0.0166109
556.114	0.0167539
556.192	0.0164838
556.271	0.0165594
556.349	0.0165974
556.427	0.0164928
556.505	0.0164252
556.583	0.0165499
556.661	0.0166560
556.739	0.0165842
556.817	0.0166209
556.896	0.0165950
556.974	0.0165840
557.052	0.0165590
557.130	0.0167139
557.208	0.0166519
557.286	0.0164865
557.364	0.0165446
557.442	0.0166505
557.521	0.0165564
557.599	0.0166026
557.677	0.0165136
557.755	0.0166035
557.833	0.0166350
557.911	0.0165104
557.989	0.0166253
558.067	0.0166493
558.146	0.0165731
558.224	0.0165726
558.302	0.0165632
558.380	0.0166170
558.458	0.0165666
558.536	0.0165511
558.614	0.0166058
558.692	0.0167010
558.771	0.0165633
558.849	0.0166644
558.927	0.0167014
559.005	0.0164446
559.083	0.0164714
559.161	0.0167435
559.239	0.0165335
559.317	0.0165305
559.396	0.0166169
559.474	0.0167325
559.552	0.0166203
559.630	0.0165403
559.708	0.0166055
559.786	0.0164196
559.864	0.0165089
559.942	0.0165723
560.021	0.0166239
560.099	0.0167071
560.177	0.0165511
560.255	0.0166556
560.333	0.0166102
560.411	0.0165728
560.489	0.0165244
560.567	0.0165420
560.646	0.0166675
560.724	0.0166625
560.802	0.0164671
560.880	0.0166560
560.958	0.0166073
561.036	0.0165974
561.114	0.0166329
561.192	0.0166389
561.271	0.0164423
561.349	0.0164815
561.427	0.0166783
561.505	0.0166663
561.583	0.0165237
561.661	0.0165549
561.739	0.0167227
561.817	0.0166932
561.896	0.0166033
561.974	0.0165891
562.052	0.0165359
562.130	0.0164338
562.208	0.0168233
562.286	0.0167588
562.364	0.0166362
562.442	0.0166546
562.521	0.0164848
562.599	0.0166518
562.677	0.0167130
562.755	0.0166191
562.833	0.0166982
562.911	0.0166566
562.989	0.0165516
563.067	0.0166016
563.146	0.0165442
563.224	0.0165878
563.302	0.0165540
563.380	0.0165692
563.458	0.0165719
563.536	0.0167756
563.614	0.0166514
563.692	0.0165948
563.771	0.0166864
563.849	0.0165569
563.927	0.0165585
564.005	0.0166815
564.083	0.0166478
564.161	0.0167637
564.239	0.0167033
564.317	0.0164999
564.396	0.0167284
564.474	0.0167327
564.552	0.0165504
564.630	0.0166901
564.708	0.0168206
564.786	0.0167180
564.864	0.0166359
564.942	0.0165392
565.021	0.0166330
565.099	0.0166201
565.177	0.0166364
565.255	0.0167759
565.333	0.0165393
565.411	0.0164554
565.489	0.0167121
565.567	0.0165887
565.646	0.0165724
565.724	0.0164760
565.802	0.0166193
565.880	0.0167387
565.958	0.0165601
566.036	0.0165982
566.114	0.0167238
566.192	0.0166772
566.271	0.0167170
566.349	0.0167319
566.427	0.0165977
566.505	0.0166602
566.583	0.0166304
566.661	0.0167313
566.739	0.0165141
566.817	0.0166783
566.896	0.0167209
566.974	0.0166582
567.052	0.0166031
567.130	0.0167336
567.208	0.0166135
567.286	0.0166924
567.364	0.0167223
567.442	0.0167757
567.521	0.0166998
567.599	0.0167833
567.677	0.0166887
567.755	0.0166721
567.833	0.0166836
567.911	0.0167023
567.989	0.0166638
568.067	0.0167208
568.146	0.0166647
568.224	0.0165873
568.302	0.0166760
568.380	0.0166750
568.458	0.0167107
568.536	0.0166781
568.614	0.0167941
568.692	0.0168620
568.771	0.0166392
568.849	0.0166203
568.927	0.0168064
569.005	0.0165775
569.083	0.0167044
569.161	0.0166991
569.239	0.0166412
569.317	0.0167805
569.396	0.0167613
569.474	0.0167542
569.552	0.0168485
569.630	0.0166444
569.708	0.0166013
569.786	0.0166851
569.864	0.0166814
569.942	0.0166539
570.021	0.0167513
570.099	0.0167260
570.177	0.0166777
570.255	0.0166386
570.333	0.0166154
570.411	0.0166585
570.489	0.0168030
570.567	0.0167356
570.646	0.0167181
570.724	0.0166299
570.802	0.0167115
570.880	0.0167046
570.958	0.0166724
571.036	0.0166238
571.114	0.0165896
571.192	0.0165427
571.271	0.0166174
571.349	0.0165622
571.427	0.0167932
571.505	0.0166994
571.583	0.0166801
571.661	0.0168286
571.739	0.0166653
571.817	0.0166366
571.896	0.0166656
571.974	0.0168661
572.052	0.0166959
572.130	0.0166962
572.208	0.0167624
572.286	0.0165878
572.364	0.0166837
572.442	0.0166800
572.521	0.0167049
572.599	0.0167213
572.677	0.0166321
572.755	0.0167989
572.833	0.0166756
572.911	0.0165617
572.989	0.0166845
573.067	0.0165954
573.146	0.0166925
573.224	0.0166945
573.302	0.0167380
573.380	0.0165765
573.458	0.0165474
573.536	0.0166006
573.614	0.0166349
573.692	0.0167071
573.771	0.0165517
573.849	0.0165464
573.927	0.0166048
574.005	0.0165252
574.083	0.0166137
574.161	0.0165632
574.239	0.0167303
574.317	0.0166329
574.396	0.0166188
574.474	0.0166045
574.552	0.0165447
574.630	0.0165444
574.708	0.0166813
574.786	0.0165876
574.864	0.0165883
574.942	0.0165697
575.021	0.0165746
575.099	0.0166706
575.177	0.0167018
575.255	0.0166796
575.333	0.0165838
575.411	0.0165435
575.489	0.0166684
575.567	0.0165242
575.646	0.0166465
575.724	0.0167081
575.802	0.0167006
575.880	0.0165079
575.958	0.0165027
576.036	0.0165606
576.114	0.0165945
576.192	0.0165757
576.271	0.0167281
576.349	0.0166222
576.427	0.0166453
576.505	0.0165019
576.583	0.0166122
576.661	0.0166634
576.739	0.0168275
576.817	0.0166319
576.896	0.0165813
576.974	0.0166159
577.052	0.0165246
577.130	0.0168063
577.208	0.0167633
577.286	0.0165492
577.364	0.0165766
577.442	0.0166298
577.521	0.0165341
577.599	0.0165849
577.677	0.0166581
577.755	0.0166525
577.833	0.0166309
577.911	0.0167396
577.989	0.0165385
578.067	0.0165401
578.146	0.0166553
578.224	0.0166597
578.302	0.0165247
578.380	0.0165755
578.458	0.0167158
578.536	0.0166826
578.614	0.0167415
578.692	0.0165492
578.771	0.0166656
578.849	0.0165941
578.927	0.0165744
579.005	0.0165198
579.083	0.0164706
579.161	0.0164571
579.239	0.0167092
579.317	0.0165432
579.396	0.0164943
579.474	0.0166726
579.552	0.0166591
579.630	0.0165977
579.708	0.0165853
579.786	0.0165937
579.864	0.0166331
579.942	0.0165302
580.021	0.0165372
580.099	0.0166006
580.177	0.0166409
580.255	0.0166055
580.333	0.0165167
580.411	0.0165236
580.489	0.0167491
580.567	0.0165804
580.646	0.0165071
580.724	0.0164323
580.802	0.0166242
580.880	0.0165128
580.958	0.0164083
581.036	0.0165192
581.114	0.0165454
581.192	0.0165940
581.271	0.0164205
581.349	0.0165038
581.427	0.0164495
581.505	0.0165187
581.583	0.0164041
581.661	0.0165484
581.739	0.0164648
581.817	0.0165046
581.896	0.0166740
581.974	0.0163128
582.052	0.0164705
582.130	0.0165904
582.208	0.0166312
582.286	0.0164430
582.364	0.0164172
582.442	0.0165041
582.521	0.0163831
582.599	0.0164628
582.677	0.0164548
582.755	0.0163633
582.833	0.0165502
582.911	0.0165269
582.989	0.0164330
583.067	0.0163953
583.146	0.0163396
583.224	0.0162791
583.302	0.0165394
583.380	0.0164600
583.458	0.0163964
583.536	0.0165810
583.614	0.0164713
583.692	0.0164182
583.771	0.0166716
583.849	0.0164819
583.927	0.0164484
584.005	0.0165508
584.083	0.0164755
584.161	0.0165186
584.239	0.0165866
584.317	0.0163927
584.396	0.0165390
584.474	0.0165775
584.552	0.0164084
584.630	0.0166042
584.708	0.0165108
584.786	0.0164947
584.864	0.0164606
584.942	0.0164758
585.021	0.0166525
585.099	0.0165091
585.177	0.0165268
585.255	0.0164306
585.333	0.0164880
585.411	0.0164821
585.489	0.0165718
585.567	0.0164449
585.646	0.0165372
585.724	0.0163730
585.802	0.0164712
585.880	0.0164725
585.958	0.0164262
586.036	0.0164651
586.114	0.0165935
586.192	0.0166266
586.271	0.0164457
586.349	0.0165947
586.427	0.0165804
586.505	0.0166789
586.583	0.0166755
586.661	0.0166966
586.739	0.0166602
586.817	0.0166994
586.896	0.0166000
586.974	0.0166661
587.052	0.0166305
587.130	0.0166048
587.208	0.0166403
587.286	0.0167021
587.364	0.0167178
587.442	0.0166328
587.521	0.0166145
587.599	0.0165922
587.677	0.0165681
587.755	0.0165912
587.833	0.0165351
587.911	0.0164447
587.989	0.0165911
588.067	0.0164819
588.146	0.0166874
588.224	0.0165938
588.302	0.0165714
588.380	0.0166852
588.458	0.0166586
588.536	0.0166875
588.614	0.0166699
588.692	0.0165603
588.771	0.0165635
588.849	0.0166587
588.927	0.0166369
589.005	0.0166894
589.083	0.0166906
589.161	0.0165348
589.239	0.0166682
589.317	0.0167365
589.396	0.0166337
589.474	0.0166128
589.552	0.0166030
589.630	0.0167522
589.708	0.0166875
589.786	0.0167180
589.864	0.0166090
589.942	0.0166865
590.021	0.0168351
590.099	0.0167543
590.177	0.0167176
590.255	0.0167149
590.333	0.0166000
590.411	0.0166657
590.489	0.0167673
590.567	0.0166570
590.646	0.0167238
590.724	0.0167439
590.802	0.0166177
590.880	0.0167510
590.958	0.0167390
591.036	0.0167020
591.114	0.0167348
591.192	0.0166821
591.271	0.0167420
591.349	0.0167979
591.427	0.0167188
591.505	0.0168221
591.583	0.0168289
591.661	0.0166605
591.739	0.0166700
591.817	0.0168580
591.896	0.0168145
591.974	0.0167645
592.052	0.0168614
592.130	0.0167066
592.208	0.0167648
592.286	0.0168446
592.364	0.0168169
592.442	0.0166939
592.521	0.0167386
592.599	0.0168667
592.677	0.0166936
592.755	0.0166798
592.833	0.0167580
592.911	0.0167354
592.989	0.0168040
593.067	0.0167616
593.146	0.0166074
593.224	0.0166639
593.302	0.0167118
593.380	0.0167121
593.458	0.0165919
593.536	0.0166465
593.614	0.0167520
593.692	0.0168005
593.771	0.0167369
593.849	0.0166694
593.927	0.0165887
594.005	0.0167104
594.083	0.0167896
594.161	0.0167659
594.239	0.0167092
594.317	0.0167349
594.396	0.0166965
594.474	0.0166866
594.552	0.0166920
594.630	0.0166776
594.708	0.0167253
594.786	0.0167049
594.864	0.0167428
594.942	0.0167189
595.021	0.0167063
595.099	0.0166462
595.177	0.0166842
595.255	0.0166850
595.333	0.0167233
595.411	0.0165267
595.489	0.0166924
595.567	0.0166086
595.646	0.0165359
595.724	0.0165405
595.802	0.0165379
595.880	0.0166142
595.958	0.0166801
596.036	0.0165126
596.114	0.0166076
596.192	0.0166872
596.271	0.0167384
596.349	0.0165222
596.427	0.0164757
596.505	0.0166342
596.583	0.0165437
596.661	0.0164981
596.739	0.0166978
596.817	0.0165337
596.896	0.0165112
596.974	0.0165031
597.052	0.0164536
597.130	0.0164017
597.208	0.0164143
597.286	0.0164727
597.364	0.0164990
597.442	0.0165427
597.521	0.0164652
597.599	0.0166164
597.677	0.0165167
597.755	0.0165086
597.833	0.0165197
597.911	0.0164649
597.989	0.0165208
598.067	0.0165258
598.146	0.0165451
598.224	0.0164117
598.302	0.0163590
598.380	0.0164432
598.458	0.0165133
598.536	0.0163956
598.614	0.0164671
598.692	0.0164047
598.771	0.0164217
598.849	0.0163553
598.927	0.0165022
599.005	0.0165816
599.083	0.0164826
599.161	0.0164887
599.239	0.0163952
599.317	0.0164005
599.396	0.0164190
599.474	0.0164302
599.552	0.0164573
599.630	0.0165808
599.708	0.0164444
599.786	0.0163436
599.864	0.0164449
599.942	0.0165310
600.021	0.0166102
600.099	0.0164182
600.177	0.0164501
600.255	0.0165252
600.333	0.0164926
600.411	0.0164549
600.489	0.0165127
600.567	0.0164054
600.646	0.0165404
600.724	0.0164211
600.802	0.0164813
600.880	0.0164624
600.958	0.0165554
601.036	0.0165553
601.114	0.0164115
601.192	0.0166476
601.271	0.0166508
601.349	0.0164222
601.427	0.0165855
601.505	0.0165300
601.583	0.0165449
601.661	0.0165471
601.739	0.0166337
601.817	0.0165008
601.896	0.0164457
601.974	0.0166100
602.052	0.0166665
602.130	0.0164973
602.208	0.0165072
602.286	0.0164339
602.364	0.0165092
602.442	0.0164909
602.521	0.0166073
602.599	0.0165403
602.677	0.0165633
602.755	0.0165378
602.833	0.0165508
602.911	0.0164207
602.989	0.0164812
603.067	0.0164988
603.146	0.0165490
603.224	0.0165285
603.302	0.0165218
603.380	0.0165953
603.458	0.0165072
603.536	0.0165929
603.614	0.0165278
603.692	0.0166328
603.771	0.0165215
603.849	0.0165675
603.927	0.0165425
604.005	0.0164571
604.083	0.0165323
604.161	0.0167356
604.239	0.0166513
604.317	0.0166652
604.396	0.0165742
604.474	0.0166034
604.552	0.0165816
604.630	0.0165621
604.708	0.0165643
604.786	0.0165017
604.864	0.0165015
604.942	0.0166473
605.021	0.0165067
605.099	0.0165542
605.177	0.0165021
605.255	0.0164297
605.333	0.0164935
605.411	0.0166145
605.489	0.0165197
605.567	0.0165859
605.646	0.0165172
605.724	0.0165526
605.802	0.0165736
605.880	0.0165096
605.958	0.0165699
606.036	0.0165676
606.114	0.0164192
606.192	0.0166779
606.271	0.0165289
606.349	0.0165923
606.427	0.0166891
606.505	0.0166338
606.583	0.0166805
606.661	0.0165097
606.739	0.0164736
606.817	0.0164959
606.896	0.0166219
606.974	0.0165947
607.052	0.0165049
607.130	0.0165392
607.208	0.0165915
607.286	0.0164928
607.364	0.0166179
607.442	0.0165540
607.521	0.0166344
607.599	0.0165852
607.677	0.0164528
607.755	0.0165480
607.833	0.0166107
607.911	0.0165994
607.989	0.0166388
608.067	0.0167081
608.146	0.0166116
608.224	0.0165384
608.302	0.0165648
608.380	0.0167747
608.458	0.0167046
608.536	0.0165659
608.614	0.0166204
608.692	0.0167768
608.771	0.0167181
608.849	0.0166183
608.927	0.0165894
609.005	0.0166981
609.083	0.0167013
609.161	0.0166694
609.239	0.0165285
609.317	0.0166082
609.396	0.0167160
609.474	0.0165591
609.552	0.0166235
609.630	0.0166325
609.708	0.0166183
609.786	0.0166616
609.864	0.0164967
609.942	0.0165402
610.021	0.0165588
610.099	0.0166291
610.177	0.0165400
610.255	0.0166281
610.333	0.0166094
610.411	0.0165106
610.489	0.0167587
610.567	0.0166989
610.646	0.0164622
610.724	0.0166056
610.802	0.0166002
610.880	0.0166273
610.958	0.0165862
611.036	0.0165903
611.114	0.0165356
611.192	0.0165853
611.271	0.0165609
611.349	0.0165764
611.427	0.0164679
611.505	0.0164453
611.583	0.0167265
611.661	0.0166742
611.739	0.0164651
611.817	0.0165440
611.896	0.0165878
611.974	0.0165927
612.052	0.0166919
612.130	0.0165466
612.208	0.0164742
612.286	0.0165174
612.364	0.0165940
612.442	0.0167186
612.521	0.0167179
612.599	0.0165577
612.677	0.0166273
612.755	0.0165861
612.833	0.0166496
612.911	0.0165898
612.989	0.0166737
613.067	0.0166247
613.146	0.0167239
613.224	0.0166875
613.302	0.0166398
613.380	0.0166914
613.458	0.0164934
613.536	0.0167364
613.614	0.0165146
613.692	0.0166450
613.771	0.0167593
613.849	0.0166825
613.927	0.0167521
614.005	0.0166536
614.083	0.0167933
614.161	0.0165908
614.239	0.0167350
614.317	0.0166763
614.396	0.0166015
614.474	0.0167973
614.552	0.0167158
614.630	0.0165902
614.708	0.0167450
614.786	0.0168030
614.864	0.0167059
614.942	0.0166676
615.021	0.0167599
615.099	0.0166222
615.177	0.0167107
615.255	0.0165558
615.333	0.0165850
615.411	0.0167561
615.489	0.0166530
615.567	0.0166649
615.646	0.0165859
615.724	0.0166946
615.802	0.0166952
615.880	0.0166859
615.958	0.0166501
616.036	0.0167331
616.114	0.0166905
616.192	0.0166378
616.271	0.0166969
616.349	0.0167833
616.427	0.0167236
616.505	0.0165998
616.583	0.0166379
616.661	0.0167511
616.739	0.0166685
616.817	0.0165995
616.896	0.0167276
616.974	0.0167471
617.052	0.0166006
617.130	0.0166467
617.208	0.0166420
617.286	0.0167951
617.364	0.0166226
617.442	0.0165397
617.521	0.0166655
617.599	0.0164752
617.677	0.0167258
617.755	0.0165954
617.833	0.0166366
617.911	0.0166903
617.989	0.0167531
618.067	0.0166209
618.146	0.0165336
618.224	0.0166681
618.302	0.0167442
618.380	0.0166572
618.458	0.0166848
618.536	0.0166290
618.614	0.0165381
618.692	0.0166289
618.771	0.0165681
618.849	0.0166985
618.927	0.0166011
619.005	0.0166459
619.083	0.0165443
619.161	0.0166229
619.239	0.0165922
619.317	0.0166103
619.396	0.0165598
619.474	0.0164716
619.552	0.0164840
619.630	0.0164746
619.708	0.0165804
619.786	0.0165506
619.864	0.0166251
619.942	0.0165182
620.021	0.0165811
620.099	0.0165371
620.177	0.0165163
620.255	0.0165742
620.333	0.0164511
620.411	0.0165646
620.489	0.0165759
620.567	0.0164291
620.646	0.0165122
620.724	0.0165536
620.802	0.0166527
620.880	0.0164988
620.958	0.0164885
621.036	0.0165405
621.114	0.0165125
621.192	0.0164977
621.271	0.0165012
621.349	0.0165231
621.427	0.0165980
621.505	0.0165376
621.583	0.0165354
621.661	0.0164880
621.739	0.0164765
621.817	0.0166143
621.896	0.0164808
621.974	0.0164262
622.052	0.0164666
622.130	0.0165192
622.208	0.0165551
622.286	0.0165616
622.364	0.0164643
622.442	0.0164529
622.521	0.0163657
622.599	0.0164999
622.677	0.0165664
622.755	0.0165359
622.833	0.0166449
622.911	0.0164970
622.989	0.0165987
623.067	0.0167155
623.146	0.0165710
623.224	0.0165567
623.302	0.0164773
623.380	0.0166177
623.458	0.0165857
623.536	0.0166133
623.614	0.0165850
623.692	0.0165480
623.771	0.0165550
623.849	0.0166417
623.927	0.0165596
624.005	0.0165271
624.083	0.0165161
624.161	0.0167043
624.239	0.0166093
624.317	0.0165231
624.396	0.0165440
624.474	0.0165057
624.552	0.0164971
624.630	0.0165517
624.708	0.0164975
624.786	0.0166615
624.864	0.0165211
624.942	0.0165653
625.021	0.0165065
625.099	0.0166715
625.177	0.0166238
625.255	0.0164848
625.333	0.0166614
625.411	0.0166025
625.489	0.0165626
625.567	0.0164890
625.646	0.0166280
625.724	0.0165214
625.802	0.0165357
625.880	0.0164111
625.958	0.0165804
626.036	0.0164468
626.114	0.0166249
626.192	0.0164893
626.271	0.0164739
626.349	0.0165980
626.427	0.0165592
626.505	0.0165310
626.583	0.0164947
626.661	0.0164765
626.739	0.0165462
626.817	0.0165822
626.896	0.0164874
626.974	0.0165725
627.052	0.0165366
627.130	0.0164609
627.208	0.0165241
627.286	0.0165739
627.364	0.0167798
627.442	0.0166068
627.521	0.0164793
627.599	0.0165231
627.677	0.0164730
627.755	0.0165758
627.833	0.0166312
627.911	0.0165384
627.989	0.0166543
628.067	0.0165292
628.146	0.0165485
628.224	0.0165660
628.302	0.0165375
628.380	0.0164459
628.458	0.0166162
628.536	0.0166953
628.614	0.0164333
628.692	0.0166638
628.771	0.0165890
628.849	0.0166206
628.927	0.0164680
629.005	0.0165456
629.083	0.0166528
629.161	0.0165417
629.239	0.0164763
629.317	0.0164728
629.396	0.0164760
629.474	0.0165806
629.552	0.0165907
629.630	0.0166190
629.708	0.0166269
629.786	0.0166109
629.864	0.0164690
629.942	0.0164817
630.021	0.0165960
630.099	0.0164556
630.177	0.0167645
630.255	0.0165722
630.333	0.0164201
630.411	0.0166108
630.489	0.0165752
630.567	0.0165257
630.646	0.0165652
630.724	0.0165450
630.802	0.0165379
630.880	0.0165981
630.958	0.0165334
631.036	0.0166227
631.114	0.0165968
631.192	0.0164045
631.271	0.0166063
631.349	0.0165513
631.427	0.0166085
631.505	0.0166647
631.583	0.0167108
631.661	0.0165968
631.739	0.0165514
631.817	0.0166644
631.896	0.0167197
631.974	0.0166414
632.052	0.0166331
632.130	0.0166475
632.208	0.0165216
632.286	0.0166190
632.364	0.0167377
632.442	0.0165626
632.521	0.0164915
632.599	0.0167223
632.677	0.0165011
632.755	0.0166349
632.833	0.0166559
632.911	0.0165713
632.989	0.0165760
633.067	0.0167043
633.146	0.0166558
633.224	0.0166296
633.302	0.0165783
633.380	0.0165943
633.458	0.0166943
633.536	0.0166424
633.614	0.0166871
633.692	0.0167357
633.771	0.0164958
633.849	0.0164715
633.927	0.0164243
634.005	0.0165500
634.083	0.0166145
634.161	0.0166065
634.239	0.0166447
634.317	0.0165386
634.396	0.0165761
634.474	0.0165478
634.552	0.0166707
634.630	0.0166460
634.708	0.0166653
634.786	0.0168269
634.864	0.0166990
634.942	0.0167604
635.021	0.0167634
635.099	0.0167320
635.177	0.0166459
635.255	0.0167046
635.333	0.0167395
635.411	0.0166608
635.489	0.0166559
635.567	0.0166203
635.646	0.0167063
635.724	0.0166825
635.802	0.0167133
635.880	0.0167839
635.958	0.0166174
636.036	0.0166993
636.114	0.0167169
636.192	0.0167509
636.271	0.0166707
636.349	0.0167737
636.427	0.0166331
636.505	0.0168452
636.583	0.0167006
636.661	0.0167516
636.739	0.0166875
636.817	0.0166179
636.896	0.0166174
636.974	0.0167901
637.052	0.0167133
637.130	0.0168154
637.208	0.0167367
637.286	0.0167210
637.364	0.0168209
637.442	0.0166673
637.521	0.0167410
637.599	0.0167738
637.677	0.0167792
637.755	0.0167478
637.833	0.0166792
637.911	0.0167172
637.989	0.0167487
638.067	0.0166709
638.146	0.0166075
638.224	0.0167296
638.302	0.0168031
638.380	0.0167366
638.458	0.0167300
638.536	0.0166555
638.614	0.0167316
638.692	0.0166959
638.771	0.0166330
638.849	0.0168697
638.927	0.0167657
639.005	0.0167926
639.083	0.0165359
639.161	0.0165459
639.239	0.0165941
639.317	0.0166816
639.396	0.0163759
639.474	0.0165532
639.552	0.0168192
639.630	0.0165761
639.708	0.0165193
639.786	0.0166611
639.864	0.0164742
639.942	0.0165683
640.021	0.0166779
640.099	0.0166568
640.177	0.0165901
640.255	0.0165324
640.333	0.0165453
640.411	0.0166674
640.489	0.0166515
640.567	0.0165961
640.646	0.0165294
640.724	0.0165969
640.802	0.0164748
640.880	0.0164364
640.958	0.0166089
641.036	0.0166045
641.114	0.0166406
641.192	0.0166670
641.271	0.0165411
641.349	0.0164308
641.427	0.0165835
641.505	0.0165876
641.583	0.0166483
641.661	0.0166621
641.739	0.0165858
641.817	0.0166337
641.896	0.0167155
641.974	0.0165643
642.052	0.0164751
642.130	0.0165571
642.208	0.0165298
642.286	0.0166975
642.364	0.0166161
642.442	0.0166423
642.521	0.0165818
642.599	0.0167172
642.677	0.0166557
642.755	0.0166782
642.833	0.0165971
642.911	0.0166023
642.989	0.0166504
643.067	0.0165520
643.146	0.0166155
643.224	0.0165273
643.302	0.0165540
643.380	0.0164349
643.458	0.0166580
643.536	0.0166174
643.614	0.0165655
643.692	0.0165939
643.771	0.0166741
643.849	0.0165951
643.927	0.0165508
644.005	0.0166270
644.083	0.0165781
644.161	0.0165379
644.239	0.0164445
644.317	0.0165615
644.396	0.0164861
644.474	0.0165424
644.552	0.0166870
644.630	0.0165341
644.708	0.0165262
644.786	0.0167115
644.864	0.0164978
644.942	0.0164412
645.021	0.0165034
645.099	0.0166006
645.177	0.0165452
645.255	0.0166785
645.333	0.0166425
645.411	0.0164540
645.489	0.0164197
645.567	0.0166357
645.646	0.0166511
645.724	0.0165166
645.802	0.0165578
645.880	0.0165852
645.958	0.0164693
646.036	0.0164722
646.114	0.0166348
646.192	0.0165360
646.271	0.0166361
646.349	0.0165786
646.427	0.0165424
646.505	0.0165243
646.583	0.0166724
646.661	0.0166739
646.739	0.0166156
646.817	0.0165939
646.896	0.0166070
646.974	0.0165186
647.052	0.0165756
647.130	0.0165514
647.208	0.0165378
647.286	0.0165154
647.364	0.0165414
647.442	0.0165096
647.521	0.0167188
647.599	0.0165531
647.677	0.0167017
647.755	0.0164799
647.833	0.0165675
647.911	0.0166016
647.989	0.0165574
648.067	0.0164884
648.146	0.0165999
648.224	0.0167125
648.302	0.0165736
648.380	0.0166052
648.458	0.0165627
648.536	0.0166102
648.614	0.0166168
648.692	0.0164542
648.771	0.0164162
648.849	0.0165119
648.927	0.0165782
649.005	0.0165881
649.083	0.0165268
649.161	0.0164711
649.239	0.0165883
649.317	0.0165198
649.396	0.0165184
649.474	0.0164495
649.552	0.0164408
649.630	0.0164348
649.708	0.0165781
649.786	0.0165479
649.864	0.0165567
649.942	0.0165630
650.021	0.0165779
650.099	0.0165424
650.177	0.0165729
650.255	0.0164902
650.333	0.0166155
650.411	0.0165927
650.489	0.0165100
650.567	0.0164043
650.646	0.0165147
650.724	0.0165575
650.802	0.0164554
650.880	0.0164464
650.958	0.0165659
651.036	0.0165022
651.114	0.0164265
651.192	0.0165303
651.271	0.0165496
651.349	0.0165540
651.427	0.0165292
651.505	0.0165363
651.583	0.0166465
651.661	0.0165665
651.739	0.0165442
651.817	0.0165687
651.896	0.0167461
651.974	0.0166641
652.052	0.0166647
652.130	0.0164967
652.208	0.0166124
652.286	0.0166012
652.364	0.0166505
652.442	0.0166048
652.521	0.0164967
652.599	0.0166212
652.677	0.0166652
652.755	0.0165315
652.833	0.0165528
652.911	0.0165317
652.989	0.0166168
653.067	0.0164920
653.146	0.0165509
653.224	0.0165762
653.302	0.0165553
653.380	0.0164816
653.458	0.0165669
653.536	0.0166422
653.614	0.0165221
653.692	0.0164691
653.771	0.0165563
653.849	0.0165633
653.927	0.0166038
654.005	0.0167150
654.083	0.0166870
654.161	0.0165545
654.239	0.0164708
654.317	0.0166456
654.396	0.0165364
654.474	0.0165542
654.552	0.0164520
654.630	0.0165195
654.708	0.0165253
654.786	0.0166061
654.864	0.0163473
654.942	0.0165389
655.021	0.0166335
655.099	0.0164400
655.177	0.0166645
655.255	0.0166249
655.333	0.0165785
655.411	0.0167062
655.489	0.0165919
655.567	0.0165784
655.646	0.0165246
655.724	0.0165467
655.802	0.0165368
655.880	0.0164442
655.958	0.0164516
656.036	0.0164775
656.114	0.0166666
656.192	0.0166032
656.271	0.0167005
656.349	0.0164650
656.427	0.0165923
656.505	0.0164669
656.583	0.0164861
656.661	0.0167078
656.739	0.0166331
656.817	0.0164757
656.896	0.0163916
656.974	0.0164883
657.052	0.0165199
657.130	0.0163329
657.208	0.0165588
657.286	0.0166803
657.364	0.0166484
657.442	0.0164985
657.521	0.0164494
657.599	0.0165925
657.677	0.0165253
657.755	0.0165643
657.833	0.0165483
657.911	0.0166320
657.989	0.0164704
658.067	0.0164581
658.146	0.0167348
658.224	0.0164675
658.302	0.0164503
658.380	0.0164001
658.458	0.0165878
658.536	0.0165562
658.614	0.0165026
658.692	0.0165559
658.771	0.0165086
658.849	0.0165110
658.927	0.0165218
659.005	0.0165685
659.083	0.0167010
659.161	0.0165022
659.239	0.0166142
659.317	0.0165230
659.396	0.0163777
659.474	0.0165682
659.552	0.0166401
659.630	0.0166202
659.708	0.0164618
659.786	0.0164896
659.864	0.0165540
659.942	0.0165520
660.021	0.0165961
660.099	0.0166634
660.177	0.0165878
660.255	0.0165350
660.333	0.0165696
660.411	0.0166199
660.489	0.0164944
660.567	0.0165828
660.646	0.0165337
660.724	0.0165828
660.802	0.0164558
660.880	0.0164873
660.958	0.0166386
661.036	0.0164922
661.114	0.0166233
661.192	0.0164951
661.271	0.0164873
661.349	0.0165430
661.427	0.0163776
661.505	0.0165198
661.583	0.0165036
661.661	0.0165388
661.739	0.0166644
661.817	0.0165849
661.896	0.0167446
661.974	0.0165560
662.052	0.0165528
662.130	0.0166399
662.208	0.0165598
662.286	0.0166165
662.364	0.0165971
662.442	0.0164346
662.521	0.0164545
662.599	0.0165642
662.677	0.0164507
662.755	0.0165968
662.833	0.0165340
662.911	0.0165471
662.989	0.0165513
663.067	0.0165301
663.146	0.0164750
663.224	0.0165810
663.302	0.0164539
663.380	0.0164747
663.458	0.0165942
663.536	0.0168081
663.614	0.0165447
663.692	0.0165109
663.771	0.0165652
663.849	0.0166094
663.927	0.0165982
664.005	0.0164773
664.083	0.0166323
664.161	0.0165041
664.239	0.0165955
664.317	0.0165340
664.396	0.0165942
664.474	0.0166625
664.552	0.0165360
664.630	0.0165704
664.708	0.0165737
664.786	0.0165501
664.864	0.0166506
664.942	0.0165548
665.021	0.0164313
665.099	0.0165685
665.177	0.0164627
665.255	0.0166514
665.333	0.0167554
665.411	0.0165147
665.489	0.0165674
665.567	0.0165775
665.646	0.0165745
665.724	0.0165788
665.802	0.0164967
665.880	0.0165087
665.958	0.0165075
666.036	0.0165527
666.114	0.0165558
666.192	0.0165309
666.271	0.0165442
666.349	0.0165524
666.427	0.0165666
666.505	0.0164385
666.583	0.0164603
666.661	0.0164870
666.739	0.0165192
666.817	0.0164687
666.896	0.0165887
666.974	0.0166849
667.052	0.0165349
667.130	0.0167240
667.208	0.0165542
667.286	0.0166119
667.364	0.0166602
667.442	0.0166171
667.521	0.0166164
667.599	0.0165711
667.677	0.0165865
667.755	0.0165608
667.833	0.0166302
667.911	0.0166945
667.989	0.0166167
668.067	0.0166604
668.146	0.0165488
668.224	0.0165921
668.302	0.0165056
668.380	0.0165767
668.458	0.0165324
668.536	0.0167860
668.614	0.0165508
668.692	0.0166367
668.771	0.0166602
668.849	0.0166432
668.927	0.0166003
669.005	0.0166169
669.083	0.0166720
669.161	0.0166071
669.239	0.0164683
669.317	0.0165060
669.396	0.0165793
669.474	0.0165115
669.552	0.0167056
669.630	0.0165428
669.708	0.0165600
669.786	0.0165056
669.864	0.0165438
669.942	0.0166107
670.021	0.0165678
670.099	0.0166355
670.177	0.0164443
670.255	0.0165084
670.333	0.0165366
670.411	0.0167088
670.489	0.0166447
670.567	0.0165102
670.646	0.0165929
670.724	0.0165495
670.802	0.0166580
670.880	0.0164595
670.958	0.0165057
671.036	0.0165054
671.114	0.0164106
671.192	0.0165753
671.271	0.0165504
671.349	0.0164195
671.427	0.0165038
671.505	0.0164262
671.583	0.0164516
671.661	0.0166364
671.739	0.0164440
671.817	0.0165342
671.896	0.0165862
671.974	0.0165260
672.052	0.0165301
672.130	0.0165808
672.208	0.0164256
672.286	0.0165832
672.364	0.0163440
672.442	0.0165721
672.521	0.0166171
672.599	0.0164327
672.677	0.0165246
672.755	0.0166251
672.833	0.0165894
672.911	0.0164636
672.989	0.0165150
673.067	0.0164325
673.146	0.0164648
673.224	0.0165024
673.302	0.0164954
673.380	0.0164583
673.458	0.0164582
673.536	0.0164472
673.614	0.0164945
673.692	0.0164349
673.771	0.0165461
673.849	0.0165746
673.927	0.0164636
674.005	0.0164228
674.083	0.0165102
674.161	0.0164809
674.239	0.0164684
674.317	0.0164629
674.396	0.0165179
674.474	0.0165493
674.552	0.0165860
674.630	0.0164596
674.708	0.0164118
674.786	0.0165878
674.864	0.0164731
674.942	0.0164249
675.021	0.0164606
675.099	0.0165978
675.177	0.0164715
675.255	0.0163913
675.333	0.0165075
675.411	0.0163263
675.489	0.0165600
675.567	0.0165397
675.646	0.0163923
675.724	0.0165494
675.802	0.0164490
675.880	0.0165263
675.958	0.0165411
676.036	0.0164745
676.114	0.0164721
676.192	0.0164404
676.271	0.0162893
676.349	0.0164900
676.427	0.0165273
676.505	0.0165662
676.583	0.0165935
676.661	0.0165009
676.739	0.0165221
676.817	0.0165948
676.896	0.0165329
676.974	0.0165383
677.052	0.0164470
677.130	0.0166975
677.208	0.0165688
677.286	0.0164091
677.364	0.0165039
677.442	0.0163272
677.521	0.0163656
677.599	0.0163111
677.677	0.0162524
677.755	0.0164755
677.833	0.0164106
677.911	0.0163546
677.989	0.0163701
678.067	0.0161848
678.146	0.0164349
678.224	0.0163728
678.302	0.0163371
678.380	0.0163347
678.458	0.0162998
678.536	0.0164135
678.614	0.0164636
678.692	0.0162508
678.771	0.0163034
678.849	0.0164705
678.927	0.0164912
679.005	0.0164991
679.083	0.0164617
679.161	0.0164648
679.239	0.0165456
679.317	0.0164533
679.396	0.0165875
679.474	0.0165494
679.552	0.0165921
679.630	0.0165292
679.708	0.0164769
679.786	0.0165351
679.864	0.0166040
679.942	0.0165178
680.021	0.0164919
680.099	0.0164062
680.177	0.0164629
680.255	0.0164980
680.333	0.0163364
680.411	0.0164063
680.489	0.0162833
680.567	0.0164217
680.646	0.0164661
680.724	0.0163129
680.802	0.0163060
680.880	0.0163030
680.958	0.0164887
681.036	0.0163573
681.114	0.0164122
681.192	0.0165116
681.271	0.0164751
681.349	0.0165292
681.427	0.0165856
681.505	0.0164434
681.583	0.0165276
681.661	0.0165771
681.739	0.0164651
681.817	0.0164818
681.896	0.0164852
681.974	0.0166615
682.052	0.0165411
682.130	0.0164323
682.208	0.0163764
682.286	0.0164565
682.364	0.0162981
682.442	0.0163551
682.521	0.0162940
682.599	0.0164295
682.677	0.0163871
682.755	0.0164329
682.833	0.0163423
682.911	0.0164220
682.989	0.0163806
683.067	0.0163190
683.146	0.0163094
683.224	0.0164462
683.302	0.0166701
683.380	0.0164367
683.458	0.0166222
683.536	0.0167219
683.614	0.0166768
683.692	0.0167819
683.771	0.0170028
683.849	0.0168678
683.927	0.0168186
684.005	0.0168306
684.083	0.0169259
684.161	0.0167711
684.239	0.0167953
684.317	0.0168676
684.396	0.0167214
684.474	0.0168494
684.552	0.0166052
684.630	0.0166243
684.708	0.0167056
684.786	0.0166459
684.864	0.0164877
684.942	0.0163538
685.021	0.0164749
685.099	0.0162858
685.177	0.0162436
685.255	0.0161714
685.333	0.0162231
685.411	0.0162302
685.489	0.0162560
685.567	0.0161661
685.646	0.0160993
685.724	0.0161764
685.802	0.0164266
685.880	0.0164436
685.958	0.0163471
686.036	0.0164816
686.114	0.0165163
686.192	0.0165224
686.271	0.0166611
686.349	0.0167770
686.427	0.0166326
686.505	0.0167189
686.583	0.0166879
686.661	0.0166400
686.739	0.0167504
686.817	0.0166725
686.896	0.0167286
686.974	0.0165092
687.052	0.0165724
687.130	0.0166711
687.208	0.0166072
687.286	0.0165932
687.364	0.0164754
687.442	0.0166259
687.521	0.0166814
687.599	0.0165253
687.677	0.0166043
687.755	0.0166957
687.833	0.0167664
687.911	0.0167578
687.989	0.0166715
688.067	0.0164895
688.146	0.0166608
688.224	0.0168813
688.302	0.0168800
688.380	0.0166199
688.458	0.0165918
688.536	0.0165634
688.614	0.0165766
688.692	0.0164713
688.771	0.0163599
688.849	0.0164400
688.927	0.0164219
689.005	0.0163226
689.083	0.0163453
689.161	0.0162952
689.239	0.0161413
689.317	0.0162598
689.396	0.0163245
689.474	0.0163228
689.552	0.0162621
689.630	0.0163238
689.708	0.0163882
689.786	0.0163931
689.864	0.0163612
689.942	0.0164547
690.021	0.0165170
690.099	0.0167069
690.177	0.0167274
690.255	0.0167789
690.333	0.0169033
690.411	0.0168011
690.489	0.0168903
690.567	0.0170369
690.646	0.0170977
690.724	0.0170716
690.802	0.0171194
690.880	0.0169675
690.958	0.0169410
691.036	0.0168686
691.114	0.0168581
691.192	0.0168295
691.271	0.0168559
691.349	0.0167796
691.427	0.0166586
691.505	0.0165308
691.583	0.0164993
691.661	0.0165765
691.739	0.0164905
691.817	0.0162943
691.896	0.0163448
691.974	0.0163795
692.052	0.0163518
692.130	0.0165205
692.208	0.0164016
692.286	0.0165273
692.364	0.0166472
692.442	0.0167392
692.521	0.0168329
692.599	0.0167988
692.677	0.0168801
692.755	0.0169021
692.833	0.0169106
692.911	0.0168006
692.989	0.0168132
693.067	0.0169633
693.146	0.0167763
693.224	0.0168947
693.302	0.0170229
693.380	0.0166570
693.458	0.0164751
693.536	0.0165067
693.614	0.0166447
693.692	0.0164276
693.771	0.0164671
693.849	0.0164438
693.927	0.0163512
694.005	0.0163967
694.083	0.0163903
694.161	0.0164128
694.239	0.0163059
694.317	0.0166344
694.396	0.0164472
694.474	0.0166439
694.552	0.0167249
694.630	0.0166550
694.708	0.0168475
694.786	0.0169209
694.864	0.0170692
694.942	0.0170679
695.021	0.0170965
695.099	0.0172290
695.177	0.0172133
695.255	0.0170850
695.333	0.0170715
695.411	0.0171783
695.489	0.0170735
695.567	0.0169150
695.646	0.0169197
695.724	0.0169474
695.802	0.0167495
695.880	0.0166969
695.958	0.0167643
696.036	0.0165306
696.114	0.0166836
696.192	0.0165527
696.271	0.0165358
696.349	0.0164553
696.427	0.0162904
696.505	0.0162893
696.583	0.0164607
696.661	0.0163464
696.739	0.0162806
696.817	0.0163399
696.896	0.0163877
696.974	0.0162357
697.052	0.0164327
697.130	0.0163572
697.208	0.0163805
697.286	0.0163457
697.364	0.0163174
697.442	0.0165432
697.521	0.0164465
697.599	0.0164594
697.677	0.0165224
697.755	0.0165124
697.833	0.0165088
697.911	0.0165234
697.989	0.0165835
698.067	0.0166033
698.146	0.0165783
698.224	0.0166012
698.302	0.0165337
698.380	0.0166158
698.458	0.0163836
698.536	0.0165120
698.614	0.0166066
698.692	0.0165335
698.771	0.0165701
698.849	0.0164412
698.927	0.0164601
699.005	0.0164148
699.083	0.0164029
699.161	0.0163699
699.239	0.0164395
699.317	0.0165254
699.396	0.0165364
699.474	0.0163999
699.552	0.0164246
699.630	0.0165646
699.708	0.0165115
699.786	0.0165601
699.864	0.0165596
699.942	0.0165531
700.021	0.0166908
700.099	0.0166392
700.177	0.0166515
700.255	0.0167209
700.333	0.0167224
700.411	0.0167850
700.489	0.0168239
700.567	0.0169587
700.646	0.0168800
700.724	0.0167821
700.802	0.0168252
700.880	0.0169065
700.958	0.0168777
701.036	0.0170706
701.114	0.0170643
701.192	0.0169476
701.271	0.0170768
701.349	0.0170316
701.427	0.0169916
701.505	0.0168325
701.583	0.0171033
701.661	0.0169493
701.739	0.0167494
701.817	0.0168530
701.896	0.0168527
701.974	0.0166718
702.052	0.0164557
702.130	0.0165775
702.208	0.0164545
702.286	0.0162797
702.364	0.0161739
702.442	0.0160377
702.521	0.0159798
702.599	0.0161254
702.677	0.0157712
702.755	0.0159658
702.833	0.0159685
702.911	0.0158917
702.989	0.0159489
703.067	0.0161447
703.146	0.0161267
703.224	0.0161563
703.302	0.0162149
703.380	0.0162646
703.458	0.0163055
703.536	0.0164014
703.614	0.0164782
703.692	0.0164959
703.771	0.0164630
703.849	0.0163792
703.927	0.0163604
704.005	0.0164662
704.083	0.0163824
704.161	0.0164407
704.239	0.0164035
704.317	0.0163980
704.396	0.0164571
704.474	0.0166992
704.552	0.0165857
704.630	0.0166302
704.708	0.0167448
704.786	0.0169400
704.864	0.0168762
704.942	0.0170509
705.021	0.0170965
705.099	0.0171321
705.177	0.0171896
705.255	0.0172244
705.333	0.0172172
705.411	0.0172966
705.489	0.0173833
705.567	0.0174316
705.646	0.0173495
705.724	0.0171587
705.802	0.0170474
705.880	0.0171757
705.958	0.0169306
706.036	0.0168712
706.114	0.0168092
706.192	0.0167755
706.271	0.0165857
706.349	0.0164697
706.427	0.0166398
706.505	0.0162834
706.583	0.0163789
706.661	0.0163366
706.739	0.0161465
706.817	0.0161465
706.896	0.0161823
706.974	0.0161189
707.052	0.0161835
707.130	0.0162699
707.208	0.0161364
707.286	0.0162627
707.364	0.0163598
707.442	0.0164897
707.521	0.0166078
707.599	0.0166190
707.677	0.0167752
707.755	0.0168380
707.833	0.0169079
707.911	0.0169157
707.989	0.0170014
708.067	0.0171269
708.146	0.0169618
708.224	0.0167554
708.302	0.0168793
708.380	0.0169343
708.458	0.0170470
708.536	0.0167299
708.614	0.0167754
708.692	0.0164840
708.771	0.0164494
708.849	0.0164747
708.927	0.0164318
709.005	0.0164009
709.083	0.0163050
709.161	0.0163306
709.239	0.0163185
709.317	0.0165540
709.396	0.0163741
709.474	0.0164956
709.552	0.0164054
709.630	0.0163348
709.708	0.0163954
709.786	0.0164596
709.864	0.0163435
709.942	0.0163841
710.021	0.0165164
710.099	0.0164136
710.177	0.0162807
710.255	0.0165081
710.333	0.0164710
710.411	0.0163727
710.489	0.0165553
710.567	0.0166383
710.646	0.0165853
710.724	0.0167664
710.802	0.0168905
710.880	0.0169220
710.958	0.0169925
711.036	0.0170718
711.114	0.0171652
711.192	0.0171987
711.271	0.0171838
711.349	0.0172997
711.427	0.0173834
711.505	0.0173237
711.583	0.0173098
711.661	0.0172019
711.739	0.0172544
711.817	0.0172388
711.896	0.0171825
711.974	0.0172284
712.052	0.0169858
712.130	0.0167284
712.208	0.0167017
712.286	0.0166277
712.364	0.0165769
712.442	0.0165894
712.521	0.0165467
712.599	0.0163895
712.677	0.0164629
712.755	0.0164558
712.833	0.0164422
712.911	0.0164697
712.989	0.0165173
713.067	0.0166251
713.146	0.0165278
713.224	0.0166832
713.302	0.0166086
713.380	0.0167166
713.458	0.0168444
713.536	0.0169583
713.614	0.0168085
713.692	0.0168289
713.771	0.0170400
713.849	0.0170955
713.927	0.0169833
714.005	0.0169653
714.083	0.0169143
714.161	0.0169547
714.239	0.0168578
714.317	0.0168616
714.396	0.0166187
714.474	0.0166591
714.552	0.0166325
714.630	0.0164351
714.708	0.0163493
714.786	0.0162729
714.864	0.0162328
714.942	0.0160934
715.021	0.0161340
715.099	0.0160697
715.177	0.0161586
715.255	0.0161955
715.333	0.0160710
715.411	0.0161676
715.489	0.0162476
715.567	0.0163705
715.646	0.0164151
715.724	0.0164194
715.802	0.0165559
715.880	0.0166525
715.958	0.0167059
716.036	0.0168323
716.114	0.0168962
716.192	0.0170771
716.271	0.0171285
716.349	0.0169968
716.427	0.0170333
716.505	0.0170433
716.583	0.0171136
716.661	0.0170000
716.739	0.0170092
716.817	0.0170194
716.896	0.0169225
716.974	0.0168950
717.052	0.0167834
717.130	0.0167460
717.208	0.0168890
717.286	0.0168199
717.364	0.0167297
717.442	0.0167788
717.521	0.0166483
717.599	0.0167049
717.677	0.0167506
717.755	0.0167586
717.833	0.0168282
717.911	0.0168568
717.989	0.0169038
718.067	0.0169402
718.146	0.0169759
718.224	0.0168818
718.302	0.0169969
718.380	0.0170068
718.458	0.0169994
718.536	0.0168806
718.614	0.0168280
718.692	0.0168983
718.771	0.0167618
718.849	0.0165163
718.927	0.0163593
719.005	0.0163538
719.083	0.0161297
719.161	0.0158801
719.239	0.0157081
719.317	0.0156046
719.396	0.0154799
719.474	0.0153790
719.552	0.0152885
719.630	0.0152476
719.708	0.0151644
719.786	0.0151942
719.864	0.0151660
719.942	0.0153011
720.021	0.0155276
720.099	0.0157471
720.177	0.0158442
720.255	0.0160941
720.333	0.0164490
720.411	0.0165005
720.489	0.0169057
720.567	0.0171523
720.646	0.0175645
720.724	0.0175974
720.802	0.0179544
720.880	0.0180723
720.958	0.0183172
721.036	0.0183730
721.114	0.0184414
721.192	0.0184913
721.271	0.0184747
721.349	0.0184203
721.427	0.0183984
721.505	0.0181966
721.583	0.0180983
721.661	0.0180365
721.739	0.0177309
721.817	0.0175673
721.896	0.0173436
721.974	0.0169865
722.052	0.0168437
722.130	0.0166413
722.208	0.0165474
722.286	0.0162589
722.364	0.0158862
722.442	0.0157866
722.521	0.0157426
722.599	0.0155984
722.677	0.0154417
722.755	0.0153161
722.833	0.0151366
722.911	0.0150682
722.989	0.0151142
723.067	0.0150734
723.146	0.0150701
723.224	0.0149760
723.302	0.0150520
723.380	0.0148927
723.458	0.0152979
723.536	0.0154116
723.614	0.0154363
723.692	0.0155366
723.771	0.0157439
723.849	0.0159242
723.927	0.0160669
724.005	0.0163300
724.083	0.0165149
724.161	0.0168190
724.239	0.0170627
724.317	0.0171803
724.396	0.0173196
724.474	0.0174771
724.552	0.0176952
724.630	0.0178183
724.708	0.0177225
724.786	0.0177270
724.864	0.0178072
724.942	0.0178428
725.021	0.0176972
725.099	0.0177489
725.177	0.0176407
725.255	0.0175674
725.333	0.0173774
725.411	0.0174151
725.489	0.0173736
725.567	0.0171461
725.646	0.0171972
725.724	0.0172348
725.802	0.0170979
725.880	0.0169575
725.958	0.0168198
726.036	0.0168188
726.114	0.0167715
726.192	0.0167071
726.271	0.0166263
726.349	0.0165258
726.427	0.0164450
726.505	0.0163974
726.583	0.0162151
726.661	0.0161197
726.739	0.0161637
726.817	0.0159862
726.896	0.0160665
726.974	0.0159830
727.052	0.0159698
727.130	0.0159698
727.208	0.0159190
727.286	0.0159734
727.364	0.0159379
727.442	0.0160606
727.521	0.0161084
727.599	0.0162030
727.677	0.0161547
727.755	0.0163226
727.833	0.0164479
727.911	0.0164916
727.989	0.0164900
728.067	0.0166397
728.146	0.0166800
728.224	0.0166472
728.302	0.0166089
728.380	0.0167005
728.458	0.0164409
728.536	0.0164124
728.614	0.0164436
728.692	0.0165021
728.771	0.0164830
728.849	0.0163093
728.927	0.0164740
729.005	0.0164736
729.083	0.0165118
729.161	0.0164988
729.239	0.0167230
729.317	0.0167936
729.396	0.0169110
729.474	0.0170288
729.552	0.0170837
729.630	0.0170287
729.708	0.0172573
729.786	0.0172308
729.864	0.0173565
729.942	0.0173512
730.021	0.0173331
730.099	0.0173724
730.177	0.0172671
730.255	0.0172131
730.333	0.0172754
730.411	0.0171625
730.489	0.0171918
730.567	0.0168884
730.646	0.0167711
730.724	0.0168408
730.802	0.0166520
730.880	0.0167719
730.958	0.0166024
731.036	0.0165028
731.114	0.0163605
731.192	0.0163103
731.271	0.0162036
731.349	0.0160775
731.427	0.0161653
731.505	0.0162380
731.583	0.0160518
731.661	0.0159587
731.739	0.0157550
731.817	0.0157381
731.896	0.0159575
731.974	0.0158834
732.052	0.0157381
732.130	0.0159131
732.208	0.0158135
732.286	0.0159136
732.364	0.0162047
732.442	0.0162022
732.521	0.0161787
732.599	0.0163394
732.677	0.0164732
732.755	0.0166763
732.833	0.0167245
732.911	0.0167226
732.989	0.0168504
733.067	0.0169831
733.146	0.0168427
733.224	0.0168499
733.302	0.0168623
733.380	0.0167165
733.458	0.0167336
733.536	0.0167027
733.614	0.0167666
733.692	0.0166080
733.771	0.0166034
733.849	0.0165774
733.927	0.0166177
734.005	0.0165614
734.083	0.0166003
734.161	0.0166792
734.239	0.0167750
734.317	0.0169714
734.396	0.0171478
734.474	0.0171977
734.552	0.0171189
734.630	0.0173301
734.708	0.0174847
734.786	0.0177383
734.864	0.0178242
734.942	0.0177541
735.021	0.0178577
735.099	0.0178542
735.177	0.0179931
735.255	0.0178142
735.333	0.0176105
735.411	0.0176314
735.489	0.0176726
735.567	0.0174431
735.646	0.0172735
735.724	0.0172597
735.802	0.0169121
735.880	0.0167913
735.958	0.0165487
736.036	0.0163644
736.114	0.0161118
736.192	0.0160361
736.271	0.0156868
736.349	0.0155689
736.427	0.0155544
736.505	0.0155028
736.583	0.0155239
736.661	0.0153630
736.739	0.0153916
736.817	0.0152757
736.896	0.0153551
736.974	0.0155443
737.052	0.0156595
737.130	0.0155544
737.208	0.0157098
737.286	0.0157577
737.364	0.0159684
737.442	0.0160931
737.521	0.0161718
737.599	0.0162850
737.677	0.0163586
737.755	0.0164939
737.833	0.0166552
737.911	0.0166162
737.989	0.0167325
738.067	0.0168797
738.146	0.0170462
738.224	0.0170429
738.302	0.0172354
738.380	0.0173472
738.458	0.0175180
738.536	0.0175866
738.614	0.0176408
738.692	0.0177227
738.771	0.0177511
738.849	0.0176593
738.927	0.0176455
739.005	0.0175362
739.083	0.0175069
739.161	0.0174274
739.239	0.0172378
739.317	0.0171532
739.396	0.0170485
739.474	0.0168321
739.552	0.0167239
739.630	0.0166175
739.708	0.0164732
739.786	0.0162879
739.864	0.0161942
739.942	0.0161340
740.021	0.0158979
740.099	0.0159046
740.177	0.0158941
740.255	0.0157545
740.333	0.0157603
740.411	0.0158945
740.489	0.0159801
740.567	0.0159968
740.646	0.0159505
740.724	0.0160041
740.802	0.0161001
740.880	0.0162125
740.958	0.0161687
741.036	0.0162994
741.114	0.0164684
741.192	0.0165158
741.271	0.0165289
741.349	0.0167966
741.427	0.0170292
741.505	0.0171384
741.583	0.0173710
741.661	0.0174245
741.739	0.0174148
741.817	0.0176019
741.896	0.0177665
741.974	0.0178144
742.052	0.0177822
742.130	0.0176819
742.208	0.0175544
742.286	0.0172559
742.364	0.0172829
742.442	0.0171553
742.521	0.0169846
742.599	0.0168376
742.677	0.0166777
742.755	0.0162926
742.833	0.0161131
742.911	0.0159851
742.989	0.0156872
743.067	0.0156586
743.146	0.0156363
743.224	0.0153538
743.302	0.0153664
743.380	0.0153750
743.458	0.0154053
743.536	0.0154655
743.614	0.0155576
743.692	0.0155210
743.771	0.0157095
743.849	0.0158388
743.927	0.0158467
744.005	0.0159722
744.083	0.0161941
744.161	0.0164565
744.239	0.0164948
744.317	0.0165379
744.396	0.0166174
744.474	0.0168053
744.552	0.0170456
744.630	0.0169354
744.708	0.0171078
744.786	0.0171772
744.864	0.0173576
744.942	0.0173485
745.021	0.0174548
745.099	0.0174179
745.177	0.0174009
745.255	0.0173788
745.333	0.0172726
745.411	0.0173236
745.489	0.0171685
745.567	0.0170910
745.646	0.0169710
745.724	0.0168008
745.802	0.0167203
745.880	0.0166157
745.958	0.0164529
746.036	0.0165632
746.114	0.0163233
746.192	0.0163335
746.271	0.0163759
746.349	0.0163071
746.427	0.0161383
746.505	0.0162197
746.583	0.0162730
746.661	0.0162375
746.739	0.0162798
746.817	0.0161821
746.896	0.0161373
746.974	0.0161953
747.052	0.0161021
747.130	0.0162839
747.208	0.0163024
747.286	0.0162498
747.364	0.0161549
747.442	0.0161840
747.521	0.0163248
747.599	0.0162426
747.677	0.0163841
747.755	0.0163243
747.833	0.0160870
747.911	0.0161727
747.989	0.0159951
748.067	0.0160838
748.146	0.0161528
748.224	0.0160979
748.302	0.0161052
748.380	0.0160404
748.458	0.0160658
748.536	0.0160489
748.614	0.0160599
748.692	0.0161619
748.771	0.0163199
748.849	0.0164549
748.927	0.0164398
749.005	0.0165462
749.083	0.0165955
749.161	0.0167847
749.239	0.0168013
749.317	0.0168839
749.396	0.0171623
749.474	0.0171735
749.552	0.0171416
749.630	0.0172150
749.708	0.0172755
749.786	0.0173409
749.864	0.0170705
749.942	0.0172079
750.021	0.0174298
750.099	0.0172836
750.177	0.0172136
750.255	0.0171423
750.333	0.0171812
750.411	0.0171084
750.489	0.0171767
750.567	0.0170377
750.646	0.0169579
750.724	0.0168224
750.802	0.0167236
750.880	0.0167854
750.958	0.0167928
751.036	0.0167845
751.114	0.0165955
751.192	0.0167091
751.271	0.0164757
751.349	0.0163635
751.427	0.0162382
751.505	0.0161416
751.583	0.0160376
751.661	0.0160745
751.739	0.0158570
751.817	0.0159435
751.896	0.0160133
751.974	0.0158523
752.052	0.0158514
752.130	0.0159167
752.208	0.0160079
752.286	0.0159811
752.364	0.0159750
752.442	0.0162241
752.521	0.0163372
752.599	0.0164191
752.677	0.0165414
752.755	0.0166431
752.833	0.0167889
752.911	0.0168799
752.989	0.0169668
753.067	0.0169963
753.146	0.0173454
753.224	0.0173995
753.302	0.0175605
753.380	0.0175387
753.458	0.0174583
753.536	0.0174863
753.614	0.0174244
753.692	0.0172579
753.771	0.0170712
753.849	0.0169568
753.927	0.0168076
754.005	0.0166335
754.083	0.0164251
754.161	0.0159657
754.239	0.0158693
754.317	0.0157061
754.396	0.0154337
754.474	0.0154005
754.552	0.0153545
754.630	0.0151630
754.708	0.0151829
754.786	0.0152112
754.864	0.0152744
754.942	0.0153333
755.021	0.0155013
755.099	0.0156776
755.177	0.0158201
755.255	0.0160179
755.333	0.0163412
755.411	0.0164462
755.489	0.0166845
755.567	0.0169153
755.646	0.0171242
755.724	0.0173451
755.802	0.0174283
755.880	0.0175088
755.958	0.0177056
756.036	0.0177604
756.114	0.0179124
756.192	0.0178917
756.271	0.0179698
756.349	0.0179494
756.427	0.0178922
756.505	0.0179211
756.583	0.0178951
756.661	0.0177610
756.739	0.0178201
756.817	0.0176215
756.896	0.0175167
756.974	0.0174673
757.052	0.0172205
757.130	0.0169098
757.208	0.0167912
757.286	0.0167550
757.364	0.0166595
757.442	0.0163541
757.521	0.0162267
757.599	0.0161982
757.677	0.0159361
757.755	0.0158339
757.833	0.0158075
757.911	0.0157335
757.989	0.0155907
758.067	0.0157301
758.146	0.0155885
758.224	0.0155004
758.302	0.0156569
758.380	0.0156958
758.458	0.0155894
758.536	0.0154745
758.614	0.0156155
758.692	0.0158331
758.771	0.0158263
758.849	0.0161132
758.927	0.0161711
759.005	0.0162388
759.083	0.0165237
759.161	0.0166258
759.239	0.0165661
759.317	0.0167245
759.396	0.0167381
759.474	0.0166078
759.552	0.0167449
759.630	0.0166634
759.708	0.0166502
759.786	0.0165900
759.864	0.0165473
759.942	0.0164156
760.021	0.0163119
760.099	0.0161715
760.177	0.0160150
760.255	0.0160571
760.333	0.0160219
760.411	0.0160918
760.489	0.0159559
760.567	0.0159952
760.646	0.0160136
760.724	0.0160531
760.802	0.0162232
760.880	0.0161921
760.958	0.0162902
761.036	0.0165260
761.114	0.0165231
761.192	0.0166338
761.271	0.0169001
761.349	0.0169752
761.427	0.0170261
761.505	0.0170004
761.583	0.0172257
761.661	0.0173208
761.739	0.0174725
761.817	0.0174697
761.896	0.0176898
761.974	0.0175880
762.052	0.0175187
762.130	0.0173546
762.208	0.0174671
762.286	0.0173966
762.364	0.0173355
762.442	0.0172482
762.521	0.0170490
762.599	0.0170306
762.677	0.0168767
762.755	0.0167500
762.833	0.0166384
762.911	0.0164846
762.989	0.0163667
763.067	0.0164347
763.146	0.0164703
763.224	0.0161410
763.302	0.0160972
763.380	0.0159345
763.458	0.0158969
763.536	0.0158301
763.614	0.0157623
763.692	0.0157378
763.771	0.0157752
763.849	0.0155933
763.927	0.0156738
764.005	0.0155192
764.083	0.0155640
764.161	0.0156303
764.239	0.0156767
764.317	0.0157281
764.396	0.0155960
764.474	0.0156865
764.552	0.0157224
764.630	0.0158521
764.708	0.0159714
764.786	0.0161781
764.864	0.0161835
764.942	0.0163334
765.021	0.0166248
765.099	0.0167278
765.177	0.0167725
765.255	0.0169093
765.333	0.0170702
765.411	0.0170672
765.489	0.0172446
765.567	0.0172427
765.646	0.0172028
765.724	0.0172530
765.802	0.0172110
765.880	0.0173324
765.958	0.0171780
766.036	0.0171834
766.114	0.0172539
766.192	0.0171860
766.271	0.0170879
766.349	0.0169054
766.427	0.0169779
766.505	0.0169254
766.583	0.0168227
766.661	0.0169134
766.739	0.0166907
766.817	0.0165001
766.896	0.0166761
766.974	0.0165469
767.052	0.0165941
767.130	0.0165546
767.208	0.0164347
767.286	0.0163187
767.364	0.0163842
767.442	0.0163728
767.521	0.0163792
767.599	0.0164397
767.677	0.0163890
767.755	0.0164898
767.833	0.0164525
767.911	0.0166155
767.989	0.0165208
768.067	0.0167086
768.146	0.0167353
768.224	0.0166686
768.302	0.0167123
768.380	0.0166998
768.458	0.0169109
768.536	0.0167484
768.614	0.0166046
768.692	0.0166122
768.771	0.0166909
768.849	0.0165932
768.927	0.0164066
769.005	0.0165031
769.083	0.0165309
769.161	0.0165323
769.239	0.0164363
769.317	0.0164470
769.396	0.0164973
769.474	0.0165430
769.552	0.0165133
769.630	0.0165437
769.708	0.0164275
769.786	0.0166132
769.864	0.0167378
769.942	0.0167036
770.021	0.0165775
770.099	0.0166346
770.177	0.0168384
770.255	0.0167221
770.333	0.0166615
770.411	0.0168089
770.489	0.0167100
770.567	0.0167166
770.646	0.0166785
770.724	0.0165058
770.802	0.0165445
770.880	0.0165317
770.958	0.0164644
771.036	0.0163239
771.114	0.0163088
771.192	0.0163528
771.271	0.0162881
771.349	0.0162605
771.427	0.0163499
771.505	0.0163179
771.583	0.0162930
771.661	0.0162841
771.739	0.0163524
771.817	0.0162738
771.896	0.0163844
771.974	0.0163795
772.052	0.0162735
772.130	0.0163875
772.208	0.0165775
772.286	0.0165343
772.364	0.0164593
772.442	0.0166007
772.521	0.0165223
772.599	0.0166002
772.677	0.0166946
772.755	0.0167381
772.833	0.0167132
772.911	0.0166992
772.989	0.0168268
773.067	0.0167103
773.146	0.0166954
773.224	0.0168527
773.302	0.0169809
773.380	0.0168510
773.458	0.0167400
773.536	0.0168922
773.614	0.0168967
773.692	0.0169535
773.771	0.0167488
773.849	0.0168804
773.927	0.0169580
774.005	0.0169768
774.083	0.0168050
774.161	0.0168216
774.239	0.0166019
774.317	0.0166637
774.396	0.0165581
774.474	0.0166215
774.552	0.0165469
774.630	0.0164253
774.708	0.0164139
774.786	0.0163201
774.864	0.0160361
774.942	0.0161902
775.021	0.0160143
775.099	0.0161810
775.177	0.0161546
775.255	0.0161727
775.333	0.0161842
775.411	0.0162631
775.489	0.0163439
775.567	0.0163989
775.646	0.0164505
775.724	0.0165561
775.802	0.0165031
775.880	0.0167529
775.958	0.0167688
776.036	0.0166679
776.114	0.0168647
776.192	0.0168714
776.271	0.0168129
776.349	0.0170033
776.427	0.0169187
776.505	0.0168896
776.583	0.0169857
776.661	0.0167921
776.739	0.0168014
776.817	0.0168342
776.896	0.0168375
776.974	0.0167920
777.052	0.0165981
777.130	0.0167392
777.208	0.0166991
777.286	0.0165717
777.364	0.0165308
777.442	0.0164114
777.521	0.0164713
777.599	0.0164214
777.677	0.0162933
777.755	0.0164261
777.833	0.0164514
777.911	0.0164998
777.989	0.0162916
778.067	0.0164551
778.146	0.0164722
778.224	0.0165083
778.302	0.0164557
778.380	0.0165810
778.458	0.0165684
778.536	0.0167249
778.614	0.0168042
778.692	0.0168635
778.771	0.0168837
778.849	0.0169581
778.927	0.0169724
779.005	0.0170029
779.083	0.0172327
779.161	0.0168479
779.239	0.0168342
779.317	0.0168844
779.396	0.0169210
779.474	0.0168863
779.552	0.0169333
779.630	0.0168245
779.708	0.0167240
779.786	0.0166554
779.864	0.0166608
779.942	0.0165617
780.021	0.0165187
780.099	0.0164902
780.177	0.0163488
780.255	0.0164634
780.333	0.0164190
780.411	0.0163217
780.489	0.0163800
780.567	0.0164543
780.646	0.0163092
780.724	0.0164124
780.802	0.0163531
780.880	0.0162665
780.958	0.0165125
781.036	0.0163251
781.114	0.0163643
781.192	0.0163576
781.271	0.0164555
781.349	0.0164487
781.427	0.0165107
781.505	0.0164505
781.583	0.0164272
781.661	0.0165163
781.739	0.0165672
781.817	0.0167060
781.896	0.0166219
781.974	0.0168165
782.052	0.0168041
782.130	0.0167268
782.208	0.0168555
782.286	0.0168358
782.364	0.0169511
782.442	0.0169154
782.521	0.0167999
782.599	0.0168703
782.677	0.0167827
782.755	0.0167029
782.833	0.0166840
782.911	0.0166439
782.989	0.0164896
783.067	0.0166004
783.146	0.0165592
783.224	0.0164877
783.302	0.0164458
783.380	0.0163501
783.458	0.0162581
783.536	0.0162635
783.614	0.0161948
783.692	0.0161073
783.771	0.0160846
783.849	0.0161665
783.927	0.0161661
784.005	0.0162241
784.083	0.0161887
784.161	0.0161246
784.239	0.0163866
784.317	0.0164005
784.396	0.0163377
784.474	0.0165546
784.552	0.0166545
784.630	0.0165948
784.708	0.0166859
784.786	0.0169412
784.864	0.0169019
784.942	0.0168278
785.021	0.0170141
785.099	0.0170103
785.177	0.0171713
785.255	0.0171267
785.333	0.0171598
785.411	0.0170515
785.489	0.0171326
785.567	0.0170161
785.646	0.0168159
785.724	0.0168011
785.802	0.0168712
785.880	0.0167014
785.958	0.0165870
786.036	0.0162573
786.114	0.0163217
786.192	0.0161921
786.271	0.0161812
786.349	0.0159863
786.427	0.0160004
786.505	0.0160490
786.583	0.0158259
786.661	0.0157214
786.739	0.0158842
786.817	0.0158865
786.896	0.0159787
786.974	0.0161451
787.052	0.0161063
787.130	0.0160734
787.208	0.0161916
787.286	0.0162280
787.364	0.0163171
787.442	0.0163014
787.521	0.0165604
787.599	0.0166171
787.677	0.0166876
787.755	0.0165633
787.833	0.0166309
787.911	0.0166948
787.989	0.0167731
788.067	0.0168104
788.146	0.0169334
788.224	0.0167360
788.302	0.0167628
788.380	0.0169891
788.458	0.0169450
788.536	0.0169732
788.614	0.0170893
788.692	0.0169710
788.771	0.0169459
788.849	0.0169789
788.927	0.0169376
789.005	0.0169149
789.083	0.0168959
789.161	0.0167974
789.239	0.0166955
789.317	0.0168432
789.396	0.0166544
789.474	0.0165907
789.552	0.0165529
789.630	0.0166739
789.708	0.0165718
789.786	0.0164400
789.864	0.0162965
789.942	0.0163683
790.021	0.0163283
790.099	0.0162915
790.177	0.0163823
790.255	0.0163838
790.333	0.0163671
790.411	0.0164530
790.489	0.0165499
790.567	0.0165553
790.646	0.0165115
790.724	0.0166725
790.802	0.0167168
790.880	0.0168380
790.958	0.0167616
791.036	0.0169722
791.114	0.0169402
791.192	0.0169061
791.271	0.0168453
791.349	0.0168903
791.427	0.0168531
791.505	0.0168266
791.583	0.0168552
791.661	0.0166797
791.739	0.0166823
791.817	0.0166642
791.896	0.0164241
791.974	0.0165932
792.052	0.0164660
792.130	0.0164562
792.208	0.0162536
792.286	0.0162141
792.364	0.0163167
792.442	0.0161576
792.521	0.0163593
792.599	0.0163332
792.677	0.0162952
792.755	0.0161884
792.833	0.0162377
792.911	0.0162147
792.989	0.0164187
793.067	0.0163609
793.146	0.0163537
793.224	0.0163487
793.302	0.0165296
793.380	0.0165875
793.458	0.0166454
793.536	0.0166451
793.614	0.0167080
793.692	0.0166747
793.771	0.0167149
793.849	0.0166938
793.927	0.0167043
794.005	0.0167426
794.083	0.0167052
794.161	0.0168194
794.239	0.0167503
794.317	0.0166692
794.396	0.0167467
794.474	0.0166587
794.552	0.0166357
794.630	0.0165089
794.708	0.0164793
794.786	0.0164610
794.864	0.0163423
794.942	0.0162919
795.021	0.0161307
795.099	0.0162157
795.177	0.0161424
795.255	0.0161769
795.333	0.0160513
795.411	0.0158847
795.489	0.0160850
795.567	0.0161143
795.646	0.0161644
795.724	0.0161674
795.802	0.0160374
795.880	0.0163020
795.958	0.0162882
796.036	0.0163903
796.114	0.0164000
796.192	0.0165485
796.271	0.0167323
796.349	0.0166401
796.427	0.0167436
796.505	0.0167629
796.583	0.0168989
796.661	0.0171645
796.739	0.0170332
796.817	0.0169821
796.896	0.0169370
796.974	0.0170875
797.052	0.0172597
797.130	0.0170434
797.208	0.0170598
797.286	0.0169668
797.364	0.0169891
797.442	0.0170042
797.521	0.0169267
797.599	0.0169916
797.677	0.0168488
797.755	0.0166802
797.833	0.0167091
797.911	0.0166400
797.989	0.0166595
798.067	0.0165799
798.146	0.0164355
798.224	0.0163004
798.302	0.0163261
798.380	0.0164297
798.458	0.0163128
798.536	0.0163226
798.614	0.0161449
798.692	0.0161665
798.771	0.0161404
798.849	0.0160519
798.927	0.0161394
799.005	0.0161986
799.083	0.0162791
799.161	0.0162733
799.239	0.0161454
799.317	0.0162589
799.396	0.0163103
799.474	0.0164572
799.552	0.0165049
799.630	0.0164679
799.708	0.0165530
799.786	0.0167141
799.864	0.0166467
799.942	0.0169296
800.021	0.0168584
800.099	0.0167991
800.177	0.0169351
800.255	0.0167658
800.333	0.0167805
800.411	0.0168243
800.489	0.0167908
800.567	0.0168037
800.646	0.0167792
800.724	0.0169026
800.802	0.0167348
800.880	0.0167018
800.958	0.0167474
801.036	0.0166667
801.114	0.0167654
801.192	0.0166634
801.271	0.0167286
801.349	0.0165565
801.427	0.0166165
801.505	0.0165902
801.583	0.0164360
801.661	0.0165709
801.739	0.0164522
801.817	0.0165829
801.896	0.0163973
801.974	0.0166213
802.052	0.0165955
802.130	0.0164462
802.208	0.0165045
802.286	0.0166700
802.364	0.0165266
802.442	0.0166537
802.521	0.0166054
802.599	0.0167220
802.677	0.0166557
802.755	0.0166364
802.833	0.0166289
802.911	0.0167530
802.989	0.0167103
803.067	0.0166755
803.146	0.0165749
803.224	0.0167422
803.302	0.0167255
803.380	0.0167622
803.458	0.0165333
803.536	0.0168405
803.614	0.0168082
803.692	0.0166588
803.771	0.0167047
803.849	0.0168696
803.927	0.0168229
804.005	0.0166170
804.083	0.0166096
804.161	0.0166669
804.239	0.0167030
804.317	0.0167188
804.396	0.0166173
804.474	0.0167402
804.552	0.0166750
804.630	0.0165927
804.708	0.0166991
804.786	0.0164840
804.864	0.0165437
804.942	0.0165932
805.021	0.0167151
805.099	0.0166264
805.177	0.0166505
805.255	0.0165496
805.333	0.0165026
805.411	0.0166338
805.489	0.0167290
805.567	0.0167046
805.646	0.0166740
805.724	0.0167903
805.802	0.0168171
805.880	0.0169273
805.958	0.0168704
806.036	0.0167710
806.114	0.0168533
806.192	0.0168701
806.271	0.0168732
806.349	0.0167529
806.427	0.0169881
806.505	0.0168064
806.583	0.0167362
806.661	0.0166515
806.739	0.0166501
806.817	0.0166843
806.896	0.0165449
806.974	0.0164198
807.052	0.0165401
807.130	0.0165464
807.208	0.0164755
807.286	0.0163619
807.364	0.0164368
807.442	0.0162740
807.521	0.0163036
807.599	0.0163947
807.677	0.0164715
807.755	0.0165130
807.833	0.0165793
807.911	0.0164950
807.989	0.0165392
808.067	0.0165221
808.146	0.0166447
808.224	0.0167413
808.302	0.0167175
808.380	0.0168559
808.458	0.0167908
808.536	0.0166669
808.614	0.0165868
808.692	0.0166998
808.771	0.0167920
808.849	0.0168011
808.927	0.0168615
809.005	0.0166838
809.083	0.0166170
809.161	0.0166100
809.239	0.0167073
809.317	0.0166077
809.396	0.0166617
809.474	0.0165697
809.552	0.0166148
809.630	0.0165663
809.708	0.0164454
809.786	0.0163963
809.864	0.0162931
809.942	0.0163411
810.021	0.0163022
810.099	0.0162188
810.177	0.0162276
810.255	0.0162469
810.333	0.0160882
810.411	0.0162672
810.489	0.0163905
810.567	0.0162228
810.646	0.0162077
810.724	0.0162022
810.802	0.0162372
810.880	0.0164197
810.958	0.0164465
811.036	0.0164355
811.114	0.0166574
811.192	0.0164745
811.271	0.0166776
811.349	0.0166824
811.427	0.0168911
811.505	0.0167626
811.583	0.0167709
811.661	0.0165740
811.739	0.0168250
811.817	0.0166874
811.896	0.0168398
811.974	0.0166486
812.052	0.0166000
812.130	0.0166039
812.208	0.0165643
812.286	0.0166029
812.364	0.0165324
812.442	0.0164856
812.521	0.0165384
812.599	0.0163499
812.677	0.0163947
812.755	0.0164440
812.833	0.0164695
812.911	0.0163717
812.989	0.0162617
813.067	0.0163871
813.146	0.0163237
813.224	0.0163724
813.302	0.0162716
813.380	0.0162840
813.458	0.0162959
813.536	0.0165417
813.614	0.0165040
813.692	0.0165005
813.771	0.0163663
813.849	0.0165697
813.927	0.0167247
814.005	0.0167131
814.083	0.0167754
814.161	0.0168586
814.239	0.0169409
814.317	0.0169901
814.396	0.0170216
814.474	0.0170319
814.552	0.0169576
814.630	0.0170694
814.708	0.0172546
814.786	0.0171912
814.864	0.0172308
814.942	0.0169940
815.021	0.0169407
815.099	0.0169183
815.177	0.0169032
815.255	0.0169494
815.333	0.0167688
815.411	0.0168215
815.489	0.0167162
815.567	0.0166012
815.646	0.0164624
815.724	0.0164628
815.802	0.0164760
815.880	0.0165229
815.958	0.0162489
816.036	0.0162913
816.114	0.0162702
816.192	0.0161510
816.271	0.0162161
816.349	0.0162712
816.427	0.0160707
816.505	0.0161713
816.583	0.0160136
816.661	0.0160564
816.739	0.0161898
816.817	0.0161495
816.896	0.0163831
816.974	0.0163798
817.052	0.0163786
817.130	0.0165234
817.208	0.0166031
817.286	0.0165903
817.364	0.0165936
817.442	0.0167049
817.521	0.0166212
817.599	0.0168058
817.677	0.0167590
817.755	0.0167182
817.833	0.0168851
817.911	0.0168915
817.989	0.0167809
818.067	0.0168610
818.146	0.0168298
818.224	0.0168552
818.302	0.0168936
818.380	0.0168933
818.458	0.0168653
818.536	0.0167550
818.614	0.0168114
818.692	0.0167760
818.771	0.0167012
818.849	0.0167046
818.927	0.0166970
819.005	0.0165534
819.083	0.0164807
819.161	0.0166291
819.239	0.0165049
819.317	0.0164451
819.396	0.0165450
819.474	0.0164401
819.552	0.0164304
819.630	0.0164689
819.708	0.0164301
819.786	0.0164382
819.864	0.0163514
819.942	0.0163611
820.021	0.0164613
820.099	0.0162562
820.177	0.0162415
820.255	0.0164839
820.333	0.0164579
820.411	0.0163774
820.489	0.0164384
820.567	0.0164925
820.646	0.0164844
820.724	0.0165985
820.802	0.0164887
820.880	0.0164008
820.958	0.0166261
821.036	0.0165496
821.114	0.0167375
821.192	0.0166409
821.271	0.0167863
821.349	0.0167265
821.427	0.0168060
821.505	0.0167988
821.583	0.0167715
821.661	0.0168626
821.739	0.0168150
821.817	0.0167088
821.896	0.0168701
821.974	0.0167809
822.052	0.0168761
822.130	0.0167265
822.208	0.0166758
822.286	0.0167839
822.364	0.0168531
822.442	0.0166744
822.521	0.0168067
822.599	0.0167995
822.677	0.0168751
822.755	0.0167158
822.833	0.0168704
822.911	0.0167281
822.989	0.0167622
823.067	0.0169303
823.146	0.0168144
823.224	0.0167886
823.302	0.0167020
823.380	0.0166822
823.458	0.0167018
823.536	0.0165364
823.614	0.0164761
823.692	0.0163616
823.771	0.0162981
823.849	0.0163692
823.927	0.0163634
824.005	0.0162125
824.083	0.0162995
824.161	0.0162405
824.239	0.0163078
824.317	0.0161244
824.396	0.0161800
824.474	0.0160889
824.552	0.0159185
824.630	0.0160542
824.708	0.0161548
824.786	0.0160645
824.864	0.0158838
824.942	0.0159846
825.021	0.0160860
825.099	0.0159707
825.177	0.0160621
825.255	0.0162267
825.333	0.0162894
825.411	0.0161864
825.489	0.0162785
825.567	0.0163550
825.646	0.0163046
825.724	0.0164648
825.802	0.0164968
825.880	0.0165858
825.958	0.0164866
826.036	0.0166793
826.114	0.0166233
826.192	0.0166655
826.271	0.0167142
826.349	0.0167400
826.427	0.0167044
826.505	0.0168040
826.583	0.0167741
826.661	0.0168801
826.739	0.0168809
826.817	0.0168403
826.896	0.0169418
826.974	0.0169503
827.052	0.0168364
827.130	0.0170255
827.208	0.0169656
827.286	0.0169592
827.364	0.0168994
827.442	0.0168044
827.521	0.0168182
827.599	0.0167016
827.677	0.0168911
827.755	0.0167493
827.833	0.0166760
827.911	0.0164912
827.989	0.0165009
828.067	0.0165306
828.146	0.0165578
828.224	0.0165028
828.302	0.0164606
828.380	0.0164342
828.458	0.0164731
828.536	0.0164667
828.614	0.0164859
828.692	0.0164699
828.771	0.0164640
828.849	0.0165716
828.927	0.0164613
829.005	0.0166296
829.083	0.0165047
829.161	0.0163937
829.239	0.0164782
829.317	0.0166000
829.396	0.0166702
829.474	0.0165350
829.552	0.0165347
829.630	0.0165865
829.708	0.0166144
829.786	0.0165977
829.864	0.0166132
829.942	0.0165577
830.021	0.0167564
830.099	0.0166220
830.177	0.0166281
830.255	0.0166633
830.333	0.0167956
830.411	0.0166834
830.489	0.0165958
830.567	0.0165280
830.646	0.0165368
830.724	0.0165504
830.802	0.0165330
830.880	0.0165998
830.958	0.0163871
831.036	0.0164024
831.114	0.0165778
831.192	0.0165328
831.271	0.0164463
831.349	0.0164432
831.427	0.0163269
831.505	0.0164772
831.583	0.0164156
831.661	0.0164876
831.739	0.0163058
831.817	0.0164507
831.896	0.0163133
831.974	0.0163757
832.052	0.0162966
832.130	0.0163560
832.208	0.0163957
832.286	0.0163737
832.364	0.0164583
832.442	0.0164447
832.521	0.0164375
832.599	0.0166215
832.677	0.0164829
832.755	0.0165830
832.833	0.0165465
832.911	0.0164999
832.989	0.0165467
833.067	0.0165859
833.146	0.0166084
833.224	0.0166360
833.302	0.0165031
833.380	0.0163992
833.458	0.0165566
833.536	0.0163792
833.614	0.0165860
833.692	0.0163299
833.771	0.0164542
833.849	0.0163776
833.927	0.0163286
834.005	0.0164461
834.083	0.0163059
834.161	0.0162441
834.239	0.0163866
834.317	0.0163870
834.396	0.0163771
834.474	0.0164307
834.552	0.0165107
834.630	0.0165426
834.708	0.0164993
834.786	0.0164043
834.864	0.0166634
834.942	0.0166769
835.021	0.0166470
835.099	0.0167168
835.177	0.0168180
835.255	0.0168462
835.333	0.0168566
835.411	0.0168304
835.489	0.0168717
835.567	0.0170581
835.646	0.0169498
835.724	0.0169053
835.802	0.0168298
835.880	0.0169183
835.958	0.0169891
836.036	0.0168319
836.114	0.0169478
836.192	0.0169073
836.271	0.0168339
836.349	0.0167065
836.427	0.0169335
836.505	0.0166491
836.583	0.0166185
836.661	0.0167372
836.739	0.0166181
836.817	0.0164707
836.896	0.0164610
836.974	0.0165763
837.052	0.0164790
837.130	0.0164645
837.208	0.0164887
837.286	0.0165190
837.364	0.0165742
837.442	0.0163861
837.521	0.0164963
837.599	0.0165623
837.677	0.0163387
837.755	0.0164607
837.833	0.0165311
837.911	0.0164313
837.989	0.0164142
838.067	0.0164266
838.146	0.0164674
838.224	0.0165147
838.302	0.0163987
838.380	0.0164429
838.458	0.0164207
838.536	0.0165093
838.614	0.0165328
838.692	0.0165079
838.771	0.0165096
838.849	0.0163819
838.927	0.0163447
839.005	0.0164604
839.083	0.0164326
839.161	0.0164835
839.239	0.0164430
839.317	0.0163271
839.396	0.0163815
839.474	0.0164902
839.552	0.0166449
839.630	0.0164880
839.708	0.0164059
839.786	0.0164317
839.864	0.0165793
839.942	0.0165109
840.021	0.0166058
840.099	0.0164815
840.177	0.0164207
840.255	0.0164806
840.333	0.0165358
840.411	0.0164367
840.489	0.0163659
840.567	0.0164601
840.646	0.0164085
840.724	0.0163820
840.802	0.0163198
840.880	0.0163883
840.958	0.0163972
841.036	0.0163779
841.114	0.0164434
841.192	0.0163853
841.271	0.0164592
841.349	0.0166215
841.427	0.0166245
841.505	0.0165244
841.583	0.0166391
841.661	0.0166828
841.739	0.0167693
841.817	0.0167068
841.896	0.0169427
841.974	0.0168118
842.052	0.0168220
842.130	0.0168425
842.208	0.0168694
842.286	0.0169032
842.364	0.0167115
842.442	0.0167706
842.521	0.0168153
842.599	0.0168643
842.677	0.0166991
842.755	0.0165974
842.833	0.0167007
842.911	0.0166897
842.989	0.0166513
843.067	0.0166180
843.146	0.0165855
843.224	0.0166374
843.302	0.0165488
843.380	0.0166995
843.458	0.0167273
843.536	0.0166510
843.614	0.0167293
843.692	0.0167467
843.771	0.0167034
843.849	0.0167154
843.927	0.0165649
844.005	0.0165479
844.083	0.0165417
844.161	0.0165957
844.239	0.0166080
844.317	0.0166035
844.396	0.0165684
844.474	0.0166177
844.552	0.0165920
844.630	0.0165564
844.708	0.0165686
844.786	0.0164929
844.864	0.0165205
844.942	0.0165678
845.021	0.0165703
845.099	0.0164886
845.177	0.0165991
845.255	0.0166936
845.333	0.0166119
845.411	0.0165613
845.489	0.0165907
845.567	0.0166665
845.646	0.0165539
845.724	0.0166227
845.802	0.0165133
845.880	0.0164376
845.958	0.0165509
846.036	0.0165095
846.114	0.0165055
846.192	0.0164745
846.271	0.0165202
846.349	0.0165126
846.427	0.0164732
846.505	0.0166240
846.583	0.0164896
846.661	0.0165115
846.739	0.0166769
846.817	0.0165099
846.896	0.0165417
846.974	0.0166701
847.052	0.0166725
847.130	0.0166100
847.208	0.0167405
847.286	0.0166946
847.364	0.0165388
847.442	0.0166457
847.521	0.0166686
847.599	0.0164552
847.677	0.0165706
847.755	0.0165541
847.833	0.0165907
847.911	0.0165273
847.989	0.0164494
848.067	0.0166233
848.146	0.0164373
848.224	0.0165246
848.302	0.0164849
848.380	0.0164100
848.458	0.0165244
848.536	0.0164899
848.614	0.0166841
848.692	0.0165593
848.771	0.0165298
848.849	0.0165397
848.927	0.0164744
849.005	0.0165580
849.083	0.0165707
849.161	0.0164958
849.239	0.0165234
849.317	0.0164066
849.396	0.0162486
849.474	0.0165717
849.552	0.0165097
849.630	0.0164066
849.708	0.0165223
849.786	0.0164362
849.864	0.0164808
849.942	0.0163782
850.021	0.0164622
850.099	0.0164906
850.177	0.0164449
850.255	0.0164731
850.333	0.0164117
850.411	0.0165710
850.489	0.0167235
850.567	0.0164853
850.646	0.0165153
850.724	0.0168118
850.802	0.0165459
850.880	0.0166430
850.958	0.0165927
851.036	0.0165013
851.114	0.0165629
851.192	0.0167020
851.271	0.0167331
851.349	0.0166460
851.427	0.0165011
851.505	0.0166314
851.583	0.0166216
851.661	0.0166162
851.739	0.0167419
851.817	0.0166814
851.896	0.0168346
851.974	0.0165946
852.052	0.0166149
852.130	0.0166735
852.208	0.0166231
852.286	0.0166562
852.364	0.0166461
852.442	0.0165780
852.521	0.0165073
852.599	0.0167619
852.677	0.0166160
852.755	0.0165768
852.833	0.0165610
852.911	0.0164224
852.989	0.0165083
853.067	0.0166122
853.146	0.0165907
853.224	0.0164947
853.302	0.0164573
853.380	0.0165313
853.458	0.0164349
853.536	0.0166221
853.614	0.0164581
853.692	0.0166159
853.771	0.0166532
853.849	0.0166347
853.927	0.0167630
854.005	0.0166176
854.083	0.0166976
854.161	0.0167538
854.239	0.0167747
854.317	0.0166896
854.396	0.0165292
854.474	0.0167389
854.552	0.0166647
854.630	0.0165440
854.708	0.0164349
854.786	0.0164618
854.864	0.0164159
854.942	0.0164729
855.021	0.0161168
855.099	0.0161445
855.177	0.0163786
855.255	0.0163082
855.333	0.0162401
855.411	0.0162866
855.489	0.0162318
855.567	0.0162521
855.646	0.0161458
855.724	0.0162487
855.802	0.0162778
855.880	0.0164310
855.958	0.0162781
856.036	0.0163556
856.114	0.0164595
856.192	0.0163177
856.271	0.0165936
856.349	0.0164875
856.427	0.0165187
856.505	0.0166246
856.583	0.0166463
856.661	0.0166361
856.739	0.0166042
856.817	0.0167070
856.896	0.0166925
856.974	0.0167389
857.052	0.0166764
857.130	0.0167104
857.208	0.0167861
857.286	0.0168160
857.364	0.0167096
857.442	0.0166428
857.521	0.0169570
857.599	0.0168150
857.677	0.0166082
857.755	0.0165585
857.833	0.0164303
857.911	0.0165041
857.989	0.0165191
858.067	0.0163847
858.146	0.0164440
858.224	0.0165773
858.302	0.0163455
858.380	0.0164694
858.458	0.0165775
858.536	0.0163970
858.614	0.0163235
858.692	0.0165883
858.771	0.0165541
858.849	0.0165380
858.927	0.0165516
859.005	0.0164930
859.083	0.0164828
859.161	0.0164957
859.239	0.0166284
859.317	0.0165540
859.396	0.0165491
859.474	0.0165601
859.552	0.0165949
859.630	0.0165520
859.708	0.0164783
859.786	0.0164103
859.864	0.0165413
859.942	0.0165292
860.021	0.0165903
860.099	0.0164578
860.177	0.0164402
860.255	0.0164137
860.333	0.0164491
860.411	0.0164588
860.489	0.0163687
860.567	0.0163668
860.646	0.0163182
860.724	0.0164201
860.802	0.0162988
860.880	0.0162726
860.958	0.0163713
861.036	0.0163243
861.114	0.0165195
861.192	0.0163043
861.271	0.0163309
861.349	0.0163926
861.427	0.0164353
861.505	0.0164243
861.583	0.0164224
861.661	0.0164407
861.739	0.0164594
861.817	0.0165323
861.896	0.0164305
861.974	0.0164667
862.052	0.0165722
862.130	0.0164787
862.208	0.0166970
862.286	0.0167104
862.364	0.0166129
862.442	0.0166198
862.521	0.0167184
862.599	0.0166870
862.677	0.0167677
862.755	0.0165370
862.833	0.0168006
862.911	0.0165918
862.989	0.0166476
863.067	0.0166394
863.146	0.0167627
863.224	0.0166106
863.302	0.0164735
863.380	0.0166338
863.458	0.0166866
863.536	0.0165578
863.614	0.0166499
863.692	0.0165385
863.771	0.0166096
863.849	0.0166127
863.927	0.0166988
864.005	0.0166348
864.083	0.0166108
864.161	0.0166539
864.239	0.0167256
864.317	0.0166418
864.396	0.0167937
864.474	0.0166547
864.552	0.0167342
864.630	0.0166017
864.708	0.0165205
864.786	0.0165229
864.864	0.0166161
864.942	0.0165353
865.021	0.0164804
865.099	0.0166592
865.177	0.0164738
865.255	0.0166985
865.333	0.0164079
865.411	0.0163627
865.489	0.0165615
865.567	0.0164682
865.646	0.0163881
865.724	0.0165105
865.802	0.0165647
865.880	0.0165611
865.958	0.0165064
866.036	0.0165399
866.114	0.0165835
866.192	0.0164784
866.271	0.0166563
866.349	0.0166675
866.427	0.0167091
866.505	0.0164747
866.583	0.0165646
866.661	0.0165294
866.739	0.0166184
866.817	0.0166049
866.896	0.0164490
866.974	0.0166447
867.052	0.0165051
867.130	0.0166579
867.208	0.0165494
867.286	0.0165687
867.364	0.0166842
867.442	0.0166483
867.521	0.0165476
867.599	0.0165582
867.677	0.0166106
867.755	0.0163877
867.833	0.0164570
867.911	0.0165413
867.989	0.0166155
868.067	0.0165842
868.146	0.0165781
868.224	0.0164633
868.302	0.0164877
868.380	0.0163760
868.458	0.0164439
868.536	0.0165181
868.614	0.0165655
868.692	0.0164907
868.771	0.0165039
868.849	0.0165375
868.927	0.0164295
869.005	0.0165980
869.083	0.0165887
869.161	0.0165174
869.239	0.0165517
869.317	0.0165234
869.396	0.0165657
869.474	0.0165555
869.552	0.0166535
869.630	0.0166746
869.708	0.0165487
869.786	0.0167200
869.864	0.0167392
869.942	0.0167908
