06/03/2022	15:26:45	Ver.	4.1	UNKNOWN
Optical Delay	550.020508	Delta X		0.078125	Sweeps	1	Scan Rate	0/0
Coordinates	Axis 1	NaN	Axis 2	NaN	Axis 3	NaN	Axis 4	NaN	Axis 5	NaN	Axis 6	0.000000
TX Power	0.000000	RX Power	0.000000

550.021	0.0165097
550.099	0.0164784
550.177	0.0165634
550.255	0.0165234
550.333	0.0164568
550.411	0.0165600
550.489	0.0165292
550.567	0.0164226
550.646	0.0164552
550.724	0.0165009
550.802	0.0165357
550.880	0.0165500
550.958	0.0164980
551.036	0.0165321
551.114	0.0165020
551.192	0.0165388
551.271	0.0165305
551.349	0.0164815
551.427	0.0166473
551.505	0.0165958
551.583	0.0165398
551.661	0.0164750
551.739	0.0164946
551.817	0.0165289
551.896	0.0166231
551.974	0.0165114
552.052	0.0165587
552.130	0.0165089
552.208	0.0166208
552.286	0.0164627
552.364	0.0166106
552.442	0.0165401
552.521	0.0164328
552.599	0.0165082
552.677	0.0165078
552.755	0.0164243
552.833	0.0165534
552.911	0.0165887
552.989	0.0165816
553.067	0.0165767
553.146	0.0163048
553.224	0.0166058
553.302	0.0164639
553.380	0.0165227
553.458	0.0164534
553.536	0.0165096
553.614	0.0165848
553.692	0.0165030
553.771	0.0165163
553.849	0.0165018
553.927	0.0164587
554.005	0.0164706
554.083	0.0165311
554.161	0.0163776
554.239	0.0165002
554.317	0.0164532
554.396	0.0164127
554.474	0.0164605
554.552	0.0164051
554.630	0.0163828
554.708	0.0164529
554.786	0.0164993
554.864	0.0165195
554.942	0.0164426
555.021	0.0165434
555.099	0.0163776
555.177	0.0165526
555.255	0.0164901
555.333	0.0165827
555.411	0.0165105
555.489	0.0164120
555.567	0.0165361
555.646	0.0164451
555.724	0.0165373
555.802	0.0165017
555.880	0.0164910
555.958	0.0166588
556.036	0.0164301
556.114	0.0165524
556.192	0.0165962
556.271	0.0165041
556.349	0.0163463
556.427	0.0165717
556.505	0.0165645
556.583	0.0164356
556.661	0.0164334
556.739	0.0164938
556.817	0.0164970
556.896	0.0163673
556.974	0.0164771
557.052	0.0164894
557.130	0.0164071
557.208	0.0164591
557.286	0.0165031
557.364	0.0164145
557.442	0.0164916
557.521	0.0166460
557.599	0.0164169
557.677	0.0166858
557.755	0.0164757
557.833	0.0165676
557.911	0.0165403
557.989	0.0165236
558.067	0.0165001
558.146	0.0165131
558.224	0.0165412
558.302	0.0165503
558.380	0.0164771
558.458	0.0166003
558.536	0.0165240
558.614	0.0166038
558.692	0.0166167
558.771	0.0165788
558.849	0.0165290
558.927	0.0165409
559.005	0.0164396
559.083	0.0165736
559.161	0.0165848
559.239	0.0165279
559.317	0.0165627
559.396	0.0164626
559.474	0.0164669
559.552	0.0165136
559.630	0.0165581
559.708	0.0165177
559.786	0.0164986
559.864	0.0165426
559.942	0.0164062
560.021	0.0164278
560.099	0.0165551
560.177	0.0165061
560.255	0.0163232
560.333	0.0166135
560.411	0.0166127
560.489	0.0165028
560.567	0.0165703
560.646	0.0163828
560.724	0.0166074
560.802	0.0165697
560.880	0.0165730
560.958	0.0164838
561.036	0.0164813
561.114	0.0165045
561.192	0.0164560
561.271	0.0165227
561.349	0.0165353
561.427	0.0165119
561.505	0.0165842
561.583	0.0165234
561.661	0.0164346
561.739	0.0164383
561.817	0.0164404
561.896	0.0164394
561.974	0.0164874
562.052	0.0165927
562.130	0.0164879
562.208	0.0163653
562.286	0.0165297
562.364	0.0164540
562.442	0.0164430
562.521	0.0165797
562.599	0.0166225
562.677	0.0166322
562.755	0.0165067
562.833	0.0165660
562.911	0.0165144
562.989	0.0165031
563.067	0.0164915
563.146	0.0164150
563.224	0.0166132
563.302	0.0165434
563.380	0.0165334
563.458	0.0163988
563.536	0.0165459
563.614	0.0164027
563.692	0.0165036
563.771	0.0164989
563.849	0.0164378
563.927	0.0164977
564.005	0.0165227
564.083	0.0164624
564.161	0.0165205
564.239	0.0164963
564.317	0.0165553
564.396	0.0165691
564.474	0.0163661
564.552	0.0166414
564.630	0.0166769
564.708	0.0165139
564.786	0.0166972
564.864	0.0164183
564.942	0.0164720
565.021	0.0164377
565.099	0.0164420
565.177	0.0166686
565.255	0.0164477
565.333	0.0165051
565.411	0.0166254
565.489	0.0164655
565.567	0.0165545
565.646	0.0165544
565.724	0.0166409
565.802	0.0167015
565.880	0.0165369
565.958	0.0166922
566.036	0.0166941
566.114	0.0164721
566.192	0.0164893
566.271	0.0165432
566.349	0.0165481
566.427	0.0165348
566.505	0.0164870
566.583	0.0165999
566.661	0.0165434
566.739	0.0163925
566.817	0.0165518
566.896	0.0165194
566.974	0.0164194
567.052	0.0165662
567.130	0.0165836
567.208	0.0164780
567.286	0.0166018
567.364	0.0165376
567.442	0.0166184
567.521	0.0164885
567.599	0.0165219
567.677	0.0164986
567.755	0.0164760
567.833	0.0164223
567.911	0.0164469
567.989	0.0165858
568.067	0.0165261
568.146	0.0165231
568.224	0.0164458
568.302	0.0164484
568.380	0.0165794
568.458	0.0164415
568.536	0.0165795
568.614	0.0165127
568.692	0.0166161
568.771	0.0164156
568.849	0.0164124
568.927	0.0165498
569.005	0.0164140
569.083	0.0164590
569.161	0.0165688
569.239	0.0165891
569.317	0.0164928
569.396	0.0164603
569.474	0.0164409
569.552	0.0165295
569.630	0.0164870
569.708	0.0165483
569.786	0.0164337
569.864	0.0163264
569.942	0.0165650
570.021	0.0163959
570.099	0.0165321
570.177	0.0164325
570.255	0.0164587
570.333	0.0165241
570.411	0.0164932
570.489	0.0164680
570.567	0.0165485
570.646	0.0165393
570.724	0.0164170
570.802	0.0164485
570.880	0.0165233
570.958	0.0164410
571.036	0.0164175
571.114	0.0164885
571.192	0.0164173
571.271	0.0164792
571.349	0.0165184
571.427	0.0165144
571.505	0.0166108
571.583	0.0165893
571.661	0.0165047
571.739	0.0164485
571.817	0.0166590
571.896	0.0164808
571.974	0.0164911
572.052	0.0165980
572.130	0.0164491
572.208	0.0164828
572.286	0.0164459
572.364	0.0164442
572.442	0.0166520
572.521	0.0164754
572.599	0.0164336
572.677	0.0165317
572.755	0.0165574
572.833	0.0163988
572.911	0.0163966
572.989	0.0166100
573.067	0.0166380
573.146	0.0165356
573.224	0.0164986
573.302	0.0165116
573.380	0.0165423
573.458	0.0164835
573.536	0.0164356
573.614	0.0164511
573.692	0.0165427
573.771	0.0164027
573.849	0.0164600
573.927	0.0164475
574.005	0.0164639
574.083	0.0165293
574.161	0.0165956
574.239	0.0165654
574.317	0.0165079
574.396	0.0165152
574.474	0.0164182
574.552	0.0166006
574.630	0.0165536
574.708	0.0165535
574.786	0.0164165
574.864	0.0165137
574.942	0.0164870
575.021	0.0165659
575.099	0.0164316
575.177	0.0165582
575.255	0.0164835
575.333	0.0165482
575.411	0.0165012
575.489	0.0165666
575.567	0.0164335
575.646	0.0164544
575.724	0.0165387
575.802	0.0164782
575.880	0.0164219
575.958	0.0164904
576.036	0.0165305
576.114	0.0164555
576.192	0.0164392
576.271	0.0164394
576.349	0.0164127
576.427	0.0165487
576.505	0.0164562
576.583	0.0165521
576.661	0.0165856
576.739	0.0164961
576.817	0.0165545
576.896	0.0165772
576.974	0.0166048
577.052	0.0166268
577.130	0.0164855
577.208	0.0164278
577.286	0.0165475
577.364	0.0165807
577.442	0.0165546
577.521	0.0165233
577.599	0.0165135
577.677	0.0167194
577.755	0.0165936
577.833	0.0165396
577.911	0.0165783
577.989	0.0165389
578.067	0.0165851
578.146	0.0165636
578.224	0.0165679
578.302	0.0167183
578.380	0.0166103
578.458	0.0164063
578.536	0.0165846
578.614	0.0166129
578.692	0.0165145
578.771	0.0164912
578.849	0.0165774
578.927	0.0165637
579.005	0.0164716
579.083	0.0164753
579.161	0.0165965
579.239	0.0164552
579.317	0.0165199
579.396	0.0163882
579.474	0.0164823
579.552	0.0164912
579.630	0.0164636
579.708	0.0164684
579.786	0.0165571
579.864	0.0165872
579.942	0.0166939
580.021	0.0164909
580.099	0.0164012
580.177	0.0164890
580.255	0.0165388
580.333	0.0164608
580.411	0.0164668
580.489	0.0166074
580.567	0.0165611
580.646	0.0163963
580.724	0.0163586
580.802	0.0164812
580.880	0.0165176
580.958	0.0164655
581.036	0.0164341
581.114	0.0164317
581.192	0.0164272
581.271	0.0164473
581.349	0.0164899
581.427	0.0164635
581.505	0.0165082
581.583	0.0164942
581.661	0.0165526
581.739	0.0164950
581.817	0.0165288
581.896	0.0164758
581.974	0.0166261
582.052	0.0163902
582.130	0.0165076
582.208	0.0164229
582.286	0.0164790
582.364	0.0164788
582.442	0.0165750
582.521	0.0165746
582.599	0.0164379
582.677	0.0164405
582.755	0.0165137
582.833	0.0165796
582.911	0.0165401
582.989	0.0164377
583.067	0.0165215
583.146	0.0167457
583.224	0.0165078
583.302	0.0166341
583.380	0.0164647
583.458	0.0164117
583.536	0.0166236
583.614	0.0165823
583.692	0.0164311
583.771	0.0165511
583.849	0.0166778
583.927	0.0165265
584.005	0.0164489
584.083	0.0164508
584.161	0.0165944
584.239	0.0165142
584.317	0.0164796
584.396	0.0165432
584.474	0.0165370
584.552	0.0164661
584.630	0.0164988
584.708	0.0163851
584.786	0.0165113
584.864	0.0163714
584.942	0.0165286
585.021	0.0164342
585.099	0.0163991
585.177	0.0164276
585.255	0.0164926
585.333	0.0166171
585.411	0.0165250
585.489	0.0164728
585.567	0.0165388
585.646	0.0164841
585.724	0.0165672
585.802	0.0165257
585.880	0.0164972
585.958	0.0163609
586.036	0.0163926
586.114	0.0166165
586.192	0.0165437
586.271	0.0164962
586.349	0.0164559
586.427	0.0164339
586.505	0.0164692
586.583	0.0164799
586.661	0.0165334
586.739	0.0165413
586.817	0.0166005
586.896	0.0165677
586.974	0.0164054
587.052	0.0165363
587.130	0.0166001
587.208	0.0166551
587.286	0.0165786
587.364	0.0164131
587.442	0.0165691
587.521	0.0166528
587.599	0.0166721
587.677	0.0167020
587.755	0.0165470
587.833	0.0166106
587.911	0.0165192
587.989	0.0163767
588.067	0.0164214
588.146	0.0165652
588.224	0.0166245
588.302	0.0165453
588.380	0.0164830
588.458	0.0165819
588.536	0.0164494
588.614	0.0164404
588.692	0.0165857
588.771	0.0165337
588.849	0.0165556
588.927	0.0165670
589.005	0.0164770
589.083	0.0165830
589.161	0.0164470
589.239	0.0164138
589.317	0.0164942
589.396	0.0166314
589.474	0.0166417
589.552	0.0166162
589.630	0.0164055
589.708	0.0164884
589.786	0.0166024
589.864	0.0164519
589.942	0.0166437
590.021	0.0166012
590.099	0.0165113
590.177	0.0165337
590.255	0.0165964
590.333	0.0165382
590.411	0.0165843
590.489	0.0165189
590.567	0.0165193
590.646	0.0166676
590.724	0.0165891
590.802	0.0166618
590.880	0.0164988
590.958	0.0165930
591.036	0.0163811
591.114	0.0165192
591.192	0.0166020
591.271	0.0165279
591.349	0.0165627
591.427	0.0164627
591.505	0.0165341
591.583	0.0166064
591.661	0.0164602
591.739	0.0166763
591.817	0.0165044
591.896	0.0165381
591.974	0.0165730
592.052	0.0165113
592.130	0.0165184
592.208	0.0164084
592.286	0.0165387
592.364	0.0164371
592.442	0.0165187
592.521	0.0163290
592.599	0.0164153
592.677	0.0164859
592.755	0.0164917
592.833	0.0165281
592.911	0.0163566
592.989	0.0165851
593.067	0.0165025
593.146	0.0164628
593.224	0.0163577
593.302	0.0164111
593.380	0.0164127
593.458	0.0166085
593.536	0.0166006
593.614	0.0164648
593.692	0.0164159
593.771	0.0165031
593.849	0.0165971
593.927	0.0165577
594.005	0.0166032
594.083	0.0164356
594.161	0.0164375
594.239	0.0165625
594.317	0.0164711
594.396	0.0165932
594.474	0.0163557
594.552	0.0164426
594.630	0.0167094
594.708	0.0164675
594.786	0.0164723
594.864	0.0165585
594.942	0.0165262
595.021	0.0164034
595.099	0.0167261
595.177	0.0164909
595.255	0.0163937
595.333	0.0166260
595.411	0.0166158
595.489	0.0164882
595.567	0.0164650
595.646	0.0165849
595.724	0.0166544
595.802	0.0165574
595.880	0.0165526
595.958	0.0165822
596.036	0.0164320
596.114	0.0164954
596.192	0.0165349
596.271	0.0165188
596.349	0.0165888
596.427	0.0164977
596.505	0.0165369
596.583	0.0165732
596.661	0.0166320
596.739	0.0164477
596.817	0.0165259
596.896	0.0165926
596.974	0.0164376
597.052	0.0165241
597.130	0.0165498
597.208	0.0164085
597.286	0.0166512
597.364	0.0165647
597.442	0.0166376
597.521	0.0164746
597.599	0.0164890
597.677	0.0164968
597.755	0.0165895
597.833	0.0166064
597.911	0.0164745
597.989	0.0164816
598.067	0.0165717
598.146	0.0165360
598.224	0.0165723
598.302	0.0165179
598.380	0.0164362
598.458	0.0165496
598.536	0.0165553
598.614	0.0164327
598.692	0.0165839
598.771	0.0165510
598.849	0.0164770
598.927	0.0164075
599.005	0.0165288
599.083	0.0165251
599.161	0.0165910
599.239	0.0165323
599.317	0.0164241
599.396	0.0165583
599.474	0.0165575
599.552	0.0164564
599.630	0.0164276
599.708	0.0164715
599.786	0.0165054
599.864	0.0165807
599.942	0.0164124
600.021	0.0165338
600.099	0.0165119
600.177	0.0165128
600.255	0.0166600
600.333	0.0164111
600.411	0.0164823
600.489	0.0165546
600.567	0.0164639
600.646	0.0164861
600.724	0.0166194
600.802	0.0164706
600.880	0.0165893
600.958	0.0163597
601.036	0.0163824
601.114	0.0165612
601.192	0.0165735
601.271	0.0164466
601.349	0.0165244
601.427	0.0165723
601.505	0.0164154
601.583	0.0163882
601.661	0.0163759
601.739	0.0166065
601.817	0.0164473
601.896	0.0164630
601.974	0.0164777
602.052	0.0164571
602.130	0.0165585
602.208	0.0164626
602.286	0.0164275
602.364	0.0165398
602.442	0.0166317
602.521	0.0165772
602.599	0.0165797
602.677	0.0165902
602.755	0.0165509
602.833	0.0164109
602.911	0.0165146
602.989	0.0166035
603.067	0.0166121
603.146	0.0165315
603.224	0.0163995
603.302	0.0165393
603.380	0.0165343
603.458	0.0164684
603.536	0.0164021
603.614	0.0164536
603.692	0.0165372
603.771	0.0163810
603.849	0.0165499
603.927	0.0165939
604.005	0.0165771
604.083	0.0165675
604.161	0.0164668
604.239	0.0165397
604.317	0.0165079
604.396	0.0165010
604.474	0.0164663
604.552	0.0165829
604.630	0.0164244
604.708	0.0165470
604.786	0.0165784
604.864	0.0164719
604.942	0.0166148
605.021	0.0164494
605.099	0.0164783
605.177	0.0164514
605.255	0.0165130
605.333	0.0165899
605.411	0.0166784
605.489	0.0165788
605.567	0.0165685
605.646	0.0164350
605.724	0.0164099
605.802	0.0164430
605.880	0.0163879
605.958	0.0165427
606.036	0.0166238
606.114	0.0165254
606.192	0.0164798
606.271	0.0164873
606.349	0.0164973
606.427	0.0164983
606.505	0.0165094
606.583	0.0165623
606.661	0.0164228
606.739	0.0165492
606.817	0.0164962
606.896	0.0163654
606.974	0.0166657
607.052	0.0166615
607.130	0.0165005
607.208	0.0166386
607.286	0.0164304
607.364	0.0164845
607.442	0.0164620
607.521	0.0165644
607.599	0.0165313
607.677	0.0164900
607.755	0.0165025
607.833	0.0166330
607.911	0.0164394
607.989	0.0163819
608.067	0.0166157
608.146	0.0165791
608.224	0.0164665
608.302	0.0164539
608.380	0.0163618
608.458	0.0164923
608.536	0.0165611
608.614	0.0164482
608.692	0.0164057
608.771	0.0164035
608.849	0.0165193
608.927	0.0164738
609.005	0.0165255
609.083	0.0163961
609.161	0.0164844
609.239	0.0164951
609.317	0.0163919
609.396	0.0165176
609.474	0.0163745
609.552	0.0163232
609.630	0.0166006
609.708	0.0164535
609.786	0.0163673
609.864	0.0165581
609.942	0.0165127
610.021	0.0163846
610.099	0.0164064
610.177	0.0164956
610.255	0.0166074
610.333	0.0164946
610.411	0.0164902
610.489	0.0164398
610.567	0.0166562
610.646	0.0163950
610.724	0.0163805
610.802	0.0164622
610.880	0.0164542
610.958	0.0164234
611.036	0.0166080
611.114	0.0165180
611.192	0.0164809
611.271	0.0164856
611.349	0.0164626
611.427	0.0165340
611.505	0.0164901
611.583	0.0164880
611.661	0.0164470
611.739	0.0163737
611.817	0.0164116
611.896	0.0166234
611.974	0.0164432
612.052	0.0165889
612.130	0.0164817
612.208	0.0164832
612.286	0.0165412
612.364	0.0165591
612.442	0.0165118
612.521	0.0162867
612.599	0.0164915
612.677	0.0165321
612.755	0.0165168
612.833	0.0165271
612.911	0.0164246
612.989	0.0165541
613.067	0.0163708
613.146	0.0165782
613.224	0.0165388
613.302	0.0164231
613.380	0.0164656
613.458	0.0165322
613.536	0.0165587
613.614	0.0165961
613.692	0.0165618
613.771	0.0166685
613.849	0.0165727
613.927	0.0164666
614.005	0.0164313
614.083	0.0165497
614.161	0.0163858
614.239	0.0164480
614.317	0.0165395
614.396	0.0165037
614.474	0.0165282
614.552	0.0165542
614.630	0.0166422
614.708	0.0164173
614.786	0.0165194
614.864	0.0165302
614.942	0.0165166
615.021	0.0165036
615.099	0.0165022
615.177	0.0166174
615.255	0.0166167
615.333	0.0165249
615.411	0.0165234
615.489	0.0165654
615.567	0.0165324
615.646	0.0165027
615.724	0.0166895
615.802	0.0166439
615.880	0.0165950
615.958	0.0163924
616.036	0.0164333
616.114	0.0166564
616.192	0.0164867
616.271	0.0165386
616.349	0.0165182
616.427	0.0165863
616.505	0.0165402
616.583	0.0166016
616.661	0.0165398
616.739	0.0165085
616.817	0.0164622
616.896	0.0165368
616.974	0.0165720
617.052	0.0164944
617.130	0.0165168
617.208	0.0165843
617.286	0.0164647
617.364	0.0166637
617.442	0.0165334
617.521	0.0164007
617.599	0.0165293
617.677	0.0165588
617.755	0.0166151
617.833	0.0164400
617.911	0.0164393
617.989	0.0165430
618.067	0.0163770
618.146	0.0165106
618.224	0.0164976
618.302	0.0166090
618.380	0.0165306
618.458	0.0164587
618.536	0.0163515
618.614	0.0165328
618.692	0.0165813
618.771	0.0165359
618.849	0.0164914
618.927	0.0164741
619.005	0.0165851
619.083	0.0165855
619.161	0.0164824
619.239	0.0164555
619.317	0.0163763
619.396	0.0164072
619.474	0.0165810
619.552	0.0165327
619.630	0.0164788
619.708	0.0164770
619.786	0.0165867
619.864	0.0164634
619.942	0.0165923
620.021	0.0165749
620.099	0.0165692
620.177	0.0165316
620.255	0.0164408
620.333	0.0165887
620.411	0.0164612
620.489	0.0167149
620.567	0.0164490
620.646	0.0164603
620.724	0.0165987
620.802	0.0165596
620.880	0.0165297
620.958	0.0165852
621.036	0.0165444
621.114	0.0164334
621.192	0.0165378
621.271	0.0164826
621.349	0.0165034
621.427	0.0165843
621.505	0.0165073
621.583	0.0165767
621.661	0.0165467
621.739	0.0165437
621.817	0.0165137
621.896	0.0165961
621.974	0.0164462
622.052	0.0165488
622.130	0.0165886
622.208	0.0166098
622.286	0.0165529
622.364	0.0165557
622.442	0.0165388
622.521	0.0164066
622.599	0.0166038
622.677	0.0165902
622.755	0.0164719
622.833	0.0164743
622.911	0.0165429
622.989	0.0165475
623.067	0.0164676
623.146	0.0164736
623.224	0.0166425
623.302	0.0165892
623.380	0.0164636
623.458	0.0165472
623.536	0.0165958
623.614	0.0166202
623.692	0.0165813
623.771	0.0166396
623.849	0.0165292
623.927	0.0164272
624.005	0.0164577
624.083	0.0165395
624.161	0.0165601
624.239	0.0166442
624.317	0.0164874
624.396	0.0164794
624.474	0.0165295
624.552	0.0165958
624.630	0.0165567
624.708	0.0166125
624.786	0.0163792
624.864	0.0165525
624.942	0.0166059
625.021	0.0164662
625.099	0.0165630
625.177	0.0165362
625.255	0.0164664
625.333	0.0165936
625.411	0.0164829
625.489	0.0165423
625.567	0.0164410
625.646	0.0165932
625.724	0.0163628
625.802	0.0164017
625.880	0.0165555
625.958	0.0164721
626.036	0.0166257
626.114	0.0165302
626.192	0.0166006
626.271	0.0165125
626.349	0.0164857
626.427	0.0164978
626.505	0.0165891
626.583	0.0165814
626.661	0.0165852
626.739	0.0164917
626.817	0.0166482
626.896	0.0165726
626.974	0.0164148
627.052	0.0164363
627.130	0.0164935
627.208	0.0166006
627.286	0.0164883
627.364	0.0165154
627.442	0.0165185
627.521	0.0165740
627.599	0.0165899
627.677	0.0165765
627.755	0.0166799
627.833	0.0164496
627.911	0.0165236
627.989	0.0166898
628.067	0.0166249
628.146	0.0166163
628.224	0.0164650
628.302	0.0165134
628.380	0.0164714
628.458	0.0167574
628.536	0.0165856
628.614	0.0165118
628.692	0.0164575
628.771	0.0166174
628.849	0.0165777
628.927	0.0165694
629.005	0.0164924
629.083	0.0166159
629.161	0.0166081
629.239	0.0165507
629.317	0.0166428
629.396	0.0165786
629.474	0.0165721
629.552	0.0164753
629.630	0.0165341
629.708	0.0165948
629.786	0.0165658
629.864	0.0165929
629.942	0.0164951
630.021	0.0165338
630.099	0.0166146
630.177	0.0165347
630.255	0.0165475
630.333	0.0165556
630.411	0.0164639
630.489	0.0164545
630.567	0.0165205
630.646	0.0164919
630.724	0.0166328
630.802	0.0165731
630.880	0.0166371
630.958	0.0166057
631.036	0.0164357
631.114	0.0165920
631.192	0.0165220
631.271	0.0166126
631.349	0.0166359
631.427	0.0165540
631.505	0.0165292
631.583	0.0167057
631.661	0.0167221
631.739	0.0165428
631.817	0.0166251
631.896	0.0164978
631.974	0.0165202
632.052	0.0164196
632.130	0.0165667
632.208	0.0165662
632.286	0.0165666
632.364	0.0165242
632.442	0.0165597
632.521	0.0165688
632.599	0.0165255
632.677	0.0166567
632.755	0.0166667
632.833	0.0164648
632.911	0.0166811
632.989	0.0166550
633.067	0.0165749
633.146	0.0164672
633.224	0.0165374
633.302	0.0165965
633.380	0.0165224
633.458	0.0166045
633.536	0.0165217
633.614	0.0164536
633.692	0.0165650
633.771	0.0165517
633.849	0.0166145
633.927	0.0166216
634.005	0.0165099
634.083	0.0166645
634.161	0.0165963
634.239	0.0164656
634.317	0.0165485
634.396	0.0165762
634.474	0.0164950
634.552	0.0165108
634.630	0.0165264
634.708	0.0165322
634.786	0.0165806
634.864	0.0165635
634.942	0.0166374
635.021	0.0165807
635.099	0.0165025
635.177	0.0164654
635.255	0.0165988
635.333	0.0164060
635.411	0.0165160
635.489	0.0165491
635.567	0.0165479
635.646	0.0165723
635.724	0.0165085
635.802	0.0165675
635.880	0.0164782
635.958	0.0165240
636.036	0.0165385
636.114	0.0165873
636.192	0.0165047
636.271	0.0166678
636.349	0.0166840
636.427	0.0165156
636.505	0.0165623
636.583	0.0164655
636.661	0.0164621
636.739	0.0165834
636.817	0.0164848
636.896	0.0165906
636.974	0.0164947
637.052	0.0165896
637.130	0.0165572
637.208	0.0162932
637.286	0.0166059
637.364	0.0165720
637.442	0.0166221
637.521	0.0167813
637.599	0.0164582
637.677	0.0166080
637.755	0.0166117
637.833	0.0164398
637.911	0.0165903
637.989	0.0166629
638.067	0.0164735
638.146	0.0164979
638.224	0.0165205
638.302	0.0166136
638.380	0.0165166
638.458	0.0165546
638.536	0.0164198
638.614	0.0165378
638.692	0.0166126
638.771	0.0165383
638.849	0.0165591
638.927	0.0166472
639.005	0.0166105
639.083	0.0164268
639.161	0.0164878
639.239	0.0165801
639.317	0.0164979
639.396	0.0166219
639.474	0.0165651
639.552	0.0165078
639.630	0.0165730
639.708	0.0167253
639.786	0.0165089
639.864	0.0165372
639.942	0.0165681
640.021	0.0164709
640.099	0.0164214
640.177	0.0165446
640.255	0.0166039
640.333	0.0166355
640.411	0.0165538
640.489	0.0165002
640.567	0.0165472
640.646	0.0164754
640.724	0.0165170
640.802	0.0166299
640.880	0.0164326
640.958	0.0165591
641.036	0.0164897
641.114	0.0165161
641.192	0.0164294
641.271	0.0167099
641.349	0.0164983
641.427	0.0164928
641.505	0.0164509
641.583	0.0164953
641.661	0.0164200
641.739	0.0164626
641.817	0.0163943
641.896	0.0164174
641.974	0.0165981
642.052	0.0165269
642.130	0.0165179
642.208	0.0165615
642.286	0.0166404
642.364	0.0165110
642.442	0.0164849
642.521	0.0164944
642.599	0.0164451
642.677	0.0166290
642.755	0.0163911
642.833	0.0165601
642.911	0.0166051
642.989	0.0164873
643.067	0.0165251
643.146	0.0164757
643.224	0.0165878
643.302	0.0163997
643.380	0.0165695
643.458	0.0166454
643.536	0.0166436
643.614	0.0164765
643.692	0.0164807
643.771	0.0166013
643.849	0.0165691
643.927	0.0165443
644.005	0.0165635
644.083	0.0165920
644.161	0.0165876
644.239	0.0166311
644.317	0.0165865
644.396	0.0164983
644.474	0.0165302
644.552	0.0164371
644.630	0.0166049
644.708	0.0165831
644.786	0.0165623
644.864	0.0165634
644.942	0.0164588
645.021	0.0165077
645.099	0.0164332
645.177	0.0165609
645.255	0.0166070
645.333	0.0164622
645.411	0.0164814
645.489	0.0165283
645.567	0.0166304
645.646	0.0165584
645.724	0.0164812
645.802	0.0165416
645.880	0.0164258
645.958	0.0166016
646.036	0.0165841
646.114	0.0164001
646.192	0.0165163
646.271	0.0166301
646.349	0.0165891
646.427	0.0165141
646.505	0.0163742
646.583	0.0164404
646.661	0.0164751
646.739	0.0166183
646.817	0.0165994
646.896	0.0164615
646.974	0.0165370
647.052	0.0165784
647.130	0.0165208
647.208	0.0164413
647.286	0.0165823
647.364	0.0165643
647.442	0.0164667
647.521	0.0165062
647.599	0.0165614
647.677	0.0165072
647.755	0.0164378
647.833	0.0164934
647.911	0.0165539
647.989	0.0165789
648.067	0.0164716
648.146	0.0165037
648.224	0.0164447
648.302	0.0164552
648.380	0.0164787
648.458	0.0163749
648.536	0.0165653
648.614	0.0164966
648.692	0.0166568
648.771	0.0164426
648.849	0.0165584
648.927	0.0165057
649.005	0.0165558
649.083	0.0165957
649.161	0.0165777
649.239	0.0165160
649.317	0.0166620
649.396	0.0165661
649.474	0.0163737
649.552	0.0164213
649.630	0.0166046
649.708	0.0165337
649.786	0.0165373
649.864	0.0166091
649.942	0.0164284
650.021	0.0164377
650.099	0.0164716
650.177	0.0166723
650.255	0.0165167
650.333	0.0165189
650.411	0.0165434
650.489	0.0165156
650.567	0.0164819
650.646	0.0165441
650.724	0.0166017
650.802	0.0164736
650.880	0.0164816
650.958	0.0165836
651.036	0.0165224
651.114	0.0163437
651.192	0.0165189
651.271	0.0165628
651.349	0.0165843
651.427	0.0164849
651.505	0.0164691
651.583	0.0163587
651.661	0.0165488
651.739	0.0164906
651.817	0.0164803
651.896	0.0165490
651.974	0.0164642
652.052	0.0165466
652.130	0.0164444
652.208	0.0165434
652.286	0.0164862
652.364	0.0165488
652.442	0.0166341
652.521	0.0164402
652.599	0.0164960
652.677	0.0165549
652.755	0.0165604
652.833	0.0164655
652.911	0.0165326
652.989	0.0164693
653.067	0.0166389
653.146	0.0165642
653.224	0.0164375
653.302	0.0165237
653.380	0.0164777
653.458	0.0164115
653.536	0.0164381
653.614	0.0165608
653.692	0.0165456
653.771	0.0165554
653.849	0.0166392
653.927	0.0166048
654.005	0.0164155
654.083	0.0164578
654.161	0.0166878
654.239	0.0165678
654.317	0.0165659
654.396	0.0165359
654.474	0.0164897
654.552	0.0166193
654.630	0.0165748
654.708	0.0164851
654.786	0.0166007
654.864	0.0165454
654.942	0.0165531
655.021	0.0165852
655.099	0.0165532
655.177	0.0166705
655.255	0.0165119
655.333	0.0166384
655.411	0.0166232
655.489	0.0166292
655.567	0.0166968
655.646	0.0165971
655.724	0.0165606
655.802	0.0165456
655.880	0.0164986
655.958	0.0165044
656.036	0.0166003
656.114	0.0164537
656.192	0.0165395
656.271	0.0166190
656.349	0.0164191
656.427	0.0164563
656.505	0.0164662
656.583	0.0165716
656.661	0.0165762
656.739	0.0165161
656.817	0.0164299
656.896	0.0165409
656.974	0.0165499
657.052	0.0165685
657.130	0.0166240
657.208	0.0166376
657.286	0.0165705
657.364	0.0165425
657.442	0.0164650
657.521	0.0164997
657.599	0.0165632
657.677	0.0165731
657.755	0.0165076
657.833	0.0164749
657.911	0.0165377
657.989	0.0165938
658.067	0.0165540
658.146	0.0166056
658.224	0.0165621
658.302	0.0165054
658.380	0.0164915
658.458	0.0164609
658.536	0.0165827
658.614	0.0165807
658.692	0.0165489
658.771	0.0166298
658.849	0.0165456
658.927	0.0165516
659.005	0.0164924
659.083	0.0165450
659.161	0.0165604
659.239	0.0165101
659.317	0.0165065
659.396	0.0165638
659.474	0.0164540
659.552	0.0165162
659.630	0.0165701
659.708	0.0164344
659.786	0.0164906
659.864	0.0165692
659.942	0.0166518
660.021	0.0166736
660.099	0.0165582
660.177	0.0165554
660.255	0.0165617
660.333	0.0166530
660.411	0.0166923
660.489	0.0166426
660.567	0.0166254
660.646	0.0165417
660.724	0.0164723
660.802	0.0165139
660.880	0.0166763
660.958	0.0164971
661.036	0.0165801
661.114	0.0165929
661.192	0.0165755
661.271	0.0166296
661.349	0.0165599
661.427	0.0165947
661.505	0.0165162
661.583	0.0164260
661.661	0.0165143
661.739	0.0164837
661.817	0.0164957
661.896	0.0165594
661.974	0.0166540
662.052	0.0165903
662.130	0.0166273
662.208	0.0164994
662.286	0.0166418
662.364	0.0167330
662.442	0.0165667
662.521	0.0166023
662.599	0.0165723
662.677	0.0165313
662.755	0.0165545
662.833	0.0165223
662.911	0.0165655
662.989	0.0165862
663.067	0.0166523
663.146	0.0164610
663.224	0.0164781
663.302	0.0166137
663.380	0.0165067
663.458	0.0165742
663.536	0.0165972
663.614	0.0164897
663.692	0.0164832
663.771	0.0165359
663.849	0.0164040
663.927	0.0165484
664.005	0.0165559
664.083	0.0163757
664.161	0.0164177
664.239	0.0166032
664.317	0.0166351
664.396	0.0164555
664.474	0.0165958
664.552	0.0165254
664.630	0.0164577
664.708	0.0164603
664.786	0.0167155
664.864	0.0166664
664.942	0.0166329
665.021	0.0165240
665.099	0.0164551
665.177	0.0165586
665.255	0.0165266
665.333	0.0165318
665.411	0.0165278
665.489	0.0166587
665.567	0.0166738
665.646	0.0164061
665.724	0.0165195
665.802	0.0164818
665.880	0.0166408
665.958	0.0165872
666.036	0.0166367
666.114	0.0166061
666.192	0.0165755
666.271	0.0164438
666.349	0.0166145
666.427	0.0166582
666.505	0.0164834
666.583	0.0165597
666.661	0.0165037
666.739	0.0166164
666.817	0.0166146
666.896	0.0165179
666.974	0.0164883
667.052	0.0165385
667.130	0.0166743
667.208	0.0166322
667.286	0.0166504
667.364	0.0164713
667.442	0.0164576
667.521	0.0166673
667.599	0.0166074
667.677	0.0165883
667.755	0.0166301
667.833	0.0165323
667.911	0.0164594
667.989	0.0165764
668.067	0.0165043
668.146	0.0164826
668.224	0.0165588
668.302	0.0164948
668.380	0.0166045
668.458	0.0166432
668.536	0.0164820
668.614	0.0165092
668.692	0.0164377
668.771	0.0165115
668.849	0.0165320
668.927	0.0165090
669.005	0.0164672
669.083	0.0165814
669.161	0.0165243
669.239	0.0166045
669.317	0.0164889
669.396	0.0164592
669.474	0.0164956
669.552	0.0166293
669.630	0.0165214
669.708	0.0166322
669.786	0.0165910
669.864	0.0165480
669.942	0.0163651
670.021	0.0164904
670.099	0.0166047
670.177	0.0167269
670.255	0.0165020
670.333	0.0165348
670.411	0.0164840
670.489	0.0165125
670.567	0.0165933
670.646	0.0164633
670.724	0.0166139
670.802	0.0165203
670.880	0.0164248
670.958	0.0165237
671.036	0.0165358
671.114	0.0164653
671.192	0.0166789
671.271	0.0166661
671.349	0.0165967
671.427	0.0164318
671.505	0.0164590
671.583	0.0166228
671.661	0.0166113
671.739	0.0164464
671.817	0.0164816
671.896	0.0165417
671.974	0.0166489
672.052	0.0166460
672.130	0.0164966
672.208	0.0165826
672.286	0.0164819
672.364	0.0164026
672.442	0.0166836
672.521	0.0166000
672.599	0.0163858
672.677	0.0164402
672.755	0.0164195
672.833	0.0166226
672.911	0.0166456
672.989	0.0164965
673.067	0.0165968
673.146	0.0165161
673.224	0.0166727
673.302	0.0166291
673.380	0.0164983
673.458	0.0164543
673.536	0.0166696
673.614	0.0166267
673.692	0.0165939
673.771	0.0166894
673.849	0.0164594
673.927	0.0162979
674.005	0.0165480
674.083	0.0165376
674.161	0.0165912
674.239	0.0164909
674.317	0.0165519
674.396	0.0166277
674.474	0.0166114
674.552	0.0165348
674.630	0.0165512
674.708	0.0166132
674.786	0.0165757
674.864	0.0165313
674.942	0.0164222
675.021	0.0167441
675.099	0.0165720
675.177	0.0164763
675.255	0.0165745
675.333	0.0165762
675.411	0.0164091
675.489	0.0165155
675.567	0.0165134
675.646	0.0165960
675.724	0.0166183
675.802	0.0165271
675.880	0.0165257
675.958	0.0166164
676.036	0.0164935
676.114	0.0166082
676.192	0.0165533
676.271	0.0165202
676.349	0.0165964
676.427	0.0166461
676.505	0.0166135
676.583	0.0165059
676.661	0.0167462
676.739	0.0166900
676.817	0.0165945
676.896	0.0164875
676.974	0.0164832
677.052	0.0165489
677.130	0.0166288
677.208	0.0165210
677.286	0.0165960
677.364	0.0164912
677.442	0.0164780
677.521	0.0165659
677.599	0.0165434
677.677	0.0165607
677.755	0.0165218
677.833	0.0165897
677.911	0.0166250
677.989	0.0165512
678.067	0.0165236
678.146	0.0165842
678.224	0.0165535
678.302	0.0164446
678.380	0.0164331
678.458	0.0164688
678.536	0.0165239
678.614	0.0165461
678.692	0.0165739
678.771	0.0165114
678.849	0.0165562
678.927	0.0164834
679.005	0.0164970
679.083	0.0163923
679.161	0.0165011
679.239	0.0164924
679.317	0.0163737
679.396	0.0164341
679.474	0.0164187
679.552	0.0164718
679.630	0.0164977
679.708	0.0165859
679.786	0.0163894
679.864	0.0164305
679.942	0.0165028
680.021	0.0163609
680.099	0.0164555
680.177	0.0164982
680.255	0.0164262
680.333	0.0164110
680.411	0.0163490
680.489	0.0164341
680.567	0.0165193
680.646	0.0164774
680.724	0.0165624
680.802	0.0165070
680.880	0.0163910
680.958	0.0164215
681.036	0.0165715
681.114	0.0164742
681.192	0.0165923
681.271	0.0164240
681.349	0.0163503
681.427	0.0165596
681.505	0.0165287
681.583	0.0163130
681.661	0.0162906
681.739	0.0164161
681.817	0.0165817
681.896	0.0164971
681.974	0.0164515
682.052	0.0164391
682.130	0.0164416
682.208	0.0164412
682.286	0.0164967
682.364	0.0164593
682.442	0.0164950
682.521	0.0165272
682.599	0.0164585
682.677	0.0164497
682.755	0.0165045
682.833	0.0163351
682.911	0.0165063
682.989	0.0165269
683.067	0.0165821
683.146	0.0164819
683.224	0.0165401
683.302	0.0165163
683.380	0.0166464
683.458	0.0165851
683.536	0.0164763
683.614	0.0165789
683.692	0.0166255
683.771	0.0166624
683.849	0.0164642
683.927	0.0165328
684.005	0.0165296
684.083	0.0166135
684.161	0.0166635
684.239	0.0166240
684.317	0.0165723
684.396	0.0165732
684.474	0.0164304
684.552	0.0166605
684.630	0.0167687
684.708	0.0165031
684.786	0.0166615
684.864	0.0165663
684.942	0.0166652
685.021	0.0166405
685.099	0.0165915
685.177	0.0168097
685.255	0.0165967
685.333	0.0165993
685.411	0.0165382
685.489	0.0166214
685.567	0.0167307
685.646	0.0166893
685.724	0.0166729
685.802	0.0165881
685.880	0.0166101
685.958	0.0165877
686.036	0.0165208
686.114	0.0165650
686.192	0.0166610
686.271	0.0166550
686.349	0.0166017
686.427	0.0167461
686.505	0.0167041
686.583	0.0165828
686.661	0.0165626
686.739	0.0166518
686.817	0.0166757
686.896	0.0165428
686.974	0.0166303
687.052	0.0165409
687.130	0.0165688
687.208	0.0166152
687.286	0.0167068
687.364	0.0165810
687.442	0.0165819
687.521	0.0166069
687.599	0.0166359
687.677	0.0166526
687.755	0.0166373
687.833	0.0166824
687.911	0.0166508
687.989	0.0166940
688.067	0.0164465
688.146	0.0165396
688.224	0.0167635
688.302	0.0166050
688.380	0.0165291
688.458	0.0166035
688.536	0.0167212
688.614	0.0165794
688.692	0.0165253
688.771	0.0164783
688.849	0.0165404
688.927	0.0164912
689.005	0.0165598
689.083	0.0164986
689.161	0.0165704
689.239	0.0166633
689.317	0.0166253
689.396	0.0164397
689.474	0.0166000
689.552	0.0165763
689.630	0.0164245
689.708	0.0163853
689.786	0.0165757
689.864	0.0164938
689.942	0.0166060
690.021	0.0165514
690.099	0.0165260
690.177	0.0164986
690.255	0.0165177
690.333	0.0163744
690.411	0.0164569
690.489	0.0165121
690.567	0.0164759
690.646	0.0165318
690.724	0.0164723
690.802	0.0164777
690.880	0.0165405
690.958	0.0164411
691.036	0.0164297
691.114	0.0164906
691.192	0.0165849
691.271	0.0164641
691.349	0.0165278
691.427	0.0164414
691.505	0.0163905
691.583	0.0163339
691.661	0.0163587
691.739	0.0165107
691.817	0.0165354
691.896	0.0164252
691.974	0.0164426
692.052	0.0165099
692.130	0.0163587
692.208	0.0163946
692.286	0.0165102
692.364	0.0164094
692.442	0.0163539
692.521	0.0164658
692.599	0.0163335
692.677	0.0163888
692.755	0.0164373
692.833	0.0165257
692.911	0.0163432
692.989	0.0164101
693.067	0.0163340
693.146	0.0163791
693.224	0.0164339
693.302	0.0164399
693.380	0.0165464
693.458	0.0164845
693.536	0.0165071
693.614	0.0164907
693.692	0.0165864
693.771	0.0165109
693.849	0.0165059
693.927	0.0164459
694.005	0.0164507
694.083	0.0164428
694.161	0.0165749
694.239	0.0165731
694.317	0.0164646
694.396	0.0165138
694.474	0.0164613
694.552	0.0164581
694.630	0.0165312
694.708	0.0164886
694.786	0.0165214
694.864	0.0164632
694.942	0.0165371
695.021	0.0164667
695.099	0.0164208
695.177	0.0164014
695.255	0.0163782
695.333	0.0164710
695.411	0.0165898
695.489	0.0165391
695.567	0.0165317
695.646	0.0166067
695.724	0.0165099
695.802	0.0164179
695.880	0.0164443
695.958	0.0164668
696.036	0.0166267
696.114	0.0165681
696.192	0.0164971
696.271	0.0165999
696.349	0.0165563
696.427	0.0164866
696.505	0.0167616
696.583	0.0165701
696.661	0.0165970
696.739	0.0165506
696.817	0.0166020
696.896	0.0165862
696.974	0.0164322
697.052	0.0163161
697.130	0.0163191
697.208	0.0163203
697.286	0.0162194
697.364	0.0161398
697.442	0.0161720
697.521	0.0163020
697.599	0.0163615
697.677	0.0165951
697.755	0.0167991
697.833	0.0170298
697.911	0.0172144
697.989	0.0176380
698.067	0.0177460
698.146	0.0176893
698.224	0.0174882
698.302	0.0174186
698.380	0.0171348
698.458	0.0167013
698.536	0.0161805
698.614	0.0156369
698.692	0.0151624
698.771	0.0147692
698.849	0.0143851
698.927	0.0142084
699.005	0.0142656
699.083	0.0145148
699.161	0.0148259
699.239	0.0156304
699.317	0.0163682
699.396	0.0170843
699.474	0.0179897
699.552	0.0185612
699.630	0.0192493
699.708	0.0197375
699.786	0.0197919
699.864	0.0199738
699.942	0.0197013
700.021	0.0191074
700.099	0.0187179
700.177	0.0179063
700.255	0.0169314
700.333	0.0161153
700.411	0.0151392
700.489	0.0143964
700.567	0.0138512
700.646	0.0134663
700.724	0.0132533
700.802	0.0133704
700.880	0.0136437
700.958	0.0140919
701.036	0.0149419
701.114	0.0155500
701.192	0.0162882
701.271	0.0173040
701.349	0.0180913
701.427	0.0187624
701.505	0.0191694
701.583	0.0193544
701.661	0.0195245
701.739	0.0192919
701.817	0.0188062
701.896	0.0182936
701.974	0.0175143
702.052	0.0168299
702.130	0.0161224
702.208	0.0156306
702.286	0.0151647
702.364	0.0146838
702.442	0.0144210
702.521	0.0143754
702.599	0.0147514
702.677	0.0146741
702.755	0.0149842
702.833	0.0154276
702.911	0.0156786
702.989	0.0160118
703.067	0.0163580
703.146	0.0166468
703.224	0.0169041
703.302	0.0170674
703.380	0.0171774
703.458	0.0171701
703.536	0.0172214
703.614	0.0171777
703.692	0.0173196
703.771	0.0173014
703.849	0.0173898
703.927	0.0174001
704.005	0.0175629
704.083	0.0173772
704.161	0.0173586
704.239	0.0171776
704.317	0.0170807
704.396	0.0169417
704.474	0.0167636
704.552	0.0166618
704.630	0.0167165
704.708	0.0163806
704.786	0.0162075
704.864	0.0162298
704.942	0.0160289
705.021	0.0159748
705.099	0.0159489
705.177	0.0158618
705.255	0.0159221
705.333	0.0159099
705.411	0.0158364
705.489	0.0159937
705.567	0.0159441
705.646	0.0159400
705.724	0.0157905
705.802	0.0159238
705.880	0.0158373
705.958	0.0158111
706.036	0.0159042
706.114	0.0158486
706.192	0.0157336
706.271	0.0157178
706.349	0.0158466
706.427	0.0157783
706.505	0.0159979
706.583	0.0160602
706.661	0.0160548
706.739	0.0162589
706.817	0.0166885
706.896	0.0168600
706.974	0.0170583
707.052	0.0174376
707.130	0.0175690
707.208	0.0179020
707.286	0.0181561
707.364	0.0183414
707.442	0.0184415
707.521	0.0185318
707.599	0.0186241
707.677	0.0184358
707.755	0.0183702
707.833	0.0181620
707.911	0.0178242
707.989	0.0175027
708.067	0.0172136
708.146	0.0167841
708.224	0.0163305
708.302	0.0160972
708.380	0.0158705
708.458	0.0154652
708.536	0.0152757
708.614	0.0150616
708.692	0.0148013
708.771	0.0148058
708.849	0.0147047
708.927	0.0146574
709.005	0.0146856
709.083	0.0148154
709.161	0.0150622
709.239	0.0151889
709.317	0.0153221
709.396	0.0158342
709.474	0.0160886
709.552	0.0164290
709.630	0.0166541
709.708	0.0168575
709.786	0.0170744
709.864	0.0172439
709.942	0.0175536
710.021	0.0177409
710.099	0.0175147
710.177	0.0175394
710.255	0.0172025
710.333	0.0169731
710.411	0.0168842
710.489	0.0165231
710.567	0.0164419
710.646	0.0162696
710.724	0.0160579
710.802	0.0159339
710.880	0.0160063
710.958	0.0160282
711.036	0.0162382
711.114	0.0164218
711.192	0.0165108
711.271	0.0167722
711.349	0.0171484
711.427	0.0173606
711.505	0.0175398
711.583	0.0176273
711.661	0.0177447
711.739	0.0178191
711.817	0.0178504
711.896	0.0179671
711.974	0.0177678
712.052	0.0175184
712.130	0.0173651
712.208	0.0170952
712.286	0.0168014
712.364	0.0164468
712.442	0.0162159
712.521	0.0159965
712.599	0.0158079
712.677	0.0154919
712.755	0.0152706
712.833	0.0153314
712.911	0.0152485
712.989	0.0151631
713.067	0.0152000
713.146	0.0153506
713.224	0.0154770
713.302	0.0157557
713.380	0.0158701
713.458	0.0161151
713.536	0.0163435
713.614	0.0164304
713.692	0.0166791
713.771	0.0169380
713.849	0.0169462
713.927	0.0170265
714.005	0.0172849
714.083	0.0172515
714.161	0.0172505
714.239	0.0172557
714.317	0.0171589
714.396	0.0171313
714.474	0.0173010
714.552	0.0172452
714.630	0.0171110
714.708	0.0173548
714.786	0.0173166
714.864	0.0173735
714.942	0.0172176
715.021	0.0173517
715.099	0.0173151
715.177	0.0171962
715.255	0.0171133
715.333	0.0169594
715.411	0.0167319
715.489	0.0166735
715.567	0.0164071
715.646	0.0160885
715.724	0.0158755
715.802	0.0157731
715.880	0.0157649
715.958	0.0156030
716.036	0.0155412
716.114	0.0155152
716.192	0.0156655
716.271	0.0155483
716.349	0.0156744
716.427	0.0159254
716.505	0.0159851
716.583	0.0160875
716.661	0.0163116
716.739	0.0163580
716.817	0.0163380
716.896	0.0164530
716.974	0.0163335
717.052	0.0164657
717.130	0.0163679
717.208	0.0165108
717.286	0.0164202
717.364	0.0165072
717.442	0.0164378
717.521	0.0164217
717.599	0.0165373
717.677	0.0165457
717.755	0.0167156
717.833	0.0167624
717.911	0.0167402
717.989	0.0169007
718.067	0.0168299
718.146	0.0170617
718.224	0.0169587
718.302	0.0172097
718.380	0.0171888
718.458	0.0171391
718.536	0.0171472
718.614	0.0172314
718.692	0.0172076
718.771	0.0169130
718.849	0.0167820
718.927	0.0166724
719.005	0.0166071
719.083	0.0165736
719.161	0.0162997
719.239	0.0162107
719.317	0.0160271
719.396	0.0158061
719.474	0.0159126
719.552	0.0159054
719.630	0.0159033
719.708	0.0160385
719.786	0.0162973
719.864	0.0160686
719.942	0.0161627
720.021	0.0165218
720.099	0.0164357
720.177	0.0163521
720.255	0.0165355
720.333	0.0165353
720.411	0.0165988
720.489	0.0166058
720.567	0.0165306
720.646	0.0165390
720.724	0.0165546
720.802	0.0165232
720.880	0.0163514
720.958	0.0164574
721.036	0.0163405
721.114	0.0163202
721.192	0.0162915
721.271	0.0161143
721.349	0.0161349
721.427	0.0161229
721.505	0.0160123
721.583	0.0161158
721.661	0.0161381
721.739	0.0161760
721.817	0.0161681
721.896	0.0162406
721.974	0.0163999
722.052	0.0164593
722.130	0.0164529
722.208	0.0167409
722.286	0.0166230
722.364	0.0169196
722.442	0.0170123
722.521	0.0168316
722.599	0.0167357
722.677	0.0167142
722.755	0.0167486
722.833	0.0166639
722.911	0.0166562
722.989	0.0166443
723.067	0.0164729
723.146	0.0165165
723.224	0.0164778
723.302	0.0163448
723.380	0.0163149
723.458	0.0164143
723.536	0.0165411
723.614	0.0166014
723.692	0.0167873
723.771	0.0168120
723.849	0.0169887
723.927	0.0172298
724.005	0.0173779
724.083	0.0175416
724.161	0.0175430
724.239	0.0174813
724.317	0.0175544
724.396	0.0174369
724.474	0.0173226
724.552	0.0171948
724.630	0.0170169
724.708	0.0168195
724.786	0.0165070
724.864	0.0164435
724.942	0.0164973
725.021	0.0163885
725.099	0.0162660
725.177	0.0160587
725.255	0.0161459
725.333	0.0161631
725.411	0.0162966
725.489	0.0163946
725.567	0.0163215
725.646	0.0164373
725.724	0.0165412
725.802	0.0164613
725.880	0.0166113
725.958	0.0165574
726.036	0.0164595
726.114	0.0164603
726.192	0.0164285
726.271	0.0161533
726.349	0.0159827
726.427	0.0160228
726.505	0.0160435
726.583	0.0156966
726.661	0.0158138
726.739	0.0157488
726.817	0.0157406
726.896	0.0156621
726.974	0.0157098
727.052	0.0160152
727.130	0.0161132
727.208	0.0161356
727.286	0.0163703
727.364	0.0163538
727.442	0.0164637
727.521	0.0165292
727.599	0.0165758
727.677	0.0167947
727.755	0.0168118
727.833	0.0168859
727.911	0.0168422
727.989	0.0168139
728.067	0.0167894
728.146	0.0169273
728.224	0.0168038
728.302	0.0168636
728.380	0.0167673
728.458	0.0168208
728.536	0.0167226
728.614	0.0167643
728.692	0.0168655
728.771	0.0169651
728.849	0.0168096
728.927	0.0169101
729.005	0.0170407
729.083	0.0168860
729.161	0.0169062
729.239	0.0169112
729.317	0.0168767
729.396	0.0167820
729.474	0.0167551
729.552	0.0166989
729.630	0.0167833
729.708	0.0165688
729.786	0.0165735
729.864	0.0164408
729.942	0.0163666
730.021	0.0163964
730.099	0.0161844
730.177	0.0162679
730.255	0.0161787
730.333	0.0162330
730.411	0.0163137
730.489	0.0163324
730.567	0.0164395
730.646	0.0162886
730.724	0.0162571
730.802	0.0163326
730.880	0.0163880
730.958	0.0164876
731.036	0.0164124
731.114	0.0165436
731.192	0.0165598
731.271	0.0164348
731.349	0.0165188
731.427	0.0165670
731.505	0.0165143
731.583	0.0163932
731.661	0.0163728
731.739	0.0163994
731.817	0.0162545
731.896	0.0163055
731.974	0.0163314
732.052	0.0162827
732.130	0.0162194
732.208	0.0161523
732.286	0.0162450
732.364	0.0163541
732.442	0.0163821
732.521	0.0162486
732.599	0.0165061
732.677	0.0165452
732.755	0.0164172
732.833	0.0166424
732.911	0.0166037
732.989	0.0165984
733.067	0.0167858
733.146	0.0167281
733.224	0.0166433
733.302	0.0166360
733.380	0.0166226
733.458	0.0167445
733.536	0.0166215
733.614	0.0165709
733.692	0.0166751
733.771	0.0166257
733.849	0.0167680
733.927	0.0165900
734.005	0.0166133
734.083	0.0166104
734.161	0.0166840
734.239	0.0166328
734.317	0.0167125
734.396	0.0167267
734.474	0.0168369
734.552	0.0168392
734.630	0.0168426
734.708	0.0169917
734.786	0.0169958
734.864	0.0169143
734.942	0.0169318
735.021	0.0169376
735.099	0.0169253
735.177	0.0168095
735.255	0.0168109
735.333	0.0167542
735.411	0.0166582
735.489	0.0164105
735.567	0.0164427
735.646	0.0162395
735.724	0.0161351
735.802	0.0161528
735.880	0.0160680
735.958	0.0160847
736.036	0.0160805
736.114	0.0160835
736.192	0.0161696
736.271	0.0162248
736.349	0.0161831
736.427	0.0163355
736.505	0.0164699
736.583	0.0163885
736.661	0.0164197
736.739	0.0163869
736.817	0.0165522
736.896	0.0164961
736.974	0.0164715
737.052	0.0163859
737.130	0.0163851
737.208	0.0164259
737.286	0.0163041
737.364	0.0163429
737.442	0.0163624
737.521	0.0164259
737.599	0.0163081
737.677	0.0163195
737.755	0.0164419
737.833	0.0164761
737.911	0.0165885
737.989	0.0164646
738.067	0.0166364
738.146	0.0166702
738.224	0.0166673
738.302	0.0168509
738.380	0.0169358
738.458	0.0169163
738.536	0.0169710
738.614	0.0169164
738.692	0.0167970
738.771	0.0168166
738.849	0.0167585
738.927	0.0168507
739.005	0.0167773
739.083	0.0166783
739.161	0.0167842
739.239	0.0167327
739.317	0.0167416
739.396	0.0166562
739.474	0.0166463
739.552	0.0167638
739.630	0.0168014
739.708	0.0168194
739.786	0.0167920
739.864	0.0167342
739.942	0.0166797
740.021	0.0167690
740.099	0.0167023
740.177	0.0165342
740.255	0.0165757
740.333	0.0165005
740.411	0.0164730
740.489	0.0163331
740.567	0.0163218
740.646	0.0162720
740.724	0.0160727
740.802	0.0161223
740.880	0.0163073
740.958	0.0162482
741.036	0.0162763
741.114	0.0162984
741.192	0.0162266
741.271	0.0163001
741.349	0.0163362
741.427	0.0163991
741.505	0.0164245
741.583	0.0163892
741.661	0.0167197
741.739	0.0164173
741.817	0.0164773
741.896	0.0165568
741.974	0.0166161
742.052	0.0166049
742.130	0.0165240
742.208	0.0165862
742.286	0.0164375
742.364	0.0164014
742.442	0.0164935
742.521	0.0165215
742.599	0.0164314
742.677	0.0164020
742.755	0.0164644
742.833	0.0165070
742.911	0.0165930
742.989	0.0165711
743.067	0.0166257
743.146	0.0165081
743.224	0.0166085
743.302	0.0165925
743.380	0.0166411
743.458	0.0166162
743.536	0.0165970
743.614	0.0164232
743.692	0.0165491
743.771	0.0164926
743.849	0.0164331
743.927	0.0165855
744.005	0.0164852
744.083	0.0164013
744.161	0.0165359
744.239	0.0163483
744.317	0.0164663
744.396	0.0164364
744.474	0.0164755
744.552	0.0165478
744.630	0.0165942
744.708	0.0167075
744.786	0.0164489
744.864	0.0166222
744.942	0.0166686
745.021	0.0167363
745.099	0.0166502
745.177	0.0166963
745.255	0.0166194
745.333	0.0166268
745.411	0.0167149
745.489	0.0166504
745.567	0.0166072
745.646	0.0165565
745.724	0.0164199
745.802	0.0165501
745.880	0.0165154
745.958	0.0164079
746.036	0.0164062
746.114	0.0163776
746.192	0.0163657
746.271	0.0162715
746.349	0.0163149
746.427	0.0164225
746.505	0.0164022
746.583	0.0163535
746.661	0.0164993
746.739	0.0164951
746.817	0.0166035
746.896	0.0167744
746.974	0.0167046
747.052	0.0167264
747.130	0.0167520
747.208	0.0168254
747.286	0.0168070
747.364	0.0168569
747.442	0.0168570
747.521	0.0168528
747.599	0.0167155
747.677	0.0168357
747.755	0.0167342
747.833	0.0165237
747.911	0.0164680
747.989	0.0164090
748.067	0.0163987
748.146	0.0162132
748.224	0.0161813
748.302	0.0161495
748.380	0.0161058
748.458	0.0160323
748.536	0.0158764
748.614	0.0158650
748.692	0.0159660
748.771	0.0159071
748.849	0.0159663
748.927	0.0159911
749.005	0.0159965
749.083	0.0158884
749.161	0.0160605
749.239	0.0161678
749.317	0.0163512
749.396	0.0163725
749.474	0.0163120
749.552	0.0166000
749.630	0.0165260
749.708	0.0165987
749.786	0.0167215
749.864	0.0166263
749.942	0.0166777
750.021	0.0167052
750.099	0.0166888
750.177	0.0166111
750.255	0.0166898
750.333	0.0166261
750.411	0.0167387
750.489	0.0168668
750.567	0.0168416
750.646	0.0167876
750.724	0.0168645
750.802	0.0168221
750.880	0.0167887
750.958	0.0169084
751.036	0.0168117
751.114	0.0169331
751.192	0.0168043
751.271	0.0168183
751.349	0.0168937
751.427	0.0167404
751.505	0.0167699
751.583	0.0165900
751.661	0.0164791
751.739	0.0165224
751.817	0.0165151
751.896	0.0163735
751.974	0.0163673
752.052	0.0163603
752.130	0.0162666
752.208	0.0162586
752.286	0.0162496
752.364	0.0162782
752.442	0.0162171
752.521	0.0162029
752.599	0.0162202
752.677	0.0162394
752.755	0.0161211
752.833	0.0161645
752.911	0.0162878
752.989	0.0162912
753.067	0.0163242
753.146	0.0163921
753.224	0.0164882
753.302	0.0164452
753.380	0.0166150
753.458	0.0166016
753.536	0.0165398
753.614	0.0167740
753.692	0.0167377
753.771	0.0168184
753.849	0.0168238
753.927	0.0168981
754.005	0.0169368
754.083	0.0166953
754.161	0.0167910
754.239	0.0167090
754.317	0.0168045
754.396	0.0166625
754.474	0.0167195
754.552	0.0165922
754.630	0.0167254
754.708	0.0167474
754.786	0.0165401
754.864	0.0165228
754.942	0.0165001
755.021	0.0164519
755.099	0.0164652
755.177	0.0163343
755.255	0.0163519
755.333	0.0164084
755.411	0.0164586
755.489	0.0163948
755.567	0.0163565
755.646	0.0164597
755.724	0.0163747
755.802	0.0162615
755.880	0.0164661
755.958	0.0165913
756.036	0.0165274
756.114	0.0165349
756.192	0.0165285
756.271	0.0164951
756.349	0.0165147
756.427	0.0166032
756.505	0.0165106
756.583	0.0165143
756.661	0.0165019
756.739	0.0165042
756.817	0.0163832
756.896	0.0165084
756.974	0.0165041
757.052	0.0164339
757.130	0.0163908
757.208	0.0164578
757.286	0.0164942
757.364	0.0165237
757.442	0.0164743
757.521	0.0164761
757.599	0.0164782
757.677	0.0166372
757.755	0.0165012
757.833	0.0165619
757.911	0.0166801
757.989	0.0168119
758.067	0.0165916
758.146	0.0166469
758.224	0.0166202
758.302	0.0165795
758.380	0.0165733
758.458	0.0164591
758.536	0.0165278
758.614	0.0164361
758.692	0.0163065
758.771	0.0162013
758.849	0.0160830
758.927	0.0161399
759.005	0.0161683
759.083	0.0161398
759.161	0.0161703
759.239	0.0162019
759.317	0.0163285
759.396	0.0162418
759.474	0.0164950
759.552	0.0164935
759.630	0.0163776
759.708	0.0164784
759.786	0.0166459
759.864	0.0166479
759.942	0.0167254
760.021	0.0169026
760.099	0.0168804
760.177	0.0167728
760.255	0.0167898
760.333	0.0168645
760.411	0.0168915
760.489	0.0168718
760.567	0.0168693
760.646	0.0166743
760.724	0.0167052
760.802	0.0168029
760.880	0.0167074
760.958	0.0165747
761.036	0.0166739
761.114	0.0166000
761.192	0.0166734
761.271	0.0165707
761.349	0.0164066
761.427	0.0166873
761.505	0.0165157
761.583	0.0165971
761.661	0.0164989
761.739	0.0164735
761.817	0.0165191
761.896	0.0164681
761.974	0.0164404
762.052	0.0163089
762.130	0.0163989
762.208	0.0162850
762.286	0.0163983
762.364	0.0162668
762.442	0.0162114
762.521	0.0163773
762.599	0.0164520
762.677	0.0163765
762.755	0.0164807
762.833	0.0164494
762.911	0.0165288
762.989	0.0165844
763.067	0.0166019
763.146	0.0167415
763.224	0.0166669
763.302	0.0166762
763.380	0.0167355
763.458	0.0168205
763.536	0.0167161
763.614	0.0169292
763.692	0.0168841
763.771	0.0168307
763.849	0.0167942
763.927	0.0168120
764.005	0.0167636
764.083	0.0167738
764.161	0.0168134
764.239	0.0167548
764.317	0.0167456
764.396	0.0167631
764.474	0.0166489
764.552	0.0166305
764.630	0.0165651
764.708	0.0165105
764.786	0.0164970
764.864	0.0164600
764.942	0.0164410
765.021	0.0163435
765.099	0.0164541
765.177	0.0165392
765.255	0.0162611
765.333	0.0164664
765.411	0.0162646
765.489	0.0163029
765.567	0.0163225
765.646	0.0163791
765.724	0.0163264
765.802	0.0163596
765.880	0.0163494
765.958	0.0164355
766.036	0.0163440
766.114	0.0164888
766.192	0.0163338
766.271	0.0162553
766.349	0.0164468
766.427	0.0164700
766.505	0.0164787
766.583	0.0164603
766.661	0.0166380
766.739	0.0166343
766.817	0.0166526
766.896	0.0166505
766.974	0.0166253
767.052	0.0166624
767.130	0.0167307
767.208	0.0167280
767.286	0.0165873
767.364	0.0165873
767.442	0.0166869
767.521	0.0167394
767.599	0.0165192
767.677	0.0166532
767.755	0.0165437
767.833	0.0164342
767.911	0.0165031
767.989	0.0165821
768.067	0.0165525
768.146	0.0165181
768.224	0.0164906
768.302	0.0163555
768.380	0.0164590
768.458	0.0165130
768.536	0.0164693
768.614	0.0163858
768.692	0.0163712
768.771	0.0163769
768.849	0.0162969
768.927	0.0164113
769.005	0.0163627
769.083	0.0164843
769.161	0.0164831
769.239	0.0164416
769.317	0.0164375
769.396	0.0164055
769.474	0.0163778
769.552	0.0164861
769.630	0.0165425
769.708	0.0164622
769.786	0.0165964
769.864	0.0165803
769.942	0.0167372
770.021	0.0167986
770.099	0.0168702
770.177	0.0168484
770.255	0.0166150
770.333	0.0167313
770.411	0.0167346
770.489	0.0167593
770.567	0.0166618
770.646	0.0166524
770.724	0.0166041
770.802	0.0166744
770.880	0.0165051
770.958	0.0164386
771.036	0.0163094
771.114	0.0163030
771.192	0.0164076
771.271	0.0163675
771.349	0.0163155
771.427	0.0163208
771.505	0.0162700
771.583	0.0162489
771.661	0.0162826
771.739	0.0163374
771.817	0.0163127
771.896	0.0162687
771.974	0.0163322
772.052	0.0165805
772.130	0.0164497
772.208	0.0164969
772.286	0.0164566
772.364	0.0166866
772.442	0.0165065
772.521	0.0165621
772.599	0.0166843
772.677	0.0166663
772.755	0.0166069
772.833	0.0166180
772.911	0.0165440
772.989	0.0165760
773.067	0.0166953
773.146	0.0166838
773.224	0.0165828
773.302	0.0165499
773.380	0.0166294
773.458	0.0165556
773.536	0.0165708
773.614	0.0165877
773.692	0.0166103
773.771	0.0164401
773.849	0.0165066
773.927	0.0165958
774.005	0.0165269
774.083	0.0164706
774.161	0.0164129
774.239	0.0164404
774.317	0.0164078
774.396	0.0164232
774.474	0.0164317
774.552	0.0162464
774.630	0.0164316
774.708	0.0163698
774.786	0.0163092
774.864	0.0164230
774.942	0.0163837
775.021	0.0163385
775.099	0.0164128
775.177	0.0164753
775.255	0.0165743
775.333	0.0165713
775.411	0.0165483
775.489	0.0166972
775.567	0.0165817
775.646	0.0165713
775.724	0.0166373
775.802	0.0167290
775.880	0.0165653
775.958	0.0166971
776.036	0.0166538
776.114	0.0167741
776.192	0.0168652
776.271	0.0167278
776.349	0.0167586
776.427	0.0165804
776.505	0.0167332
776.583	0.0166698
776.661	0.0165935
776.739	0.0166016
776.817	0.0167181
776.896	0.0168377
776.974	0.0166692
777.052	0.0165577
777.130	0.0165443
777.208	0.0164818
777.286	0.0165675
777.364	0.0164291
777.442	0.0165343
777.521	0.0164651
777.599	0.0162438
777.677	0.0162960
777.755	0.0164178
777.833	0.0162538
777.911	0.0163059
777.989	0.0163206
778.067	0.0162431
778.146	0.0165250
778.224	0.0164400
778.302	0.0163200
778.380	0.0164595
778.458	0.0166157
778.536	0.0165152
778.614	0.0165627
778.692	0.0166609
778.771	0.0164957
778.849	0.0164720
778.927	0.0165623
779.005	0.0165961
779.083	0.0166125
779.161	0.0167410
779.239	0.0166718
779.317	0.0166415
779.396	0.0164456
779.474	0.0164148
779.552	0.0164227
779.630	0.0165292
779.708	0.0164660
779.786	0.0165057
779.864	0.0165468
779.942	0.0164991
780.021	0.0164383
780.099	0.0165234
780.177	0.0165019
780.255	0.0166489
780.333	0.0163964
780.411	0.0165189
780.489	0.0167223
780.567	0.0165775
780.646	0.0166944
780.724	0.0164648
780.802	0.0165166
780.880	0.0166008
780.958	0.0165467
781.036	0.0166278
781.114	0.0165580
781.192	0.0163939
781.271	0.0164639
781.349	0.0164153
781.427	0.0163671
781.505	0.0164410
781.583	0.0163679
781.661	0.0164043
781.739	0.0164667
781.817	0.0164474
781.896	0.0164140
781.974	0.0163548
782.052	0.0164278
782.130	0.0164078
782.208	0.0163686
782.286	0.0164079
782.364	0.0163749
782.442	0.0163781
782.521	0.0163649
782.599	0.0163576
782.677	0.0164139
782.755	0.0164188
782.833	0.0162258
782.911	0.0164355
782.989	0.0164898
783.067	0.0165612
783.146	0.0165503
783.224	0.0166173
783.302	0.0166147
783.380	0.0165910
783.458	0.0166824
783.536	0.0167235
783.614	0.0167520
783.692	0.0166618
783.771	0.0167907
783.849	0.0167082
783.927	0.0167765
784.005	0.0166039
784.083	0.0166754
784.161	0.0167302
784.239	0.0166086
784.317	0.0165712
784.396	0.0166196
784.474	0.0165668
784.552	0.0164009
784.630	0.0165604
784.708	0.0163377
784.786	0.0163646
784.864	0.0165130
784.942	0.0165063
785.021	0.0163686
785.099	0.0164018
785.177	0.0165464
785.255	0.0165411
785.333	0.0163549
785.411	0.0164526
785.489	0.0164082
785.567	0.0164964
785.646	0.0164338
785.724	0.0166131
785.802	0.0166464
785.880	0.0165675
785.958	0.0165749
786.036	0.0165417
786.114	0.0167934
786.192	0.0167891
786.271	0.0166996
786.349	0.0167065
786.427	0.0167866
786.505	0.0168427
786.583	0.0168623
786.661	0.0168431
786.739	0.0166850
786.817	0.0167857
786.896	0.0165805
786.974	0.0166764
787.052	0.0165912
787.130	0.0165138
787.208	0.0163809
787.286	0.0164264
787.364	0.0164590
787.442	0.0163671
787.521	0.0164458
787.599	0.0164680
787.677	0.0163503
787.755	0.0163921
787.833	0.0164263
787.911	0.0162936
787.989	0.0164011
788.067	0.0164069
788.146	0.0164371
788.224	0.0164073
788.302	0.0163757
788.380	0.0163358
788.458	0.0163856
788.536	0.0161907
788.614	0.0162673
788.692	0.0163119
788.771	0.0163930
788.849	0.0164438
788.927	0.0163522
789.005	0.0164050
789.083	0.0164194
789.161	0.0164652
789.239	0.0165639
789.317	0.0165614
789.396	0.0163802
789.474	0.0165199
789.552	0.0164272
789.630	0.0165871
789.708	0.0164835
789.786	0.0166743
789.864	0.0166380
789.942	0.0165491
790.021	0.0166943
790.099	0.0165087
790.177	0.0164638
790.255	0.0165482
790.333	0.0166087
790.411	0.0165320
790.489	0.0165901
790.567	0.0166385
790.646	0.0165934
790.724	0.0164853
790.802	0.0166497
790.880	0.0166443
790.958	0.0166157
791.036	0.0167271
791.114	0.0166380
791.192	0.0167759
791.271	0.0166732
791.349	0.0163956
791.427	0.0165549
791.505	0.0166901
791.583	0.0166532
791.661	0.0166035
791.739	0.0164916
791.817	0.0166257
791.896	0.0167400
791.974	0.0166009
792.052	0.0165514
792.130	0.0166013
792.208	0.0166080
792.286	0.0165606
792.364	0.0165052
792.442	0.0164365
792.521	0.0164542
792.599	0.0164123
792.677	0.0165139
792.755	0.0164715
792.833	0.0165972
792.911	0.0164663
792.989	0.0163825
793.067	0.0165123
793.146	0.0165136
793.224	0.0164230
793.302	0.0164354
793.380	0.0164535
793.458	0.0165249
793.536	0.0166215
793.614	0.0164963
793.692	0.0165127
793.771	0.0165301
793.849	0.0164974
793.927	0.0166092
794.005	0.0167160
794.083	0.0167900
794.161	0.0166501
794.239	0.0167211
794.317	0.0166123
794.396	0.0166497
794.474	0.0167327
794.552	0.0166297
794.630	0.0165936
794.708	0.0166245
794.786	0.0167860
794.864	0.0164950
794.942	0.0164153
795.021	0.0166413
795.099	0.0164662
795.177	0.0165380
795.255	0.0164834
795.333	0.0165175
795.411	0.0164518
795.489	0.0164554
795.567	0.0164434
795.646	0.0163700
795.724	0.0164291
795.802	0.0163776
795.880	0.0165362
795.958	0.0166169
796.036	0.0164397
796.114	0.0163821
796.192	0.0165250
796.271	0.0164627
796.349	0.0164238
796.427	0.0165379
796.505	0.0164726
796.583	0.0164161
796.661	0.0163219
796.739	0.0164872
796.817	0.0165987
796.896	0.0165717
796.974	0.0167673
797.052	0.0166407
797.130	0.0166145
797.208	0.0166133
797.286	0.0168172
797.364	0.0167282
797.442	0.0165133
797.521	0.0166927
797.599	0.0165789
797.677	0.0166323
797.755	0.0166911
797.833	0.0166040
797.911	0.0165598
797.989	0.0165428
798.067	0.0164731
798.146	0.0165113
798.224	0.0164480
798.302	0.0164287
798.380	0.0164205
798.458	0.0162989
798.536	0.0162386
798.614	0.0164114
798.692	0.0164694
798.771	0.0163721
798.849	0.0163602
798.927	0.0165199
799.005	0.0165054
799.083	0.0165192
799.161	0.0165325
799.239	0.0163520
799.317	0.0165371
799.396	0.0165899
799.474	0.0165166
799.552	0.0164781
799.630	0.0164871
799.708	0.0164144
799.786	0.0164572
799.864	0.0165522
799.942	0.0164520
800.021	0.0163626
800.099	0.0164182
800.177	0.0164399
800.255	0.0165483
800.333	0.0165414
800.411	0.0164877
800.489	0.0165479
800.567	0.0166203
800.646	0.0164964
800.724	0.0165742
800.802	0.0165423
800.880	0.0165138
800.958	0.0165232
801.036	0.0165002
801.114	0.0165314
801.192	0.0164082
801.271	0.0164538
801.349	0.0163961
801.427	0.0163895
801.505	0.0164957
801.583	0.0164178
801.661	0.0164734
801.739	0.0162931
801.817	0.0162310
801.896	0.0163485
801.974	0.0162849
802.052	0.0161322
802.130	0.0163005
802.208	0.0160993
802.286	0.0161209
802.364	0.0161751
802.442	0.0161521
802.521	0.0161908
802.599	0.0163025
802.677	0.0162736
802.755	0.0162608
802.833	0.0164229
802.911	0.0163908
802.989	0.0163323
803.067	0.0164806
803.146	0.0165276
803.224	0.0166022
803.302	0.0166586
803.380	0.0166208
803.458	0.0167712
803.536	0.0167411
803.614	0.0165951
803.692	0.0168517
803.771	0.0166978
803.849	0.0167531
803.927	0.0167223
804.005	0.0168307
804.083	0.0167284
804.161	0.0167697
804.239	0.0167256
804.317	0.0166911
804.396	0.0166189
804.474	0.0167304
804.552	0.0164925
804.630	0.0165495
804.708	0.0164304
804.786	0.0165823
804.864	0.0165836
804.942	0.0164989
805.021	0.0164336
805.099	0.0165965
805.177	0.0165923
805.255	0.0165159
805.333	0.0167410
805.411	0.0166523
805.489	0.0166345
805.567	0.0166846
805.646	0.0166894
805.724	0.0165878
805.802	0.0167737
805.880	0.0166094
805.958	0.0165633
806.036	0.0165973
806.114	0.0164264
806.192	0.0162717
806.271	0.0163569
806.349	0.0164258
806.427	0.0162947
806.505	0.0161865
806.583	0.0162661
806.661	0.0161562
806.739	0.0161876
806.817	0.0161864
806.896	0.0162701
806.974	0.0162005
807.052	0.0162962
807.130	0.0164459
807.208	0.0164635
807.286	0.0164676
807.364	0.0164471
807.442	0.0165659
807.521	0.0167301
807.599	0.0167160
807.677	0.0167427
807.755	0.0168553
807.833	0.0167921
807.911	0.0168905
807.989	0.0168981
808.067	0.0168474
808.146	0.0167918
808.224	0.0167995
808.302	0.0166311
808.380	0.0167982
808.458	0.0168738
808.536	0.0166796
808.614	0.0165923
808.692	0.0166913
808.771	0.0165622
808.849	0.0165453
808.927	0.0165469
809.005	0.0165376
809.083	0.0165907
809.161	0.0165536
809.239	0.0163274
809.317	0.0165841
809.396	0.0166113
809.474	0.0165373
809.552	0.0166504
809.630	0.0166544
809.708	0.0166027
809.786	0.0166531
809.864	0.0165035
809.942	0.0166098
810.021	0.0164341
810.099	0.0166370
810.177	0.0164938
810.255	0.0164661
810.333	0.0163154
810.411	0.0163800
810.489	0.0163403
810.567	0.0163342
810.646	0.0162127
810.724	0.0163341
810.802	0.0162900
810.880	0.0164262
810.958	0.0162233
811.036	0.0163099
811.114	0.0162826
811.192	0.0162202
811.271	0.0162910
811.349	0.0163271
811.427	0.0164505
811.505	0.0164379
811.583	0.0163776
811.661	0.0165215
811.739	0.0165372
811.817	0.0164840
811.896	0.0165295
811.974	0.0166389
812.052	0.0167093
812.130	0.0167247
812.208	0.0165896
812.286	0.0165312
812.364	0.0165488
812.442	0.0165794
812.521	0.0165085
812.599	0.0166674
812.677	0.0164135
812.755	0.0165446
812.833	0.0166414
812.911	0.0164677
812.989	0.0164479
813.067	0.0165253
813.146	0.0164977
813.224	0.0164510
813.302	0.0165096
813.380	0.0165736
813.458	0.0165140
813.536	0.0165498
813.614	0.0165552
813.692	0.0164853
813.771	0.0163706
813.849	0.0165755
813.927	0.0164885
814.005	0.0165096
814.083	0.0165105
814.161	0.0164552
814.239	0.0166507
814.317	0.0165239
814.396	0.0165167
814.474	0.0166456
814.552	0.0166717
814.630	0.0165553
814.708	0.0165263
814.786	0.0165925
814.864	0.0166138
814.942	0.0166000
815.021	0.0165657
815.099	0.0164828
815.177	0.0165881
815.255	0.0166251
815.333	0.0166078
815.411	0.0166093
815.489	0.0166232
815.567	0.0164625
815.646	0.0165899
815.724	0.0166769
815.802	0.0165622
815.880	0.0165709
815.958	0.0165907
816.036	0.0166158
816.114	0.0165795
816.192	0.0166585
816.271	0.0166762
816.349	0.0164606
816.427	0.0166730
816.505	0.0166644
816.583	0.0166563
816.661	0.0166029
816.739	0.0164833
816.817	0.0164503
816.896	0.0164624
816.974	0.0165340
817.052	0.0164902
817.130	0.0167419
817.208	0.0166063
817.286	0.0164851
817.364	0.0164874
817.442	0.0163053
817.521	0.0164610
817.599	0.0163726
817.677	0.0165472
817.755	0.0165192
817.833	0.0164242
817.911	0.0165260
817.989	0.0164349
818.067	0.0164766
818.146	0.0164777
818.224	0.0165961
818.302	0.0165478
818.380	0.0164315
818.458	0.0165059
818.536	0.0163972
818.614	0.0166126
818.692	0.0164375
818.771	0.0164734
818.849	0.0164750
818.927	0.0165565
819.005	0.0166280
819.083	0.0164615
819.161	0.0163968
819.239	0.0165343
819.317	0.0164005
819.396	0.0164498
819.474	0.0164742
819.552	0.0163773
819.630	0.0165601
819.708	0.0163433
819.786	0.0164971
819.864	0.0164661
819.942	0.0165729
820.021	0.0164590
820.099	0.0163142
820.177	0.0164904
820.255	0.0164725
820.333	0.0163783
820.411	0.0165616
820.489	0.0165456
820.567	0.0165359
820.646	0.0167146
820.724	0.0166607
820.802	0.0165262
820.880	0.0165760
820.958	0.0167632
821.036	0.0166129
821.114	0.0166006
821.192	0.0166505
821.271	0.0165992
821.349	0.0166101
821.427	0.0166257
821.505	0.0167116
821.583	0.0166787
821.661	0.0166785
821.739	0.0166554
821.817	0.0166626
821.896	0.0165536
821.974	0.0165263
822.052	0.0165361
822.130	0.0164877
822.208	0.0165819
822.286	0.0165036
822.364	0.0163726
822.442	0.0164397
822.521	0.0164367
822.599	0.0164732
822.677	0.0164326
822.755	0.0164445
822.833	0.0163548
822.911	0.0163345
822.989	0.0164074
823.067	0.0163553
823.146	0.0164495
823.224	0.0163461
823.302	0.0163898
823.380	0.0163713
823.458	0.0164664
823.536	0.0164178
823.614	0.0163637
823.692	0.0164822
823.771	0.0164123
823.849	0.0164081
823.927	0.0163348
824.005	0.0163979
824.083	0.0164728
824.161	0.0166864
824.239	0.0164463
824.317	0.0165176
824.396	0.0163935
824.474	0.0165250
824.552	0.0164765
824.630	0.0165300
824.708	0.0165293
824.786	0.0165649
824.864	0.0164825
824.942	0.0166182
825.021	0.0166884
825.099	0.0165369
825.177	0.0164725
825.255	0.0167118
825.333	0.0166643
825.411	0.0165527
825.489	0.0165599
825.567	0.0165952
825.646	0.0165981
825.724	0.0166365
825.802	0.0166148
825.880	0.0165507
825.958	0.0165415
826.036	0.0165910
826.114	0.0165807
826.192	0.0165592
826.271	0.0166360
826.349	0.0164812
826.427	0.0165912
826.505	0.0165977
826.583	0.0165702
826.661	0.0164813
826.739	0.0165443
826.817	0.0165356
826.896	0.0165913
826.974	0.0166741
827.052	0.0164422
827.130	0.0165158
827.208	0.0165275
827.286	0.0163964
827.364	0.0164802
827.442	0.0163750
827.521	0.0163264
827.599	0.0164742
827.677	0.0163063
827.755	0.0164065
827.833	0.0164121
827.911	0.0163483
827.989	0.0162086
828.067	0.0163403
828.146	0.0163741
828.224	0.0162809
828.302	0.0163387
828.380	0.0162848
828.458	0.0163246
828.536	0.0163255
828.614	0.0163824
828.692	0.0165087
828.771	0.0164207
828.849	0.0163906
828.927	0.0163675
829.005	0.0163609
829.083	0.0164993
829.161	0.0166277
829.239	0.0164803
829.317	0.0165986
829.396	0.0165429
829.474	0.0165837
829.552	0.0165832
829.630	0.0167507
829.708	0.0166002
829.786	0.0167537
829.864	0.0167989
829.942	0.0167368
830.021	0.0166953
830.099	0.0166955
830.177	0.0167484
830.255	0.0167041
830.333	0.0167477
830.411	0.0166171
830.489	0.0165182
830.567	0.0167441
830.646	0.0165716
830.724	0.0166228
830.802	0.0166473
830.880	0.0165060
830.958	0.0164374
831.036	0.0164198
831.114	0.0164171
831.192	0.0163019
831.271	0.0163687
831.349	0.0164491
831.427	0.0164042
831.505	0.0164909
831.583	0.0165658
831.661	0.0165018
831.739	0.0164104
831.817	0.0165973
831.896	0.0165425
831.974	0.0165818
832.052	0.0167047
832.130	0.0167333
832.208	0.0166602
832.286	0.0166312
832.364	0.0166412
832.442	0.0166972
832.521	0.0165980
832.599	0.0166982
832.677	0.0167175
832.755	0.0166855
832.833	0.0165912
832.911	0.0164889
832.989	0.0164616
833.067	0.0164629
833.146	0.0165856
833.224	0.0164005
833.302	0.0164941
833.380	0.0163111
833.458	0.0162942
833.536	0.0163820
833.614	0.0163904
833.692	0.0163924
833.771	0.0164081
833.849	0.0163987
833.927	0.0163443
834.005	0.0163253
834.083	0.0163883
834.161	0.0163763
834.239	0.0164780
834.317	0.0164961
834.396	0.0164664
834.474	0.0165597
834.552	0.0165756
834.630	0.0166511
834.708	0.0166153
834.786	0.0165482
834.864	0.0165504
834.942	0.0166689
835.021	0.0165746
835.099	0.0165224
835.177	0.0166526
835.255	0.0165822
835.333	0.0165373
835.411	0.0166479
835.489	0.0166977
835.567	0.0166592
835.646	0.0165661
835.724	0.0164423
835.802	0.0165130
835.880	0.0165919
835.958	0.0165178
836.036	0.0165677
836.114	0.0165715
836.192	0.0164140
836.271	0.0164385
836.349	0.0165480
836.427	0.0165626
836.505	0.0164316
836.583	0.0165443
836.661	0.0167019
836.739	0.0165613
836.817	0.0166162
836.896	0.0165767
836.974	0.0166766
837.052	0.0166030
837.130	0.0165791
837.208	0.0166469
837.286	0.0166103
837.364	0.0165932
837.442	0.0166164
837.521	0.0165668
837.599	0.0166493
837.677	0.0166354
837.755	0.0164655
837.833	0.0165214
837.911	0.0166280
837.989	0.0166724
838.067	0.0166022
838.146	0.0165535
838.224	0.0165057
838.302	0.0166219
838.380	0.0164392
838.458	0.0164398
838.536	0.0164328
838.614	0.0164851
838.692	0.0165063
838.771	0.0164562
838.849	0.0163860
838.927	0.0164931
839.005	0.0164378
839.083	0.0165359
839.161	0.0164591
839.239	0.0164357
839.317	0.0165304
839.396	0.0166651
839.474	0.0165051
839.552	0.0165064
839.630	0.0164999
839.708	0.0164899
839.786	0.0165693
839.864	0.0165048
839.942	0.0164603
840.021	0.0165380
840.099	0.0164875
840.177	0.0165259
840.255	0.0166545
840.333	0.0165356
840.411	0.0165016
840.489	0.0164554
840.567	0.0165179
840.646	0.0165300
840.724	0.0166267
840.802	0.0165300
840.880	0.0166747
840.958	0.0165324
841.036	0.0165290
841.114	0.0165263
841.192	0.0166395
841.271	0.0165720
841.349	0.0165730
841.427	0.0165690
841.505	0.0165656
841.583	0.0165710
841.661	0.0165865
841.739	0.0166600
841.817	0.0166576
841.896	0.0165525
841.974	0.0164400
842.052	0.0164342
842.130	0.0164927
842.208	0.0165244
842.286	0.0166283
842.364	0.0165493
842.442	0.0164971
842.521	0.0165223
842.599	0.0165714
842.677	0.0165405
842.755	0.0166317
842.833	0.0165134
842.911	0.0166505
842.989	0.0164567
843.067	0.0166499
843.146	0.0167573
843.224	0.0167402
843.302	0.0166768
843.380	0.0167180
843.458	0.0165845
843.536	0.0167397
843.614	0.0167295
843.692	0.0166610
843.771	0.0167139
843.849	0.0166756
843.927	0.0165780
844.005	0.0166543
844.083	0.0165399
844.161	0.0165321
844.239	0.0166143
844.317	0.0165347
844.396	0.0164703
844.474	0.0165237
844.552	0.0165133
844.630	0.0162331
844.708	0.0162344
844.786	0.0165086
844.864	0.0165036
844.942	0.0163932
845.021	0.0162731
845.099	0.0164948
845.177	0.0164758
845.255	0.0165091
845.333	0.0163950
845.411	0.0164736
845.489	0.0166328
845.567	0.0165488
845.646	0.0165053
845.724	0.0165430
845.802	0.0165160
845.880	0.0164600
845.958	0.0165388
846.036	0.0163869
846.114	0.0163829
846.192	0.0164792
846.271	0.0165291
846.349	0.0163582
846.427	0.0164632
846.505	0.0164336
846.583	0.0164571
846.661	0.0163652
846.739	0.0165186
846.817	0.0164548
846.896	0.0163538
846.974	0.0164213
847.052	0.0164252
847.130	0.0164443
847.208	0.0164774
847.286	0.0164175
847.364	0.0162911
847.442	0.0163984
847.521	0.0163969
847.599	0.0165310
847.677	0.0165164
847.755	0.0166118
847.833	0.0165009
847.911	0.0166061
847.989	0.0165635
848.067	0.0166621
848.146	0.0166685
848.224	0.0166254
848.302	0.0166727
848.380	0.0166441
848.458	0.0166811
848.536	0.0165266
848.614	0.0167532
848.692	0.0167843
848.771	0.0166053
848.849	0.0167141
848.927	0.0166872
849.005	0.0166158
849.083	0.0165693
849.161	0.0165654
849.239	0.0165240
849.317	0.0165798
849.396	0.0165797
849.474	0.0165737
849.552	0.0164748
849.630	0.0165748
849.708	0.0163587
849.786	0.0164567
849.864	0.0164468
849.942	0.0164754
850.021	0.0165204
850.099	0.0164567
850.177	0.0163737
850.255	0.0164650
850.333	0.0164333
850.411	0.0165077
850.489	0.0164595
850.567	0.0164063
850.646	0.0164234
850.724	0.0164503
850.802	0.0164577
850.880	0.0164830
850.958	0.0164828
851.036	0.0164132
851.114	0.0163716
851.192	0.0162449
851.271	0.0164170
851.349	0.0164225
851.427	0.0163035
851.505	0.0161971
851.583	0.0163448
851.661	0.0164381
851.739	0.0163125
851.817	0.0163361
851.896	0.0163228
851.974	0.0163789
852.052	0.0165275
852.130	0.0164925
852.208	0.0163365
852.286	0.0164742
852.364	0.0165298
852.442	0.0165067
852.521	0.0165775
852.599	0.0166395
852.677	0.0165833
852.755	0.0165238
852.833	0.0165933
852.911	0.0165693
852.989	0.0165740
853.067	0.0165791
853.146	0.0166946
853.224	0.0165847
853.302	0.0166338
853.380	0.0166857
853.458	0.0166508
853.536	0.0164923
853.614	0.0164229
853.692	0.0165111
853.771	0.0165802
853.849	0.0165170
853.927	0.0164887
854.005	0.0165015
854.083	0.0166175
854.161	0.0164424
854.239	0.0165474
854.317	0.0165512
854.396	0.0164877
854.474	0.0166127
854.552	0.0163799
854.630	0.0164544
854.708	0.0164101
854.786	0.0164785
854.864	0.0164773
854.942	0.0164980
855.021	0.0164915
855.099	0.0163736
855.177	0.0164319
855.255	0.0165423
855.333	0.0164197
855.411	0.0164727
855.489	0.0164306
855.567	0.0164016
855.646	0.0165041
855.724	0.0164440
855.802	0.0164066
855.880	0.0165089
855.958	0.0166576
856.036	0.0166405
856.114	0.0165785
856.192	0.0165639
856.271	0.0167493
856.349	0.0167951
856.427	0.0167617
856.505	0.0167390
856.583	0.0167181
856.661	0.0167718
856.739	0.0167492
856.817	0.0167766
856.896	0.0166721
856.974	0.0167773
857.052	0.0167484
857.130	0.0168092
857.208	0.0168214
857.286	0.0166048
857.364	0.0167204
857.442	0.0167265
857.521	0.0166557
857.599	0.0166044
857.677	0.0164773
857.755	0.0167014
857.833	0.0165678
857.911	0.0165475
857.989	0.0164820
858.067	0.0165055
858.146	0.0165901
858.224	0.0164491
858.302	0.0163369
858.380	0.0164652
858.458	0.0165863
858.536	0.0164090
858.614	0.0164616
858.692	0.0164078
858.771	0.0165562
858.849	0.0164864
858.927	0.0165279
859.005	0.0164601
859.083	0.0165633
859.161	0.0165816
859.239	0.0164345
859.317	0.0164229
859.396	0.0164675
859.474	0.0165038
859.552	0.0163390
859.630	0.0165633
859.708	0.0163505
859.786	0.0164023
859.864	0.0165373
859.942	0.0164186
860.021	0.0165275
860.099	0.0165618
860.177	0.0165227
860.255	0.0166339
860.333	0.0165643
860.411	0.0165388
860.489	0.0165948
860.567	0.0166283
860.646	0.0166338
860.724	0.0165761
860.802	0.0165691
860.880	0.0165856
860.958	0.0165786
861.036	0.0165910
861.114	0.0165173
861.192	0.0165546
861.271	0.0167418
861.349	0.0166719
861.427	0.0166280
861.505	0.0166441
861.583	0.0166329
861.661	0.0166435
861.739	0.0165527
861.817	0.0166261
861.896	0.0165127
861.974	0.0165311
862.052	0.0166509
862.130	0.0165837
862.208	0.0164206
862.286	0.0164026
862.364	0.0164479
862.442	0.0164826
862.521	0.0163983
862.599	0.0163423
862.677	0.0162994
862.755	0.0164401
862.833	0.0164825
862.911	0.0164460
862.989	0.0164120
863.067	0.0165369
863.146	0.0165340
863.224	0.0165559
863.302	0.0166523
863.380	0.0165342
863.458	0.0166684
863.536	0.0167648
863.614	0.0165828
863.692	0.0165809
863.771	0.0166398
863.849	0.0166904
863.927	0.0165576
864.005	0.0165075
864.083	0.0163956
864.161	0.0166605
864.239	0.0166286
864.317	0.0166338
864.396	0.0166216
864.474	0.0166145
864.552	0.0165484
864.630	0.0165118
864.708	0.0166113
864.786	0.0166755
864.864	0.0165156
864.942	0.0166316
865.021	0.0167260
865.099	0.0165546
865.177	0.0164949
865.255	0.0164964
865.333	0.0165874
865.411	0.0164790
865.489	0.0166156
865.567	0.0164959
865.646	0.0164531
865.724	0.0164788
865.802	0.0165271
865.880	0.0165090
865.958	0.0166531
866.036	0.0165844
866.114	0.0164286
866.192	0.0164293
866.271	0.0165197
866.349	0.0165546
866.427	0.0165659
866.505	0.0163643
866.583	0.0166513
866.661	0.0165905
866.739	0.0164063
866.817	0.0164769
866.896	0.0165763
866.974	0.0165417
867.052	0.0164949
867.130	0.0166799
867.208	0.0166684
867.286	0.0165862
867.364	0.0166718
867.442	0.0167564
867.521	0.0167336
867.599	0.0166667
867.677	0.0166624
867.755	0.0166425
867.833	0.0167168
867.911	0.0166737
867.989	0.0166956
868.067	0.0166555
868.146	0.0166054
868.224	0.0167028
868.302	0.0165491
868.380	0.0165710
868.458	0.0165885
868.536	0.0165742
868.614	0.0166100
868.692	0.0165984
868.771	0.0165158
868.849	0.0165866
868.927	0.0164606
869.005	0.0165867
869.083	0.0164345
869.161	0.0165215
869.239	0.0164346
869.317	0.0163580
869.396	0.0165771
869.474	0.0164613
869.552	0.0166080
869.630	0.0164122
869.708	0.0163866
869.786	0.0165465
869.864	0.0164456
869.942	0.0164735
