06/03/2022	15:27:05	Ver.	4.1	UNKNOWN
Optical Delay	550.020508	Delta X		0.078125	Sweeps	1	Scan Rate	0/0
Coordinates	Axis 1	NaN	Axis 2	NaN	Axis 3	NaN	Axis 4	NaN	Axis 5	NaN	Axis 6	0.000000
TX Power	0.000000	RX Power	0.000000

550.021	0.0165958
550.099	0.0166409
550.177	0.0165990
550.255	0.0165181
550.333	0.0166634
550.411	0.0166103
550.489	0.0165351
550.567	0.0165880
550.646	0.0166916
550.724	0.0166359
550.802	0.0164986
550.880	0.0166564
550.958	0.0167275
551.036	0.0166956
551.114	0.0165448
551.192	0.0166286
551.271	0.0164806
551.349	0.0165677
551.427	0.0166200
551.505	0.0165529
551.583	0.0165896
551.661	0.0165086
551.739	0.0165826
551.817	0.0166851
551.896	0.0165640
551.974	0.0166156
552.052	0.0165070
552.130	0.0164828
552.208	0.0166966
552.286	0.0167278
552.364	0.0166029
552.442	0.0165458
552.521	0.0167268
552.599	0.0167411
552.677	0.0164400
552.755	0.0164855
552.833	0.0165373
552.911	0.0166935
552.989	0.0165755
553.067	0.0165839
553.146	0.0166687
553.224	0.0167461
553.302	0.0166089
553.380	0.0165646
553.458	0.0165664
553.536	0.0165884
553.614	0.0165908
553.692	0.0166984
553.771	0.0166672
553.849	0.0167173
553.927	0.0165525
554.005	0.0165731
554.083	0.0167254
554.161	0.0166656
554.239	0.0166205
554.317	0.0166563
554.396	0.0165680
554.474	0.0165845
554.552	0.0167082
554.630	0.0166164
554.708	0.0164389
554.786	0.0166063
554.864	0.0166301
554.942	0.0165553
555.021	0.0166550
555.099	0.0166208
555.177	0.0165768
555.255	0.0165385
555.333	0.0166620
555.411	0.0166290
555.489	0.0167058
555.567	0.0165472
555.646	0.0165408
555.724	0.0166805
555.802	0.0166619
555.880	0.0165149
555.958	0.0165832
556.036	0.0165839
556.114	0.0166895
556.192	0.0166972
556.271	0.0166653
556.349	0.0164777
556.427	0.0166178
556.505	0.0165351
556.583	0.0167429
556.661	0.0167580
556.739	0.0167352
556.817	0.0165005
556.896	0.0166265
556.974	0.0164746
557.052	0.0166660
557.130	0.0166409
557.208	0.0166278
557.286	0.0166532
557.364	0.0165099
557.442	0.0165465
557.521	0.0166620
557.599	0.0165947
557.677	0.0165590
557.755	0.0165826
557.833	0.0165997
557.911	0.0166832
557.989	0.0165733
558.067	0.0165988
558.146	0.0165792
558.224	0.0165671
558.302	0.0166100
558.380	0.0165947
558.458	0.0165003
558.536	0.0167225
558.614	0.0165633
558.692	0.0166621
558.771	0.0166750
558.849	0.0165540
558.927	0.0165507
559.005	0.0164701
559.083	0.0165337
559.161	0.0166524
559.239	0.0166103
559.317	0.0166586
559.396	0.0165381
559.474	0.0165755
559.552	0.0165910
559.630	0.0166983
559.708	0.0165277
559.786	0.0166541
559.864	0.0165251
559.942	0.0167391
560.021	0.0167228
560.099	0.0166596
560.177	0.0164927
560.255	0.0165378
560.333	0.0165693
560.411	0.0165771
560.489	0.0165163
560.567	0.0166152
560.646	0.0165840
560.724	0.0165951
560.802	0.0165617
560.880	0.0166632
560.958	0.0166061
561.036	0.0165585
561.114	0.0165321
561.192	0.0166310
561.271	0.0166273
561.349	0.0165320
561.427	0.0166475
561.505	0.0165393
561.583	0.0167427
561.661	0.0165561
561.739	0.0165626
561.817	0.0167555
561.896	0.0166517
561.974	0.0166527
562.052	0.0165136
562.130	0.0165236
562.208	0.0166539
562.286	0.0166151
562.364	0.0165367
562.442	0.0165643
562.521	0.0166228
562.599	0.0166019
562.677	0.0165498
562.755	0.0165639
562.833	0.0166724
562.911	0.0165199
562.989	0.0165373
563.067	0.0165461
563.146	0.0165697
563.224	0.0165622
563.302	0.0165781
563.380	0.0166676
563.458	0.0164698
563.536	0.0165488
563.614	0.0166135
563.692	0.0166457
563.771	0.0164986
563.849	0.0164975
563.927	0.0165261
564.005	0.0165961
564.083	0.0166572
564.161	0.0164037
564.239	0.0165831
564.317	0.0166122
564.396	0.0166659
564.474	0.0165796
564.552	0.0165353
564.630	0.0163855
564.708	0.0166192
564.786	0.0164705
564.864	0.0166148
564.942	0.0165639
565.021	0.0164719
565.099	0.0165425
565.177	0.0166656
565.255	0.0164999
565.333	0.0165865
565.411	0.0165166
565.489	0.0165696
565.567	0.0163479
565.646	0.0164289
565.724	0.0164732
565.802	0.0165720
565.880	0.0167302
565.958	0.0166479
566.036	0.0165471
566.114	0.0165293
566.192	0.0164864
566.271	0.0165288
566.349	0.0165896
566.427	0.0165330
566.505	0.0164677
566.583	0.0165896
566.661	0.0165285
566.739	0.0165240
566.817	0.0165687
566.896	0.0165345
566.974	0.0165427
567.052	0.0165015
567.130	0.0164848
567.208	0.0165382
567.286	0.0164811
567.364	0.0167558
567.442	0.0165207
567.521	0.0165936
567.599	0.0164970
567.677	0.0165646
567.755	0.0165726
567.833	0.0164549
567.911	0.0164619
567.989	0.0165353
568.067	0.0165900
568.146	0.0166347
568.224	0.0164529
568.302	0.0165234
568.380	0.0166436
568.458	0.0165327
568.536	0.0165558
568.614	0.0165224
568.692	0.0166283
568.771	0.0165826
568.849	0.0165456
568.927	0.0164990
569.005	0.0165444
569.083	0.0166754
569.161	0.0166796
569.239	0.0165913
569.317	0.0167064
569.396	0.0165601
569.474	0.0164873
569.552	0.0164330
569.630	0.0165425
569.708	0.0166234
569.786	0.0165118
569.864	0.0164621
569.942	0.0166713
570.021	0.0167411
570.099	0.0164866
570.177	0.0165737
570.255	0.0167608
570.333	0.0165730
570.411	0.0165121
570.489	0.0165702
570.567	0.0165137
570.646	0.0166235
570.724	0.0165492
570.802	0.0165988
570.880	0.0166503
570.958	0.0165056
571.036	0.0167305
571.114	0.0165508
571.192	0.0164664
571.271	0.0164768
571.349	0.0164661
571.427	0.0164974
571.505	0.0166554
571.583	0.0166677
571.661	0.0165237
571.739	0.0166047
571.817	0.0165960
571.896	0.0165403
571.974	0.0164958
572.052	0.0165890
572.130	0.0165301
572.208	0.0164701
572.286	0.0166200
572.364	0.0165829
572.442	0.0165020
572.521	0.0165987
572.599	0.0165256
572.677	0.0164847
572.755	0.0164961
572.833	0.0165623
572.911	0.0165755
572.989	0.0165604
573.067	0.0165752
573.146	0.0166573
573.224	0.0166656
573.302	0.0166848
573.380	0.0165730
573.458	0.0165055
573.536	0.0166198
573.614	0.0165134
573.692	0.0166090
573.771	0.0164600
573.849	0.0165392
573.927	0.0167043
574.005	0.0166534
574.083	0.0165628
574.161	0.0165984
574.239	0.0165913
574.317	0.0165086
574.396	0.0165597
574.474	0.0162925
574.552	0.0165239
574.630	0.0166470
574.708	0.0166055
574.786	0.0165804
574.864	0.0164147
574.942	0.0165394
575.021	0.0164854
575.099	0.0166476
575.177	0.0165303
575.255	0.0164750
575.333	0.0165086
575.411	0.0166309
575.489	0.0165702
575.567	0.0165776
575.646	0.0165632
575.724	0.0165591
575.802	0.0164868
575.880	0.0165973
575.958	0.0165549
576.036	0.0165864
576.114	0.0165434
576.192	0.0167052
576.271	0.0165453
576.349	0.0165932
576.427	0.0165317
576.505	0.0163120
576.583	0.0164132
576.661	0.0166814
576.739	0.0167484
576.817	0.0165422
576.896	0.0164158
576.974	0.0165857
577.052	0.0165002
577.130	0.0164922
577.208	0.0164727
577.286	0.0166306
577.364	0.0165587
577.442	0.0164854
577.521	0.0165491
577.599	0.0166790
577.677	0.0166787
577.755	0.0165142
577.833	0.0164517
577.911	0.0166469
577.989	0.0166692
578.067	0.0166586
578.146	0.0165096
578.224	0.0166122
578.302	0.0165029
578.380	0.0166570
578.458	0.0164604
578.536	0.0165027
578.614	0.0166650
578.692	0.0166477
578.771	0.0165298
578.849	0.0165010
578.927	0.0165831
579.005	0.0164275
579.083	0.0165125
579.161	0.0165041
579.239	0.0166312
579.317	0.0166312
579.396	0.0166138
579.474	0.0165845
579.552	0.0164110
579.630	0.0166506
579.708	0.0166723
579.786	0.0165565
579.864	0.0165690
579.942	0.0166032
580.021	0.0166874
580.099	0.0165938
580.177	0.0165197
580.255	0.0166580
580.333	0.0164757
580.411	0.0164709
580.489	0.0165282
580.567	0.0165730
580.646	0.0166206
580.724	0.0165390
580.802	0.0166480
580.880	0.0166898
580.958	0.0165784
581.036	0.0165267
581.114	0.0166544
581.192	0.0164909
581.271	0.0166102
581.349	0.0166261
581.427	0.0165553
581.505	0.0166663
581.583	0.0165543
581.661	0.0166608
581.739	0.0164573
581.817	0.0165646
581.896	0.0166385
581.974	0.0164362
582.052	0.0165046
582.130	0.0167410
582.208	0.0165752
582.286	0.0164148
582.364	0.0164616
582.442	0.0165685
582.521	0.0166010
582.599	0.0165849
582.677	0.0165068
582.755	0.0166026
582.833	0.0166866
582.911	0.0164842
582.989	0.0164803
583.067	0.0164548
583.146	0.0165936
583.224	0.0165084
583.302	0.0165746
583.380	0.0165356
583.458	0.0165877
583.536	0.0165926
583.614	0.0166568
583.692	0.0165054
583.771	0.0164729
583.849	0.0166112
583.927	0.0165491
584.005	0.0166908
584.083	0.0165396
584.161	0.0165192
584.239	0.0164697
584.317	0.0165520
584.396	0.0166440
584.474	0.0165561
584.552	0.0166319
584.630	0.0165150
584.708	0.0166100
584.786	0.0166036
584.864	0.0164803
584.942	0.0165062
585.021	0.0165472
585.099	0.0165440
585.177	0.0166064
585.255	0.0166604
585.333	0.0164925
585.411	0.0165736
585.489	0.0166503
585.567	0.0165864
585.646	0.0166548
585.724	0.0164987
585.802	0.0165272
585.880	0.0164720
585.958	0.0165498
586.036	0.0165528
586.114	0.0165662
586.192	0.0166136
586.271	0.0165732
586.349	0.0165453
586.427	0.0165810
586.505	0.0165622
586.583	0.0165588
586.661	0.0166415
586.739	0.0165707
586.817	0.0165477
586.896	0.0166022
586.974	0.0167488
587.052	0.0165828
587.130	0.0165599
587.208	0.0165405
587.286	0.0166236
587.364	0.0166603
587.442	0.0166708
587.521	0.0166804
587.599	0.0166023
587.677	0.0165673
587.755	0.0166827
587.833	0.0166271
587.911	0.0165770
587.989	0.0166179
588.067	0.0164335
588.146	0.0165764
588.224	0.0165964
588.302	0.0166936
588.380	0.0165769
588.458	0.0166375
588.536	0.0167426
588.614	0.0166067
588.692	0.0165270
588.771	0.0165958
588.849	0.0166811
588.927	0.0165800
589.005	0.0165344
589.083	0.0166802
589.161	0.0165714
589.239	0.0165111
589.317	0.0166775
589.396	0.0165432
589.474	0.0165908
589.552	0.0165936
589.630	0.0165243
589.708	0.0165219
589.786	0.0165939
589.864	0.0166429
589.942	0.0165701
590.021	0.0166729
590.099	0.0167626
590.177	0.0166798
590.255	0.0166989
590.333	0.0165594
590.411	0.0165565
590.489	0.0164358
590.567	0.0165972
590.646	0.0166138
590.724	0.0166532
590.802	0.0166695
590.880	0.0166715
590.958	0.0165823
591.036	0.0165298
591.114	0.0166336
591.192	0.0165483
591.271	0.0166827
591.349	0.0165765
591.427	0.0165429
591.505	0.0166239
591.583	0.0165908
591.661	0.0165292
591.739	0.0165823
591.817	0.0164970
591.896	0.0165520
591.974	0.0165435
592.052	0.0164237
592.130	0.0166084
592.208	0.0166517
592.286	0.0165703
592.364	0.0166682
592.442	0.0166751
592.521	0.0165903
592.599	0.0166438
592.677	0.0165571
592.755	0.0166003
592.833	0.0164569
592.911	0.0166241
592.989	0.0165750
593.067	0.0164169
593.146	0.0166399
593.224	0.0166330
593.302	0.0165047
593.380	0.0165867
593.458	0.0164854
593.536	0.0165647
593.614	0.0165273
593.692	0.0166328
593.771	0.0166299
593.849	0.0166251
593.927	0.0166490
594.005	0.0166002
594.083	0.0166237
594.161	0.0166319
594.239	0.0166132
594.317	0.0164310
594.396	0.0166531
594.474	0.0165222
594.552	0.0165284
594.630	0.0167631
594.708	0.0165079
594.786	0.0166314
594.864	0.0165287
594.942	0.0166058
595.021	0.0166805
595.099	0.0166837
595.177	0.0165265
595.255	0.0165298
595.333	0.0164637
595.411	0.0166316
595.489	0.0165756
595.567	0.0166181
595.646	0.0164959
595.724	0.0166160
595.802	0.0168087
595.880	0.0165179
595.958	0.0164602
596.036	0.0164938
596.114	0.0165155
596.192	0.0165459
596.271	0.0165859
596.349	0.0166640
596.427	0.0165324
596.505	0.0166216
596.583	0.0165738
596.661	0.0165679
596.739	0.0165772
596.817	0.0165818
596.896	0.0167107
596.974	0.0165305
597.052	0.0166165
597.130	0.0166701
597.208	0.0166171
597.286	0.0164745
597.364	0.0165318
597.442	0.0165324
597.521	0.0166082
597.599	0.0166550
597.677	0.0166178
597.755	0.0165853
597.833	0.0166702
597.911	0.0166936
597.989	0.0165708
598.067	0.0165237
598.146	0.0166467
598.224	0.0166134
598.302	0.0166013
598.380	0.0166065
598.458	0.0164829
598.536	0.0165260
598.614	0.0164310
598.692	0.0165910
598.771	0.0166010
598.849	0.0165750
598.927	0.0166669
599.005	0.0166158
599.083	0.0165057
599.161	0.0165681
599.239	0.0164835
599.317	0.0166027
599.396	0.0166016
599.474	0.0165657
599.552	0.0166319
599.630	0.0165746
599.708	0.0165951
599.786	0.0165193
599.864	0.0164709
599.942	0.0165906
600.021	0.0166146
600.099	0.0165195
600.177	0.0165593
600.255	0.0166058
600.333	0.0166436
600.411	0.0165137
600.489	0.0165421
600.567	0.0166584
600.646	0.0165501
600.724	0.0165401
600.802	0.0166121
600.880	0.0166380
600.958	0.0164426
601.036	0.0165438
601.114	0.0165213
601.192	0.0166773
601.271	0.0165390
601.349	0.0165763
601.427	0.0165976
601.505	0.0166297
601.583	0.0164877
601.661	0.0166550
601.739	0.0166035
601.817	0.0165397
601.896	0.0165080
601.974	0.0165338
602.052	0.0165968
602.130	0.0165584
602.208	0.0166187
602.286	0.0165591
602.364	0.0165018
602.442	0.0164829
602.521	0.0165827
602.599	0.0166326
602.677	0.0165068
602.755	0.0165359
602.833	0.0164703
602.911	0.0165398
602.989	0.0166505
603.067	0.0165760
603.146	0.0164790
603.224	0.0166096
603.302	0.0166187
603.380	0.0165597
603.458	0.0166005
603.536	0.0166072
603.614	0.0164942
603.692	0.0166190
603.771	0.0166724
603.849	0.0165802
603.927	0.0165193
604.005	0.0166708
604.083	0.0165897
604.161	0.0165823
604.239	0.0166608
604.317	0.0165707
604.396	0.0166385
604.474	0.0166434
604.552	0.0165851
604.630	0.0166823
604.708	0.0165555
604.786	0.0166457
604.864	0.0167337
604.942	0.0166029
605.021	0.0165459
605.099	0.0165623
605.177	0.0166263
605.255	0.0165202
605.333	0.0165297
605.411	0.0165427
605.489	0.0164419
605.567	0.0166234
605.646	0.0165865
605.724	0.0165714
605.802	0.0165112
605.880	0.0167228
605.958	0.0166372
606.036	0.0166181
606.114	0.0166047
606.192	0.0165024
606.271	0.0165087
606.349	0.0165352
606.427	0.0165166
606.505	0.0167241
606.583	0.0166898
606.661	0.0165084
606.739	0.0164027
606.817	0.0165463
606.896	0.0165898
606.974	0.0165528
607.052	0.0166458
607.130	0.0165929
607.208	0.0165154
607.286	0.0164318
607.364	0.0164485
607.442	0.0165856
607.521	0.0165828
607.599	0.0164164
607.677	0.0164856
607.755	0.0165640
607.833	0.0166193
607.911	0.0165866
607.989	0.0164140
608.067	0.0165177
608.146	0.0166290
608.224	0.0166492
608.302	0.0165479
608.380	0.0166403
608.458	0.0166484
608.536	0.0165296
608.614	0.0167004
608.692	0.0164329
608.771	0.0165729
608.849	0.0166530
608.927	0.0165869
609.005	0.0164839
609.083	0.0166590
609.161	0.0165603
609.239	0.0166145
609.317	0.0165340
609.396	0.0164639
609.474	0.0166677
609.552	0.0165099
609.630	0.0165728
609.708	0.0165503
609.786	0.0165334
609.864	0.0165979
609.942	0.0165700
610.021	0.0166885
610.099	0.0165537
610.177	0.0165628
610.255	0.0165178
610.333	0.0166010
610.411	0.0165293
610.489	0.0166848
610.567	0.0167749
610.646	0.0165183
610.724	0.0166557
610.802	0.0165687
610.880	0.0166324
610.958	0.0166759
611.036	0.0165228
611.114	0.0166988
611.192	0.0166585
611.271	0.0166421
611.349	0.0165354
611.427	0.0165843
611.505	0.0165460
611.583	0.0165983
611.661	0.0166114
611.739	0.0166093
611.817	0.0165990
611.896	0.0165608
611.974	0.0167398
612.052	0.0166222
612.130	0.0164120
612.208	0.0165379
612.286	0.0165946
612.364	0.0167551
612.442	0.0165542
612.521	0.0166245
612.599	0.0166153
612.677	0.0167325
612.755	0.0164792
612.833	0.0166455
612.911	0.0165418
612.989	0.0165712
613.067	0.0166869
613.146	0.0165976
613.224	0.0165762
613.302	0.0165092
613.380	0.0165894
613.458	0.0166331
613.536	0.0166768
613.614	0.0166576
613.692	0.0167107
613.771	0.0165850
613.849	0.0166315
613.927	0.0167780
614.005	0.0166940
614.083	0.0166937
614.161	0.0165091
614.239	0.0165907
614.317	0.0165912
614.396	0.0165559
614.474	0.0164616
614.552	0.0166190
614.630	0.0166711
614.708	0.0165520
614.786	0.0166591
614.864	0.0164906
614.942	0.0164912
615.021	0.0164503
615.099	0.0165596
615.177	0.0165472
615.255	0.0166064
615.333	0.0166431
615.411	0.0165589
615.489	0.0165240
615.567	0.0166257
615.646	0.0165599
615.724	0.0166158
615.802	0.0164806
615.880	0.0164455
615.958	0.0165501
616.036	0.0164867
616.114	0.0165750
616.192	0.0165655
616.271	0.0165666
616.349	0.0166008
616.427	0.0166633
616.505	0.0166809
616.583	0.0165595
616.661	0.0165718
616.739	0.0166077
616.817	0.0166045
616.896	0.0165858
616.974	0.0165752
617.052	0.0165688
617.130	0.0165515
617.208	0.0166445
617.286	0.0166659
617.364	0.0166771
617.442	0.0166719
617.521	0.0165353
617.599	0.0166241
617.677	0.0165948
617.755	0.0164607
617.833	0.0166058
617.911	0.0165917
617.989	0.0166319
618.067	0.0165556
618.146	0.0165243
618.224	0.0165554
618.302	0.0164805
618.380	0.0165696
618.458	0.0166560
618.536	0.0165093
618.614	0.0165287
618.692	0.0166537
618.771	0.0166554
618.849	0.0166528
618.927	0.0167116
619.005	0.0165148
619.083	0.0166508
619.161	0.0166778
619.239	0.0165932
619.317	0.0165164
619.396	0.0166879
619.474	0.0165298
619.552	0.0164726
619.630	0.0165446
619.708	0.0165746
619.786	0.0165427
619.864	0.0166002
619.942	0.0164690
620.021	0.0165132
620.099	0.0164761
620.177	0.0165941
620.255	0.0166604
620.333	0.0165701
620.411	0.0166119
620.489	0.0164806
620.567	0.0165339
620.646	0.0166515
620.724	0.0166920
620.802	0.0166841
620.880	0.0165611
620.958	0.0166599
621.036	0.0166751
621.114	0.0165099
621.192	0.0165662
621.271	0.0166040
621.349	0.0164518
621.427	0.0164603
621.505	0.0165840
621.583	0.0166065
621.661	0.0165416
621.739	0.0166499
621.817	0.0165740
621.896	0.0167137
621.974	0.0166586
622.052	0.0165848
622.130	0.0165166
622.208	0.0166978
622.286	0.0166066
622.364	0.0164674
622.442	0.0165800
622.521	0.0166787
622.599	0.0165376
622.677	0.0165750
622.755	0.0166776
622.833	0.0166335
622.911	0.0164916
622.989	0.0165458
623.067	0.0166169
623.146	0.0165711
623.224	0.0163427
623.302	0.0164774
623.380	0.0166005
623.458	0.0165839
623.536	0.0166363
623.614	0.0165034
623.692	0.0165569
623.771	0.0166413
623.849	0.0166703
623.927	0.0164021
624.005	0.0165903
624.083	0.0165177
624.161	0.0166367
624.239	0.0166759
624.317	0.0165764
624.396	0.0165379
624.474	0.0166547
624.552	0.0167072
624.630	0.0166105
624.708	0.0164999
624.786	0.0165346
624.864	0.0165877
624.942	0.0166548
625.021	0.0165939
625.099	0.0166686
625.177	0.0166507
625.255	0.0165388
625.333	0.0165486
625.411	0.0165434
625.489	0.0166920
625.567	0.0166095
625.646	0.0165391
625.724	0.0165884
625.802	0.0166582
625.880	0.0165182
625.958	0.0166750
626.036	0.0167271
626.114	0.0166083
626.192	0.0166795
626.271	0.0164700
626.349	0.0165182
626.427	0.0166133
626.505	0.0165900
626.583	0.0165953
626.661	0.0166020
626.739	0.0165113
626.817	0.0164725
626.896	0.0165305
626.974	0.0166714
627.052	0.0166096
627.130	0.0165818
627.208	0.0164548
627.286	0.0165005
627.364	0.0166793
627.442	0.0165764
627.521	0.0165435
627.599	0.0165910
627.677	0.0164526
627.755	0.0164547
627.833	0.0166138
627.911	0.0165841
627.989	0.0165007
628.067	0.0165876
628.146	0.0166470
628.224	0.0165028
628.302	0.0166632
628.380	0.0166537
628.458	0.0165966
628.536	0.0165855
628.614	0.0166294
628.692	0.0166882
628.771	0.0166828
628.849	0.0165935
628.927	0.0165937
629.005	0.0165754
629.083	0.0164774
629.161	0.0165177
629.239	0.0166116
629.317	0.0164368
629.396	0.0165053
629.474	0.0166048
629.552	0.0165522
629.630	0.0165276
629.708	0.0165085
629.786	0.0165643
629.864	0.0164487
629.942	0.0165066
630.021	0.0164790
630.099	0.0165306
630.177	0.0167260
630.255	0.0165700
630.333	0.0166611
630.411	0.0164651
630.489	0.0166014
630.567	0.0166297
630.646	0.0166437
630.724	0.0164437
630.802	0.0165926
630.880	0.0166171
630.958	0.0167094
631.036	0.0165780
631.114	0.0165967
631.192	0.0166308
631.271	0.0166647
631.349	0.0166539
631.427	0.0164557
631.505	0.0166489
631.583	0.0167033
631.661	0.0165511
631.739	0.0165591
631.817	0.0166749
631.896	0.0165389
631.974	0.0165652
632.052	0.0166425
632.130	0.0165971
632.208	0.0166876
632.286	0.0166294
632.364	0.0166275
632.442	0.0166396
632.521	0.0165650
632.599	0.0165279
632.677	0.0165609
632.755	0.0165254
632.833	0.0165461
632.911	0.0167869
632.989	0.0165356
633.067	0.0164202
633.146	0.0165578
633.224	0.0166566
633.302	0.0166447
633.380	0.0165894
633.458	0.0164409
633.536	0.0164906
633.614	0.0166334
633.692	0.0166822
633.771	0.0165399
633.849	0.0165719
633.927	0.0166528
634.005	0.0166960
634.083	0.0164390
634.161	0.0164948
634.239	0.0166213
634.317	0.0167352
634.396	0.0166703
634.474	0.0166060
634.552	0.0166385
634.630	0.0164697
634.708	0.0165421
634.786	0.0164838
634.864	0.0165680
634.942	0.0166943
635.021	0.0165420
635.099	0.0166093
635.177	0.0167734
635.255	0.0166650
635.333	0.0166200
635.411	0.0166986
635.489	0.0165736
635.567	0.0166318
635.646	0.0165498
635.724	0.0165649
635.802	0.0167141
635.880	0.0165363
635.958	0.0165416
636.036	0.0166567
636.114	0.0165391
636.192	0.0165316
636.271	0.0165886
636.349	0.0164510
636.427	0.0165729
636.505	0.0165390
636.583	0.0166041
636.661	0.0165966
636.739	0.0165067
636.817	0.0164124
636.896	0.0165349
636.974	0.0166174
637.052	0.0165089
637.130	0.0164806
637.208	0.0166444
637.286	0.0165392
637.364	0.0166109
637.442	0.0165900
637.521	0.0165255
637.599	0.0165553
637.677	0.0164972
637.755	0.0166243
637.833	0.0165849
637.911	0.0165598
637.989	0.0166544
638.067	0.0165379
638.146	0.0165381
638.224	0.0166093
638.302	0.0167027
638.380	0.0166458
638.458	0.0166216
638.536	0.0165441
638.614	0.0166314
638.692	0.0166895
638.771	0.0166424
638.849	0.0167050
638.927	0.0165749
639.005	0.0166076
639.083	0.0165950
639.161	0.0165242
639.239	0.0165491
639.317	0.0165435
639.396	0.0165044
639.474	0.0165990
639.552	0.0166308
639.630	0.0167207
639.708	0.0166862
639.786	0.0165810
639.864	0.0165764
639.942	0.0165747
640.021	0.0166699
640.099	0.0165529
640.177	0.0166655
640.255	0.0166079
640.333	0.0165196
640.411	0.0165440
640.489	0.0166586
640.567	0.0165956
640.646	0.0165755
640.724	0.0166349
640.802	0.0165862
640.880	0.0166601
640.958	0.0167706
641.036	0.0166602
641.114	0.0165078
641.192	0.0166886
641.271	0.0165331
641.349	0.0166162
641.427	0.0164532
641.505	0.0165134
641.583	0.0167127
641.661	0.0167336
641.739	0.0165523
641.817	0.0165800
641.896	0.0166731
641.974	0.0167445
642.052	0.0166277
642.130	0.0165926
642.208	0.0164746
642.286	0.0166154
642.364	0.0166342
642.442	0.0166096
642.521	0.0165340
642.599	0.0165903
642.677	0.0165803
642.755	0.0165658
642.833	0.0164355
642.911	0.0166121
642.989	0.0164794
643.067	0.0165531
643.146	0.0165870
643.224	0.0165931
643.302	0.0166463
643.380	0.0166600
643.458	0.0166011
643.536	0.0164639
643.614	0.0165130
643.692	0.0166544
643.771	0.0165305
643.849	0.0165031
643.927	0.0165331
644.005	0.0165435
644.083	0.0166446
644.161	0.0165646
644.239	0.0165552
644.317	0.0166455
644.396	0.0166250
644.474	0.0164682
644.552	0.0167188
644.630	0.0166734
644.708	0.0165069
644.786	0.0165706
644.864	0.0165884
644.942	0.0165141
645.021	0.0166319
645.099	0.0165342
645.177	0.0165270
645.255	0.0166404
645.333	0.0165469
645.411	0.0166470
645.489	0.0166641
645.567	0.0165087
645.646	0.0165174
645.724	0.0165683
645.802	0.0165498
645.880	0.0166558
645.958	0.0165453
646.036	0.0165212
646.114	0.0164200
646.192	0.0165956
646.271	0.0165511
646.349	0.0165985
646.427	0.0165419
646.505	0.0165394
646.583	0.0165050
646.661	0.0165501
646.739	0.0165761
646.817	0.0165265
646.896	0.0165016
646.974	0.0165341
647.052	0.0165163
647.130	0.0165706
647.208	0.0166409
647.286	0.0164876
647.364	0.0165051
647.442	0.0165365
647.521	0.0164370
647.599	0.0166225
647.677	0.0166172
647.755	0.0166679
647.833	0.0167136
647.911	0.0164180
647.989	0.0165395
648.067	0.0166370
648.146	0.0165360
648.224	0.0164798
648.302	0.0166476
648.380	0.0165730
648.458	0.0165530
648.536	0.0165224
648.614	0.0165192
648.692	0.0165853
648.771	0.0165165
648.849	0.0166185
648.927	0.0164424
649.005	0.0166155
649.083	0.0164743
649.161	0.0165588
649.239	0.0167102
649.317	0.0164322
649.396	0.0166687
649.474	0.0166287
649.552	0.0164968
649.630	0.0165965
649.708	0.0167168
649.786	0.0164744
649.864	0.0166539
649.942	0.0166094
650.021	0.0165731
650.099	0.0164417
650.177	0.0166404
650.255	0.0166327
650.333	0.0165697
650.411	0.0167208
650.489	0.0165691
650.567	0.0165290
650.646	0.0165441
650.724	0.0165562
650.802	0.0165469
650.880	0.0166213
650.958	0.0164792
651.036	0.0165876
651.114	0.0166926
651.192	0.0165695
651.271	0.0165423
651.349	0.0165448
651.427	0.0166708
651.505	0.0167206
651.583	0.0164896
651.661	0.0164961
651.739	0.0167176
651.817	0.0165332
651.896	0.0164765
651.974	0.0165073
652.052	0.0165273
652.130	0.0164806
652.208	0.0166606
652.286	0.0164316
652.364	0.0164317
652.442	0.0166344
652.521	0.0166775
652.599	0.0165461
652.677	0.0164394
652.755	0.0166692
652.833	0.0164954
652.911	0.0165399
652.989	0.0166049
653.067	0.0165715
653.146	0.0165000
653.224	0.0165347
653.302	0.0165573
653.380	0.0165895
653.458	0.0164997
653.536	0.0165192
653.614	0.0164722
653.692	0.0165450
653.771	0.0163893
653.849	0.0164451
653.927	0.0164613
654.005	0.0165794
654.083	0.0165112
654.161	0.0166074
654.239	0.0164519
654.317	0.0165519
654.396	0.0165347
654.474	0.0166658
654.552	0.0165393
654.630	0.0166190
654.708	0.0165955
654.786	0.0166019
654.864	0.0166288
654.942	0.0166446
655.021	0.0166275
655.099	0.0165665
655.177	0.0165693
655.255	0.0165350
655.333	0.0165842
655.411	0.0166666
655.489	0.0165328
655.567	0.0166315
655.646	0.0166776
655.724	0.0164829
655.802	0.0165328
655.880	0.0166318
655.958	0.0166059
656.036	0.0163007
656.114	0.0165160
656.192	0.0166696
656.271	0.0166405
656.349	0.0166412
656.427	0.0166833
656.505	0.0165735
656.583	0.0165894
656.661	0.0164966
656.739	0.0165469
656.817	0.0165498
656.896	0.0165442
656.974	0.0164920
657.052	0.0165615
657.130	0.0166872
657.208	0.0165907
657.286	0.0164957
657.364	0.0165469
657.442	0.0166982
657.521	0.0165797
657.599	0.0166885
657.677	0.0166355
657.755	0.0163813
657.833	0.0165604
657.911	0.0166016
657.989	0.0165574
658.067	0.0167047
658.146	0.0166212
658.224	0.0165298
658.302	0.0164980
658.380	0.0165812
658.458	0.0166312
658.536	0.0165662
658.614	0.0166199
658.692	0.0165873
658.771	0.0165499
658.849	0.0165240
658.927	0.0165504
659.005	0.0167305
659.083	0.0166351
659.161	0.0164496
659.239	0.0165565
659.317	0.0165768
659.396	0.0164934
659.474	0.0167406
659.552	0.0166687
659.630	0.0165818
659.708	0.0166253
659.786	0.0165250
659.864	0.0165473
659.942	0.0166196
660.021	0.0166092
660.099	0.0166227
660.177	0.0165028
660.255	0.0165421
660.333	0.0165829
660.411	0.0167340
660.489	0.0165366
660.567	0.0165271
660.646	0.0165787
660.724	0.0165516
660.802	0.0165900
660.880	0.0165086
660.958	0.0166834
661.036	0.0166841
661.114	0.0165382
661.192	0.0166425
661.271	0.0164810
661.349	0.0166025
661.427	0.0165185
661.505	0.0165099
661.583	0.0165775
661.661	0.0164198
661.739	0.0163923
661.817	0.0166338
661.896	0.0167432
661.974	0.0165737
662.052	0.0165839
662.130	0.0167047
662.208	0.0166721
662.286	0.0164659
662.364	0.0164529
662.442	0.0167249
662.521	0.0166143
662.599	0.0165314
662.677	0.0164978
662.755	0.0165747
662.833	0.0165819
662.911	0.0165558
662.989	0.0164113
663.067	0.0165767
663.146	0.0165925
663.224	0.0164999
663.302	0.0165585
663.380	0.0165709
663.458	0.0165906
663.536	0.0164957
663.614	0.0166155
663.692	0.0165800
663.771	0.0165276
663.849	0.0165449
663.927	0.0165908
664.005	0.0164277
664.083	0.0166563
664.161	0.0164558
664.239	0.0164639
664.317	0.0166684
664.396	0.0165187
664.474	0.0166693
664.552	0.0165099
664.630	0.0165599
664.708	0.0165919
664.786	0.0165522
664.864	0.0166568
664.942	0.0165354
665.021	0.0163648
665.099	0.0167461
665.177	0.0165466
665.255	0.0164866
665.333	0.0166357
665.411	0.0164747
665.489	0.0165761
665.567	0.0166291
665.646	0.0165075
665.724	0.0165743
665.802	0.0166157
665.880	0.0167630
665.958	0.0166243
666.036	0.0165388
666.114	0.0164461
666.192	0.0166689
666.271	0.0166099
666.349	0.0165400
666.427	0.0165884
666.505	0.0166806
666.583	0.0164610
666.661	0.0165594
666.739	0.0164508
666.817	0.0164327
666.896	0.0166399
666.974	0.0165291
667.052	0.0165225
667.130	0.0166054
667.208	0.0166451
667.286	0.0165659
667.364	0.0166402
667.442	0.0166361
667.521	0.0165262
667.599	0.0165830
667.677	0.0164958
667.755	0.0165041
667.833	0.0165324
667.911	0.0165440
667.989	0.0166206
668.067	0.0167119
668.146	0.0164948
668.224	0.0164133
668.302	0.0165240
668.380	0.0166496
668.458	0.0165971
668.536	0.0165725
668.614	0.0165533
668.692	0.0165156
668.771	0.0166460
668.849	0.0164922
668.927	0.0165817
669.005	0.0163889
669.083	0.0164607
669.161	0.0165585
669.239	0.0164775
669.317	0.0165467
669.396	0.0165917
669.474	0.0164745
669.552	0.0165210
669.630	0.0165892
669.708	0.0167364
669.786	0.0166982
669.864	0.0165289
669.942	0.0165223
670.021	0.0165880
670.099	0.0165883
670.177	0.0164576
670.255	0.0166006
670.333	0.0165450
670.411	0.0165380
670.489	0.0165383
670.567	0.0165891
670.646	0.0166171
670.724	0.0165218
670.802	0.0163969
670.880	0.0165220
670.958	0.0165747
671.036	0.0166043
671.114	0.0164915
671.192	0.0166219
671.271	0.0165608
671.349	0.0165672
671.427	0.0165275
671.505	0.0166051
671.583	0.0166095
671.661	0.0166340
671.739	0.0165484
671.817	0.0165510
671.896	0.0166267
671.974	0.0167667
672.052	0.0165325
672.130	0.0164836
672.208	0.0165812
672.286	0.0165575
672.364	0.0166002
672.442	0.0166878
672.521	0.0165735
672.599	0.0165630
672.677	0.0166063
672.755	0.0165849
672.833	0.0165454
672.911	0.0165378
672.989	0.0165240
673.067	0.0165271
673.146	0.0166498
673.224	0.0167158
673.302	0.0165621
673.380	0.0165275
673.458	0.0166464
673.536	0.0165490
673.614	0.0166381
673.692	0.0166174
673.771	0.0165022
673.849	0.0166315
673.927	0.0165418
674.005	0.0164753
674.083	0.0166209
674.161	0.0164995
674.239	0.0165767
674.317	0.0166631
674.396	0.0166306
674.474	0.0165545
674.552	0.0165767
674.630	0.0166280
674.708	0.0166008
674.786	0.0166013
674.864	0.0164831
674.942	0.0167813
675.021	0.0165955
675.099	0.0164819
675.177	0.0165398
675.255	0.0166705
675.333	0.0164707
675.411	0.0165595
675.489	0.0165692
675.567	0.0165213
675.646	0.0166120
675.724	0.0165151
675.802	0.0165991
675.880	0.0166492
675.958	0.0166359
676.036	0.0165824
676.114	0.0165895
676.192	0.0166666
676.271	0.0165063
676.349	0.0166155
676.427	0.0166044
676.505	0.0164870
676.583	0.0166512
676.661	0.0166819
676.739	0.0165144
676.817	0.0165839
676.896	0.0164841
676.974	0.0165173
677.052	0.0166417
677.130	0.0165038
677.208	0.0166009
677.286	0.0165596
677.364	0.0164939
677.442	0.0166260
677.521	0.0165944
677.599	0.0164965
677.677	0.0165285
677.755	0.0165675
677.833	0.0165231
677.911	0.0165538
677.989	0.0167340
678.067	0.0165443
678.146	0.0165048
678.224	0.0165746
678.302	0.0166454
678.380	0.0165391
678.458	0.0165161
678.536	0.0166109
678.614	0.0165036
678.692	0.0164665
678.771	0.0165679
678.849	0.0166694
678.927	0.0165984
679.005	0.0164617
679.083	0.0166640
679.161	0.0164439
679.239	0.0163499
679.317	0.0164597
679.396	0.0165357
679.474	0.0165476
679.552	0.0164480
679.630	0.0165607
679.708	0.0164649
679.786	0.0165585
679.864	0.0165455
679.942	0.0164240
680.021	0.0165421
680.099	0.0166181
680.177	0.0165704
680.255	0.0166168
680.333	0.0165041
680.411	0.0166071
680.489	0.0164977
680.567	0.0165606
680.646	0.0164133
680.724	0.0165097
680.802	0.0164373
680.880	0.0163958
680.958	0.0166227
681.036	0.0164636
681.114	0.0164627
681.192	0.0165408
681.271	0.0165343
681.349	0.0166026
681.427	0.0165723
681.505	0.0166196
681.583	0.0164615
681.661	0.0164865
681.739	0.0166772
681.817	0.0165247
681.896	0.0164805
681.974	0.0165823
682.052	0.0165883
682.130	0.0165326
682.208	0.0164188
682.286	0.0165443
682.364	0.0164626
682.442	0.0165349
682.521	0.0165125
682.599	0.0165511
682.677	0.0164989
682.755	0.0164812
682.833	0.0166467
682.911	0.0165654
682.989	0.0164732
683.067	0.0165745
683.146	0.0164605
683.224	0.0166528
683.302	0.0165392
683.380	0.0165485
683.458	0.0166459
683.536	0.0165862
683.614	0.0165401
683.692	0.0164806
683.771	0.0165780
683.849	0.0166621
683.927	0.0165748
684.005	0.0165917
684.083	0.0166663
684.161	0.0166122
684.239	0.0164523
684.317	0.0165028
684.396	0.0166622
684.474	0.0167249
684.552	0.0166569
684.630	0.0166185
684.708	0.0166753
684.786	0.0168011
684.864	0.0167460
684.942	0.0164755
685.021	0.0166726
685.099	0.0166312
685.177	0.0166740
685.255	0.0167101
685.333	0.0165855
685.411	0.0166426
685.489	0.0167523
685.567	0.0166585
685.646	0.0166967
685.724	0.0168955
685.802	0.0167883
685.880	0.0165766
685.958	0.0166111
686.036	0.0166327
686.114	0.0166721
686.192	0.0166618
686.271	0.0168049
686.349	0.0166325
686.427	0.0166901
686.505	0.0166373
686.583	0.0166138
686.661	0.0166977
686.739	0.0165569
686.817	0.0167484
686.896	0.0166795
686.974	0.0166504
687.052	0.0165482
687.130	0.0165677
687.208	0.0166462
687.286	0.0167552
687.364	0.0166771
687.442	0.0166534
687.521	0.0166926
687.599	0.0166275
687.677	0.0167200
687.755	0.0166954
687.833	0.0166917
687.911	0.0167760
687.989	0.0166138
688.067	0.0165692
688.146	0.0166554
688.224	0.0167316
688.302	0.0165308
688.380	0.0165688
688.458	0.0166435
688.536	0.0167085
688.614	0.0166050
688.692	0.0165868
688.771	0.0166206
688.849	0.0165376
688.927	0.0165125
689.005	0.0165705
689.083	0.0166119
689.161	0.0165323
689.239	0.0166701
689.317	0.0166127
689.396	0.0164501
689.474	0.0163733
689.552	0.0165871
689.630	0.0165372
689.708	0.0166328
689.786	0.0165483
689.864	0.0164558
689.942	0.0164946
690.021	0.0165983
690.099	0.0163828
690.177	0.0165559
690.255	0.0165453
690.333	0.0165236
690.411	0.0165274
690.489	0.0165349
690.567	0.0164167
690.646	0.0165604
690.724	0.0164127
690.802	0.0166476
690.880	0.0164893
690.958	0.0165255
691.036	0.0164163
691.114	0.0165598
691.192	0.0164297
691.271	0.0164516
691.349	0.0165339
691.427	0.0165995
691.505	0.0165590
691.583	0.0165549
691.661	0.0164678
691.739	0.0165208
691.817	0.0164758
691.896	0.0165941
691.974	0.0163734
692.052	0.0164168
692.130	0.0164810
692.208	0.0164739
692.286	0.0165097
692.364	0.0164672
692.442	0.0164812
692.521	0.0165517
692.599	0.0164384
692.677	0.0164701
692.755	0.0164983
692.833	0.0164977
692.911	0.0164835
692.989	0.0164683
693.067	0.0163654
693.146	0.0163570
693.224	0.0166550
693.302	0.0166023
693.380	0.0164583
693.458	0.0166030
693.536	0.0166584
693.614	0.0165797
693.692	0.0164785
693.771	0.0164219
693.849	0.0165676
693.927	0.0164986
694.005	0.0164877
694.083	0.0165454
694.161	0.0164995
694.239	0.0166042
694.317	0.0165130
694.396	0.0165885
694.474	0.0165582
694.552	0.0165211
694.630	0.0166187
694.708	0.0165861
694.786	0.0165501
694.864	0.0166022
694.942	0.0165640
695.021	0.0165565
695.099	0.0165237
695.177	0.0165175
695.255	0.0166640
695.333	0.0164930
695.411	0.0164919
695.489	0.0165461
695.567	0.0164688
695.646	0.0164785
695.724	0.0165891
695.802	0.0165645
695.880	0.0165631
695.958	0.0165592
696.036	0.0165720
696.114	0.0166488
696.192	0.0164539
696.271	0.0165981
696.349	0.0166757
696.427	0.0166863
696.505	0.0165982
696.583	0.0166668
696.661	0.0165564
696.739	0.0165659
696.817	0.0166174
696.896	0.0165813
696.974	0.0164307
697.052	0.0163548
697.130	0.0163017
697.208	0.0162493
697.286	0.0162714
697.364	0.0163092
697.442	0.0162646
697.521	0.0163050
697.599	0.0165909
697.677	0.0167033
697.755	0.0168014
697.833	0.0171757
697.911	0.0172192
697.989	0.0173662
698.067	0.0175846
698.146	0.0177335
698.224	0.0176263
698.302	0.0176194
698.380	0.0174648
698.458	0.0171986
698.536	0.0167912
698.614	0.0162025
698.692	0.0156710
698.771	0.0151651
698.849	0.0146780
698.927	0.0142188
699.005	0.0137971
699.083	0.0138683
699.161	0.0141441
699.239	0.0146374
699.317	0.0150703
699.396	0.0159882
699.474	0.0171096
699.552	0.0180238
699.630	0.0189362
699.708	0.0197899
699.786	0.0205348
699.864	0.0208852
699.942	0.0211426
700.021	0.0208639
700.099	0.0204145
700.177	0.0196333
700.255	0.0187313
700.333	0.0175213
700.411	0.0161364
700.489	0.0149710
700.567	0.0139861
700.646	0.0129796
700.724	0.0121466
700.802	0.0118046
700.880	0.0117611
700.958	0.0121442
701.036	0.0127023
701.114	0.0134255
701.192	0.0143896
701.271	0.0155711
701.349	0.0168694
701.427	0.0179371
701.505	0.0191774
701.583	0.0198148
701.661	0.0204195
701.739	0.0205945
701.817	0.0205934
701.896	0.0202959
701.974	0.0196467
702.052	0.0188301
702.130	0.0179991
702.208	0.0169036
702.286	0.0161359
702.364	0.0154494
702.442	0.0149628
702.521	0.0144196
702.599	0.0142595
702.677	0.0141398
702.755	0.0142255
702.833	0.0144852
702.911	0.0147187
702.989	0.0150900
703.067	0.0154516
703.146	0.0155733
703.224	0.0158852
703.302	0.0161604
703.380	0.0164334
703.458	0.0165952
703.536	0.0168170
703.614	0.0169473
703.692	0.0173245
703.771	0.0174298
703.849	0.0175114
703.927	0.0178379
704.005	0.0180483
704.083	0.0179865
704.161	0.0182181
704.239	0.0182030
704.317	0.0181039
704.396	0.0178834
704.474	0.0174244
704.552	0.0171443
704.630	0.0167167
704.708	0.0162942
704.786	0.0160171
704.864	0.0156895
704.942	0.0155388
705.021	0.0154584
705.099	0.0154990
705.177	0.0153211
705.255	0.0155179
705.333	0.0156609
705.411	0.0158682
705.489	0.0160582
705.567	0.0161137
705.646	0.0162920
705.724	0.0164303
705.802	0.0164265
705.880	0.0165363
705.958	0.0164783
706.036	0.0163913
706.114	0.0160620
706.192	0.0160983
706.271	0.0157887
706.349	0.0155688
706.427	0.0154545
706.505	0.0152796
706.583	0.0153865
706.661	0.0152266
706.739	0.0154568
706.817	0.0158055
706.896	0.0160567
706.974	0.0165906
707.052	0.0167360
707.130	0.0172086
707.208	0.0177180
707.286	0.0183383
707.364	0.0187518
707.442	0.0189557
707.521	0.0192332
707.599	0.0193185
707.677	0.0192388
707.755	0.0192267
707.833	0.0189737
707.911	0.0186555
707.989	0.0182928
708.067	0.0177663
708.146	0.0174841
708.224	0.0169424
708.302	0.0165400
708.380	0.0159968
708.458	0.0157292
708.536	0.0152705
708.614	0.0150298
708.692	0.0148278
708.771	0.0143130
708.849	0.0142030
708.927	0.0143604
709.005	0.0142752
709.083	0.0142706
709.161	0.0143449
709.239	0.0146814
709.317	0.0149811
709.396	0.0153481
709.474	0.0153608
709.552	0.0158195
709.630	0.0161694
709.708	0.0164589
709.786	0.0169432
709.864	0.0172181
709.942	0.0173805
710.021	0.0176381
710.099	0.0176730
710.177	0.0176769
710.255	0.0176353
710.333	0.0175404
710.411	0.0174191
710.489	0.0173238
710.567	0.0171644
710.646	0.0169816
710.724	0.0168050
710.802	0.0166084
710.880	0.0165473
710.958	0.0164227
711.036	0.0165671
711.114	0.0165659
711.192	0.0165790
711.271	0.0167221
711.349	0.0169133
711.427	0.0170922
711.505	0.0170559
711.583	0.0172845
711.661	0.0173469
711.739	0.0173925
711.817	0.0173997
711.896	0.0175122
711.974	0.0175089
712.052	0.0174128
712.130	0.0174522
712.208	0.0172611
712.286	0.0171751
712.364	0.0170965
712.442	0.0168596
712.521	0.0168471
712.599	0.0166630
712.677	0.0165611
712.755	0.0164696
712.833	0.0161736
712.911	0.0159644
712.989	0.0156786
713.067	0.0156239
713.146	0.0154630
713.224	0.0155110
713.302	0.0154820
713.380	0.0154165
713.458	0.0156154
713.536	0.0156115
713.614	0.0157686
713.692	0.0159253
713.771	0.0161111
713.849	0.0163339
713.927	0.0163361
714.005	0.0166186
714.083	0.0167609
714.161	0.0167892
714.239	0.0170491
714.317	0.0170240
714.396	0.0171606
714.474	0.0172822
714.552	0.0174578
714.630	0.0173595
714.708	0.0173595
714.786	0.0174944
714.864	0.0176438
714.942	0.0177457
715.021	0.0175221
715.099	0.0177623
715.177	0.0177028
715.255	0.0174751
715.333	0.0174257
715.411	0.0173262
715.489	0.0171512
715.567	0.0168412
715.646	0.0165436
715.724	0.0163577
715.802	0.0159908
715.880	0.0157899
715.958	0.0155635
716.036	0.0155630
716.114	0.0153800
716.192	0.0153973
716.271	0.0155691
716.349	0.0155042
716.427	0.0155858
716.505	0.0156800
716.583	0.0159412
716.661	0.0158407
716.739	0.0160094
716.817	0.0162143
716.896	0.0161766
716.974	0.0162352
717.052	0.0162246
717.130	0.0162887
717.208	0.0161705
717.286	0.0162910
717.364	0.0163435
717.442	0.0165125
717.521	0.0164429
717.599	0.0166419
717.677	0.0167295
717.755	0.0167479
717.833	0.0167662
717.911	0.0169873
717.989	0.0170212
718.067	0.0171707
718.146	0.0173149
718.224	0.0171504
718.302	0.0173256
718.380	0.0172195
718.458	0.0171526
718.536	0.0173429
718.614	0.0173985
718.692	0.0173078
718.771	0.0172565
718.849	0.0170874
718.927	0.0169843
719.005	0.0168601
719.083	0.0166437
719.161	0.0164843
719.239	0.0163705
719.317	0.0162806
719.396	0.0161469
719.474	0.0160979
719.552	0.0159152
719.630	0.0158709
719.708	0.0157986
719.786	0.0157658
719.864	0.0157889
719.942	0.0159096
720.021	0.0158517
720.099	0.0160667
720.177	0.0162146
720.255	0.0165601
720.333	0.0164804
720.411	0.0166061
720.489	0.0168010
720.567	0.0169353
720.646	0.0168841
720.724	0.0169191
720.802	0.0170080
720.880	0.0168988
720.958	0.0167634
721.036	0.0167998
721.114	0.0167168
721.192	0.0165223
721.271	0.0164306
721.349	0.0163683
721.427	0.0161711
721.505	0.0159383
721.583	0.0160825
721.661	0.0158659
721.739	0.0159169
721.817	0.0159338
721.896	0.0159902
721.974	0.0160992
722.052	0.0162543
722.130	0.0163046
722.208	0.0165595
722.286	0.0166351
722.364	0.0168627
722.442	0.0167959
722.521	0.0169443
722.599	0.0169801
722.677	0.0170069
722.755	0.0169830
722.833	0.0169403
722.911	0.0168784
722.989	0.0166836
723.067	0.0166481
723.146	0.0165073
723.224	0.0165089
723.302	0.0165421
723.380	0.0165434
723.458	0.0165945
723.536	0.0165610
723.614	0.0165787
723.692	0.0168127
723.771	0.0170063
723.849	0.0171499
723.927	0.0171582
724.005	0.0174210
724.083	0.0174936
724.161	0.0175055
724.239	0.0174759
724.317	0.0174525
724.396	0.0174327
724.474	0.0173722
724.552	0.0172326
724.630	0.0170107
724.708	0.0169249
724.786	0.0165917
724.864	0.0163612
724.942	0.0164027
725.021	0.0162453
725.099	0.0161047
725.177	0.0160067
725.255	0.0160922
725.333	0.0161005
725.411	0.0160999
725.489	0.0161739
725.567	0.0164082
725.646	0.0164450
725.724	0.0165278
725.802	0.0166462
725.880	0.0167986
725.958	0.0168689
726.036	0.0168262
726.114	0.0167865
726.192	0.0168014
726.271	0.0166405
726.349	0.0164426
726.427	0.0164137
726.505	0.0162508
726.583	0.0159260
726.661	0.0158498
726.739	0.0156942
726.817	0.0156329
726.896	0.0155326
726.974	0.0153745
727.052	0.0155987
727.130	0.0155265
727.208	0.0157027
727.286	0.0158809
727.364	0.0159634
727.442	0.0162283
727.521	0.0164172
727.599	0.0165736
727.677	0.0167187
727.755	0.0168967
727.833	0.0169378
727.911	0.0171274
727.989	0.0171651
728.067	0.0172729
728.146	0.0172173
728.224	0.0170447
728.302	0.0169933
728.380	0.0169593
728.458	0.0170176
728.536	0.0169030
728.614	0.0168946
728.692	0.0168323
728.771	0.0168891
728.849	0.0167979
728.927	0.0169483
729.005	0.0168999
729.083	0.0169259
729.161	0.0169486
729.239	0.0170158
729.317	0.0169483
729.396	0.0169896
729.474	0.0169321
729.552	0.0168446
729.630	0.0169208
729.708	0.0167214
729.786	0.0168829
729.864	0.0167158
729.942	0.0167055
730.021	0.0165108
730.099	0.0163513
730.177	0.0163753
730.255	0.0163394
730.333	0.0162569
730.411	0.0162144
730.489	0.0161493
730.567	0.0163143
730.646	0.0163312
730.724	0.0162674
730.802	0.0161726
730.880	0.0163115
730.958	0.0165230
731.036	0.0164824
731.114	0.0164686
731.192	0.0164677
731.271	0.0167451
731.349	0.0166656
731.427	0.0166624
731.505	0.0167196
731.583	0.0165847
731.661	0.0165780
731.739	0.0166040
731.817	0.0164318
731.896	0.0163444
731.974	0.0162353
732.052	0.0161851
732.130	0.0159874
732.208	0.0160864
732.286	0.0160746
732.364	0.0160590
732.442	0.0162028
732.521	0.0163433
732.599	0.0162919
732.677	0.0162933
732.755	0.0163110
732.833	0.0166818
732.911	0.0166550
732.989	0.0167789
733.067	0.0167767
733.146	0.0168641
733.224	0.0168694
733.302	0.0169740
733.380	0.0168954
733.458	0.0169196
733.536	0.0168671
733.614	0.0167880
733.692	0.0169238
733.771	0.0167915
733.849	0.0168367
733.927	0.0168352
734.005	0.0165322
734.083	0.0166555
734.161	0.0167487
734.239	0.0167265
734.317	0.0168575
734.396	0.0169668
734.474	0.0168684
734.552	0.0168028
734.630	0.0169301
734.708	0.0168544
734.786	0.0170686
734.864	0.0170500
734.942	0.0170468
735.021	0.0169011
735.099	0.0169785
735.177	0.0168142
735.255	0.0168827
735.333	0.0167072
735.411	0.0165766
735.489	0.0163900
735.567	0.0163838
735.646	0.0163708
735.724	0.0162457
735.802	0.0162765
735.880	0.0161252
735.958	0.0160730
736.036	0.0161824
736.114	0.0160973
736.192	0.0161917
736.271	0.0162763
736.349	0.0162987
736.427	0.0162659
736.505	0.0163670
736.583	0.0165819
736.661	0.0166851
736.739	0.0166620
736.817	0.0167889
736.896	0.0165814
736.974	0.0165881
737.052	0.0165877
737.130	0.0165990
737.208	0.0165170
737.286	0.0163931
737.364	0.0163901
737.442	0.0162608
737.521	0.0163330
737.599	0.0161957
737.677	0.0162407
737.755	0.0162896
737.833	0.0164502
737.911	0.0163281
737.989	0.0165229
738.067	0.0166478
738.146	0.0165296
738.224	0.0166620
738.302	0.0166840
738.380	0.0167436
738.458	0.0167986
738.536	0.0169728
738.614	0.0171473
738.692	0.0170712
738.771	0.0169594
738.849	0.0171201
738.927	0.0171278
739.005	0.0168667
739.083	0.0169828
739.161	0.0169928
739.239	0.0170069
739.317	0.0167871
739.396	0.0169465
739.474	0.0168440
739.552	0.0168880
739.630	0.0167709
739.708	0.0169234
739.786	0.0168327
739.864	0.0167327
739.942	0.0167243
740.021	0.0168858
740.099	0.0167864
740.177	0.0166421
740.255	0.0166662
740.333	0.0167159
740.411	0.0167307
740.489	0.0166628
740.567	0.0165498
740.646	0.0164816
740.724	0.0163885
740.802	0.0163641
740.880	0.0161050
740.958	0.0161041
741.036	0.0162473
741.114	0.0161376
741.192	0.0160888
741.271	0.0161095
741.349	0.0161548
741.427	0.0161513
741.505	0.0162077
741.583	0.0163458
741.661	0.0163666
741.739	0.0165055
741.817	0.0164751
741.896	0.0165166
741.974	0.0166904
742.052	0.0165705
742.130	0.0167764
742.208	0.0166596
742.286	0.0166862
742.364	0.0167091
742.442	0.0168388
742.521	0.0167723
742.599	0.0167511
742.677	0.0166460
742.755	0.0164843
742.833	0.0166975
742.911	0.0165147
742.989	0.0165064
743.067	0.0165034
743.146	0.0166496
743.224	0.0166110
743.302	0.0165709
743.380	0.0166238
743.458	0.0163834
743.536	0.0164858
743.614	0.0165039
743.692	0.0165360
743.771	0.0164449
743.849	0.0164153
743.927	0.0165783
744.005	0.0165687
744.083	0.0164002
744.161	0.0165884
744.239	0.0166354
744.317	0.0165436
744.396	0.0164874
744.474	0.0167443
744.552	0.0167472
744.630	0.0167388
744.708	0.0166663
744.786	0.0167174
744.864	0.0167043
744.942	0.0165807
745.021	0.0166624
745.099	0.0166311
745.177	0.0165971
745.255	0.0164976
745.333	0.0165664
745.411	0.0165369
745.489	0.0165059
745.567	0.0165898
745.646	0.0166258
745.724	0.0166124
745.802	0.0165520
745.880	0.0164545
745.958	0.0165163
746.036	0.0165585
746.114	0.0164772
746.192	0.0166510
746.271	0.0165603
746.349	0.0165658
746.427	0.0164677
746.505	0.0165405
746.583	0.0165676
746.661	0.0165581
746.739	0.0165720
746.817	0.0165302
746.896	0.0166780
746.974	0.0167897
747.052	0.0167332
747.130	0.0167500
747.208	0.0167661
747.286	0.0168927
747.364	0.0167726
747.442	0.0168153
747.521	0.0169142
747.599	0.0168004
747.677	0.0168102
747.755	0.0167208
747.833	0.0166557
747.911	0.0166119
747.989	0.0165685
748.067	0.0163411
748.146	0.0163017
748.224	0.0162762
748.302	0.0161768
748.380	0.0161801
748.458	0.0161810
748.536	0.0161440
748.614	0.0161182
748.692	0.0160373
748.771	0.0161510
748.849	0.0158852
748.927	0.0160241
749.005	0.0159389
749.083	0.0160352
749.161	0.0161021
749.239	0.0161951
749.317	0.0162313
749.396	0.0163638
749.474	0.0164642
749.552	0.0165975
749.630	0.0166082
749.708	0.0165763
749.786	0.0165163
749.864	0.0167620
749.942	0.0167843
750.021	0.0167111
750.099	0.0167584
750.177	0.0167220
750.255	0.0168018
750.333	0.0168735
750.411	0.0168419
750.489	0.0168190
750.567	0.0167496
750.646	0.0169736
750.724	0.0168785
750.802	0.0168952
750.880	0.0169173
750.958	0.0170831
751.036	0.0168434
751.114	0.0170687
751.192	0.0170774
751.271	0.0169905
751.349	0.0169260
751.427	0.0168808
751.505	0.0168629
751.583	0.0168131
751.661	0.0166439
751.739	0.0166960
751.817	0.0166183
751.896	0.0164536
751.974	0.0163928
752.052	0.0164212
752.130	0.0162947
752.208	0.0162759
752.286	0.0163167
752.364	0.0163731
752.442	0.0162968
752.521	0.0163592
752.599	0.0161555
752.677	0.0162391
752.755	0.0163256
752.833	0.0164309
752.911	0.0165500
752.989	0.0164426
753.067	0.0165682
753.146	0.0164595
753.224	0.0165117
753.302	0.0165913
753.380	0.0167276
753.458	0.0165792
753.536	0.0167603
753.614	0.0166745
753.692	0.0164962
753.771	0.0167475
753.849	0.0168564
753.927	0.0166400
754.005	0.0168629
754.083	0.0168829
754.161	0.0169487
754.239	0.0168037
754.317	0.0168443
754.396	0.0169381
754.474	0.0168829
754.552	0.0168936
754.630	0.0167924
754.708	0.0168231
754.786	0.0167546
754.864	0.0166068
754.942	0.0167377
755.021	0.0164389
755.099	0.0164170
755.177	0.0164420
755.255	0.0163304
755.333	0.0164067
755.411	0.0162702
755.489	0.0163165
755.567	0.0164197
755.646	0.0163585
755.724	0.0163333
755.802	0.0164729
755.880	0.0165572
755.958	0.0164360
756.036	0.0164667
756.114	0.0167562
756.192	0.0165996
756.271	0.0166402
756.349	0.0165803
756.427	0.0166261
756.505	0.0167181
756.583	0.0165265
756.661	0.0167036
756.739	0.0166810
756.817	0.0166054
756.896	0.0167166
756.974	0.0167009
757.052	0.0165434
757.130	0.0165749
757.208	0.0165525
757.286	0.0165242
757.364	0.0165176
757.442	0.0166786
757.521	0.0165942
757.599	0.0165431
757.677	0.0165280
757.755	0.0166438
757.833	0.0165245
757.911	0.0167288
757.989	0.0167317
758.067	0.0167358
758.146	0.0167574
758.224	0.0166309
758.302	0.0166929
758.380	0.0166154
758.458	0.0164211
758.536	0.0164391
758.614	0.0163773
758.692	0.0163223
758.771	0.0164196
758.849	0.0163247
758.927	0.0162913
759.005	0.0163323
759.083	0.0163168
759.161	0.0163232
759.239	0.0164577
759.317	0.0163244
759.396	0.0162666
759.474	0.0164583
759.552	0.0164938
759.630	0.0165451
759.708	0.0165737
759.786	0.0165796
759.864	0.0167457
759.942	0.0168538
760.021	0.0167496
760.099	0.0167950
760.177	0.0169264
760.255	0.0169222
760.333	0.0168573
760.411	0.0170376
760.489	0.0170242
760.567	0.0169022
760.646	0.0168646
760.724	0.0169316
760.802	0.0166792
760.880	0.0167607
760.958	0.0168127
761.036	0.0167990
761.114	0.0168140
761.192	0.0166942
761.271	0.0166674
761.349	0.0165283
761.427	0.0166304
761.505	0.0164754
761.583	0.0164765
761.661	0.0165560
761.739	0.0166136
761.817	0.0164458
761.896	0.0164092
761.974	0.0163442
762.052	0.0164034
762.130	0.0164590
762.208	0.0165182
762.286	0.0163181
762.364	0.0164668
762.442	0.0164896
762.521	0.0165366
762.599	0.0166321
762.677	0.0165163
762.755	0.0165621
762.833	0.0167007
762.911	0.0166353
762.989	0.0167693
763.067	0.0166673
763.146	0.0166724
763.224	0.0167918
763.302	0.0167799
763.380	0.0167356
763.458	0.0167136
763.536	0.0168230
763.614	0.0168153
763.692	0.0168111
763.771	0.0169005
763.849	0.0168488
763.927	0.0167718
764.005	0.0168218
764.083	0.0169082
764.161	0.0168694
764.239	0.0167205
764.317	0.0166909
764.396	0.0167984
764.474	0.0167350
764.552	0.0167177
764.630	0.0167487
764.708	0.0167013
764.786	0.0166127
764.864	0.0166016
764.942	0.0165094
765.021	0.0164691
765.099	0.0164752
765.177	0.0164805
765.255	0.0164835
765.333	0.0163853
765.411	0.0164281
765.489	0.0163171
765.567	0.0163638
765.646	0.0164709
765.724	0.0163608
765.802	0.0163006
765.880	0.0163474
765.958	0.0165819
766.036	0.0164772
766.114	0.0163045
766.192	0.0163249
766.271	0.0163496
766.349	0.0164631
766.427	0.0164954
766.505	0.0164962
766.583	0.0164462
766.661	0.0164320
766.739	0.0164545
766.817	0.0166255
766.896	0.0166603
766.974	0.0166195
767.052	0.0166392
767.130	0.0167033
767.208	0.0167675
767.286	0.0166837
767.364	0.0166705
767.442	0.0167278
767.521	0.0168788
767.599	0.0167844
767.677	0.0167784
767.755	0.0167983
767.833	0.0168912
767.911	0.0167323
767.989	0.0166048
768.067	0.0165849
768.146	0.0166703
768.224	0.0165717
768.302	0.0164473
768.380	0.0166078
768.458	0.0165363
768.536	0.0164921
768.614	0.0166169
768.692	0.0164519
768.771	0.0164494
768.849	0.0165794
768.927	0.0165505
769.005	0.0164056
769.083	0.0164104
769.161	0.0165145
769.239	0.0165778
769.317	0.0165711
769.396	0.0164525
769.474	0.0164767
769.552	0.0165248
769.630	0.0165990
769.708	0.0166540
769.786	0.0168204
769.864	0.0165913
769.942	0.0166817
770.021	0.0167121
770.099	0.0167517
770.177	0.0168124
770.255	0.0169460
770.333	0.0167244
770.411	0.0167277
770.489	0.0168446
770.567	0.0167624
770.646	0.0167529
770.724	0.0166579
770.802	0.0165844
770.880	0.0166729
770.958	0.0165767
771.036	0.0165355
771.114	0.0164112
771.192	0.0165286
771.271	0.0166088
771.349	0.0163602
771.427	0.0164255
771.505	0.0163202
771.583	0.0163624
771.661	0.0163745
771.739	0.0164446
771.817	0.0164546
771.896	0.0164410
771.974	0.0162998
772.052	0.0164088
772.130	0.0164793
772.208	0.0164375
772.286	0.0163786
772.364	0.0164852
772.442	0.0166730
772.521	0.0166055
772.599	0.0165906
772.677	0.0167006
772.755	0.0168019
772.833	0.0168520
772.911	0.0168347
772.989	0.0167004
773.067	0.0168597
773.146	0.0169028
773.224	0.0167559
773.302	0.0167301
773.380	0.0167509
773.458	0.0167460
773.536	0.0167266
773.614	0.0166185
773.692	0.0166564
773.771	0.0166357
773.849	0.0164972
773.927	0.0166350
774.005	0.0164301
774.083	0.0164896
774.161	0.0165005
774.239	0.0164990
774.317	0.0164033
774.396	0.0163733
774.474	0.0163779
774.552	0.0163337
774.630	0.0164480
774.708	0.0164951
774.786	0.0164298
774.864	0.0165343
774.942	0.0165615
775.021	0.0166046
775.099	0.0163665
775.177	0.0164482
775.255	0.0165216
775.333	0.0165492
775.411	0.0164988
775.489	0.0165379
775.567	0.0164767
775.646	0.0167000
775.724	0.0167989
775.802	0.0168044
775.880	0.0167664
775.958	0.0168206
776.036	0.0167107
776.114	0.0167943
776.192	0.0167815
776.271	0.0167193
776.349	0.0167166
776.427	0.0167627
776.505	0.0167397
776.583	0.0167917
776.661	0.0167928
776.739	0.0166628
776.817	0.0165161
776.896	0.0164880
776.974	0.0165149
777.052	0.0164992
777.130	0.0164788
777.208	0.0165323
777.286	0.0164025
777.364	0.0164125
777.442	0.0164589
777.521	0.0164472
777.599	0.0163905
777.677	0.0163371
777.755	0.0163530
777.833	0.0163144
777.911	0.0165061
777.989	0.0165220
778.067	0.0166853
778.146	0.0165023
778.224	0.0165050
778.302	0.0166255
778.380	0.0165209
778.458	0.0166015
778.536	0.0166541
778.614	0.0166645
778.692	0.0165936
778.771	0.0166660
778.849	0.0166628
778.927	0.0166493
779.005	0.0167680
779.083	0.0165917
779.161	0.0166721
779.239	0.0167341
779.317	0.0166889
779.396	0.0164803
779.474	0.0165450
779.552	0.0167397
779.630	0.0167342
779.708	0.0164999
779.786	0.0165787
779.864	0.0167437
779.942	0.0166418
780.021	0.0165031
780.099	0.0167289
780.177	0.0165866
780.255	0.0165468
780.333	0.0166860
780.411	0.0165166
780.489	0.0166581
780.567	0.0165312
780.646	0.0166552
780.724	0.0166098
780.802	0.0165928
780.880	0.0166286
780.958	0.0166380
781.036	0.0165668
781.114	0.0165321
781.192	0.0165634
781.271	0.0165636
781.349	0.0166174
781.427	0.0164195
781.505	0.0163246
781.583	0.0166113
781.661	0.0165257
781.739	0.0164828
781.817	0.0165310
781.896	0.0165347
781.974	0.0164497
782.052	0.0164202
782.130	0.0162224
782.208	0.0164018
782.286	0.0164852
782.364	0.0165089
782.442	0.0164595
782.521	0.0164438
782.599	0.0165645
782.677	0.0163863
782.755	0.0164432
782.833	0.0165967
782.911	0.0165726
782.989	0.0165591
783.067	0.0166326
783.146	0.0166381
783.224	0.0166245
783.302	0.0167049
783.380	0.0167709
783.458	0.0167860
783.536	0.0167705
783.614	0.0167775
783.692	0.0168436
783.771	0.0168330
783.849	0.0169247
783.927	0.0167672
784.005	0.0168407
784.083	0.0168199
784.161	0.0168044
784.239	0.0168129
784.317	0.0167264
784.396	0.0167296
784.474	0.0167400
784.552	0.0166936
784.630	0.0166508
784.708	0.0166084
784.786	0.0166171
784.864	0.0167078
784.942	0.0165484
785.021	0.0164917
785.099	0.0164261
785.177	0.0163715
785.255	0.0163716
785.333	0.0163757
785.411	0.0161701
785.489	0.0162513
785.567	0.0165526
785.646	0.0165055
785.724	0.0164445
785.802	0.0165138
785.880	0.0165759
785.958	0.0165556
786.036	0.0166157
786.114	0.0166503
786.192	0.0168714
786.271	0.0167757
786.349	0.0167321
786.427	0.0169395
786.505	0.0168530
786.583	0.0169163
786.661	0.0168393
786.739	0.0168585
786.817	0.0168750
786.896	0.0168767
786.974	0.0166317
787.052	0.0167966
787.130	0.0167154
787.208	0.0165686
787.286	0.0164346
787.364	0.0166269
787.442	0.0165912
787.521	0.0164177
787.599	0.0164845
787.677	0.0164399
787.755	0.0164745
787.833	0.0164614
787.911	0.0162913
787.989	0.0164156
788.067	0.0163583
788.146	0.0163721
788.224	0.0163610
788.302	0.0164479
788.380	0.0163348
788.458	0.0164481
788.536	0.0164568
788.614	0.0164598
788.692	0.0163657
788.771	0.0164302
788.849	0.0165296
788.927	0.0164719
789.005	0.0164451
789.083	0.0165025
789.161	0.0166151
789.239	0.0165942
789.317	0.0164892
789.396	0.0167123
789.474	0.0166239
789.552	0.0167193
789.630	0.0165131
789.708	0.0166692
789.786	0.0167095
789.864	0.0166959
789.942	0.0166114
790.021	0.0167508
790.099	0.0167446
790.177	0.0166814
790.255	0.0166638
790.333	0.0166515
790.411	0.0166445
790.489	0.0166544
790.567	0.0166709
790.646	0.0166881
790.724	0.0167876
790.802	0.0168611
790.880	0.0166687
790.958	0.0166957
791.036	0.0167767
791.114	0.0167471
791.192	0.0167139
791.271	0.0166386
791.349	0.0167426
791.427	0.0167257
791.505	0.0167654
791.583	0.0166720
791.661	0.0165904
791.739	0.0167445
791.817	0.0167511
791.896	0.0166018
791.974	0.0165656
792.052	0.0166270
792.130	0.0166271
792.208	0.0166111
792.286	0.0166539
792.364	0.0165946
792.442	0.0165675
792.521	0.0165202
792.599	0.0164220
792.677	0.0166451
792.755	0.0165769
792.833	0.0165549
792.911	0.0165930
792.989	0.0166635
793.067	0.0165139
793.146	0.0166003
793.224	0.0165856
793.302	0.0165926
793.380	0.0167587
793.458	0.0166438
793.536	0.0165765
793.614	0.0166902
793.692	0.0166167
793.771	0.0165118
793.849	0.0166926
793.927	0.0166450
794.005	0.0166664
794.083	0.0166621
794.161	0.0166535
794.239	0.0166504
794.317	0.0166940
794.396	0.0166395
794.474	0.0166780
794.552	0.0167157
794.630	0.0165472
794.708	0.0166636
794.786	0.0166814
794.864	0.0166010
794.942	0.0165020
795.021	0.0164613
795.099	0.0164689
795.177	0.0167212
795.255	0.0166788
795.333	0.0164340
795.411	0.0165278
795.489	0.0165455
795.567	0.0165248
795.646	0.0165945
795.724	0.0164803
795.802	0.0165681
795.880	0.0166362
795.958	0.0165596
796.036	0.0167300
796.114	0.0165881
796.192	0.0165979
796.271	0.0165150
796.349	0.0165144
796.427	0.0166815
796.505	0.0165989
796.583	0.0165747
796.661	0.0165808
796.739	0.0164779
796.817	0.0165834
796.896	0.0165253
796.974	0.0164787
797.052	0.0166248
797.130	0.0166270
797.208	0.0165593
797.286	0.0167226
797.364	0.0166505
797.442	0.0166806
797.521	0.0166043
797.599	0.0167056
797.677	0.0166579
797.755	0.0166677
797.833	0.0165494
797.911	0.0166940
797.989	0.0166011
798.067	0.0166190
798.146	0.0166581
798.224	0.0165321
798.302	0.0164185
798.380	0.0165406
798.458	0.0165500
798.536	0.0164639
798.614	0.0163848
798.692	0.0164213
798.771	0.0164130
798.849	0.0164171
798.927	0.0163651
799.005	0.0163618
799.083	0.0164039
799.161	0.0163246
799.239	0.0164747
799.317	0.0164145
799.396	0.0165832
799.474	0.0165738
799.552	0.0166089
799.630	0.0167825
799.708	0.0165643
799.786	0.0164841
799.864	0.0165542
799.942	0.0165963
800.021	0.0164274
800.099	0.0165858
800.177	0.0166613
800.255	0.0165338
800.333	0.0164871
800.411	0.0166708
800.489	0.0166409
800.567	0.0165752
800.646	0.0164694
800.724	0.0164392
800.802	0.0165853
800.880	0.0164635
800.958	0.0165350
801.036	0.0164954
801.114	0.0165978
801.192	0.0163188
801.271	0.0163535
801.349	0.0164344
801.427	0.0164901
801.505	0.0165057
801.583	0.0165862
801.661	0.0165942
801.739	0.0164445
801.817	0.0163956
801.896	0.0165070
801.974	0.0165067
802.052	0.0163821
802.130	0.0163784
802.208	0.0162110
802.286	0.0163885
802.364	0.0162729
802.442	0.0162173
802.521	0.0162837
802.599	0.0163689
802.677	0.0163235
802.755	0.0162794
802.833	0.0162930
802.911	0.0163787
802.989	0.0164752
803.067	0.0162840
803.146	0.0164937
803.224	0.0165977
803.302	0.0165652
803.380	0.0164928
803.458	0.0168176
803.536	0.0167858
803.614	0.0167142
803.692	0.0166661
803.771	0.0167629
803.849	0.0168121
803.927	0.0169509
804.005	0.0169324
804.083	0.0168900
804.161	0.0167139
804.239	0.0166727
804.317	0.0168850
804.396	0.0166550
804.474	0.0165936
804.552	0.0165536
804.630	0.0165943
804.708	0.0165192
804.786	0.0166309
804.864	0.0165119
804.942	0.0164835
805.021	0.0165794
805.099	0.0165940
805.177	0.0165698
805.255	0.0165654
805.333	0.0166670
805.411	0.0166541
805.489	0.0166332
805.567	0.0168456
805.646	0.0167113
805.724	0.0167756
805.802	0.0166821
805.880	0.0166933
805.958	0.0165408
806.036	0.0165163
806.114	0.0166278
806.192	0.0164766
806.271	0.0164458
806.349	0.0163297
806.427	0.0163115
806.505	0.0163482
806.583	0.0162916
806.661	0.0161579
806.739	0.0162725
806.817	0.0162593
806.896	0.0161871
806.974	0.0162560
807.052	0.0163328
807.130	0.0163567
807.208	0.0163127
807.286	0.0164622
807.364	0.0164471
807.442	0.0165508
807.521	0.0166270
807.599	0.0167918
807.677	0.0168831
807.755	0.0168343
807.833	0.0168111
807.911	0.0170216
807.989	0.0169192
808.067	0.0169522
808.146	0.0169418
808.224	0.0170583
808.302	0.0170521
808.380	0.0169357
808.458	0.0169803
808.536	0.0168309
808.614	0.0166554
808.692	0.0167995
808.771	0.0166538
808.849	0.0166552
808.927	0.0165916
809.005	0.0165619
809.083	0.0166287
809.161	0.0165684
809.239	0.0164754
809.317	0.0164804
809.396	0.0165723
809.474	0.0164603
809.552	0.0164568
809.630	0.0166177
809.708	0.0165716
809.786	0.0165984
809.864	0.0164748
809.942	0.0164887
810.021	0.0165007
810.099	0.0165845
810.177	0.0165543
810.255	0.0165260
810.333	0.0165265
810.411	0.0164386
810.489	0.0163620
810.567	0.0163972
810.646	0.0164471
810.724	0.0163079
810.802	0.0162480
810.880	0.0163410
810.958	0.0163140
811.036	0.0164181
811.114	0.0163731
811.192	0.0164268
811.271	0.0163600
811.349	0.0164758
811.427	0.0163867
811.505	0.0163850
811.583	0.0165809
811.661	0.0164944
811.739	0.0165598
811.817	0.0164474
811.896	0.0165973
811.974	0.0166224
812.052	0.0168246
812.130	0.0168109
812.208	0.0168105
812.286	0.0168140
812.364	0.0167307
812.442	0.0166624
812.521	0.0164833
812.599	0.0166816
812.677	0.0166321
812.755	0.0166074
812.833	0.0166512
812.911	0.0166607
812.989	0.0165536
813.067	0.0166174
813.146	0.0166419
813.224	0.0165882
813.302	0.0163686
813.380	0.0164565
813.458	0.0164668
813.536	0.0166065
813.614	0.0164616
813.692	0.0164462
813.771	0.0163528
813.849	0.0163686
813.927	0.0164959
814.005	0.0164529
814.083	0.0164017
814.161	0.0165024
814.239	0.0164049
814.317	0.0165405
814.396	0.0164624
814.474	0.0165018
814.552	0.0164489
814.630	0.0164542
814.708	0.0165907
814.786	0.0165692
814.864	0.0165804
814.942	0.0166474
815.021	0.0165969
815.099	0.0165997
815.177	0.0167766
815.255	0.0166729
815.333	0.0166191
815.411	0.0165529
815.489	0.0166347
815.567	0.0165569
815.646	0.0166700
815.724	0.0167084
815.802	0.0164135
815.880	0.0164915
815.958	0.0165933
816.036	0.0165791
816.114	0.0166242
816.192	0.0166228
816.271	0.0167236
816.349	0.0164902
816.427	0.0165860
816.505	0.0165318
816.583	0.0165637
816.661	0.0165115
816.739	0.0167085
816.817	0.0166265
816.896	0.0165353
816.974	0.0165471
817.052	0.0165441
817.130	0.0165118
817.208	0.0165128
817.286	0.0165904
817.364	0.0165533
817.442	0.0164783
817.521	0.0165695
817.599	0.0164853
817.677	0.0165303
817.755	0.0165760
817.833	0.0166288
817.911	0.0165223
817.989	0.0163686
818.067	0.0164763
818.146	0.0164472
818.224	0.0163400
818.302	0.0164368
818.380	0.0163907
818.458	0.0164121
818.536	0.0163452
818.614	0.0162188
818.692	0.0162983
818.771	0.0164474
818.849	0.0163986
818.927	0.0164729
819.005	0.0165032
819.083	0.0164706
819.161	0.0164722
819.239	0.0164954
819.317	0.0166194
819.396	0.0165476
819.474	0.0166822
819.552	0.0166761
819.630	0.0165997
819.708	0.0166264
819.786	0.0166856
819.864	0.0164827
819.942	0.0166629
820.021	0.0166364
820.099	0.0165833
820.177	0.0166513
820.255	0.0165084
820.333	0.0166658
820.411	0.0165618
820.489	0.0166183
820.567	0.0165984
820.646	0.0166058
820.724	0.0166447
820.802	0.0165903
820.880	0.0166965
820.958	0.0167577
821.036	0.0166214
821.114	0.0165669
821.192	0.0165476
821.271	0.0165952
821.349	0.0165369
821.427	0.0165562
821.505	0.0165476
821.583	0.0165157
821.661	0.0166016
821.739	0.0166308
821.817	0.0165668
821.896	0.0166582
821.974	0.0166063
822.052	0.0165899
822.130	0.0165692
822.208	0.0167128
822.286	0.0165975
822.364	0.0166524
822.442	0.0166682
822.521	0.0165554
822.599	0.0166238
822.677	0.0166082
822.755	0.0164578
822.833	0.0166491
822.911	0.0166187
822.989	0.0164921
823.067	0.0163536
823.146	0.0163992
823.224	0.0163898
823.302	0.0164949
823.380	0.0163454
823.458	0.0162626
823.536	0.0164384
823.614	0.0162321
823.692	0.0163373
823.771	0.0163297
823.849	0.0162522
823.927	0.0164037
824.005	0.0162466
824.083	0.0163287
824.161	0.0164311
824.239	0.0164872
824.317	0.0164420
824.396	0.0164751
824.474	0.0166720
824.552	0.0165232
824.630	0.0165446
824.708	0.0166707
824.786	0.0165269
824.864	0.0164910
824.942	0.0164460
825.021	0.0166176
825.099	0.0167374
825.177	0.0166064
825.255	0.0166783
825.333	0.0165057
825.411	0.0167412
825.489	0.0167847
825.567	0.0165668
825.646	0.0166431
825.724	0.0166016
825.802	0.0167357
825.880	0.0166082
825.958	0.0165429
826.036	0.0165725
826.114	0.0165221
826.192	0.0164381
826.271	0.0164794
826.349	0.0164973
826.427	0.0163857
826.505	0.0164153
826.583	0.0164675
826.661	0.0164367
826.739	0.0164966
826.817	0.0165094
826.896	0.0164230
826.974	0.0166831
827.052	0.0164761
827.130	0.0165504
827.208	0.0165168
827.286	0.0165987
827.364	0.0165377
827.442	0.0165932
827.521	0.0166398
827.599	0.0165073
827.677	0.0163850
827.755	0.0165267
827.833	0.0165426
827.911	0.0163879
827.989	0.0164264
828.067	0.0163777
828.146	0.0164008
828.224	0.0162540
828.302	0.0164717
828.380	0.0164090
828.458	0.0164351
828.536	0.0164162
828.614	0.0164643
828.692	0.0163805
828.771	0.0164925
828.849	0.0163607
828.927	0.0165533
829.005	0.0165417
829.083	0.0165079
829.161	0.0165780
829.239	0.0165124
829.317	0.0164181
829.396	0.0164896
829.474	0.0166191
829.552	0.0165687
829.630	0.0165666
829.708	0.0165953
829.786	0.0165572
829.864	0.0165375
829.942	0.0166019
830.021	0.0166708
830.099	0.0166597
830.177	0.0165979
830.255	0.0167858
830.333	0.0167542
830.411	0.0166608
830.489	0.0166261
830.567	0.0166395
830.646	0.0164373
830.724	0.0165326
830.802	0.0165497
830.880	0.0166795
830.958	0.0165928
831.036	0.0167127
831.114	0.0166181
831.192	0.0165460
831.271	0.0165842
831.349	0.0165980
831.427	0.0167110
831.505	0.0166580
831.583	0.0165295
831.661	0.0165878
831.739	0.0168115
831.817	0.0166496
831.896	0.0166064
831.974	0.0165068
832.052	0.0167410
832.130	0.0165882
832.208	0.0165849
832.286	0.0165147
832.364	0.0165508
832.442	0.0165648
832.521	0.0165441
832.599	0.0164910
832.677	0.0165598
832.755	0.0166282
832.833	0.0165135
832.911	0.0165128
832.989	0.0164656
833.067	0.0163406
833.146	0.0164814
833.224	0.0163763
833.302	0.0164263
833.380	0.0162821
833.458	0.0163471
833.536	0.0163912
833.614	0.0164085
833.692	0.0164088
833.771	0.0162343
833.849	0.0164344
833.927	0.0165038
834.005	0.0163972
834.083	0.0166579
834.161	0.0164951
834.239	0.0166763
834.317	0.0165975
834.396	0.0167274
834.474	0.0166930
834.552	0.0167415
834.630	0.0166899
834.708	0.0167484
834.786	0.0168572
834.864	0.0168392
834.942	0.0168074
835.021	0.0167870
835.099	0.0167405
835.177	0.0166493
835.255	0.0166374
835.333	0.0166718
835.411	0.0165150
835.489	0.0164831
835.567	0.0166476
835.646	0.0165233
835.724	0.0164520
835.802	0.0165323
835.880	0.0164747
835.958	0.0165284
836.036	0.0165205
836.114	0.0165465
836.192	0.0165759
836.271	0.0164726
836.349	0.0165397
836.427	0.0164106
836.505	0.0165150
836.583	0.0165937
836.661	0.0165066
836.739	0.0164262
836.817	0.0164326
836.896	0.0163985
836.974	0.0165135
837.052	0.0165189
837.130	0.0164627
837.208	0.0165392
837.286	0.0163313
837.364	0.0164653
837.442	0.0164306
837.521	0.0164624
837.599	0.0165652
837.677	0.0165759
837.755	0.0166249
837.833	0.0164381
837.911	0.0165736
837.989	0.0166273
838.067	0.0166711
838.146	0.0166167
838.224	0.0165047
838.302	0.0165123
838.380	0.0166508
838.458	0.0167138
838.536	0.0165734
838.614	0.0166134
838.692	0.0166058
838.771	0.0164931
838.849	0.0165831
838.927	0.0164700
839.005	0.0166088
839.083	0.0167548
839.161	0.0166615
839.239	0.0168474
839.317	0.0168399
839.396	0.0165933
839.474	0.0167129
839.552	0.0166801
839.630	0.0165045
839.708	0.0165970
839.786	0.0165628
839.864	0.0165799
839.942	0.0165781
840.021	0.0165308
840.099	0.0165397
840.177	0.0163892
840.255	0.0165263
840.333	0.0164750
840.411	0.0163558
840.489	0.0164540
840.567	0.0164132
840.646	0.0163934
840.724	0.0164112
840.802	0.0165624
840.880	0.0165416
840.958	0.0165047
841.036	0.0165403
841.114	0.0165937
841.192	0.0164761
841.271	0.0165540
841.349	0.0165869
841.427	0.0165665
841.505	0.0165530
841.583	0.0166788
841.661	0.0165186
841.739	0.0166946
841.817	0.0166148
841.896	0.0165291
841.974	0.0165466
842.052	0.0166409
842.130	0.0165923
842.208	0.0165662
842.286	0.0165691
842.364	0.0167165
842.442	0.0166662
842.521	0.0167101
842.599	0.0166074
842.677	0.0165484
842.755	0.0167667
842.833	0.0165342
842.911	0.0167034
842.989	0.0167702
843.067	0.0167295
843.146	0.0168154
843.224	0.0166663
843.302	0.0167382
843.380	0.0167651
843.458	0.0169445
843.536	0.0167581
843.614	0.0168239
843.692	0.0167062
843.771	0.0167470
843.849	0.0167478
843.927	0.0166425
844.005	0.0166852
844.083	0.0165255
844.161	0.0165736
844.239	0.0164433
844.317	0.0164362
844.396	0.0164216
844.474	0.0163341
844.552	0.0163329
844.630	0.0162733
844.708	0.0161346
844.786	0.0163356
844.864	0.0163256
844.942	0.0162216
845.021	0.0161455
845.099	0.0163343
845.177	0.0162704
845.255	0.0163665
845.333	0.0163327
845.411	0.0164520
845.489	0.0165343
845.567	0.0165643
845.646	0.0167683
845.724	0.0166573
845.802	0.0166943
845.880	0.0165588
845.958	0.0165562
846.036	0.0167724
846.114	0.0165367
846.192	0.0166065
846.271	0.0165411
846.349	0.0166082
846.427	0.0166212
846.505	0.0166222
846.583	0.0164198
846.661	0.0164058
846.739	0.0164780
846.817	0.0164603
846.896	0.0163908
846.974	0.0163768
847.052	0.0165026
847.130	0.0164966
847.208	0.0164237
847.286	0.0165187
847.364	0.0165310
847.442	0.0164537
847.521	0.0165896
847.599	0.0164388
847.677	0.0165710
847.755	0.0165801
847.833	0.0167255
847.911	0.0168047
847.989	0.0167199
848.067	0.0166545
848.146	0.0167478
848.224	0.0167017
848.302	0.0166979
848.380	0.0167818
848.458	0.0167509
848.536	0.0168816
848.614	0.0167325
848.692	0.0167270
848.771	0.0168243
848.849	0.0168008
848.927	0.0167871
849.005	0.0167077
849.083	0.0166962
849.161	0.0165541
849.239	0.0165482
849.317	0.0165911
849.396	0.0165816
849.474	0.0165044
849.552	0.0166080
849.630	0.0164703
849.708	0.0163721
849.786	0.0163191
849.864	0.0164426
849.942	0.0163741
850.021	0.0164687
850.099	0.0164773
850.177	0.0163393
850.255	0.0164383
850.333	0.0164291
850.411	0.0164709
850.489	0.0166180
850.567	0.0165144
850.646	0.0165308
850.724	0.0165282
850.802	0.0167036
850.880	0.0166373
850.958	0.0165569
851.036	0.0165869
851.114	0.0166090
851.192	0.0165106
851.271	0.0165141
851.349	0.0164294
851.427	0.0163641
851.505	0.0164319
851.583	0.0163483
851.661	0.0164288
851.739	0.0163998
851.817	0.0163927
851.896	0.0163699
851.974	0.0164398
852.052	0.0162970
852.130	0.0164171
852.208	0.0165184
852.286	0.0165679
852.364	0.0166267
852.442	0.0164381
852.521	0.0165398
852.599	0.0165605
852.677	0.0167512
852.755	0.0168102
852.833	0.0167450
852.911	0.0166602
852.989	0.0166975
853.067	0.0167868
853.146	0.0165709
853.224	0.0165904
853.302	0.0165553
853.380	0.0166485
853.458	0.0165820
853.536	0.0165795
853.614	0.0164759
853.692	0.0165759
853.771	0.0164837
853.849	0.0165274
853.927	0.0165524
854.005	0.0164910
854.083	0.0165756
854.161	0.0166113
854.239	0.0165857
854.317	0.0165630
854.396	0.0166174
854.474	0.0165179
854.552	0.0167073
854.630	0.0165686
854.708	0.0166048
854.786	0.0165678
854.864	0.0165969
854.942	0.0165811
855.021	0.0166286
855.099	0.0164915
855.177	0.0164655
855.255	0.0165101
855.333	0.0166306
855.411	0.0166688
855.489	0.0165720
855.567	0.0164352
855.646	0.0166372
855.724	0.0166655
855.802	0.0166006
855.880	0.0166212
855.958	0.0167515
856.036	0.0166465
856.114	0.0167516
856.192	0.0168278
856.271	0.0168043
856.349	0.0167464
856.427	0.0167764
856.505	0.0168153
856.583	0.0168017
856.661	0.0169833
856.739	0.0166945
856.817	0.0168543
856.896	0.0168102
856.974	0.0167536
857.052	0.0168221
857.130	0.0167619
857.208	0.0168156
857.286	0.0166157
857.364	0.0165075
857.442	0.0166494
857.521	0.0165887
857.599	0.0163807
857.677	0.0164438
857.755	0.0164384
857.833	0.0163947
857.911	0.0164243
857.989	0.0163726
858.067	0.0164457
858.146	0.0165240
858.224	0.0164261
858.302	0.0164769
858.380	0.0163751
858.458	0.0166052
858.536	0.0165999
858.614	0.0166244
858.692	0.0166205
858.771	0.0165375
858.849	0.0166328
858.927	0.0167270
859.005	0.0166245
859.083	0.0166201
859.161	0.0165775
859.239	0.0166239
859.317	0.0165424
859.396	0.0165134
859.474	0.0166267
859.552	0.0164806
859.630	0.0166271
859.708	0.0165529
859.786	0.0165788
859.864	0.0166301
859.942	0.0166103
860.021	0.0166132
860.099	0.0165359
860.177	0.0165157
860.255	0.0165230
860.333	0.0165647
860.411	0.0166284
860.489	0.0165504
860.567	0.0167823
860.646	0.0165628
860.724	0.0166538
860.802	0.0166511
860.880	0.0166743
860.958	0.0165788
861.036	0.0165607
861.114	0.0167587
861.192	0.0166110
861.271	0.0166020
861.349	0.0166538
861.427	0.0166676
861.505	0.0166174
861.583	0.0166650
861.661	0.0167399
861.739	0.0165726
861.817	0.0165575
861.896	0.0165735
861.974	0.0165701
862.052	0.0165347
862.130	0.0165748
862.208	0.0167573
862.286	0.0165079
862.364	0.0164378
862.442	0.0164825
862.521	0.0164527
862.599	0.0165753
862.677	0.0166003
862.755	0.0164288
862.833	0.0165796
862.911	0.0165888
862.989	0.0166993
863.067	0.0166090
863.146	0.0165079
863.224	0.0166103
863.302	0.0166711
863.380	0.0166422
863.458	0.0165670
863.536	0.0165278
863.614	0.0167009
863.692	0.0166068
863.771	0.0166391
863.849	0.0166605
863.927	0.0167150
864.005	0.0167574
864.083	0.0166231
864.161	0.0166331
864.239	0.0166488
864.317	0.0165303
864.396	0.0165726
864.474	0.0165930
864.552	0.0166856
864.630	0.0164852
864.708	0.0164880
864.786	0.0165781
864.864	0.0165948
864.942	0.0165501
865.021	0.0164883
865.099	0.0165842
865.177	0.0164961
865.255	0.0165855
865.333	0.0165294
865.411	0.0165709
865.489	0.0165225
865.567	0.0165410
865.646	0.0165813
865.724	0.0165193
865.802	0.0167130
865.880	0.0164556
865.958	0.0165781
866.036	0.0165997
866.114	0.0166029
866.192	0.0166609
866.271	0.0165765
866.349	0.0165606
866.427	0.0166866
866.505	0.0165753
866.583	0.0164507
866.661	0.0166281
866.739	0.0166035
866.817	0.0166139
866.896	0.0165782
866.974	0.0166547
867.052	0.0166645
867.130	0.0166871
867.208	0.0167280
867.286	0.0167072
867.364	0.0168201
867.442	0.0168446
867.521	0.0168188
867.599	0.0167657
867.677	0.0168151
867.755	0.0168671
867.833	0.0166680
867.911	0.0166855
867.989	0.0167995
868.067	0.0167039
868.146	0.0165926
868.224	0.0166151
868.302	0.0167820
868.380	0.0165285
868.458	0.0165518
868.536	0.0166151
868.614	0.0165424
868.692	0.0164903
868.771	0.0164677
868.849	0.0165038
868.927	0.0166620
869.005	0.0164066
869.083	0.0165224
869.161	0.0167211
869.239	0.0164793
869.317	0.0164710
869.396	0.0166232
869.474	0.0165250
869.552	0.0164884
869.630	0.0165858
869.708	0.0165710
869.786	0.0165218
869.864	0.0165604
869.942	0.0166949
