06/03/2022	16:14:08	Ver.	4.1	UNKNOWN
Optical Delay	569.994326	Delta X		0.078125	Sweeps	1	Scan Rate	0/0
Coordinates	Axis 1	NaN	Axis 2	NaN	Axis 3	NaN	Axis 4	NaN	Axis 5	NaN	Axis 6	0.000000
TX Power	0.000000	RX Power	0.000000

569.994	0.0170500
570.072	0.0172873
570.151	0.0172681
570.229	0.0172815
570.307	0.0173396
570.385	0.0174130
570.463	0.0173963
570.541	0.0173781
570.619	0.0174046
570.697	0.0173430
570.776	0.0173349
570.854	0.0173519
570.932	0.0173442
571.010	0.0172408
571.088	0.0174012
571.166	0.0173775
571.244	0.0173460
571.322	0.0171730
571.401	0.0172057
571.479	0.0170843
571.557	0.0169257
571.635	0.0169489
571.713	0.0168914
571.791	0.0169644
571.869	0.0168420
571.947	0.0167957
572.026	0.0165973
572.104	0.0167977
572.182	0.0166270
572.260	0.0164256
572.338	0.0163874
572.416	0.0161816
572.494	0.0163663
572.572	0.0161886
572.651	0.0162078
572.729	0.0161240
572.807	0.0160477
572.885	0.0161228
572.963	0.0161295
573.041	0.0161002
573.119	0.0160072
573.197	0.0159557
573.276	0.0160643
573.354	0.0160355
573.432	0.0160218
573.510	0.0159740
573.588	0.0158875
573.666	0.0161498
573.744	0.0159956
573.822	0.0160650
573.901	0.0160283
573.979	0.0160445
574.057	0.0159982
574.135	0.0160088
574.213	0.0161313
574.291	0.0161293
574.369	0.0163133
574.447	0.0162678
574.526	0.0162640
574.604	0.0163449
574.682	0.0163255
574.760	0.0163836
574.838	0.0164623
574.916	0.0165414
574.994	0.0165158
575.072	0.0166434
575.151	0.0166659
575.229	0.0165884
575.307	0.0166583
575.385	0.0166779
575.463	0.0167763
575.541	0.0168679
575.619	0.0168883
575.697	0.0168090
575.776	0.0167178
575.854	0.0169480
575.932	0.0167502
576.010	0.0167012
576.088	0.0167402
576.166	0.0168279
576.244	0.0166837
576.322	0.0166341
576.401	0.0164993
576.479	0.0166640
576.557	0.0167069
576.635	0.0166129
576.713	0.0166224
576.791	0.0163941
576.869	0.0163885
576.947	0.0166862
577.026	0.0164484
577.104	0.0164408
577.182	0.0164903
577.260	0.0166260
577.338	0.0165685
577.416	0.0164772
577.494	0.0164854
577.572	0.0164301
577.651	0.0163634
577.729	0.0164250
577.807	0.0162420
577.885	0.0164532
577.963	0.0163213
578.041	0.0163636
578.119	0.0164175
578.197	0.0163901
578.276	0.0164868
578.354	0.0165233
578.432	0.0165382
578.510	0.0163860
578.588	0.0163528
578.666	0.0163903
578.744	0.0165850
578.822	0.0166539
578.901	0.0164758
578.979	0.0166560
579.057	0.0166939
579.135	0.0167619
579.213	0.0167457
579.291	0.0167109
579.369	0.0167526
579.447	0.0168650
579.526	0.0167390
579.604	0.0167780
579.682	0.0168459
579.760	0.0168185
579.838	0.0168821
579.916	0.0168414
579.994	0.0167329
580.072	0.0166971
580.151	0.0167382
580.229	0.0167056
580.307	0.0165810
580.385	0.0166941
580.463	0.0166676
580.541	0.0165729
580.619	0.0165385
580.697	0.0165503
580.776	0.0165864
580.854	0.0163613
580.932	0.0164782
581.010	0.0163132
581.088	0.0164317
581.166	0.0164379
581.244	0.0163048
581.322	0.0163580
581.401	0.0163155
581.479	0.0163779
581.557	0.0162404
581.635	0.0164374
581.713	0.0164349
581.791	0.0164130
581.869	0.0164220
581.947	0.0163597
582.026	0.0163215
582.104	0.0165327
582.182	0.0164717
582.260	0.0164481
582.338	0.0164346
582.416	0.0164883
582.494	0.0164125
582.572	0.0164272
582.651	0.0166418
582.729	0.0163714
582.807	0.0164610
582.885	0.0164530
582.963	0.0164541
583.041	0.0165094
583.119	0.0163584
583.197	0.0164964
583.276	0.0164191
583.354	0.0165099
583.432	0.0163663
583.510	0.0163303
583.588	0.0163256
583.666	0.0164063
583.744	0.0165650
583.822	0.0164391
583.901	0.0165298
583.979	0.0165244
584.057	0.0163058
584.135	0.0165388
584.213	0.0164550
584.291	0.0164130
584.369	0.0164784
584.447	0.0164140
584.526	0.0164442
584.604	0.0164444
584.682	0.0164661
584.760	0.0164120
584.838	0.0163055
584.916	0.0165220
584.994	0.0164345
585.072	0.0162794
585.151	0.0162526
585.229	0.0163009
585.307	0.0162469
585.385	0.0162922
585.463	0.0163326
585.541	0.0163188
585.619	0.0162917
585.697	0.0162236
585.776	0.0162561
585.854	0.0164252
585.932	0.0163100
586.010	0.0164381
586.088	0.0165218
586.166	0.0165037
586.244	0.0165075
586.322	0.0164961
586.401	0.0165498
586.479	0.0164953
586.557	0.0166891
586.635	0.0165515
586.713	0.0165869
586.791	0.0167602
586.869	0.0166472
586.947	0.0165907
587.026	0.0167274
587.104	0.0166528
587.182	0.0166926
587.260	0.0167606
587.338	0.0168502
587.416	0.0167976
587.494	0.0166625
587.572	0.0167204
587.651	0.0168388
587.729	0.0167979
587.807	0.0167185
587.885	0.0168480
587.963	0.0168809
588.041	0.0168140
588.119	0.0167413
588.197	0.0167475
588.276	0.0167173
588.354	0.0167825
588.432	0.0168999
588.510	0.0169015
588.588	0.0168763
588.666	0.0168678
588.744	0.0168572
588.822	0.0170694
588.901	0.0169828
588.979	0.0167067
589.057	0.0168710
589.135	0.0168930
589.213	0.0167714
589.291	0.0169266
589.369	0.0168285
589.447	0.0167870
589.526	0.0169261
589.604	0.0168664
589.682	0.0169666
589.760	0.0168608
589.838	0.0167860
589.916	0.0168488
589.994	0.0168502
590.072	0.0168089
590.151	0.0168478
590.229	0.0166796
590.307	0.0167975
590.385	0.0169203
590.463	0.0167575
590.541	0.0168006
590.619	0.0166762
590.697	0.0167434
590.776	0.0167945
590.854	0.0167608
590.932	0.0167625
591.010	0.0166611
591.088	0.0166549
591.166	0.0166305
591.244	0.0164593
591.322	0.0166953
591.401	0.0165580
591.479	0.0166100
591.557	0.0166818
591.635	0.0164738
591.713	0.0165484
591.791	0.0164899
591.869	0.0163982
591.947	0.0164985
592.026	0.0165404
592.104	0.0163619
592.182	0.0164200
592.260	0.0164333
592.338	0.0165499
592.416	0.0164164
592.494	0.0164423
592.572	0.0163931
592.651	0.0163402
592.729	0.0162555
592.807	0.0162713
592.885	0.0163693
592.963	0.0164250
593.041	0.0162988
593.119	0.0163337
593.197	0.0163256
593.276	0.0162595
593.354	0.0164371
593.432	0.0164368
593.510	0.0164368
593.588	0.0163879
593.666	0.0164893
593.744	0.0163466
593.822	0.0163756
593.901	0.0164358
593.979	0.0163541
594.057	0.0163725
594.135	0.0165780
594.213	0.0164871
594.291	0.0163802
594.369	0.0164053
594.447	0.0164165
594.526	0.0164043
594.604	0.0165104
594.682	0.0164845
594.760	0.0164235
594.838	0.0162596
594.916	0.0164233
594.994	0.0163808
595.072	0.0165222
595.151	0.0164172
595.229	0.0164915
595.307	0.0164785
595.385	0.0162858
595.463	0.0163961
595.541	0.0165385
595.619	0.0163577
595.697	0.0163439
595.776	0.0164505
595.854	0.0162653
595.932	0.0163821
596.010	0.0163887
596.088	0.0163105
596.166	0.0164083
596.244	0.0165063
596.322	0.0164728
596.401	0.0165671
596.479	0.0162873
596.557	0.0163493
596.635	0.0163908
596.713	0.0165671
596.791	0.0165298
596.869	0.0164499
596.947	0.0165594
597.026	0.0166003
597.104	0.0165514
597.182	0.0166410
597.260	0.0166522
597.338	0.0166800
597.416	0.0166829
597.494	0.0166878
597.572	0.0167625
597.651	0.0166232
597.729	0.0167413
597.807	0.0168107
597.885	0.0166847
597.963	0.0166898
598.041	0.0167536
598.119	0.0168041
598.197	0.0167638
598.276	0.0167419
598.354	0.0167804
598.432	0.0168338
598.510	0.0167622
598.588	0.0167540
598.666	0.0167630
598.744	0.0165942
598.822	0.0167661
598.901	0.0167775
598.979	0.0167546
599.057	0.0167805
599.135	0.0166585
599.213	0.0167418
599.291	0.0168027
599.369	0.0167713
599.447	0.0167584
599.526	0.0167149
599.604	0.0167788
599.682	0.0168673
599.760	0.0169772
599.838	0.0168219
599.916	0.0168993
599.994	0.0168093
600.072	0.0170029
600.151	0.0169594
600.229	0.0168376
600.307	0.0169180
600.385	0.0169003
600.463	0.0169314
600.541	0.0170191
600.619	0.0170238
600.697	0.0170028
600.776	0.0171082
600.854	0.0171180
600.932	0.0170269
601.010	0.0170890
601.088	0.0169072
601.166	0.0170271
601.244	0.0169593
601.322	0.0170753
601.401	0.0171614
601.479	0.0170267
601.557	0.0169843
601.635	0.0170117
601.713	0.0170476
601.791	0.0170448
601.869	0.0170219
601.947	0.0169380
602.026	0.0169870
602.104	0.0169814
602.182	0.0169085
602.260	0.0169462
602.338	0.0168715
602.416	0.0168153
602.494	0.0167887
602.572	0.0166719
602.651	0.0166664
602.729	0.0166120
602.807	0.0166267
602.885	0.0166757
602.963	0.0166116
603.041	0.0165556
603.119	0.0165148
603.197	0.0164907
603.276	0.0165495
603.354	0.0165260
603.432	0.0163766
603.510	0.0163580
603.588	0.0164696
603.666	0.0163766
603.744	0.0163735
603.822	0.0161974
603.901	0.0162506
603.979	0.0163046
604.057	0.0162649
604.135	0.0164122
604.213	0.0163014
604.291	0.0161747
604.369	0.0162237
604.447	0.0162148
604.526	0.0162660
604.604	0.0161567
604.682	0.0162580
604.760	0.0162730
604.838	0.0162444
604.916	0.0163948
604.994	0.0163208
605.072	0.0161834
605.151	0.0162524
605.229	0.0163143
605.307	0.0161761
605.385	0.0163239
605.463	0.0163361
605.541	0.0161935
605.619	0.0163145
605.697	0.0162904
605.776	0.0163104
605.854	0.0161705
605.932	0.0162093
606.010	0.0161792
606.088	0.0162094
606.166	0.0162055
606.244	0.0162878
606.322	0.0163622
606.401	0.0162908
606.479	0.0162006
606.557	0.0164283
606.635	0.0164582
606.713	0.0163731
606.791	0.0163641
606.869	0.0163436
606.947	0.0164681
607.026	0.0164458
607.104	0.0164749
607.182	0.0163940
607.260	0.0165541
607.338	0.0164447
607.416	0.0163304
607.494	0.0165340
607.572	0.0164667
607.651	0.0164560
607.729	0.0164341
607.807	0.0165841
607.885	0.0165011
607.963	0.0163709
608.041	0.0165912
608.119	0.0165100
608.197	0.0164764
608.276	0.0165532
608.354	0.0166582
608.432	0.0167018
608.510	0.0165820
608.588	0.0166299
608.666	0.0166844
608.744	0.0165842
608.822	0.0166078
608.901	0.0166380
608.979	0.0166406
609.057	0.0165701
609.135	0.0164703
609.213	0.0165526
609.291	0.0166498
609.369	0.0167210
609.447	0.0167054
609.526	0.0165434
609.604	0.0166475
609.682	0.0166756
609.760	0.0165456
609.838	0.0166229
609.916	0.0168156
609.994	0.0167390
610.072	0.0167733
610.151	0.0167320
610.229	0.0165964
610.307	0.0165500
610.385	0.0168207
610.463	0.0166711
610.541	0.0167881
610.619	0.0167034
610.697	0.0166891
610.776	0.0167239
610.854	0.0166154
610.932	0.0166109
611.010	0.0166891
611.088	0.0166218
611.166	0.0166795
611.244	0.0167921
611.322	0.0168962
611.401	0.0167387
611.479	0.0166171
611.557	0.0166440
611.635	0.0166270
611.713	0.0166866
611.791	0.0167010
611.869	0.0165438
611.947	0.0167292
612.026	0.0167767
612.104	0.0166242
612.182	0.0166396
612.260	0.0167216
612.338	0.0166427
612.416	0.0165893
612.494	0.0166725
612.572	0.0166030
612.651	0.0166624
612.729	0.0166222
612.807	0.0165848
612.885	0.0164061
612.963	0.0166669
613.041	0.0166216
613.119	0.0165234
613.197	0.0164970
613.276	0.0162919
613.354	0.0164704
613.432	0.0164563
613.510	0.0164549
613.588	0.0162942
613.666	0.0164645
613.744	0.0164925
613.822	0.0163699
613.901	0.0164590
613.979	0.0164697
614.057	0.0163972
614.135	0.0162812
614.213	0.0164767
614.291	0.0163667
614.369	0.0162843
614.447	0.0164624
614.526	0.0164378
614.604	0.0164345
614.682	0.0163792
614.760	0.0164471
614.838	0.0163647
614.916	0.0163050
614.994	0.0163755
615.072	0.0164286
615.151	0.0163238
615.229	0.0163840
615.307	0.0163106
615.385	0.0162782
615.463	0.0164069
615.541	0.0163074
615.619	0.0161245
615.697	0.0164112
615.776	0.0162003
615.854	0.0161176
615.932	0.0162064
616.010	0.0161127
616.088	0.0160688
616.166	0.0161425
616.244	0.0161346
616.322	0.0160255
616.401	0.0162278
616.479	0.0161742
616.557	0.0162035
616.635	0.0161139
616.713	0.0161684
616.791	0.0160918
616.869	0.0163351
616.947	0.0162191
617.026	0.0162427
617.104	0.0162392
617.182	0.0161899
617.260	0.0161179
617.338	0.0162035
617.416	0.0163268
617.494	0.0164082
617.572	0.0164314
617.651	0.0161613
617.729	0.0162250
617.807	0.0163287
617.885	0.0163835
617.963	0.0163326
618.041	0.0163986
618.119	0.0165154
618.197	0.0164577
618.276	0.0164057
618.354	0.0163766
618.432	0.0164093
618.510	0.0165228
618.588	0.0164510
618.666	0.0165721
618.744	0.0165857
618.822	0.0165328
618.901	0.0165102
618.979	0.0167006
619.057	0.0165289
619.135	0.0165229
619.213	0.0166508
619.291	0.0166109
619.369	0.0166520
619.447	0.0166874
619.526	0.0166874
619.604	0.0166873
619.682	0.0166615
619.760	0.0167054
619.838	0.0165313
619.916	0.0166293
619.994	0.0167622
620.072	0.0166328
620.151	0.0166576
620.229	0.0167014
620.307	0.0166352
620.385	0.0165354
620.463	0.0165335
620.541	0.0167675
620.619	0.0166518
620.697	0.0166220
620.776	0.0167464
620.854	0.0166277
620.932	0.0166263
621.010	0.0165087
621.088	0.0166435
621.166	0.0168257
621.244	0.0166662
621.322	0.0167288
621.401	0.0167172
621.479	0.0166550
621.557	0.0167824
621.635	0.0165570
621.713	0.0165733
621.791	0.0166254
621.869	0.0166816
621.947	0.0165203
622.026	0.0165460
622.104	0.0167044
622.182	0.0165343
622.260	0.0165411
622.338	0.0166792
622.416	0.0166504
622.494	0.0166698
622.572	0.0165146
622.651	0.0166316
622.729	0.0166371
622.807	0.0165597
622.885	0.0166070
622.963	0.0166670
623.041	0.0165778
623.119	0.0165081
623.197	0.0165716
623.276	0.0165780
623.354	0.0167905
623.432	0.0166779
623.510	0.0165528
623.588	0.0166673
623.666	0.0166055
623.744	0.0165252
623.822	0.0166468
623.901	0.0166644
623.979	0.0165221
624.057	0.0166198
624.135	0.0165980
624.213	0.0166776
624.291	0.0166860
624.369	0.0166840
624.447	0.0166559
624.526	0.0166473
624.604	0.0165691
624.682	0.0166329
624.760	0.0168113
624.838	0.0167185
624.916	0.0169640
624.994	0.0166986
625.072	0.0165977
625.151	0.0166429
625.229	0.0167451
625.307	0.0167492
625.385	0.0167747
625.463	0.0167077
625.541	0.0167665
625.619	0.0167661
625.697	0.0166447
625.776	0.0167978
625.854	0.0167702
625.932	0.0167912
626.010	0.0168215
626.088	0.0167967
626.166	0.0167341
626.244	0.0167927
626.322	0.0167662
626.401	0.0168969
626.479	0.0166981
626.557	0.0167326
626.635	0.0167889
626.713	0.0167899
626.791	0.0168893
626.869	0.0168536
626.947	0.0169057
627.026	0.0167103
627.104	0.0168470
627.182	0.0168172
627.260	0.0167409
627.338	0.0168040
627.416	0.0168317
627.494	0.0168452
627.572	0.0167697
627.651	0.0167900
627.729	0.0167367
627.807	0.0168025
627.885	0.0168228
627.963	0.0168401
628.041	0.0168514
628.119	0.0167448
628.197	0.0168165
628.276	0.0168420
628.354	0.0166386
628.432	0.0167596
628.510	0.0167354
628.588	0.0167607
628.666	0.0168198
628.744	0.0166953
628.822	0.0166613
628.901	0.0167339
628.979	0.0167873
629.057	0.0166915
629.135	0.0166512
629.213	0.0167031
629.291	0.0166506
629.369	0.0166016
629.447	0.0165983
629.526	0.0166135
629.604	0.0166502
629.682	0.0165954
629.760	0.0166432
629.838	0.0166279
629.916	0.0166093
629.994	0.0164676
630.072	0.0166663
630.151	0.0164858
630.229	0.0166496
630.307	0.0166207
630.385	0.0165899
630.463	0.0166141
630.541	0.0165054
630.619	0.0164738
630.697	0.0166284
630.776	0.0167696
630.854	0.0165640
630.932	0.0166223
631.010	0.0165450
631.088	0.0165063
631.166	0.0164141
631.244	0.0165784
631.322	0.0165055
631.401	0.0165001
631.479	0.0164282
631.557	0.0164075
631.635	0.0163754
631.713	0.0163917
631.791	0.0161985
631.869	0.0163833
631.947	0.0162664
632.026	0.0163097
632.104	0.0162960
632.182	0.0160837
632.260	0.0162763
632.338	0.0162983
632.416	0.0163488
632.494	0.0162646
632.572	0.0163180
632.651	0.0163043
632.729	0.0161056
632.807	0.0162819
632.885	0.0162936
632.963	0.0162802
633.041	0.0162846
633.119	0.0163726
633.197	0.0162889
633.276	0.0162964
633.354	0.0162997
633.432	0.0164099
633.510	0.0162159
633.588	0.0163227
633.666	0.0162722
633.744	0.0163528
633.822	0.0162369
633.901	0.0163118
633.979	0.0163377
634.057	0.0163287
634.135	0.0162856
634.213	0.0164599
634.291	0.0162097
634.369	0.0163421
634.447	0.0163461
634.526	0.0163574
634.604	0.0164207
634.682	0.0162634
634.760	0.0163308
634.838	0.0164102
634.916	0.0163080
634.994	0.0161617
635.072	0.0162509
635.151	0.0163848
635.229	0.0164463
635.307	0.0163985
635.385	0.0163505
635.463	0.0164187
635.541	0.0163493
635.619	0.0163688
635.697	0.0163792
635.776	0.0164935
635.854	0.0164174
635.932	0.0165892
636.010	0.0164039
636.088	0.0164045
636.166	0.0163900
636.244	0.0164069
636.322	0.0165134
636.401	0.0164591
636.479	0.0164678
636.557	0.0164803
636.635	0.0166675
636.713	0.0165396
636.791	0.0164610
636.869	0.0165681
636.947	0.0165313
637.026	0.0165740
637.104	0.0166486
637.182	0.0166375
637.260	0.0165300
637.338	0.0166296
637.416	0.0167176
637.494	0.0165971
637.572	0.0166945
637.651	0.0166623
637.729	0.0166235
637.807	0.0167136
637.885	0.0166468
637.963	0.0165862
638.041	0.0167162
638.119	0.0166357
638.197	0.0166885
638.276	0.0165640
638.354	0.0167490
638.432	0.0167828
638.510	0.0166051
638.588	0.0166189
638.666	0.0166484
638.744	0.0166048
638.822	0.0167556
638.901	0.0167684
638.979	0.0165796
639.057	0.0166131
639.135	0.0166009
639.213	0.0164655
639.291	0.0165786
639.369	0.0163111
639.447	0.0164864
639.526	0.0164056
639.604	0.0164198
639.682	0.0164176
639.760	0.0162998
639.838	0.0164335
639.916	0.0164125
639.994	0.0164693
640.072	0.0164127
640.151	0.0163558
640.229	0.0163016
640.307	0.0164994
640.385	0.0163290
640.463	0.0163863
640.541	0.0163380
640.619	0.0163477
640.697	0.0163598
640.776	0.0162714
640.854	0.0162829
640.932	0.0162486
641.010	0.0162280
641.088	0.0161940
641.166	0.0162927
641.244	0.0162100
641.322	0.0162247
641.401	0.0163151
641.479	0.0162978
641.557	0.0162883
641.635	0.0162910
641.713	0.0162827
641.791	0.0163526
641.869	0.0163323
641.947	0.0163817
642.026	0.0162803
642.104	0.0164494
642.182	0.0163371
642.260	0.0164140
642.338	0.0165086
642.416	0.0164790
642.494	0.0164426
642.572	0.0165692
642.651	0.0165357
642.729	0.0165884
642.807	0.0165881
642.885	0.0166287
642.963	0.0166051
643.041	0.0166145
643.119	0.0167343
643.197	0.0166615
643.276	0.0167846
643.354	0.0167702
643.432	0.0165746
643.510	0.0167894
643.588	0.0168217
643.666	0.0167315
643.744	0.0167639
643.822	0.0168224
643.901	0.0168011
643.979	0.0168056
644.057	0.0168954
644.135	0.0168156
644.213	0.0167461
644.291	0.0168623
644.369	0.0167141
644.447	0.0167397
644.526	0.0168726
644.604	0.0167636
644.682	0.0167697
644.760	0.0168307
644.838	0.0167274
644.916	0.0166918
644.994	0.0167981
645.072	0.0168700
645.151	0.0168560
645.229	0.0167444
645.307	0.0168403
645.385	0.0167731
645.463	0.0168125
645.541	0.0166663
645.619	0.0166682
645.697	0.0167550
645.776	0.0167013
645.854	0.0168074
645.932	0.0168463
646.010	0.0167137
646.088	0.0166903
646.166	0.0169034
646.244	0.0166814
646.322	0.0167150
646.401	0.0168772
646.479	0.0168549
646.557	0.0168828
646.635	0.0168253
646.713	0.0166914
646.791	0.0167368
646.869	0.0169121
646.947	0.0167867
647.026	0.0167232
647.104	0.0167632
647.182	0.0167774
647.260	0.0168235
647.338	0.0167479
647.416	0.0166039
647.494	0.0167804
647.572	0.0168540
647.651	0.0165154
647.729	0.0167498
647.807	0.0167589
647.885	0.0165916
647.963	0.0166335
648.041	0.0166410
648.119	0.0165463
648.197	0.0166210
648.276	0.0165958
648.354	0.0166624
648.432	0.0165947
648.510	0.0166017
648.588	0.0166390
648.666	0.0166194
648.744	0.0166190
648.822	0.0165049
648.901	0.0165087
648.979	0.0166886
649.057	0.0165079
649.135	0.0165788
649.213	0.0166812
649.291	0.0167054
649.369	0.0166074
649.447	0.0166934
649.526	0.0166444
649.604	0.0167758
649.682	0.0163919
649.760	0.0165041
649.838	0.0166651
649.916	0.0166801
649.994	0.0166962
650.072	0.0166648
650.151	0.0166655
650.229	0.0166538
650.307	0.0165100
650.385	0.0167055
650.463	0.0167646
650.541	0.0166425
650.619	0.0166909
650.697	0.0168497
650.776	0.0167897
650.854	0.0167742
650.932	0.0166302
651.010	0.0168723
651.088	0.0168934
651.166	0.0168546
651.244	0.0168394
651.322	0.0169186
651.401	0.0168683
651.479	0.0168570
651.557	0.0169511
651.635	0.0168914
651.713	0.0169466
651.791	0.0167577
651.869	0.0167892
651.947	0.0167299
652.026	0.0166294
652.104	0.0167662
652.182	0.0166568
652.260	0.0165986
652.338	0.0165647
652.416	0.0167419
652.494	0.0167001
652.572	0.0165833
652.651	0.0163654
652.729	0.0163720
652.807	0.0165267
652.885	0.0164097
652.963	0.0165289
653.041	0.0165028
653.119	0.0165076
653.197	0.0163921
653.276	0.0164404
653.354	0.0164140
653.432	0.0164388
653.510	0.0164504
653.588	0.0162901
653.666	0.0165075
653.744	0.0164639
653.822	0.0162778
653.901	0.0162897
653.979	0.0164298
654.057	0.0163605
654.135	0.0162627
654.213	0.0164014
654.291	0.0162656
654.369	0.0163407
654.447	0.0163063
654.526	0.0164100
654.604	0.0164513
654.682	0.0163578
654.760	0.0164495
654.838	0.0165282
654.916	0.0163697
654.994	0.0165765
655.072	0.0165154
655.151	0.0163998
655.229	0.0165658
655.307	0.0167057
655.385	0.0167474
655.463	0.0165780
655.541	0.0164907
655.619	0.0168031
655.697	0.0166266
655.776	0.0166151
655.854	0.0167069
655.932	0.0168066
656.010	0.0166940
656.088	0.0165308
656.166	0.0165744
656.244	0.0165537
656.322	0.0164848
656.401	0.0164777
656.479	0.0165219
656.557	0.0163962
656.635	0.0165553
656.713	0.0163612
656.791	0.0163925
656.869	0.0162959
656.947	0.0163866
657.026	0.0163364
657.104	0.0162789
657.182	0.0164019
657.260	0.0163117
657.338	0.0162606
657.416	0.0163696
657.494	0.0163885
657.572	0.0163564
657.651	0.0163566
657.729	0.0164625
657.807	0.0163443
657.885	0.0163377
657.963	0.0163001
658.041	0.0163046
658.119	0.0164013
658.197	0.0164808
658.276	0.0165118
658.354	0.0165679
658.432	0.0166287
658.510	0.0166715
658.588	0.0167052
658.666	0.0166411
658.744	0.0165290
658.822	0.0165147
658.901	0.0166376
658.979	0.0167436
659.057	0.0166410
659.135	0.0166496
659.213	0.0167643
659.291	0.0167686
659.369	0.0168450
659.447	0.0167780
659.526	0.0166473
659.604	0.0168490
659.682	0.0167422
659.760	0.0167704
659.838	0.0167081
659.916	0.0168622
659.994	0.0168460
660.072	0.0168290
660.151	0.0166702
660.229	0.0165779
660.307	0.0167094
660.385	0.0167711
660.463	0.0166364
660.541	0.0166579
660.619	0.0167078
660.697	0.0167310
660.776	0.0167497
660.854	0.0166123
660.932	0.0166557
661.010	0.0165482
661.088	0.0166858
661.166	0.0168008
661.244	0.0166237
661.322	0.0166196
661.401	0.0165960
661.479	0.0166367
661.557	0.0165171
661.635	0.0166403
661.713	0.0165781
661.791	0.0166072
661.869	0.0166674
661.947	0.0167175
662.026	0.0167362
662.104	0.0166911
662.182	0.0166739
662.260	0.0167326
662.338	0.0168175
662.416	0.0166648
662.494	0.0167461
662.572	0.0167494
662.651	0.0165308
662.729	0.0165681
662.807	0.0166884
662.885	0.0167992
662.963	0.0167790
663.041	0.0166175
663.119	0.0165257
663.197	0.0165424
663.276	0.0165624
663.354	0.0165720
663.432	0.0165919
663.510	0.0166206
663.588	0.0166133
663.666	0.0165359
663.744	0.0164889
663.822	0.0164595
663.901	0.0165211
663.979	0.0164581
664.057	0.0163563
664.135	0.0163592
664.213	0.0163374
664.291	0.0164403
664.369	0.0164207
664.447	0.0163003
664.526	0.0164589
664.604	0.0165632
664.682	0.0163203
664.760	0.0165659
664.838	0.0165543
664.916	0.0165903
664.994	0.0166408
665.072	0.0165382
665.151	0.0165852
665.229	0.0167587
665.307	0.0166014
665.385	0.0164922
665.463	0.0166084
665.541	0.0165704
665.619	0.0165897
665.697	0.0164174
665.776	0.0165359
665.854	0.0164776
665.932	0.0164919
666.010	0.0164902
666.088	0.0164582
666.166	0.0164259
666.244	0.0164157
666.322	0.0164582
666.401	0.0165420
666.479	0.0164938
666.557	0.0165301
666.635	0.0164522
666.713	0.0165393
666.791	0.0165949
666.869	0.0165276
666.947	0.0165990
667.026	0.0165004
667.104	0.0164974
667.182	0.0165665
667.260	0.0164799
667.338	0.0165479
667.416	0.0164149
667.494	0.0165747
667.572	0.0166756
667.651	0.0166549
667.729	0.0166059
667.807	0.0165414
667.885	0.0165342
667.963	0.0167569
668.041	0.0166337
668.119	0.0166507
668.197	0.0166982
668.276	0.0166032
668.354	0.0167199
668.432	0.0166924
668.510	0.0166673
668.588	0.0167831
668.666	0.0167275
668.744	0.0167560
668.822	0.0166280
668.901	0.0167756
668.979	0.0167310
669.057	0.0166666
669.135	0.0168144
669.213	0.0168137
669.291	0.0168305
669.369	0.0169302
669.447	0.0168265
669.526	0.0166779
669.604	0.0167859
669.682	0.0168860
669.760	0.0167696
669.838	0.0168333
669.916	0.0168217
669.994	0.0167571
670.072	0.0166729
670.151	0.0166818
670.229	0.0168967
670.307	0.0169296
670.385	0.0167123
670.463	0.0167293
670.541	0.0168790
670.619	0.0167931
670.697	0.0167342
670.776	0.0168115
670.854	0.0168906
670.932	0.0168935
671.010	0.0167630
671.088	0.0167236
671.166	0.0168048
671.244	0.0169717
671.322	0.0167769
671.401	0.0167606
671.479	0.0167956
671.557	0.0167339
671.635	0.0168484
671.713	0.0168082
671.791	0.0167983
671.869	0.0169063
671.947	0.0168699
672.026	0.0167721
672.104	0.0167314
672.182	0.0169929
672.260	0.0167284
672.338	0.0166372
672.416	0.0166407
672.494	0.0167005
672.572	0.0166251
672.651	0.0166663
672.729	0.0167600
672.807	0.0166616
672.885	0.0166444
672.963	0.0166954
673.041	0.0166335
673.119	0.0166676
673.197	0.0167937
673.276	0.0166470
673.354	0.0168049
673.432	0.0167680
673.510	0.0168133
673.588	0.0166766
673.666	0.0167711
673.744	0.0167904
673.822	0.0166379
673.901	0.0167363
673.979	0.0167303
674.057	0.0167419
674.135	0.0165450
674.213	0.0166622
674.291	0.0166273
674.369	0.0165595
674.447	0.0164857
674.526	0.0164986
674.604	0.0164082
674.682	0.0164964
674.760	0.0164728
674.838	0.0164876
674.916	0.0162604
674.994	0.0164333
675.072	0.0163982
675.151	0.0163647
675.229	0.0163625
675.307	0.0162439
675.385	0.0161817
675.463	0.0162788
675.541	0.0162698
675.619	0.0164043
675.697	0.0164999
675.776	0.0163394
675.854	0.0162595
675.932	0.0162234
676.010	0.0163692
676.088	0.0163391
676.166	0.0163139
676.244	0.0161504
676.322	0.0162170
676.401	0.0163549
676.479	0.0163853
676.557	0.0162167
676.635	0.0162364
676.713	0.0162718
676.791	0.0163012
676.869	0.0163583
676.947	0.0163494
677.026	0.0162149
677.104	0.0162887
677.182	0.0162893
677.260	0.0163222
677.338	0.0164420
677.416	0.0165125
677.494	0.0163396
677.572	0.0162623
677.651	0.0164261
677.729	0.0164130
677.807	0.0164582
677.885	0.0163901
677.963	0.0163483
678.041	0.0164803
678.119	0.0164503
678.197	0.0163163
678.276	0.0164835
678.354	0.0163970
678.432	0.0163597
678.510	0.0162691
678.588	0.0164744
678.666	0.0164229
678.744	0.0163515
678.822	0.0165300
678.901	0.0164784
678.979	0.0163731
679.057	0.0164268
679.135	0.0164083
679.213	0.0165379
679.291	0.0164759
679.369	0.0166521
679.447	0.0166190
679.526	0.0165682
679.604	0.0166028
679.682	0.0167039
679.760	0.0166329
679.838	0.0167564
679.916	0.0166624
679.994	0.0168443
680.072	0.0167024
680.151	0.0167219
680.229	0.0167642
680.307	0.0169007
680.385	0.0168153
680.463	0.0169386
680.541	0.0169300
680.619	0.0169486
680.697	0.0170470
680.776	0.0170586
680.854	0.0171265
680.932	0.0170423
681.010	0.0170034
681.088	0.0170108
681.166	0.0171043
681.244	0.0170806
681.322	0.0170825
681.401	0.0170214
681.479	0.0170458
681.557	0.0169707
681.635	0.0168796
681.713	0.0168891
681.791	0.0168530
681.869	0.0169080
681.947	0.0169027
682.026	0.0168228
682.104	0.0168414
682.182	0.0167915
682.260	0.0168053
682.338	0.0167099
682.416	0.0168002
682.494	0.0168925
682.572	0.0167928
682.651	0.0167950
682.729	0.0167458
682.807	0.0168897
682.885	0.0166658
682.963	0.0167594
683.041	0.0168056
683.119	0.0168272
683.197	0.0166187
683.276	0.0168383
683.354	0.0168721
683.432	0.0168676
683.510	0.0168836
683.588	0.0168935
683.666	0.0167365
683.744	0.0168890
683.822	0.0167418
683.901	0.0168501
683.979	0.0167732
684.057	0.0167125
684.135	0.0166669
684.213	0.0168714
684.291	0.0166332
684.369	0.0166396
684.447	0.0164984
684.526	0.0165496
684.604	0.0164362
684.682	0.0163764
684.760	0.0164436
684.838	0.0164086
684.916	0.0163109
684.994	0.0163023
685.072	0.0163186
685.151	0.0163786
685.229	0.0164291
685.307	0.0161746
685.385	0.0163361
685.463	0.0163248
685.541	0.0162358
685.619	0.0161738
685.697	0.0163560
685.776	0.0163319
685.854	0.0162388
685.932	0.0163816
686.010	0.0162888
686.088	0.0162938
686.166	0.0161951
686.244	0.0162725
686.322	0.0162194
686.401	0.0160743
686.479	0.0163264
686.557	0.0161916
686.635	0.0162202
686.713	0.0161703
686.791	0.0161215
686.869	0.0161029
686.947	0.0160658
687.026	0.0162560
687.104	0.0161211
687.182	0.0161488
687.260	0.0161877
687.338	0.0163876
687.416	0.0164101
687.494	0.0163176
687.572	0.0164655
687.651	0.0163524
687.729	0.0165084
687.807	0.0164794
687.885	0.0166024
687.963	0.0163898
688.041	0.0165785
688.119	0.0166449
688.197	0.0166824
688.276	0.0166197
688.354	0.0164223
688.432	0.0165045
688.510	0.0165666
688.588	0.0165195
688.666	0.0164990
688.744	0.0164811
688.822	0.0166698
688.901	0.0166113
688.979	0.0164330
689.057	0.0164177
689.135	0.0164510
689.213	0.0164045
689.291	0.0164260
689.369	0.0165255
689.447	0.0165899
689.526	0.0164330
689.604	0.0164286
689.682	0.0166039
689.760	0.0165233
689.838	0.0165839
689.916	0.0166331
689.994	0.0164552
690.072	0.0166319
690.151	0.0166660
690.229	0.0167860
690.307	0.0167416
690.385	0.0167345
690.463	0.0168546
690.541	0.0167290
690.619	0.0169166
690.697	0.0168969
690.776	0.0170134
690.854	0.0168963
690.932	0.0168998
691.010	0.0169048
691.088	0.0167949
691.166	0.0169482
691.244	0.0168593
691.322	0.0169147
691.401	0.0168475
691.479	0.0167850
691.557	0.0167876
691.635	0.0166723
691.713	0.0165751
691.791	0.0166575
691.869	0.0166026
691.947	0.0165936
692.026	0.0167358
692.104	0.0167219
692.182	0.0166604
692.260	0.0167901
692.338	0.0167552
692.416	0.0168021
692.494	0.0167780
692.572	0.0166351
692.651	0.0166701
692.729	0.0167799
692.807	0.0167439
692.885	0.0167758
692.963	0.0168553
693.041	0.0167664
693.119	0.0166431
693.197	0.0166192
693.276	0.0166969
693.354	0.0166193
693.432	0.0164285
693.510	0.0164718
693.588	0.0166778
693.666	0.0165681
693.744	0.0165252
693.822	0.0163367
693.901	0.0162444
693.979	0.0162999
694.057	0.0163229
694.135	0.0161803
694.213	0.0161572
694.291	0.0162745
694.369	0.0163052
694.447	0.0163951
694.526	0.0163308
694.604	0.0162702
694.682	0.0162352
694.760	0.0162598
694.838	0.0161591
694.916	0.0162555
694.994	0.0163259
695.072	0.0164433
695.151	0.0164377
695.229	0.0162988
695.307	0.0163488
695.385	0.0163110
695.463	0.0162608
695.541	0.0163300
695.619	0.0162868
695.697	0.0163621
695.776	0.0163932
695.854	0.0163940
695.932	0.0163673
696.010	0.0163629
696.088	0.0163316
696.166	0.0161612
696.244	0.0163427
696.322	0.0162354
696.401	0.0162532
696.479	0.0161375
696.557	0.0160992
696.635	0.0161546
696.713	0.0161434
696.791	0.0162331
696.869	0.0163857
696.947	0.0161905
697.026	0.0160596
697.104	0.0163813
697.182	0.0163542
697.260	0.0162527
697.338	0.0164388
697.416	0.0163416
697.494	0.0163342
697.572	0.0163790
697.651	0.0165688
697.729	0.0165512
697.807	0.0165125
697.885	0.0165049
697.963	0.0164383
698.041	0.0165626
698.119	0.0165768
698.197	0.0165660
698.276	0.0164918
698.354	0.0166111
698.432	0.0165558
698.510	0.0164116
698.588	0.0163685
698.666	0.0163440
698.744	0.0162337
698.822	0.0162909
698.901	0.0161699
698.979	0.0162176
699.057	0.0161472
699.135	0.0162209
699.213	0.0162128
699.291	0.0164063
699.369	0.0162581
699.447	0.0162399
699.526	0.0163892
699.604	0.0163822
699.682	0.0165083
699.760	0.0164804
699.838	0.0164878
699.916	0.0167146
699.994	0.0168189
700.072	0.0167981
700.151	0.0167235
700.229	0.0169079
700.307	0.0168230
700.385	0.0168234
700.463	0.0168196
700.541	0.0168145
700.619	0.0167423
700.697	0.0167294
700.776	0.0167120
700.854	0.0165144
700.932	0.0165016
701.010	0.0164633
701.088	0.0164574
701.166	0.0165287
701.244	0.0163429
701.322	0.0162766
701.401	0.0161973
701.479	0.0162919
701.557	0.0162908
701.635	0.0163251
701.713	0.0163245
701.791	0.0162877
701.869	0.0165379
701.947	0.0166012
702.026	0.0166922
702.104	0.0166361
702.182	0.0166555
702.260	0.0168103
702.338	0.0168764
702.416	0.0170057
702.494	0.0171049
702.572	0.0170216
702.651	0.0170480
702.729	0.0169974
702.807	0.0171684
702.885	0.0170673
702.963	0.0171207
703.041	0.0170879
703.119	0.0169624
703.197	0.0169049
703.276	0.0168517
703.354	0.0167777
703.432	0.0168086
703.510	0.0168171
703.588	0.0166856
703.666	0.0166671
703.744	0.0165704
703.822	0.0163927
703.901	0.0164584
703.979	0.0164966
704.057	0.0163670
704.135	0.0163638
704.213	0.0163921
704.291	0.0164096
704.369	0.0162785
704.447	0.0163197
704.526	0.0165298
704.604	0.0166385
704.682	0.0166396
704.760	0.0166595
704.838	0.0167189
704.916	0.0166293
704.994	0.0166987
705.072	0.0167087
705.151	0.0166513
705.229	0.0166846
705.307	0.0167457
705.385	0.0164940
705.463	0.0165572
705.541	0.0164019
705.619	0.0162934
705.697	0.0163474
705.776	0.0163730
705.854	0.0161835
705.932	0.0163848
706.010	0.0162154
706.088	0.0162210
706.166	0.0162620
706.244	0.0161858
706.322	0.0162101
706.401	0.0162724
706.479	0.0162595
706.557	0.0163173
706.635	0.0164365
706.713	0.0164480
706.791	0.0164320
706.869	0.0164981
706.947	0.0165765
707.026	0.0166287
707.104	0.0166063
707.182	0.0166730
707.260	0.0167007
707.338	0.0165989
707.416	0.0165924
707.494	0.0165237
707.572	0.0166102
707.651	0.0164641
707.729	0.0165985
707.807	0.0163715
707.885	0.0162558
707.963	0.0162859
708.041	0.0163007
708.119	0.0162612
708.197	0.0160351
708.276	0.0160342
708.354	0.0161494
708.432	0.0159568
708.510	0.0161832
708.588	0.0160087
708.666	0.0160416
708.744	0.0160700
708.822	0.0160315
708.901	0.0160654
708.979	0.0160849
709.057	0.0160707
709.135	0.0160719
709.213	0.0164010
709.291	0.0164391
709.369	0.0162577
709.447	0.0162630
709.526	0.0164219
709.604	0.0165916
709.682	0.0166176
709.760	0.0165351
709.838	0.0164784
709.916	0.0166486
709.994	0.0165755
710.072	0.0166404
710.151	0.0166176
710.229	0.0165578
710.307	0.0165946
710.385	0.0165030
710.463	0.0165644
710.541	0.0168068
710.619	0.0166077
710.697	0.0169389
710.776	0.0168321
710.854	0.0168159
710.932	0.0168347
711.010	0.0167369
711.088	0.0165378
711.166	0.0168436
711.244	0.0167147
711.322	0.0166972
711.401	0.0168864
711.479	0.0169080
711.557	0.0168149
711.635	0.0166708
711.713	0.0169993
711.791	0.0169186
711.869	0.0167940
711.947	0.0168822
712.026	0.0170027
712.104	0.0169714
712.182	0.0170387
712.260	0.0168166
712.338	0.0167182
712.416	0.0168225
712.494	0.0171240
712.572	0.0169478
712.651	0.0166882
712.729	0.0167822
712.807	0.0167883
712.885	0.0168331
712.963	0.0167267
713.041	0.0167334
713.119	0.0166799
713.197	0.0166542
713.276	0.0166972
713.354	0.0167282
713.432	0.0167554
713.510	0.0166640
713.588	0.0165364
713.666	0.0167021
713.744	0.0165910
713.822	0.0163087
713.901	0.0164388
713.979	0.0166485
714.057	0.0164205
714.135	0.0165591
714.213	0.0165957
714.291	0.0168467
714.369	0.0168882
714.447	0.0167063
714.526	0.0168224
714.604	0.0169862
714.682	0.0169165
714.760	0.0170433
714.838	0.0170643
714.916	0.0171818
714.994	0.0171604
715.072	0.0172638
715.151	0.0170417
715.229	0.0171927
715.307	0.0171126
715.385	0.0170133
715.463	0.0166723
715.541	0.0167184
715.619	0.0167424
715.697	0.0165192
715.776	0.0163577
715.854	0.0161740
715.932	0.0160651
716.010	0.0159762
716.088	0.0159806
716.166	0.0157314
716.244	0.0156136
716.322	0.0156704
716.401	0.0156394
716.479	0.0157224
716.557	0.0158255
716.635	0.0157796
716.713	0.0158387
716.791	0.0158431
716.869	0.0158967
716.947	0.0160970
717.026	0.0162345
717.104	0.0162016
717.182	0.0164667
717.260	0.0165105
717.338	0.0165997
717.416	0.0166472
717.494	0.0167476
717.572	0.0168668
717.651	0.0169640
717.729	0.0171410
717.807	0.0170916
717.885	0.0170625
717.963	0.0170838
718.041	0.0170979
718.119	0.0169463
718.197	0.0170457
718.276	0.0169568
718.354	0.0168185
718.432	0.0167909
718.510	0.0166838
718.588	0.0165979
718.666	0.0164296
718.744	0.0163752
718.822	0.0161074
718.901	0.0161991
718.979	0.0159205
719.057	0.0160307
719.135	0.0160825
719.213	0.0157500
719.291	0.0158148
719.369	0.0158881
719.447	0.0157848
719.526	0.0159214
719.604	0.0158978
719.682	0.0159163
719.760	0.0160438
719.838	0.0160593
719.916	0.0159657
719.994	0.0160278
720.072	0.0160471
720.151	0.0161002
720.229	0.0161847
720.307	0.0161395
720.385	0.0162238
720.463	0.0163440
720.541	0.0162461
720.619	0.0162361
720.697	0.0161088
720.776	0.0162993
720.854	0.0162453
720.932	0.0163338
721.010	0.0163411
721.088	0.0162717
721.166	0.0165744
721.244	0.0166571
721.322	0.0166399
721.401	0.0166407
721.479	0.0168950
721.557	0.0169786
721.635	0.0170044
721.713	0.0169811
721.791	0.0169530
721.869	0.0171272
721.947	0.0171484
722.026	0.0171550
722.104	0.0172352
722.182	0.0171965
722.260	0.0172124
722.338	0.0169704
722.416	0.0168882
722.494	0.0169297
722.572	0.0167746
722.651	0.0167913
722.729	0.0166273
722.807	0.0165409
722.885	0.0164362
722.963	0.0164021
723.041	0.0162440
723.119	0.0161866
723.197	0.0161652
723.276	0.0160837
723.354	0.0162043
723.432	0.0160978
723.510	0.0160210
723.588	0.0160352
723.666	0.0159083
723.744	0.0159497
723.822	0.0159892
723.901	0.0159416
723.979	0.0160664
724.057	0.0160015
724.135	0.0160916
724.213	0.0161192
724.291	0.0162072
724.369	0.0163243
724.447	0.0163265
724.526	0.0164703
724.604	0.0165556
724.682	0.0165314
724.760	0.0167844
724.838	0.0167617
724.916	0.0168966
724.994	0.0169466
725.072	0.0170272
725.151	0.0169942
725.229	0.0170912
725.307	0.0172979
725.385	0.0173240
725.463	0.0173306
725.541	0.0174808
725.619	0.0173398
725.697	0.0173509
725.776	0.0174310
725.854	0.0174932
725.932	0.0172942
726.010	0.0171785
726.088	0.0172047
726.166	0.0171861
726.244	0.0171375
726.322	0.0171670
726.401	0.0171459
726.479	0.0170570
726.557	0.0170971
726.635	0.0169342
726.713	0.0168956
726.791	0.0166882
726.869	0.0167567
726.947	0.0167278
727.026	0.0165363
727.104	0.0164996
727.182	0.0163308
727.260	0.0162709
727.338	0.0161225
727.416	0.0160448
727.494	0.0160439
727.572	0.0161669
727.651	0.0162006
727.729	0.0161343
727.807	0.0159610
727.885	0.0160050
727.963	0.0162825
728.041	0.0162474
728.119	0.0162310
728.197	0.0164320
728.276	0.0164291
728.354	0.0164252
728.432	0.0165498
728.510	0.0164716
728.588	0.0167123
728.666	0.0168290
728.744	0.0168858
728.822	0.0169175
728.901	0.0169838
728.979	0.0170237
729.057	0.0169138
729.135	0.0168610
729.213	0.0168771
729.291	0.0168153
729.369	0.0168402
729.447	0.0166621
729.526	0.0165952
729.604	0.0165447
729.682	0.0163554
729.760	0.0164400
729.838	0.0164819
729.916	0.0163645
729.994	0.0163017
730.072	0.0162788
730.151	0.0163781
730.229	0.0162481
730.307	0.0162511
730.385	0.0164173
730.463	0.0164377
730.541	0.0165231
730.619	0.0166817
730.697	0.0168962
730.776	0.0169630
730.854	0.0170485
730.932	0.0172076
731.010	0.0172625
731.088	0.0172942
731.166	0.0172579
731.244	0.0172020
731.322	0.0173122
731.401	0.0172189
731.479	0.0172221
731.557	0.0171870
731.635	0.0169245
731.713	0.0167054
731.791	0.0166143
731.869	0.0164715
731.947	0.0164840
732.026	0.0163789
732.104	0.0161008
732.182	0.0161480
732.260	0.0160394
732.338	0.0159937
732.416	0.0159033
732.494	0.0158154
732.572	0.0158804
732.651	0.0161285
732.729	0.0161816
732.807	0.0161206
732.885	0.0162814
732.963	0.0163715
733.041	0.0165051
733.119	0.0165595
733.197	0.0167973
733.276	0.0167781
733.354	0.0169770
733.432	0.0170324
733.510	0.0171230
733.588	0.0174091
733.666	0.0174054
733.744	0.0172669
733.822	0.0173608
733.901	0.0174371
733.979	0.0173642
734.057	0.0171334
734.135	0.0173214
734.213	0.0173267
734.291	0.0171236
734.369	0.0171262
734.447	0.0169726
734.526	0.0169394
734.604	0.0168485
734.682	0.0165586
734.760	0.0166270
734.838	0.0165098
734.916	0.0165289
734.994	0.0164760
735.072	0.0164302
735.151	0.0162214
735.229	0.0164214
735.307	0.0164754
735.385	0.0164506
735.463	0.0165637
735.541	0.0166725
735.619	0.0165190
735.697	0.0165827
735.776	0.0168076
735.854	0.0169307
735.932	0.0168584
736.010	0.0168172
736.088	0.0170472
736.166	0.0169735
736.244	0.0169883
736.322	0.0169511
736.401	0.0169573
736.479	0.0169852
736.557	0.0169563
736.635	0.0168178
736.713	0.0167786
736.791	0.0169148
736.869	0.0166944
736.947	0.0166705
737.026	0.0168375
737.104	0.0167197
737.182	0.0165948
737.260	0.0164719
737.338	0.0165367
737.416	0.0163355
737.494	0.0165740
737.572	0.0164835
737.651	0.0166254
737.729	0.0166340
737.807	0.0165858
737.885	0.0167191
737.963	0.0167980
738.041	0.0167977
738.119	0.0167011
738.197	0.0168285
738.276	0.0170073
738.354	0.0168980
738.432	0.0168746
738.510	0.0169158
738.588	0.0169065
738.666	0.0169051
738.744	0.0169440
738.822	0.0170039
738.901	0.0168021
738.979	0.0169821
739.057	0.0168432
739.135	0.0169427
739.213	0.0169665
739.291	0.0168972
739.369	0.0168626
739.447	0.0168807
739.526	0.0167043
739.604	0.0166884
739.682	0.0168124
739.760	0.0169573
739.838	0.0166271
739.916	0.0166268
739.994	0.0164935
740.072	0.0164450
740.151	0.0164756
740.229	0.0163690
740.307	0.0163113
740.385	0.0161424
740.463	0.0160658
740.541	0.0162086
740.619	0.0161765
740.697	0.0160576
740.776	0.0161909
740.854	0.0160862
740.932	0.0162296
741.010	0.0163666
741.088	0.0164682
741.166	0.0165038
741.244	0.0165305
741.322	0.0167424
741.401	0.0166949
741.479	0.0167542
741.557	0.0168385
741.635	0.0170277
741.713	0.0170539
741.791	0.0170127
741.869	0.0170362
741.947	0.0170523
742.026	0.0168796
742.104	0.0169218
742.182	0.0169157
742.260	0.0166780
742.338	0.0167791
742.416	0.0166707
742.494	0.0166129
742.572	0.0163419
742.651	0.0161554
742.729	0.0161919
742.807	0.0159805
742.885	0.0160027
742.963	0.0158871
743.041	0.0157340
743.119	0.0159146
743.197	0.0158145
743.276	0.0156891
743.354	0.0157524
743.432	0.0157531
743.510	0.0158446
743.588	0.0158831
743.666	0.0158980
743.744	0.0159599
743.822	0.0159854
743.901	0.0160979
743.979	0.0161469
744.057	0.0162698
744.135	0.0163945
744.213	0.0163570
744.291	0.0165775
744.369	0.0167050
744.447	0.0166483
744.526	0.0167171
744.604	0.0168256
744.682	0.0168492
744.760	0.0168903
744.838	0.0169340
744.916	0.0169294
744.994	0.0171021
745.072	0.0170437
745.151	0.0170602
745.229	0.0171432
745.307	0.0170387
745.385	0.0171427
745.463	0.0172790
745.541	0.0172263
745.619	0.0171779
745.697	0.0169899
745.776	0.0167373
745.854	0.0167490
745.932	0.0167169
746.010	0.0167299
746.088	0.0167319
746.166	0.0165377
746.244	0.0164471
746.322	0.0163261
746.401	0.0162772
746.479	0.0162681
746.557	0.0163205
746.635	0.0162435
746.713	0.0163966
746.791	0.0162222
746.869	0.0162168
746.947	0.0162070
747.026	0.0163400
747.104	0.0163649
747.182	0.0164380
747.260	0.0165306
747.338	0.0165660
747.416	0.0165953
747.494	0.0167908
747.572	0.0167471
747.651	0.0168359
747.729	0.0169285
747.807	0.0168109
747.885	0.0168246
747.963	0.0169726
748.041	0.0169847
748.119	0.0169390
748.197	0.0168864
748.276	0.0168318
748.354	0.0168363
748.432	0.0168362
748.510	0.0168664
748.588	0.0167005
748.666	0.0167196
748.744	0.0165797
748.822	0.0167190
748.901	0.0167444
748.979	0.0166696
749.057	0.0165288
749.135	0.0164664
749.213	0.0167290
749.291	0.0165995
749.369	0.0166818
749.447	0.0166167
749.526	0.0168089
749.604	0.0167678
749.682	0.0166788
749.760	0.0165792
749.838	0.0164503
749.916	0.0166361
749.994	0.0165335
750.072	0.0165476
750.151	0.0162412
750.229	0.0161671
750.307	0.0161230
750.385	0.0162560
750.463	0.0162625
750.541	0.0160352
750.619	0.0160979
750.697	0.0161231
750.776	0.0160116
750.854	0.0161501
750.932	0.0162248
751.010	0.0162063
751.088	0.0161794
751.166	0.0163242
751.244	0.0164542
751.322	0.0163733
751.401	0.0161625
751.479	0.0160986
751.557	0.0162042
751.635	0.0163405
751.713	0.0161803
751.791	0.0162123
751.869	0.0161259
751.947	0.0163832
752.026	0.0161985
752.104	0.0161188
752.182	0.0163573
752.260	0.0163875
752.338	0.0165726
752.416	0.0163644
752.494	0.0165440
752.572	0.0165946
752.651	0.0166497
752.729	0.0166544
752.807	0.0166976
752.885	0.0168970
752.963	0.0167286
753.041	0.0168064
753.119	0.0168849
753.197	0.0168145
753.276	0.0168494
753.354	0.0170216
753.432	0.0169656
753.510	0.0169002
753.588	0.0168388
753.666	0.0167055
753.744	0.0168264
753.822	0.0167796
753.901	0.0166425
753.979	0.0167294
754.057	0.0166455
754.135	0.0166872
754.213	0.0165546
754.291	0.0165552
754.369	0.0165063
754.447	0.0166325
754.526	0.0165230
754.604	0.0165085
754.682	0.0167236
754.760	0.0166030
754.838	0.0166054
754.916	0.0166246
754.994	0.0164939
755.072	0.0165985
755.151	0.0165478
755.229	0.0163975
755.307	0.0165482
755.385	0.0164046
755.463	0.0163260
755.541	0.0163453
755.619	0.0164760
755.697	0.0163420
755.776	0.0163704
755.854	0.0163176
755.932	0.0164988
756.010	0.0164583
756.088	0.0164308
756.166	0.0163308
756.244	0.0163990
756.322	0.0165399
756.401	0.0166296
756.479	0.0165661
756.557	0.0166420
756.635	0.0167645
756.713	0.0168745
756.791	0.0166645
756.869	0.0169312
756.947	0.0170766
757.026	0.0170046
757.104	0.0170113
757.182	0.0171546
757.260	0.0171206
757.338	0.0171877
757.416	0.0170829
757.494	0.0171126
757.572	0.0170280
757.651	0.0171265
757.729	0.0171703
757.807	0.0170860
757.885	0.0169061
757.963	0.0168819
758.041	0.0170245
758.119	0.0168410
758.197	0.0167845
758.276	0.0169090
758.354	0.0168623
758.432	0.0167330
758.510	0.0166551
758.588	0.0166022
758.666	0.0165995
758.744	0.0165746
758.822	0.0164705
758.901	0.0163980
758.979	0.0164168
759.057	0.0164195
759.135	0.0164523
759.213	0.0164605
759.291	0.0164642
759.369	0.0165241
759.447	0.0165292
759.526	0.0165714
759.604	0.0166623
759.682	0.0167783
759.760	0.0167240
759.838	0.0167366
759.916	0.0168118
759.994	0.0167258
760.072	0.0166479
760.151	0.0167699
760.229	0.0167049
760.307	0.0167461
760.385	0.0167343
760.463	0.0166745
760.541	0.0166026
760.619	0.0167125
760.697	0.0165810
760.776	0.0165075
760.854	0.0165858
760.932	0.0166036
761.010	0.0164899
761.088	0.0164745
761.166	0.0165390
761.244	0.0165195
761.322	0.0165949
761.401	0.0164231
761.479	0.0163197
761.557	0.0164121
761.635	0.0165023
761.713	0.0165295
761.791	0.0164198
761.869	0.0163821
761.947	0.0166061
762.026	0.0165609
762.104	0.0164777
762.182	0.0165057
762.260	0.0165615
762.338	0.0164258
762.416	0.0164181
762.494	0.0164986
762.572	0.0164024
762.651	0.0164211
762.729	0.0163394
762.807	0.0162327
762.885	0.0163306
762.963	0.0164125
763.041	0.0163285
763.119	0.0162089
763.197	0.0162737
763.276	0.0162652
763.354	0.0162997
763.432	0.0164569
763.510	0.0163902
763.588	0.0161906
763.666	0.0162730
763.744	0.0163776
763.822	0.0164625
763.901	0.0165084
763.979	0.0165045
764.057	0.0165208
764.135	0.0164585
764.213	0.0167017
764.291	0.0167371
764.369	0.0166489
764.447	0.0166639
764.526	0.0167107
764.604	0.0167491
764.682	0.0165766
764.760	0.0166984
764.838	0.0167278
764.916	0.0166658
764.994	0.0166096
765.072	0.0165528
765.151	0.0166778
765.229	0.0165845
765.307	0.0164431
765.385	0.0166180
765.463	0.0165704
765.541	0.0165179
765.619	0.0166370
765.697	0.0165889
765.776	0.0165591
765.854	0.0164806
765.932	0.0165015
766.010	0.0164011
766.088	0.0162856
766.166	0.0162794
766.244	0.0162987
766.322	0.0163405
766.401	0.0162901
766.479	0.0163968
766.557	0.0162177
766.635	0.0162405
766.713	0.0161627
766.791	0.0162212
766.869	0.0161348
766.947	0.0161122
767.026	0.0161584
767.104	0.0162126
767.182	0.0162443
767.260	0.0162746
767.338	0.0163525
767.416	0.0162491
767.494	0.0163251
767.572	0.0163334
767.651	0.0164496
767.729	0.0164886
767.807	0.0164941
767.885	0.0164919
767.963	0.0165430
768.041	0.0165959
768.119	0.0163406
768.197	0.0163356
768.276	0.0164692
768.354	0.0163200
768.432	0.0163837
768.510	0.0165909
768.588	0.0164569
768.666	0.0163551
768.744	0.0163737
768.822	0.0163985
768.901	0.0164781
768.979	0.0164749
769.057	0.0165144
769.135	0.0165551
769.213	0.0166634
769.291	0.0165346
769.369	0.0166290
769.447	0.0166206
769.526	0.0166852
769.604	0.0166236
769.682	0.0167466
769.760	0.0166840
769.838	0.0165085
769.916	0.0167577
769.994	0.0168292
770.072	0.0166260
770.151	0.0166570
770.229	0.0168230
770.307	0.0168183
770.385	0.0167773
770.463	0.0169000
770.541	0.0167336
770.619	0.0168995
770.697	0.0168592
770.776	0.0169257
770.854	0.0169022
770.932	0.0166880
771.010	0.0166956
771.088	0.0166555
771.166	0.0167308
771.244	0.0166939
771.322	0.0165220
771.401	0.0165161
771.479	0.0164816
771.557	0.0164445
771.635	0.0165714
771.713	0.0163763
771.791	0.0164676
771.869	0.0162445
771.947	0.0161560
772.026	0.0161221
772.104	0.0161960
772.182	0.0162598
772.260	0.0160756
772.338	0.0159725
772.416	0.0158459
772.494	0.0158752
772.572	0.0158445
772.651	0.0158179
772.729	0.0156602
772.807	0.0156365
772.885	0.0154822
772.963	0.0155155
773.041	0.0155650
773.119	0.0155540
773.197	0.0154764
773.276	0.0155817
773.354	0.0157265
773.432	0.0157325
773.510	0.0156139
773.588	0.0157910
773.666	0.0160158
773.744	0.0161472
773.822	0.0163646
773.901	0.0162989
773.979	0.0165290
774.057	0.0166661
774.135	0.0168586
774.213	0.0168916
774.291	0.0170771
774.369	0.0171625
774.447	0.0172115
774.526	0.0172852
774.604	0.0172985
774.682	0.0172813
774.760	0.0172173
774.838	0.0173215
774.916	0.0173510
774.994	0.0172241
775.072	0.0171014
775.151	0.0170994
775.229	0.0172520
775.307	0.0171271
775.385	0.0168259
775.463	0.0168588
775.541	0.0166714
775.619	0.0166431
775.697	0.0167430
775.776	0.0166021
775.854	0.0165102
775.932	0.0165611
776.010	0.0164015
776.088	0.0163744
776.166	0.0163555
776.244	0.0164442
776.322	0.0163887
776.401	0.0162267
776.479	0.0162505
776.557	0.0163659
776.635	0.0162982
776.713	0.0161789
776.791	0.0163244
776.869	0.0163014
776.947	0.0162881
777.026	0.0162865
777.104	0.0164198
777.182	0.0162361
777.260	0.0163911
777.338	0.0163982
777.416	0.0163902
777.494	0.0164610
777.572	0.0165483
777.651	0.0164402
777.729	0.0164498
777.807	0.0165179
777.885	0.0165220
777.963	0.0164853
778.041	0.0165197
778.119	0.0164845
778.197	0.0165240
778.276	0.0166779
778.354	0.0166144
778.432	0.0165553
778.510	0.0164893
778.588	0.0164897
778.666	0.0165874
778.744	0.0165046
778.822	0.0164963
778.901	0.0166263
778.979	0.0166251
779.057	0.0165202
779.135	0.0166387
779.213	0.0166939
779.291	0.0167113
779.369	0.0167071
779.447	0.0166836
779.526	0.0165810
779.604	0.0166183
779.682	0.0165601
779.760	0.0166904
779.838	0.0167046
779.916	0.0166835
779.994	0.0166808
780.072	0.0167226
780.151	0.0166183
780.229	0.0166850
780.307	0.0165954
780.385	0.0166207
780.463	0.0166167
780.541	0.0165714
780.619	0.0165206
780.697	0.0165384
780.776	0.0163426
780.854	0.0164899
780.932	0.0163647
781.010	0.0161945
781.088	0.0162711
781.166	0.0162909
781.244	0.0162496
781.322	0.0161251
781.401	0.0162677
781.479	0.0162439
781.557	0.0161974
781.635	0.0161006
781.713	0.0162371
781.791	0.0161243
781.869	0.0162299
781.947	0.0162244
782.026	0.0162003
782.104	0.0164550
782.182	0.0163661
782.260	0.0163790
782.338	0.0164825
782.416	0.0164681
782.494	0.0165579
782.572	0.0166183
782.651	0.0164496
782.729	0.0164424
782.807	0.0164420
782.885	0.0164619
782.963	0.0165194
783.041	0.0164883
783.119	0.0164178
783.197	0.0164571
783.276	0.0163591
783.354	0.0162176
783.432	0.0164498
783.510	0.0164980
783.588	0.0165196
783.666	0.0164121
783.744	0.0164272
783.822	0.0165083
783.901	0.0165668
783.979	0.0164804
784.057	0.0163735
784.135	0.0165987
784.213	0.0164896
784.291	0.0165284
784.369	0.0165821
784.447	0.0165176
784.526	0.0166296
784.604	0.0167210
784.682	0.0167681
784.760	0.0166602
784.838	0.0166473
784.916	0.0165694
784.994	0.0166348
785.072	0.0165056
785.151	0.0166113
785.229	0.0166153
785.307	0.0165775
785.385	0.0164476
785.463	0.0165960
785.541	0.0164912
785.619	0.0164703
785.697	0.0164827
785.776	0.0164728
785.854	0.0163203
785.932	0.0163252
786.010	0.0165456
786.088	0.0163335
786.166	0.0163550
786.244	0.0163950
786.322	0.0162337
786.401	0.0164411
786.479	0.0164019
786.557	0.0161954
786.635	0.0163117
786.713	0.0164931
786.791	0.0164869
786.869	0.0163766
786.947	0.0163234
787.026	0.0163718
787.104	0.0162846
787.182	0.0163284
787.260	0.0163779
787.338	0.0163772
787.416	0.0163399
787.494	0.0163569
787.572	0.0164192
787.651	0.0164526
787.729	0.0164287
787.807	0.0164104
787.885	0.0164522
787.963	0.0165514
788.041	0.0166611
788.119	0.0165025
788.197	0.0165573
788.276	0.0166652
788.354	0.0167555
788.432	0.0167825
788.510	0.0167256
788.588	0.0167850
788.666	0.0168134
788.744	0.0167427
788.822	0.0168153
788.901	0.0167436
788.979	0.0167696
789.057	0.0168401
789.135	0.0168232
789.213	0.0169387
789.291	0.0167845
789.369	0.0168147
789.447	0.0167670
789.526	0.0168761
789.604	0.0167392
789.682	0.0168497
789.760	0.0167556
789.838	0.0167812
789.916	0.0167858
789.994	0.0166006
790.072	0.0168145
790.151	0.0167828
790.229	0.0165893
790.307	0.0167345
790.385	0.0165649
790.463	0.0164362
790.541	0.0166005
790.619	0.0165195
790.697	0.0165175
790.776	0.0164858
790.854	0.0163037
790.932	0.0164539
791.010	0.0163626
791.088	0.0163699
791.166	0.0165416
791.244	0.0164251
791.322	0.0163564
791.401	0.0165111
791.479	0.0164382
791.557	0.0164732
791.635	0.0163631
791.713	0.0165135
791.791	0.0163496
791.869	0.0163518
791.947	0.0163116
792.026	0.0163802
792.104	0.0165292
792.182	0.0162451
792.260	0.0162557
792.338	0.0162157
792.416	0.0162984
792.494	0.0163943
792.572	0.0163541
792.651	0.0160928
792.729	0.0162706
792.807	0.0164433
792.885	0.0163230
792.963	0.0165276
793.041	0.0163801
793.119	0.0165594
793.197	0.0165355
793.276	0.0166484
793.354	0.0166191
793.432	0.0166602
793.510	0.0167245
793.588	0.0167925
793.666	0.0165613
793.744	0.0166061
793.822	0.0166386
793.901	0.0166422
793.979	0.0165408
794.057	0.0163943
794.135	0.0163605
794.213	0.0163971
794.291	0.0161379
794.369	0.0162373
794.447	0.0161524
794.526	0.0161070
794.604	0.0162688
794.682	0.0160790
794.760	0.0161304
794.838	0.0160506
794.916	0.0161176
794.994	0.0161240
795.072	0.0161753
795.151	0.0160289
795.229	0.0163512
795.307	0.0162784
795.385	0.0162386
795.463	0.0163116
795.541	0.0163908
795.619	0.0164028
795.697	0.0164395
795.776	0.0165366
795.854	0.0164941
795.932	0.0165360
796.010	0.0165177
796.088	0.0168697
796.166	0.0169339
796.244	0.0169249
796.322	0.0168192
796.401	0.0168452
796.479	0.0169997
796.557	0.0168112
796.635	0.0169781
796.713	0.0169890
796.791	0.0168285
796.869	0.0168503
796.947	0.0168530
797.026	0.0167957
797.104	0.0166981
797.182	0.0168267
797.260	0.0167019
797.338	0.0167345
797.416	0.0167193
797.494	0.0167657
797.572	0.0164617
797.651	0.0165216
797.729	0.0167419
797.807	0.0165369
797.885	0.0165305
797.963	0.0165962
798.041	0.0165837
798.119	0.0165875
798.197	0.0165796
798.276	0.0166241
798.354	0.0164867
798.432	0.0167136
798.510	0.0166663
798.588	0.0167137
798.666	0.0165049
798.744	0.0164838
798.822	0.0166241
798.901	0.0165783
798.979	0.0164686
799.057	0.0164701
799.135	0.0165643
799.213	0.0166203
799.291	0.0165460
799.369	0.0165313
799.447	0.0165380
799.526	0.0166281
799.604	0.0166706
799.682	0.0167191
799.760	0.0167200
799.838	0.0167448
799.916	0.0167883
799.994	0.0166302
800.072	0.0168064
800.151	0.0167434
800.229	0.0169402
800.307	0.0167723
800.385	0.0167250
800.463	0.0167747
800.541	0.0168605
800.619	0.0168083
800.697	0.0167693
800.776	0.0168006
800.854	0.0168452
800.932	0.0166212
801.010	0.0166804
801.088	0.0166672
801.166	0.0167226
801.244	0.0166008
801.322	0.0166563
801.401	0.0167081
801.479	0.0165885
801.557	0.0167313
801.635	0.0166721
801.713	0.0167085
801.791	0.0167904
801.869	0.0168278
801.947	0.0166789
802.026	0.0166245
802.104	0.0167125
802.182	0.0165767
802.260	0.0164927
802.338	0.0165771
802.416	0.0166821
802.494	0.0166502
802.572	0.0165826
802.651	0.0165414
802.729	0.0166545
802.807	0.0166712
802.885	0.0165858
802.963	0.0165867
803.041	0.0166781
803.119	0.0165525
803.197	0.0166718
803.276	0.0165703
803.354	0.0165217
803.432	0.0167192
803.510	0.0164819
803.588	0.0165512
803.666	0.0164338
803.744	0.0165729
803.822	0.0164646
803.901	0.0163813
803.979	0.0163978
804.057	0.0162997
804.135	0.0163271
804.213	0.0163437
804.291	0.0162318
804.369	0.0164024
804.447	0.0161761
804.526	0.0163509
804.604	0.0162484
804.682	0.0162826
804.760	0.0163033
804.838	0.0162413
804.916	0.0162354
804.994	0.0161333
805.072	0.0163908
805.151	0.0162539
805.229	0.0163643
805.307	0.0163492
805.385	0.0163802
805.463	0.0165279
805.541	0.0165395
805.619	0.0163718
805.697	0.0163850
805.776	0.0166171
805.854	0.0167082
805.932	0.0165688
806.010	0.0166718
806.088	0.0166510
806.166	0.0165717
806.244	0.0166259
806.322	0.0166689
806.401	0.0164887
806.479	0.0166972
806.557	0.0166314
806.635	0.0167872
806.713	0.0167203
806.791	0.0166077
806.869	0.0167606
806.947	0.0165672
807.026	0.0164598
807.104	0.0166320
807.182	0.0166267
807.260	0.0164342
807.338	0.0164576
807.416	0.0165086
807.494	0.0163868
807.572	0.0164060
807.651	0.0163450
807.729	0.0165333
807.807	0.0165318
807.885	0.0165512
807.963	0.0164926
808.041	0.0163574
808.119	0.0165191
808.197	0.0165145
808.276	0.0164980
808.354	0.0163713
808.432	0.0164632
808.510	0.0163737
808.588	0.0163873
808.666	0.0164171
808.744	0.0164674
808.822	0.0165512
808.901	0.0165031
808.979	0.0163326
809.057	0.0164063
809.135	0.0166351
809.213	0.0167361
809.291	0.0166602
809.369	0.0168086
809.447	0.0169391
809.526	0.0169325
809.604	0.0168920
809.682	0.0168436
809.760	0.0170481
809.838	0.0170572
809.916	0.0169902
809.994	0.0170409
810.072	0.0169730
810.151	0.0169772
810.229	0.0169376
810.307	0.0168457
810.385	0.0168642
810.463	0.0169151
810.541	0.0168036
810.619	0.0167006
810.697	0.0167559
810.776	0.0166272
810.854	0.0166428
810.932	0.0167024
811.010	0.0165996
811.088	0.0165279
811.166	0.0166399
811.244	0.0165189
811.322	0.0163480
811.401	0.0164953
811.479	0.0165113
811.557	0.0165007
811.635	0.0163193
811.713	0.0164251
811.791	0.0164658
811.869	0.0164666
811.947	0.0166341
812.026	0.0165515
812.104	0.0165268
812.182	0.0166145
812.260	0.0165701
812.338	0.0168082
812.416	0.0167355
812.494	0.0167706
812.572	0.0167741
812.651	0.0167313
812.729	0.0167581
812.807	0.0167211
812.885	0.0168277
812.963	0.0168384
813.041	0.0169344
813.119	0.0167706
813.197	0.0168124
813.276	0.0168639
813.354	0.0168519
813.432	0.0169614
813.510	0.0167961
813.588	0.0168879
813.666	0.0169241
813.744	0.0168049
813.822	0.0169410
813.901	0.0169976
813.979	0.0169307
814.057	0.0169646
814.135	0.0169464
814.213	0.0168110
814.291	0.0168881
814.369	0.0170360
814.447	0.0169918
814.526	0.0170255
814.604	0.0168338
814.682	0.0168668
814.760	0.0167094
814.838	0.0167931
814.916	0.0169337
814.994	0.0168284
815.072	0.0168214
815.151	0.0166554
815.229	0.0166089
815.307	0.0168984
815.385	0.0167002
815.463	0.0167348
815.541	0.0166216
815.619	0.0166615
815.697	0.0167371
815.776	0.0166738
815.854	0.0166349
815.932	0.0165903
816.010	0.0165354
816.088	0.0165874
816.166	0.0166727
816.244	0.0165495
816.322	0.0165302
816.401	0.0166264
816.479	0.0167014
816.557	0.0164660
816.635	0.0164806
816.713	0.0165521
816.791	0.0164568
816.869	0.0165214
816.947	0.0166102
817.026	0.0165887
817.104	0.0165033
817.182	0.0165829
817.260	0.0165341
817.338	0.0164040
817.416	0.0163421
817.494	0.0164413
817.572	0.0165194
817.651	0.0164882
817.729	0.0163777
817.807	0.0164977
817.885	0.0163032
817.963	0.0163735
818.041	0.0164236
818.119	0.0163567
818.197	0.0164039
818.276	0.0165459
818.354	0.0165604
818.432	0.0165027
818.510	0.0166112
818.588	0.0166109
818.666	0.0163995
818.744	0.0166644
818.822	0.0164738
818.901	0.0165263
818.979	0.0166076
819.057	0.0165396
819.135	0.0164342
819.213	0.0164443
819.291	0.0164333
819.369	0.0165813
819.447	0.0164002
819.526	0.0164002
819.604	0.0164194
819.682	0.0163816
819.760	0.0164290
819.838	0.0165150
819.916	0.0164329
819.994	0.0163258
820.072	0.0163073
820.151	0.0163348
820.229	0.0163235
820.307	0.0164398
820.385	0.0165298
820.463	0.0163522
820.541	0.0164590
820.619	0.0164294
820.697	0.0163635
820.776	0.0164536
820.854	0.0166451
820.932	0.0164472
821.010	0.0164317
821.088	0.0164271
821.166	0.0165221
821.244	0.0166698
821.322	0.0167054
821.401	0.0167136
821.479	0.0166278
821.557	0.0166580
821.635	0.0168085
821.713	0.0166586
821.791	0.0166667
821.869	0.0167329
821.947	0.0165810
822.026	0.0166445
822.104	0.0165749
822.182	0.0167088
822.260	0.0166151
822.338	0.0164514
822.416	0.0164594
822.494	0.0163681
822.572	0.0163467
822.651	0.0165425
822.729	0.0164647
822.807	0.0164363
822.885	0.0165565
822.963	0.0164297
823.041	0.0164285
823.119	0.0165623
823.197	0.0165988
823.276	0.0164532
823.354	0.0165983
823.432	0.0167467
823.510	0.0167398
823.588	0.0166508
823.666	0.0166923
823.744	0.0166674
823.822	0.0168185
823.901	0.0167497
823.979	0.0168048
824.057	0.0166420
824.135	0.0167488
824.213	0.0167354
824.291	0.0166199
824.369	0.0166579
824.447	0.0166956
824.526	0.0167149
824.604	0.0166428
824.682	0.0166941
824.760	0.0167638
824.838	0.0165606
824.916	0.0165903
824.994	0.0166003
825.072	0.0165695
825.151	0.0164920
825.229	0.0164068
825.307	0.0163448
825.385	0.0165299
825.463	0.0163800
825.541	0.0163431
825.619	0.0162936
825.697	0.0162800
825.776	0.0161645
825.854	0.0164146
825.932	0.0162920
826.010	0.0163019
826.088	0.0163862
826.166	0.0163351
826.244	0.0163708
826.322	0.0165239
826.401	0.0165595
826.479	0.0165353
826.557	0.0165185
826.635	0.0165427
826.713	0.0166138
826.791	0.0164398
826.869	0.0167318
826.947	0.0165894
827.026	0.0167362
827.104	0.0167298
827.182	0.0166787
827.260	0.0167682
827.338	0.0167137
827.416	0.0167785
827.494	0.0166837
827.572	0.0167283
827.651	0.0166995
827.729	0.0167944
827.807	0.0168532
827.885	0.0167763
827.963	0.0168754
828.041	0.0166782
828.119	0.0168329
828.197	0.0169133
828.276	0.0167516
828.354	0.0167044
828.432	0.0167583
828.510	0.0168247
828.588	0.0167941
828.666	0.0166890
828.744	0.0166460
828.822	0.0166711
828.901	0.0167635
828.979	0.0165432
829.057	0.0164796
829.135	0.0164389
829.213	0.0164176
829.291	0.0164540
829.369	0.0164322
829.447	0.0164457
829.526	0.0164198
829.604	0.0164760
829.682	0.0164281
829.760	0.0163848
829.838	0.0166449
829.916	0.0164388
829.994	0.0164988
830.072	0.0166173
830.151	0.0166000
830.229	0.0167204
830.307	0.0167583
830.385	0.0167866
830.463	0.0168148
830.541	0.0166631
830.619	0.0167733
830.697	0.0169402
830.776	0.0168521
830.854	0.0168899
830.932	0.0168095
831.010	0.0167915
831.088	0.0168519
831.166	0.0168452
831.244	0.0167736
831.322	0.0167091
831.401	0.0167342
831.479	0.0167857
831.557	0.0167414
831.635	0.0167493
831.713	0.0166423
831.791	0.0165611
831.869	0.0167792
831.947	0.0167156
832.026	0.0165352
832.104	0.0165509
832.182	0.0166504
832.260	0.0166171
832.338	0.0167318
832.416	0.0165720
832.494	0.0165601
832.572	0.0166714
832.651	0.0165787
832.729	0.0164837
832.807	0.0165875
832.885	0.0165911
832.963	0.0166486
833.041	0.0165988
833.119	0.0165623
833.197	0.0165223
833.276	0.0165749
833.354	0.0165536
833.432	0.0166071
833.510	0.0164745
833.588	0.0164512
833.666	0.0164848
833.744	0.0165150
833.822	0.0165517
833.901	0.0164611
833.979	0.0165912
834.057	0.0165586
834.135	0.0165515
834.213	0.0164961
834.291	0.0165118
834.369	0.0164203
834.447	0.0164841
834.526	0.0165154
834.604	0.0166125
834.682	0.0165520
834.760	0.0165531
834.838	0.0165075
834.916	0.0165494
834.994	0.0165327
835.072	0.0163703
835.151	0.0166290
835.229	0.0165657
835.307	0.0165641
835.385	0.0166024
835.463	0.0166055
835.541	0.0165408
835.619	0.0165870
835.697	0.0164233
835.776	0.0164172
835.854	0.0164445
835.932	0.0164381
836.010	0.0165523
836.088	0.0166544
836.166	0.0165899
836.244	0.0165758
836.322	0.0165244
836.401	0.0166864
836.479	0.0165802
836.557	0.0167591
836.635	0.0166151
836.713	0.0166082
836.791	0.0166003
836.869	0.0165937
836.947	0.0167731
837.026	0.0167975
837.104	0.0166232
837.182	0.0165894
837.260	0.0166817
837.338	0.0166340
837.416	0.0166698
837.494	0.0168343
837.572	0.0166845
837.651	0.0166360
837.729	0.0167692
837.807	0.0167000
837.885	0.0167348
837.963	0.0167726
838.041	0.0169851
838.119	0.0167806
838.197	0.0167404
838.276	0.0169166
838.354	0.0168993
838.432	0.0167610
838.510	0.0169230
838.588	0.0169048
838.666	0.0168206
838.744	0.0167379
838.822	0.0168029
838.901	0.0168734
838.979	0.0168607
839.057	0.0168471
839.135	0.0167649
839.213	0.0169639
839.291	0.0167999
839.369	0.0167445
839.447	0.0168453
839.526	0.0166477
839.604	0.0165718
839.682	0.0168115
839.760	0.0167347
839.838	0.0166546
839.916	0.0166241
839.994	0.0167894
840.072	0.0165566
840.151	0.0165862
840.229	0.0166898
840.307	0.0166457
840.385	0.0167339
840.463	0.0166259
840.541	0.0165956
840.619	0.0165862
840.697	0.0166369
840.776	0.0165967
840.854	0.0166381
840.932	0.0166888
841.010	0.0167417
841.088	0.0167219
841.166	0.0166347
841.244	0.0167050
841.322	0.0168266
841.401	0.0167397
841.479	0.0166721
841.557	0.0168319
841.635	0.0167673
841.713	0.0167020
841.791	0.0166972
841.869	0.0167974
841.947	0.0169003
842.026	0.0168970
842.104	0.0168371
842.182	0.0167408
842.260	0.0167587
842.338	0.0167322
842.416	0.0167890
842.494	0.0167802
842.572	0.0166031
842.651	0.0165543
842.729	0.0165664
842.807	0.0165432
842.885	0.0165813
842.963	0.0163409
843.041	0.0164455
843.119	0.0162656
843.197	0.0162731
843.276	0.0162850
843.354	0.0161386
843.432	0.0162682
843.510	0.0161697
843.588	0.0162300
843.666	0.0161604
843.744	0.0161656
843.822	0.0162511
843.901	0.0162776
843.979	0.0162285
844.057	0.0161359
844.135	0.0162281
844.213	0.0162462
844.291	0.0163349
844.369	0.0162299
844.447	0.0161864
844.526	0.0162824
844.604	0.0163429
844.682	0.0163917
844.760	0.0163056
844.838	0.0163309
844.916	0.0165446
844.994	0.0163737
845.072	0.0164275
845.151	0.0163496
845.229	0.0164101
845.307	0.0163953
845.385	0.0163271
845.463	0.0164076
845.541	0.0164354
845.619	0.0163777
845.697	0.0163979
845.776	0.0163660
845.854	0.0164117
845.932	0.0165398
846.010	0.0164361
846.088	0.0165230
846.166	0.0165646
846.244	0.0164009
846.322	0.0165949
846.401	0.0165796
846.479	0.0166106
846.557	0.0166666
846.635	0.0164503
846.713	0.0164407
846.791	0.0165166
846.869	0.0165225
846.947	0.0165282
847.026	0.0165564
847.104	0.0164744
847.182	0.0165018
847.260	0.0165094
847.338	0.0165238
847.416	0.0165628
847.494	0.0164812
847.572	0.0164088
847.651	0.0165517
847.729	0.0165348
847.807	0.0165089
847.885	0.0163365
847.963	0.0164223
848.041	0.0166814
848.119	0.0163670
848.197	0.0163899
848.276	0.0164919
848.354	0.0165648
848.432	0.0164851
848.510	0.0166481
848.588	0.0168732
848.666	0.0167120
848.744	0.0167058
848.822	0.0166930
848.901	0.0168063
848.979	0.0168078
849.057	0.0166739
849.135	0.0166620
849.213	0.0166839
849.291	0.0166103
849.369	0.0167154
849.447	0.0165917
849.526	0.0166009
849.604	0.0166154
849.682	0.0165087
849.760	0.0163734
849.838	0.0165450
849.916	0.0164630
849.994	0.0164698
850.072	0.0165831
850.151	0.0164786
850.229	0.0163877
850.307	0.0164449
850.385	0.0164874
850.463	0.0164683
850.541	0.0163717
850.619	0.0162973
850.697	0.0164455
850.776	0.0163307
850.854	0.0164304
850.932	0.0163875
851.010	0.0163261
851.088	0.0163042
851.166	0.0163702
851.244	0.0164597
851.322	0.0163454
851.401	0.0163444
851.479	0.0161690
851.557	0.0162081
851.635	0.0161694
851.713	0.0162234
851.791	0.0162168
851.869	0.0163180
851.947	0.0163393
852.026	0.0161597
852.104	0.0163366
852.182	0.0162029
852.260	0.0163635
852.338	0.0163582
852.416	0.0163943
852.494	0.0163353
852.572	0.0164585
852.651	0.0165533
852.729	0.0166644
852.807	0.0164570
852.885	0.0165338
852.963	0.0165909
853.041	0.0166902
853.119	0.0166915
853.197	0.0165484
853.276	0.0165907
853.354	0.0166006
853.432	0.0166457
853.510	0.0166235
853.588	0.0166551
853.666	0.0166003
853.744	0.0166358
853.822	0.0166746
853.901	0.0166325
853.979	0.0166936
854.057	0.0166531
854.135	0.0167022
854.213	0.0164354
854.291	0.0166328
854.369	0.0166096
854.447	0.0166254
854.526	0.0165647
854.604	0.0165985
854.682	0.0167752
854.760	0.0165938
854.838	0.0166145
854.916	0.0164889
854.994	0.0165843
855.072	0.0165759
855.151	0.0164333
855.229	0.0165032
855.307	0.0164404
855.385	0.0165240
855.463	0.0164384
855.541	0.0163380
855.619	0.0164442
855.697	0.0164451
855.776	0.0163474
855.854	0.0164796
855.932	0.0164236
856.010	0.0163127
856.088	0.0163725
856.166	0.0164213
856.244	0.0162124
856.322	0.0162572
856.401	0.0164559
856.479	0.0163738
856.557	0.0164368
856.635	0.0163148
856.713	0.0163460
856.791	0.0163630
856.869	0.0164624
856.947	0.0164655
857.026	0.0163253
857.104	0.0164534
857.182	0.0163949
857.260	0.0163685
857.338	0.0165265
857.416	0.0165228
857.494	0.0165162
857.572	0.0164877
857.651	0.0164148
857.729	0.0163416
857.807	0.0163532
857.885	0.0163359
857.963	0.0163126
858.041	0.0163931
858.119	0.0164355
858.197	0.0164930
858.276	0.0163335
858.354	0.0164790
858.432	0.0165047
858.510	0.0164698
858.588	0.0163760
858.666	0.0165604
858.744	0.0165675
858.822	0.0166574
858.901	0.0166878
858.979	0.0166467
859.057	0.0167147
859.135	0.0167635
859.213	0.0166768
859.291	0.0168047
859.369	0.0168243
859.447	0.0167571
859.526	0.0168193
859.604	0.0168101
859.682	0.0168749
859.760	0.0168097
859.838	0.0167915
859.916	0.0168217
859.994	0.0168105
860.072	0.0168033
860.151	0.0168899
860.229	0.0168645
860.307	0.0168188
860.385	0.0168192
860.463	0.0168554
860.541	0.0168365
860.619	0.0168957
860.697	0.0168101
860.776	0.0167548
860.854	0.0168948
860.932	0.0169630
861.010	0.0168549
861.088	0.0167162
861.166	0.0168760
861.244	0.0168635
861.322	0.0168536
861.401	0.0167848
861.479	0.0167865
861.557	0.0167528
861.635	0.0167580
861.713	0.0165829
861.791	0.0166072
861.869	0.0166398
861.947	0.0165229
862.026	0.0166360
862.104	0.0165500
862.182	0.0164681
862.260	0.0164507
862.338	0.0165789
862.416	0.0163848
862.494	0.0165869
862.572	0.0164843
862.651	0.0164211
862.729	0.0164079
862.807	0.0164194
862.885	0.0163822
862.963	0.0163469
863.041	0.0164906
863.119	0.0164775
863.197	0.0164568
863.276	0.0164667
863.354	0.0165376
863.432	0.0164742
863.510	0.0163569
863.588	0.0164903
863.666	0.0164645
863.744	0.0164330
863.822	0.0163709
863.901	0.0163963
863.979	0.0164623
864.057	0.0162405
864.135	0.0162343
864.213	0.0162242
864.291	0.0163181
864.369	0.0163164
864.447	0.0161983
864.526	0.0162701
864.604	0.0161906
864.682	0.0162827
864.760	0.0162347
864.838	0.0162385
864.916	0.0162059
864.994	0.0162045
865.072	0.0161674
865.151	0.0161844
865.229	0.0161890
865.307	0.0163515
865.385	0.0163046
865.463	0.0162308
865.541	0.0163303
865.619	0.0164919
865.697	0.0162747
865.776	0.0164754
865.854	0.0165060
865.932	0.0164324
866.010	0.0164548
866.088	0.0165484
866.166	0.0166271
866.244	0.0165932
866.322	0.0166300
866.401	0.0166469
866.479	0.0165108
866.557	0.0165041
866.635	0.0165197
866.713	0.0166681
866.791	0.0167333
866.869	0.0167461
866.947	0.0167140
867.026	0.0166112
867.104	0.0167719
867.182	0.0166262
867.260	0.0165679
867.338	0.0166808
867.416	0.0164512
867.494	0.0166689
867.572	0.0167097
867.651	0.0165380
867.729	0.0164108
867.807	0.0166079
867.885	0.0166026
867.963	0.0165668
868.041	0.0165701
868.119	0.0165086
868.197	0.0164754
868.276	0.0165855
868.354	0.0167017
868.432	0.0166266
868.510	0.0164862
868.588	0.0165544
868.666	0.0165258
868.744	0.0163811
868.822	0.0164610
868.901	0.0164384
868.979	0.0164652
869.057	0.0163912
869.135	0.0164301
869.213	0.0164304
869.291	0.0163113
869.369	0.0162487
869.447	0.0164233
869.526	0.0164484
869.604	0.0164011
869.682	0.0165685
869.760	0.0163591
869.838	0.0164621
869.916	0.0165881
869.994	0.0165090
870.072	0.0166362
870.151	0.0166270
870.229	0.0166079
870.307	0.0164918
870.385	0.0166055
870.463	0.0167046
870.541	0.0166515
870.619	0.0167580
870.697	0.0165520
870.776	0.0167520
870.854	0.0166885
870.932	0.0167033
871.010	0.0167229
871.088	0.0168088
871.166	0.0168035
871.244	0.0168082
871.322	0.0168218
871.401	0.0167517
871.479	0.0170148
871.557	0.0167311
871.635	0.0169971
871.713	0.0170137
871.791	0.0168520
871.869	0.0168666
871.947	0.0168414
872.026	0.0168261
872.104	0.0167616
872.182	0.0168865
872.260	0.0169467
872.338	0.0167400
872.416	0.0167271
872.494	0.0168138
872.572	0.0167147
872.651	0.0167488
872.729	0.0167089
872.807	0.0165559
872.885	0.0167123
872.963	0.0167757
873.041	0.0167387
873.119	0.0166505
873.197	0.0166950
873.276	0.0165376
873.354	0.0165826
873.432	0.0165363
873.510	0.0164019
873.588	0.0163516
873.666	0.0164684
873.744	0.0165929
873.822	0.0166423
873.901	0.0165321
873.979	0.0164383
874.057	0.0164602
874.135	0.0165129
874.213	0.0163657
874.291	0.0165601
874.369	0.0164526
874.447	0.0164034
874.526	0.0164900
874.604	0.0163597
874.682	0.0163750
874.760	0.0164630
874.838	0.0163058
874.916	0.0163590
874.994	0.0163040
875.072	0.0163113
875.151	0.0163612
875.229	0.0163146
875.307	0.0163210
875.385	0.0163947
875.463	0.0163835
875.541	0.0164438
875.619	0.0163252
875.697	0.0162167
875.776	0.0162460
875.854	0.0163910
875.932	0.0163713
876.010	0.0163197
876.088	0.0163498
876.166	0.0163135
876.244	0.0164183
876.322	0.0164815
876.401	0.0163846
876.479	0.0162897
876.557	0.0163670
876.635	0.0163490
876.713	0.0163599
876.791	0.0165283
876.869	0.0165504
876.947	0.0164564
877.026	0.0164188
877.104	0.0165083
877.182	0.0165601
877.260	0.0165639
877.338	0.0166616
877.416	0.0165743
877.494	0.0165624
877.572	0.0164294
877.651	0.0165139
877.729	0.0165328
877.807	0.0165387
877.885	0.0164265
877.963	0.0166235
878.041	0.0165473
878.119	0.0165837
878.197	0.0166090
878.276	0.0165714
878.354	0.0165251
878.432	0.0164142
878.510	0.0166431
878.588	0.0166022
878.666	0.0165540
878.744	0.0164651
878.822	0.0166934
878.901	0.0166595
878.979	0.0166317
879.057	0.0167402
879.135	0.0165995
879.213	0.0166034
879.291	0.0166378
879.369	0.0167132
879.447	0.0165739
879.526	0.0166445
879.604	0.0166444
879.682	0.0165636
879.760	0.0166827
879.838	0.0167155
879.916	0.0165171
879.994	0.0166370
880.072	0.0165854
880.151	0.0166311
880.229	0.0167203
880.307	0.0165952
880.385	0.0167802
880.463	0.0166135
880.541	0.0165768
880.619	0.0167100
880.697	0.0166483
880.776	0.0166499
880.854	0.0165417
880.932	0.0166610
881.010	0.0167257
881.088	0.0166685
881.166	0.0165450
881.244	0.0164957
881.322	0.0164880
881.401	0.0166216
881.479	0.0165902
881.557	0.0166901
881.635	0.0165343
881.713	0.0164738
881.791	0.0166061
881.869	0.0165778
881.947	0.0166111
882.026	0.0166363
882.104	0.0166686
882.182	0.0166752
882.260	0.0167020
882.338	0.0166582
882.416	0.0167587
882.494	0.0167093
882.572	0.0166781
882.651	0.0168253
882.729	0.0167188
882.807	0.0166787
882.885	0.0166854
882.963	0.0167637
883.041	0.0166949
883.119	0.0168756
883.197	0.0167168
883.276	0.0168501
883.354	0.0167117
883.432	0.0168349
883.510	0.0166602
883.588	0.0167527
883.666	0.0167567
883.744	0.0167455
883.822	0.0167059
883.901	0.0167814
883.979	0.0166068
884.057	0.0166993
884.135	0.0166119
884.213	0.0165769
884.291	0.0166071
884.369	0.0167529
884.447	0.0165770
884.526	0.0166404
884.604	0.0167064
884.682	0.0166773
884.760	0.0167358
884.838	0.0166452
884.916	0.0167371
884.994	0.0166026
885.072	0.0168152
885.151	0.0168183
885.229	0.0168275
885.307	0.0168487
885.385	0.0168404
885.463	0.0167077
885.541	0.0168707
885.619	0.0167625
885.697	0.0165980
885.776	0.0167186
885.854	0.0167083
885.932	0.0168293
886.010	0.0167001
886.088	0.0167778
886.166	0.0165849
886.244	0.0165137
886.322	0.0164175
886.401	0.0165981
886.479	0.0165499
886.557	0.0164580
886.635	0.0165170
886.713	0.0165198
886.791	0.0163790
886.869	0.0163754
886.947	0.0162143
887.026	0.0160975
887.104	0.0162621
887.182	0.0162226
887.260	0.0161050
887.338	0.0161122
887.416	0.0162181
887.494	0.0161629
887.572	0.0161189
887.651	0.0160893
887.729	0.0161160
887.807	0.0160863
887.885	0.0162318
887.963	0.0161822
888.041	0.0161424
888.119	0.0163994
888.197	0.0162486
888.276	0.0161005
888.354	0.0162287
888.432	0.0160927
888.510	0.0161764
888.588	0.0162096
888.666	0.0163873
888.744	0.0163602
888.822	0.0163242
888.901	0.0164729
888.979	0.0164547
889.057	0.0162888
889.135	0.0163575
889.213	0.0165493
889.291	0.0165538
889.369	0.0165273
889.447	0.0166763
889.526	0.0165517
889.604	0.0166628
889.682	0.0164240
889.760	0.0164937
889.838	0.0165983
889.916	0.0165726
