06/03/2022	15:29:15	Ver.	4.1	UNKNOWN
Optical Delay	550.020508	Delta X		0.078125	Sweeps	1	Scan Rate	0/0
Coordinates	Axis 1	NaN	Axis 2	NaN	Axis 3	NaN	Axis 4	NaN	Axis 5	NaN	Axis 6	0.000000
TX Power	0.000000	RX Power	0.000000

550.021	0.0171779
550.099	0.0171259
550.177	0.0172118
550.255	0.0172785
550.333	0.0172291
550.411	0.0170670
550.489	0.0172655
550.567	0.0170885
550.646	0.0171331
550.724	0.0171671
550.802	0.0172079
550.880	0.0169661
550.958	0.0171747
551.036	0.0172263
551.114	0.0170191
551.192	0.0171584
551.271	0.0171054
551.349	0.0170683
551.427	0.0171670
551.505	0.0172144
551.583	0.0172188
551.661	0.0171777
551.739	0.0171597
551.817	0.0172757
551.896	0.0171459
551.974	0.0172289
552.052	0.0172282
552.130	0.0171708
552.208	0.0171590
552.286	0.0173848
552.364	0.0170930
552.442	0.0171626
552.521	0.0172872
552.599	0.0171400
552.677	0.0171265
552.755	0.0173163
552.833	0.0173239
552.911	0.0172437
552.989	0.0171629
553.067	0.0172071
553.146	0.0171697
553.224	0.0171458
553.302	0.0171526
553.380	0.0170877
553.458	0.0171509
553.536	0.0172437
553.614	0.0172240
553.692	0.0171864
553.771	0.0171738
553.849	0.0170415
553.927	0.0171393
554.005	0.0171468
554.083	0.0170624
554.161	0.0171680
554.239	0.0171553
554.317	0.0172789
554.396	0.0171684
554.474	0.0171485
554.552	0.0171935
554.630	0.0171109
554.708	0.0171737
554.786	0.0170267
554.864	0.0171928
554.942	0.0171664
555.021	0.0170057
555.099	0.0171001
555.177	0.0170956
555.255	0.0170867
555.333	0.0171312
555.411	0.0171111
555.489	0.0170649
555.567	0.0171005
555.646	0.0172616
555.724	0.0171668
555.802	0.0171732
555.880	0.0172042
555.958	0.0171596
556.036	0.0171558
556.114	0.0171667
556.192	0.0172422
556.271	0.0172461
556.349	0.0171582
556.427	0.0171060
556.505	0.0171883
556.583	0.0172446
556.661	0.0171569
556.739	0.0171956
556.817	0.0172034
556.896	0.0172460
556.974	0.0173605
557.052	0.0172383
557.130	0.0170677
557.208	0.0171642
557.286	0.0170462
557.364	0.0172498
557.442	0.0172131
557.521	0.0170854
557.599	0.0171123
557.677	0.0171558
557.755	0.0171160
557.833	0.0171915
557.911	0.0172389
557.989	0.0171445
558.067	0.0170797
558.146	0.0172630
558.224	0.0171253
558.302	0.0171013
558.380	0.0172311
558.458	0.0172909
558.536	0.0172259
558.614	0.0170794
558.692	0.0173010
558.771	0.0172549
558.849	0.0172517
558.927	0.0171146
559.005	0.0170361
559.083	0.0172146
559.161	0.0171762
559.239	0.0172495
559.317	0.0170989
559.396	0.0171075
559.474	0.0172754
559.552	0.0171643
559.630	0.0170874
559.708	0.0171301
559.786	0.0172321
559.864	0.0171407
559.942	0.0172521
560.021	0.0172620
560.099	0.0170831
560.177	0.0171359
560.255	0.0170097
560.333	0.0172272
560.411	0.0171940
560.489	0.0171622
560.567	0.0172007
560.646	0.0171751
560.724	0.0171877
560.802	0.0171270
560.880	0.0170570
560.958	0.0172216
561.036	0.0172251
561.114	0.0172948
561.192	0.0172360
561.271	0.0172588
561.349	0.0171546
561.427	0.0170851
561.505	0.0171206
561.583	0.0171764
561.661	0.0172633
561.739	0.0170559
561.817	0.0170755
561.896	0.0171693
561.974	0.0172713
562.052	0.0172130
562.130	0.0171058
562.208	0.0170669
562.286	0.0171567
562.364	0.0172495
562.442	0.0172816
562.521	0.0171785
562.599	0.0172009
562.677	0.0171734
562.755	0.0171041
562.833	0.0171547
562.911	0.0172086
562.989	0.0171491
563.067	0.0171736
563.146	0.0171626
563.224	0.0173179
563.302	0.0170525
563.380	0.0171061
563.458	0.0171795
563.536	0.0171577
563.614	0.0171370
563.692	0.0170992
563.771	0.0171606
563.849	0.0172489
563.927	0.0170682
564.005	0.0171381
564.083	0.0171405
564.161	0.0172185
564.239	0.0171014
564.317	0.0170739
564.396	0.0172312
564.474	0.0171617
564.552	0.0172150
564.630	0.0171635
564.708	0.0170600
564.786	0.0171826
564.864	0.0171066
564.942	0.0170930
565.021	0.0172630
565.099	0.0172605
565.177	0.0171036
565.255	0.0172186
565.333	0.0171634
565.411	0.0170267
565.489	0.0170313
565.567	0.0172507
565.646	0.0171207
565.724	0.0171956
565.802	0.0170221
565.880	0.0170203
565.958	0.0172509
566.036	0.0172070
566.114	0.0172194
566.192	0.0171358
566.271	0.0171001
566.349	0.0172712
566.427	0.0171794
566.505	0.0170644
566.583	0.0171566
566.661	0.0170864
566.739	0.0171403
566.817	0.0170982
566.896	0.0171215
566.974	0.0170744
567.052	0.0171188
567.130	0.0171353
567.208	0.0172279
567.286	0.0171748
567.364	0.0171013
567.442	0.0171059
567.521	0.0171425
567.599	0.0171712
567.677	0.0171618
567.755	0.0172947
567.833	0.0172689
567.911	0.0172321
567.989	0.0172203
568.067	0.0170070
568.146	0.0172501
568.224	0.0171695
568.302	0.0172929
568.380	0.0170982
568.458	0.0170865
568.536	0.0171024
568.614	0.0171279
568.692	0.0171967
568.771	0.0172552
568.849	0.0171511
568.927	0.0170908
569.005	0.0171919
569.083	0.0171804
569.161	0.0172328
569.239	0.0171622
569.317	0.0171008
569.396	0.0171591
569.474	0.0172528
569.552	0.0173684
569.630	0.0172044
569.708	0.0173018
569.786	0.0170608
569.864	0.0172514
569.942	0.0171368
570.021	0.0171838
570.099	0.0173519
570.177	0.0171443
570.255	0.0171246
570.333	0.0171281
570.411	0.0171674
570.489	0.0171255
570.567	0.0172451
570.646	0.0172092
570.724	0.0172298
570.802	0.0170346
570.880	0.0171727
570.958	0.0173560
571.036	0.0171657
571.114	0.0172169
571.192	0.0171832
571.271	0.0172276
571.349	0.0171249
571.427	0.0171783
571.505	0.0172989
571.583	0.0172348
571.661	0.0171531
571.739	0.0172010
571.817	0.0170988
571.896	0.0172134
571.974	0.0171676
572.052	0.0172389
572.130	0.0171423
572.208	0.0172303
572.286	0.0171174
572.364	0.0169972
572.442	0.0171967
572.521	0.0172136
572.599	0.0172562
572.677	0.0171394
572.755	0.0171295
572.833	0.0172498
572.911	0.0171640
572.989	0.0171035
573.067	0.0171584
573.146	0.0172628
573.224	0.0172186
573.302	0.0171056
573.380	0.0172260
573.458	0.0171882
573.536	0.0172081
573.614	0.0171368
573.692	0.0170888
573.771	0.0171274
573.849	0.0171753
573.927	0.0170263
574.005	0.0172554
574.083	0.0171459
574.161	0.0171117
574.239	0.0173064
574.317	0.0170911
574.396	0.0170860
574.474	0.0171221
574.552	0.0171654
574.630	0.0171939
574.708	0.0170177
574.786	0.0171177
574.864	0.0172643
574.942	0.0171813
575.021	0.0172343
575.099	0.0172008
575.177	0.0170692
575.255	0.0171780
575.333	0.0171172
575.411	0.0172644
575.489	0.0172437
575.567	0.0171944
575.646	0.0172326
575.724	0.0171578
575.802	0.0171877
575.880	0.0171756
575.958	0.0171609
576.036	0.0171928
576.114	0.0172082
576.192	0.0171094
576.271	0.0171396
576.349	0.0172441
576.427	0.0169698
576.505	0.0172285
576.583	0.0172207
576.661	0.0171592
576.739	0.0171342
576.817	0.0173080
576.896	0.0173220
576.974	0.0171597
577.052	0.0171003
577.130	0.0172357
577.208	0.0171429
577.286	0.0172105
577.364	0.0172340
577.442	0.0171651
577.521	0.0173037
577.599	0.0170976
577.677	0.0171346
577.755	0.0170560
577.833	0.0172734
577.911	0.0171949
577.989	0.0170528
578.067	0.0171676
578.146	0.0171375
578.224	0.0171497
578.302	0.0172535
578.380	0.0172280
578.458	0.0171998
578.536	0.0172371
578.614	0.0170503
578.692	0.0171761
578.771	0.0172578
578.849	0.0171539
578.927	0.0172681
579.005	0.0171510
579.083	0.0170736
579.161	0.0171567
579.239	0.0171272
579.317	0.0171532
579.396	0.0171949
579.474	0.0172343
579.552	0.0172160
579.630	0.0172007
579.708	0.0171798
579.786	0.0171488
579.864	0.0171443
579.942	0.0171428
580.021	0.0171842
580.099	0.0171306
580.177	0.0172588
580.255	0.0172977
580.333	0.0172278
580.411	0.0171451
580.489	0.0172142
580.567	0.0171600
580.646	0.0171128
580.724	0.0172054
580.802	0.0171478
580.880	0.0171513
580.958	0.0171510
581.036	0.0171929
581.114	0.0171903
581.192	0.0172619
581.271	0.0171828
581.349	0.0171552
581.427	0.0172285
581.505	0.0172775
581.583	0.0171673
581.661	0.0170628
581.739	0.0171516
581.817	0.0171981
581.896	0.0171771
581.974	0.0173654
582.052	0.0171989
582.130	0.0172157
582.208	0.0171943
582.286	0.0171977
582.364	0.0171271
582.442	0.0170457
582.521	0.0170799
582.599	0.0172771
582.677	0.0172076
582.755	0.0171016
582.833	0.0171167
582.911	0.0172624
582.989	0.0171482
583.067	0.0171097
583.146	0.0172988
583.224	0.0172130
583.302	0.0171228
583.380	0.0172115
583.458	0.0172836
583.536	0.0172535
583.614	0.0172343
583.692	0.0171902
583.771	0.0171313
583.849	0.0171679
583.927	0.0172559
584.005	0.0172813
584.083	0.0172312
584.161	0.0171514
584.239	0.0170966
584.317	0.0170348
584.396	0.0170866
584.474	0.0172211
584.552	0.0170662
584.630	0.0171001
584.708	0.0172093
584.786	0.0172539
584.864	0.0172097
584.942	0.0170816
585.021	0.0172859
585.099	0.0172659
585.177	0.0172061
585.255	0.0172747
585.333	0.0172109
585.411	0.0171075
585.489	0.0170793
585.567	0.0172324
585.646	0.0171065
585.724	0.0170796
585.802	0.0171525
585.880	0.0171774
585.958	0.0172190
586.036	0.0171758
586.114	0.0169914
586.192	0.0171128
586.271	0.0172340
586.349	0.0170528
586.427	0.0171758
586.505	0.0173029
586.583	0.0171117
586.661	0.0172284
586.739	0.0171345
586.817	0.0170336
586.896	0.0170936
586.974	0.0172250
587.052	0.0171624
587.130	0.0171204
587.208	0.0171526
587.286	0.0172238
587.364	0.0171525
587.442	0.0171489
587.521	0.0171780
587.599	0.0171953
587.677	0.0170569
587.755	0.0172087
587.833	0.0171606
587.911	0.0171329
587.989	0.0171670
588.067	0.0171772
588.146	0.0172055
588.224	0.0171658
588.302	0.0172753
588.380	0.0172087
588.458	0.0171178
588.536	0.0170895
588.614	0.0171591
588.692	0.0172898
588.771	0.0172786
588.849	0.0172083
588.927	0.0172663
589.005	0.0171668
589.083	0.0171980
589.161	0.0172722
589.239	0.0171852
589.317	0.0171118
589.396	0.0171140
589.474	0.0171696
589.552	0.0173662
589.630	0.0172778
589.708	0.0171531
589.786	0.0170966
589.864	0.0171994
589.942	0.0170864
590.021	0.0171049
590.099	0.0172709
590.177	0.0172044
590.255	0.0171904
590.333	0.0172012
590.411	0.0172298
590.489	0.0171622
590.567	0.0171984
590.646	0.0172513
590.724	0.0171847
590.802	0.0171747
590.880	0.0171194
590.958	0.0171714
591.036	0.0171667
591.114	0.0172686
591.192	0.0171658
591.271	0.0170184
591.349	0.0171649
591.427	0.0171502
591.505	0.0171771
591.583	0.0170724
591.661	0.0172065
591.739	0.0171878
591.817	0.0170974
591.896	0.0172095
591.974	0.0170978
592.052	0.0171677
592.130	0.0171070
592.208	0.0171442
592.286	0.0172832
592.364	0.0171767
592.442	0.0173417
592.521	0.0170580
592.599	0.0171402
592.677	0.0170454
592.755	0.0172465
592.833	0.0171909
592.911	0.0172330
592.989	0.0171308
593.067	0.0170750
593.146	0.0171453
593.224	0.0172303
593.302	0.0173087
593.380	0.0171889
593.458	0.0172024
593.536	0.0171543
593.614	0.0171024
593.692	0.0172202
593.771	0.0171232
593.849	0.0171629
593.927	0.0172033
594.005	0.0172610
594.083	0.0171777
594.161	0.0171877
594.239	0.0171754
594.317	0.0172324
594.396	0.0171085
594.474	0.0170355
594.552	0.0172568
594.630	0.0171801
594.708	0.0170667
594.786	0.0172257
594.864	0.0172134
594.942	0.0171064
595.021	0.0172104
595.099	0.0171838
595.177	0.0170747
595.255	0.0171616
595.333	0.0170235
595.411	0.0171458
595.489	0.0171979
595.567	0.0173098
595.646	0.0171212
595.724	0.0171291
595.802	0.0172094
595.880	0.0172043
595.958	0.0172153
596.036	0.0170547
596.114	0.0170690
596.192	0.0172388
596.271	0.0171813
596.349	0.0171586
596.427	0.0170976
596.505	0.0170821
596.583	0.0171455
596.661	0.0171962
596.739	0.0171184
596.817	0.0171525
596.896	0.0171622
596.974	0.0171729
597.052	0.0171637
597.130	0.0172903
597.208	0.0172787
597.286	0.0171736
597.364	0.0170233
597.442	0.0169961
597.521	0.0172008
597.599	0.0171584
597.677	0.0171384
597.755	0.0172334
597.833	0.0172270
597.911	0.0171522
597.989	0.0169564
598.067	0.0171838
598.146	0.0172018
598.224	0.0171903
598.302	0.0172272
598.380	0.0171502
598.458	0.0172167
598.536	0.0171877
598.614	0.0172180
598.692	0.0171426
598.771	0.0170749
598.849	0.0171449
598.927	0.0171693
599.005	0.0171356
599.083	0.0171034
599.161	0.0171442
599.239	0.0171684
599.317	0.0170796
599.396	0.0171790
599.474	0.0170553
599.552	0.0171263
599.630	0.0171289
599.708	0.0171950
599.786	0.0171664
599.864	0.0171578
599.942	0.0170868
600.021	0.0170738
600.099	0.0171934
600.177	0.0170862
600.255	0.0171738
600.333	0.0172305
600.411	0.0171770
600.489	0.0170283
600.567	0.0171088
600.646	0.0173033
600.724	0.0171786
600.802	0.0170087
600.880	0.0171815
600.958	0.0172273
601.036	0.0172005
601.114	0.0170607
601.192	0.0173194
601.271	0.0172604
601.349	0.0170467
601.427	0.0170329
601.505	0.0172018
601.583	0.0172021
601.661	0.0171703
601.739	0.0171779
601.817	0.0171825
601.896	0.0171693
601.974	0.0171826
602.052	0.0171604
602.130	0.0171242
602.208	0.0172032
602.286	0.0172881
602.364	0.0171993
602.442	0.0171829
602.521	0.0171304
602.599	0.0172624
602.677	0.0171785
602.755	0.0170952
602.833	0.0172871
602.911	0.0172771
602.989	0.0171940
603.067	0.0170926
603.146	0.0172409
603.224	0.0171806
603.302	0.0171046
603.380	0.0171698
603.458	0.0171242
603.536	0.0170853
603.614	0.0171441
603.692	0.0170991
603.771	0.0170515
603.849	0.0171263
603.927	0.0172003
604.005	0.0171518
604.083	0.0169971
604.161	0.0171841
604.239	0.0171478
604.317	0.0173592
604.396	0.0172329
604.474	0.0171106
604.552	0.0171398
604.630	0.0171592
604.708	0.0171574
604.786	0.0170889
604.864	0.0171205
604.942	0.0172099
605.021	0.0171194
605.099	0.0171712
605.177	0.0170096
605.255	0.0172815
605.333	0.0171992
605.411	0.0170972
605.489	0.0171734
605.567	0.0171932
605.646	0.0171874
605.724	0.0171677
605.802	0.0171429
605.880	0.0172234
605.958	0.0171000
606.036	0.0171314
606.114	0.0172335
606.192	0.0171720
606.271	0.0172301
606.349	0.0171971
606.427	0.0173104
606.505	0.0171368
606.583	0.0171731
606.661	0.0171620
606.739	0.0171565
606.817	0.0171964
606.896	0.0172247
606.974	0.0171289
607.052	0.0170857
607.130	0.0170968
607.208	0.0172285
607.286	0.0171435
607.364	0.0170790
607.442	0.0172805
607.521	0.0170407
607.599	0.0171977
607.677	0.0171494
607.755	0.0171684
607.833	0.0172446
607.911	0.0172321
607.989	0.0171445
608.067	0.0171198
608.146	0.0171378
608.224	0.0171627
608.302	0.0171218
608.380	0.0172634
608.458	0.0169643
608.536	0.0170918
608.614	0.0173435
608.692	0.0172072
608.771	0.0169944
608.849	0.0173360
608.927	0.0172206
609.005	0.0170881
609.083	0.0170990
609.161	0.0172747
609.239	0.0171632
609.317	0.0172574
609.396	0.0171091
609.474	0.0171504
609.552	0.0172124
609.630	0.0172045
609.708	0.0171490
609.786	0.0171380
609.864	0.0169876
609.942	0.0171931
610.021	0.0171560
610.099	0.0172044
610.177	0.0171899
610.255	0.0172501
610.333	0.0172012
610.411	0.0172014
610.489	0.0170820
610.567	0.0171371
610.646	0.0172070
610.724	0.0171211
610.802	0.0171414
610.880	0.0172137
610.958	0.0170549
611.036	0.0170192
611.114	0.0170603
611.192	0.0171887
611.271	0.0173419
611.349	0.0171470
611.427	0.0171424
611.505	0.0172485
611.583	0.0170942
611.661	0.0171795
611.739	0.0170755
611.817	0.0171333
611.896	0.0172968
611.974	0.0171342
612.052	0.0171858
612.130	0.0172839
612.208	0.0172038
612.286	0.0171390
612.364	0.0174083
612.442	0.0172406
612.521	0.0170819
612.599	0.0172079
612.677	0.0170934
612.755	0.0172621
612.833	0.0172384
612.911	0.0171384
612.989	0.0172371
613.067	0.0171726
613.146	0.0172120
613.224	0.0172086
613.302	0.0172064
613.380	0.0171649
613.458	0.0171616
613.536	0.0171598
613.614	0.0170921
613.692	0.0171571
613.771	0.0172658
613.849	0.0172574
613.927	0.0171438
614.005	0.0171898
614.083	0.0171871
614.161	0.0170805
614.239	0.0173028
614.317	0.0172935
614.396	0.0171721
614.474	0.0172195
614.552	0.0173302
614.630	0.0171575
614.708	0.0171620
614.786	0.0172282
614.864	0.0169667
614.942	0.0171657
615.021	0.0170856
615.099	0.0171529
615.177	0.0171106
615.255	0.0171828
615.333	0.0170689
615.411	0.0171881
615.489	0.0172913
615.567	0.0170712
615.646	0.0170667
615.724	0.0170580
615.802	0.0171300
615.880	0.0171147
615.958	0.0170789
616.036	0.0171186
616.114	0.0171269
616.192	0.0171268
616.271	0.0171317
616.349	0.0171425
616.427	0.0170869
616.505	0.0171143
616.583	0.0170898
616.661	0.0171223
616.739	0.0171327
616.817	0.0172558
616.896	0.0172263
616.974	0.0172390
617.052	0.0171035
617.130	0.0171288
617.208	0.0171429
617.286	0.0173244
617.364	0.0171825
617.442	0.0171363
617.521	0.0172015
617.599	0.0171488
617.677	0.0172615
617.755	0.0171062
617.833	0.0171681
617.911	0.0171568
617.989	0.0171708
618.067	0.0172346
618.146	0.0170398
618.224	0.0172005
618.302	0.0171824
618.380	0.0171126
618.458	0.0170677
618.536	0.0171896
618.614	0.0172797
618.692	0.0172475
618.771	0.0172105
618.849	0.0170699
618.927	0.0171768
619.005	0.0171571
619.083	0.0172038
619.161	0.0170340
619.239	0.0171906
619.317	0.0171613
619.396	0.0170667
619.474	0.0172334
619.552	0.0172548
619.630	0.0170869
619.708	0.0172263
619.786	0.0172785
619.864	0.0171493
619.942	0.0170491
620.021	0.0173211
620.099	0.0172108
620.177	0.0170638
620.255	0.0171556
620.333	0.0172709
620.411	0.0171708
620.489	0.0172021
620.567	0.0170199
620.646	0.0170863
620.724	0.0172176
620.802	0.0172982
620.880	0.0173285
620.958	0.0172838
621.036	0.0172797
621.114	0.0171411
621.192	0.0171159
621.271	0.0171893
621.349	0.0171515
621.427	0.0172737
621.505	0.0172890
621.583	0.0171543
621.661	0.0171275
621.739	0.0172110
621.817	0.0171655
621.896	0.0169895
621.974	0.0170549
622.052	0.0171525
622.130	0.0170107
622.208	0.0172717
622.286	0.0170300
622.364	0.0170938
622.442	0.0171230
622.521	0.0170751
622.599	0.0172003
622.677	0.0172253
622.755	0.0171110
622.833	0.0170512
622.911	0.0170857
622.989	0.0171927
623.067	0.0171641
623.146	0.0172380
623.224	0.0172208
623.302	0.0171477
623.380	0.0171775
623.458	0.0173061
623.536	0.0171748
623.614	0.0172072
623.692	0.0172725
623.771	0.0172476
623.849	0.0171209
623.927	0.0171943
624.005	0.0171769
624.083	0.0170422
624.161	0.0171687
624.239	0.0170572
624.317	0.0171594
624.396	0.0172328
624.474	0.0171288
624.552	0.0170586
624.630	0.0171395
624.708	0.0170395
624.786	0.0171730
624.864	0.0171588
624.942	0.0171699
625.021	0.0170488
625.099	0.0171278
625.177	0.0172358
625.255	0.0171676
625.333	0.0170205
625.411	0.0171040
625.489	0.0171719
625.567	0.0172115
625.646	0.0171183
625.724	0.0172616
625.802	0.0170892
625.880	0.0172208
625.958	0.0172813
626.036	0.0172800
626.114	0.0173304
626.192	0.0173154
626.271	0.0171164
626.349	0.0171826
626.427	0.0172252
626.505	0.0172346
626.583	0.0172616
626.661	0.0171591
626.739	0.0170886
626.817	0.0170966
626.896	0.0171915
626.974	0.0171236
627.052	0.0171793
627.130	0.0170869
627.208	0.0169059
627.286	0.0170337
627.364	0.0170486
627.442	0.0169940
627.521	0.0171265
627.599	0.0172014
627.677	0.0171937
627.755	0.0172132
627.833	0.0172693
627.911	0.0171300
627.989	0.0171966
628.067	0.0169928
628.146	0.0171934
628.224	0.0172984
628.302	0.0172491
628.380	0.0170751
628.458	0.0170567
628.536	0.0171479
628.614	0.0172559
628.692	0.0172028
628.771	0.0171755
628.849	0.0171645
628.927	0.0171774
629.005	0.0173694
629.083	0.0171082
629.161	0.0171267
629.239	0.0170775
629.317	0.0171372
629.396	0.0171695
629.474	0.0170189
629.552	0.0171556
629.630	0.0171201
629.708	0.0171889
629.786	0.0171606
629.864	0.0169872
629.942	0.0171616
630.021	0.0172587
630.099	0.0171355
630.177	0.0171726
630.255	0.0171481
630.333	0.0171635
630.411	0.0171760
630.489	0.0171769
630.567	0.0172001
630.646	0.0170737
630.724	0.0171596
630.802	0.0172163
630.880	0.0171440
630.958	0.0171941
631.036	0.0172260
631.114	0.0171479
631.192	0.0171278
631.271	0.0171317
631.349	0.0170754
631.427	0.0170995
631.505	0.0171724
631.583	0.0169781
631.661	0.0171902
631.739	0.0171455
631.817	0.0171249
631.896	0.0171668
631.974	0.0170683
632.052	0.0170629
632.130	0.0170616
632.208	0.0172207
632.286	0.0172147
632.364	0.0171513
632.442	0.0170676
632.521	0.0171197
632.599	0.0170157
632.677	0.0171680
632.755	0.0170635
632.833	0.0170840
632.911	0.0171898
632.989	0.0171797
633.067	0.0171533
633.146	0.0170665
633.224	0.0172372
633.302	0.0171539
633.380	0.0168969
633.458	0.0172017
633.536	0.0172578
633.614	0.0172028
633.692	0.0172253
633.771	0.0171393
633.849	0.0171478
633.927	0.0170458
634.005	0.0170181
634.083	0.0171670
634.161	0.0171610
634.239	0.0172220
634.317	0.0172630
634.396	0.0171465
634.474	0.0170756
634.552	0.0169913
634.630	0.0171214
634.708	0.0170918
634.786	0.0171903
634.864	0.0172748
634.942	0.0170735
635.021	0.0171775
635.099	0.0173192
635.177	0.0169922
635.255	0.0170443
635.333	0.0171623
635.411	0.0172159
635.489	0.0171072
635.567	0.0171815
635.646	0.0171750
635.724	0.0171962
635.802	0.0171091
635.880	0.0171314
635.958	0.0170569
636.036	0.0171162
636.114	0.0171208
636.192	0.0172125
636.271	0.0170544
636.349	0.0172469
636.427	0.0171439
636.505	0.0170576
636.583	0.0171432
636.661	0.0171582
636.739	0.0169517
636.817	0.0170951
636.896	0.0170740
636.974	0.0171824
637.052	0.0171533
637.130	0.0173116
637.208	0.0172473
637.286	0.0170670
637.364	0.0171783
637.442	0.0171639
637.521	0.0171896
637.599	0.0171838
637.677	0.0171623
637.755	0.0170400
637.833	0.0172452
637.911	0.0172443
637.989	0.0173000
638.067	0.0170640
638.146	0.0170589
638.224	0.0172218
638.302	0.0171639
638.380	0.0169682
638.458	0.0171836
638.536	0.0170953
638.614	0.0171585
638.692	0.0172292
638.771	0.0171508
638.849	0.0171139
638.927	0.0170750
639.005	0.0171616
639.083	0.0171545
639.161	0.0171777
639.239	0.0172021
639.317	0.0172705
639.396	0.0172259
639.474	0.0171047
639.552	0.0172395
639.630	0.0171548
639.708	0.0171486
639.786	0.0170889
639.864	0.0173010
639.942	0.0173586
640.021	0.0171641
640.099	0.0171783
640.177	0.0171946
640.255	0.0171450
640.333	0.0172318
640.411	0.0171469
640.489	0.0170752
640.567	0.0170894
640.646	0.0171809
640.724	0.0171187
640.802	0.0170671
640.880	0.0172126
640.958	0.0171302
641.036	0.0170705
641.114	0.0172945
641.192	0.0172548
641.271	0.0171662
641.349	0.0171296
641.427	0.0171881
641.505	0.0171435
641.583	0.0171289
641.661	0.0171473
641.739	0.0172014
641.817	0.0171209
641.896	0.0171745
641.974	0.0171673
642.052	0.0172125
642.130	0.0171960
642.208	0.0171380
642.286	0.0172675
642.364	0.0172560
642.442	0.0171461
642.521	0.0173084
642.599	0.0172118
642.677	0.0172078
642.755	0.0172195
642.833	0.0171021
642.911	0.0171146
642.989	0.0170763
643.067	0.0171249
643.146	0.0171988
643.224	0.0171371
643.302	0.0171430
643.380	0.0171806
643.458	0.0170658
643.536	0.0171088
643.614	0.0171164
643.692	0.0170486
643.771	0.0171157
643.849	0.0172472
643.927	0.0171454
644.005	0.0171695
644.083	0.0172872
644.161	0.0171744
644.239	0.0171257
644.317	0.0172396
644.396	0.0171781
644.474	0.0171529
644.552	0.0171484
644.630	0.0171685
644.708	0.0171908
644.786	0.0171149
644.864	0.0171711
644.942	0.0172337
645.021	0.0171967
645.099	0.0172462
645.177	0.0171072
645.255	0.0172021
645.333	0.0172388
645.411	0.0172128
645.489	0.0171065
645.567	0.0172394
645.646	0.0171642
645.724	0.0172281
645.802	0.0172366
645.880	0.0171344
645.958	0.0171123
646.036	0.0172012
646.114	0.0171239
646.192	0.0171034
646.271	0.0172047
646.349	0.0172646
646.427	0.0170836
646.505	0.0171485
646.583	0.0172717
646.661	0.0171642
646.739	0.0170780
646.817	0.0172129
646.896	0.0172929
646.974	0.0171612
647.052	0.0172828
647.130	0.0171252
647.208	0.0171680
647.286	0.0171105
647.364	0.0170486
647.442	0.0172319
647.521	0.0170154
647.599	0.0171691
647.677	0.0171787
647.755	0.0171079
647.833	0.0171334
647.911	0.0171290
647.989	0.0172814
648.067	0.0171573
648.146	0.0171686
648.224	0.0171019
648.302	0.0171705
648.380	0.0171067
648.458	0.0170473
648.536	0.0172771
648.614	0.0171973
648.692	0.0171140
648.771	0.0170716
648.849	0.0171825
648.927	0.0170856
649.005	0.0169963
649.083	0.0170549
649.161	0.0171741
649.239	0.0171471
649.317	0.0170300
649.396	0.0170798
649.474	0.0172672
649.552	0.0171441
649.630	0.0170924
649.708	0.0171663
649.786	0.0171978
649.864	0.0172234
649.942	0.0171388
650.021	0.0171918
650.099	0.0171856
650.177	0.0171197
650.255	0.0170385
650.333	0.0170634
650.411	0.0172147
650.489	0.0173129
650.567	0.0171516
650.646	0.0172470
650.724	0.0172503
650.802	0.0172509
650.880	0.0170904
650.958	0.0172659
651.036	0.0171347
651.114	0.0173221
651.192	0.0170805
651.271	0.0169895
651.349	0.0170490
651.427	0.0171865
651.505	0.0171262
651.583	0.0171104
651.661	0.0171788
651.739	0.0171638
651.817	0.0171674
651.896	0.0173164
651.974	0.0172144
652.052	0.0170341
652.130	0.0171634
652.208	0.0171881
652.286	0.0171727
652.364	0.0172295
652.442	0.0171277
652.521	0.0171286
652.599	0.0172095
652.677	0.0171671
652.755	0.0172087
652.833	0.0173177
652.911	0.0171395
652.989	0.0171540
653.067	0.0171040
653.146	0.0171668
653.224	0.0171822
653.302	0.0171452
653.380	0.0171706
653.458	0.0172554
653.536	0.0170576
653.614	0.0171631
653.692	0.0172102
653.771	0.0171076
653.849	0.0171855
653.927	0.0171648
654.005	0.0171729
654.083	0.0171313
654.161	0.0171651
654.239	0.0171735
654.317	0.0170983
654.396	0.0171084
654.474	0.0170973
654.552	0.0172576
654.630	0.0172226
654.708	0.0171461
654.786	0.0170968
654.864	0.0172435
654.942	0.0171870
655.021	0.0171923
655.099	0.0171888
655.177	0.0171492
655.255	0.0171396
655.333	0.0171983
655.411	0.0171889
655.489	0.0172221
655.567	0.0171343
655.646	0.0170894
655.724	0.0171400
655.802	0.0171433
655.880	0.0171500
655.958	0.0171753
656.036	0.0171735
656.114	0.0171864
656.192	0.0171439
656.271	0.0170314
656.349	0.0171767
656.427	0.0171940
656.505	0.0172202
656.583	0.0172694
656.661	0.0171432
656.739	0.0171627
656.817	0.0171534
656.896	0.0169738
656.974	0.0170785
657.052	0.0171079
657.130	0.0172137
657.208	0.0171857
657.286	0.0172781
657.364	0.0171988
657.442	0.0171510
657.521	0.0172023
657.599	0.0171066
657.677	0.0172239
657.755	0.0172871
657.833	0.0173778
657.911	0.0171272
657.989	0.0171893
658.067	0.0170969
658.146	0.0171975
658.224	0.0172704
658.302	0.0171218
658.380	0.0171011
658.458	0.0172343
658.536	0.0171859
658.614	0.0171976
658.692	0.0172579
658.771	0.0170834
658.849	0.0170959
658.927	0.0170657
659.005	0.0170904
659.083	0.0171706
659.161	0.0172412
659.239	0.0170461
659.317	0.0171042
659.396	0.0172774
659.474	0.0171377
659.552	0.0170999
659.630	0.0172045
659.708	0.0171386
659.786	0.0171076
659.864	0.0170987
659.942	0.0171015
660.021	0.0170842
660.099	0.0171664
660.177	0.0171282
660.255	0.0171770
660.333	0.0172438
660.411	0.0171580
660.489	0.0172748
660.567	0.0171752
660.646	0.0173074
660.724	0.0172553
660.802	0.0171709
660.880	0.0172461
660.958	0.0172511
661.036	0.0172009
661.114	0.0170744
661.192	0.0171269
661.271	0.0171581
661.349	0.0171632
661.427	0.0172441
661.505	0.0171930
661.583	0.0171420
661.661	0.0171161
661.739	0.0171338
661.817	0.0170969
661.896	0.0171692
661.974	0.0172263
662.052	0.0172111
662.130	0.0172100
662.208	0.0172238
662.286	0.0172207
662.364	0.0170783
662.442	0.0171343
662.521	0.0172198
662.599	0.0172552
662.677	0.0171338
662.755	0.0170986
662.833	0.0172555
662.911	0.0172173
662.989	0.0169927
663.067	0.0171319
663.146	0.0172420
663.224	0.0172199
663.302	0.0172096
663.380	0.0172121
663.458	0.0170704
663.536	0.0172396
663.614	0.0171314
663.692	0.0172107
663.771	0.0171041
663.849	0.0172050
663.927	0.0171482
664.005	0.0171807
664.083	0.0171671
664.161	0.0170316
664.239	0.0171722
664.317	0.0171673
664.396	0.0171604
664.474	0.0171982
664.552	0.0171573
664.630	0.0171225
664.708	0.0170693
664.786	0.0171236
664.864	0.0171854
664.942	0.0171154
665.021	0.0171433
665.099	0.0171234
665.177	0.0171522
665.255	0.0171304
665.333	0.0171049
665.411	0.0171632
665.489	0.0170834
665.567	0.0170602
665.646	0.0171196
665.724	0.0172369
665.802	0.0169366
665.880	0.0170592
665.958	0.0172169
666.036	0.0171348
666.114	0.0171929
666.192	0.0171272
666.271	0.0171596
666.349	0.0172590
666.427	0.0171165
666.505	0.0172499
666.583	0.0172469
666.661	0.0171770
666.739	0.0171405
666.817	0.0171214
666.896	0.0171569
666.974	0.0171774
667.052	0.0172079
667.130	0.0171521
667.208	0.0172909
667.286	0.0170824
667.364	0.0170065
667.442	0.0171685
667.521	0.0172022
667.599	0.0170657
667.677	0.0171535
667.755	0.0171329
667.833	0.0172982
667.911	0.0173129
667.989	0.0172424
668.067	0.0172141
668.146	0.0170911
668.224	0.0171732
668.302	0.0172515
668.380	0.0170858
668.458	0.0171224
668.536	0.0172514
668.614	0.0171609
668.692	0.0171368
668.771	0.0171120
668.849	0.0171358
668.927	0.0172324
669.005	0.0171129
669.083	0.0172588
669.161	0.0172234
669.239	0.0173843
669.317	0.0172069
669.396	0.0172121
669.474	0.0170895
669.552	0.0171667
669.630	0.0171461
669.708	0.0171853
669.786	0.0172144
669.864	0.0171931
669.942	0.0172471
670.021	0.0171819
670.099	0.0170466
670.177	0.0171748
670.255	0.0171423
670.333	0.0170782
670.411	0.0172057
670.489	0.0171736
670.567	0.0172168
670.646	0.0171132
670.724	0.0173305
670.802	0.0171229
670.880	0.0172783
670.958	0.0171218
671.036	0.0172893
671.114	0.0171854
671.192	0.0172618
671.271	0.0172134
671.349	0.0170126
671.427	0.0171615
671.505	0.0172205
671.583	0.0171177
671.661	0.0171470
671.739	0.0172753
671.817	0.0171648
671.896	0.0172438
671.974	0.0171410
672.052	0.0172188
672.130	0.0171761
672.208	0.0170701
672.286	0.0171432
672.364	0.0171214
672.442	0.0172459
672.521	0.0172049
672.599	0.0171741
672.677	0.0172054
672.755	0.0173081
672.833	0.0171001
672.911	0.0171031
672.989	0.0171127
673.067	0.0170744
673.146	0.0171447
673.224	0.0172861
673.302	0.0172248
673.380	0.0170889
673.458	0.0171455
673.536	0.0171079
673.614	0.0172887
673.692	0.0171666
673.771	0.0170786
673.849	0.0170658
673.927	0.0170894
674.005	0.0171514
674.083	0.0170798
674.161	0.0171741
674.239	0.0172111
674.317	0.0172227
674.396	0.0171554
674.474	0.0172236
674.552	0.0172119
674.630	0.0171373
674.708	0.0170918
674.786	0.0171742
674.864	0.0172428
674.942	0.0171049
675.021	0.0171676
675.099	0.0171489
675.177	0.0171984
675.255	0.0171407
675.333	0.0173229
675.411	0.0172349
675.489	0.0171514
675.567	0.0171121
675.646	0.0170698
675.724	0.0170999
675.802	0.0170747
675.880	0.0171698
675.958	0.0172169
676.036	0.0172094
676.114	0.0171757
676.192	0.0171824
676.271	0.0171964
676.349	0.0171671
676.427	0.0171996
676.505	0.0170510
676.583	0.0172934
676.661	0.0171746
676.739	0.0171033
676.817	0.0170683
676.896	0.0172039
676.974	0.0171076
677.052	0.0171639
677.130	0.0170747
677.208	0.0171785
677.286	0.0171818
677.364	0.0171523
677.442	0.0170558
677.521	0.0171278
677.599	0.0170918
677.677	0.0171323
677.755	0.0171657
677.833	0.0172301
677.911	0.0171764
677.989	0.0172198
678.067	0.0172334
678.146	0.0171599
678.224	0.0170646
678.302	0.0171661
678.380	0.0171127
678.458	0.0173022
678.536	0.0170205
678.614	0.0171159
678.692	0.0171417
678.771	0.0171331
678.849	0.0170965
678.927	0.0170935
679.005	0.0171412
679.083	0.0170809
679.161	0.0174001
679.239	0.0172081
679.317	0.0171054
679.396	0.0170275
679.474	0.0169740
679.552	0.0170655
679.630	0.0171568
679.708	0.0171868
679.786	0.0169901
679.864	0.0170625
679.942	0.0173479
680.021	0.0172213
680.099	0.0172059
680.177	0.0170255
680.255	0.0170991
680.333	0.0171427
680.411	0.0171696
680.489	0.0171542
680.567	0.0171820
680.646	0.0173412
680.724	0.0172570
680.802	0.0171899
680.880	0.0171017
680.958	0.0171042
681.036	0.0171828
681.114	0.0171398
681.192	0.0171983
681.271	0.0172341
681.349	0.0171581
681.427	0.0172039
681.505	0.0171754
681.583	0.0172015
681.661	0.0173002
681.739	0.0171181
681.817	0.0171813
681.896	0.0171709
681.974	0.0170881
682.052	0.0171146
682.130	0.0171806
682.208	0.0172299
682.286	0.0173080
682.364	0.0172160
682.442	0.0172253
682.521	0.0171642
682.599	0.0171922
682.677	0.0172829
682.755	0.0173736
682.833	0.0172110
682.911	0.0172429
682.989	0.0172110
683.067	0.0172232
683.146	0.0173156
683.224	0.0172122
683.302	0.0172745
683.380	0.0172476
683.458	0.0173453
683.536	0.0172612
683.614	0.0172659
683.692	0.0171627
683.771	0.0173331
683.849	0.0172236
683.927	0.0171815
684.005	0.0172683
684.083	0.0173558
684.161	0.0171836
684.239	0.0171883
684.317	0.0171806
684.396	0.0172383
684.474	0.0172527
684.552	0.0172242
684.630	0.0172765
684.708	0.0171738
684.786	0.0172765
684.864	0.0172195
684.942	0.0171537
685.021	0.0172502
685.099	0.0171703
685.177	0.0173118
685.255	0.0171202
685.333	0.0171876
685.411	0.0172322
685.489	0.0172523
685.567	0.0171867
685.646	0.0171758
685.724	0.0172866
685.802	0.0171120
685.880	0.0171578
685.958	0.0172226
686.036	0.0171197
686.114	0.0172252
686.192	0.0172350
686.271	0.0173554
686.349	0.0173064
686.427	0.0171444
686.505	0.0172145
686.583	0.0172042
686.661	0.0171769
686.739	0.0172538
686.817	0.0172636
686.896	0.0172795
686.974	0.0171727
687.052	0.0170290
687.130	0.0172330
687.208	0.0172172
687.286	0.0173133
687.364	0.0170795
687.442	0.0171867
687.521	0.0172807
687.599	0.0172223
687.677	0.0172142
687.755	0.0171477
687.833	0.0170584
687.911	0.0171887
687.989	0.0172232
688.067	0.0172081
688.146	0.0172047
688.224	0.0171735
688.302	0.0172478
688.380	0.0172027
688.458	0.0171508
688.536	0.0172225
688.614	0.0172205
688.692	0.0171935
688.771	0.0172168
688.849	0.0171908
688.927	0.0171706
689.005	0.0170585
689.083	0.0172488
689.161	0.0171243
689.239	0.0171393
689.317	0.0172968
689.396	0.0172546
689.474	0.0170910
689.552	0.0170433
689.630	0.0170974
689.708	0.0171850
689.786	0.0170963
689.864	0.0171703
689.942	0.0171780
690.021	0.0169783
690.099	0.0171933
690.177	0.0170802
690.255	0.0170521
690.333	0.0171006
690.411	0.0171346
690.489	0.0171849
690.567	0.0170575
690.646	0.0170575
690.724	0.0172035
690.802	0.0171557
690.880	0.0171600
690.958	0.0171731
691.036	0.0170699
691.114	0.0171005
691.192	0.0172160
691.271	0.0171207
691.349	0.0169411
691.427	0.0171107
691.505	0.0171429
691.583	0.0171138
691.661	0.0171673
691.739	0.0171056
691.817	0.0172332
691.896	0.0172452
691.974	0.0171320
692.052	0.0170954
692.130	0.0170892
692.208	0.0170216
692.286	0.0170858
692.364	0.0170711
692.442	0.0170601
692.521	0.0171601
692.599	0.0170536
692.677	0.0170515
692.755	0.0171297
692.833	0.0172578
692.911	0.0171497
692.989	0.0170078
693.067	0.0170786
693.146	0.0171272
693.224	0.0172421
693.302	0.0171102
693.380	0.0171873
693.458	0.0171733
693.536	0.0171532
693.614	0.0171541
693.692	0.0171928
693.771	0.0171781
693.849	0.0171653
693.927	0.0171961
694.005	0.0170554
694.083	0.0172910
694.161	0.0171918
694.239	0.0171781
694.317	0.0171723
694.396	0.0171503
694.474	0.0172581
694.552	0.0172264
694.630	0.0172130
694.708	0.0171275
694.786	0.0171358
694.864	0.0171714
694.942	0.0172708
695.021	0.0171628
695.099	0.0171718
695.177	0.0170597
695.255	0.0171731
695.333	0.0171317
695.411	0.0170950
695.489	0.0171068
695.567	0.0172976
695.646	0.0173318
695.724	0.0171051
695.802	0.0172758
695.880	0.0171222
695.958	0.0171415
696.036	0.0170717
696.114	0.0172849
696.192	0.0171275
696.271	0.0171973
696.349	0.0170181
696.427	0.0171378
696.505	0.0171301
696.583	0.0170641
696.661	0.0170441
696.739	0.0169192
696.817	0.0171211
696.896	0.0172956
696.974	0.0172707
697.052	0.0170999
697.130	0.0171519
697.208	0.0173386
697.286	0.0173989
697.364	0.0174038
697.442	0.0172846
697.521	0.0174742
697.599	0.0175314
697.677	0.0175671
697.755	0.0175997
697.833	0.0175272
697.911	0.0174193
697.989	0.0173982
698.067	0.0173573
698.146	0.0173270
698.224	0.0174208
698.302	0.0173135
698.380	0.0170423
698.458	0.0171207
698.536	0.0171112
698.614	0.0169961
698.692	0.0167023
698.771	0.0166854
698.849	0.0166695
698.927	0.0163770
699.005	0.0164528
699.083	0.0163445
699.161	0.0162310
699.239	0.0161377
699.317	0.0159947
699.396	0.0159888
699.474	0.0161572
699.552	0.0161234
699.630	0.0164396
699.708	0.0168581
699.786	0.0171595
699.864	0.0176730
699.942	0.0183946
700.021	0.0189220
700.099	0.0196074
700.177	0.0200916
700.255	0.0205829
700.333	0.0209181
700.411	0.0208270
700.489	0.0207491
700.567	0.0204010
700.646	0.0197147
700.724	0.0190701
700.802	0.0181802
700.880	0.0172421
700.958	0.0164196
701.036	0.0154379
701.114	0.0146394
701.192	0.0140989
701.271	0.0137507
701.349	0.0133653
701.427	0.0130711
701.505	0.0130344
701.583	0.0128843
701.661	0.0130704
701.739	0.0130428
701.817	0.0130542
701.896	0.0132809
701.974	0.0133565
702.052	0.0135138
702.130	0.0140511
702.208	0.0146117
702.286	0.0152415
702.364	0.0163043
702.442	0.0177909
702.521	0.0194826
702.599	0.0210898
702.677	0.0226579
702.755	0.0244597
702.833	0.0257795
702.911	0.0268578
702.989	0.0274503
703.067	0.0274479
703.146	0.0268716
703.224	0.0260224
703.302	0.0245500
703.380	0.0225603
703.458	0.0203608
703.536	0.0178766
703.614	0.0155164
703.692	0.0132821
703.771	0.0112798
703.849	0.00955765
703.927	0.00830948
704.005	0.00719971
704.083	0.00664780
704.161	0.00651169
704.239	0.00678223
704.317	0.00707802
704.396	0.00801910
704.474	0.00906288
704.552	0.0102538
704.630	0.0117456
704.708	0.0137129
704.786	0.0157368
704.864	0.0178138
704.942	0.0199545
705.021	0.0222474
705.099	0.0241444
705.177	0.0259641
705.255	0.0275224
705.333	0.0283920
705.411	0.0288158
705.489	0.0286419
705.567	0.0279824
705.646	0.0267602
705.724	0.0249224
705.802	0.0228780
705.880	0.0205185
705.958	0.0181345
706.036	0.0156967
706.114	0.0134863
706.192	0.0115924
706.271	0.0102582
706.349	0.00910934
706.427	0.00843758
706.505	0.00822929
706.583	0.00827209
706.661	0.00873375
706.739	0.00933990
706.817	0.0105100
706.896	0.0116277
706.974	0.0129595
707.052	0.0143594
707.130	0.0160764
707.208	0.0176902
707.286	0.0192890
707.364	0.0207084
707.442	0.0220162
707.521	0.0232109
707.599	0.0239111
707.677	0.0246166
707.755	0.0247604
707.833	0.0247836
707.911	0.0243793
707.989	0.0236689
708.067	0.0226670
708.146	0.0212913
708.224	0.0199422
708.302	0.0185931
708.380	0.0169907
708.458	0.0157417
708.536	0.0143330
708.614	0.0132119
708.692	0.0125739
708.771	0.0119467
708.849	0.0115320
708.927	0.0115099
709.005	0.0116341
709.083	0.0120680
709.161	0.0123689
709.239	0.0129018
709.317	0.0136945
709.396	0.0144536
709.474	0.0153253
709.552	0.0161581
709.630	0.0172455
709.708	0.0181365
709.786	0.0189656
709.864	0.0196033
709.942	0.0202326
710.021	0.0206203
710.099	0.0209686
710.177	0.0210322
710.255	0.0209213
710.333	0.0206081
710.411	0.0203746
710.489	0.0197726
710.567	0.0191116
710.646	0.0182798
710.724	0.0175278
710.802	0.0169027
710.880	0.0164067
710.958	0.0158125
711.036	0.0155370
711.114	0.0151586
711.192	0.0151414
711.271	0.0148983
711.349	0.0150480
711.427	0.0151128
711.505	0.0151781
711.583	0.0154138
711.661	0.0157166
711.739	0.0157652
711.817	0.0162479
711.896	0.0164862
711.974	0.0170995
712.052	0.0173940
712.130	0.0177663
712.208	0.0181744
712.286	0.0186239
712.364	0.0190636
712.442	0.0193301
712.521	0.0195576
712.599	0.0199419
712.677	0.0200075
712.755	0.0200622
712.833	0.0201483
712.911	0.0200108
712.989	0.0199049
713.067	0.0197915
713.146	0.0196408
713.224	0.0192345
713.302	0.0189182
713.380	0.0183187
713.458	0.0180611
713.536	0.0176029
713.614	0.0170711
713.692	0.0165627
713.771	0.0159951
713.849	0.0155627
713.927	0.0149886
714.005	0.0145016
714.083	0.0140348
714.161	0.0135184
714.239	0.0134155
714.317	0.0132290
714.396	0.0130377
714.474	0.0128510
714.552	0.0129170
714.630	0.0133443
714.708	0.0137526
714.786	0.0139738
714.864	0.0145077
714.942	0.0151553
715.021	0.0160127
715.099	0.0164157
715.177	0.0172115
715.255	0.0178786
715.333	0.0182933
715.411	0.0187113
715.489	0.0194729
715.567	0.0197475
715.646	0.0197555
715.724	0.0201009
715.802	0.0200755
715.880	0.0199382
715.958	0.0198814
716.036	0.0197979
716.114	0.0196940
716.192	0.0194856
716.271	0.0191994
716.349	0.0189363
716.427	0.0188216
716.505	0.0184973
716.583	0.0181561
716.661	0.0178994
716.739	0.0175820
716.817	0.0172633
716.896	0.0169659
716.974	0.0168733
717.052	0.0166379
717.130	0.0162324
717.208	0.0161787
717.286	0.0159809
717.364	0.0159046
717.442	0.0159345
717.521	0.0159132
717.599	0.0160001
717.677	0.0160865
717.755	0.0160530
717.833	0.0163556
717.911	0.0165042
717.989	0.0166580
718.067	0.0168546
718.146	0.0169534
718.224	0.0171203
718.302	0.0173094
718.380	0.0174632
718.458	0.0175766
718.536	0.0173994
718.614	0.0173691
718.692	0.0173582
718.771	0.0174272
718.849	0.0174068
718.927	0.0175561
719.005	0.0172960
719.083	0.0171756
719.161	0.0172845
719.239	0.0172052
719.317	0.0170641
719.396	0.0171372
719.474	0.0170544
719.552	0.0170740
719.630	0.0169506
719.708	0.0169573
719.786	0.0170606
719.864	0.0169742
719.942	0.0170380
720.021	0.0169512
720.099	0.0169719
720.177	0.0171651
720.255	0.0172003
720.333	0.0171553
720.411	0.0172995
720.489	0.0173586
720.567	0.0173696
720.646	0.0175416
720.724	0.0176073
720.802	0.0178347
720.880	0.0177486
720.958	0.0178249
721.036	0.0177836
721.114	0.0178410
721.192	0.0178546
721.271	0.0177831
721.349	0.0177077
721.427	0.0176653
721.505	0.0175150
721.583	0.0173137
721.661	0.0170595
721.739	0.0169891
721.817	0.0166851
721.896	0.0165596
721.974	0.0165035
722.052	0.0162310
722.130	0.0161366
722.208	0.0162175
722.286	0.0162849
722.364	0.0161683
722.442	0.0159524
722.521	0.0162160
722.599	0.0161716
722.677	0.0162364
722.755	0.0164174
722.833	0.0166422
722.911	0.0167589
722.989	0.0170614
723.067	0.0171659
723.146	0.0171973
723.224	0.0175336
723.302	0.0178851
723.380	0.0180137
723.458	0.0182587
723.536	0.0183863
723.614	0.0185980
723.692	0.0185587
723.771	0.0186520
723.849	0.0185844
723.927	0.0185121
724.005	0.0182861
724.083	0.0180149
724.161	0.0178957
724.239	0.0177053
724.317	0.0173896
724.396	0.0170638
724.474	0.0169529
724.552	0.0165630
724.630	0.0165167
724.708	0.0162675
724.786	0.0162898
724.864	0.0160472
724.942	0.0159788
725.021	0.0160072
725.099	0.0158682
725.177	0.0158840
725.255	0.0160420
725.333	0.0160831
725.411	0.0162589
725.489	0.0163354
725.567	0.0168549
725.646	0.0168874
725.724	0.0170292
725.802	0.0173820
725.880	0.0175651
725.958	0.0179050
726.036	0.0179211
726.114	0.0180891
726.192	0.0182926
726.271	0.0182748
726.349	0.0183101
726.427	0.0184720
726.505	0.0185517
726.583	0.0183548
726.661	0.0181866
726.739	0.0180513
726.817	0.0178422
726.896	0.0177631
726.974	0.0176221
727.052	0.0174882
727.130	0.0172448
727.208	0.0170745
727.286	0.0169334
727.364	0.0167765
727.442	0.0165057
727.521	0.0162291
727.599	0.0160213
727.677	0.0159015
727.755	0.0159496
727.833	0.0157041
727.911	0.0157368
727.989	0.0156769
728.067	0.0157275
728.146	0.0158526
728.224	0.0158226
728.302	0.0161401
728.380	0.0161931
728.458	0.0165109
728.536	0.0166294
728.614	0.0169903
728.692	0.0172850
728.771	0.0174576
728.849	0.0178410
728.927	0.0178816
729.005	0.0180296
729.083	0.0179687
729.161	0.0180027
729.239	0.0178889
729.317	0.0177753
729.396	0.0177347
729.474	0.0176411
729.552	0.0175889
729.630	0.0173504
729.708	0.0172570
729.786	0.0170963
729.864	0.0171139
729.942	0.0170715
730.021	0.0172160
730.099	0.0173198
730.177	0.0172012
730.255	0.0171943
730.333	0.0171730
730.411	0.0175747
730.489	0.0175368
730.567	0.0174733
730.646	0.0175238
730.724	0.0178891
730.802	0.0178343
730.880	0.0178407
730.958	0.0179070
731.036	0.0179844
731.114	0.0180208
731.192	0.0177844
731.271	0.0178207
731.349	0.0180079
731.427	0.0179348
731.505	0.0177116
731.583	0.0178055
731.661	0.0177332
731.739	0.0177093
731.817	0.0173953
731.896	0.0172336
731.974	0.0170423
732.052	0.0170110
732.130	0.0168242
732.208	0.0166138
732.286	0.0165326
732.364	0.0163074
732.442	0.0160608
732.521	0.0158481
732.599	0.0158094
732.677	0.0159250
732.755	0.0157055
732.833	0.0157536
732.911	0.0157151
732.989	0.0157017
733.067	0.0157516
733.146	0.0160153
733.224	0.0162216
733.302	0.0161452
733.380	0.0162954
733.458	0.0164955
733.536	0.0166292
733.614	0.0168048
733.692	0.0169415
733.771	0.0171181
733.849	0.0171579
733.927	0.0174832
734.005	0.0175690
734.083	0.0176116
734.161	0.0179796
734.239	0.0178837
734.317	0.0177090
734.396	0.0179364
734.474	0.0179606
734.552	0.0180341
734.630	0.0179337
734.708	0.0178659
734.786	0.0177161
734.864	0.0177288
734.942	0.0176836
735.021	0.0177410
735.099	0.0177065
735.177	0.0176695
735.255	0.0176812
735.333	0.0175207
735.411	0.0176009
735.489	0.0176427
735.567	0.0175391
735.646	0.0173513
735.724	0.0173644
735.802	0.0173579
735.880	0.0172701
735.958	0.0173074
736.036	0.0173238
736.114	0.0173357
736.192	0.0172659
736.271	0.0172092
736.349	0.0171950
736.427	0.0172630
736.505	0.0173189
736.583	0.0173279
736.661	0.0172473
736.739	0.0172662
736.817	0.0172734
736.896	0.0172534
736.974	0.0170932
737.052	0.0169672
737.130	0.0171446
737.208	0.0168765
737.286	0.0169394
737.364	0.0167973
737.442	0.0168465
737.521	0.0168139
737.599	0.0166652
737.677	0.0166164
737.755	0.0165627
737.833	0.0166177
737.911	0.0166651
737.989	0.0164941
738.067	0.0165751
738.146	0.0166190
738.224	0.0165812
738.302	0.0164988
738.380	0.0164622
738.458	0.0164848
738.536	0.0163628
738.614	0.0166483
738.692	0.0166552
738.771	0.0165688
738.849	0.0167847
738.927	0.0169807
739.005	0.0170532
739.083	0.0170908
739.161	0.0173268
739.239	0.0174663
739.317	0.0176296
739.396	0.0178453
739.474	0.0178800
739.552	0.0179822
739.630	0.0179325
739.708	0.0181043
739.786	0.0181171
739.864	0.0178811
739.942	0.0179179
740.021	0.0178687
740.099	0.0178178
740.177	0.0176554
740.255	0.0177275
740.333	0.0175797
740.411	0.0176086
740.489	0.0174586
740.567	0.0174200
740.646	0.0173807
740.724	0.0171680
740.802	0.0171797
740.880	0.0170707
740.958	0.0170461
741.036	0.0168884
741.114	0.0169775
741.192	0.0167303
741.271	0.0166502
741.349	0.0165840
741.427	0.0166451
741.505	0.0166481
741.583	0.0165748
741.661	0.0167910
741.739	0.0166952
741.817	0.0166499
741.896	0.0169195
741.974	0.0168478
742.052	0.0169990
742.130	0.0170754
742.208	0.0172168
742.286	0.0171344
742.364	0.0172172
742.442	0.0172441
742.521	0.0172355
742.599	0.0173298
742.677	0.0171883
742.755	0.0173732
742.833	0.0173223
742.911	0.0173507
742.989	0.0173825
743.067	0.0173763
743.146	0.0175631
743.224	0.0175943
743.302	0.0176891
743.380	0.0176537
743.458	0.0176492
743.536	0.0178121
743.614	0.0177221
743.692	0.0177248
743.771	0.0175299
743.849	0.0172867
743.927	0.0171980
744.005	0.0170844
744.083	0.0169842
744.161	0.0168723
744.239	0.0167137
744.317	0.0167688
744.396	0.0166027
744.474	0.0164575
744.552	0.0165978
744.630	0.0164950
744.708	0.0167044
744.786	0.0166247
744.864	0.0168046
744.942	0.0169295
745.021	0.0169049
745.099	0.0169102
745.177	0.0172673
745.255	0.0173620
745.333	0.0174198
745.411	0.0175208
745.489	0.0175732
745.567	0.0176728
745.646	0.0176417
745.724	0.0176749
745.802	0.0178756
745.880	0.0177228
745.958	0.0178287
746.036	0.0177718
746.114	0.0178028
746.192	0.0176488
746.271	0.0174194
746.349	0.0173402
746.427	0.0171803
746.505	0.0171172
746.583	0.0169844
746.661	0.0167716
746.739	0.0167066
746.817	0.0165907
746.896	0.0166061
746.974	0.0165513
747.052	0.0167253
747.130	0.0167439
747.208	0.0168346
747.286	0.0169498
747.364	0.0171529
747.442	0.0170847
747.521	0.0171066
747.599	0.0173147
747.677	0.0172733
747.755	0.0172710
747.833	0.0173833
747.911	0.0174099
747.989	0.0172124
748.067	0.0172542
748.146	0.0171534
748.224	0.0172498
748.302	0.0173732
748.380	0.0173967
748.458	0.0174466
748.536	0.0173763
748.614	0.0175166
748.692	0.0175020
748.771	0.0173953
748.849	0.0174274
748.927	0.0174157
749.005	0.0173592
749.083	0.0172212
749.161	0.0172786
749.239	0.0170920
749.317	0.0170337
749.396	0.0169892
749.474	0.0169579
749.552	0.0169369
749.630	0.0168996
749.708	0.0167062
749.786	0.0168369
749.864	0.0167708
749.942	0.0169234
750.021	0.0170003
750.099	0.0168820
750.177	0.0167197
750.255	0.0168269
750.333	0.0167171
750.411	0.0166763
750.489	0.0165895
750.567	0.0166898
750.646	0.0166104
750.724	0.0166693
750.802	0.0165994
750.880	0.0167331
750.958	0.0168695
751.036	0.0167616
751.114	0.0169879
751.192	0.0170283
751.271	0.0172097
751.349	0.0172728
751.427	0.0174741
751.505	0.0174127
751.583	0.0176788
751.661	0.0179623
751.739	0.0180163
751.817	0.0181118
751.896	0.0180352
751.974	0.0180698
752.052	0.0179676
752.130	0.0179771
752.208	0.0179633
752.286	0.0180563
752.364	0.0179451
752.442	0.0178061
752.521	0.0177519
752.599	0.0175898
752.677	0.0172632
752.755	0.0172572
752.833	0.0171484
752.911	0.0170110
752.989	0.0168147
753.067	0.0167934
753.146	0.0165622
753.224	0.0164865
753.302	0.0163391
753.380	0.0163622
753.458	0.0162415
753.536	0.0162769
753.614	0.0164096
753.692	0.0164007
753.771	0.0165524
753.849	0.0166968
753.927	0.0166665
754.005	0.0167525
754.083	0.0168784
754.161	0.0171207
754.239	0.0171269
754.317	0.0170884
754.396	0.0172327
754.474	0.0173187
754.552	0.0173991
754.630	0.0173818
754.708	0.0174443
754.786	0.0173266
754.864	0.0174535
754.942	0.0175024
755.021	0.0175327
755.099	0.0174736
755.177	0.0175931
755.255	0.0172396
755.333	0.0173563
755.411	0.0172086
755.489	0.0171965
755.567	0.0170151
755.646	0.0168837
755.724	0.0168980
755.802	0.0168131
755.880	0.0166582
755.958	0.0167162
756.036	0.0165046
756.114	0.0167485
756.192	0.0166709
756.271	0.0165733
756.349	0.0168604
756.427	0.0168145
756.505	0.0167169
756.583	0.0168264
756.661	0.0169820
756.739	0.0171581
756.817	0.0171815
756.896	0.0171516
756.974	0.0173023
757.052	0.0173473
757.130	0.0173067
757.208	0.0173618
757.286	0.0174006
757.364	0.0174895
757.442	0.0174412
757.521	0.0173671
757.599	0.0174302
757.677	0.0174270
757.755	0.0173951
757.833	0.0175182
757.911	0.0174660
757.989	0.0175269
758.067	0.0173804
758.146	0.0174358
758.224	0.0174594
758.302	0.0175042
758.380	0.0173814
758.458	0.0173453
758.536	0.0173055
758.614	0.0170945
758.692	0.0171853
758.771	0.0171160
758.849	0.0169381
758.927	0.0169753
759.005	0.0171440
759.083	0.0170363
759.161	0.0168881
759.239	0.0170911
759.317	0.0170961
759.396	0.0171549
759.474	0.0172013
759.552	0.0172316
759.630	0.0172908
759.708	0.0172992
759.786	0.0172011
759.864	0.0174496
759.942	0.0174276
760.021	0.0175487
760.099	0.0174915
760.177	0.0173558
760.255	0.0174520
760.333	0.0175307
760.411	0.0174402
760.489	0.0172315
760.567	0.0171375
760.646	0.0171769
760.724	0.0169781
760.802	0.0170141
760.880	0.0168318
760.958	0.0168714
761.036	0.0169469
761.114	0.0169073
761.192	0.0167904
761.271	0.0169843
761.349	0.0168353
761.427	0.0168532
761.505	0.0170657
761.583	0.0171011
761.661	0.0172700
761.739	0.0172247
761.817	0.0173968
761.896	0.0172515
761.974	0.0173333
762.052	0.0173041
762.130	0.0171999
762.208	0.0173634
762.286	0.0173121
762.364	0.0172733
762.442	0.0173524
762.521	0.0171187
762.599	0.0170595
762.677	0.0170773
762.755	0.0170396
762.833	0.0171207
762.911	0.0170829
762.989	0.0171200
763.067	0.0170977
763.146	0.0171115
763.224	0.0171902
763.302	0.0172061
763.380	0.0171991
763.458	0.0171930
763.536	0.0171558
763.614	0.0172077
763.692	0.0171824
763.771	0.0171799
763.849	0.0171759
763.927	0.0172031
764.005	0.0170451
764.083	0.0169971
764.161	0.0170868
764.239	0.0171288
764.317	0.0171346
764.396	0.0171360
764.474	0.0170033
764.552	0.0173457
764.630	0.0173714
764.708	0.0174007
764.786	0.0173775
764.864	0.0174784
764.942	0.0176257
765.021	0.0175089
765.099	0.0175660
765.177	0.0176310
765.255	0.0176780
765.333	0.0175933
765.411	0.0174827
765.489	0.0175308
765.567	0.0177220
765.646	0.0174700
765.724	0.0175340
765.802	0.0175213
765.880	0.0173986
765.958	0.0174352
766.036	0.0172466
766.114	0.0172351
766.192	0.0171407
766.271	0.0171526
766.349	0.0170641
766.427	0.0169854
766.505	0.0169524
766.583	0.0168115
766.661	0.0168987
766.739	0.0167949
766.817	0.0167152
766.896	0.0168875
766.974	0.0168891
767.052	0.0167972
767.130	0.0167027
767.208	0.0170122
767.286	0.0171190
767.364	0.0170279
767.442	0.0171437
767.521	0.0172239
767.599	0.0173106
767.677	0.0173820
767.755	0.0173358
767.833	0.0174274
767.911	0.0174497
767.989	0.0173924
768.067	0.0174870
768.146	0.0174521
768.224	0.0173421
768.302	0.0172623
768.380	0.0173515
768.458	0.0173897
768.536	0.0174072
768.614	0.0171833
768.692	0.0172880
768.771	0.0172775
768.849	0.0170605
768.927	0.0170872
769.005	0.0171625
769.083	0.0170977
769.161	0.0170146
769.239	0.0168237
769.317	0.0168437
769.396	0.0168134
769.474	0.0167326
769.552	0.0168644
769.630	0.0169201
769.708	0.0168143
769.786	0.0168314
769.864	0.0168660
769.942	0.0168373
770.021	0.0169450
770.099	0.0171416
770.177	0.0170087
770.255	0.0169842
770.333	0.0171619
770.411	0.0173522
770.489	0.0173524
770.567	0.0174795
770.646	0.0174446
770.724	0.0175746
770.802	0.0175766
770.880	0.0176898
770.958	0.0176398
771.036	0.0177647
771.114	0.0174959
771.192	0.0176486
771.271	0.0175458
771.349	0.0173897
771.427	0.0173466
771.505	0.0173634
771.583	0.0171983
771.661	0.0170110
771.739	0.0170387
771.817	0.0168414
771.896	0.0169167
771.974	0.0167160
772.052	0.0168102
772.130	0.0167613
772.208	0.0167414
772.286	0.0166226
772.364	0.0167124
772.442	0.0168317
772.521	0.0168027
772.599	0.0168401
772.677	0.0168369
772.755	0.0168833
772.833	0.0169267
772.911	0.0169880
772.989	0.0171019
773.067	0.0173104
773.146	0.0173402
773.224	0.0173022
773.302	0.0171957
773.380	0.0174532
773.458	0.0174030
773.536	0.0175707
773.614	0.0175224
773.692	0.0175754
773.771	0.0176512
773.849	0.0175807
773.927	0.0177161
774.005	0.0175437
774.083	0.0176146
774.161	0.0174043
774.239	0.0172662
774.317	0.0174043
774.396	0.0173518
774.474	0.0173587
774.552	0.0171213
774.630	0.0170323
774.708	0.0171623
774.786	0.0169603
774.864	0.0170617
774.942	0.0170435
775.021	0.0170937
775.099	0.0170043
775.177	0.0169402
775.255	0.0170971
775.333	0.0170302
775.411	0.0170111
775.489	0.0171724
775.567	0.0172430
775.646	0.0171381
775.724	0.0173901
775.802	0.0173112
775.880	0.0172681
775.958	0.0172537
776.036	0.0172641
776.114	0.0173003
776.192	0.0173602
776.271	0.0172424
776.349	0.0173950
776.427	0.0172914
776.505	0.0172421
776.583	0.0173044
776.661	0.0171267
776.739	0.0172443
776.817	0.0171516
776.896	0.0172128
776.974	0.0172452
777.052	0.0172572
777.130	0.0170033
777.208	0.0170501
777.286	0.0170345
777.364	0.0170581
777.442	0.0168243
777.521	0.0168542
777.599	0.0168055
777.677	0.0166171
777.755	0.0167603
777.833	0.0166074
777.911	0.0168513
777.989	0.0168832
778.067	0.0168602
778.146	0.0167539
778.224	0.0169452
778.302	0.0170754
778.380	0.0170438
778.458	0.0172313
778.536	0.0172197
778.614	0.0173906
778.692	0.0175127
778.771	0.0175235
778.849	0.0174808
778.927	0.0175694
779.005	0.0176302
779.083	0.0176692
779.161	0.0176997
779.239	0.0175111
779.317	0.0175880
779.396	0.0176027
779.474	0.0174664
779.552	0.0173782
779.630	0.0174711
779.708	0.0172066
779.786	0.0171526
779.864	0.0170057
779.942	0.0170901
780.021	0.0170704
780.099	0.0168322
780.177	0.0169090
780.255	0.0168250
780.333	0.0168423
780.411	0.0168552
780.489	0.0166917
780.567	0.0168360
780.646	0.0170138
780.724	0.0169958
780.802	0.0169346
780.880	0.0169707
780.958	0.0170668
781.036	0.0171539
781.114	0.0170935
781.192	0.0171554
781.271	0.0172363
781.349	0.0174131
781.427	0.0172505
781.505	0.0172665
781.583	0.0174509
781.661	0.0173078
781.739	0.0174540
781.817	0.0174911
781.896	0.0174825
781.974	0.0176353
782.052	0.0175951
782.130	0.0175359
782.208	0.0175257
782.286	0.0175043
782.364	0.0174686
782.442	0.0176209
782.521	0.0174139
782.599	0.0173960
782.677	0.0174601
782.755	0.0172936
782.833	0.0172553
782.911	0.0171897
782.989	0.0171848
783.067	0.0169629
783.146	0.0170065
783.224	0.0169291
783.302	0.0169727
783.380	0.0168375
783.458	0.0168695
783.536	0.0167822
783.614	0.0166907
783.692	0.0167909
783.771	0.0168298
783.849	0.0167307
783.927	0.0169718
784.005	0.0168940
784.083	0.0170428
784.161	0.0170208
784.239	0.0170267
784.317	0.0171090
784.396	0.0173233
784.474	0.0174683
784.552	0.0174789
784.630	0.0176735
784.708	0.0177223
784.786	0.0178609
784.864	0.0176630
784.942	0.0177654
785.021	0.0178448
785.099	0.0178378
785.177	0.0175319
785.255	0.0177225
785.333	0.0176077
785.411	0.0175666
785.489	0.0174337
785.567	0.0173095
785.646	0.0171297
785.724	0.0169772
785.802	0.0170836
785.880	0.0168286
785.958	0.0168436
786.036	0.0166998
786.114	0.0166080
786.192	0.0166006
786.271	0.0166121
786.349	0.0165981
786.427	0.0166219
786.505	0.0167965
786.583	0.0166547
786.661	0.0168781
786.739	0.0166758
786.817	0.0167451
786.896	0.0169257
786.974	0.0170411
787.052	0.0171264
787.130	0.0172051
787.208	0.0173318
787.286	0.0173769
787.364	0.0174073
787.442	0.0174122
787.521	0.0174179
787.599	0.0174512
787.677	0.0174576
787.755	0.0175578
787.833	0.0175593
787.911	0.0175745
787.989	0.0175813
788.067	0.0175911
788.146	0.0174473
788.224	0.0173942
788.302	0.0174765
788.380	0.0173386
788.458	0.0171658
788.536	0.0171980
788.614	0.0171929
788.692	0.0170602
788.771	0.0170998
788.849	0.0169018
788.927	0.0170109
789.005	0.0168733
789.083	0.0167558
789.161	0.0168605
789.239	0.0168526
789.317	0.0169508
789.396	0.0169495
789.474	0.0170049
789.552	0.0170016
789.630	0.0169955
789.708	0.0170889
789.786	0.0172170
789.864	0.0172302
789.942	0.0173350
790.021	0.0173225
790.099	0.0172678
790.177	0.0173373
790.255	0.0174809
790.333	0.0171806
790.411	0.0172363
790.489	0.0172424
790.567	0.0172014
790.646	0.0174463
790.724	0.0174155
790.802	0.0173268
790.880	0.0174019
790.958	0.0174512
791.036	0.0171729
791.114	0.0172014
791.192	0.0172618
791.271	0.0171819
791.349	0.0172502
791.427	0.0171996
791.505	0.0172782
791.583	0.0171464
791.661	0.0172243
791.739	0.0170351
791.817	0.0170722
791.896	0.0170470
791.974	0.0171945
792.052	0.0171983
792.130	0.0172261
792.208	0.0172923
792.286	0.0172324
792.364	0.0172796
792.442	0.0171739
792.521	0.0172720
792.599	0.0173151
792.677	0.0171945
792.755	0.0170467
792.833	0.0171223
792.911	0.0170418
792.989	0.0169611
793.067	0.0169604
793.146	0.0169684
793.224	0.0169952
793.302	0.0168875
793.380	0.0169058
793.458	0.0169283
793.536	0.0170136
793.614	0.0170530
793.692	0.0169752
793.771	0.0169155
793.849	0.0171032
793.927	0.0171918
794.005	0.0173066
794.083	0.0174490
794.161	0.0174706
794.239	0.0173076
794.317	0.0174422
794.396	0.0175569
794.474	0.0173708
794.552	0.0173336
794.630	0.0171706
794.708	0.0171913
794.786	0.0170479
794.864	0.0170508
794.942	0.0169313
795.021	0.0168490
795.099	0.0169558
795.177	0.0166902
795.255	0.0167137
795.333	0.0167576
795.411	0.0167249
795.489	0.0168771
795.567	0.0169000
795.646	0.0169270
795.724	0.0169997
795.802	0.0171254
795.880	0.0172620
795.958	0.0173853
796.036	0.0173572
796.114	0.0173158
796.192	0.0172733
796.271	0.0174445
796.349	0.0175371
796.427	0.0174865
796.505	0.0175401
796.583	0.0175498
796.661	0.0175401
796.739	0.0175664
796.817	0.0174613
796.896	0.0173757
796.974	0.0174484
797.052	0.0174718
797.130	0.0172979
797.208	0.0172144
797.286	0.0172108
797.364	0.0171334
797.442	0.0169088
797.521	0.0168494
797.599	0.0168279
797.677	0.0168430
797.755	0.0167515
797.833	0.0169046
797.911	0.0165471
797.989	0.0167300
798.067	0.0167894
798.146	0.0167804
798.224	0.0166245
798.302	0.0168559
798.380	0.0169508
798.458	0.0169133
798.536	0.0169900
798.614	0.0170393
798.692	0.0171458
798.771	0.0172118
798.849	0.0172108
798.927	0.0172820
799.005	0.0174142
799.083	0.0175594
799.161	0.0174086
799.239	0.0176231
799.317	0.0174432
799.396	0.0175299
799.474	0.0175542
799.552	0.0172919
799.630	0.0173280
799.708	0.0171591
799.786	0.0170965
799.864	0.0169550
799.942	0.0168978
800.021	0.0169872
800.099	0.0167780
800.177	0.0167233
800.255	0.0168323
800.333	0.0168888
800.411	0.0168668
800.489	0.0168940
800.567	0.0169269
800.646	0.0169909
800.724	0.0170290
800.802	0.0172027
800.880	0.0170529
800.958	0.0171510
801.036	0.0171525
801.114	0.0171596
801.192	0.0172124
801.271	0.0170271
801.349	0.0171700
801.427	0.0172602
801.505	0.0171413
801.583	0.0173133
801.661	0.0172710
801.739	0.0171312
801.817	0.0171179
801.896	0.0168333
801.974	0.0169415
802.052	0.0168607
802.130	0.0168340
802.208	0.0167876
802.286	0.0166406
802.364	0.0166953
802.442	0.0168498
802.521	0.0168843
802.599	0.0169624
802.677	0.0169021
802.755	0.0170322
802.833	0.0172533
802.911	0.0172707
802.989	0.0173641
803.067	0.0174582
803.146	0.0175765
803.224	0.0176860
803.302	0.0175304
803.380	0.0176278
803.458	0.0175204
803.536	0.0174348
803.614	0.0174446
803.692	0.0173756
803.771	0.0172805
803.849	0.0171508
803.927	0.0170729
804.005	0.0169960
804.083	0.0170605
804.161	0.0169187
804.239	0.0168327
804.317	0.0167969
804.396	0.0167033
804.474	0.0166367
804.552	0.0167570
804.630	0.0168253
804.708	0.0169151
804.786	0.0168543
804.864	0.0168641
804.942	0.0169484
805.021	0.0172053
805.099	0.0172813
805.177	0.0173396
805.255	0.0175794
805.333	0.0176413
805.411	0.0176419
805.489	0.0178389
805.567	0.0177853
805.646	0.0179045
805.724	0.0177209
805.802	0.0178404
805.880	0.0177246
805.958	0.0175150
806.036	0.0174625
806.114	0.0172601
806.192	0.0171501
806.271	0.0171870
806.349	0.0169985
806.427	0.0170260
806.505	0.0170246
806.583	0.0169093
806.661	0.0166726
806.739	0.0167033
806.817	0.0169056
806.896	0.0169514
806.974	0.0167819
807.052	0.0167881
807.130	0.0169415
807.208	0.0168806
807.286	0.0168755
807.364	0.0169320
807.442	0.0171002
807.521	0.0171769
807.599	0.0171836
807.677	0.0173524
807.755	0.0174512
807.833	0.0174304
807.911	0.0175071
807.989	0.0173827
808.067	0.0171726
808.146	0.0173119
808.224	0.0172906
808.302	0.0172406
808.380	0.0171446
808.458	0.0171375
808.536	0.0171658
808.614	0.0171385
808.692	0.0169252
808.771	0.0170658
808.849	0.0170865
808.927	0.0170393
809.005	0.0172880
809.083	0.0172644
809.161	0.0171898
809.239	0.0174004
809.317	0.0173997
809.396	0.0174276
809.474	0.0174639
809.552	0.0176445
809.630	0.0173720
809.708	0.0174577
809.786	0.0176904
809.864	0.0174649
809.942	0.0175127
810.021	0.0174586
810.099	0.0172641
810.177	0.0171893
810.255	0.0170793
810.333	0.0170817
810.411	0.0169867
810.489	0.0168683
810.567	0.0168532
810.646	0.0166130
810.724	0.0165900
810.802	0.0164806
810.880	0.0164769
810.958	0.0164356
811.036	0.0165646
811.114	0.0166102
811.192	0.0167916
811.271	0.0169804
811.349	0.0167947
811.427	0.0168790
811.505	0.0170010
811.583	0.0169859
811.661	0.0170306
811.739	0.0171593
811.817	0.0172171
811.896	0.0172882
811.974	0.0173726
812.052	0.0174746
812.130	0.0174497
812.208	0.0175686
812.286	0.0175278
812.364	0.0176334
812.442	0.0176720
812.521	0.0175409
812.599	0.0174850
812.677	0.0174430
812.755	0.0174063
812.833	0.0174482
812.911	0.0173610
812.989	0.0174156
813.067	0.0172860
813.146	0.0172969
813.224	0.0172916
813.302	0.0171916
813.380	0.0171304
813.458	0.0171850
813.536	0.0172109
813.614	0.0172717
813.692	0.0171721
813.771	0.0172177
813.849	0.0171281
813.927	0.0172643
814.005	0.0173001
814.083	0.0173138
814.161	0.0174152
814.239	0.0173238
814.317	0.0171632
814.396	0.0174519
814.474	0.0171211
814.552	0.0172732
814.630	0.0172517
814.708	0.0171081
814.786	0.0170866
814.864	0.0171315
814.942	0.0171332
815.021	0.0171940
815.099	0.0170848
815.177	0.0170464
815.255	0.0170631
815.333	0.0170220
815.411	0.0170201
815.489	0.0170492
815.567	0.0171378
815.646	0.0171451
815.724	0.0172392
815.802	0.0170547
815.880	0.0170280
815.958	0.0170810
816.036	0.0171682
816.114	0.0170724
816.192	0.0170693
816.271	0.0171169
816.349	0.0170959
816.427	0.0170724
816.505	0.0172353
816.583	0.0171696
816.661	0.0170470
816.739	0.0172157
816.817	0.0172607
816.896	0.0171195
816.974	0.0172945
817.052	0.0173151
817.130	0.0172192
817.208	0.0172692
817.286	0.0173082
817.364	0.0173512
817.442	0.0173350
817.521	0.0172510
817.599	0.0171856
817.677	0.0172367
817.755	0.0172842
817.833	0.0173438
817.911	0.0173127
817.989	0.0171391
818.067	0.0171522
818.146	0.0170947
818.224	0.0170715
818.302	0.0170586
818.380	0.0170866
818.458	0.0170531
818.536	0.0169455
818.614	0.0170689
818.692	0.0170810
818.771	0.0171544
818.849	0.0170628
818.927	0.0168992
819.005	0.0170676
819.083	0.0170534
819.161	0.0171069
819.239	0.0172852
819.317	0.0171179
819.396	0.0170947
819.474	0.0171156
819.552	0.0171533
819.630	0.0170928
819.708	0.0170628
819.786	0.0171977
819.864	0.0171151
819.942	0.0170237
820.021	0.0171213
820.099	0.0170840
820.177	0.0171041
820.255	0.0170767
820.333	0.0171106
820.411	0.0171021
820.489	0.0172005
820.567	0.0171037
820.646	0.0171756
820.724	0.0172134
820.802	0.0170936
820.880	0.0171297
820.958	0.0172624
821.036	0.0171909
821.114	0.0172490
821.192	0.0172744
821.271	0.0172434
821.349	0.0171689
821.427	0.0171838
821.505	0.0173098
821.583	0.0170132
821.661	0.0171912
821.739	0.0170073
821.817	0.0170705
821.896	0.0170930
821.974	0.0171115
822.052	0.0169491
822.130	0.0168891
822.208	0.0170020
822.286	0.0169858
822.364	0.0170166
822.442	0.0169553
822.521	0.0170359
822.599	0.0169795
822.677	0.0169318
822.755	0.0170493
822.833	0.0169895
822.911	0.0171503
822.989	0.0170207
823.067	0.0171216
823.146	0.0171727
823.224	0.0172440
823.302	0.0172531
823.380	0.0172124
823.458	0.0173172
823.536	0.0172440
823.614	0.0173735
823.692	0.0173512
823.771	0.0172142
823.849	0.0172752
823.927	0.0174162
824.005	0.0171832
824.083	0.0172020
824.161	0.0173588
824.239	0.0171520
824.317	0.0171366
824.396	0.0171706
824.474	0.0170216
824.552	0.0170357
824.630	0.0170789
824.708	0.0171120
824.786	0.0168813
824.864	0.0169650
824.942	0.0169842
825.021	0.0170072
825.099	0.0169138
825.177	0.0168594
825.255	0.0169509
825.333	0.0171666
825.411	0.0170409
825.489	0.0170465
825.567	0.0171366
825.646	0.0171572
825.724	0.0172060
825.802	0.0172913
825.880	0.0173148
825.958	0.0173056
826.036	0.0172338
826.114	0.0171853
826.192	0.0173273
826.271	0.0173152
826.349	0.0172691
826.427	0.0172474
826.505	0.0172466
826.583	0.0172920
826.661	0.0173142
826.739	0.0172131
826.817	0.0172398
826.896	0.0171948
826.974	0.0171270
827.052	0.0172469
827.130	0.0171552
827.208	0.0171987
827.286	0.0171679
827.364	0.0170552
827.442	0.0172383
827.521	0.0171433
827.599	0.0169041
827.677	0.0172334
827.755	0.0171506
827.833	0.0171825
827.911	0.0171700
827.989	0.0173119
828.067	0.0172460
828.146	0.0173277
828.224	0.0172287
828.302	0.0172761
828.380	0.0175207
828.458	0.0173646
828.536	0.0171432
828.614	0.0172304
828.692	0.0172348
828.771	0.0171416
828.849	0.0171388
828.927	0.0170766
829.005	0.0171142
829.083	0.0170403
829.161	0.0169608
829.239	0.0169368
829.317	0.0168785
829.396	0.0168168
829.474	0.0168479
829.552	0.0168896
829.630	0.0168330
829.708	0.0168687
829.786	0.0168184
829.864	0.0168701
829.942	0.0168439
830.021	0.0168163
830.099	0.0168298
830.177	0.0170337
830.255	0.0169617
830.333	0.0170027
830.411	0.0170279
830.489	0.0171865
830.567	0.0172055
830.646	0.0172583
830.724	0.0174131
830.802	0.0172939
830.880	0.0173089
830.958	0.0173544
831.036	0.0173930
831.114	0.0174615
831.192	0.0175202
831.271	0.0174995
831.349	0.0174292
831.427	0.0174876
831.505	0.0174321
831.583	0.0174251
831.661	0.0174394
831.739	0.0173663
831.817	0.0173618
831.896	0.0174202
831.974	0.0172869
832.052	0.0171463
832.130	0.0171329
832.208	0.0172209
832.286	0.0171477
832.364	0.0171031
832.442	0.0170796
832.521	0.0170953
832.599	0.0171988
832.677	0.0170688
832.755	0.0172694
832.833	0.0170171
832.911	0.0169485
832.989	0.0169621
833.067	0.0169824
833.146	0.0170161
833.224	0.0170284
833.302	0.0170674
833.380	0.0169482
833.458	0.0169937
833.536	0.0169844
833.614	0.0170053
833.692	0.0169534
833.771	0.0168917
833.849	0.0170359
833.927	0.0169122
834.005	0.0169614
834.083	0.0171004
834.161	0.0171432
834.239	0.0170644
834.317	0.0171848
834.396	0.0172728
834.474	0.0170457
834.552	0.0171956
834.630	0.0171963
834.708	0.0172061
834.786	0.0172594
834.864	0.0171996
834.942	0.0172218
835.021	0.0172843
835.099	0.0172227
835.177	0.0173398
835.255	0.0173038
835.333	0.0172668
835.411	0.0172932
835.489	0.0174009
835.567	0.0173283
835.646	0.0173505
835.724	0.0172713
835.802	0.0173378
835.880	0.0172217
835.958	0.0171954
836.036	0.0173837
836.114	0.0172442
836.192	0.0171899
836.271	0.0174321
836.349	0.0171400
836.427	0.0172124
836.505	0.0172124
836.583	0.0171461
836.661	0.0171229
836.739	0.0170810
836.817	0.0170789
836.896	0.0170389
836.974	0.0169067
837.052	0.0171705
837.130	0.0172282
837.208	0.0171401
837.286	0.0170059
837.364	0.0171820
837.442	0.0170707
837.521	0.0169836
837.599	0.0172749
837.677	0.0171936
837.755	0.0172087
837.833	0.0171834
837.911	0.0171828
837.989	0.0171730
838.067	0.0172492
838.146	0.0172887
838.224	0.0173018
838.302	0.0173378
838.380	0.0174751
838.458	0.0174077
838.536	0.0173431
838.614	0.0173414
838.692	0.0174220
838.771	0.0173602
838.849	0.0174574
838.927	0.0173855
839.005	0.0172439
839.083	0.0173515
839.161	0.0173260
839.239	0.0173644
839.317	0.0174000
839.396	0.0175182
839.474	0.0174377
839.552	0.0174129
839.630	0.0172628
839.708	0.0174113
839.786	0.0173624
839.864	0.0172437
839.942	0.0173379
840.021	0.0172871
840.099	0.0172860
840.177	0.0172729
840.255	0.0174000
840.333	0.0171520
840.411	0.0170646
840.489	0.0170736
840.567	0.0171230
840.646	0.0169628
840.724	0.0171548
840.802	0.0171220
840.880	0.0170057
840.958	0.0170035
841.036	0.0169939
841.114	0.0169054
841.192	0.0170044
841.271	0.0169652
841.349	0.0168645
841.427	0.0168201
841.505	0.0169675
841.583	0.0170760
841.661	0.0169373
841.739	0.0169253
841.817	0.0168456
841.896	0.0168465
841.974	0.0168955
842.052	0.0169788
842.130	0.0170055
842.208	0.0171138
842.286	0.0173006
842.364	0.0171516
842.442	0.0172318
842.521	0.0174535
842.599	0.0173621
842.677	0.0174600
842.755	0.0174804
842.833	0.0173659
842.911	0.0175076
842.989	0.0174770
843.067	0.0173994
843.146	0.0176023
843.224	0.0175769
843.302	0.0173752
843.380	0.0175706
843.458	0.0174271
843.536	0.0174456
843.614	0.0173140
843.692	0.0172516
843.771	0.0172482
843.849	0.0173114
843.927	0.0171135
844.005	0.0170951
844.083	0.0172350
844.161	0.0172618
844.239	0.0171505
844.317	0.0172153
844.396	0.0172455
844.474	0.0171189
844.552	0.0173266
844.630	0.0173177
844.708	0.0173701
844.786	0.0172340
844.864	0.0172684
844.942	0.0172334
845.021	0.0172369
845.099	0.0173423
845.177	0.0172896
845.255	0.0172200
845.333	0.0171828
845.411	0.0171171
845.489	0.0171937
845.567	0.0171663
845.646	0.0170657
845.724	0.0172044
845.802	0.0172904
845.880	0.0170508
845.958	0.0170045
846.036	0.0171626
846.114	0.0171378
846.192	0.0171620
846.271	0.0171104
846.349	0.0172411
846.427	0.0171780
846.505	0.0170397
846.583	0.0171285
846.661	0.0170415
846.739	0.0170813
846.817	0.0170630
846.896	0.0169289
846.974	0.0169724
847.052	0.0170592
847.130	0.0169740
847.208	0.0169819
847.286	0.0170773
847.364	0.0170943
847.442	0.0169754
847.521	0.0171415
847.599	0.0170982
847.677	0.0171456
847.755	0.0172033
847.833	0.0171854
847.911	0.0171949
847.989	0.0172421
848.067	0.0172983
848.146	0.0172803
848.224	0.0173624
848.302	0.0173299
848.380	0.0173367
848.458	0.0172123
848.536	0.0173351
848.614	0.0174391
848.692	0.0172653
848.771	0.0172281
848.849	0.0173710
848.927	0.0172934
849.005	0.0174213
849.083	0.0174116
849.161	0.0172813
849.239	0.0172433
849.317	0.0172847
849.396	0.0173423
849.474	0.0172103
849.552	0.0172649
849.630	0.0172867
849.708	0.0171231
849.786	0.0171081
849.864	0.0171594
849.942	0.0170428
850.021	0.0170860
850.099	0.0170298
850.177	0.0168655
850.255	0.0168481
850.333	0.0169579
850.411	0.0169922
850.489	0.0168690
850.567	0.0168562
850.646	0.0170933
850.724	0.0170609
850.802	0.0169993
850.880	0.0169782
850.958	0.0169474
851.036	0.0172426
851.114	0.0171590
851.192	0.0172392
851.271	0.0171998
851.349	0.0172562
851.427	0.0173973
851.505	0.0173954
851.583	0.0173379
851.661	0.0172899
851.739	0.0174249
851.817	0.0175201
851.896	0.0174017
851.974	0.0172334
852.052	0.0173186
852.130	0.0173086
852.208	0.0171290
852.286	0.0172141
852.364	0.0171103
852.442	0.0170012
852.521	0.0170724
852.599	0.0169938
852.677	0.0169045
852.755	0.0169166
852.833	0.0169640
852.911	0.0168698
852.989	0.0167870
853.067	0.0169750
853.146	0.0169202
853.224	0.0169360
853.302	0.0171185
853.380	0.0170692
853.458	0.0170885
853.536	0.0170607
853.614	0.0171820
853.692	0.0172543
853.771	0.0173494
853.849	0.0173231
853.927	0.0175060
854.005	0.0175328
854.083	0.0175182
854.161	0.0174919
854.239	0.0175237
854.317	0.0175490
854.396	0.0173613
854.474	0.0175329
854.552	0.0172781
854.630	0.0172866
854.708	0.0174088
854.786	0.0173402
854.864	0.0172692
854.942	0.0171758
855.021	0.0172451
855.099	0.0171046
855.177	0.0170454
855.255	0.0170099
855.333	0.0171350
855.411	0.0170541
855.489	0.0170630
855.567	0.0170755
855.646	0.0170695
855.724	0.0171338
855.802	0.0171668
855.880	0.0172131
855.958	0.0173352
856.036	0.0172734
856.114	0.0173232
856.192	0.0174660
856.271	0.0173568
856.349	0.0173738
856.427	0.0172478
856.505	0.0173989
856.583	0.0174088
856.661	0.0174347
856.739	0.0173653
856.817	0.0172649
856.896	0.0170919
856.974	0.0171826
857.052	0.0170807
857.130	0.0170585
857.208	0.0170852
857.286	0.0168870
857.364	0.0168568
857.442	0.0169672
857.521	0.0168143
857.599	0.0168645
857.677	0.0167719
857.755	0.0169875
857.833	0.0169916
857.911	0.0169884
857.989	0.0170652
858.067	0.0171219
858.146	0.0172214
858.224	0.0171724
858.302	0.0170471
858.380	0.0172100
858.458	0.0171909
858.536	0.0173495
858.614	0.0172829
858.692	0.0172467
858.771	0.0174042
858.849	0.0173906
858.927	0.0173052
859.005	0.0172936
859.083	0.0172157
859.161	0.0172002
859.239	0.0173123
859.317	0.0173428
859.396	0.0172446
859.474	0.0173167
859.552	0.0171740
859.630	0.0171893
859.708	0.0173969
859.786	0.0172114
859.864	0.0172031
859.942	0.0171410
860.021	0.0172533
860.099	0.0171774
860.177	0.0172795
860.255	0.0172716
860.333	0.0172352
860.411	0.0173862
860.489	0.0173866
860.567	0.0171942
860.646	0.0173644
860.724	0.0172952
860.802	0.0171704
860.880	0.0173207
860.958	0.0174228
861.036	0.0172917
861.114	0.0172817
861.192	0.0172147
861.271	0.0171612
861.349	0.0172616
861.427	0.0171864
861.505	0.0171399
861.583	0.0173768
861.661	0.0172485
861.739	0.0172970
861.817	0.0172554
861.896	0.0171176
861.974	0.0171111
862.052	0.0171310
862.130	0.0170785
862.208	0.0169801
862.286	0.0171413
862.364	0.0171644
862.442	0.0171493
862.521	0.0170927
862.599	0.0171455
862.677	0.0171031
862.755	0.0172068
862.833	0.0171463
862.911	0.0172622
862.989	0.0172356
863.067	0.0172124
863.146	0.0172656
863.224	0.0171602
863.302	0.0171732
863.380	0.0172145
863.458	0.0170788
863.536	0.0171279
863.614	0.0170918
863.692	0.0172531
863.771	0.0171648
863.849	0.0170920
863.927	0.0172264
864.005	0.0172000
864.083	0.0170307
864.161	0.0171631
864.239	0.0171106
864.317	0.0171234
864.396	0.0172133
864.474	0.0171799
864.552	0.0170998
864.630	0.0172707
864.708	0.0172063
864.786	0.0170771
864.864	0.0172306
864.942	0.0171540
865.021	0.0172375
865.099	0.0171921
865.177	0.0171542
865.255	0.0171304
865.333	0.0172353
865.411	0.0172385
865.489	0.0171080
865.567	0.0172245
865.646	0.0170607
865.724	0.0172639
865.802	0.0172868
865.880	0.0171994
865.958	0.0171085
866.036	0.0171079
866.114	0.0171605
866.192	0.0171267
866.271	0.0172317
866.349	0.0173205
866.427	0.0172120
866.505	0.0171716
866.583	0.0171864
866.661	0.0172025
866.739	0.0172174
866.817	0.0170771
866.896	0.0171273
866.974	0.0172488
867.052	0.0172260
867.130	0.0172672
867.208	0.0172698
867.286	0.0172996
867.364	0.0171890
867.442	0.0172884
867.521	0.0172288
867.599	0.0172102
867.677	0.0172909
867.755	0.0173713
867.833	0.0173071
867.911	0.0172584
867.989	0.0171976
868.067	0.0173485
868.146	0.0174609
868.224	0.0172348
868.302	0.0173375
868.380	0.0172457
868.458	0.0173317
868.536	0.0171896
868.614	0.0171317
868.692	0.0172029
868.771	0.0170259
868.849	0.0170553
868.927	0.0170841
869.005	0.0171448
869.083	0.0171605
869.161	0.0170366
869.239	0.0170805
869.317	0.0171513
869.396	0.0171238
869.474	0.0171426
869.552	0.0171571
869.630	0.0172120
869.708	0.0171565
869.786	0.0172589
869.864	0.0171746
869.942	0.0171193
