06/03/2022	15:30:45	Ver.	4.1	UNKNOWN
Optical Delay	550.020508	Delta X		0.078125	Sweeps	1	Scan Rate	0/0
Coordinates	Axis 1	NaN	Axis 2	NaN	Axis 3	NaN	Axis 4	NaN	Axis 5	NaN	Axis 6	0.000000
TX Power	0.000000	RX Power	0.000000

550.021	0.0163908
550.099	0.0164261
550.177	0.0165055
550.255	0.0163966
550.333	0.0163747
550.411	0.0164063
550.489	0.0164285
550.567	0.0163692
550.646	0.0163995
550.724	0.0163861
550.802	0.0164088
550.880	0.0165218
550.958	0.0164765
551.036	0.0163980
551.114	0.0164016
551.192	0.0163402
551.271	0.0163033
551.349	0.0164848
551.427	0.0163628
551.505	0.0163817
551.583	0.0163892
551.661	0.0164381
551.739	0.0164143
551.817	0.0163004
551.896	0.0163698
551.974	0.0164249
552.052	0.0164091
552.130	0.0164869
552.208	0.0165701
552.286	0.0164381
552.364	0.0164073
552.442	0.0164430
552.521	0.0163337
552.599	0.0163879
552.677	0.0164022
552.755	0.0163713
552.833	0.0164615
552.911	0.0165223
552.989	0.0163909
553.067	0.0163795
553.146	0.0163689
553.224	0.0164697
553.302	0.0163309
553.380	0.0164396
553.458	0.0164398
553.536	0.0164372
553.614	0.0163738
553.692	0.0164575
553.771	0.0163705
553.849	0.0163905
553.927	0.0164421
554.005	0.0164762
554.083	0.0164089
554.161	0.0164075
554.239	0.0163942
554.317	0.0164811
554.396	0.0163251
554.474	0.0165943
554.552	0.0165100
554.630	0.0164156
554.708	0.0163618
554.786	0.0164095
554.864	0.0164511
554.942	0.0164538
555.021	0.0163496
555.099	0.0163561
555.177	0.0163467
555.255	0.0164638
555.333	0.0162708
555.411	0.0165540
555.489	0.0164420
555.567	0.0163807
555.646	0.0163815
555.724	0.0163243
555.802	0.0163811
555.880	0.0163948
555.958	0.0164620
556.036	0.0164053
556.114	0.0163940
556.192	0.0163570
556.271	0.0163276
556.349	0.0164722
556.427	0.0165364
556.505	0.0165058
556.583	0.0163540
556.661	0.0163042
556.739	0.0163108
556.817	0.0163793
556.896	0.0164882
556.974	0.0164156
557.052	0.0163921
557.130	0.0163911
557.208	0.0164398
557.286	0.0164584
557.364	0.0163837
557.442	0.0163223
557.521	0.0163462
557.599	0.0162473
557.677	0.0165150
557.755	0.0164710
557.833	0.0164246
557.911	0.0164107
557.989	0.0164150
558.067	0.0163340
558.146	0.0164747
558.224	0.0164886
558.302	0.0165123
558.380	0.0163173
558.458	0.0164598
558.536	0.0163032
558.614	0.0163556
558.692	0.0162920
558.771	0.0165006
558.849	0.0163273
558.927	0.0162946
559.005	0.0163728
559.083	0.0164354
559.161	0.0163564
559.239	0.0165289
559.317	0.0164950
559.396	0.0161769
559.474	0.0162767
559.552	0.0163504
559.630	0.0165066
559.708	0.0164481
559.786	0.0163914
559.864	0.0162759
559.942	0.0163517
560.021	0.0164066
560.099	0.0163567
560.177	0.0164967
560.255	0.0164545
560.333	0.0163786
560.411	0.0164067
560.489	0.0163760
560.567	0.0162109
560.646	0.0163699
560.724	0.0164381
560.802	0.0164590
560.880	0.0163574
560.958	0.0163802
561.036	0.0163403
561.114	0.0163258
561.192	0.0163765
561.271	0.0163445
561.349	0.0164041
561.427	0.0163956
561.505	0.0163634
561.583	0.0163708
561.661	0.0164418
561.739	0.0163696
561.817	0.0164301
561.896	0.0163760
561.974	0.0162933
562.052	0.0163218
562.130	0.0164165
562.208	0.0162772
562.286	0.0164082
562.364	0.0164400
562.442	0.0163592
562.521	0.0162861
562.599	0.0165007
562.677	0.0165650
562.755	0.0163945
562.833	0.0161576
562.911	0.0164235
562.989	0.0164812
563.067	0.0164442
563.146	0.0164317
563.224	0.0162095
563.302	0.0164153
563.380	0.0165232
563.458	0.0162148
563.536	0.0163723
563.614	0.0164045
563.692	0.0163657
563.771	0.0164104
563.849	0.0163084
563.927	0.0163364
564.005	0.0164896
564.083	0.0164525
564.161	0.0162901
564.239	0.0163819
564.317	0.0164233
564.396	0.0164718
564.474	0.0163826
564.552	0.0164418
564.630	0.0164561
564.708	0.0164046
564.786	0.0162057
564.864	0.0163155
564.942	0.0165071
565.021	0.0164525
565.099	0.0163369
565.177	0.0165006
565.255	0.0164918
565.333	0.0164187
565.411	0.0164278
565.489	0.0162087
565.567	0.0164239
565.646	0.0164301
565.724	0.0163157
565.802	0.0165083
565.880	0.0165161
565.958	0.0163276
566.036	0.0163873
566.114	0.0164349
566.192	0.0164911
566.271	0.0163322
566.349	0.0164968
566.427	0.0165251
566.505	0.0164016
566.583	0.0165184
566.661	0.0163944
566.739	0.0163107
566.817	0.0163991
566.896	0.0165491
566.974	0.0163656
567.052	0.0163523
567.130	0.0164933
567.208	0.0164564
567.286	0.0164170
567.364	0.0165052
567.442	0.0165096
567.521	0.0164444
567.599	0.0164464
567.677	0.0164786
567.755	0.0163718
567.833	0.0165163
567.911	0.0164527
567.989	0.0165000
568.067	0.0164371
568.146	0.0163729
568.224	0.0163267
568.302	0.0164606
568.380	0.0164899
568.458	0.0164310
568.536	0.0163924
568.614	0.0165034
568.692	0.0164242
568.771	0.0164511
568.849	0.0165002
568.927	0.0164097
569.005	0.0164553
569.083	0.0165981
569.161	0.0163161
569.239	0.0163852
569.317	0.0164584
569.396	0.0165063
569.474	0.0163512
569.552	0.0163307
569.630	0.0163998
569.708	0.0163588
569.786	0.0164457
569.864	0.0163770
569.942	0.0163680
570.021	0.0164230
570.099	0.0165934
570.177	0.0164096
570.255	0.0163611
570.333	0.0163666
570.411	0.0164717
570.489	0.0164397
570.567	0.0165868
570.646	0.0163246
570.724	0.0163192
570.802	0.0163370
570.880	0.0162606
570.958	0.0165001
571.036	0.0164583
571.114	0.0163246
571.192	0.0164066
571.271	0.0164561
571.349	0.0163653
571.427	0.0163416
571.505	0.0164214
571.583	0.0163467
571.661	0.0164668
571.739	0.0164017
571.817	0.0163324
571.896	0.0164066
571.974	0.0165408
572.052	0.0164920
572.130	0.0164256
572.208	0.0162906
572.286	0.0164167
572.364	0.0163743
572.442	0.0163304
572.521	0.0164556
572.599	0.0162657
572.677	0.0163820
572.755	0.0163682
572.833	0.0164751
572.911	0.0165118
572.989	0.0163309
573.067	0.0164195
573.146	0.0164413
573.224	0.0165316
573.302	0.0163412
573.380	0.0163117
573.458	0.0163535
573.536	0.0163901
573.614	0.0163284
573.692	0.0164900
573.771	0.0165635
573.849	0.0165491
573.927	0.0162866
574.005	0.0163522
574.083	0.0164582
574.161	0.0165244
574.239	0.0162908
574.317	0.0163512
574.396	0.0164401
574.474	0.0163158
574.552	0.0162888
574.630	0.0164134
574.708	0.0164854
574.786	0.0162656
574.864	0.0163473
574.942	0.0164766
575.021	0.0164107
575.099	0.0164453
575.177	0.0164809
575.255	0.0164174
575.333	0.0163879
575.411	0.0163750
575.489	0.0163255
575.567	0.0164342
575.646	0.0165504
575.724	0.0164427
575.802	0.0165056
575.880	0.0162877
575.958	0.0163876
576.036	0.0164356
576.114	0.0164034
576.192	0.0163867
576.271	0.0164577
576.349	0.0163416
576.427	0.0162703
576.505	0.0163770
576.583	0.0163583
576.661	0.0163626
576.739	0.0163057
576.817	0.0164091
576.896	0.0164540
576.974	0.0162618
577.052	0.0163239
577.130	0.0163593
577.208	0.0162990
577.286	0.0163586
577.364	0.0163847
577.442	0.0165804
577.521	0.0163644
577.599	0.0164011
577.677	0.0163121
577.755	0.0165065
577.833	0.0163663
577.911	0.0162732
577.989	0.0164557
578.067	0.0165122
578.146	0.0163865
578.224	0.0164017
578.302	0.0162695
578.380	0.0164063
578.458	0.0163046
578.536	0.0162537
578.614	0.0163831
578.692	0.0165141
578.771	0.0163610
578.849	0.0162926
578.927	0.0163142
579.005	0.0164567
579.083	0.0163308
579.161	0.0163073
579.239	0.0165034
579.317	0.0165407
579.396	0.0164182
579.474	0.0164458
579.552	0.0163639
579.630	0.0164893
579.708	0.0164338
579.786	0.0162911
579.864	0.0164156
579.942	0.0164267
580.021	0.0163329
580.099	0.0163609
580.177	0.0163918
580.255	0.0164007
580.333	0.0164008
580.411	0.0163998
580.489	0.0163338
580.567	0.0163002
580.646	0.0164022
580.724	0.0163155
580.802	0.0164818
580.880	0.0163522
580.958	0.0163618
581.036	0.0163367
581.114	0.0164132
581.192	0.0163811
581.271	0.0164907
581.349	0.0164701
581.427	0.0163551
581.505	0.0163878
581.583	0.0164867
581.661	0.0163069
581.739	0.0162265
581.817	0.0163533
581.896	0.0163866
581.974	0.0165211
582.052	0.0164652
582.130	0.0164655
582.208	0.0165079
582.286	0.0164167
582.364	0.0164028
582.442	0.0163519
582.521	0.0163622
582.599	0.0163302
582.677	0.0163591
582.755	0.0163931
582.833	0.0164600
582.911	0.0164251
582.989	0.0164164
583.067	0.0164591
583.146	0.0164838
583.224	0.0163144
583.302	0.0163891
583.380	0.0164035
583.458	0.0164458
583.536	0.0164304
583.614	0.0164180
583.692	0.0164122
583.771	0.0163692
583.849	0.0163890
583.927	0.0164880
584.005	0.0164655
584.083	0.0164970
584.161	0.0165250
584.239	0.0163963
584.317	0.0163851
584.396	0.0163260
584.474	0.0164851
584.552	0.0164290
584.630	0.0163084
584.708	0.0163595
584.786	0.0164156
584.864	0.0163710
584.942	0.0164611
585.021	0.0164417
585.099	0.0164188
585.177	0.0162756
585.255	0.0165379
585.333	0.0164641
585.411	0.0164149
585.489	0.0164029
585.567	0.0164156
585.646	0.0164735
585.724	0.0162685
585.802	0.0164015
585.880	0.0164302
585.958	0.0164468
586.036	0.0164423
586.114	0.0164741
586.192	0.0164295
586.271	0.0164441
586.349	0.0163881
586.427	0.0164734
586.505	0.0164448
586.583	0.0162901
586.661	0.0164191
586.739	0.0164424
586.817	0.0163755
586.896	0.0164718
586.974	0.0163828
587.052	0.0164182
587.130	0.0164701
587.208	0.0163428
587.286	0.0163924
587.364	0.0163789
587.442	0.0163984
587.521	0.0164333
587.599	0.0164969
587.677	0.0164240
587.755	0.0163590
587.833	0.0164258
587.911	0.0164261
587.989	0.0165211
588.067	0.0163834
588.146	0.0163354
588.224	0.0163446
588.302	0.0165388
588.380	0.0163448
588.458	0.0164447
588.536	0.0164182
588.614	0.0163430
588.692	0.0164518
588.771	0.0165372
588.849	0.0164641
588.927	0.0163706
589.005	0.0164432
589.083	0.0165307
589.161	0.0163999
589.239	0.0163678
589.317	0.0163060
589.396	0.0164186
589.474	0.0165318
589.552	0.0164883
589.630	0.0164045
589.708	0.0165377
589.786	0.0165393
589.864	0.0162488
589.942	0.0164026
590.021	0.0163824
590.099	0.0163689
590.177	0.0163160
590.255	0.0163291
590.333	0.0163806
590.411	0.0164740
590.489	0.0164027
590.567	0.0164502
590.646	0.0163560
590.724	0.0164585
590.802	0.0166111
590.880	0.0164428
590.958	0.0163078
591.036	0.0164163
591.114	0.0164300
591.192	0.0165237
591.271	0.0164561
591.349	0.0163704
591.427	0.0162798
591.505	0.0164859
591.583	0.0164688
591.661	0.0164324
591.739	0.0164140
591.817	0.0163725
591.896	0.0162569
591.974	0.0164590
592.052	0.0164471
592.130	0.0163939
592.208	0.0163474
592.286	0.0162840
592.364	0.0164141
592.442	0.0162779
592.521	0.0162840
592.599	0.0165023
592.677	0.0163122
592.755	0.0163579
592.833	0.0164832
592.911	0.0164262
592.989	0.0165489
593.067	0.0163828
593.146	0.0162965
593.224	0.0164137
593.302	0.0163862
593.380	0.0163476
593.458	0.0164137
593.536	0.0163737
593.614	0.0161784
593.692	0.0163551
593.771	0.0164079
593.849	0.0164738
593.927	0.0163837
594.005	0.0164539
594.083	0.0164118
594.161	0.0163524
594.239	0.0162742
594.317	0.0164127
594.396	0.0164958
594.474	0.0163322
594.552	0.0163956
594.630	0.0163139
594.708	0.0163593
594.786	0.0163509
594.864	0.0163456
594.942	0.0164955
595.021	0.0164796
595.099	0.0164446
595.177	0.0164879
595.255	0.0163253
595.333	0.0162719
595.411	0.0164587
595.489	0.0165702
595.567	0.0164916
595.646	0.0164092
595.724	0.0162268
595.802	0.0164305
595.880	0.0163886
595.958	0.0163266
596.036	0.0162664
596.114	0.0163020
596.192	0.0163301
596.271	0.0164518
596.349	0.0163416
596.427	0.0164703
596.505	0.0163725
596.583	0.0163107
596.661	0.0163783
596.739	0.0164110
596.817	0.0165014
596.896	0.0163576
596.974	0.0164236
597.052	0.0164079
597.130	0.0164381
597.208	0.0163631
597.286	0.0164391
597.364	0.0163526
597.442	0.0164433
597.521	0.0163355
597.599	0.0163170
597.677	0.0164973
597.755	0.0165355
597.833	0.0163198
597.911	0.0163775
597.989	0.0163396
598.067	0.0164454
598.146	0.0164725
598.224	0.0164274
598.302	0.0163777
598.380	0.0163783
598.458	0.0164802
598.536	0.0163749
598.614	0.0164675
598.692	0.0163543
598.771	0.0163011
598.849	0.0164828
598.927	0.0162576
599.005	0.0163341
599.083	0.0163105
599.161	0.0164259
599.239	0.0165777
599.317	0.0163151
599.396	0.0163463
599.474	0.0164034
599.552	0.0163998
599.630	0.0163501
599.708	0.0162773
599.786	0.0164310
599.864	0.0163804
599.942	0.0164703
600.021	0.0163666
600.099	0.0163132
600.177	0.0163528
600.255	0.0163051
600.333	0.0163959
600.411	0.0164111
600.489	0.0163567
600.567	0.0163634
600.646	0.0164605
600.724	0.0163385
600.802	0.0163332
600.880	0.0163842
600.958	0.0163848
601.036	0.0164175
601.114	0.0164736
601.192	0.0163858
601.271	0.0164135
601.349	0.0163010
601.427	0.0164481
601.505	0.0163617
601.583	0.0163596
601.661	0.0164086
601.739	0.0163798
601.817	0.0163322
601.896	0.0164539
601.974	0.0164986
602.052	0.0163648
602.130	0.0164680
602.208	0.0163805
602.286	0.0164684
602.364	0.0163689
602.442	0.0164217
602.521	0.0164091
602.599	0.0165182
602.677	0.0163438
602.755	0.0164080
602.833	0.0165187
602.911	0.0164348
602.989	0.0163368
603.067	0.0164498
603.146	0.0164379
603.224	0.0162947
603.302	0.0161472
603.380	0.0164028
603.458	0.0162967
603.536	0.0162346
603.614	0.0163459
603.692	0.0163625
603.771	0.0164030
603.849	0.0163152
603.927	0.0163203
604.005	0.0164076
604.083	0.0163776
604.161	0.0163284
604.239	0.0164514
604.317	0.0162675
604.396	0.0163679
604.474	0.0163046
604.552	0.0163954
604.630	0.0163811
604.708	0.0162580
604.786	0.0163030
604.864	0.0162996
604.942	0.0163862
605.021	0.0163895
605.099	0.0163265
605.177	0.0164650
605.255	0.0163206
605.333	0.0162296
605.411	0.0163136
605.489	0.0164848
605.567	0.0164330
605.646	0.0163155
605.724	0.0164503
605.802	0.0163515
605.880	0.0163813
605.958	0.0163904
606.036	0.0164905
606.114	0.0163972
606.192	0.0164113
606.271	0.0163768
606.349	0.0164596
606.427	0.0163777
606.505	0.0163685
606.583	0.0163522
606.661	0.0163332
606.739	0.0164175
606.817	0.0164223
606.896	0.0163945
606.974	0.0164397
607.052	0.0163882
607.130	0.0163645
607.208	0.0164874
607.286	0.0164084
607.364	0.0162960
607.442	0.0163402
607.521	0.0164192
607.599	0.0163950
607.677	0.0163226
607.755	0.0163265
607.833	0.0162365
607.911	0.0163655
607.989	0.0163617
608.067	0.0163810
608.146	0.0164297
608.224	0.0164904
608.302	0.0164799
608.380	0.0163615
608.458	0.0164018
608.536	0.0164510
608.614	0.0164078
608.692	0.0164610
608.771	0.0164554
608.849	0.0163451
608.927	0.0163223
609.005	0.0165240
609.083	0.0163982
609.161	0.0163377
609.239	0.0162742
609.317	0.0163787
609.396	0.0164072
609.474	0.0164011
609.552	0.0163010
609.630	0.0162996
609.708	0.0165476
609.786	0.0163808
609.864	0.0164201
609.942	0.0162994
610.021	0.0161996
610.099	0.0163869
610.177	0.0163713
610.255	0.0162945
610.333	0.0164449
610.411	0.0163253
610.489	0.0163247
610.567	0.0164972
610.646	0.0164413
610.724	0.0163947
610.802	0.0163127
610.880	0.0164835
610.958	0.0164270
611.036	0.0164079
611.114	0.0164219
611.192	0.0165511
611.271	0.0163200
611.349	0.0163562
611.427	0.0162617
611.505	0.0164516
611.583	0.0164703
611.661	0.0162542
611.739	0.0163019
611.817	0.0164539
611.896	0.0164704
611.974	0.0163435
612.052	0.0164000
612.130	0.0165565
612.208	0.0164144
612.286	0.0163995
612.364	0.0164493
612.442	0.0162883
612.521	0.0162956
612.599	0.0165803
612.677	0.0163786
612.755	0.0164117
612.833	0.0163339
612.911	0.0163479
612.989	0.0163612
613.067	0.0163870
613.146	0.0163821
613.224	0.0164819
613.302	0.0163456
613.380	0.0163359
613.458	0.0164569
613.536	0.0164235
613.614	0.0164111
613.692	0.0163895
613.771	0.0164355
613.849	0.0163859
613.927	0.0163523
614.005	0.0164828
614.083	0.0164195
614.161	0.0163620
614.239	0.0163515
614.317	0.0163254
614.396	0.0164227
614.474	0.0164319
614.552	0.0163244
614.630	0.0164211
614.708	0.0164226
614.786	0.0163778
614.864	0.0164578
614.942	0.0165774
615.021	0.0164664
615.099	0.0163277
615.177	0.0163553
615.255	0.0165247
615.333	0.0164829
615.411	0.0163970
615.489	0.0163402
615.567	0.0165321
615.646	0.0162942
615.724	0.0164501
615.802	0.0162831
615.880	0.0163944
615.958	0.0164015
616.036	0.0164607
616.114	0.0162427
616.192	0.0163054
616.271	0.0163959
616.349	0.0165334
616.427	0.0164600
616.505	0.0164043
616.583	0.0163103
616.661	0.0163278
616.739	0.0165414
616.817	0.0164741
616.896	0.0164870
616.974	0.0164357
617.052	0.0164162
617.130	0.0164072
617.208	0.0164211
617.286	0.0163580
617.364	0.0162679
617.442	0.0163298
617.521	0.0164397
617.599	0.0165193
617.677	0.0164224
617.755	0.0164534
617.833	0.0164156
617.911	0.0165001
617.989	0.0162768
618.067	0.0163298
618.146	0.0164808
618.224	0.0162215
618.302	0.0164574
618.380	0.0163254
618.458	0.0162847
618.536	0.0163605
618.614	0.0164281
618.692	0.0163876
618.771	0.0164461
618.849	0.0164441
618.927	0.0165196
619.005	0.0164466
619.083	0.0163733
619.161	0.0163325
619.239	0.0163784
619.317	0.0163646
619.396	0.0164386
619.474	0.0164540
619.552	0.0163828
619.630	0.0164268
619.708	0.0163919
619.786	0.0163387
619.864	0.0164691
619.942	0.0163874
620.021	0.0163355
620.099	0.0163395
620.177	0.0164081
620.255	0.0163963
620.333	0.0164484
620.411	0.0164648
620.489	0.0163728
620.567	0.0164436
620.646	0.0164423
620.724	0.0164008
620.802	0.0165158
620.880	0.0163386
620.958	0.0163641
621.036	0.0164114
621.114	0.0164426
621.192	0.0163518
621.271	0.0163077
621.349	0.0163082
621.427	0.0164146
621.505	0.0164725
621.583	0.0163580
621.661	0.0163474
621.739	0.0163903
621.817	0.0162955
621.896	0.0163168
621.974	0.0165355
622.052	0.0164060
622.130	0.0163420
622.208	0.0164104
622.286	0.0163617
622.364	0.0163505
622.442	0.0163161
622.521	0.0164178
622.599	0.0164815
622.677	0.0164169
622.755	0.0162538
622.833	0.0163293
622.911	0.0164410
622.989	0.0164072
623.067	0.0164489
623.146	0.0162981
623.224	0.0163696
623.302	0.0163851
623.380	0.0162845
623.458	0.0164609
623.536	0.0164017
623.614	0.0163171
623.692	0.0163267
623.771	0.0162743
623.849	0.0163880
623.927	0.0163879
624.005	0.0165224
624.083	0.0164778
624.161	0.0164325
624.239	0.0162427
624.317	0.0164962
624.396	0.0163665
624.474	0.0163517
624.552	0.0164452
624.630	0.0163139
624.708	0.0163503
624.786	0.0164468
624.864	0.0164159
624.942	0.0164809
625.021	0.0164569
625.099	0.0162358
625.177	0.0163844
625.255	0.0163518
625.333	0.0162364
625.411	0.0162904
625.489	0.0162688
625.567	0.0163894
625.646	0.0163364
625.724	0.0161729
625.802	0.0164375
625.880	0.0162955
625.958	0.0162761
626.036	0.0164505
626.114	0.0163734
626.192	0.0163335
626.271	0.0164079
626.349	0.0164697
626.427	0.0164277
626.505	0.0163125
626.583	0.0163689
626.661	0.0164360
626.739	0.0162032
626.817	0.0164344
626.896	0.0165943
626.974	0.0164067
627.052	0.0163625
627.130	0.0163853
627.208	0.0165061
627.286	0.0163371
627.364	0.0163454
627.442	0.0164825
627.521	0.0164530
627.599	0.0165077
627.677	0.0164362
627.755	0.0163517
627.833	0.0163531
627.911	0.0164452
627.989	0.0163805
628.067	0.0164304
628.146	0.0164053
628.224	0.0162450
628.302	0.0162984
628.380	0.0164482
628.458	0.0162679
628.536	0.0162487
628.614	0.0163670
628.692	0.0164003
628.771	0.0163443
628.849	0.0165191
628.927	0.0164778
629.005	0.0163435
629.083	0.0162850
629.161	0.0164009
629.239	0.0163780
629.317	0.0163338
629.396	0.0164040
629.474	0.0163749
629.552	0.0164467
629.630	0.0164892
629.708	0.0164798
629.786	0.0164565
629.864	0.0163892
629.942	0.0163615
630.021	0.0165022
630.099	0.0164843
630.177	0.0164130
630.255	0.0165063
630.333	0.0164520
630.411	0.0164312
630.489	0.0164349
630.567	0.0164713
630.646	0.0164043
630.724	0.0163250
630.802	0.0163595
630.880	0.0163527
630.958	0.0163340
631.036	0.0163000
631.114	0.0163989
631.192	0.0163026
631.271	0.0163561
631.349	0.0163457
631.427	0.0163244
631.505	0.0164109
631.583	0.0163125
631.661	0.0163960
631.739	0.0163452
631.817	0.0163763
631.896	0.0162875
631.974	0.0163144
632.052	0.0163123
632.130	0.0163854
632.208	0.0164577
632.286	0.0162405
632.364	0.0163630
632.442	0.0162571
632.521	0.0162871
632.599	0.0163728
632.677	0.0164926
632.755	0.0163239
632.833	0.0163629
632.911	0.0163466
632.989	0.0163567
633.067	0.0162867
633.146	0.0163053
633.224	0.0163892
633.302	0.0164825
633.380	0.0164056
633.458	0.0164745
633.536	0.0164677
633.614	0.0163427
633.692	0.0163078
633.771	0.0163438
633.849	0.0163787
633.927	0.0163749
634.005	0.0162856
634.083	0.0163401
634.161	0.0163420
634.239	0.0163689
634.317	0.0164967
634.396	0.0164133
634.474	0.0164289
634.552	0.0163246
634.630	0.0163755
634.708	0.0164232
634.786	0.0163848
634.864	0.0162978
634.942	0.0164017
635.021	0.0162821
635.099	0.0163979
635.177	0.0163351
635.255	0.0164155
635.333	0.0162984
635.411	0.0164012
635.489	0.0162961
635.567	0.0162936
635.646	0.0163628
635.724	0.0162878
635.802	0.0165070
635.880	0.0164204
635.958	0.0163557
636.036	0.0163615
636.114	0.0163159
636.192	0.0164755
636.271	0.0163702
636.349	0.0164040
636.427	0.0162361
636.505	0.0163743
636.583	0.0165454
636.661	0.0164536
636.739	0.0162962
636.817	0.0163651
636.896	0.0164238
636.974	0.0164864
637.052	0.0164439
637.130	0.0164415
637.208	0.0163788
637.286	0.0164594
637.364	0.0165131
637.442	0.0163533
637.521	0.0163928
637.599	0.0164111
637.677	0.0163745
637.755	0.0164999
637.833	0.0164796
637.911	0.0163997
637.989	0.0165312
638.067	0.0163387
638.146	0.0164977
638.224	0.0163342
638.302	0.0163348
638.380	0.0164999
638.458	0.0164172
638.536	0.0163682
638.614	0.0162375
638.692	0.0162960
638.771	0.0164043
638.849	0.0162738
638.927	0.0164364
639.005	0.0164763
639.083	0.0164039
639.161	0.0164191
639.239	0.0164542
639.317	0.0164899
639.396	0.0164388
639.474	0.0163607
639.552	0.0163983
639.630	0.0163509
639.708	0.0165418
639.786	0.0164986
639.864	0.0164053
639.942	0.0163578
640.021	0.0163078
640.099	0.0163851
640.177	0.0162949
640.255	0.0164828
640.333	0.0163111
640.411	0.0164438
640.489	0.0163936
640.567	0.0164172
640.646	0.0165192
640.724	0.0164526
640.802	0.0163146
640.880	0.0163509
640.958	0.0164374
641.036	0.0164390
641.114	0.0164414
641.192	0.0164106
641.271	0.0164670
641.349	0.0164175
641.427	0.0164710
641.505	0.0164726
641.583	0.0164285
641.661	0.0164278
641.739	0.0164195
641.817	0.0163490
641.896	0.0163802
641.974	0.0163210
642.052	0.0164071
642.130	0.0163956
642.208	0.0164966
642.286	0.0163369
642.364	0.0163780
642.442	0.0163379
642.521	0.0163669
642.599	0.0163565
642.677	0.0164637
642.755	0.0166087
642.833	0.0163844
642.911	0.0164027
642.989	0.0163347
643.067	0.0164355
643.146	0.0164082
643.224	0.0163593
643.302	0.0163946
643.380	0.0163370
643.458	0.0163734
643.536	0.0163605
643.614	0.0163911
643.692	0.0164132
643.771	0.0163660
643.849	0.0164275
643.927	0.0165004
644.005	0.0164539
644.083	0.0164445
644.161	0.0162642
644.239	0.0162704
644.317	0.0162907
644.396	0.0165338
644.474	0.0165228
644.552	0.0162801
644.630	0.0164762
644.708	0.0164859
644.786	0.0164872
644.864	0.0163148
644.942	0.0164219
645.021	0.0163204
645.099	0.0163271
645.177	0.0163714
645.255	0.0165093
645.333	0.0165064
645.411	0.0163221
645.489	0.0164171
645.567	0.0163996
645.646	0.0164710
645.724	0.0163393
645.802	0.0162390
645.880	0.0163947
645.958	0.0163168
646.036	0.0163906
646.114	0.0164787
646.192	0.0163931
646.271	0.0163547
646.349	0.0164864
646.427	0.0163557
646.505	0.0165209
646.583	0.0164014
646.661	0.0164015
646.739	0.0163629
646.817	0.0163930
646.896	0.0164001
646.974	0.0163795
647.052	0.0164783
647.130	0.0163709
647.208	0.0163182
647.286	0.0164214
647.364	0.0164045
647.442	0.0163072
647.521	0.0163552
647.599	0.0163650
647.677	0.0163382
647.755	0.0163000
647.833	0.0163027
647.911	0.0163568
647.989	0.0163499
648.067	0.0162798
648.146	0.0163710
648.224	0.0164522
648.302	0.0163980
648.380	0.0162846
648.458	0.0163171
648.536	0.0163287
648.614	0.0164186
648.692	0.0162902
648.771	0.0162630
648.849	0.0164226
648.927	0.0163545
649.005	0.0164207
649.083	0.0162846
649.161	0.0162489
649.239	0.0164314
649.317	0.0163180
649.396	0.0163944
649.474	0.0164565
649.552	0.0163226
649.630	0.0163078
649.708	0.0163599
649.786	0.0163948
649.864	0.0164556
649.942	0.0164343
650.021	0.0163915
650.099	0.0161717
650.177	0.0163557
650.255	0.0164061
650.333	0.0163103
650.411	0.0164001
650.489	0.0164032
650.567	0.0163017
650.646	0.0163399
650.724	0.0163613
650.802	0.0163293
650.880	0.0164043
650.958	0.0163358
651.036	0.0164522
651.114	0.0163924
651.192	0.0163594
651.271	0.0164086
651.349	0.0164432
651.427	0.0163841
651.505	0.0164350
651.583	0.0163275
651.661	0.0164132
651.739	0.0164378
651.817	0.0163048
651.896	0.0164471
651.974	0.0163248
652.052	0.0164181
652.130	0.0164023
652.208	0.0162440
652.286	0.0163495
652.364	0.0162386
652.442	0.0163098
652.521	0.0163490
652.599	0.0162139
652.677	0.0163153
652.755	0.0162410
652.833	0.0163313
652.911	0.0164428
652.989	0.0163689
653.067	0.0163457
653.146	0.0163689
653.224	0.0164364
653.302	0.0163311
653.380	0.0162311
653.458	0.0165486
653.536	0.0164041
653.614	0.0164053
653.692	0.0163456
653.771	0.0164619
653.849	0.0164322
653.927	0.0163384
654.005	0.0163975
654.083	0.0164018
654.161	0.0163285
654.239	0.0163778
654.317	0.0164492
654.396	0.0163974
654.474	0.0164317
654.552	0.0164176
654.630	0.0164131
654.708	0.0164775
654.786	0.0164534
654.864	0.0163406
654.942	0.0163383
655.021	0.0165614
655.099	0.0164462
655.177	0.0163675
655.255	0.0164069
655.333	0.0164220
655.411	0.0163247
655.489	0.0163643
655.567	0.0165338
655.646	0.0164432
655.724	0.0163918
655.802	0.0163956
655.880	0.0164368
655.958	0.0164346
656.036	0.0163182
656.114	0.0164919
656.192	0.0164735
656.271	0.0163153
656.349	0.0163695
656.427	0.0162303
656.505	0.0164460
656.583	0.0163374
656.661	0.0165126
656.739	0.0163641
656.817	0.0164061
656.896	0.0164578
656.974	0.0165639
657.052	0.0163313
657.130	0.0163132
657.208	0.0163274
657.286	0.0163914
657.364	0.0163237
657.442	0.0162197
657.521	0.0164308
657.599	0.0164404
657.677	0.0163915
657.755	0.0163661
657.833	0.0165237
657.911	0.0164788
657.989	0.0164020
658.067	0.0163865
658.146	0.0163670
658.224	0.0163789
658.302	0.0163866
658.380	0.0164301
658.458	0.0164537
658.536	0.0163801
658.614	0.0164471
658.692	0.0164804
658.771	0.0163495
658.849	0.0164855
658.927	0.0164209
659.005	0.0164245
659.083	0.0163577
659.161	0.0164648
659.239	0.0164737
659.317	0.0163772
659.396	0.0165728
659.474	0.0163945
659.552	0.0164899
659.630	0.0164265
659.708	0.0164301
659.786	0.0164718
659.864	0.0163373
659.942	0.0164256
660.021	0.0164194
660.099	0.0164664
660.177	0.0163752
660.255	0.0163474
660.333	0.0164507
660.411	0.0164277
660.489	0.0164783
660.567	0.0163547
660.646	0.0164193
660.724	0.0163531
660.802	0.0164539
660.880	0.0163870
660.958	0.0164566
661.036	0.0163753
661.114	0.0163286
661.192	0.0163470
661.271	0.0163477
661.349	0.0164856
661.427	0.0163104
661.505	0.0162546
661.583	0.0164587
661.661	0.0163802
661.739	0.0164017
661.817	0.0163955
661.896	0.0164600
661.974	0.0164013
662.052	0.0165069
662.130	0.0164156
662.208	0.0164906
662.286	0.0165126
662.364	0.0164219
662.442	0.0165160
662.521	0.0165051
662.599	0.0164985
662.677	0.0164763
662.755	0.0164008
662.833	0.0165621
662.911	0.0164159
662.989	0.0162762
663.067	0.0164696
663.146	0.0165092
663.224	0.0163612
663.302	0.0164366
663.380	0.0163524
663.458	0.0162922
663.536	0.0163963
663.614	0.0163362
663.692	0.0165936
663.771	0.0162900
663.849	0.0163223
663.927	0.0165382
664.005	0.0164890
664.083	0.0163551
664.161	0.0163039
664.239	0.0164668
664.317	0.0164647
664.396	0.0163591
664.474	0.0164320
664.552	0.0163794
664.630	0.0164334
664.708	0.0164460
664.786	0.0163932
664.864	0.0164576
664.942	0.0164697
665.021	0.0163302
665.099	0.0164603
665.177	0.0163699
665.255	0.0163584
665.333	0.0163770
665.411	0.0164609
665.489	0.0163773
665.567	0.0163192
665.646	0.0163684
665.724	0.0164312
665.802	0.0164339
665.880	0.0164996
665.958	0.0164201
666.036	0.0163682
666.114	0.0164455
666.192	0.0165521
666.271	0.0163815
666.349	0.0164390
666.427	0.0164045
666.505	0.0163586
666.583	0.0165415
666.661	0.0164726
666.739	0.0163331
666.817	0.0163230
666.896	0.0163701
666.974	0.0164088
667.052	0.0164731
667.130	0.0164806
667.208	0.0164299
667.286	0.0163776
667.364	0.0164641
667.442	0.0163636
667.521	0.0163148
667.599	0.0163560
667.677	0.0162950
667.755	0.0165379
667.833	0.0163895
667.911	0.0163493
667.989	0.0163480
668.067	0.0165539
668.146	0.0165498
668.224	0.0163921
668.302	0.0164456
668.380	0.0164455
668.458	0.0162736
668.536	0.0164521
668.614	0.0164635
668.692	0.0163832
668.771	0.0163165
668.849	0.0163925
668.927	0.0164268
669.005	0.0163718
669.083	0.0163532
669.161	0.0163380
669.239	0.0164320
669.317	0.0164888
669.396	0.0164696
669.474	0.0163602
669.552	0.0163779
669.630	0.0163746
669.708	0.0164523
669.786	0.0164673
669.864	0.0163440
669.942	0.0164512
670.021	0.0165009
670.099	0.0163352
670.177	0.0163866
670.255	0.0163029
670.333	0.0163813
670.411	0.0164625
670.489	0.0163542
670.567	0.0163895
670.646	0.0164098
670.724	0.0164973
670.802	0.0163318
670.880	0.0163713
670.958	0.0163451
671.036	0.0164151
671.114	0.0164589
671.192	0.0165086
671.271	0.0162167
671.349	0.0164439
671.427	0.0163311
671.505	0.0163711
671.583	0.0164079
671.661	0.0163222
671.739	0.0164274
671.817	0.0163539
671.896	0.0163496
671.974	0.0163953
672.052	0.0163620
672.130	0.0164439
672.208	0.0163521
672.286	0.0163208
672.364	0.0163689
672.442	0.0164236
672.521	0.0163268
672.599	0.0163149
672.677	0.0163819
672.755	0.0164631
672.833	0.0163950
672.911	0.0162780
672.989	0.0165243
673.067	0.0164107
673.146	0.0162681
673.224	0.0162805
673.302	0.0165413
673.380	0.0163830
673.458	0.0163442
673.536	0.0163507
673.614	0.0162405
673.692	0.0163401
673.771	0.0164196
673.849	0.0163247
673.927	0.0162675
674.005	0.0163049
674.083	0.0164276
674.161	0.0164428
674.239	0.0163856
674.317	0.0164653
674.396	0.0162276
674.474	0.0163205
674.552	0.0164347
674.630	0.0162547
674.708	0.0162707
674.786	0.0164442
674.864	0.0164630
674.942	0.0164269
675.021	0.0164182
675.099	0.0163747
675.177	0.0162695
675.255	0.0163015
675.333	0.0163449
675.411	0.0163623
675.489	0.0164176
675.567	0.0163268
675.646	0.0162553
675.724	0.0163658
675.802	0.0163329
675.880	0.0163996
675.958	0.0163187
676.036	0.0162971
676.114	0.0164265
676.192	0.0164048
676.271	0.0163631
676.349	0.0163554
676.427	0.0164851
676.505	0.0163363
676.583	0.0162758
676.661	0.0164625
676.739	0.0163723
676.817	0.0164509
676.896	0.0162514
676.974	0.0163856
677.052	0.0163387
677.130	0.0163469
677.208	0.0164563
677.286	0.0164081
677.364	0.0163750
677.442	0.0163944
677.521	0.0164902
677.599	0.0163799
677.677	0.0164865
677.755	0.0164014
677.833	0.0164421
677.911	0.0162370
677.989	0.0163299
678.067	0.0164247
678.146	0.0164445
678.224	0.0163799
678.302	0.0163428
678.380	0.0163922
678.458	0.0163121
678.536	0.0163078
678.614	0.0165788
678.692	0.0164297
678.771	0.0163666
678.849	0.0164633
678.927	0.0163373
679.005	0.0163924
679.083	0.0165150
679.161	0.0163589
679.239	0.0163689
679.317	0.0164819
679.396	0.0164619
679.474	0.0163704
679.552	0.0163820
679.630	0.0163054
679.708	0.0163748
679.786	0.0164477
679.864	0.0164659
679.942	0.0165127
680.021	0.0163385
680.099	0.0162570
680.177	0.0163578
680.255	0.0164803
680.333	0.0165083
680.411	0.0165083
680.489	0.0165595
680.567	0.0164724
680.646	0.0163133
680.724	0.0163638
680.802	0.0164024
680.880	0.0165622
680.958	0.0164677
681.036	0.0163965
681.114	0.0164804
681.192	0.0165295
681.271	0.0165369
681.349	0.0164716
681.427	0.0165073
681.505	0.0163835
681.583	0.0165243
681.661	0.0164639
681.739	0.0164243
681.817	0.0163323
681.896	0.0163716
681.974	0.0165028
682.052	0.0163420
682.130	0.0165501
682.208	0.0164405
682.286	0.0163932
682.364	0.0164268
682.442	0.0164991
682.521	0.0163725
682.599	0.0162848
682.677	0.0162882
682.755	0.0164552
682.833	0.0165710
682.911	0.0165612
682.989	0.0164156
683.067	0.0164015
683.146	0.0163925
683.224	0.0165167
683.302	0.0164483
683.380	0.0164852
683.458	0.0165398
683.536	0.0162259
683.614	0.0164324
683.692	0.0164889
683.771	0.0164191
683.849	0.0164540
683.927	0.0164139
684.005	0.0163439
684.083	0.0164189
684.161	0.0163669
684.239	0.0163319
684.317	0.0163537
684.396	0.0166146
684.474	0.0163028
684.552	0.0164719
684.630	0.0163299
684.708	0.0163279
684.786	0.0164191
684.864	0.0163436
684.942	0.0164185
685.021	0.0163958
685.099	0.0163424
685.177	0.0164018
685.255	0.0163756
685.333	0.0163715
685.411	0.0164350
685.489	0.0163375
685.567	0.0162321
685.646	0.0163887
685.724	0.0163803
685.802	0.0163342
685.880	0.0163965
685.958	0.0163781
686.036	0.0163774
686.114	0.0162460
686.192	0.0165018
686.271	0.0163622
686.349	0.0163408
686.427	0.0162757
686.505	0.0163908
686.583	0.0164315
686.661	0.0164204
686.739	0.0163490
686.817	0.0164263
686.896	0.0163741
686.974	0.0164488
687.052	0.0164045
687.130	0.0164422
687.208	0.0164655
687.286	0.0164496
687.364	0.0165237
687.442	0.0163985
687.521	0.0162852
687.599	0.0164545
687.677	0.0164264
687.755	0.0164223
687.833	0.0164503
687.911	0.0162599
687.989	0.0164064
688.067	0.0164452
688.146	0.0164744
688.224	0.0163675
688.302	0.0163902
688.380	0.0164973
688.458	0.0164287
688.536	0.0162992
688.614	0.0163827
688.692	0.0163676
688.771	0.0163325
688.849	0.0163917
688.927	0.0163657
689.005	0.0164212
689.083	0.0163452
689.161	0.0163983
689.239	0.0164376
689.317	0.0163276
689.396	0.0163727
689.474	0.0164025
689.552	0.0165048
689.630	0.0162311
689.708	0.0162925
689.786	0.0163961
689.864	0.0165181
689.942	0.0164764
690.021	0.0163309
690.099	0.0161732
690.177	0.0162703
690.255	0.0165108
690.333	0.0163533
690.411	0.0161948
690.489	0.0163084
690.567	0.0165385
690.646	0.0163682
690.724	0.0164346
690.802	0.0165215
690.880	0.0164247
690.958	0.0163625
691.036	0.0163938
691.114	0.0164893
691.192	0.0164131
691.271	0.0164381
691.349	0.0163158
691.427	0.0164118
691.505	0.0163423
691.583	0.0163512
691.661	0.0163282
691.739	0.0163558
691.817	0.0165894
691.896	0.0165040
691.974	0.0163240
692.052	0.0164182
692.130	0.0165006
692.208	0.0163115
692.286	0.0162581
692.364	0.0162801
692.442	0.0163716
692.521	0.0163050
692.599	0.0163650
692.677	0.0164819
692.755	0.0163416
692.833	0.0162965
692.911	0.0162595
692.989	0.0163136
693.067	0.0164420
693.146	0.0163918
693.224	0.0162875
693.302	0.0162496
693.380	0.0163034
693.458	0.0164387
693.536	0.0163694
693.614	0.0162204
693.692	0.0163090
693.771	0.0164733
693.849	0.0164864
693.927	0.0163470
694.005	0.0164505
694.083	0.0165020
694.161	0.0165751
694.239	0.0163710
694.317	0.0165285
694.396	0.0164935
694.474	0.0166238
694.552	0.0164819
694.630	0.0164705
694.708	0.0163826
694.786	0.0163433
694.864	0.0162749
694.942	0.0162540
695.021	0.0162546
695.099	0.0161816
695.177	0.0162927
695.255	0.0162993
695.333	0.0163324
695.411	0.0163721
695.489	0.0165240
695.567	0.0167251
695.646	0.0165919
695.724	0.0164923
695.802	0.0165753
695.880	0.0164494
695.958	0.0163892
696.036	0.0161134
696.114	0.0162015
696.192	0.0160374
696.271	0.0159303
696.349	0.0160058
696.427	0.0158830
696.505	0.0159688
696.583	0.0159944
696.661	0.0161494
696.739	0.0160946
696.817	0.0162869
696.896	0.0166032
696.974	0.0168370
697.052	0.0169569
697.130	0.0171719
697.208	0.0172187
697.286	0.0171557
697.364	0.0171952
697.442	0.0170573
697.521	0.0167875
697.599	0.0164344
697.677	0.0162096
697.755	0.0160908
697.833	0.0157669
697.911	0.0154245
697.989	0.0153898
698.067	0.0153402
698.146	0.0152924
698.224	0.0154552
698.302	0.0156339
698.380	0.0158874
698.458	0.0160403
698.536	0.0162708
698.614	0.0165842
698.692	0.0167245
698.771	0.0167651
698.849	0.0167833
698.927	0.0168560
699.005	0.0167250
699.083	0.0165342
699.161	0.0164328
699.239	0.0161928
699.317	0.0161852
699.396	0.0161910
699.474	0.0162864
699.552	0.0163832
699.630	0.0168087
699.708	0.0170192
699.786	0.0173330
699.864	0.0178090
699.942	0.0180804
700.021	0.0181513
700.099	0.0182334
700.177	0.0182729
700.255	0.0181452
700.333	0.0178404
700.411	0.0173112
700.489	0.0169907
700.567	0.0163713
700.646	0.0156500
700.724	0.0150886
700.802	0.0144093
700.880	0.0138023
700.958	0.0135027
701.036	0.0133276
701.114	0.0132083
701.192	0.0133375
701.271	0.0135984
701.349	0.0139834
701.427	0.0145374
701.505	0.0149970
701.583	0.0156600
701.661	0.0161671
701.739	0.0167256
701.817	0.0169437
701.896	0.0174695
701.974	0.0179013
702.052	0.0180074
702.130	0.0178606
702.208	0.0176564
702.286	0.0173631
702.364	0.0172083
702.442	0.0168557
702.521	0.0167524
702.599	0.0164989
702.677	0.0162588
702.755	0.0161762
702.833	0.0164024
702.911	0.0165729
702.989	0.0170979
703.067	0.0174471
703.146	0.0179945
703.224	0.0187597
703.302	0.0195727
703.380	0.0201940
703.458	0.0209632
703.536	0.0212885
703.614	0.0214539
703.692	0.0212566
703.771	0.0208981
703.849	0.0202995
703.927	0.0192924
704.005	0.0182090
704.083	0.0168636
704.161	0.0154127
704.239	0.0139731
704.317	0.0125589
704.396	0.0113178
704.474	0.0103120
704.552	0.00950066
704.630	0.00888290
704.708	0.00844078
704.786	0.00820496
704.864	0.00840828
704.942	0.00896637
705.021	0.00938705
705.099	0.0101253
705.177	0.0108036
705.255	0.0118068
705.333	0.0127649
705.411	0.0138715
705.489	0.0149819
705.567	0.0160637
705.646	0.0170490
705.724	0.0183039
705.802	0.0193956
705.880	0.0205112
705.958	0.0215682
706.036	0.0225077
706.114	0.0235393
706.192	0.0244157
706.271	0.0252744
706.349	0.0257951
706.427	0.0264352
706.505	0.0268528
706.583	0.0270886
706.661	0.0269487
706.739	0.0262230
706.817	0.0252074
706.896	0.0239709
706.974	0.0224688
707.052	0.0203566
707.130	0.0184176
707.208	0.0161774
707.286	0.0142114
707.364	0.0121194
707.442	0.0102830
707.521	0.00886093
707.599	0.00758415
707.677	0.00677216
707.755	0.00626183
707.833	0.00606659
707.911	0.00603783
707.989	0.00642174
708.067	0.00677246
708.146	0.00748268
708.224	0.00838127
708.302	0.00913338
708.380	0.0101241
708.458	0.0113311
708.536	0.0122657
708.614	0.0135340
708.692	0.0147542
708.771	0.0159111
708.849	0.0169517
708.927	0.0181544
709.005	0.0191240
709.083	0.0200609
709.161	0.0211173
709.239	0.0220018
709.317	0.0228120
709.396	0.0234256
709.474	0.0239822
709.552	0.0243643
709.630	0.0247931
709.708	0.0247942
709.786	0.0245744
709.864	0.0240102
709.942	0.0233662
710.021	0.0224310
710.099	0.0212478
710.177	0.0199460
710.255	0.0184752
710.333	0.0170144
710.411	0.0157658
710.489	0.0146362
710.567	0.0136288
710.646	0.0128584
710.724	0.0123882
710.802	0.0120724
710.880	0.0118169
710.958	0.0120054
711.036	0.0120474
711.114	0.0122897
711.192	0.0127676
711.271	0.0130280
711.349	0.0134766
711.427	0.0137961
711.505	0.0141856
711.583	0.0143829
711.661	0.0144875
711.739	0.0146516
711.817	0.0147637
711.896	0.0147221
711.974	0.0148775
712.052	0.0153219
712.130	0.0155251
712.208	0.0157122
712.286	0.0160519
712.364	0.0162659
712.442	0.0166886
712.521	0.0170802
712.599	0.0176550
712.677	0.0178313
712.755	0.0179790
712.833	0.0183754
712.911	0.0184322
712.989	0.0186367
713.067	0.0185009
713.146	0.0185894
713.224	0.0187401
713.302	0.0186721
713.380	0.0186046
713.458	0.0188599
713.536	0.0189491
713.614	0.0191251
713.692	0.0191319
713.771	0.0192890
713.849	0.0191683
713.927	0.0191129
714.005	0.0189402
714.083	0.0187435
714.161	0.0181548
714.239	0.0178872
714.317	0.0173644
714.396	0.0167186
714.474	0.0159595
714.552	0.0152010
714.630	0.0142432
714.708	0.0133907
714.786	0.0124570
714.864	0.0116919
714.942	0.0108789
715.021	0.0104382
715.099	0.00982094
715.177	0.00965042
715.255	0.00941376
715.333	0.00959229
715.411	0.0101482
715.489	0.0106384
715.567	0.0112494
715.646	0.0121725
715.724	0.0131458
715.802	0.0142112
715.880	0.0153085
715.958	0.0164960
716.036	0.0177610
716.114	0.0187423
716.192	0.0197922
716.271	0.0208855
716.349	0.0215681
716.427	0.0222626
716.505	0.0229561
716.583	0.0233401
716.661	0.0235482
716.739	0.0236790
716.817	0.0235363
716.896	0.0234356
716.974	0.0232166
717.052	0.0228725
717.130	0.0221481
717.208	0.0213409
717.286	0.0205812
717.364	0.0197532
717.442	0.0188381
717.521	0.0180112
717.599	0.0169140
717.677	0.0159568
717.755	0.0149011
717.833	0.0139384
717.911	0.0129464
717.989	0.0120895
718.067	0.0116496
718.146	0.0110268
718.224	0.0105266
718.302	0.0103216
718.380	0.0102416
718.458	0.0104180
718.536	0.0106841
718.614	0.0107896
718.692	0.0114183
718.771	0.0121210
718.849	0.0127383
718.927	0.0134129
719.005	0.0141566
719.083	0.0149355
719.161	0.0155344
719.239	0.0161005
719.317	0.0167405
719.396	0.0172284
719.474	0.0176366
719.552	0.0180738
719.630	0.0182691
719.708	0.0185017
719.786	0.0186359
719.864	0.0188547
719.942	0.0190634
720.021	0.0191444
720.099	0.0191916
720.177	0.0189904
720.255	0.0189956
720.333	0.0188369
720.411	0.0187457
720.489	0.0184663
720.567	0.0181620
720.646	0.0178107
720.724	0.0173836
720.802	0.0172298
720.880	0.0166715
720.958	0.0162655
721.036	0.0158898
721.114	0.0155639
721.192	0.0152575
721.271	0.0148995
721.349	0.0148988
721.427	0.0148560
721.505	0.0149178
721.583	0.0148148
721.661	0.0151031
721.739	0.0154704
721.817	0.0156725
721.896	0.0158525
721.974	0.0163723
722.052	0.0166792
722.130	0.0167912
722.208	0.0170910
722.286	0.0173833
722.364	0.0174933
722.442	0.0176488
722.521	0.0175193
722.599	0.0174416
722.677	0.0174645
722.755	0.0170824
722.833	0.0170070
722.911	0.0169201
722.989	0.0166552
723.067	0.0165443
723.146	0.0163899
723.224	0.0163280
723.302	0.0163688
723.380	0.0160892
723.458	0.0160140
723.536	0.0160332
723.614	0.0161256
723.692	0.0160729
723.771	0.0160915
723.849	0.0160804
723.927	0.0160959
724.005	0.0161279
724.083	0.0160841
724.161	0.0160707
724.239	0.0161078
724.317	0.0162169
724.396	0.0161339
724.474	0.0159293
724.552	0.0159602
724.630	0.0160151
724.708	0.0156886
724.786	0.0155981
724.864	0.0155788
724.942	0.0154682
725.021	0.0154681
725.099	0.0155028
725.177	0.0154057
725.255	0.0155202
725.333	0.0158326
725.411	0.0157993
725.489	0.0159592
725.567	0.0160770
725.646	0.0161967
725.724	0.0164827
725.802	0.0163339
725.880	0.0165316
725.958	0.0165197
726.036	0.0165114
726.114	0.0167164
726.192	0.0166538
726.271	0.0165276
726.349	0.0166124
726.427	0.0168219
726.505	0.0167146
726.583	0.0169475
726.661	0.0169930
726.739	0.0170836
726.817	0.0174140
726.896	0.0174104
726.974	0.0176096
727.052	0.0177027
727.130	0.0177820
727.208	0.0178258
727.286	0.0177192
727.364	0.0179689
727.442	0.0177881
727.521	0.0175639
727.599	0.0173168
727.677	0.0170426
727.755	0.0168025
727.833	0.0165076
727.911	0.0161926
727.989	0.0159346
728.067	0.0155022
728.146	0.0152778
728.224	0.0151286
728.302	0.0150448
728.380	0.0147386
728.458	0.0146499
728.536	0.0146035
728.614	0.0146778
728.692	0.0145097
728.771	0.0148065
728.849	0.0149734
728.927	0.0149792
729.005	0.0153255
729.083	0.0155310
729.161	0.0157695
729.239	0.0158701
729.317	0.0159801
729.396	0.0162409
729.474	0.0164851
729.552	0.0167906
729.630	0.0169235
729.708	0.0170947
729.786	0.0170612
729.864	0.0173958
729.942	0.0175092
730.021	0.0176121
730.099	0.0174738
730.177	0.0178051
730.255	0.0178770
730.333	0.0178430
730.411	0.0177190
730.489	0.0177290
730.567	0.0175842
730.646	0.0174067
730.724	0.0172565
730.802	0.0170042
730.880	0.0170012
730.958	0.0168520
731.036	0.0165771
731.114	0.0164098
731.192	0.0162314
731.271	0.0161749
731.349	0.0160473
731.427	0.0159113
731.505	0.0159547
731.583	0.0157520
731.661	0.0159084
731.739	0.0158376
731.817	0.0158809
731.896	0.0156759
731.974	0.0158088
732.052	0.0158092
732.130	0.0157536
732.208	0.0157838
732.286	0.0158556
732.364	0.0158271
732.442	0.0159711
732.521	0.0160161
732.599	0.0161138
732.677	0.0160879
732.755	0.0163255
732.833	0.0163359
732.911	0.0165967
732.989	0.0166339
733.067	0.0166887
733.146	0.0168312
733.224	0.0169584
733.302	0.0171640
733.380	0.0171223
733.458	0.0170716
733.536	0.0170839
733.614	0.0170244
733.692	0.0168926
733.771	0.0167966
733.849	0.0166290
733.927	0.0166088
734.005	0.0163549
734.083	0.0162229
734.161	0.0161359
734.239	0.0159561
734.317	0.0158508
734.396	0.0158077
734.474	0.0158405
734.552	0.0158826
734.630	0.0159014
734.708	0.0159441
734.786	0.0159689
734.864	0.0161387
734.942	0.0162692
735.021	0.0163607
735.099	0.0163969
735.177	0.0164776
735.255	0.0166758
735.333	0.0164543
735.411	0.0164053
735.489	0.0164140
735.567	0.0164228
735.646	0.0164925
735.724	0.0165092
735.802	0.0164111
735.880	0.0163628
735.958	0.0164339
736.036	0.0163576
736.114	0.0166219
736.192	0.0167965
736.271	0.0168831
736.349	0.0168848
736.427	0.0171027
736.505	0.0170756
736.583	0.0169337
736.661	0.0171609
736.739	0.0171710
736.817	0.0171745
736.896	0.0172095
736.974	0.0171000
737.052	0.0170260
737.130	0.0167850
737.208	0.0167944
737.286	0.0167728
737.364	0.0168095
737.442	0.0168057
737.521	0.0167237
737.599	0.0165665
737.677	0.0165879
737.755	0.0165762
737.833	0.0167953
737.911	0.0167274
737.989	0.0165318
738.067	0.0165926
738.146	0.0165262
738.224	0.0164992
738.302	0.0163855
738.380	0.0162855
738.458	0.0161644
738.536	0.0161613
738.614	0.0160289
738.692	0.0158712
738.771	0.0156403
738.849	0.0156065
738.927	0.0156573
739.005	0.0154852
739.083	0.0153930
739.161	0.0153086
739.239	0.0154421
739.317	0.0154731
739.396	0.0155420
739.474	0.0155933
739.552	0.0156650
739.630	0.0157168
739.708	0.0157056
739.786	0.0158270
739.864	0.0159216
739.942	0.0157352
740.021	0.0158863
740.099	0.0159441
740.177	0.0159441
740.255	0.0159720
740.333	0.0160938
740.411	0.0162576
740.489	0.0164365
740.567	0.0164420
740.646	0.0166725
740.724	0.0169810
740.802	0.0170152
740.880	0.0172568
740.958	0.0173984
741.036	0.0174747
741.114	0.0175627
741.192	0.0177184
741.271	0.0177112
741.349	0.0176936
741.427	0.0177843
741.505	0.0177848
741.583	0.0176842
741.661	0.0173700
741.739	0.0173849
741.817	0.0172099
741.896	0.0171712
741.974	0.0172459
742.052	0.0168531
742.130	0.0168536
742.208	0.0166769
742.286	0.0166392
742.364	0.0164278
742.442	0.0163637
742.521	0.0162743
742.599	0.0161543
742.677	0.0159840
742.755	0.0158480
742.833	0.0156281
742.911	0.0154646
742.989	0.0154460
743.067	0.0153896
743.146	0.0152121
743.224	0.0152024
743.302	0.0153154
743.380	0.0153765
743.458	0.0154730
743.536	0.0156295
743.614	0.0157580
743.692	0.0160355
743.771	0.0161664
743.849	0.0164443
743.927	0.0167131
744.005	0.0168477
744.083	0.0171444
744.161	0.0171130
744.239	0.0171052
744.317	0.0172405
744.396	0.0171632
744.474	0.0170784
744.552	0.0168612
744.630	0.0167722
744.708	0.0167793
744.786	0.0166548
744.864	0.0163914
744.942	0.0164347
745.021	0.0163792
745.099	0.0162994
745.177	0.0161042
745.255	0.0162172
745.333	0.0163796
745.411	0.0163483
745.489	0.0164146
745.567	0.0163857
745.646	0.0163133
745.724	0.0164366
745.802	0.0165585
745.880	0.0164928
745.958	0.0166158
746.036	0.0165547
746.114	0.0164346
746.192	0.0162408
746.271	0.0161502
746.349	0.0160808
746.427	0.0160238
746.505	0.0158659
746.583	0.0157993
746.661	0.0158167
746.739	0.0157912
746.817	0.0159536
746.896	0.0158985
746.974	0.0161979
747.052	0.0163462
747.130	0.0162969
747.208	0.0163733
747.286	0.0165420
747.364	0.0166781
747.442	0.0165223
747.521	0.0165853
747.599	0.0167227
747.677	0.0165851
747.755	0.0166498
747.833	0.0166299
747.911	0.0163461
747.989	0.0162139
748.067	0.0161295
748.146	0.0161397
748.224	0.0160572
748.302	0.0159772
748.380	0.0160352
748.458	0.0160521
748.536	0.0162399
748.614	0.0161958
748.692	0.0163760
748.771	0.0164251
748.849	0.0166333
748.927	0.0166755
749.005	0.0169510
749.083	0.0170206
749.161	0.0169545
749.239	0.0170449
749.317	0.0170628
749.396	0.0171545
749.474	0.0171912
749.552	0.0170473
749.630	0.0169860
749.708	0.0168926
749.786	0.0168671
749.864	0.0168450
749.942	0.0167293
750.021	0.0165649
750.099	0.0166780
750.177	0.0164395
750.255	0.0164479
750.333	0.0164442
750.411	0.0162740
750.489	0.0162032
750.567	0.0160172
750.646	0.0160042
750.724	0.0159161
750.802	0.0157844
750.880	0.0155970
750.958	0.0154370
751.036	0.0155674
751.114	0.0154251
751.192	0.0151852
751.271	0.0153284
751.349	0.0153577
751.427	0.0154076
751.505	0.0155791
751.583	0.0156355
751.661	0.0158801
751.739	0.0160008
751.817	0.0160844
751.896	0.0163041
751.974	0.0166672
752.052	0.0167767
752.130	0.0168737
752.208	0.0171542
752.286	0.0172701
752.364	0.0170531
752.442	0.0171984
752.521	0.0171996
752.599	0.0172953
752.677	0.0172088
752.755	0.0171331
752.833	0.0170869
752.911	0.0169110
752.989	0.0169640
753.067	0.0167747
753.146	0.0169227
753.224	0.0167105
753.302	0.0166106
753.380	0.0166733
753.458	0.0166710
753.536	0.0163489
753.614	0.0163959
753.692	0.0163719
753.771	0.0163127
753.849	0.0160826
753.927	0.0161448
754.005	0.0160768
754.083	0.0159270
754.161	0.0158257
754.239	0.0157114
754.317	0.0156280
754.396	0.0156578
754.474	0.0154321
754.552	0.0153593
754.630	0.0154914
754.708	0.0155464
754.786	0.0155019
754.864	0.0157529
754.942	0.0158831
755.021	0.0159579
755.099	0.0162280
755.177	0.0163059
755.255	0.0164816
755.333	0.0167956
755.411	0.0168033
755.489	0.0170708
755.567	0.0170544
755.646	0.0170467
755.724	0.0171548
755.802	0.0172372
755.880	0.0170853
755.958	0.0171996
756.036	0.0170068
756.114	0.0168999
756.192	0.0168229
756.271	0.0167769
756.349	0.0166860
756.427	0.0165696
756.505	0.0164384
756.583	0.0162714
756.661	0.0161650
756.739	0.0161964
756.817	0.0160950
756.896	0.0159478
756.974	0.0161037
757.052	0.0159283
757.130	0.0158206
757.208	0.0158456
757.286	0.0157283
757.364	0.0159313
757.442	0.0159585
757.521	0.0158849
757.599	0.0159521
757.677	0.0160903
757.755	0.0160588
757.833	0.0161867
757.911	0.0161801
757.989	0.0162558
758.067	0.0166431
758.146	0.0166913
758.224	0.0166716
758.302	0.0168284
758.380	0.0168345
758.458	0.0169771
758.536	0.0170688
758.614	0.0171172
758.692	0.0170813
758.771	0.0171791
758.849	0.0173441
758.927	0.0171607
759.005	0.0170346
759.083	0.0169183
759.161	0.0168069
759.239	0.0168725
759.317	0.0167402
759.396	0.0167198
759.474	0.0166543
759.552	0.0164682
759.630	0.0162342
759.708	0.0162265
759.786	0.0161507
759.864	0.0160173
759.942	0.0160098
760.021	0.0160303
760.099	0.0159673
760.177	0.0159768
760.255	0.0160539
760.333	0.0161092
760.411	0.0160012
760.489	0.0160529
760.567	0.0160283
760.646	0.0160809
760.724	0.0161857
760.802	0.0161952
760.880	0.0161600
760.958	0.0161664
761.036	0.0163111
761.114	0.0162922
761.192	0.0163029
761.271	0.0162547
761.349	0.0165472
761.427	0.0165511
761.505	0.0166072
761.583	0.0165495
761.661	0.0166338
761.739	0.0167167
761.817	0.0167705
761.896	0.0168425
761.974	0.0167841
762.052	0.0169004
762.130	0.0169302
762.208	0.0169393
762.286	0.0168552
762.364	0.0167340
762.442	0.0167789
762.521	0.0165665
762.599	0.0164142
762.677	0.0163985
762.755	0.0164670
762.833	0.0162608
762.911	0.0162278
762.989	0.0161434
763.067	0.0161609
763.146	0.0160688
763.224	0.0160950
763.302	0.0161662
763.380	0.0160944
763.458	0.0161791
763.536	0.0162360
763.614	0.0160989
763.692	0.0162682
763.771	0.0161047
763.849	0.0161928
763.927	0.0161650
764.005	0.0161708
764.083	0.0162066
764.161	0.0163475
764.239	0.0163428
764.317	0.0162455
764.396	0.0162162
764.474	0.0164007
764.552	0.0163593
764.630	0.0164453
764.708	0.0163790
764.786	0.0163181
764.864	0.0164338
764.942	0.0164082
765.021	0.0166646
765.099	0.0164923
765.177	0.0165567
765.255	0.0166980
765.333	0.0166780
765.411	0.0166408
765.489	0.0167467
765.567	0.0166721
765.646	0.0168716
765.724	0.0168447
765.802	0.0168172
765.880	0.0169053
765.958	0.0169377
766.036	0.0169332
766.114	0.0169451
766.192	0.0168047
766.271	0.0168048
766.349	0.0168012
766.427	0.0165852
766.505	0.0165542
766.583	0.0164716
766.661	0.0164740
766.739	0.0164307
766.817	0.0161561
766.896	0.0160536
766.974	0.0162109
767.052	0.0160949
767.130	0.0161305
767.208	0.0161729
767.286	0.0160503
767.364	0.0161024
767.442	0.0161884
767.521	0.0160736
767.599	0.0161911
767.677	0.0161151
767.755	0.0160991
767.833	0.0160172
767.911	0.0160886
767.989	0.0160233
768.067	0.0160968
768.146	0.0160442
768.224	0.0160709
768.302	0.0162655
768.380	0.0162765
768.458	0.0162218
768.536	0.0162971
768.614	0.0163699
768.692	0.0164873
768.771	0.0166367
768.849	0.0167333
768.927	0.0167847
769.005	0.0167876
769.083	0.0168774
769.161	0.0168073
769.239	0.0170256
769.317	0.0170143
769.396	0.0167638
769.474	0.0167412
769.552	0.0166943
769.630	0.0164976
769.708	0.0165539
769.786	0.0164677
769.864	0.0163912
769.942	0.0163200
770.021	0.0161206
770.099	0.0161082
770.177	0.0162633
770.255	0.0162411
770.333	0.0160489
770.411	0.0160272
770.489	0.0162208
770.567	0.0160627
770.646	0.0162325
770.724	0.0164021
770.802	0.0163193
770.880	0.0164532
770.958	0.0165262
771.036	0.0165968
771.114	0.0165263
771.192	0.0166557
771.271	0.0165398
771.349	0.0167251
771.427	0.0166450
771.505	0.0165822
771.583	0.0165063
771.661	0.0166222
771.739	0.0165966
771.817	0.0165417
771.896	0.0166306
771.974	0.0164139
772.052	0.0165665
772.130	0.0164486
772.208	0.0164260
772.286	0.0164257
772.364	0.0163780
772.442	0.0162822
772.521	0.0162018
772.599	0.0162988
772.677	0.0162810
772.755	0.0161980
772.833	0.0162523
772.911	0.0162850
772.989	0.0161657
773.067	0.0162611
773.146	0.0162780
773.224	0.0162842
773.302	0.0163302
773.380	0.0162999
773.458	0.0162715
773.536	0.0165759
773.614	0.0165832
773.692	0.0166847
773.771	0.0166166
773.849	0.0168687
773.927	0.0168331
774.005	0.0168159
774.083	0.0168711
774.161	0.0169475
774.239	0.0168945
774.317	0.0169160
774.396	0.0168069
774.474	0.0169147
774.552	0.0168481
774.630	0.0165006
774.708	0.0166616
774.786	0.0166104
774.864	0.0164914
774.942	0.0163837
775.021	0.0164284
775.099	0.0162928
775.177	0.0160906
775.255	0.0161213
775.333	0.0159042
775.411	0.0159282
775.489	0.0159668
775.567	0.0158601
775.646	0.0158590
775.724	0.0159666
775.802	0.0159134
775.880	0.0158072
775.958	0.0158914
776.036	0.0159874
776.114	0.0158183
776.192	0.0159092
776.271	0.0160573
776.349	0.0161124
776.427	0.0161958
776.505	0.0163067
776.583	0.0165294
776.661	0.0165435
776.739	0.0166516
776.817	0.0167458
776.896	0.0168610
776.974	0.0170373
777.052	0.0170248
777.130	0.0168922
777.208	0.0170275
777.286	0.0169962
777.364	0.0170933
777.442	0.0170865
777.521	0.0169217
777.599	0.0169111
777.677	0.0169227
777.755	0.0168808
777.833	0.0168121
777.911	0.0167487
777.989	0.0164573
778.067	0.0162950
778.146	0.0162995
778.224	0.0161376
778.302	0.0161877
778.380	0.0161366
778.458	0.0158935
778.536	0.0159160
778.614	0.0158450
778.692	0.0158970
778.771	0.0160078
778.849	0.0158353
778.927	0.0156860
779.005	0.0158616
779.083	0.0159682
779.161	0.0161511
779.239	0.0160335
779.317	0.0162679
779.396	0.0163668
779.474	0.0163548
779.552	0.0164858
779.630	0.0164195
779.708	0.0167264
779.786	0.0167320
779.864	0.0167631
779.942	0.0168353
780.021	0.0167944
780.099	0.0168942
780.177	0.0168246
780.255	0.0169250
780.333	0.0169053
780.411	0.0167544
780.489	0.0166798
780.567	0.0166117
780.646	0.0165871
780.724	0.0164751
780.802	0.0163099
780.880	0.0162785
780.958	0.0161596
781.036	0.0160576
781.114	0.0160186
781.192	0.0158439
781.271	0.0157581
781.349	0.0158607
781.427	0.0158038
781.505	0.0157491
781.583	0.0159416
781.661	0.0159435
781.739	0.0159314
781.817	0.0159563
781.896	0.0160184
781.974	0.0162276
782.052	0.0162814
782.130	0.0162417
782.208	0.0165543
782.286	0.0166456
782.364	0.0165767
782.442	0.0167280
782.521	0.0169267
782.599	0.0170141
782.677	0.0171983
782.755	0.0170649
782.833	0.0171072
782.911	0.0171527
782.989	0.0170947
783.067	0.0170516
783.146	0.0169161
783.224	0.0171745
783.302	0.0167835
783.380	0.0166273
783.458	0.0166169
783.536	0.0164712
783.614	0.0161948
783.692	0.0162373
783.771	0.0161861
783.849	0.0161633
783.927	0.0161164
784.005	0.0158433
784.083	0.0157807
784.161	0.0157868
784.239	0.0156748
784.317	0.0157362
784.396	0.0157694
784.474	0.0158105
784.552	0.0159319
784.630	0.0158441
784.708	0.0159795
784.786	0.0160120
784.864	0.0159962
784.942	0.0161929
785.021	0.0161991
785.099	0.0162218
785.177	0.0164280
785.255	0.0164375
785.333	0.0165698
785.411	0.0167100
785.489	0.0167499
785.567	0.0166558
785.646	0.0167863
785.724	0.0169002
785.802	0.0168647
785.880	0.0169898
785.958	0.0171728
786.036	0.0169563
786.114	0.0169585
786.192	0.0168351
786.271	0.0167276
786.349	0.0166561
786.427	0.0166026
786.505	0.0165492
786.583	0.0166024
786.661	0.0164830
786.739	0.0163291
786.817	0.0162492
786.896	0.0161674
786.974	0.0159591
787.052	0.0158434
787.130	0.0158826
787.208	0.0157499
787.286	0.0158366
787.364	0.0158350
787.442	0.0157114
787.521	0.0156087
787.599	0.0157606
787.677	0.0158282
787.755	0.0159171
787.833	0.0159053
787.911	0.0160118
787.989	0.0161451
788.067	0.0161456
788.146	0.0162568
788.224	0.0165377
788.302	0.0166248
788.380	0.0164458
788.458	0.0166555
788.536	0.0167242
788.614	0.0168308
788.692	0.0169351
788.771	0.0170158
788.849	0.0170125
788.927	0.0170129
789.005	0.0170295
789.083	0.0169498
789.161	0.0168835
789.239	0.0168622
789.317	0.0168668
789.396	0.0166837
789.474	0.0167097
789.552	0.0165397
789.630	0.0163854
789.708	0.0164621
789.786	0.0164066
789.864	0.0162195
789.942	0.0161277
790.021	0.0158797
790.099	0.0158804
790.177	0.0161337
790.255	0.0161581
790.333	0.0160569
790.411	0.0159666
790.489	0.0160672
790.567	0.0160718
790.646	0.0161438
790.724	0.0163552
790.802	0.0162838
790.880	0.0164259
790.958	0.0163138
791.036	0.0165195
791.114	0.0165689
791.192	0.0165139
791.271	0.0167767
791.349	0.0167233
791.427	0.0166616
791.505	0.0166020
791.583	0.0168017
791.661	0.0168208
791.739	0.0166624
791.817	0.0165447
791.896	0.0166620
791.974	0.0166014
792.052	0.0165083
792.130	0.0164072
792.208	0.0165460
792.286	0.0164880
792.364	0.0163339
792.442	0.0163365
792.521	0.0162521
792.599	0.0163776
792.677	0.0163274
792.755	0.0162056
792.833	0.0160799
792.911	0.0160286
792.989	0.0159466
793.067	0.0159660
793.146	0.0159000
793.224	0.0160062
793.302	0.0159431
793.380	0.0158488
793.458	0.0159350
793.536	0.0159032
793.614	0.0159412
793.692	0.0159522
793.771	0.0161674
793.849	0.0160381
793.927	0.0161616
794.005	0.0163574
794.083	0.0164851
794.161	0.0165601
794.239	0.0165225
794.317	0.0167985
794.396	0.0167198
794.474	0.0167640
794.552	0.0167474
794.630	0.0167753
794.708	0.0167870
794.786	0.0168634
794.864	0.0167760
794.942	0.0167474
795.021	0.0165991
795.099	0.0166222
795.177	0.0167298
795.255	0.0165638
795.333	0.0166017
795.411	0.0166189
795.489	0.0163663
795.567	0.0165060
795.646	0.0164252
795.724	0.0164703
795.802	0.0162513
795.880	0.0162679
795.958	0.0163220
796.036	0.0162979
796.114	0.0165236
796.192	0.0163412
796.271	0.0161977
796.349	0.0161185
796.427	0.0161687
796.505	0.0162491
796.583	0.0161440
796.661	0.0163692
796.739	0.0163714
796.817	0.0163333
796.896	0.0165272
796.974	0.0163678
797.052	0.0164436
797.130	0.0163627
797.208	0.0163718
797.286	0.0164351
797.364	0.0164928
797.442	0.0164621
797.521	0.0163803
797.599	0.0163177
797.677	0.0163677
797.755	0.0165921
797.833	0.0166259
797.911	0.0164889
797.989	0.0164377
798.067	0.0165042
798.146	0.0164819
798.224	0.0164864
798.302	0.0166245
798.380	0.0165874
798.458	0.0165054
798.536	0.0165060
798.614	0.0164353
798.692	0.0163664
798.771	0.0164375
798.849	0.0163731
798.927	0.0162891
799.005	0.0164109
799.083	0.0163516
799.161	0.0162485
799.239	0.0161433
799.317	0.0163998
799.396	0.0162894
799.474	0.0162381
799.552	0.0164314
799.630	0.0163213
799.708	0.0164172
799.786	0.0165670
799.864	0.0165758
799.942	0.0166769
800.021	0.0166070
800.099	0.0166409
800.177	0.0166847
800.255	0.0167872
800.333	0.0166138
800.411	0.0165472
800.489	0.0164567
800.567	0.0164898
800.646	0.0164686
800.724	0.0162623
800.802	0.0162718
800.880	0.0161607
800.958	0.0161407
801.036	0.0160111
801.114	0.0158694
801.192	0.0159673
801.271	0.0158780
801.349	0.0158684
801.427	0.0158505
801.505	0.0158038
801.583	0.0160471
801.661	0.0159142
801.739	0.0157635
801.817	0.0159209
801.896	0.0158568
801.974	0.0159733
802.052	0.0160242
802.130	0.0160450
802.208	0.0162808
802.286	0.0166148
802.364	0.0165786
802.442	0.0165399
802.521	0.0167355
802.599	0.0168303
802.677	0.0169624
802.755	0.0170034
802.833	0.0171422
802.911	0.0169219
802.989	0.0170023
803.067	0.0171092
803.146	0.0170068
803.224	0.0170048
803.302	0.0169270
803.380	0.0168935
803.458	0.0166991
803.536	0.0167136
803.614	0.0166428
803.692	0.0166402
803.771	0.0166670
803.849	0.0165788
803.927	0.0163428
804.005	0.0162087
804.083	0.0162048
804.161	0.0161980
804.239	0.0161826
804.317	0.0161416
804.396	0.0159544
804.474	0.0157880
804.552	0.0159203
804.630	0.0159072
804.708	0.0158524
804.786	0.0157175
804.864	0.0159258
804.942	0.0157957
805.021	0.0157800
805.099	0.0158723
805.177	0.0158797
805.255	0.0159543
805.333	0.0159962
805.411	0.0160197
805.489	0.0161886
805.567	0.0161535
805.646	0.0163235
805.724	0.0162615
805.802	0.0162925
805.880	0.0164447
805.958	0.0164017
806.036	0.0164959
806.114	0.0166758
806.192	0.0166051
806.271	0.0168661
806.349	0.0167307
806.427	0.0169591
806.505	0.0169884
806.583	0.0169097
806.661	0.0170133
806.739	0.0171121
806.817	0.0171325
806.896	0.0170182
806.974	0.0169485
807.052	0.0170739
807.130	0.0169947
807.208	0.0169084
807.286	0.0169417
807.364	0.0169670
807.442	0.0167712
807.521	0.0166022
807.599	0.0164000
807.677	0.0162327
807.755	0.0162147
807.833	0.0160837
807.911	0.0159441
807.989	0.0156721
808.067	0.0156920
808.146	0.0156315
808.224	0.0155040
808.302	0.0154792
808.380	0.0155096
808.458	0.0155126
808.536	0.0156336
808.614	0.0155596
808.692	0.0156319
808.771	0.0157029
808.849	0.0157297
808.927	0.0159015
809.005	0.0160309
809.083	0.0160341
809.161	0.0161828
809.239	0.0163615
809.317	0.0164604
809.396	0.0166654
809.474	0.0166357
809.552	0.0167849
809.630	0.0170216
809.708	0.0169395
809.786	0.0169081
809.864	0.0169978
809.942	0.0170454
810.021	0.0167849
810.099	0.0169215
810.177	0.0169727
810.255	0.0168246
810.333	0.0168546
810.411	0.0167762
810.489	0.0168261
810.567	0.0167973
810.646	0.0166533
810.724	0.0166098
810.802	0.0163884
810.880	0.0162531
810.958	0.0162753
811.036	0.0162553
811.114	0.0160578
811.192	0.0159929
811.271	0.0159580
811.349	0.0158305
811.427	0.0157815
811.505	0.0157701
811.583	0.0158017
811.661	0.0157178
811.739	0.0156978
811.817	0.0156307
811.896	0.0158192
811.974	0.0160159
812.052	0.0160178
812.130	0.0161130
812.208	0.0162043
812.286	0.0163067
812.364	0.0165241
812.442	0.0165801
812.521	0.0167464
812.599	0.0168925
812.677	0.0168258
812.755	0.0167120
812.833	0.0169048
812.911	0.0171316
812.989	0.0168805
813.067	0.0170037
813.146	0.0169437
813.224	0.0169447
813.302	0.0170602
813.380	0.0168177
813.458	0.0169080
813.536	0.0168691
813.614	0.0165346
813.692	0.0167190
813.771	0.0167952
813.849	0.0165992
813.927	0.0166051
814.005	0.0164809
814.083	0.0164915
814.161	0.0163644
814.239	0.0162754
814.317	0.0161572
814.396	0.0162576
814.474	0.0161957
814.552	0.0159246
814.630	0.0158796
814.708	0.0159145
814.786	0.0158906
814.864	0.0157635
814.942	0.0158016
815.021	0.0159064
815.099	0.0159226
815.177	0.0159807
815.255	0.0159974
815.333	0.0159264
815.411	0.0160204
815.489	0.0161108
815.567	0.0162768
815.646	0.0163044
815.724	0.0163137
815.802	0.0164063
815.880	0.0165407
815.958	0.0163280
816.036	0.0163235
816.114	0.0164229
816.192	0.0166239
816.271	0.0165307
816.349	0.0165641
816.427	0.0164764
816.505	0.0164584
816.583	0.0164638
816.661	0.0165461
816.739	0.0166699
816.817	0.0164456
816.896	0.0165234
816.974	0.0165659
817.052	0.0165231
817.130	0.0164654
817.208	0.0165263
817.286	0.0164967
817.364	0.0164330
817.442	0.0164409
817.521	0.0166408
817.599	0.0165089
817.677	0.0165434
817.755	0.0163449
817.833	0.0164732
817.911	0.0163876
817.989	0.0163595
818.067	0.0164294
818.146	0.0165475
818.224	0.0165920
818.302	0.0164754
818.380	0.0165952
818.458	0.0165766
818.536	0.0164170
818.614	0.0167075
818.692	0.0166604
818.771	0.0165616
818.849	0.0166560
818.927	0.0166245
819.005	0.0167543
819.083	0.0165639
819.161	0.0164641
819.239	0.0166371
819.317	0.0163773
819.396	0.0164536
819.474	0.0165089
819.552	0.0164314
819.630	0.0164754
819.708	0.0163927
819.786	0.0162695
819.864	0.0162695
819.942	0.0162421
820.021	0.0161705
820.099	0.0161824
820.177	0.0162234
820.255	0.0162183
820.333	0.0161309
820.411	0.0162468
820.489	0.0160889
820.567	0.0161379
820.646	0.0162289
820.724	0.0161283
820.802	0.0162206
820.880	0.0161468
820.958	0.0161903
821.036	0.0161944
821.114	0.0161846
821.192	0.0164251
821.271	0.0162675
821.349	0.0162616
821.427	0.0162865
821.505	0.0162170
821.583	0.0162028
821.661	0.0162773
821.739	0.0163971
821.817	0.0165443
821.896	0.0163376
821.974	0.0162651
822.052	0.0163654
822.130	0.0163120
822.208	0.0163214
822.286	0.0164114
822.364	0.0162674
822.442	0.0163853
822.521	0.0164758
822.599	0.0163615
822.677	0.0164402
822.755	0.0164691
822.833	0.0165140
822.911	0.0164484
822.989	0.0165173
823.067	0.0164725
823.146	0.0164995
823.224	0.0166311
823.302	0.0165544
823.380	0.0164217
823.458	0.0165324
823.536	0.0166202
823.614	0.0165162
823.692	0.0165083
823.771	0.0164887
823.849	0.0164481
823.927	0.0164803
824.005	0.0165520
824.083	0.0165775
824.161	0.0165209
824.239	0.0166851
824.317	0.0165479
824.396	0.0166444
824.474	0.0165768
824.552	0.0165803
824.630	0.0165579
824.708	0.0164571
824.786	0.0164599
824.864	0.0164801
824.942	0.0163915
825.021	0.0165738
825.099	0.0164198
825.177	0.0162762
825.255	0.0162195
825.333	0.0162916
825.411	0.0162859
825.489	0.0162349
825.567	0.0161929
825.646	0.0160458
825.724	0.0161168
825.802	0.0162415
825.880	0.0162711
825.958	0.0161726
826.036	0.0162170
826.114	0.0161846
826.192	0.0162722
826.271	0.0163299
826.349	0.0162972
826.427	0.0163376
826.505	0.0164007
826.583	0.0164037
826.661	0.0163049
826.739	0.0162878
826.817	0.0162520
826.896	0.0163058
826.974	0.0163531
827.052	0.0163640
827.130	0.0163278
827.208	0.0164248
827.286	0.0165243
827.364	0.0165172
827.442	0.0164167
827.521	0.0165315
827.599	0.0164061
827.677	0.0163407
827.755	0.0164922
827.833	0.0164982
827.911	0.0165719
827.989	0.0165804
828.067	0.0165656
828.146	0.0165904
828.224	0.0165117
828.302	0.0164555
828.380	0.0165695
828.458	0.0166511
828.536	0.0164579
828.614	0.0164388
828.692	0.0165548
828.771	0.0162990
828.849	0.0164664
828.927	0.0165063
829.005	0.0165740
829.083	0.0163577
829.161	0.0163799
829.239	0.0163754
829.317	0.0164299
829.396	0.0162700
829.474	0.0164826
829.552	0.0163750
829.630	0.0163522
829.708	0.0164700
829.786	0.0164528
829.864	0.0165005
829.942	0.0164259
830.021	0.0163651
830.099	0.0164349
830.177	0.0163492
830.255	0.0163567
830.333	0.0163174
830.411	0.0164058
830.489	0.0162349
830.567	0.0160495
830.646	0.0162112
830.724	0.0161597
830.802	0.0161566
830.880	0.0161345
830.958	0.0160818
831.036	0.0161601
831.114	0.0161011
831.192	0.0162664
831.271	0.0161927
831.349	0.0161388
831.427	0.0160768
831.505	0.0162122
831.583	0.0163153
831.661	0.0163602
831.739	0.0163441
831.817	0.0163572
831.896	0.0164008
831.974	0.0165249
832.052	0.0163392
832.130	0.0164722
832.208	0.0165066
832.286	0.0166766
832.364	0.0165790
832.442	0.0167568
832.521	0.0166029
832.599	0.0166636
832.677	0.0167143
832.755	0.0167344
832.833	0.0165334
832.911	0.0165645
832.989	0.0165113
833.067	0.0164273
833.146	0.0163272
833.224	0.0164536
833.302	0.0162925
833.380	0.0163922
833.458	0.0162684
833.536	0.0162748
833.614	0.0162396
833.692	0.0164065
833.771	0.0163175
833.849	0.0164444
833.927	0.0163290
834.005	0.0162830
834.083	0.0162253
834.161	0.0162209
834.239	0.0162828
834.317	0.0164410
834.396	0.0162180
834.474	0.0162556
834.552	0.0163563
834.630	0.0163255
834.708	0.0164455
834.786	0.0163978
834.864	0.0163432
834.942	0.0164527
835.021	0.0163020
835.099	0.0163032
835.177	0.0165521
835.255	0.0164121
835.333	0.0163166
835.411	0.0164342
835.489	0.0165349
835.567	0.0165826
835.646	0.0165179
835.724	0.0164047
835.802	0.0164907
835.880	0.0164735
835.958	0.0165844
836.036	0.0165827
836.114	0.0165257
836.192	0.0165578
836.271	0.0164029
836.349	0.0164224
836.427	0.0165421
836.505	0.0164129
836.583	0.0164651
836.661	0.0164008
836.739	0.0164278
836.817	0.0163013
836.896	0.0163652
836.974	0.0162230
837.052	0.0162537
837.130	0.0161107
837.208	0.0163164
837.286	0.0163690
837.364	0.0162598
837.442	0.0162467
837.521	0.0163279
837.599	0.0162772
837.677	0.0162222
837.755	0.0161570
837.833	0.0162055
837.911	0.0163641
837.989	0.0163185
838.067	0.0162912
838.146	0.0164397
838.224	0.0163574
838.302	0.0164275
838.380	0.0165948
838.458	0.0165849
838.536	0.0165532
838.614	0.0165594
838.692	0.0166771
838.771	0.0166382
838.849	0.0167360
838.927	0.0167846
839.005	0.0165514
839.083	0.0166051
839.161	0.0166842
839.239	0.0166711
839.317	0.0167503
839.396	0.0167113
839.474	0.0165966
839.552	0.0164189
839.630	0.0164148
839.708	0.0164622
839.786	0.0165363
839.864	0.0164439
839.942	0.0163327
840.021	0.0164413
840.099	0.0164103
840.177	0.0163876
840.255	0.0163956
840.333	0.0164592
840.411	0.0162665
840.489	0.0163460
840.567	0.0162786
840.646	0.0163183
840.724	0.0163151
840.802	0.0162158
840.880	0.0162756
840.958	0.0162615
841.036	0.0163815
841.114	0.0162930
841.192	0.0161864
841.271	0.0161976
841.349	0.0161914
841.427	0.0163819
841.505	0.0163790
841.583	0.0163337
841.661	0.0163931
841.739	0.0163924
841.817	0.0163191
841.896	0.0164046
841.974	0.0162923
842.052	0.0162795
842.130	0.0163953
842.208	0.0163142
842.286	0.0164050
842.364	0.0164795
842.442	0.0163101
842.521	0.0163679
842.599	0.0164727
842.677	0.0164970
842.755	0.0165860
842.833	0.0164268
842.911	0.0164528
842.989	0.0164671
843.067	0.0164967
843.146	0.0165125
843.224	0.0165201
843.302	0.0166334
843.380	0.0166322
843.458	0.0165788
843.536	0.0165688
843.614	0.0166048
843.692	0.0166071
843.771	0.0166777
843.849	0.0166598
843.927	0.0166297
844.005	0.0167125
844.083	0.0166859
844.161	0.0164793
844.239	0.0165736
844.317	0.0164227
844.396	0.0164220
844.474	0.0164155
844.552	0.0165148
844.630	0.0164519
844.708	0.0164526
844.786	0.0162927
844.864	0.0162695
844.942	0.0162164
845.021	0.0161314
845.099	0.0163058
845.177	0.0163558
845.255	0.0161615
845.333	0.0162692
845.411	0.0162916
845.489	0.0162871
845.567	0.0163552
845.646	0.0163887
845.724	0.0163423
845.802	0.0163113
845.880	0.0163431
845.958	0.0163371
846.036	0.0164820
846.114	0.0163165
846.192	0.0163281
846.271	0.0165112
846.349	0.0164088
846.427	0.0162749
846.505	0.0163111
846.583	0.0163232
846.661	0.0163445
846.739	0.0163443
846.817	0.0162914
846.896	0.0162142
846.974	0.0162165
847.052	0.0160543
847.130	0.0161483
847.208	0.0160732
847.286	0.0160677
847.364	0.0160816
847.442	0.0162344
847.521	0.0161785
847.599	0.0161882
847.677	0.0162173
847.755	0.0161491
847.833	0.0162271
847.911	0.0163595
847.989	0.0162453
848.067	0.0163387
848.146	0.0163667
848.224	0.0164261
848.302	0.0163519
848.380	0.0163331
848.458	0.0164025
848.536	0.0162966
848.614	0.0164870
848.692	0.0164852
848.771	0.0163860
848.849	0.0164404
848.927	0.0164577
849.005	0.0165543
849.083	0.0164111
849.161	0.0165861
849.239	0.0165788
849.317	0.0167225
849.396	0.0165012
849.474	0.0165469
849.552	0.0166024
849.630	0.0167171
849.708	0.0165273
849.786	0.0164967
849.864	0.0165412
849.942	0.0166081
850.021	0.0166986
850.099	0.0165157
850.177	0.0164104
850.255	0.0163953
850.333	0.0163081
850.411	0.0162767
850.489	0.0161302
850.567	0.0162461
850.646	0.0162055
850.724	0.0161882
850.802	0.0161584
850.880	0.0161424
850.958	0.0161678
851.036	0.0162031
851.114	0.0160942
851.192	0.0163212
851.271	0.0162122
851.349	0.0162083
851.427	0.0161995
851.505	0.0162653
851.583	0.0162833
851.661	0.0163419
851.739	0.0163298
851.817	0.0162816
851.896	0.0163937
851.974	0.0163410
852.052	0.0163999
852.130	0.0163412
852.208	0.0164199
852.286	0.0164257
852.364	0.0165585
852.442	0.0165734
852.521	0.0165303
852.599	0.0166163
852.677	0.0165844
852.755	0.0165942
852.833	0.0165361
852.911	0.0164487
852.989	0.0165160
853.067	0.0166981
853.146	0.0165681
853.224	0.0164982
853.302	0.0164497
853.380	0.0164674
853.458	0.0164974
853.536	0.0163658
853.614	0.0163531
853.692	0.0163937
853.771	0.0162386
853.849	0.0161852
853.927	0.0163264
854.005	0.0162721
854.083	0.0162480
854.161	0.0162637
854.239	0.0161664
854.317	0.0160724
854.396	0.0161549
854.474	0.0160620
854.552	0.0161413
854.630	0.0161182
854.708	0.0160824
854.786	0.0161807
854.864	0.0161072
854.942	0.0160173
855.021	0.0161474
855.099	0.0163378
855.177	0.0163753
855.255	0.0163899
855.333	0.0164756
855.411	0.0165561
855.489	0.0165601
855.567	0.0166708
855.646	0.0166714
855.724	0.0164455
855.802	0.0166850
855.880	0.0168300
855.958	0.0167862
856.036	0.0166163
856.114	0.0165420
856.192	0.0167184
856.271	0.0165422
856.349	0.0165024
856.427	0.0166249
856.505	0.0164469
856.583	0.0164399
856.661	0.0163078
856.739	0.0163808
856.817	0.0163829
856.896	0.0163108
856.974	0.0162964
857.052	0.0162549
857.130	0.0162234
857.208	0.0161726
857.286	0.0164140
857.364	0.0163194
857.442	0.0162063
857.521	0.0161758
857.599	0.0163124
857.677	0.0161466
857.755	0.0161507
857.833	0.0161881
857.911	0.0161630
857.989	0.0161158
858.067	0.0160300
858.146	0.0162178
858.224	0.0161506
858.302	0.0160450
858.380	0.0161182
858.458	0.0163692
858.536	0.0162941
858.614	0.0162443
858.692	0.0163485
858.771	0.0162623
858.849	0.0163009
858.927	0.0162711
859.005	0.0165112
859.083	0.0163705
859.161	0.0163747
859.239	0.0163818
859.317	0.0164066
859.396	0.0164851
859.474	0.0163402
859.552	0.0165637
859.630	0.0165614
859.708	0.0165463
859.786	0.0165172
859.864	0.0165361
859.942	0.0165726
860.021	0.0165549
860.099	0.0166058
860.177	0.0165245
860.255	0.0164971
860.333	0.0166185
860.411	0.0165652
860.489	0.0165323
860.567	0.0164758
860.646	0.0164167
860.724	0.0162275
860.802	0.0163057
860.880	0.0164352
860.958	0.0164764
861.036	0.0164286
861.114	0.0164108
861.192	0.0163297
861.271	0.0163175
861.349	0.0163505
861.427	0.0164008
861.505	0.0162178
861.583	0.0161954
861.661	0.0163026
861.739	0.0163985
861.817	0.0163515
861.896	0.0164333
861.974	0.0163596
862.052	0.0164545
862.130	0.0165077
862.208	0.0163320
862.286	0.0165102
862.364	0.0165367
862.442	0.0164406
862.521	0.0165237
862.599	0.0165752
862.677	0.0163548
862.755	0.0165757
862.833	0.0165779
862.911	0.0165771
862.989	0.0165445
863.067	0.0165340
863.146	0.0165936
863.224	0.0164961
863.302	0.0164501
863.380	0.0165012
863.458	0.0165540
863.536	0.0165911
863.614	0.0164314
863.692	0.0165874
863.771	0.0165230
863.849	0.0164065
863.927	0.0164147
864.005	0.0165356
864.083	0.0164488
864.161	0.0162203
864.239	0.0162411
864.317	0.0162956
864.396	0.0162180
864.474	0.0162122
864.552	0.0163093
864.630	0.0162865
864.708	0.0163392
864.786	0.0162380
864.864	0.0162549
864.942	0.0162199
865.021	0.0163979
865.099	0.0164984
865.177	0.0164295
865.255	0.0163577
865.333	0.0164578
865.411	0.0163734
865.489	0.0162867
865.567	0.0164116
865.646	0.0163877
865.724	0.0163305
865.802	0.0163845
865.880	0.0163820
865.958	0.0164406
866.036	0.0163654
866.114	0.0163498
866.192	0.0164575
866.271	0.0165408
866.349	0.0164149
866.427	0.0166238
866.505	0.0164944
866.583	0.0163821
866.661	0.0164581
866.739	0.0165908
866.817	0.0165275
866.896	0.0162870
866.974	0.0163493
867.052	0.0164995
867.130	0.0163630
867.208	0.0164983
867.286	0.0165425
867.364	0.0164401
867.442	0.0164603
867.521	0.0163480
867.599	0.0163274
867.677	0.0164092
867.755	0.0163771
867.833	0.0163543
867.911	0.0163638
867.989	0.0163246
868.067	0.0163998
868.146	0.0163647
868.224	0.0164137
868.302	0.0164360
868.380	0.0163746
868.458	0.0163898
868.536	0.0163211
868.614	0.0164611
868.692	0.0163402
868.771	0.0163347
868.849	0.0162944
868.927	0.0163016
869.005	0.0163670
869.083	0.0162830
869.161	0.0162504
869.239	0.0161960
869.317	0.0161761
869.396	0.0161308
869.474	0.0162334
869.552	0.0162218
869.630	0.0162059
869.708	0.0162997
869.786	0.0163155
869.864	0.0163921
869.942	0.0164185
