06/03/2022	15:31:20	Ver.	4.1	UNKNOWN
Optical Delay	550.020508	Delta X		0.078125	Sweeps	1	Scan Rate	0/0
Coordinates	Axis 1	NaN	Axis 2	NaN	Axis 3	NaN	Axis 4	NaN	Axis 5	NaN	Axis 6	0.000000
TX Power	0.000000	RX Power	0.000000

550.021	0.0162811
550.099	0.0162301
550.177	0.0163123
550.255	0.0162764
550.333	0.0162231
550.411	0.0163120
550.489	0.0163721
550.567	0.0163265
550.646	0.0163081
550.724	0.0163442
550.802	0.0162709
550.880	0.0162389
550.958	0.0163224
551.036	0.0164223
551.114	0.0162023
551.192	0.0162663
551.271	0.0164453
551.349	0.0162165
551.427	0.0163529
551.505	0.0163365
551.583	0.0162907
551.661	0.0162366
551.739	0.0162937
551.817	0.0162836
551.896	0.0163486
551.974	0.0162651
552.052	0.0161198
552.130	0.0163284
552.208	0.0162893
552.286	0.0163268
552.364	0.0162881
552.442	0.0162308
552.521	0.0161984
552.599	0.0163357
552.677	0.0163860
552.755	0.0164735
552.833	0.0162765
552.911	0.0162572
552.989	0.0164492
553.067	0.0163374
553.146	0.0160738
553.224	0.0162029
553.302	0.0164496
553.380	0.0163814
553.458	0.0163451
553.536	0.0163833
553.614	0.0161513
553.692	0.0162891
553.771	0.0162560
553.849	0.0162144
553.927	0.0162589
554.005	0.0163670
554.083	0.0162698
554.161	0.0162556
554.239	0.0161913
554.317	0.0162254
554.396	0.0162659
554.474	0.0162686
554.552	0.0162892
554.630	0.0162879
554.708	0.0163933
554.786	0.0163853
554.864	0.0162685
554.942	0.0162076
555.021	0.0162321
555.099	0.0162323
555.177	0.0162442
555.255	0.0162368
555.333	0.0162690
555.411	0.0163942
555.489	0.0162522
555.567	0.0162672
555.646	0.0163520
555.724	0.0162641
555.802	0.0162716
555.880	0.0163313
555.958	0.0163110
556.036	0.0162672
556.114	0.0162551
556.192	0.0162125
556.271	0.0163007
556.349	0.0163525
556.427	0.0163040
556.505	0.0163009
556.583	0.0162682
556.661	0.0164217
556.739	0.0163832
556.817	0.0162910
556.896	0.0161816
556.974	0.0162461
557.052	0.0162061
557.130	0.0161729
557.208	0.0162364
557.286	0.0161585
557.364	0.0162656
557.442	0.0163159
557.521	0.0162699
557.599	0.0162437
557.677	0.0164362
557.755	0.0162739
557.833	0.0162415
557.911	0.0161630
557.989	0.0162713
558.067	0.0164183
558.146	0.0164150
558.224	0.0162431
558.302	0.0161529
558.380	0.0162313
558.458	0.0162388
558.536	0.0162910
558.614	0.0161425
558.692	0.0162948
558.771	0.0163341
558.849	0.0163163
558.927	0.0162900
559.005	0.0163253
559.083	0.0161338
559.161	0.0161182
559.239	0.0161661
559.317	0.0162697
559.396	0.0163358
559.474	0.0162866
559.552	0.0162343
559.630	0.0163120
559.708	0.0162389
559.786	0.0162254
559.864	0.0164262
559.942	0.0164284
560.021	0.0163418
560.099	0.0160339
560.177	0.0161768
560.255	0.0163191
560.333	0.0162978
560.411	0.0162630
560.489	0.0161874
560.567	0.0163016
560.646	0.0164193
560.724	0.0163956
560.802	0.0161840
560.880	0.0162318
560.958	0.0161917
561.036	0.0162762
561.114	0.0162820
561.192	0.0161556
561.271	0.0162848
561.349	0.0162071
561.427	0.0161662
561.505	0.0162481
561.583	0.0163615
561.661	0.0163399
561.739	0.0162530
561.817	0.0162753
561.896	0.0162254
561.974	0.0162745
562.052	0.0163204
562.130	0.0163007
562.208	0.0163051
562.286	0.0163383
562.364	0.0162618
562.442	0.0164368
562.521	0.0163354
562.599	0.0163198
562.677	0.0163345
562.755	0.0162784
562.833	0.0162569
562.911	0.0163284
562.989	0.0161344
563.067	0.0163939
563.146	0.0163217
563.224	0.0163682
563.302	0.0163283
563.380	0.0163132
563.458	0.0162635
563.536	0.0162880
563.614	0.0163254
563.692	0.0161704
563.771	0.0163697
563.849	0.0163169
563.927	0.0162166
564.005	0.0162753
564.083	0.0162849
564.161	0.0162275
564.239	0.0163049
564.317	0.0162344
564.396	0.0162770
564.474	0.0163248
564.552	0.0162092
564.630	0.0162911
564.708	0.0162865
564.786	0.0163612
564.864	0.0162262
564.942	0.0162231
565.021	0.0163745
565.099	0.0161893
565.177	0.0162398
565.255	0.0163832
565.333	0.0163986
565.411	0.0161577
565.489	0.0161477
565.567	0.0163152
565.646	0.0163885
565.724	0.0162577
565.802	0.0164983
565.880	0.0163323
565.958	0.0162284
566.036	0.0163070
566.114	0.0162499
566.192	0.0162202
566.271	0.0162719
566.349	0.0163577
566.427	0.0162256
566.505	0.0163819
566.583	0.0162347
566.661	0.0163277
566.739	0.0163650
566.817	0.0163206
566.896	0.0163074
566.974	0.0162847
567.052	0.0163202
567.130	0.0163425
567.208	0.0162555
567.286	0.0162635
567.364	0.0162468
567.442	0.0164027
567.521	0.0161764
567.599	0.0162512
567.677	0.0163292
567.755	0.0163142
567.833	0.0162994
567.911	0.0162346
567.989	0.0164331
568.067	0.0163823
568.146	0.0163641
568.224	0.0162857
568.302	0.0164005
568.380	0.0163164
568.458	0.0162402
568.536	0.0164166
568.614	0.0163131
568.692	0.0163067
568.771	0.0163214
568.849	0.0161497
568.927	0.0161649
569.005	0.0161942
569.083	0.0162325
569.161	0.0163969
569.239	0.0162246
569.317	0.0161729
569.396	0.0162991
569.474	0.0163715
569.552	0.0163098
569.630	0.0162574
569.708	0.0161684
569.786	0.0162291
569.864	0.0163185
569.942	0.0163443
570.021	0.0162486
570.099	0.0162675
570.177	0.0163865
570.255	0.0163272
570.333	0.0163568
570.411	0.0164307
570.489	0.0161977
570.567	0.0161385
570.646	0.0162746
570.724	0.0163337
570.802	0.0163815
570.880	0.0162356
570.958	0.0162664
571.036	0.0163902
571.114	0.0163530
571.192	0.0162848
571.271	0.0163225
571.349	0.0162000
571.427	0.0162463
571.505	0.0163251
571.583	0.0163133
571.661	0.0162941
571.739	0.0163207
571.817	0.0163703
571.896	0.0163078
571.974	0.0162570
572.052	0.0161608
572.130	0.0162476
572.208	0.0163309
572.286	0.0163773
572.364	0.0162856
572.442	0.0164360
572.521	0.0163005
572.599	0.0162427
572.677	0.0161229
572.755	0.0162493
572.833	0.0162746
572.911	0.0162853
572.989	0.0163060
573.067	0.0163804
573.146	0.0163283
573.224	0.0163451
573.302	0.0161507
573.380	0.0162404
573.458	0.0163097
573.536	0.0162560
573.614	0.0163766
573.692	0.0163527
573.771	0.0161385
573.849	0.0162222
573.927	0.0162934
574.005	0.0163379
574.083	0.0163032
574.161	0.0162488
574.239	0.0163353
574.317	0.0162291
574.396	0.0163147
574.474	0.0162699
574.552	0.0163858
574.630	0.0163634
574.708	0.0162738
574.786	0.0163148
574.864	0.0163371
574.942	0.0162592
575.021	0.0162242
575.099	0.0163244
575.177	0.0162631
575.255	0.0161892
575.333	0.0162691
575.411	0.0163863
575.489	0.0162932
575.567	0.0162778
575.646	0.0163319
575.724	0.0163287
575.802	0.0163084
575.880	0.0162911
575.958	0.0162968
576.036	0.0163400
576.114	0.0161884
576.192	0.0162386
576.271	0.0164897
576.349	0.0164332
576.427	0.0161155
576.505	0.0162775
576.583	0.0163588
576.661	0.0161873
576.739	0.0162435
576.817	0.0162136
576.896	0.0162193
576.974	0.0162136
577.052	0.0163309
577.130	0.0163364
577.208	0.0162955
577.286	0.0161682
577.364	0.0161416
577.442	0.0163029
577.521	0.0163808
577.599	0.0164877
577.677	0.0162674
577.755	0.0162306
577.833	0.0162533
577.911	0.0163971
577.989	0.0163909
578.067	0.0162640
578.146	0.0163994
578.224	0.0163835
578.302	0.0162117
578.380	0.0163570
578.458	0.0163806
578.536	0.0163799
578.614	0.0163108
578.692	0.0161914
578.771	0.0161828
578.849	0.0163139
578.927	0.0162958
579.005	0.0162950
579.083	0.0162267
579.161	0.0162491
579.239	0.0163580
579.317	0.0163146
579.396	0.0163107
579.474	0.0163144
579.552	0.0162865
579.630	0.0162856
579.708	0.0162187
579.786	0.0163431
579.864	0.0163318
579.942	0.0163473
580.021	0.0162335
580.099	0.0162421
580.177	0.0162649
580.255	0.0163683
580.333	0.0162136
580.411	0.0163288
580.489	0.0162655
580.567	0.0162326
580.646	0.0163285
580.724	0.0160756
580.802	0.0163486
580.880	0.0162138
580.958	0.0162041
581.036	0.0163777
581.114	0.0162418
581.192	0.0162066
581.271	0.0163258
581.349	0.0163497
581.427	0.0163025
581.505	0.0163798
581.583	0.0163226
581.661	0.0162985
581.739	0.0162400
581.817	0.0163194
581.896	0.0163367
581.974	0.0162229
582.052	0.0162668
582.130	0.0162091
582.208	0.0162993
582.286	0.0161722
582.364	0.0163536
582.442	0.0161555
582.521	0.0161878
582.599	0.0162865
582.677	0.0163506
582.755	0.0162762
582.833	0.0162292
582.911	0.0163734
582.989	0.0162652
583.067	0.0161669
583.146	0.0163632
583.224	0.0163362
583.302	0.0163035
583.380	0.0162932
583.458	0.0163012
583.536	0.0162685
583.614	0.0162465
583.692	0.0163442
583.771	0.0161986
583.849	0.0163192
583.927	0.0161346
584.005	0.0163029
584.083	0.0162930
584.161	0.0163081
584.239	0.0161797
584.317	0.0162517
584.396	0.0162683
584.474	0.0162530
584.552	0.0161955
584.630	0.0162892
584.708	0.0164126
584.786	0.0162149
584.864	0.0163327
584.942	0.0163265
585.021	0.0163912
585.099	0.0162774
585.177	0.0163181
585.255	0.0163290
585.333	0.0162176
585.411	0.0162134
585.489	0.0163262
585.567	0.0161698
585.646	0.0162942
585.724	0.0162832
585.802	0.0162702
585.880	0.0162050
585.958	0.0163876
586.036	0.0163879
586.114	0.0162352
586.192	0.0161481
586.271	0.0161563
586.349	0.0162460
586.427	0.0163754
586.505	0.0162797
586.583	0.0163124
586.661	0.0163757
586.739	0.0163462
586.817	0.0163648
586.896	0.0161827
586.974	0.0162668
587.052	0.0162039
587.130	0.0163046
587.208	0.0163941
587.286	0.0163446
587.364	0.0162173
587.442	0.0162191
587.521	0.0163515
587.599	0.0163504
587.677	0.0163128
587.755	0.0163083
587.833	0.0162742
587.911	0.0160958
587.989	0.0163387
588.067	0.0162906
588.146	0.0163328
588.224	0.0163293
588.302	0.0162652
588.380	0.0162234
588.458	0.0162067
588.536	0.0163342
588.614	0.0162922
588.692	0.0162070
588.771	0.0163174
588.849	0.0163329
588.927	0.0163805
589.005	0.0162748
589.083	0.0162186
589.161	0.0162028
589.239	0.0163606
589.317	0.0163393
589.396	0.0162487
589.474	0.0161777
589.552	0.0162320
589.630	0.0163486
589.708	0.0163115
589.786	0.0163628
589.864	0.0162104
589.942	0.0162923
590.021	0.0162868
590.099	0.0160810
590.177	0.0163122
590.255	0.0162632
590.333	0.0162312
590.411	0.0161759
590.489	0.0162590
590.567	0.0162533
590.646	0.0162862
590.724	0.0163586
590.802	0.0163246
590.880	0.0162238
590.958	0.0162734
591.036	0.0163004
591.114	0.0163048
591.192	0.0161961
591.271	0.0162032
591.349	0.0164262
591.427	0.0162775
591.505	0.0162273
591.583	0.0162984
591.661	0.0162968
591.739	0.0160982
591.817	0.0163535
591.896	0.0162830
591.974	0.0163029
592.052	0.0163745
592.130	0.0162390
592.208	0.0163535
592.286	0.0162324
592.364	0.0163322
592.442	0.0163641
592.521	0.0161522
592.599	0.0163251
592.677	0.0162323
592.755	0.0161997
592.833	0.0164021
592.911	0.0162814
592.989	0.0162490
593.067	0.0163526
593.146	0.0163268
593.224	0.0162430
593.302	0.0162287
593.380	0.0163173
593.458	0.0163313
593.536	0.0162896
593.614	0.0162468
593.692	0.0162182
593.771	0.0163272
593.849	0.0162965
593.927	0.0163053
594.005	0.0163017
594.083	0.0161806
594.161	0.0162233
594.239	0.0164015
594.317	0.0161752
594.396	0.0162598
594.474	0.0162292
594.552	0.0163244
594.630	0.0162646
594.708	0.0162790
594.786	0.0162062
594.864	0.0164001
594.942	0.0163691
595.021	0.0163362
595.099	0.0162553
595.177	0.0163467
595.255	0.0162124
595.333	0.0163960
595.411	0.0162901
595.489	0.0164368
595.567	0.0162597
595.646	0.0162730
595.724	0.0163008
595.802	0.0162748
595.880	0.0162627
595.958	0.0162315
596.036	0.0162539
596.114	0.0161769
596.192	0.0163915
596.271	0.0164664
596.349	0.0162037
596.427	0.0162749
596.505	0.0162061
596.583	0.0161471
596.661	0.0163757
596.739	0.0164889
596.817	0.0163300
596.896	0.0162548
596.974	0.0163683
597.052	0.0162669
597.130	0.0162490
597.208	0.0163740
597.286	0.0163261
597.364	0.0162395
597.442	0.0162722
597.521	0.0162962
597.599	0.0162379
597.677	0.0163483
597.755	0.0163594
597.833	0.0163544
597.911	0.0163647
597.989	0.0163357
598.067	0.0163712
598.146	0.0163033
598.224	0.0162928
598.302	0.0163414
598.380	0.0162097
598.458	0.0162068
598.536	0.0162820
598.614	0.0162962
598.692	0.0164194
598.771	0.0161217
598.849	0.0162231
598.927	0.0163528
599.005	0.0163918
599.083	0.0162214
599.161	0.0162831
599.239	0.0162514
599.317	0.0161633
599.396	0.0162096
599.474	0.0162581
599.552	0.0162491
599.630	0.0163942
599.708	0.0163413
599.786	0.0161691
599.864	0.0162846
599.942	0.0162354
600.021	0.0162820
600.099	0.0163474
600.177	0.0161981
600.255	0.0163084
600.333	0.0163866
600.411	0.0162479
600.489	0.0164203
600.567	0.0161863
600.646	0.0161521
600.724	0.0162704
600.802	0.0162978
600.880	0.0162964
600.958	0.0164488
601.036	0.0162247
601.114	0.0162685
601.192	0.0163353
601.271	0.0163345
601.349	0.0163758
601.427	0.0163216
601.505	0.0163813
601.583	0.0162968
601.661	0.0162811
601.739	0.0162936
601.817	0.0162629
601.896	0.0162572
601.974	0.0163523
602.052	0.0162545
602.130	0.0163859
602.208	0.0163643
602.286	0.0163148
602.364	0.0163255
602.442	0.0162771
602.521	0.0161872
602.599	0.0161532
602.677	0.0163634
602.755	0.0162590
602.833	0.0162694
602.911	0.0162240
602.989	0.0161922
603.067	0.0162942
603.146	0.0162791
603.224	0.0162498
603.302	0.0163427
603.380	0.0161848
603.458	0.0162926
603.536	0.0164817
603.614	0.0163114
603.692	0.0160744
603.771	0.0162556
603.849	0.0162254
603.927	0.0162165
604.005	0.0161907
604.083	0.0162479
604.161	0.0163235
604.239	0.0162927
604.317	0.0162185
604.396	0.0163296
604.474	0.0162650
604.552	0.0163326
604.630	0.0162544
604.708	0.0161555
604.786	0.0164286
604.864	0.0163407
604.942	0.0161540
605.021	0.0162260
605.099	0.0163233
605.177	0.0163139
605.255	0.0162427
605.333	0.0162886
605.411	0.0163390
605.489	0.0162874
605.567	0.0162289
605.646	0.0163259
605.724	0.0162898
605.802	0.0163109
605.880	0.0163244
605.958	0.0162970
606.036	0.0162801
606.114	0.0162969
606.192	0.0163023
606.271	0.0162968
606.349	0.0162160
606.427	0.0162440
606.505	0.0163625
606.583	0.0163521
606.661	0.0162847
606.739	0.0163750
606.817	0.0163081
606.896	0.0163738
606.974	0.0162514
607.052	0.0163380
607.130	0.0164338
607.208	0.0163123
607.286	0.0161186
607.364	0.0162703
607.442	0.0162592
607.521	0.0163821
607.599	0.0162189
607.677	0.0161892
607.755	0.0162905
607.833	0.0162097
607.911	0.0162927
607.989	0.0163321
608.067	0.0162279
608.146	0.0162280
608.224	0.0162560
608.302	0.0163479
608.380	0.0164192
608.458	0.0162391
608.536	0.0163344
608.614	0.0163508
608.692	0.0162523
608.771	0.0163167
608.849	0.0161971
608.927	0.0163541
609.005	0.0163646
609.083	0.0163184
609.161	0.0162242
609.239	0.0163312
609.317	0.0164146
609.396	0.0162109
609.474	0.0160694
609.552	0.0162257
609.630	0.0162718
609.708	0.0162798
609.786	0.0161782
609.864	0.0162770
609.942	0.0163715
610.021	0.0162953
610.099	0.0163016
610.177	0.0163335
610.255	0.0162757
610.333	0.0162333
610.411	0.0162457
610.489	0.0164777
610.567	0.0163376
610.646	0.0163087
610.724	0.0163045
610.802	0.0162873
610.880	0.0162495
610.958	0.0163242
611.036	0.0163446
611.114	0.0163192
611.192	0.0162429
611.271	0.0164606
611.349	0.0162909
611.427	0.0163142
611.505	0.0163598
611.583	0.0163519
611.661	0.0163059
611.739	0.0162700
611.817	0.0162646
611.896	0.0162068
611.974	0.0162099
612.052	0.0162735
612.130	0.0163835
612.208	0.0162917
612.286	0.0163646
612.364	0.0164212
612.442	0.0163819
612.521	0.0163736
612.599	0.0164373
612.677	0.0163959
612.755	0.0162550
612.833	0.0162463
612.911	0.0163927
612.989	0.0163066
613.067	0.0163783
613.146	0.0162462
613.224	0.0163929
613.302	0.0162669
613.380	0.0164153
613.458	0.0163088
613.536	0.0162686
613.614	0.0163689
613.692	0.0162090
613.771	0.0162782
613.849	0.0163757
613.927	0.0163438
614.005	0.0160690
614.083	0.0161847
614.161	0.0163290
614.239	0.0163294
614.317	0.0163080
614.396	0.0163419
614.474	0.0161965
614.552	0.0162716
614.630	0.0162631
614.708	0.0162855
614.786	0.0162068
614.864	0.0161361
614.942	0.0162660
615.021	0.0161769
615.099	0.0162931
615.177	0.0162963
615.255	0.0162131
615.333	0.0162231
615.411	0.0163180
615.489	0.0163303
615.567	0.0162043
615.646	0.0161564
615.724	0.0162686
615.802	0.0162790
615.880	0.0162894
615.958	0.0163978
616.036	0.0161732
616.114	0.0162443
616.192	0.0162473
616.271	0.0161712
616.349	0.0162355
616.427	0.0161102
616.505	0.0162049
616.583	0.0162417
616.661	0.0161887
616.739	0.0161575
616.817	0.0162163
616.896	0.0160978
616.974	0.0162998
617.052	0.0163396
617.130	0.0161833
617.208	0.0162275
617.286	0.0162669
617.364	0.0162514
617.442	0.0162177
617.521	0.0163004
617.599	0.0161749
617.677	0.0162507
617.755	0.0162599
617.833	0.0163097
617.911	0.0161987
617.989	0.0162373
618.067	0.0162668
618.146	0.0162586
618.224	0.0163037
618.302	0.0163475
618.380	0.0161787
618.458	0.0162437
618.536	0.0162836
618.614	0.0163229
618.692	0.0163733
618.771	0.0162919
618.849	0.0162317
618.927	0.0163057
619.005	0.0161610
619.083	0.0163406
619.161	0.0162741
619.239	0.0162677
619.317	0.0161340
619.396	0.0162699
619.474	0.0162214
619.552	0.0162034
619.630	0.0162634
619.708	0.0161102
619.786	0.0162761
619.864	0.0162603
619.942	0.0163754
620.021	0.0162318
620.099	0.0162906
620.177	0.0162383
620.255	0.0162802
620.333	0.0162742
620.411	0.0162957
620.489	0.0163276
620.567	0.0162086
620.646	0.0162005
620.724	0.0162998
620.802	0.0162051
620.880	0.0162389
620.958	0.0161832
621.036	0.0161939
621.114	0.0162307
621.192	0.0162331
621.271	0.0161900
621.349	0.0162624
621.427	0.0162300
621.505	0.0163354
621.583	0.0162111
621.661	0.0162855
621.739	0.0162715
621.817	0.0162460
621.896	0.0162444
621.974	0.0162799
622.052	0.0161707
622.130	0.0161869
622.208	0.0161919
622.286	0.0162872
622.364	0.0162599
622.442	0.0162501
622.521	0.0162761
622.599	0.0163156
622.677	0.0162810
622.755	0.0162266
622.833	0.0162796
622.911	0.0163290
622.989	0.0163875
623.067	0.0161499
623.146	0.0162259
623.224	0.0163454
623.302	0.0163474
623.380	0.0162295
623.458	0.0162722
623.536	0.0162785
623.614	0.0162856
623.692	0.0162402
623.771	0.0162453
623.849	0.0162270
623.927	0.0162390
624.005	0.0162291
624.083	0.0163556
624.161	0.0162590
624.239	0.0162228
624.317	0.0162402
624.396	0.0163120
624.474	0.0164213
624.552	0.0162135
624.630	0.0163335
624.708	0.0162820
624.786	0.0162644
624.864	0.0163288
624.942	0.0163329
625.021	0.0161438
625.099	0.0162889
625.177	0.0162392
625.255	0.0162391
625.333	0.0162666
625.411	0.0162142
625.489	0.0162204
625.567	0.0161506
625.646	0.0163015
625.724	0.0162532
625.802	0.0162102
625.880	0.0162482
625.958	0.0162278
626.036	0.0161958
626.114	0.0162576
626.192	0.0162650
626.271	0.0163320
626.349	0.0163006
626.427	0.0161173
626.505	0.0163945
626.583	0.0163760
626.661	0.0163058
626.739	0.0162788
626.817	0.0162474
626.896	0.0163254
626.974	0.0163860
627.052	0.0163828
627.130	0.0163435
627.208	0.0164750
627.286	0.0163638
627.364	0.0162733
627.442	0.0161971
627.521	0.0164737
627.599	0.0163979
627.677	0.0162573
627.755	0.0161129
627.833	0.0162576
627.911	0.0163425
627.989	0.0162615
628.067	0.0162459
628.146	0.0161752
628.224	0.0161470
628.302	0.0162252
628.380	0.0162158
628.458	0.0161249
628.536	0.0160687
628.614	0.0160934
628.692	0.0163715
628.771	0.0162688
628.849	0.0162295
628.927	0.0163902
629.005	0.0161964
629.083	0.0161499
629.161	0.0162515
629.239	0.0161891
629.317	0.0162650
629.396	0.0162462
629.474	0.0161397
629.552	0.0163052
629.630	0.0162698
629.708	0.0162866
629.786	0.0162984
629.864	0.0163681
629.942	0.0161359
630.021	0.0162323
630.099	0.0162930
630.177	0.0162727
630.255	0.0162263
630.333	0.0162996
630.411	0.0163610
630.489	0.0162302
630.567	0.0163286
630.646	0.0162100
630.724	0.0161687
630.802	0.0161735
630.880	0.0163618
630.958	0.0163058
631.036	0.0162344
631.114	0.0162914
631.192	0.0162703
631.271	0.0162051
631.349	0.0162238
631.427	0.0163277
631.505	0.0162310
631.583	0.0162214
631.661	0.0161774
631.739	0.0162711
631.817	0.0160614
631.896	0.0162639
631.974	0.0162070
632.052	0.0161606
632.130	0.0163207
632.208	0.0162884
632.286	0.0161653
632.364	0.0162225
632.442	0.0163664
632.521	0.0162407
632.599	0.0163737
632.677	0.0163579
632.755	0.0162167
632.833	0.0162900
632.911	0.0162311
632.989	0.0163520
633.067	0.0162505
633.146	0.0163557
633.224	0.0164468
633.302	0.0164544
633.380	0.0161244
633.458	0.0161224
633.536	0.0162198
633.614	0.0163091
633.692	0.0163511
633.771	0.0164216
633.849	0.0163469
633.927	0.0163773
634.005	0.0162470
634.083	0.0162622
634.161	0.0164145
634.239	0.0162926
634.317	0.0161286
634.396	0.0162951
634.474	0.0162841
634.552	0.0162472
634.630	0.0161090
634.708	0.0161926
634.786	0.0162532
634.864	0.0163258
634.942	0.0162493
635.021	0.0162876
635.099	0.0164427
635.177	0.0161888
635.255	0.0160358
635.333	0.0162024
635.411	0.0163109
635.489	0.0162064
635.567	0.0163338
635.646	0.0162245
635.724	0.0162732
635.802	0.0162752
635.880	0.0162938
635.958	0.0163587
636.036	0.0162613
636.114	0.0162138
636.192	0.0162003
636.271	0.0162237
636.349	0.0162415
636.427	0.0161926
636.505	0.0163001
636.583	0.0162614
636.661	0.0163016
636.739	0.0162305
636.817	0.0164195
636.896	0.0163177
636.974	0.0161152
637.052	0.0164222
637.130	0.0162376
637.208	0.0163148
637.286	0.0163954
637.364	0.0162369
637.442	0.0162192
637.521	0.0162459
637.599	0.0163123
637.677	0.0164288
637.755	0.0163625
637.833	0.0163525
637.911	0.0162930
637.989	0.0162415
638.067	0.0162910
638.146	0.0162835
638.224	0.0163720
638.302	0.0164189
638.380	0.0162481
638.458	0.0161349
638.536	0.0162965
638.614	0.0162002
638.692	0.0163011
638.771	0.0163913
638.849	0.0162036
638.927	0.0162909
639.005	0.0162734
639.083	0.0161510
639.161	0.0162551
639.239	0.0162740
639.317	0.0161452
639.396	0.0162946
639.474	0.0163535
639.552	0.0163805
639.630	0.0163416
639.708	0.0161524
639.786	0.0162525
639.864	0.0164893
639.942	0.0162984
640.021	0.0162168
640.099	0.0163828
640.177	0.0163405
640.255	0.0163137
640.333	0.0164668
640.411	0.0162949
640.489	0.0162984
640.567	0.0161782
640.646	0.0164090
640.724	0.0163743
640.802	0.0161839
640.880	0.0163013
640.958	0.0163370
641.036	0.0163095
641.114	0.0162661
641.192	0.0161817
641.271	0.0161684
641.349	0.0162641
641.427	0.0162476
641.505	0.0162897
641.583	0.0162193
641.661	0.0163071
641.739	0.0162991
641.817	0.0162585
641.896	0.0162161
641.974	0.0162979
642.052	0.0161941
642.130	0.0162067
642.208	0.0162553
642.286	0.0162457
642.364	0.0162394
642.442	0.0163364
642.521	0.0162437
642.599	0.0161823
642.677	0.0162368
642.755	0.0163293
642.833	0.0162281
642.911	0.0163137
642.989	0.0163282
643.067	0.0162017
643.146	0.0162822
643.224	0.0162248
643.302	0.0163187
643.380	0.0162357
643.458	0.0162151
643.536	0.0161564
643.614	0.0163514
643.692	0.0163294
643.771	0.0162138
643.849	0.0163557
643.927	0.0163378
644.005	0.0162034
644.083	0.0162730
644.161	0.0163051
644.239	0.0162078
644.317	0.0162566
644.396	0.0163406
644.474	0.0162972
644.552	0.0163065
644.630	0.0163597
644.708	0.0164120
644.786	0.0163459
644.864	0.0161517
644.942	0.0163937
645.021	0.0162498
645.099	0.0162537
645.177	0.0163361
645.255	0.0161574
645.333	0.0163693
645.411	0.0163105
645.489	0.0161887
645.567	0.0163734
645.646	0.0163409
645.724	0.0162856
645.802	0.0163857
645.880	0.0162936
645.958	0.0162642
646.036	0.0162597
646.114	0.0162328
646.192	0.0162921
646.271	0.0162930
646.349	0.0162994
646.427	0.0162399
646.505	0.0162312
646.583	0.0163449
646.661	0.0163232
646.739	0.0163284
646.817	0.0161787
646.896	0.0162585
646.974	0.0162282
647.052	0.0162570
647.130	0.0164658
647.208	0.0162359
647.286	0.0162893
647.364	0.0163042
647.442	0.0163209
647.521	0.0162756
647.599	0.0162255
647.677	0.0162337
647.755	0.0163582
647.833	0.0162758
647.911	0.0163537
647.989	0.0162737
648.067	0.0163026
648.146	0.0162836
648.224	0.0163483
648.302	0.0162702
648.380	0.0161740
648.458	0.0162541
648.536	0.0163123
648.614	0.0161748
648.692	0.0163646
648.771	0.0164315
648.849	0.0163050
648.927	0.0163010
649.005	0.0164138
649.083	0.0163184
649.161	0.0164168
649.239	0.0163288
649.317	0.0163103
649.396	0.0162269
649.474	0.0163744
649.552	0.0163366
649.630	0.0163326
649.708	0.0163189
649.786	0.0162132
649.864	0.0163110
649.942	0.0162306
650.021	0.0164126
650.099	0.0162093
650.177	0.0161414
650.255	0.0162342
650.333	0.0164284
650.411	0.0163216
650.489	0.0162801
650.567	0.0163446
650.646	0.0162669
650.724	0.0162646
650.802	0.0162841
650.880	0.0162640
650.958	0.0162524
651.036	0.0164021
651.114	0.0164755
651.192	0.0163043
651.271	0.0161961
651.349	0.0162870
651.427	0.0163237
651.505	0.0163079
651.583	0.0163617
651.661	0.0162960
651.739	0.0163851
651.817	0.0162986
651.896	0.0163337
651.974	0.0163302
652.052	0.0162905
652.130	0.0161826
652.208	0.0161375
652.286	0.0163130
652.364	0.0163045
652.442	0.0162609
652.521	0.0162181
652.599	0.0162838
652.677	0.0162503
652.755	0.0162918
652.833	0.0161954
652.911	0.0163718
652.989	0.0163763
653.067	0.0164415
653.146	0.0163633
653.224	0.0163419
653.302	0.0162833
653.380	0.0162404
653.458	0.0162751
653.536	0.0163097
653.614	0.0163844
653.692	0.0163084
653.771	0.0163037
653.849	0.0163107
653.927	0.0162936
654.005	0.0162578
654.083	0.0162834
654.161	0.0163448
654.239	0.0162017
654.317	0.0163375
654.396	0.0162994
654.474	0.0162444
654.552	0.0164623
654.630	0.0162846
654.708	0.0162816
654.786	0.0162681
654.864	0.0163216
654.942	0.0162628
655.021	0.0161971
655.099	0.0162843
655.177	0.0162946
655.255	0.0163447
655.333	0.0162830
655.411	0.0163305
655.489	0.0162885
655.567	0.0163763
655.646	0.0162746
655.724	0.0163611
655.802	0.0162939
655.880	0.0162902
655.958	0.0161983
656.036	0.0162591
656.114	0.0164271
656.192	0.0162276
656.271	0.0161212
656.349	0.0162488
656.427	0.0162421
656.505	0.0163572
656.583	0.0162896
656.661	0.0163294
656.739	0.0163881
656.817	0.0164155
656.896	0.0163416
656.974	0.0161242
657.052	0.0163570
657.130	0.0163823
657.208	0.0163726
657.286	0.0163297
657.364	0.0162454
657.442	0.0164551
657.521	0.0163670
657.599	0.0162405
657.677	0.0162733
657.755	0.0161679
657.833	0.0162720
657.911	0.0163714
657.989	0.0164254
658.067	0.0161972
658.146	0.0163483
658.224	0.0163593
658.302	0.0161422
658.380	0.0163602
658.458	0.0164146
658.536	0.0162865
658.614	0.0162744
658.692	0.0162437
658.771	0.0162836
658.849	0.0162553
658.927	0.0163200
659.005	0.0163010
659.083	0.0163033
659.161	0.0162324
659.239	0.0162921
659.317	0.0162317
659.396	0.0163567
659.474	0.0162507
659.552	0.0163496
659.630	0.0163745
659.708	0.0163081
659.786	0.0162916
659.864	0.0162004
659.942	0.0163175
660.021	0.0162131
660.099	0.0163329
660.177	0.0164274
660.255	0.0161485
660.333	0.0162023
660.411	0.0163062
660.489	0.0163369
660.567	0.0163579
660.646	0.0162861
660.724	0.0163004
660.802	0.0163746
660.880	0.0162942
660.958	0.0163631
661.036	0.0164063
661.114	0.0163042
661.192	0.0163577
661.271	0.0162723
661.349	0.0163583
661.427	0.0163042
661.505	0.0162109
661.583	0.0162864
661.661	0.0162627
661.739	0.0164046
661.817	0.0163377
661.896	0.0162933
661.974	0.0163129
662.052	0.0162578
662.130	0.0163826
662.208	0.0163553
662.286	0.0162186
662.364	0.0162784
662.442	0.0163219
662.521	0.0163286
662.599	0.0163013
662.677	0.0163868
662.755	0.0163091
662.833	0.0163055
662.911	0.0162834
662.989	0.0163400
663.067	0.0163216
663.146	0.0163945
663.224	0.0163550
663.302	0.0161738
663.380	0.0163786
663.458	0.0163216
663.536	0.0162305
663.614	0.0162080
663.692	0.0162553
663.771	0.0161523
663.849	0.0163589
663.927	0.0162988
664.005	0.0162326
664.083	0.0161357
664.161	0.0163406
664.239	0.0164071
664.317	0.0163647
664.396	0.0162699
664.474	0.0163752
664.552	0.0163395
664.630	0.0162980
664.708	0.0162898
664.786	0.0161706
664.864	0.0162720
664.942	0.0161933
665.021	0.0161797
665.099	0.0162415
665.177	0.0164705
665.255	0.0164648
665.333	0.0162066
665.411	0.0161873
665.489	0.0162954
665.567	0.0163126
665.646	0.0162763
665.724	0.0162075
665.802	0.0163705
665.880	0.0163466
665.958	0.0163382
666.036	0.0162475
666.114	0.0162419
666.192	0.0162299
666.271	0.0162667
666.349	0.0163010
666.427	0.0162210
666.505	0.0161443
666.583	0.0162846
666.661	0.0162173
666.739	0.0163496
666.817	0.0163133
666.896	0.0163486
666.974	0.0164543
667.052	0.0164218
667.130	0.0161874
667.208	0.0162533
667.286	0.0163394
667.364	0.0161941
667.442	0.0162434
667.521	0.0162642
667.599	0.0163579
667.677	0.0163256
667.755	0.0161815
667.833	0.0161951
667.911	0.0163447
667.989	0.0162383
668.067	0.0162818
668.146	0.0162852
668.224	0.0163017
668.302	0.0162070
668.380	0.0163255
668.458	0.0162914
668.536	0.0162898
668.614	0.0161858
668.692	0.0161754
668.771	0.0162858
668.849	0.0162822
668.927	0.0163560
669.005	0.0161931
669.083	0.0162959
669.161	0.0162396
669.239	0.0162114
669.317	0.0164391
669.396	0.0162409
669.474	0.0163073
669.552	0.0162381
669.630	0.0163969
669.708	0.0163567
669.786	0.0162809
669.864	0.0161957
669.942	0.0162652
670.021	0.0162514
670.099	0.0162041
670.177	0.0164487
670.255	0.0164424
670.333	0.0162577
670.411	0.0163468
670.489	0.0162609
670.567	0.0163521
670.646	0.0162360
670.724	0.0162627
670.802	0.0163480
670.880	0.0163266
670.958	0.0163574
671.036	0.0163239
671.114	0.0163137
671.192	0.0163324
671.271	0.0162360
671.349	0.0162225
671.427	0.0162286
671.505	0.0163285
671.583	0.0162151
671.661	0.0162778
671.739	0.0162629
671.817	0.0161907
671.896	0.0160886
671.974	0.0162563
672.052	0.0163374
672.130	0.0163361
672.208	0.0163277
672.286	0.0163010
672.364	0.0161804
672.442	0.0161591
672.521	0.0161594
672.599	0.0163109
672.677	0.0161750
672.755	0.0164214
672.833	0.0162385
672.911	0.0163593
672.989	0.0162041
673.067	0.0162961
673.146	0.0162737
673.224	0.0162885
673.302	0.0163867
673.380	0.0162946
673.458	0.0163211
673.536	0.0163483
673.614	0.0162431
673.692	0.0163145
673.771	0.0163030
673.849	0.0162684
673.927	0.0162848
674.005	0.0162550
674.083	0.0162787
674.161	0.0163420
674.239	0.0162637
674.317	0.0161109
674.396	0.0163623
674.474	0.0163326
674.552	0.0162687
674.630	0.0162646
674.708	0.0161626
674.786	0.0162240
674.864	0.0161726
674.942	0.0162878
675.021	0.0163692
675.099	0.0162013
675.177	0.0162693
675.255	0.0162350
675.333	0.0162611
675.411	0.0163377
675.489	0.0163678
675.567	0.0162402
675.646	0.0162228
675.724	0.0162627
675.802	0.0163647
675.880	0.0162740
675.958	0.0161476
676.036	0.0164042
676.114	0.0162357
676.192	0.0162002
676.271	0.0162328
676.349	0.0163857
676.427	0.0164468
676.505	0.0162965
676.583	0.0162725
676.661	0.0163010
676.739	0.0162422
676.817	0.0164103
676.896	0.0162392
676.974	0.0161539
677.052	0.0162712
677.130	0.0162219
677.208	0.0163803
677.286	0.0163853
677.364	0.0163017
677.442	0.0164170
677.521	0.0163434
677.599	0.0162057
677.677	0.0162499
677.755	0.0162003
677.833	0.0161863
677.911	0.0163391
677.989	0.0163000
678.067	0.0163582
678.146	0.0164146
678.224	0.0163303
678.302	0.0162464
678.380	0.0164271
678.458	0.0162548
678.536	0.0164071
678.614	0.0162347
678.692	0.0163283
678.771	0.0163613
678.849	0.0162907
678.927	0.0161901
679.005	0.0160860
679.083	0.0163850
679.161	0.0162601
679.239	0.0163000
679.317	0.0164436
679.396	0.0163381
679.474	0.0162879
679.552	0.0162738
679.630	0.0163598
679.708	0.0163224
679.786	0.0162847
679.864	0.0164196
679.942	0.0163477
680.021	0.0163258
680.099	0.0163239
680.177	0.0163992
680.255	0.0162270
680.333	0.0165137
680.411	0.0163373
680.489	0.0163842
680.567	0.0163580
680.646	0.0163483
680.724	0.0164207
680.802	0.0163396
680.880	0.0163736
680.958	0.0162157
681.036	0.0163840
681.114	0.0163913
681.192	0.0163564
681.271	0.0162887
681.349	0.0161904
681.427	0.0163190
681.505	0.0164335
681.583	0.0164315
681.661	0.0161890
681.739	0.0163335
681.817	0.0162558
681.896	0.0164368
681.974	0.0162825
682.052	0.0162191
682.130	0.0162384
682.208	0.0162986
682.286	0.0163109
682.364	0.0163477
682.442	0.0162694
682.521	0.0163558
682.599	0.0161658
682.677	0.0162543
682.755	0.0162290
682.833	0.0162823
682.911	0.0163021
682.989	0.0163205
683.067	0.0163659
683.146	0.0162360
683.224	0.0162952
683.302	0.0163557
683.380	0.0163397
683.458	0.0162425
683.536	0.0162820
683.614	0.0162602
683.692	0.0164648
683.771	0.0164271
683.849	0.0162622
683.927	0.0163199
684.005	0.0162386
684.083	0.0162939
684.161	0.0164245
684.239	0.0162871
684.317	0.0162196
684.396	0.0162220
684.474	0.0162320
684.552	0.0163936
684.630	0.0162825
684.708	0.0162468
684.786	0.0162106
684.864	0.0161784
684.942	0.0162114
685.021	0.0163174
685.099	0.0163065
685.177	0.0162844
685.255	0.0161613
685.333	0.0164114
685.411	0.0163486
685.489	0.0162887
685.567	0.0162203
685.646	0.0163348
685.724	0.0163300
685.802	0.0163247
685.880	0.0163084
685.958	0.0162286
686.036	0.0163515
686.114	0.0162486
686.192	0.0162106
686.271	0.0162741
686.349	0.0161854
686.427	0.0162546
686.505	0.0163297
686.583	0.0161918
686.661	0.0163316
686.739	0.0164246
686.817	0.0162183
686.896	0.0163866
686.974	0.0163592
687.052	0.0163134
687.130	0.0162656
687.208	0.0161176
687.286	0.0163239
687.364	0.0163985
687.442	0.0163039
687.521	0.0163266
687.599	0.0163217
687.677	0.0163206
687.755	0.0162498
687.833	0.0163204
687.911	0.0163872
687.989	0.0162154
688.067	0.0162675
688.146	0.0162166
688.224	0.0162649
688.302	0.0162529
688.380	0.0162675
688.458	0.0163042
688.536	0.0162557
688.614	0.0163061
688.692	0.0162131
688.771	0.0162503
688.849	0.0162174
688.927	0.0161971
689.005	0.0162661
689.083	0.0162623
689.161	0.0162103
689.239	0.0162489
689.317	0.0163080
689.396	0.0162439
689.474	0.0162287
689.552	0.0162141
689.630	0.0161739
689.708	0.0163300
689.786	0.0162111
689.864	0.0162894
689.942	0.0162708
690.021	0.0162552
690.099	0.0163131
690.177	0.0162679
690.255	0.0161570
690.333	0.0161342
690.411	0.0162328
690.489	0.0163428
690.567	0.0163075
690.646	0.0162247
690.724	0.0162713
690.802	0.0163252
690.880	0.0162466
690.958	0.0162801
691.036	0.0162230
691.114	0.0161815
691.192	0.0163242
691.271	0.0161861
691.349	0.0161472
691.427	0.0162508
691.505	0.0161047
691.583	0.0162447
691.661	0.0163406
691.739	0.0162360
691.817	0.0162656
691.896	0.0162688
691.974	0.0162927
692.052	0.0162014
692.130	0.0161716
692.208	0.0161484
692.286	0.0161343
692.364	0.0162711
692.442	0.0163243
692.521	0.0162666
692.599	0.0160683
692.677	0.0162434
692.755	0.0162338
692.833	0.0163107
692.911	0.0161869
692.989	0.0161817
693.067	0.0162614
693.146	0.0161092
693.224	0.0161663
693.302	0.0161935
693.380	0.0162844
693.458	0.0163627
693.536	0.0162546
693.614	0.0164013
693.692	0.0164115
693.771	0.0162319
693.849	0.0164193
693.927	0.0163174
694.005	0.0163626
694.083	0.0163846
694.161	0.0162891
694.239	0.0162279
694.317	0.0161964
694.396	0.0162074
694.474	0.0161835
694.552	0.0160779
694.630	0.0161108
694.708	0.0162453
694.786	0.0163479
694.864	0.0162212
694.942	0.0163180
695.021	0.0163705
695.099	0.0165021
695.177	0.0166019
695.255	0.0164788
695.333	0.0166920
695.411	0.0165234
695.489	0.0163678
695.567	0.0163822
695.646	0.0160789
695.724	0.0159927
695.802	0.0157587
695.880	0.0154934
695.958	0.0156086
696.036	0.0155666
696.114	0.0156313
696.192	0.0156791
696.271	0.0158521
696.349	0.0161437
696.427	0.0164111
696.505	0.0165562
696.583	0.0168371
696.661	0.0171970
696.739	0.0172633
696.817	0.0171666
696.896	0.0172090
696.974	0.0171024
697.052	0.0169203
697.130	0.0164500
697.208	0.0160699
697.286	0.0159641
697.364	0.0155572
697.442	0.0153672
697.521	0.0152305
697.599	0.0153185
697.677	0.0153249
697.755	0.0154166
697.833	0.0155273
697.911	0.0157430
697.989	0.0161297
698.067	0.0163239
698.146	0.0165485
698.224	0.0168646
698.302	0.0169779
698.380	0.0167072
698.458	0.0166527
698.536	0.0165154
698.614	0.0162812
698.692	0.0158378
698.771	0.0157118
698.849	0.0153525
698.927	0.0151676
699.005	0.0152106
699.083	0.0153004
699.161	0.0154581
699.239	0.0157864
699.317	0.0160486
699.396	0.0166061
699.474	0.0169835
699.552	0.0173750
699.630	0.0177085
699.708	0.0181278
699.786	0.0183656
699.864	0.0184583
699.942	0.0185664
700.021	0.0184133
700.099	0.0181895
700.177	0.0176817
700.255	0.0173125
700.333	0.0166987
700.411	0.0160553
700.489	0.0154404
700.567	0.0148443
700.646	0.0142750
700.724	0.0137656
700.802	0.0135368
700.880	0.0135128
700.958	0.0133119
701.036	0.0133152
701.114	0.0136027
701.192	0.0139816
701.271	0.0145082
701.349	0.0149899
701.427	0.0155000
701.505	0.0160841
701.583	0.0166148
701.661	0.0168294
701.739	0.0171484
701.817	0.0174290
701.896	0.0175558
701.974	0.0175625
702.052	0.0176152
702.130	0.0176129
702.208	0.0173628
702.286	0.0173358
702.364	0.0170995
702.442	0.0169082
702.521	0.0166303
702.599	0.0164764
702.677	0.0163825
702.755	0.0162875
702.833	0.0162681
702.911	0.0162986
702.989	0.0166796
703.067	0.0169766
703.146	0.0174194
703.224	0.0179135
703.302	0.0184729
703.380	0.0191559
703.458	0.0198059
703.536	0.0202539
703.614	0.0206803
703.692	0.0208473
703.771	0.0205670
703.849	0.0202778
703.927	0.0195861
704.005	0.0184889
704.083	0.0174408
704.161	0.0160323
704.239	0.0145841
704.317	0.0131738
704.396	0.0118712
704.474	0.0106896
704.552	0.00974998
704.630	0.00898911
704.708	0.00883904
704.786	0.00874611
704.864	0.00892548
704.942	0.00936798
705.021	0.00997444
705.099	0.0105506
705.177	0.0112455
705.255	0.0120482
705.333	0.0128530
705.411	0.0136635
705.489	0.0143737
705.567	0.0151418
705.646	0.0159179
705.724	0.0168419
705.802	0.0176018
705.880	0.0183025
705.958	0.0192454
706.036	0.0203822
706.114	0.0215096
706.192	0.0225570
706.271	0.0236836
706.349	0.0246764
706.427	0.0256977
706.505	0.0265221
706.583	0.0272741
706.661	0.0275520
706.739	0.0274899
706.817	0.0270164
706.896	0.0261548
706.974	0.0250373
707.052	0.0235135
707.130	0.0217184
707.208	0.0195570
707.286	0.0172542
707.364	0.0149448
707.442	0.0127454
707.521	0.0104861
707.599	0.00855988
707.677	0.00709274
707.755	0.00589546
707.833	0.00513084
707.911	0.00454681
707.989	0.00443909
708.067	0.00454185
708.146	0.00488449
708.224	0.00537956
708.302	0.00636665
708.380	0.00731285
708.458	0.00834076
708.536	0.00963799
708.614	0.0108924
708.692	0.0123088
708.771	0.0137891
708.849	0.0152634
708.927	0.0165608
709.005	0.0177134
709.083	0.0188540
709.161	0.0201352
709.239	0.0210544
709.317	0.0217749
709.396	0.0224749
709.474	0.0232002
709.552	0.0238342
709.630	0.0243035
709.708	0.0246212
709.786	0.0250156
709.864	0.0251840
709.942	0.0251976
710.021	0.0250269
710.099	0.0247778
710.177	0.0238829
710.255	0.0229114
710.333	0.0220338
710.411	0.0205505
710.489	0.0191822
710.567	0.0176441
710.646	0.0161365
710.724	0.0147059
710.802	0.0134619
710.880	0.0122421
710.958	0.0112846
711.036	0.0104839
711.114	0.00981888
711.192	0.00947525
711.271	0.00949089
711.349	0.00963898
711.427	0.00993706
711.505	0.0102904
711.583	0.0108102
711.661	0.0116062
711.739	0.0121453
711.817	0.0125246
711.896	0.0131947
711.974	0.0136516
712.052	0.0141841
712.130	0.0144883
712.208	0.0147881
712.286	0.0153127
712.364	0.0156102
712.442	0.0159295
712.521	0.0162665
712.599	0.0169984
712.677	0.0174163
712.755	0.0179404
712.833	0.0185487
712.911	0.0191891
712.989	0.0197293
713.067	0.0202400
713.146	0.0207435
713.224	0.0208784
713.302	0.0207872
713.380	0.0209837
713.458	0.0206231
713.536	0.0202661
713.614	0.0199669
713.692	0.0195184
713.771	0.0190381
713.849	0.0185793
713.927	0.0181159
714.005	0.0177041
714.083	0.0175483
714.161	0.0171795
714.239	0.0168851
714.317	0.0164372
714.396	0.0161478
714.474	0.0159284
714.552	0.0154270
714.630	0.0151827
714.708	0.0147597
714.786	0.0140982
714.864	0.0134730
714.942	0.0129323
715.021	0.0121600
715.099	0.0114020
715.177	0.0106728
715.255	0.0101530
715.333	0.00969650
715.411	0.00927605
715.489	0.00926270
715.567	0.00947350
715.646	0.00983955
715.724	0.0105201
715.802	0.0114341
715.880	0.0123552
715.958	0.0137324
716.036	0.0151383
716.114	0.0164278
716.192	0.0179185
716.271	0.0193916
716.349	0.0206290
716.427	0.0218873
716.505	0.0227081
716.583	0.0234258
716.661	0.0240000
716.739	0.0243666
716.817	0.0246136
716.896	0.0243996
716.974	0.0243334
717.052	0.0239536
717.130	0.0234273
717.208	0.0227825
717.286	0.0220981
717.364	0.0211385
717.442	0.0203198
717.521	0.0192260
717.599	0.0180712
717.677	0.0171970
717.755	0.0160419
717.833	0.0150025
717.911	0.0140791
717.989	0.0130084
718.067	0.0121271
718.146	0.0113546
718.224	0.0108068
718.302	0.0103493
718.380	0.00993942
718.458	0.00980751
718.536	0.00962387
718.614	0.00981705
718.692	0.0100503
718.771	0.0104343
718.849	0.0108897
718.927	0.0114609
719.005	0.0120535
719.083	0.0129883
719.161	0.0138217
719.239	0.0144376
719.317	0.0153003
719.396	0.0160556
719.474	0.0165757
719.552	0.0172846
719.630	0.0177799
719.708	0.0182098
719.786	0.0185046
719.864	0.0187569
719.942	0.0188927
720.021	0.0190308
720.099	0.0191070
720.177	0.0191679
720.255	0.0194065
720.333	0.0192143
720.411	0.0191803
720.489	0.0191634
720.567	0.0190134
720.646	0.0188689
720.724	0.0186377
720.802	0.0182668
720.880	0.0179519
720.958	0.0176363
721.036	0.0171806
721.114	0.0169160
721.192	0.0163055
721.271	0.0159518
721.349	0.0157137
721.427	0.0154000
721.505	0.0150452
721.583	0.0148381
721.661	0.0148701
721.739	0.0148674
721.817	0.0147626
721.896	0.0148351
721.974	0.0151174
722.052	0.0154057
722.130	0.0154549
722.208	0.0156445
722.286	0.0159023
722.364	0.0160716
722.442	0.0164179
722.521	0.0167689
722.599	0.0168577
722.677	0.0168286
722.755	0.0169141
722.833	0.0169431
722.911	0.0169096
722.989	0.0168224
723.067	0.0168099
723.146	0.0167373
723.224	0.0165868
723.302	0.0164993
723.380	0.0164246
723.458	0.0162894
723.536	0.0163645
723.614	0.0165022
723.692	0.0165064
723.771	0.0163200
723.849	0.0164591
723.927	0.0166059
724.005	0.0165051
724.083	0.0165810
724.161	0.0163864
724.239	0.0162540
724.317	0.0161803
724.396	0.0158881
724.474	0.0157917
724.552	0.0156670
724.630	0.0154041
724.708	0.0152313
724.786	0.0152405
724.864	0.0151140
724.942	0.0149551
725.021	0.0149015
725.099	0.0148742
725.177	0.0149672
725.255	0.0151482
725.333	0.0150410
725.411	0.0152412
725.489	0.0155068
725.567	0.0157964
725.646	0.0159150
725.724	0.0161165
725.802	0.0163613
725.880	0.0163473
725.958	0.0164243
726.036	0.0163824
726.114	0.0163940
726.192	0.0164232
726.271	0.0164374
726.349	0.0164922
726.427	0.0164163
726.505	0.0164840
726.583	0.0166561
726.661	0.0168320
726.739	0.0169039
726.817	0.0173106
726.896	0.0175043
726.974	0.0178391
727.052	0.0177641
727.130	0.0180196
727.208	0.0181605
727.286	0.0181945
727.364	0.0181818
727.442	0.0180627
727.521	0.0178916
727.599	0.0175873
727.677	0.0173622
727.755	0.0170023
727.833	0.0167631
727.911	0.0163496
727.989	0.0161483
728.067	0.0156896
728.146	0.0153587
728.224	0.0151546
728.302	0.0149051
728.380	0.0148398
728.458	0.0147114
728.536	0.0147248
728.614	0.0146830
728.692	0.0146488
728.771	0.0147615
728.849	0.0146703
728.927	0.0147262
729.005	0.0148526
729.083	0.0152416
729.161	0.0153832
729.239	0.0154116
729.317	0.0155793
729.396	0.0158031
729.474	0.0160175
729.552	0.0161542
729.630	0.0163350
729.708	0.0166346
729.786	0.0166880
729.864	0.0167205
729.942	0.0169241
730.021	0.0170668
730.099	0.0170741
730.177	0.0171388
730.255	0.0173069
730.333	0.0172881
730.411	0.0173491
730.489	0.0174838
730.567	0.0174366
730.646	0.0174860
730.724	0.0173127
730.802	0.0173511
730.880	0.0174281
730.958	0.0173084
731.036	0.0171113
731.114	0.0169666
731.192	0.0169213
731.271	0.0167381
731.349	0.0164655
731.427	0.0163261
731.505	0.0160528
731.583	0.0159681
731.661	0.0158112
731.739	0.0156530
731.817	0.0156167
731.896	0.0155807
731.974	0.0152392
732.052	0.0153207
732.130	0.0152896
732.208	0.0151691
732.286	0.0151501
732.364	0.0152953
732.442	0.0153362
732.521	0.0153802
732.599	0.0156245
732.677	0.0157490
732.755	0.0157567
732.833	0.0159438
732.911	0.0161120
732.989	0.0162718
733.067	0.0165327
733.146	0.0167910
733.224	0.0168980
733.302	0.0170473
733.380	0.0172198
733.458	0.0174001
733.536	0.0173895
733.614	0.0172620
733.692	0.0173117
733.771	0.0172038
733.849	0.0169987
733.927	0.0169329
734.005	0.0166977
734.083	0.0164364
734.161	0.0163123
734.239	0.0161515
734.317	0.0159175
734.396	0.0159445
734.474	0.0157697
734.552	0.0157850
734.630	0.0157977
734.708	0.0159646
734.786	0.0158252
734.864	0.0159266
734.942	0.0157899
735.021	0.0159659
735.099	0.0162148
735.177	0.0161184
735.255	0.0160659
735.333	0.0158946
735.411	0.0159563
735.489	0.0160045
735.567	0.0157896
735.646	0.0157521
735.724	0.0156532
735.802	0.0155699
735.880	0.0156963
735.958	0.0156255
736.036	0.0158392
736.114	0.0160081
736.192	0.0160836
736.271	0.0162737
736.349	0.0166792
736.427	0.0167908
736.505	0.0169196
736.583	0.0171718
736.661	0.0173856
736.739	0.0174957
736.817	0.0177322
736.896	0.0176263
736.974	0.0175521
737.052	0.0175618
737.130	0.0174307
737.208	0.0172040
737.286	0.0170103
737.364	0.0170006
737.442	0.0169936
737.521	0.0168299
737.599	0.0166187
737.677	0.0166245
737.755	0.0165073
737.833	0.0165427
737.911	0.0166648
737.989	0.0165723
738.067	0.0165273
738.146	0.0164507
738.224	0.0163023
738.302	0.0163049
738.380	0.0162074
738.458	0.0162138
738.536	0.0161472
738.614	0.0159770
738.692	0.0158916
738.771	0.0156040
738.849	0.0154932
738.927	0.0154253
739.005	0.0153210
739.083	0.0153234
739.161	0.0151276
739.239	0.0151555
739.317	0.0151810
739.396	0.0152770
739.474	0.0151741
739.552	0.0151095
739.630	0.0152983
739.708	0.0154302
739.786	0.0154552
739.864	0.0154972
739.942	0.0156507
740.021	0.0156989
740.099	0.0157770
740.177	0.0157986
740.255	0.0160236
740.333	0.0160491
740.411	0.0160649
740.489	0.0161889
740.567	0.0162534
740.646	0.0163643
740.724	0.0165325
740.802	0.0166779
740.880	0.0168281
740.958	0.0168085
741.036	0.0170915
741.114	0.0171702
741.192	0.0173121
741.271	0.0174561
741.349	0.0175487
741.427	0.0175505
741.505	0.0178658
741.583	0.0177773
741.661	0.0178181
741.739	0.0176785
741.817	0.0178000
741.896	0.0175903
741.974	0.0175695
742.052	0.0173951
742.130	0.0171828
742.208	0.0168454
742.286	0.0167398
742.364	0.0165165
742.442	0.0162201
742.521	0.0162180
742.599	0.0160796
742.677	0.0158736
742.755	0.0156885
742.833	0.0155502
742.911	0.0154858
742.989	0.0152985
743.067	0.0152620
743.146	0.0151925
743.224	0.0150856
743.302	0.0151369
743.380	0.0149735
743.458	0.0149767
743.536	0.0152373
743.614	0.0152855
743.692	0.0154169
743.771	0.0154990
743.849	0.0156535
743.927	0.0161796
744.005	0.0162825
744.083	0.0164113
744.161	0.0168275
744.239	0.0168365
744.317	0.0169073
744.396	0.0171419
744.474	0.0170963
744.552	0.0172311
744.630	0.0169332
744.708	0.0167825
744.786	0.0168707
744.864	0.0167085
744.942	0.0165352
745.021	0.0165415
745.099	0.0164267
745.177	0.0164444
745.255	0.0162505
745.333	0.0162904
745.411	0.0162444
745.489	0.0163446
745.567	0.0165107
745.646	0.0165383
745.724	0.0165472
745.802	0.0165237
745.880	0.0163524
745.958	0.0165164
746.036	0.0165198
746.114	0.0161820
746.192	0.0161691
746.271	0.0160902
746.349	0.0159273
746.427	0.0158784
746.505	0.0157177
746.583	0.0156664
746.661	0.0155414
746.739	0.0155270
746.817	0.0155277
746.896	0.0156343
746.974	0.0157752
747.052	0.0157533
747.130	0.0158494
747.208	0.0161112
747.286	0.0161350
747.364	0.0162659
747.442	0.0163445
747.521	0.0164115
747.599	0.0164674
747.677	0.0165280
747.755	0.0164035
747.833	0.0162961
747.911	0.0164070
747.989	0.0163715
748.067	0.0163628
748.146	0.0163216
748.224	0.0161335
748.302	0.0160927
748.380	0.0160198
748.458	0.0162766
748.536	0.0162985
748.614	0.0162379
748.692	0.0162316
748.771	0.0163316
748.849	0.0163413
748.927	0.0163834
749.005	0.0165348
749.083	0.0166164
749.161	0.0167361
749.239	0.0168356
749.317	0.0168308
749.396	0.0169286
749.474	0.0168254
749.552	0.0169973
749.630	0.0168095
749.708	0.0168232
749.786	0.0168592
749.864	0.0167470
749.942	0.0168997
750.021	0.0166522
750.099	0.0167133
750.177	0.0166119
750.255	0.0163973
750.333	0.0162959
750.411	0.0162666
750.489	0.0161726
750.567	0.0160329
750.646	0.0159380
750.724	0.0158504
750.802	0.0156853
750.880	0.0157359
750.958	0.0157618
751.036	0.0155454
751.114	0.0154598
751.192	0.0154587
751.271	0.0154292
751.349	0.0153649
751.427	0.0152367
751.505	0.0153821
751.583	0.0154028
751.661	0.0154662
751.739	0.0155778
751.817	0.0158929
751.896	0.0158820
751.974	0.0160518
752.052	0.0164268
752.130	0.0164966
752.208	0.0166174
752.286	0.0168687
752.364	0.0169583
752.442	0.0170753
752.521	0.0170437
752.599	0.0171049
752.677	0.0170097
752.755	0.0170703
752.833	0.0169978
752.911	0.0168715
752.989	0.0168481
753.067	0.0167957
753.146	0.0168640
753.224	0.0167895
753.302	0.0166175
753.380	0.0165156
753.458	0.0166943
753.536	0.0166695
753.614	0.0165000
753.692	0.0164686
753.771	0.0163676
753.849	0.0162730
753.927	0.0162831
754.005	0.0160570
754.083	0.0159419
754.161	0.0159721
754.239	0.0158726
754.317	0.0155937
754.396	0.0156399
754.474	0.0155681
754.552	0.0153596
754.630	0.0154850
754.708	0.0154240
754.786	0.0155096
754.864	0.0155336
754.942	0.0157243
755.021	0.0157529
755.099	0.0158689
755.177	0.0158978
755.255	0.0161153
755.333	0.0162618
755.411	0.0164789
755.489	0.0164265
755.567	0.0165754
755.646	0.0166112
755.724	0.0168605
755.802	0.0168911
755.880	0.0168996
755.958	0.0170032
756.036	0.0170094
756.114	0.0171029
756.192	0.0171160
756.271	0.0170176
756.349	0.0170093
756.427	0.0167463
756.505	0.0168136
756.583	0.0166540
756.661	0.0165516
756.739	0.0164767
756.817	0.0163393
756.896	0.0161710
756.974	0.0160370
757.052	0.0159521
757.130	0.0159178
757.208	0.0157536
757.286	0.0157459
757.364	0.0156706
757.442	0.0154848
757.521	0.0156298
757.599	0.0157027
757.677	0.0157730
757.755	0.0158092
757.833	0.0158810
757.911	0.0159292
757.989	0.0160166
758.067	0.0161272
758.146	0.0164378
758.224	0.0164019
758.302	0.0164933
758.380	0.0164863
758.458	0.0166243
758.536	0.0167240
758.614	0.0169811
758.692	0.0169019
758.771	0.0169125
758.849	0.0168236
758.927	0.0169141
759.005	0.0169350
759.083	0.0169788
759.161	0.0168935
759.239	0.0167926
759.317	0.0166123
759.396	0.0165799
759.474	0.0164548
759.552	0.0162948
759.630	0.0163667
759.708	0.0163864
759.786	0.0162297
759.864	0.0162903
759.942	0.0162453
760.021	0.0162211
760.099	0.0161639
760.177	0.0160907
760.255	0.0160951
760.333	0.0160837
760.411	0.0160754
760.489	0.0159006
760.567	0.0158849
760.646	0.0158866
760.724	0.0158453
760.802	0.0157588
760.880	0.0156783
760.958	0.0158974
761.036	0.0157587
761.114	0.0157970
761.192	0.0158492
761.271	0.0160338
761.349	0.0162789
761.427	0.0162054
761.505	0.0161550
761.583	0.0163192
761.661	0.0164614
761.739	0.0165849
761.817	0.0167218
761.896	0.0166453
761.974	0.0168133
762.052	0.0167661
762.130	0.0168523
762.208	0.0169769
762.286	0.0168941
762.364	0.0167500
762.442	0.0168802
762.521	0.0167648
762.599	0.0165549
762.677	0.0166196
762.755	0.0164905
762.833	0.0164559
762.911	0.0163848
762.989	0.0164709
763.067	0.0163683
763.146	0.0161966
763.224	0.0161817
763.302	0.0160564
763.380	0.0163293
763.458	0.0160779
763.536	0.0159531
763.614	0.0159488
763.692	0.0158793
763.771	0.0159565
763.849	0.0160400
763.927	0.0159180
764.005	0.0159914
764.083	0.0159769
764.161	0.0159082
764.239	0.0159195
764.317	0.0160080
764.396	0.0159833
764.474	0.0159557
764.552	0.0159264
764.630	0.0160622
764.708	0.0160735
764.786	0.0162074
764.864	0.0162709
764.942	0.0162296
765.021	0.0164241
765.099	0.0165517
765.177	0.0164122
765.255	0.0165913
765.333	0.0167087
765.411	0.0167636
765.489	0.0168096
765.567	0.0168868
765.646	0.0168343
765.724	0.0168428
765.802	0.0168172
765.880	0.0167857
765.958	0.0169087
766.036	0.0168614
766.114	0.0166970
766.192	0.0166669
766.271	0.0167224
766.349	0.0165764
766.427	0.0164909
766.505	0.0163095
766.583	0.0163174
766.661	0.0163525
766.739	0.0161625
766.817	0.0162386
766.896	0.0163239
766.974	0.0161096
767.052	0.0161777
767.130	0.0161211
767.208	0.0160481
767.286	0.0159298
767.364	0.0161660
767.442	0.0160318
767.521	0.0160706
767.599	0.0159875
767.677	0.0159591
767.755	0.0158820
767.833	0.0159494
767.911	0.0160626
767.989	0.0159744
768.067	0.0160620
768.146	0.0160368
768.224	0.0161374
768.302	0.0160504
768.380	0.0161892
768.458	0.0162891
768.536	0.0163318
768.614	0.0164641
768.692	0.0165562
768.771	0.0165813
768.849	0.0166809
768.927	0.0165391
769.005	0.0166018
769.083	0.0167883
769.161	0.0166020
769.239	0.0167141
769.317	0.0166959
769.396	0.0166552
769.474	0.0164774
769.552	0.0165548
769.630	0.0164741
769.708	0.0163540
769.786	0.0162132
769.864	0.0162465
769.942	0.0159852
770.021	0.0160573
770.099	0.0160699
770.177	0.0161118
770.255	0.0160532
770.333	0.0160520
770.411	0.0161533
770.489	0.0162067
770.567	0.0161475
770.646	0.0162685
770.724	0.0163690
770.802	0.0162889
770.880	0.0162360
770.958	0.0163354
771.036	0.0163292
771.114	0.0165142
771.192	0.0163155
771.271	0.0163206
771.349	0.0162809
771.427	0.0163670
771.505	0.0163186
771.583	0.0163666
771.661	0.0163774
771.739	0.0164722
771.817	0.0164644
771.896	0.0163669
771.974	0.0163142
772.052	0.0164371
772.130	0.0162225
772.208	0.0164299
772.286	0.0163723
772.364	0.0163684
772.442	0.0163876
772.521	0.0163696
772.599	0.0163041
772.677	0.0163178
772.755	0.0160937
772.833	0.0160425
772.911	0.0161417
772.989	0.0161282
773.067	0.0162340
773.146	0.0161953
773.224	0.0162004
773.302	0.0161179
773.380	0.0162350
773.458	0.0164436
773.536	0.0163588
773.614	0.0164616
773.692	0.0165546
773.771	0.0165711
773.849	0.0167014
773.927	0.0167752
774.005	0.0167167
774.083	0.0168316
774.161	0.0168619
774.239	0.0168253
774.317	0.0168619
774.396	0.0168261
774.474	0.0167247
774.552	0.0165968
774.630	0.0165177
774.708	0.0163412
774.786	0.0162267
774.864	0.0161790
774.942	0.0161342
775.021	0.0161265
775.099	0.0159986
775.177	0.0159352
775.255	0.0159138
775.333	0.0159885
775.411	0.0158276
775.489	0.0157542
775.567	0.0159307
775.646	0.0158532
775.724	0.0158073
775.802	0.0156916
775.880	0.0158842
775.958	0.0158033
776.036	0.0158094
776.114	0.0159394
776.192	0.0158257
776.271	0.0159048
776.349	0.0159091
776.427	0.0159286
776.505	0.0160993
776.583	0.0162128
776.661	0.0161886
776.739	0.0163408
776.817	0.0163641
776.896	0.0164871
776.974	0.0166907
777.052	0.0168421
777.130	0.0167801
777.208	0.0169331
777.286	0.0170175
777.364	0.0169827
777.442	0.0170136
777.521	0.0170164
777.599	0.0169955
777.677	0.0168727
777.755	0.0168947
777.833	0.0167780
777.911	0.0164918
777.989	0.0163822
778.067	0.0162867
778.146	0.0162782
778.224	0.0160738
778.302	0.0161501
778.380	0.0160516
778.458	0.0159803
778.536	0.0157864
778.614	0.0158276
778.692	0.0158587
778.771	0.0159170
778.849	0.0156834
778.927	0.0157827
779.005	0.0158327
779.083	0.0157860
779.161	0.0158385
779.239	0.0158489
779.317	0.0159516
779.396	0.0158627
779.474	0.0157668
779.552	0.0160659
779.630	0.0162294
779.708	0.0162339
779.786	0.0163398
779.864	0.0163164
779.942	0.0164836
780.021	0.0166184
780.099	0.0166200
780.177	0.0166642
780.255	0.0167863
780.333	0.0167292
780.411	0.0167245
780.489	0.0168052
780.567	0.0166521
780.646	0.0165529
780.724	0.0165411
780.802	0.0163922
780.880	0.0164042
780.958	0.0161835
781.036	0.0160539
781.114	0.0161212
781.192	0.0159562
781.271	0.0160364
781.349	0.0158440
781.427	0.0157072
781.505	0.0157913
781.583	0.0158688
781.661	0.0158522
781.739	0.0157845
781.817	0.0159438
781.896	0.0159820
781.974	0.0161398
782.052	0.0160690
782.130	0.0161559
782.208	0.0162287
782.286	0.0163280
782.364	0.0163184
782.442	0.0164371
782.521	0.0163438
782.599	0.0166785
782.677	0.0167136
782.755	0.0168339
782.833	0.0167922
782.911	0.0168320
782.989	0.0168889
783.067	0.0169222
783.146	0.0168002
783.224	0.0168498
783.302	0.0167700
783.380	0.0167089
783.458	0.0165633
783.536	0.0164494
783.614	0.0164629
783.692	0.0164661
783.771	0.0163012
783.849	0.0161494
783.927	0.0160407
784.005	0.0161678
784.083	0.0160178
784.161	0.0158965
784.239	0.0157921
784.317	0.0157454
784.396	0.0158368
784.474	0.0157717
784.552	0.0157674
784.630	0.0158706
784.708	0.0156955
784.786	0.0157542
784.864	0.0157661
784.942	0.0159026
785.021	0.0159630
785.099	0.0159337
785.177	0.0159997
785.255	0.0160890
785.333	0.0161860
785.411	0.0162547
785.489	0.0162744
785.567	0.0164083
785.646	0.0165421
785.724	0.0166278
785.802	0.0167950
785.880	0.0168184
785.958	0.0167324
786.036	0.0167151
786.114	0.0168527
786.192	0.0169364
786.271	0.0168951
786.349	0.0168365
786.427	0.0168223
786.505	0.0167473
786.583	0.0166192
786.661	0.0163877
786.739	0.0164373
786.817	0.0164229
786.896	0.0162276
786.974	0.0161730
787.052	0.0160392
787.130	0.0158913
787.208	0.0158233
787.286	0.0158356
787.364	0.0157885
787.442	0.0156746
787.521	0.0157188
787.599	0.0157782
787.677	0.0157160
787.755	0.0159016
787.833	0.0157825
787.911	0.0157152
787.989	0.0158634
788.067	0.0157997
788.146	0.0160339
788.224	0.0161140
788.302	0.0161095
788.380	0.0162336
788.458	0.0162433
788.536	0.0164954
788.614	0.0164024
788.692	0.0166251
788.771	0.0166008
788.849	0.0165150
788.927	0.0168049
789.005	0.0167365
789.083	0.0167823
789.161	0.0168819
789.239	0.0168330
789.317	0.0170012
789.396	0.0168228
789.474	0.0167825
789.552	0.0168541
789.630	0.0166108
789.708	0.0165562
789.786	0.0164794
789.864	0.0165746
789.942	0.0162867
790.021	0.0163036
790.099	0.0162422
790.177	0.0161425
790.255	0.0160101
790.333	0.0160046
790.411	0.0159257
790.489	0.0160053
790.567	0.0161027
790.646	0.0160624
790.724	0.0161108
790.802	0.0161529
790.880	0.0160338
790.958	0.0162358
791.036	0.0160905
791.114	0.0162205
791.192	0.0162996
791.271	0.0164451
791.349	0.0162100
791.427	0.0163294
791.505	0.0163625
791.583	0.0162894
791.661	0.0162955
791.739	0.0163294
791.817	0.0165700
791.896	0.0165748
791.974	0.0166929
792.052	0.0165615
792.130	0.0165124
792.208	0.0165424
792.286	0.0165765
792.364	0.0165536
792.442	0.0162952
792.521	0.0164157
792.599	0.0163491
792.677	0.0161151
792.755	0.0163261
792.833	0.0160056
792.911	0.0159641
792.989	0.0160022
793.067	0.0157933
793.146	0.0157848
793.224	0.0158036
793.302	0.0157776
793.380	0.0156182
793.458	0.0158168
793.536	0.0157477
793.614	0.0159435
793.692	0.0159193
793.771	0.0159568
793.849	0.0161229
793.927	0.0162922
794.005	0.0161928
794.083	0.0163021
794.161	0.0164042
794.239	0.0164880
794.317	0.0164564
794.396	0.0165697
794.474	0.0165121
794.552	0.0166180
794.630	0.0166476
794.708	0.0166862
794.786	0.0166904
794.864	0.0165827
794.942	0.0166585
795.021	0.0165867
795.099	0.0166270
795.177	0.0167158
795.255	0.0166663
795.333	0.0166383
795.411	0.0166546
795.489	0.0167042
795.567	0.0165283
795.646	0.0165762
795.724	0.0165698
795.802	0.0164693
795.880	0.0164185
795.958	0.0163009
796.036	0.0163114
796.114	0.0163656
796.192	0.0162215
796.271	0.0161038
796.349	0.0161372
796.427	0.0158864
796.505	0.0159615
796.583	0.0161004
796.661	0.0159736
796.739	0.0159988
796.817	0.0159286
796.896	0.0159795
796.974	0.0161063
797.052	0.0161731
797.130	0.0162083
797.208	0.0161598
797.286	0.0160461
797.364	0.0162637
797.442	0.0164240
797.521	0.0163235
797.599	0.0162790
797.677	0.0163756
797.755	0.0164400
797.833	0.0164716
797.911	0.0164774
797.989	0.0165356
798.067	0.0166329
798.146	0.0165898
798.224	0.0166579
798.302	0.0165561
798.380	0.0165699
798.458	0.0164788
798.536	0.0164239
798.614	0.0165588
798.692	0.0164877
798.771	0.0163695
798.849	0.0164687
798.927	0.0164536
799.005	0.0163796
799.083	0.0161645
799.161	0.0162996
799.239	0.0161990
799.317	0.0163433
799.396	0.0162362
799.474	0.0163027
799.552	0.0163333
799.630	0.0164387
799.708	0.0163627
799.786	0.0163723
799.864	0.0163582
799.942	0.0162907
800.021	0.0164117
800.099	0.0164769
800.177	0.0165658
800.255	0.0163721
800.333	0.0164664
800.411	0.0164896
800.489	0.0163712
800.567	0.0164424
800.646	0.0162380
800.724	0.0162043
800.802	0.0161400
800.880	0.0161349
800.958	0.0160802
801.036	0.0157782
801.114	0.0159787
801.192	0.0159634
801.271	0.0158390
801.349	0.0159149
801.427	0.0158220
801.505	0.0158352
801.583	0.0158454
801.661	0.0158681
801.739	0.0159254
801.817	0.0157945
801.896	0.0159492
801.974	0.0160444
802.052	0.0161209
802.130	0.0162466
802.208	0.0162476
802.286	0.0163740
802.364	0.0164262
802.442	0.0165131
802.521	0.0166857
802.599	0.0167430
802.677	0.0167909
802.755	0.0168520
802.833	0.0170087
802.911	0.0170684
802.989	0.0169980
803.067	0.0169956
803.146	0.0171545
803.224	0.0170560
803.302	0.0170195
803.380	0.0170153
803.458	0.0169561
803.536	0.0168509
803.614	0.0167889
803.692	0.0165902
803.771	0.0165282
803.849	0.0163583
803.927	0.0162238
804.005	0.0161670
804.083	0.0162224
804.161	0.0160423
804.239	0.0159515
804.317	0.0158363
804.396	0.0157117
804.474	0.0158379
804.552	0.0158477
804.630	0.0157877
804.708	0.0157103
804.786	0.0157295
804.864	0.0156081
804.942	0.0156208
805.021	0.0157831
805.099	0.0157375
805.177	0.0155742
805.255	0.0158331
805.333	0.0157648
805.411	0.0159162
805.489	0.0159057
805.567	0.0159263
805.646	0.0159910
805.724	0.0160812
805.802	0.0161786
805.880	0.0162431
805.958	0.0162414
806.036	0.0163887
806.114	0.0164718
806.192	0.0166278
806.271	0.0167252
806.349	0.0168529
806.427	0.0169735
806.505	0.0170621
806.583	0.0172268
806.661	0.0170850
806.739	0.0171731
806.817	0.0169705
806.896	0.0172002
806.974	0.0170945
807.052	0.0170730
807.130	0.0168629
807.208	0.0169852
807.286	0.0168841
807.364	0.0168210
807.442	0.0166723
807.521	0.0165146
807.599	0.0164320
807.677	0.0163315
807.755	0.0161621
807.833	0.0162022
807.911	0.0161068
807.989	0.0158846
808.067	0.0157516
808.146	0.0156219
808.224	0.0155388
808.302	0.0154361
808.380	0.0153521
808.458	0.0152702
808.536	0.0151881
808.614	0.0154098
808.692	0.0154047
808.771	0.0154578
808.849	0.0155595
808.927	0.0155775
809.005	0.0156036
809.083	0.0156085
809.161	0.0159157
809.239	0.0159418
809.317	0.0160087
809.396	0.0162024
809.474	0.0161745
809.552	0.0163583
809.630	0.0164895
809.708	0.0166310
809.786	0.0167068
809.864	0.0168008
809.942	0.0167462
810.021	0.0168518
810.099	0.0168153
810.177	0.0168850
810.255	0.0168468
810.333	0.0169638
810.411	0.0170860
810.489	0.0169930
810.567	0.0169086
810.646	0.0168409
810.724	0.0166444
810.802	0.0166479
810.880	0.0165952
810.958	0.0164877
811.036	0.0162293
811.114	0.0162637
811.192	0.0162457
811.271	0.0160300
811.349	0.0158494
811.427	0.0157686
811.505	0.0156394
811.583	0.0156227
811.661	0.0155706
811.739	0.0154913
811.817	0.0155661
811.896	0.0154552
811.974	0.0155985
812.052	0.0157426
812.130	0.0157775
812.208	0.0158212
812.286	0.0158584
812.364	0.0161172
812.442	0.0163158
812.521	0.0162331
812.599	0.0163887
812.677	0.0164814
812.755	0.0166781
812.833	0.0167808
812.911	0.0168369
812.989	0.0169437
813.067	0.0168820
813.146	0.0170247
813.224	0.0170054
813.302	0.0169230
813.380	0.0169228
813.458	0.0169965
813.536	0.0170644
813.614	0.0168572
813.692	0.0167540
813.771	0.0166449
813.849	0.0166677
813.927	0.0165566
814.005	0.0164529
814.083	0.0165341
814.161	0.0165465
814.239	0.0162788
814.317	0.0162230
814.396	0.0161731
814.474	0.0159719
814.552	0.0159283
814.630	0.0158842
814.708	0.0158385
814.786	0.0158063
814.864	0.0158250
814.942	0.0158051
815.021	0.0157198
815.099	0.0158505
815.177	0.0157637
815.255	0.0157323
815.333	0.0157800
815.411	0.0159554
815.489	0.0158553
815.567	0.0160088
815.646	0.0160807
815.724	0.0162272
815.802	0.0161060
815.880	0.0160963
815.958	0.0162451
816.036	0.0162976
816.114	0.0161736
816.192	0.0163744
816.271	0.0164556
816.349	0.0163481
816.427	0.0164536
816.505	0.0163306
816.583	0.0165276
816.661	0.0165616
816.739	0.0165218
816.817	0.0164864
816.896	0.0165414
816.974	0.0164727
817.052	0.0164764
817.130	0.0164050
817.208	0.0165351
817.286	0.0164580
817.364	0.0164491
817.442	0.0164966
817.521	0.0165111
817.599	0.0163114
817.677	0.0163670
817.755	0.0162494
817.833	0.0161745
817.911	0.0161837
817.989	0.0163259
818.067	0.0163497
818.146	0.0162886
818.224	0.0164465
818.302	0.0163169
818.380	0.0165016
818.458	0.0165350
818.536	0.0163979
818.614	0.0166409
818.692	0.0167221
818.771	0.0166791
818.849	0.0168212
818.927	0.0167785
819.005	0.0167693
819.083	0.0167173
819.161	0.0165761
819.239	0.0165825
819.317	0.0165052
819.396	0.0165469
819.474	0.0164864
819.552	0.0164310
819.630	0.0163992
819.708	0.0162658
819.786	0.0162838
819.864	0.0161850
819.942	0.0160932
820.021	0.0162050
820.099	0.0161929
820.177	0.0161234
820.255	0.0161217
820.333	0.0160729
820.411	0.0162494
820.489	0.0160635
820.567	0.0160519
820.646	0.0160423
820.724	0.0159395
820.802	0.0159219
820.880	0.0160408
820.958	0.0158524
821.036	0.0158784
821.114	0.0159602
821.192	0.0161099
821.271	0.0160026
821.349	0.0159974
821.427	0.0161246
821.505	0.0161592
821.583	0.0161489
821.661	0.0162104
821.739	0.0162532
821.817	0.0162994
821.896	0.0164583
821.974	0.0162958
822.052	0.0162605
822.130	0.0162708
822.208	0.0162920
822.286	0.0164957
822.364	0.0165987
822.442	0.0164560
822.521	0.0164709
822.599	0.0164375
822.677	0.0164911
822.755	0.0164201
822.833	0.0165396
822.911	0.0164690
822.989	0.0165538
823.067	0.0165158
823.146	0.0164089
823.224	0.0165070
823.302	0.0163032
823.380	0.0164863
823.458	0.0164590
823.536	0.0163753
823.614	0.0162182
823.692	0.0164153
823.771	0.0164082
823.849	0.0163536
823.927	0.0163995
824.005	0.0164382
824.083	0.0164936
824.161	0.0164588
824.239	0.0166380
824.317	0.0164376
824.396	0.0163802
824.474	0.0164057
824.552	0.0165665
824.630	0.0163934
824.708	0.0163958
824.786	0.0163921
824.864	0.0163356
824.942	0.0163068
825.021	0.0161855
825.099	0.0162005
825.177	0.0160646
825.255	0.0161556
825.333	0.0161137
825.411	0.0162086
825.489	0.0159924
825.567	0.0159985
825.646	0.0161317
825.724	0.0161579
825.802	0.0160377
825.880	0.0159924
825.958	0.0161901
826.036	0.0160584
826.114	0.0161272
826.192	0.0162136
826.271	0.0160439
826.349	0.0161187
826.427	0.0162076
826.505	0.0162167
826.583	0.0161458
826.661	0.0161792
826.739	0.0162277
826.817	0.0162056
826.896	0.0163027
826.974	0.0161641
827.052	0.0161623
827.130	0.0162517
827.208	0.0161467
827.286	0.0163013
827.364	0.0162756
827.442	0.0161872
827.521	0.0164171
827.599	0.0164620
827.677	0.0164153
827.755	0.0163000
827.833	0.0163609
827.911	0.0163725
827.989	0.0164504
828.067	0.0164323
828.146	0.0163480
828.224	0.0163896
828.302	0.0165220
828.380	0.0163690
828.458	0.0165221
828.536	0.0164960
828.614	0.0165398
828.692	0.0163911
828.771	0.0162958
828.849	0.0163597
828.927	0.0165315
829.005	0.0164104
829.083	0.0163774
829.161	0.0162668
829.239	0.0164597
829.317	0.0163557
829.396	0.0163055
829.474	0.0162380
829.552	0.0162877
829.630	0.0163435
829.708	0.0164124
829.786	0.0162997
829.864	0.0163202
829.942	0.0161916
830.021	0.0161787
830.099	0.0164040
830.177	0.0163023
830.255	0.0162283
830.333	0.0161748
830.411	0.0162071
830.489	0.0162283
830.567	0.0161575
830.646	0.0160913
830.724	0.0160655
830.802	0.0161752
830.880	0.0160979
830.958	0.0160743
831.036	0.0159795
831.114	0.0159996
831.192	0.0160313
831.271	0.0160223
831.349	0.0159367
831.427	0.0161157
831.505	0.0161394
831.583	0.0161983
831.661	0.0161379
831.739	0.0161681
831.817	0.0162469
831.896	0.0161708
831.974	0.0164563
832.052	0.0165156
832.130	0.0165429
832.208	0.0165670
832.286	0.0166248
832.364	0.0167084
832.442	0.0166811
832.521	0.0167424
832.599	0.0166010
832.677	0.0164795
832.755	0.0164779
832.833	0.0164437
832.911	0.0165595
832.989	0.0164536
833.067	0.0164922
833.146	0.0164407
833.224	0.0163931
833.302	0.0164590
833.380	0.0163132
833.458	0.0162936
833.536	0.0161518
833.614	0.0161693
833.692	0.0162943
833.771	0.0163850
833.849	0.0162230
833.927	0.0162132
834.005	0.0163277
834.083	0.0163148
834.161	0.0162240
834.239	0.0164340
834.317	0.0164311
834.396	0.0163070
834.474	0.0162022
834.552	0.0163377
834.630	0.0163069
834.708	0.0162161
834.786	0.0162309
834.864	0.0162581
834.942	0.0163568
835.021	0.0162279
835.099	0.0162972
835.177	0.0163090
835.255	0.0162458
835.333	0.0161522
835.411	0.0162478
835.489	0.0162524
835.567	0.0163485
835.646	0.0163486
835.724	0.0162543
835.802	0.0162553
835.880	0.0163564
835.958	0.0163584
836.036	0.0163471
836.114	0.0164165
836.192	0.0164473
836.271	0.0164686
836.349	0.0164303
836.427	0.0163142
836.505	0.0162735
836.583	0.0162592
836.661	0.0162542
836.739	0.0162569
836.817	0.0163730
836.896	0.0162350
836.974	0.0162012
837.052	0.0163602
837.130	0.0161677
837.208	0.0162907
837.286	0.0162104
837.364	0.0162825
837.442	0.0163879
837.521	0.0163636
837.599	0.0163881
837.677	0.0163702
837.755	0.0164072
837.833	0.0163083
837.911	0.0163826
837.989	0.0161662
838.067	0.0164520
838.146	0.0162270
838.224	0.0163332
838.302	0.0164925
838.380	0.0165114
838.458	0.0164021
838.536	0.0164089
838.614	0.0164578
838.692	0.0165749
838.771	0.0167387
838.849	0.0165633
838.927	0.0166576
839.005	0.0166405
839.083	0.0165054
839.161	0.0166190
839.239	0.0164981
839.317	0.0165659
839.396	0.0165465
839.474	0.0165602
839.552	0.0164399
839.630	0.0163668
839.708	0.0164294
839.786	0.0163637
839.864	0.0164063
839.942	0.0164970
840.021	0.0163358
840.099	0.0162772
840.177	0.0163596
840.255	0.0162368
840.333	0.0163696
840.411	0.0162123
840.489	0.0163010
840.567	0.0163338
840.646	0.0162105
840.724	0.0161979
840.802	0.0161980
840.880	0.0162677
840.958	0.0161948
841.036	0.0160863
841.114	0.0161665
841.192	0.0161400
841.271	0.0161919
841.349	0.0161389
841.427	0.0162055
841.505	0.0161017
841.583	0.0162720
841.661	0.0162270
841.739	0.0160882
841.817	0.0162641
841.896	0.0163885
841.974	0.0163316
842.052	0.0164076
842.130	0.0162782
842.208	0.0163236
842.286	0.0162949
842.364	0.0162408
842.442	0.0163577
842.521	0.0164835
842.599	0.0164017
842.677	0.0161871
842.755	0.0162974
842.833	0.0162653
842.911	0.0164588
842.989	0.0164090
843.067	0.0163184
843.146	0.0164625
843.224	0.0165923
843.302	0.0165060
843.380	0.0165336
843.458	0.0167071
843.536	0.0166585
843.614	0.0166078
843.692	0.0165681
843.771	0.0166537
843.849	0.0165427
843.927	0.0165025
844.005	0.0167001
844.083	0.0166078
844.161	0.0164867
844.239	0.0164655
844.317	0.0164414
844.396	0.0163499
844.474	0.0162363
844.552	0.0162409
844.630	0.0163792
844.708	0.0162350
844.786	0.0162559
844.864	0.0161447
844.942	0.0160803
845.021	0.0160596
845.099	0.0162612
845.177	0.0161343
845.255	0.0160480
845.333	0.0162323
845.411	0.0162662
845.489	0.0163601
845.567	0.0162218
845.646	0.0163018
845.724	0.0162946
845.802	0.0163537
845.880	0.0164209
845.958	0.0163099
846.036	0.0164890
846.114	0.0164947
846.192	0.0163411
846.271	0.0164382
846.349	0.0162063
846.427	0.0163564
846.505	0.0163742
846.583	0.0163498
846.661	0.0162345
846.739	0.0163236
846.817	0.0162672
846.896	0.0160522
846.974	0.0162221
847.052	0.0162131
847.130	0.0162503
847.208	0.0160987
847.286	0.0161732
847.364	0.0162008
847.442	0.0161987
847.521	0.0161894
847.599	0.0161476
847.677	0.0161643
847.755	0.0162276
847.833	0.0161173
847.911	0.0162315
847.989	0.0162666
848.067	0.0161573
848.146	0.0163881
848.224	0.0163496
848.302	0.0162025
848.380	0.0164077
848.458	0.0162600
848.536	0.0164001
848.614	0.0162851
848.692	0.0163755
848.771	0.0164513
848.849	0.0164481
848.927	0.0163348
849.005	0.0163554
849.083	0.0163932
849.161	0.0165324
849.239	0.0166299
849.317	0.0165442
849.396	0.0165222
849.474	0.0165119
849.552	0.0165927
849.630	0.0165386
849.708	0.0165800
849.786	0.0166171
849.864	0.0166342
849.942	0.0164757
850.021	0.0164390
850.099	0.0163888
850.177	0.0163882
850.255	0.0163373
850.333	0.0164620
850.411	0.0163500
850.489	0.0161929
850.567	0.0163010
850.646	0.0161865
850.724	0.0159313
850.802	0.0160354
850.880	0.0159932
850.958	0.0161060
851.036	0.0161388
851.114	0.0161289
851.192	0.0160780
851.271	0.0161849
851.349	0.0161144
851.427	0.0159544
851.505	0.0160802
851.583	0.0161602
851.661	0.0161229
851.739	0.0163349
851.817	0.0161526
851.896	0.0163520
851.974	0.0162033
852.052	0.0162743
852.130	0.0163017
852.208	0.0163268
852.286	0.0163151
852.364	0.0164037
852.442	0.0163723
852.521	0.0163869
852.599	0.0163546
852.677	0.0164352
852.755	0.0164702
852.833	0.0164252
852.911	0.0164946
852.989	0.0165336
853.067	0.0165960
853.146	0.0166004
853.224	0.0164636
853.302	0.0163433
853.380	0.0165884
853.458	0.0166311
853.536	0.0164777
853.614	0.0163401
853.692	0.0164486
853.771	0.0162761
853.849	0.0163406
853.927	0.0162994
854.005	0.0162310
854.083	0.0160725
854.161	0.0160381
854.239	0.0161504
854.317	0.0159682
854.396	0.0160188
854.474	0.0161390
854.552	0.0158624
854.630	0.0159719
854.708	0.0160391
854.786	0.0159425
854.864	0.0161728
854.942	0.0161647
855.021	0.0159931
855.099	0.0163418
855.177	0.0162188
855.255	0.0161208
855.333	0.0163515
855.411	0.0164316
855.489	0.0163587
855.567	0.0164493
855.646	0.0164788
855.724	0.0165547
855.802	0.0165499
855.880	0.0164175
855.958	0.0166154
856.036	0.0164850
856.114	0.0166261
856.192	0.0166241
856.271	0.0165018
856.349	0.0164971
856.427	0.0164007
856.505	0.0164462
856.583	0.0161711
856.661	0.0162594
856.739	0.0163296
856.817	0.0164470
856.896	0.0161889
856.974	0.0161261
857.052	0.0162284
857.130	0.0161912
857.208	0.0160778
857.286	0.0161435
857.364	0.0162029
857.442	0.0161137
857.521	0.0161817
857.599	0.0161870
857.677	0.0162764
857.755	0.0162209
857.833	0.0160227
857.911	0.0161012
857.989	0.0162712
858.067	0.0161836
858.146	0.0160625
858.224	0.0162057
858.302	0.0162363
858.380	0.0161632
858.458	0.0160693
858.536	0.0161233
858.614	0.0162098
858.692	0.0161871
858.771	0.0162194
858.849	0.0160716
858.927	0.0162537
859.005	0.0163464
859.083	0.0163403
859.161	0.0164206
859.239	0.0163582
859.317	0.0163837
859.396	0.0166095
859.474	0.0163921
859.552	0.0165373
859.630	0.0165199
859.708	0.0165216
859.786	0.0166100
859.864	0.0164910
859.942	0.0163728
860.021	0.0164505
860.099	0.0166248
860.177	0.0163779
860.255	0.0165931
860.333	0.0164226
860.411	0.0164236
860.489	0.0162236
860.567	0.0163553
860.646	0.0165371
860.724	0.0164225
860.802	0.0163596
860.880	0.0163291
860.958	0.0163462
861.036	0.0162840
861.114	0.0162834
861.192	0.0163190
861.271	0.0162248
861.349	0.0162020
861.427	0.0163410
861.505	0.0164263
861.583	0.0161745
861.661	0.0163156
861.739	0.0162877
861.817	0.0163883
861.896	0.0162638
861.974	0.0163179
862.052	0.0162640
862.130	0.0163568
862.208	0.0163468
862.286	0.0163357
862.364	0.0164577
862.442	0.0163551
862.521	0.0164796
862.599	0.0163648
862.677	0.0164777
862.755	0.0164040
862.833	0.0163814
862.911	0.0163239
862.989	0.0164790
863.067	0.0163381
863.146	0.0163621
863.224	0.0163094
863.302	0.0163130
863.380	0.0163168
863.458	0.0164874
863.536	0.0163708
863.614	0.0164063
863.692	0.0163023
863.771	0.0164056
863.849	0.0165229
863.927	0.0163705
864.005	0.0163218
864.083	0.0162991
864.161	0.0162760
864.239	0.0161978
864.317	0.0163265
864.396	0.0162347
864.474	0.0161723
864.552	0.0162251
864.630	0.0162161
864.708	0.0162975
864.786	0.0162090
864.864	0.0161421
864.942	0.0162577
865.021	0.0162699
865.099	0.0160879
865.177	0.0162220
865.255	0.0162124
865.333	0.0163138
865.411	0.0162269
865.489	0.0164104
865.567	0.0163308
865.646	0.0163234
865.724	0.0163858
865.802	0.0161822
865.880	0.0163411
865.958	0.0164645
866.036	0.0165005
866.114	0.0164158
866.192	0.0164378
866.271	0.0162956
866.349	0.0164613
866.427	0.0163544
866.505	0.0163907
866.583	0.0163824
866.661	0.0164823
866.739	0.0163453
866.817	0.0164024
866.896	0.0165143
866.974	0.0164391
867.052	0.0163893
867.130	0.0164189
867.208	0.0163251
867.286	0.0164656
867.364	0.0164552
867.442	0.0161922
867.521	0.0164127
867.599	0.0163865
867.677	0.0162029
867.755	0.0162492
867.833	0.0163213
867.911	0.0163350
867.989	0.0162238
868.067	0.0161305
868.146	0.0164100
868.224	0.0161366
868.302	0.0161419
868.380	0.0162695
868.458	0.0162147
868.536	0.0163442
868.614	0.0162185
868.692	0.0162820
868.771	0.0162668
868.849	0.0162705
868.927	0.0161191
869.005	0.0162508
869.083	0.0160509
869.161	0.0162663
869.239	0.0162263
869.317	0.0161442
869.396	0.0161465
869.474	0.0160015
869.552	0.0161057
869.630	0.0161606
869.708	0.0161180
869.786	0.0161731
869.864	0.0163076
869.942	0.0161799
