06/03/2022	15:31:45	Ver.	4.1	UNKNOWN
Optical Delay	550.020508	Delta X		0.078125	Sweeps	1	Scan Rate	0/0
Coordinates	Axis 1	NaN	Axis 2	NaN	Axis 3	NaN	Axis 4	NaN	Axis 5	NaN	Axis 6	0.000000
TX Power	0.000000	RX Power	0.000000

550.021	0.0164902
550.099	0.0164891
550.177	0.0164413
550.255	0.0165450
550.333	0.0164029
550.411	0.0165428
550.489	0.0164158
550.567	0.0164510
550.646	0.0165250
550.724	0.0165390
550.802	0.0164359
550.880	0.0164371
550.958	0.0164697
551.036	0.0165759
551.114	0.0164999
551.192	0.0165313
551.271	0.0165539
551.349	0.0165191
551.427	0.0165542
551.505	0.0165232
551.583	0.0164836
551.661	0.0165836
551.739	0.0165403
551.817	0.0164934
551.896	0.0165185
551.974	0.0164797
552.052	0.0164608
552.130	0.0162758
552.208	0.0164652
552.286	0.0164719
552.364	0.0164724
552.442	0.0164367
552.521	0.0164552
552.599	0.0165053
552.677	0.0164942
552.755	0.0163551
552.833	0.0164493
552.911	0.0165203
552.989	0.0165314
553.067	0.0165315
553.146	0.0164962
553.224	0.0164410
553.302	0.0164648
553.380	0.0164513
553.458	0.0164698
553.536	0.0165214
553.614	0.0163853
553.692	0.0165427
553.771	0.0166887
553.849	0.0165364
553.927	0.0164105
554.005	0.0165554
554.083	0.0164948
554.161	0.0164909
554.239	0.0165543
554.317	0.0165123
554.396	0.0163733
554.474	0.0164375
554.552	0.0165905
554.630	0.0165958
554.708	0.0164806
554.786	0.0164741
554.864	0.0165118
554.942	0.0165103
555.021	0.0165883
555.099	0.0165810
555.177	0.0165550
555.255	0.0163802
555.333	0.0165791
555.411	0.0165208
555.489	0.0164946
555.567	0.0164274
555.646	0.0165829
555.724	0.0165664
555.802	0.0163731
555.880	0.0164080
555.958	0.0164618
556.036	0.0165150
556.114	0.0165178
556.192	0.0165956
556.271	0.0165136
556.349	0.0164548
556.427	0.0164887
556.505	0.0165287
556.583	0.0164373
556.661	0.0166254
556.739	0.0165522
556.817	0.0164413
556.896	0.0164651
556.974	0.0164581
557.052	0.0164388
557.130	0.0164833
557.208	0.0165777
557.286	0.0164463
557.364	0.0164876
557.442	0.0165092
557.521	0.0165386
557.599	0.0164142
557.677	0.0164324
557.755	0.0163913
557.833	0.0164719
557.911	0.0164246
557.989	0.0164556
558.067	0.0164883
558.146	0.0164813
558.224	0.0164671
558.302	0.0164299
558.380	0.0164926
558.458	0.0165176
558.536	0.0164574
558.614	0.0163894
558.692	0.0164413
558.771	0.0165276
558.849	0.0164723
558.927	0.0165298
559.005	0.0165397
559.083	0.0165993
559.161	0.0165032
559.239	0.0165800
559.317	0.0164178
559.396	0.0164091
559.474	0.0164466
559.552	0.0165440
559.630	0.0164379
559.708	0.0165577
559.786	0.0165299
559.864	0.0165038
559.942	0.0165047
560.021	0.0165629
560.099	0.0164481
560.177	0.0164986
560.255	0.0165456
560.333	0.0165470
560.411	0.0165082
560.489	0.0164163
560.567	0.0165022
560.646	0.0165224
560.724	0.0164565
560.802	0.0164657
560.880	0.0165396
560.958	0.0165267
561.036	0.0164622
561.114	0.0164980
561.192	0.0164209
561.271	0.0163586
561.349	0.0165481
561.427	0.0165695
561.505	0.0164882
561.583	0.0163668
561.661	0.0164809
561.739	0.0165339
561.817	0.0164191
561.896	0.0164253
561.974	0.0164738
562.052	0.0164204
562.130	0.0165989
562.208	0.0165207
562.286	0.0164933
562.364	0.0165389
562.442	0.0164557
562.521	0.0165420
562.599	0.0165839
562.677	0.0165405
562.755	0.0164951
562.833	0.0165050
562.911	0.0165357
562.989	0.0163916
563.067	0.0165690
563.146	0.0164819
563.224	0.0165169
563.302	0.0165037
563.380	0.0165480
563.458	0.0164227
563.536	0.0164938
563.614	0.0165124
563.692	0.0165611
563.771	0.0165558
563.849	0.0165021
563.927	0.0165326
564.005	0.0165125
564.083	0.0165076
564.161	0.0165449
564.239	0.0165137
564.317	0.0164459
564.396	0.0165407
564.474	0.0164884
564.552	0.0163837
564.630	0.0163168
564.708	0.0165269
564.786	0.0166232
564.864	0.0164465
564.942	0.0164890
565.021	0.0165078
565.099	0.0164910
565.177	0.0165134
565.255	0.0164541
565.333	0.0166113
565.411	0.0165845
565.489	0.0163647
565.567	0.0163486
565.646	0.0165121
565.724	0.0165331
565.802	0.0164922
565.880	0.0163817
565.958	0.0164996
566.036	0.0165055
566.114	0.0165050
566.192	0.0164230
566.271	0.0165707
566.349	0.0165620
566.427	0.0164781
566.505	0.0164023
566.583	0.0166065
566.661	0.0166970
566.739	0.0164952
566.817	0.0164066
566.896	0.0165358
566.974	0.0164195
567.052	0.0164254
567.130	0.0164783
567.208	0.0164778
567.286	0.0165336
567.364	0.0164289
567.442	0.0164682
567.521	0.0165173
567.599	0.0164952
567.677	0.0165335
567.755	0.0164645
567.833	0.0165001
567.911	0.0165947
567.989	0.0166364
568.067	0.0163695
568.146	0.0164182
568.224	0.0165496
568.302	0.0165883
568.380	0.0164281
568.458	0.0165563
568.536	0.0165110
568.614	0.0165640
568.692	0.0165604
568.771	0.0165838
568.849	0.0166182
568.927	0.0165099
569.005	0.0164581
569.083	0.0164191
569.161	0.0166037
569.239	0.0165114
569.317	0.0165125
569.396	0.0165881
569.474	0.0165585
569.552	0.0165031
569.630	0.0166457
569.708	0.0164854
569.786	0.0165336
569.864	0.0165617
569.942	0.0166246
570.021	0.0164326
570.099	0.0165163
570.177	0.0164880
570.255	0.0164472
570.333	0.0165032
570.411	0.0164805
570.489	0.0165765
570.567	0.0164838
570.646	0.0165142
570.724	0.0165136
570.802	0.0165003
570.880	0.0164598
570.958	0.0165240
571.036	0.0165080
571.114	0.0165408
571.192	0.0164977
571.271	0.0164388
571.349	0.0163863
571.427	0.0163949
571.505	0.0165302
571.583	0.0165246
571.661	0.0164566
571.739	0.0165494
571.817	0.0164267
571.896	0.0166232
571.974	0.0165348
572.052	0.0165670
572.130	0.0164115
572.208	0.0164114
572.286	0.0164426
572.364	0.0164790
572.442	0.0165211
572.521	0.0165011
572.599	0.0162406
572.677	0.0164449
572.755	0.0164677
572.833	0.0165876
572.911	0.0164743
572.989	0.0164746
573.067	0.0164719
573.146	0.0165038
573.224	0.0165680
573.302	0.0165411
573.380	0.0165647
573.458	0.0163680
573.536	0.0165553
573.614	0.0164693
573.692	0.0165329
573.771	0.0165175
573.849	0.0165065
573.927	0.0164104
574.005	0.0164175
574.083	0.0165056
574.161	0.0165479
574.239	0.0164715
574.317	0.0163943
574.396	0.0163702
574.474	0.0164975
574.552	0.0166092
574.630	0.0165581
574.708	0.0164112
574.786	0.0165182
574.864	0.0163606
574.942	0.0163361
575.021	0.0164802
575.099	0.0165284
575.177	0.0164405
575.255	0.0164800
575.333	0.0165345
575.411	0.0162942
575.489	0.0166210
575.567	0.0165273
575.646	0.0163367
575.724	0.0164539
575.802	0.0164675
575.880	0.0164602
575.958	0.0165740
576.036	0.0164517
576.114	0.0164089
576.192	0.0163796
576.271	0.0164139
576.349	0.0163193
576.427	0.0165323
576.505	0.0164571
576.583	0.0165162
576.661	0.0165856
576.739	0.0163937
576.817	0.0164713
576.896	0.0165680
576.974	0.0164477
577.052	0.0164720
577.130	0.0164658
577.208	0.0163675
577.286	0.0164457
577.364	0.0165215
577.442	0.0162683
577.521	0.0164427
577.599	0.0165168
577.677	0.0165409
577.755	0.0165117
577.833	0.0165558
577.911	0.0164640
577.989	0.0163763
578.067	0.0166210
578.146	0.0163705
578.224	0.0163296
578.302	0.0165173
578.380	0.0165358
578.458	0.0164753
578.536	0.0164922
578.614	0.0164619
578.692	0.0164633
578.771	0.0163571
578.849	0.0165054
578.927	0.0165134
579.005	0.0164944
579.083	0.0165521
579.161	0.0165798
579.239	0.0164624
579.317	0.0164497
579.396	0.0165701
579.474	0.0164708
579.552	0.0163622
579.630	0.0164828
579.708	0.0165218
579.786	0.0165358
579.864	0.0164390
579.942	0.0164699
580.021	0.0165283
580.099	0.0162938
580.177	0.0164039
580.255	0.0165183
580.333	0.0165668
580.411	0.0163564
580.489	0.0164559
580.567	0.0165215
580.646	0.0163979
580.724	0.0163717
580.802	0.0165227
580.880	0.0164537
580.958	0.0165492
581.036	0.0164035
581.114	0.0165513
581.192	0.0164593
581.271	0.0163708
581.349	0.0164071
581.427	0.0165170
581.505	0.0165013
581.583	0.0164480
581.661	0.0165708
581.739	0.0164870
581.817	0.0163967
581.896	0.0164240
581.974	0.0167010
582.052	0.0165285
582.130	0.0164123
582.208	0.0164083
582.286	0.0165116
582.364	0.0165064
582.442	0.0164467
582.521	0.0165161
582.599	0.0164680
582.677	0.0163274
582.755	0.0164909
582.833	0.0164210
582.911	0.0164122
582.989	0.0164251
583.067	0.0165190
583.146	0.0164756
583.224	0.0164546
583.302	0.0165314
583.380	0.0165182
583.458	0.0164890
583.536	0.0162712
583.614	0.0164214
583.692	0.0165347
583.771	0.0162728
583.849	0.0164362
583.927	0.0164853
584.005	0.0165055
584.083	0.0164592
584.161	0.0164747
584.239	0.0164948
584.317	0.0165685
584.396	0.0164816
584.474	0.0164137
584.552	0.0164938
584.630	0.0163942
584.708	0.0163896
584.786	0.0165218
584.864	0.0164272
584.942	0.0164168
585.021	0.0163500
585.099	0.0164326
585.177	0.0165136
585.255	0.0165310
585.333	0.0165289
585.411	0.0165025
585.489	0.0163624
585.567	0.0164309
585.646	0.0164412
585.724	0.0165451
585.802	0.0164856
585.880	0.0163631
585.958	0.0163258
586.036	0.0163707
586.114	0.0164977
586.192	0.0165041
586.271	0.0164068
586.349	0.0163982
586.427	0.0164955
586.505	0.0165462
586.583	0.0164374
586.661	0.0164668
586.739	0.0165473
586.817	0.0164237
586.896	0.0164075
586.974	0.0164709
587.052	0.0165673
587.130	0.0165511
587.208	0.0165215
587.286	0.0164935
587.364	0.0163786
587.442	0.0165466
587.521	0.0164699
587.599	0.0165543
587.677	0.0164808
587.755	0.0164708
587.833	0.0165144
587.911	0.0164250
587.989	0.0165448
588.067	0.0165249
588.146	0.0164429
588.224	0.0163512
588.302	0.0165503
588.380	0.0164304
588.458	0.0164110
588.536	0.0164799
588.614	0.0164483
588.692	0.0164807
588.771	0.0165289
588.849	0.0165208
588.927	0.0163998
589.005	0.0164938
589.083	0.0164315
589.161	0.0164306
589.239	0.0165535
589.317	0.0163782
589.396	0.0165725
589.474	0.0164957
589.552	0.0164899
589.630	0.0165008
589.708	0.0165749
589.786	0.0165278
589.864	0.0163686
589.942	0.0164841
590.021	0.0166644
590.099	0.0166473
590.177	0.0164230
590.255	0.0164870
590.333	0.0165517
590.411	0.0165349
590.489	0.0165729
590.567	0.0165601
590.646	0.0164840
590.724	0.0165865
590.802	0.0165726
590.880	0.0164908
590.958	0.0165322
591.036	0.0164745
591.114	0.0164893
591.192	0.0164671
591.271	0.0164651
591.349	0.0164843
591.427	0.0164896
591.505	0.0164454
591.583	0.0164906
591.661	0.0164398
591.739	0.0164938
591.817	0.0165266
591.896	0.0164204
591.974	0.0163081
592.052	0.0164662
592.130	0.0164342
592.208	0.0164584
592.286	0.0165195
592.364	0.0167198
592.442	0.0165766
592.521	0.0164588
592.599	0.0165405
592.677	0.0164200
592.755	0.0164045
592.833	0.0165297
592.911	0.0164413
592.989	0.0164510
593.067	0.0164872
593.146	0.0164385
593.224	0.0166286
593.302	0.0165484
593.380	0.0164484
593.458	0.0165678
593.536	0.0165495
593.614	0.0165237
593.692	0.0165709
593.771	0.0163893
593.849	0.0164628
593.927	0.0165325
594.005	0.0164894
594.083	0.0165001
594.161	0.0163752
594.239	0.0163571
594.317	0.0166458
594.396	0.0164205
594.474	0.0163567
594.552	0.0165351
594.630	0.0165240
594.708	0.0165049
594.786	0.0165310
594.864	0.0164674
594.942	0.0164825
595.021	0.0165038
595.099	0.0165546
595.177	0.0165311
595.255	0.0164639
595.333	0.0164654
595.411	0.0165335
595.489	0.0164853
595.567	0.0164567
595.646	0.0165193
595.724	0.0164774
595.802	0.0163658
595.880	0.0164185
595.958	0.0164272
596.036	0.0164481
596.114	0.0163635
596.192	0.0164851
596.271	0.0164474
596.349	0.0165702
596.427	0.0165871
596.505	0.0164040
596.583	0.0165514
596.661	0.0164465
596.739	0.0165012
596.817	0.0165241
596.896	0.0164636
596.974	0.0164994
597.052	0.0165264
597.130	0.0164987
597.208	0.0164665
597.286	0.0164389
597.364	0.0165102
597.442	0.0165462
597.521	0.0164213
597.599	0.0164325
597.677	0.0165257
597.755	0.0164783
597.833	0.0165776
597.911	0.0164814
597.989	0.0165744
598.067	0.0165927
598.146	0.0164146
598.224	0.0164848
598.302	0.0164533
598.380	0.0164195
598.458	0.0165717
598.536	0.0165000
598.614	0.0164722
598.692	0.0165784
598.771	0.0165355
598.849	0.0165478
598.927	0.0165287
599.005	0.0165386
599.083	0.0164857
599.161	0.0164860
599.239	0.0163767
599.317	0.0165407
599.396	0.0166614
599.474	0.0166053
599.552	0.0164580
599.630	0.0165162
599.708	0.0164390
599.786	0.0165659
599.864	0.0164823
599.942	0.0164466
600.021	0.0163940
600.099	0.0165835
600.177	0.0164724
600.255	0.0164275
600.333	0.0165704
600.411	0.0165159
600.489	0.0163485
600.567	0.0164655
600.646	0.0165138
600.724	0.0164376
600.802	0.0164635
600.880	0.0165843
600.958	0.0165560
601.036	0.0163474
601.114	0.0165968
601.192	0.0164478
601.271	0.0165462
601.349	0.0166494
601.427	0.0165266
601.505	0.0163564
601.583	0.0166000
601.661	0.0164633
601.739	0.0165311
601.817	0.0162132
601.896	0.0165610
601.974	0.0164843
602.052	0.0164362
602.130	0.0164426
602.208	0.0164970
602.286	0.0165419
602.364	0.0165266
602.442	0.0165005
602.521	0.0164780
602.599	0.0165916
602.677	0.0164997
602.755	0.0164417
602.833	0.0165616
602.911	0.0165501
602.989	0.0164783
603.067	0.0164530
603.146	0.0164937
603.224	0.0165588
603.302	0.0164790
603.380	0.0165065
603.458	0.0163057
603.536	0.0164512
603.614	0.0164689
603.692	0.0163937
603.771	0.0165439
603.849	0.0164056
603.927	0.0164939
604.005	0.0164214
604.083	0.0164571
604.161	0.0164803
604.239	0.0164169
604.317	0.0165018
604.396	0.0165740
604.474	0.0165244
604.552	0.0164643
604.630	0.0163612
604.708	0.0165266
604.786	0.0164745
604.864	0.0165163
604.942	0.0165625
605.021	0.0164056
605.099	0.0163864
605.177	0.0166380
605.255	0.0165511
605.333	0.0165774
605.411	0.0164532
605.489	0.0164423
605.567	0.0164374
605.646	0.0165604
605.724	0.0165453
605.802	0.0165230
605.880	0.0164019
605.958	0.0164783
606.036	0.0165621
606.114	0.0165401
606.192	0.0165116
606.271	0.0165372
606.349	0.0166286
606.427	0.0164677
606.505	0.0165318
606.583	0.0164460
606.661	0.0165853
606.739	0.0165292
606.817	0.0164420
606.896	0.0164366
606.974	0.0164218
607.052	0.0164722
607.130	0.0165707
607.208	0.0164425
607.286	0.0166297
607.364	0.0165067
607.442	0.0164815
607.521	0.0166935
607.599	0.0165150
607.677	0.0164852
607.755	0.0164150
607.833	0.0165446
607.911	0.0165793
607.989	0.0164469
608.067	0.0165077
608.146	0.0165674
608.224	0.0164574
608.302	0.0165292
608.380	0.0166177
608.458	0.0165866
608.536	0.0164829
608.614	0.0165657
608.692	0.0165275
608.771	0.0163950
608.849	0.0164831
608.927	0.0164495
609.005	0.0164461
609.083	0.0166879
609.161	0.0165450
609.239	0.0164826
609.317	0.0164488
609.396	0.0165643
609.474	0.0164355
609.552	0.0165204
609.630	0.0165131
609.708	0.0166341
609.786	0.0165222
609.864	0.0164644
609.942	0.0163970
610.021	0.0164007
610.099	0.0166860
610.177	0.0165030
610.255	0.0163743
610.333	0.0166003
610.411	0.0165113
610.489	0.0164117
610.567	0.0165180
610.646	0.0164859
610.724	0.0164845
610.802	0.0166637
610.880	0.0165431
610.958	0.0165581
611.036	0.0163667
611.114	0.0164845
611.192	0.0165215
611.271	0.0166236
611.349	0.0165155
611.427	0.0164960
611.505	0.0163956
611.583	0.0165273
611.661	0.0163593
611.739	0.0164581
611.817	0.0166127
611.896	0.0165410
611.974	0.0164779
612.052	0.0165607
612.130	0.0165106
612.208	0.0166568
612.286	0.0165131
612.364	0.0165775
612.442	0.0166146
612.521	0.0164513
612.599	0.0166152
612.677	0.0165779
612.755	0.0163216
612.833	0.0165096
612.911	0.0164709
612.989	0.0165363
613.067	0.0163995
613.146	0.0165272
613.224	0.0164736
613.302	0.0165811
613.380	0.0164915
613.458	0.0164773
613.536	0.0163928
613.614	0.0165373
613.692	0.0165073
613.771	0.0164939
613.849	0.0165720
613.927	0.0164924
614.005	0.0164542
614.083	0.0164968
614.161	0.0165055
614.239	0.0164954
614.317	0.0164619
614.396	0.0164994
614.474	0.0166360
614.552	0.0165218
614.630	0.0165257
614.708	0.0164124
614.786	0.0166206
614.864	0.0166047
614.942	0.0164539
615.021	0.0165932
615.099	0.0164574
615.177	0.0163612
615.255	0.0165294
615.333	0.0167380
615.411	0.0165446
615.489	0.0164470
615.567	0.0165282
615.646	0.0164682
615.724	0.0165981
615.802	0.0166477
615.880	0.0165818
615.958	0.0164816
616.036	0.0164828
616.114	0.0165799
616.192	0.0164478
616.271	0.0164912
616.349	0.0165869
616.427	0.0165633
616.505	0.0164708
616.583	0.0167394
616.661	0.0165382
616.739	0.0164461
616.817	0.0164594
616.896	0.0163598
616.974	0.0165575
617.052	0.0164542
617.130	0.0164111
617.208	0.0164347
617.286	0.0164896
617.364	0.0165485
617.442	0.0164868
617.521	0.0165424
617.599	0.0163338
617.677	0.0165255
617.755	0.0165128
617.833	0.0164005
617.911	0.0165480
617.989	0.0164267
618.067	0.0165572
618.146	0.0164254
618.224	0.0164812
618.302	0.0165188
618.380	0.0163690
618.458	0.0163289
618.536	0.0164776
618.614	0.0165480
618.692	0.0164731
618.771	0.0165428
618.849	0.0164097
618.927	0.0164307
619.005	0.0164510
619.083	0.0164503
619.161	0.0163863
619.239	0.0163784
619.317	0.0165359
619.396	0.0166418
619.474	0.0165445
619.552	0.0165228
619.630	0.0163986
619.708	0.0164709
619.786	0.0164669
619.864	0.0164455
619.942	0.0165237
620.021	0.0166315
620.099	0.0164172
620.177	0.0165874
620.255	0.0165584
620.333	0.0164056
620.411	0.0163890
620.489	0.0165837
620.567	0.0165224
620.646	0.0165496
620.724	0.0164930
620.802	0.0165191
620.880	0.0164545
620.958	0.0165095
621.036	0.0165899
621.114	0.0166626
621.192	0.0166547
621.271	0.0164326
621.349	0.0164935
621.427	0.0165057
621.505	0.0166190
621.583	0.0164304
621.661	0.0165959
621.739	0.0166693
621.817	0.0164854
621.896	0.0164486
621.974	0.0165709
622.052	0.0164162
622.130	0.0164438
622.208	0.0164969
622.286	0.0165739
622.364	0.0164285
622.442	0.0165044
622.521	0.0165992
622.599	0.0164699
622.677	0.0164156
622.755	0.0167012
622.833	0.0165947
622.911	0.0164464
622.989	0.0165174
623.067	0.0164680
623.146	0.0164190
623.224	0.0164634
623.302	0.0165283
623.380	0.0164236
623.458	0.0164475
623.536	0.0165667
623.614	0.0164972
623.692	0.0165356
623.771	0.0165221
623.849	0.0164294
623.927	0.0164104
624.005	0.0164735
624.083	0.0164707
624.161	0.0166476
624.239	0.0166342
624.317	0.0165346
624.396	0.0165242
624.474	0.0164395
624.552	0.0163937
624.630	0.0165299
624.708	0.0164838
624.786	0.0166493
624.864	0.0164088
624.942	0.0166359
625.021	0.0164439
625.099	0.0164816
625.177	0.0164283
625.255	0.0164532
625.333	0.0163829
625.411	0.0164494
625.489	0.0164197
625.567	0.0164857
625.646	0.0165640
625.724	0.0165733
625.802	0.0164719
625.880	0.0165009
625.958	0.0165253
626.036	0.0163871
626.114	0.0165034
626.192	0.0165295
626.271	0.0166051
626.349	0.0164768
626.427	0.0164819
626.505	0.0165416
626.583	0.0163931
626.661	0.0164552
626.739	0.0164391
626.817	0.0166085
626.896	0.0164407
626.974	0.0164651
627.052	0.0163638
627.130	0.0165298
627.208	0.0165429
627.286	0.0164814
627.364	0.0166045
627.442	0.0165129
627.521	0.0165298
627.599	0.0164991
627.677	0.0163583
627.755	0.0166146
627.833	0.0165269
627.911	0.0163531
627.989	0.0165493
628.067	0.0164693
628.146	0.0163544
628.224	0.0166366
628.302	0.0165248
628.380	0.0164899
628.458	0.0165770
628.536	0.0164728
628.614	0.0164672
628.692	0.0164054
628.771	0.0164712
628.849	0.0164066
628.927	0.0162972
629.005	0.0164474
629.083	0.0164513
629.161	0.0163838
629.239	0.0163753
629.317	0.0163300
629.396	0.0164632
629.474	0.0163619
629.552	0.0164310
629.630	0.0164874
629.708	0.0164157
629.786	0.0165420
629.864	0.0163853
629.942	0.0164451
630.021	0.0165103
630.099	0.0165284
630.177	0.0164010
630.255	0.0165321
630.333	0.0164642
630.411	0.0164597
630.489	0.0164830
630.567	0.0164807
630.646	0.0163844
630.724	0.0164909
630.802	0.0164803
630.880	0.0166132
630.958	0.0166040
631.036	0.0164769
631.114	0.0165572
631.192	0.0165505
631.271	0.0164722
631.349	0.0164185
631.427	0.0164394
631.505	0.0164668
631.583	0.0165244
631.661	0.0165244
631.739	0.0165260
631.817	0.0164563
631.896	0.0163757
631.974	0.0163770
632.052	0.0165140
632.130	0.0163779
632.208	0.0163868
632.286	0.0165701
632.364	0.0165981
632.442	0.0165158
632.521	0.0165450
632.599	0.0165015
632.677	0.0164046
632.755	0.0164589
632.833	0.0165306
632.911	0.0164808
632.989	0.0165464
633.067	0.0165515
633.146	0.0163794
633.224	0.0164989
633.302	0.0165279
633.380	0.0164391
633.458	0.0165355
633.536	0.0165128
633.614	0.0165584
633.692	0.0164755
633.771	0.0165423
633.849	0.0164285
633.927	0.0164989
634.005	0.0165799
634.083	0.0165520
634.161	0.0165360
634.239	0.0165213
634.317	0.0164909
634.396	0.0166387
634.474	0.0165955
634.552	0.0164289
634.630	0.0163470
634.708	0.0164671
634.786	0.0165837
634.864	0.0163963
634.942	0.0165840
635.021	0.0165421
635.099	0.0164053
635.177	0.0164547
635.255	0.0164767
635.333	0.0162734
635.411	0.0165040
635.489	0.0164110
635.567	0.0164783
635.646	0.0165376
635.724	0.0164854
635.802	0.0164746
635.880	0.0165350
635.958	0.0165737
636.036	0.0165052
636.114	0.0163567
636.192	0.0164196
636.271	0.0164203
636.349	0.0164559
636.427	0.0163773
636.505	0.0166043
636.583	0.0164727
636.661	0.0165244
636.739	0.0163590
636.817	0.0163748
636.896	0.0164369
636.974	0.0165936
637.052	0.0163826
637.130	0.0164784
637.208	0.0165356
637.286	0.0163934
637.364	0.0165545
637.442	0.0164333
637.521	0.0165210
637.599	0.0164729
637.677	0.0164350
637.755	0.0165338
637.833	0.0165231
637.911	0.0164647
637.989	0.0163273
638.067	0.0165382
638.146	0.0165250
638.224	0.0164986
638.302	0.0165495
638.380	0.0166379
638.458	0.0165175
638.536	0.0164177
638.614	0.0165247
638.692	0.0164218
638.771	0.0163435
638.849	0.0164201
638.927	0.0164805
639.005	0.0165233
639.083	0.0164680
639.161	0.0164346
639.239	0.0164433
639.317	0.0165250
639.396	0.0163933
639.474	0.0162894
639.552	0.0164124
639.630	0.0164341
639.708	0.0163744
639.786	0.0164428
639.864	0.0165224
639.942	0.0162528
640.021	0.0164707
640.099	0.0164289
640.177	0.0165305
640.255	0.0164839
640.333	0.0163612
640.411	0.0164403
640.489	0.0165010
640.567	0.0164143
640.646	0.0164109
640.724	0.0164828
640.802	0.0165541
640.880	0.0165480
640.958	0.0164197
641.036	0.0164811
641.114	0.0164991
641.192	0.0165438
641.271	0.0163902
641.349	0.0164995
641.427	0.0165417
641.505	0.0164218
641.583	0.0163987
641.661	0.0164477
641.739	0.0165801
641.817	0.0164774
641.896	0.0165704
641.974	0.0164128
642.052	0.0164371
642.130	0.0164782
642.208	0.0164005
642.286	0.0165235
642.364	0.0164772
642.442	0.0164416
642.521	0.0164428
642.599	0.0165101
642.677	0.0164686
642.755	0.0165250
642.833	0.0165234
642.911	0.0162984
642.989	0.0164743
643.067	0.0164588
643.146	0.0164389
643.224	0.0164592
643.302	0.0164697
643.380	0.0163956
643.458	0.0164461
643.536	0.0166347
643.614	0.0164566
643.692	0.0165136
643.771	0.0165306
643.849	0.0164821
643.927	0.0162894
644.005	0.0164487
644.083	0.0164328
644.161	0.0164796
644.239	0.0165107
644.317	0.0164832
644.396	0.0165225
644.474	0.0164069
644.552	0.0165056
644.630	0.0164584
644.708	0.0164142
644.786	0.0165302
644.864	0.0164874
644.942	0.0164658
645.021	0.0165213
645.099	0.0164728
645.177	0.0164742
645.255	0.0165202
645.333	0.0165912
645.411	0.0164513
645.489	0.0165423
645.567	0.0164712
645.646	0.0164436
645.724	0.0165414
645.802	0.0165392
645.880	0.0165717
645.958	0.0165028
646.036	0.0164545
646.114	0.0164582
646.192	0.0165520
646.271	0.0165932
646.349	0.0164185
646.427	0.0165490
646.505	0.0164217
646.583	0.0165506
646.661	0.0165078
646.739	0.0165361
646.817	0.0164426
646.896	0.0166915
646.974	0.0164010
647.052	0.0164306
647.130	0.0164868
647.208	0.0164622
647.286	0.0164003
647.364	0.0164761
647.442	0.0164295
647.521	0.0164919
647.599	0.0165588
647.677	0.0165400
647.755	0.0164459
647.833	0.0164391
647.911	0.0163052
647.989	0.0165751
648.067	0.0164434
648.146	0.0162752
648.224	0.0165094
648.302	0.0166019
648.380	0.0164602
648.458	0.0166116
648.536	0.0164532
648.614	0.0164277
648.692	0.0164786
648.771	0.0165869
648.849	0.0164675
648.927	0.0164820
649.005	0.0164986
649.083	0.0164212
649.161	0.0164122
649.239	0.0164826
649.317	0.0164984
649.396	0.0166388
649.474	0.0164740
649.552	0.0163659
649.630	0.0163995
649.708	0.0165345
649.786	0.0165768
649.864	0.0163654
649.942	0.0164902
650.021	0.0165685
650.099	0.0165082
650.177	0.0163775
650.255	0.0163844
650.333	0.0164909
650.411	0.0165051
650.489	0.0163987
650.567	0.0164318
650.646	0.0164834
650.724	0.0164447
650.802	0.0164244
650.880	0.0164187
650.958	0.0164017
651.036	0.0164207
651.114	0.0164333
651.192	0.0165176
651.271	0.0165154
651.349	0.0164095
651.427	0.0165272
651.505	0.0163292
651.583	0.0164661
651.661	0.0166089
651.739	0.0165570
651.817	0.0163332
651.896	0.0164829
651.974	0.0164959
652.052	0.0165609
652.130	0.0165716
652.208	0.0163786
652.286	0.0164108
652.364	0.0164597
652.442	0.0164877
652.521	0.0164166
652.599	0.0164156
652.677	0.0164622
652.755	0.0165313
652.833	0.0164754
652.911	0.0164809
652.989	0.0164452
653.067	0.0165651
653.146	0.0165063
653.224	0.0165567
653.302	0.0164711
653.380	0.0163850
653.458	0.0164310
653.536	0.0163929
653.614	0.0165765
653.692	0.0164469
653.771	0.0165051
653.849	0.0165678
653.927	0.0164732
654.005	0.0164543
654.083	0.0165257
654.161	0.0165685
654.239	0.0165182
654.317	0.0164215
654.396	0.0164143
654.474	0.0164997
654.552	0.0164667
654.630	0.0164449
654.708	0.0164601
654.786	0.0164396
654.864	0.0164577
654.942	0.0164088
655.021	0.0165066
655.099	0.0164281
655.177	0.0164474
655.255	0.0164161
655.333	0.0164256
655.411	0.0163811
655.489	0.0164980
655.567	0.0164446
655.646	0.0164011
655.724	0.0165185
655.802	0.0165937
655.880	0.0165336
655.958	0.0164677
656.036	0.0164904
656.114	0.0164709
656.192	0.0164882
656.271	0.0164150
656.349	0.0165607
656.427	0.0164545
656.505	0.0164591
656.583	0.0165068
656.661	0.0164066
656.739	0.0163717
656.817	0.0164191
656.896	0.0164313
656.974	0.0164349
657.052	0.0163203
657.130	0.0163776
657.208	0.0165132
657.286	0.0166235
657.364	0.0163924
657.442	0.0164030
657.521	0.0164784
657.599	0.0165001
657.677	0.0163537
657.755	0.0164787
657.833	0.0164586
657.911	0.0164220
657.989	0.0164372
658.067	0.0165148
658.146	0.0165964
658.224	0.0165482
658.302	0.0164957
658.380	0.0165657
658.458	0.0165868
658.536	0.0164681
658.614	0.0164269
658.692	0.0164149
658.771	0.0164957
658.849	0.0164844
658.927	0.0165027
659.005	0.0163522
659.083	0.0165260
659.161	0.0165025
659.239	0.0164019
659.317	0.0163558
659.396	0.0164788
659.474	0.0163322
659.552	0.0164252
659.630	0.0164764
659.708	0.0164148
659.786	0.0164716
659.864	0.0164796
659.942	0.0164658
660.021	0.0163612
660.099	0.0164609
660.177	0.0164968
660.255	0.0163947
660.333	0.0164665
660.411	0.0164219
660.489	0.0164994
660.567	0.0164420
660.646	0.0165823
660.724	0.0164777
660.802	0.0163983
660.880	0.0164150
660.958	0.0164401
661.036	0.0164555
661.114	0.0165917
661.192	0.0165111
661.271	0.0165060
661.349	0.0165097
661.427	0.0164066
661.505	0.0164124
661.583	0.0165639
661.661	0.0164964
661.739	0.0165327
661.817	0.0165552
661.896	0.0164031
661.974	0.0163967
662.052	0.0165009
662.130	0.0165197
662.208	0.0165247
662.286	0.0164661
662.364	0.0164293
662.442	0.0163538
662.521	0.0166000
662.599	0.0164078
662.677	0.0165283
662.755	0.0166014
662.833	0.0165318
662.911	0.0164928
662.989	0.0163862
663.067	0.0165543
663.146	0.0164523
663.224	0.0164649
663.302	0.0165257
663.380	0.0164592
663.458	0.0164192
663.536	0.0164393
663.614	0.0165264
663.692	0.0164965
663.771	0.0165477
663.849	0.0165807
663.927	0.0164790
664.005	0.0165843
664.083	0.0164471
664.161	0.0164310
664.239	0.0164768
664.317	0.0164977
664.396	0.0165312
664.474	0.0165450
664.552	0.0164164
664.630	0.0164596
664.708	0.0164590
664.786	0.0163304
664.864	0.0164199
664.942	0.0164684
665.021	0.0164316
665.099	0.0165829
665.177	0.0165367
665.255	0.0165868
665.333	0.0164510
665.411	0.0165650
665.489	0.0164285
665.567	0.0164895
665.646	0.0164548
665.724	0.0165015
665.802	0.0166025
665.880	0.0164939
665.958	0.0163972
666.036	0.0164304
666.114	0.0165434
666.192	0.0165720
666.271	0.0165109
666.349	0.0165150
666.427	0.0165621
666.505	0.0165363
666.583	0.0165318
666.661	0.0164382
666.739	0.0165463
666.817	0.0165543
666.896	0.0164206
666.974	0.0165117
667.052	0.0165192
667.130	0.0165355
667.208	0.0164619
667.286	0.0165573
667.364	0.0165897
667.442	0.0165721
667.521	0.0163914
667.599	0.0164613
667.677	0.0165535
667.755	0.0164931
667.833	0.0164679
667.911	0.0164876
667.989	0.0164622
668.067	0.0165751
668.146	0.0164445
668.224	0.0165286
668.302	0.0164948
668.380	0.0163805
668.458	0.0165453
668.536	0.0165193
668.614	0.0164899
668.692	0.0165412
668.771	0.0164633
668.849	0.0164660
668.927	0.0166057
669.005	0.0165305
669.083	0.0164571
669.161	0.0164941
669.239	0.0164980
669.317	0.0165781
669.396	0.0164763
669.474	0.0164938
669.552	0.0165347
669.630	0.0164105
669.708	0.0164297
669.786	0.0166167
669.864	0.0164793
669.942	0.0162473
670.021	0.0166093
670.099	0.0166098
670.177	0.0165046
670.255	0.0165141
670.333	0.0165216
670.411	0.0164500
670.489	0.0165285
670.567	0.0165177
670.646	0.0164680
670.724	0.0164559
670.802	0.0165299
670.880	0.0164038
670.958	0.0164207
671.036	0.0165613
671.114	0.0164547
671.192	0.0162823
671.271	0.0164287
671.349	0.0165723
671.427	0.0164928
671.505	0.0164112
671.583	0.0165519
671.661	0.0163667
671.739	0.0164454
671.817	0.0164405
671.896	0.0164479
671.974	0.0164600
672.052	0.0165384
672.130	0.0164347
672.208	0.0164017
672.286	0.0165088
672.364	0.0164601
672.442	0.0165279
672.521	0.0163026
672.599	0.0163829
672.677	0.0165129
672.755	0.0164587
672.833	0.0164882
672.911	0.0164520
672.989	0.0164957
673.067	0.0165566
673.146	0.0164487
673.224	0.0165026
673.302	0.0164780
673.380	0.0164797
673.458	0.0164896
673.536	0.0165205
673.614	0.0164810
673.692	0.0164405
673.771	0.0165116
673.849	0.0163876
673.927	0.0165553
674.005	0.0164533
674.083	0.0165830
674.161	0.0165607
674.239	0.0163983
674.317	0.0164056
674.396	0.0165351
674.474	0.0164904
674.552	0.0165392
674.630	0.0164858
674.708	0.0163755
674.786	0.0164825
674.864	0.0163766
674.942	0.0164054
675.021	0.0165659
675.099	0.0164207
675.177	0.0165136
675.255	0.0164874
675.333	0.0164493
675.411	0.0165253
675.489	0.0164167
675.567	0.0165365
675.646	0.0163977
675.724	0.0164344
675.802	0.0164772
675.880	0.0163957
675.958	0.0164021
676.036	0.0164485
676.114	0.0164766
676.192	0.0164459
676.271	0.0164012
676.349	0.0164680
676.427	0.0165680
676.505	0.0164791
676.583	0.0164684
676.661	0.0165898
676.739	0.0163989
676.817	0.0163837
676.896	0.0164536
676.974	0.0164028
677.052	0.0164852
677.130	0.0163437
677.208	0.0165679
677.286	0.0165216
677.364	0.0164210
677.442	0.0164801
677.521	0.0164757
677.599	0.0164493
677.677	0.0165385
677.755	0.0164863
677.833	0.0166962
677.911	0.0166062
677.989	0.0164781
678.067	0.0165726
678.146	0.0164552
678.224	0.0165169
678.302	0.0164689
678.380	0.0165274
678.458	0.0164875
678.536	0.0164822
678.614	0.0165739
678.692	0.0164946
678.771	0.0164163
678.849	0.0165304
678.927	0.0164473
679.005	0.0164180
679.083	0.0166156
679.161	0.0164877
679.239	0.0165672
679.317	0.0164588
679.396	0.0165360
679.474	0.0164682
679.552	0.0165067
679.630	0.0165919
679.708	0.0164666
679.786	0.0164201
679.864	0.0164924
679.942	0.0164319
680.021	0.0164988
680.099	0.0164436
680.177	0.0164066
680.255	0.0165372
680.333	0.0164112
680.411	0.0164706
680.489	0.0163811
680.567	0.0164997
680.646	0.0165323
680.724	0.0164189
680.802	0.0164677
680.880	0.0166908
680.958	0.0164527
681.036	0.0164819
681.114	0.0165255
681.192	0.0164722
681.271	0.0164922
681.349	0.0164993
681.427	0.0166394
681.505	0.0165492
681.583	0.0163264
681.661	0.0164762
681.739	0.0164963
681.817	0.0165344
681.896	0.0164202
681.974	0.0164139
682.052	0.0164414
682.130	0.0165828
682.208	0.0164207
682.286	0.0164528
682.364	0.0165540
682.442	0.0166354
682.521	0.0164611
682.599	0.0163346
682.677	0.0164033
682.755	0.0164841
682.833	0.0164776
682.911	0.0165717
682.989	0.0164923
683.067	0.0165185
683.146	0.0166034
683.224	0.0165800
683.302	0.0164465
683.380	0.0164001
683.458	0.0165280
683.536	0.0166417
683.614	0.0164426
683.692	0.0164437
683.771	0.0163960
683.849	0.0164780
683.927	0.0164540
684.005	0.0164191
684.083	0.0164634
684.161	0.0165242
684.239	0.0164762
684.317	0.0164629
684.396	0.0164997
684.474	0.0165321
684.552	0.0165305
684.630	0.0163634
684.708	0.0164192
684.786	0.0165425
684.864	0.0164326
684.942	0.0164133
685.021	0.0166703
685.099	0.0166092
685.177	0.0164149
685.255	0.0163863
685.333	0.0165744
685.411	0.0164918
685.489	0.0165063
685.567	0.0165205
685.646	0.0164226
685.724	0.0164734
685.802	0.0165187
685.880	0.0165136
685.958	0.0165565
686.036	0.0164633
686.114	0.0165685
686.192	0.0164941
686.271	0.0164733
686.349	0.0164893
686.427	0.0164294
686.505	0.0165502
686.583	0.0162878
686.661	0.0164445
686.739	0.0164750
686.817	0.0163643
686.896	0.0164417
686.974	0.0164793
687.052	0.0165420
687.130	0.0163770
687.208	0.0165164
687.286	0.0164198
687.364	0.0164508
687.442	0.0163618
687.521	0.0165363
687.599	0.0163678
687.677	0.0163946
687.755	0.0165355
687.833	0.0165070
687.911	0.0165755
687.989	0.0165781
688.067	0.0165407
688.146	0.0165561
688.224	0.0165810
688.302	0.0163702
688.380	0.0163971
688.458	0.0164380
688.536	0.0164000
688.614	0.0164938
688.692	0.0164452
688.771	0.0163665
688.849	0.0164846
688.927	0.0164783
689.005	0.0164262
689.083	0.0165390
689.161	0.0165615
689.239	0.0164510
689.317	0.0164805
689.396	0.0164156
689.474	0.0163985
689.552	0.0164925
689.630	0.0164407
689.708	0.0164727
689.786	0.0164351
689.864	0.0164612
689.942	0.0164048
690.021	0.0163399
690.099	0.0164278
690.177	0.0163354
690.255	0.0163683
690.333	0.0165299
690.411	0.0164813
690.489	0.0165347
690.567	0.0164442
690.646	0.0164043
690.724	0.0165407
690.802	0.0165569
690.880	0.0164958
690.958	0.0163192
691.036	0.0164471
691.114	0.0165028
691.192	0.0164384
691.271	0.0165143
691.349	0.0165152
691.427	0.0164551
691.505	0.0164689
691.583	0.0163428
691.661	0.0165472
691.739	0.0164684
691.817	0.0165223
691.896	0.0164034
691.974	0.0164481
692.052	0.0166573
692.130	0.0165388
692.208	0.0163332
692.286	0.0163170
692.364	0.0163522
692.442	0.0163584
692.521	0.0163749
692.599	0.0163847
692.677	0.0164558
692.755	0.0163783
692.833	0.0166109
692.911	0.0164648
692.989	0.0165138
693.067	0.0165902
693.146	0.0166226
693.224	0.0164625
693.302	0.0166692
693.380	0.0166756
693.458	0.0166226
693.536	0.0165151
693.614	0.0167098
693.692	0.0164339
693.771	0.0165010
693.849	0.0163908
693.927	0.0161698
694.005	0.0163627
694.083	0.0164336
694.161	0.0162380
694.239	0.0162927
694.317	0.0165005
694.396	0.0164938
694.474	0.0166419
694.552	0.0169933
694.630	0.0168852
694.708	0.0168374
694.786	0.0167564
694.864	0.0168510
694.942	0.0168234
695.021	0.0167230
695.099	0.0164310
695.177	0.0165469
695.255	0.0163007
695.333	0.0161182
695.411	0.0160094
695.489	0.0160641
695.567	0.0160108
695.646	0.0159283
695.724	0.0156633
695.802	0.0160198
695.880	0.0164005
695.958	0.0165448
696.036	0.0167667
696.114	0.0169767
696.192	0.0171864
696.271	0.0172077
696.349	0.0173490
696.427	0.0173573
696.505	0.0173600
696.583	0.0169189
696.661	0.0166602
696.739	0.0164948
696.817	0.0161411
696.896	0.0160030
696.974	0.0158047
697.052	0.0156172
697.130	0.0156022
697.208	0.0157461
697.286	0.0157666
697.364	0.0160339
697.442	0.0163082
697.521	0.0165278
697.599	0.0167880
697.677	0.0169236
697.755	0.0170815
697.833	0.0170840
697.911	0.0170728
697.989	0.0170866
698.067	0.0167713
698.146	0.0164384
698.224	0.0159068
698.302	0.0158676
698.380	0.0155369
698.458	0.0154268
698.536	0.0153996
698.614	0.0152776
698.692	0.0155179
698.771	0.0156671
698.849	0.0159660
698.927	0.0162541
699.005	0.0164226
699.083	0.0167535
699.161	0.0171490
699.239	0.0175140
699.317	0.0177237
699.396	0.0180080
699.474	0.0180431
699.552	0.0180457
699.630	0.0182764
699.708	0.0182066
699.786	0.0177439
699.864	0.0177053
699.942	0.0173947
700.021	0.0171819
700.099	0.0168247
700.177	0.0164710
700.255	0.0162270
700.333	0.0159329
700.411	0.0156398
700.489	0.0155290
700.567	0.0153014
700.646	0.0151891
700.724	0.0150965
700.802	0.0149900
700.880	0.0147835
700.958	0.0147877
701.036	0.0147814
701.114	0.0146076
701.192	0.0148033
701.271	0.0147138
701.349	0.0149058
701.427	0.0150668
701.505	0.0153859
701.583	0.0158464
701.661	0.0161758
701.739	0.0167127
701.817	0.0172083
701.896	0.0177616
701.974	0.0178737
702.052	0.0182262
702.130	0.0182687
702.208	0.0180302
702.286	0.0179794
702.364	0.0177821
702.442	0.0174551
702.521	0.0171311
702.599	0.0168690
702.677	0.0167212
702.755	0.0166522
702.833	0.0166498
702.911	0.0166836
702.989	0.0166729
703.067	0.0170273
703.146	0.0172746
703.224	0.0178367
703.302	0.0183157
703.380	0.0185457
703.458	0.0189800
703.536	0.0192776
703.614	0.0194296
703.692	0.0196070
703.771	0.0193544
703.849	0.0191344
703.927	0.0187514
704.005	0.0183639
704.083	0.0176518
704.161	0.0169542
704.239	0.0161282
704.317	0.0152978
704.396	0.0143231
704.474	0.0134369
704.552	0.0125346
704.630	0.0117965
704.708	0.0109688
704.786	0.0105455
704.864	0.0102011
704.942	0.0100823
705.021	0.0100498
705.099	0.0103487
705.177	0.0106604
705.255	0.0112076
705.333	0.0119209
705.411	0.0128311
705.489	0.0135833
705.567	0.0145076
705.646	0.0155488
705.724	0.0163948
705.802	0.0174275
705.880	0.0181030
705.958	0.0188906
706.036	0.0196485
706.114	0.0202100
706.192	0.0209065
706.271	0.0215169
706.349	0.0220991
706.427	0.0230186
706.505	0.0236463
706.583	0.0245814
706.661	0.0251509
706.739	0.0258351
706.817	0.0263638
706.896	0.0265178
706.974	0.0263354
707.052	0.0261850
707.130	0.0254167
707.208	0.0242661
707.286	0.0228842
707.364	0.0209933
707.442	0.0189536
707.521	0.0166570
707.599	0.0141321
707.677	0.0118654
707.755	0.00963371
707.833	0.00768585
707.911	0.00597931
707.989	0.00457191
708.067	0.00355255
708.146	0.00327408
708.224	0.00299957
708.302	0.00316490
708.380	0.00373085
708.458	0.00471115
708.536	0.00591698
708.614	0.00734283
708.692	0.00879639
708.771	0.0104250
708.849	0.0123407
708.927	0.0139902
709.005	0.0153996
709.083	0.0168604
709.161	0.0182955
709.239	0.0194331
709.317	0.0203748
709.396	0.0214339
709.474	0.0222032
709.552	0.0228886
709.630	0.0233738
709.708	0.0240054
709.786	0.0245474
709.864	0.0250577
709.942	0.0254268
710.021	0.0257225
710.099	0.0259597
710.177	0.0260611
710.255	0.0260975
710.333	0.0256458
710.411	0.0250081
710.489	0.0241231
710.567	0.0229528
710.646	0.0215736
710.724	0.0200565
710.802	0.0184624
710.880	0.0169758
710.958	0.0154015
711.036	0.0139568
711.114	0.0127725
711.192	0.0116023
711.271	0.0106698
711.349	0.00992310
711.427	0.00933731
711.505	0.00888809
711.583	0.00873146
711.661	0.00857979
711.739	0.00855721
711.817	0.00864990
711.896	0.00899734
711.974	0.00939110
712.052	0.00988022
712.130	0.0105801
712.208	0.0110690
712.286	0.0119628
712.364	0.0127671
712.442	0.0135609
712.521	0.0144598
712.599	0.0153598
712.677	0.0162587
712.755	0.0172752
712.833	0.0180314
712.911	0.0189470
712.989	0.0198119
713.067	0.0206749
713.146	0.0213279
713.224	0.0219149
713.302	0.0223664
713.380	0.0224342
713.458	0.0227089
713.536	0.0228813
713.614	0.0225757
713.692	0.0223325
713.771	0.0217939
713.849	0.0213143
713.927	0.0207690
714.005	0.0199995
714.083	0.0194948
714.161	0.0189359
714.239	0.0182457
714.317	0.0176077
714.396	0.0169751
714.474	0.0163615
714.552	0.0157791
714.630	0.0151830
714.708	0.0146274
714.786	0.0141836
714.864	0.0136604
714.942	0.0131779
715.021	0.0128055
715.099	0.0123908
715.177	0.0120274
715.255	0.0116064
715.333	0.0111266
715.411	0.0109235
715.489	0.0106247
715.567	0.0101897
715.646	0.0102448
715.724	0.0100633
715.802	0.0103468
715.880	0.0105345
715.958	0.0111663
716.036	0.0119139
716.114	0.0128705
716.192	0.0139123
716.271	0.0152276
716.349	0.0165475
716.427	0.0178765
716.505	0.0194040
716.583	0.0207860
716.661	0.0220423
716.739	0.0230337
716.817	0.0238251
716.896	0.0246188
716.974	0.0251083
717.052	0.0251014
717.130	0.0251295
717.208	0.0250584
717.286	0.0244617
717.364	0.0239675
717.442	0.0232189
717.521	0.0224233
717.599	0.0215622
717.677	0.0202972
717.755	0.0192267
717.833	0.0180872
717.911	0.0167789
717.989	0.0155640
718.067	0.0146157
718.146	0.0135624
718.224	0.0126453
718.302	0.0119129
718.380	0.0112348
718.458	0.0107081
718.536	0.0103900
718.614	0.0101794
718.692	0.0100397
718.771	0.0100819
718.849	0.0103776
718.927	0.0105232
719.005	0.0106947
719.083	0.0109810
719.161	0.0114565
719.239	0.0118986
719.317	0.0122763
719.396	0.0128386
719.474	0.0134817
719.552	0.0142538
719.630	0.0149044
719.708	0.0157944
719.786	0.0164387
719.864	0.0171426
719.942	0.0178322
720.021	0.0185081
720.099	0.0191715
720.177	0.0194689
720.255	0.0199689
720.333	0.0203086
720.411	0.0203259
720.489	0.0204365
720.567	0.0205285
720.646	0.0205556
720.724	0.0202531
720.802	0.0202147
720.880	0.0201089
720.958	0.0196910
721.036	0.0195549
721.114	0.0190860
721.192	0.0188284
721.271	0.0182748
721.349	0.0176748
721.427	0.0172699
721.505	0.0165800
721.583	0.0161088
721.661	0.0157537
721.739	0.0154230
721.817	0.0151463
721.896	0.0148611
721.974	0.0146929
722.052	0.0147816
722.130	0.0148115
722.208	0.0147057
722.286	0.0149561
722.364	0.0151166
722.442	0.0153016
722.521	0.0152886
722.599	0.0154715
722.677	0.0156839
722.755	0.0158260
722.833	0.0160858
722.911	0.0162732
722.989	0.0163452
723.067	0.0164120
723.146	0.0164564
723.224	0.0166924
723.302	0.0167675
723.380	0.0168754
723.458	0.0168499
723.536	0.0170140
723.614	0.0169559
723.692	0.0170504
723.771	0.0171096
723.849	0.0171818
723.927	0.0171423
724.005	0.0171076
724.083	0.0170488
724.161	0.0171121
724.239	0.0169081
724.317	0.0167234
724.396	0.0167823
724.474	0.0167950
724.552	0.0164928
724.630	0.0163158
724.708	0.0161845
724.786	0.0161234
724.864	0.0160355
724.942	0.0158619
725.021	0.0156361
725.099	0.0154725
725.177	0.0152770
725.255	0.0150266
725.333	0.0151185
725.411	0.0149568
725.489	0.0149969
725.567	0.0151421
725.646	0.0152687
725.724	0.0154777
725.802	0.0154687
725.880	0.0157401
725.958	0.0157959
726.036	0.0161305
726.114	0.0164076
726.192	0.0163776
726.271	0.0163474
726.349	0.0165374
726.427	0.0165600
726.505	0.0164402
726.583	0.0164919
726.661	0.0168436
726.739	0.0165858
726.817	0.0168283
726.896	0.0169889
726.974	0.0171192
727.052	0.0172675
727.130	0.0176708
727.208	0.0178542
727.286	0.0180961
727.364	0.0182991
727.442	0.0182072
727.521	0.0185603
727.599	0.0186694
727.677	0.0185034
727.755	0.0185738
727.833	0.0183304
727.911	0.0181348
727.989	0.0176921
728.067	0.0175081
728.146	0.0170014
728.224	0.0166481
728.302	0.0160995
728.380	0.0157356
728.458	0.0152862
728.536	0.0150222
728.614	0.0147375
728.692	0.0145422
728.771	0.0144728
728.849	0.0143671
728.927	0.0143622
729.005	0.0145747
729.083	0.0148124
729.161	0.0148743
729.239	0.0150896
729.317	0.0153992
729.396	0.0155701
729.474	0.0159171
729.552	0.0160470
729.630	0.0162811
729.708	0.0163029
729.786	0.0163902
729.864	0.0164680
729.942	0.0165493
730.021	0.0166603
730.099	0.0166732
730.177	0.0166076
730.255	0.0167848
730.333	0.0168967
730.411	0.0170345
730.489	0.0170234
730.567	0.0172008
730.646	0.0174036
730.724	0.0174579
730.802	0.0175352
730.880	0.0175854
730.958	0.0175356
731.036	0.0174669
731.114	0.0175517
731.192	0.0176531
731.271	0.0174986
731.349	0.0173837
731.427	0.0172764
731.505	0.0171341
731.583	0.0171064
731.661	0.0167583
731.739	0.0164799
731.817	0.0163489
731.896	0.0162727
731.974	0.0159088
732.052	0.0157325
732.130	0.0157429
732.208	0.0154777
732.286	0.0153600
732.364	0.0152548
732.442	0.0150979
732.521	0.0153142
732.599	0.0152914
732.677	0.0153893
732.755	0.0156353
732.833	0.0157009
732.911	0.0161701
732.989	0.0162452
733.067	0.0164548
733.146	0.0167225
733.224	0.0171324
733.302	0.0171198
733.380	0.0172861
733.458	0.0174565
733.536	0.0176299
733.614	0.0174672
733.692	0.0175260
733.771	0.0177077
733.849	0.0176268
733.927	0.0174908
734.005	0.0173634
734.083	0.0171454
734.161	0.0170320
734.239	0.0171448
734.317	0.0168774
734.396	0.0165935
734.474	0.0164999
734.552	0.0164235
734.630	0.0162370
734.708	0.0162529
734.786	0.0161803
734.864	0.0160212
734.942	0.0160948
735.021	0.0158816
735.099	0.0160117
735.177	0.0157677
735.255	0.0159848
735.333	0.0159278
735.411	0.0158535
735.489	0.0159209
735.567	0.0158648
735.646	0.0157603
735.724	0.0157715
735.802	0.0158157
735.880	0.0158713
735.958	0.0159027
736.036	0.0159515
736.114	0.0159058
736.192	0.0159517
736.271	0.0161025
736.349	0.0162136
736.427	0.0163721
736.505	0.0165952
736.583	0.0168192
736.661	0.0168728
736.739	0.0172882
736.817	0.0174254
736.896	0.0175107
736.974	0.0177180
737.052	0.0178651
737.130	0.0180240
737.208	0.0180150
737.286	0.0179251
737.364	0.0178736
737.442	0.0178648
737.521	0.0175455
737.599	0.0174730
737.677	0.0172952
737.755	0.0172742
737.833	0.0170617
737.911	0.0169135
737.989	0.0167872
738.067	0.0167722
738.146	0.0166417
738.224	0.0165210
738.302	0.0165952
738.380	0.0164513
738.458	0.0162567
738.536	0.0162346
738.614	0.0161363
738.692	0.0160455
738.771	0.0159521
738.849	0.0158508
738.927	0.0157497
739.005	0.0156737
739.083	0.0155608
739.161	0.0153651
739.239	0.0151957
739.317	0.0150957
739.396	0.0152456
739.474	0.0151208
739.552	0.0150355
739.630	0.0152159
739.708	0.0151535
739.786	0.0154474
739.864	0.0155932
739.942	0.0155725
740.021	0.0156367
740.099	0.0158788
740.177	0.0159873
740.255	0.0161396
740.333	0.0162060
740.411	0.0161063
740.489	0.0162158
740.567	0.0162489
740.646	0.0162307
740.724	0.0164049
740.802	0.0166098
740.880	0.0167178
740.958	0.0166868
741.036	0.0167372
741.114	0.0170294
741.192	0.0172574
741.271	0.0173998
741.349	0.0175447
741.427	0.0178711
741.505	0.0180529
741.583	0.0181863
741.661	0.0182385
741.739	0.0182967
741.817	0.0183458
741.896	0.0183449
741.974	0.0181459
742.052	0.0179129
742.130	0.0179572
742.208	0.0176080
742.286	0.0174577
742.364	0.0171286
742.442	0.0169280
742.521	0.0166355
742.599	0.0163516
742.677	0.0162787
742.755	0.0161462
742.833	0.0158070
742.911	0.0158376
742.989	0.0156326
743.067	0.0156619
743.146	0.0154518
743.224	0.0153100
743.302	0.0153114
743.380	0.0154164
743.458	0.0153580
743.536	0.0153291
743.614	0.0154431
743.692	0.0153432
743.771	0.0156362
743.849	0.0156034
743.927	0.0158569
744.005	0.0158962
744.083	0.0160712
744.161	0.0162872
744.239	0.0165039
744.317	0.0166022
744.396	0.0167402
744.474	0.0169509
744.552	0.0169210
744.630	0.0171721
744.708	0.0170611
744.786	0.0169277
744.864	0.0171165
744.942	0.0172038
745.021	0.0169395
745.099	0.0168774
745.177	0.0168322
745.255	0.0168427
745.333	0.0169439
745.411	0.0168453
745.489	0.0166534
745.567	0.0166796
745.646	0.0167618
745.724	0.0167796
745.802	0.0167522
745.880	0.0167141
745.958	0.0167714
746.036	0.0167846
746.114	0.0168069
746.192	0.0167218
746.271	0.0165401
746.349	0.0165419
746.427	0.0163428
746.505	0.0162350
746.583	0.0161308
746.661	0.0159354
746.739	0.0159002
746.817	0.0159182
746.896	0.0156270
746.974	0.0156242
747.052	0.0156598
747.130	0.0156990
747.208	0.0155832
747.286	0.0157479
747.364	0.0158677
747.442	0.0160151
747.521	0.0161227
747.599	0.0161568
747.677	0.0164004
747.755	0.0166172
747.833	0.0166505
747.911	0.0167533
747.989	0.0168406
748.067	0.0168639
748.146	0.0169672
748.224	0.0169563
748.302	0.0168697
748.380	0.0168192
748.458	0.0167410
748.536	0.0166945
748.614	0.0165441
748.692	0.0165454
748.771	0.0163584
748.849	0.0163184
748.927	0.0164710
749.005	0.0164899
749.083	0.0164944
749.161	0.0167548
749.239	0.0166285
749.317	0.0168050
749.396	0.0169843
749.474	0.0171464
749.552	0.0172958
749.630	0.0174150
749.708	0.0174016
749.786	0.0174310
749.864	0.0173161
749.942	0.0173297
750.021	0.0171835
750.099	0.0170728
750.177	0.0169646
750.255	0.0167136
750.333	0.0164382
750.411	0.0165852
750.489	0.0164301
750.567	0.0162067
750.646	0.0161722
750.724	0.0162051
750.802	0.0161092
750.880	0.0160230
750.958	0.0159540
751.036	0.0159898
751.114	0.0159480
751.192	0.0158929
751.271	0.0158565
751.349	0.0157191
751.427	0.0157986
751.505	0.0156756
751.583	0.0156079
751.661	0.0156912
751.739	0.0155704
751.817	0.0156415
751.896	0.0158770
751.974	0.0158011
752.052	0.0161150
752.130	0.0160165
752.208	0.0162083
752.286	0.0164915
752.364	0.0165827
752.442	0.0166662
752.521	0.0168035
752.599	0.0169920
752.677	0.0171348
752.755	0.0171770
752.833	0.0172882
752.911	0.0173126
752.989	0.0171870
753.067	0.0172557
753.146	0.0172358
753.224	0.0170660
753.302	0.0169552
753.380	0.0170080
753.458	0.0168464
753.536	0.0169083
753.614	0.0169148
753.692	0.0165871
753.771	0.0166750
753.849	0.0166241
753.927	0.0166952
754.005	0.0166666
754.083	0.0165716
754.161	0.0163572
754.239	0.0163522
754.317	0.0165364
754.396	0.0163744
754.474	0.0163374
754.552	0.0161520
754.630	0.0158992
754.708	0.0158456
754.786	0.0157986
754.864	0.0156219
754.942	0.0155251
755.021	0.0154926
755.099	0.0155303
755.177	0.0155419
755.255	0.0155316
755.333	0.0154521
755.411	0.0157613
755.489	0.0158655
755.567	0.0161977
755.646	0.0162926
755.724	0.0165445
755.802	0.0166663
755.880	0.0171160
755.958	0.0171273
756.036	0.0173453
756.114	0.0173630
756.192	0.0174290
756.271	0.0174659
756.349	0.0174957
756.427	0.0175826
756.505	0.0173467
756.583	0.0171169
756.661	0.0171590
756.739	0.0169721
756.817	0.0167651
756.896	0.0166027
756.974	0.0164409
757.052	0.0163049
757.130	0.0162522
757.208	0.0161670
757.286	0.0160078
757.364	0.0161156
757.442	0.0159754
757.521	0.0159540
757.599	0.0160446
757.677	0.0158949
757.755	0.0159652
757.833	0.0159941
757.911	0.0160223
757.989	0.0161307
758.067	0.0161199
758.146	0.0163057
758.224	0.0162300
758.302	0.0163309
758.380	0.0163746
758.458	0.0164102
758.536	0.0164693
758.614	0.0164877
758.692	0.0166978
758.771	0.0165824
758.849	0.0166237
758.927	0.0167686
759.005	0.0168826
759.083	0.0168183
759.161	0.0170174
759.239	0.0170211
759.317	0.0171603
759.396	0.0171158
759.474	0.0170461
759.552	0.0171644
759.630	0.0170856
759.708	0.0170023
759.786	0.0169472
759.864	0.0168176
759.942	0.0169162
760.021	0.0166426
760.099	0.0166830
760.177	0.0166679
760.255	0.0164281
760.333	0.0163534
760.411	0.0163097
760.489	0.0161618
760.567	0.0161324
760.646	0.0161334
760.724	0.0160898
760.802	0.0160116
760.880	0.0160110
760.958	0.0159959
761.036	0.0160251
761.114	0.0160288
761.192	0.0159903
761.271	0.0158216
761.349	0.0159534
761.427	0.0158841
761.505	0.0161453
761.583	0.0162918
761.661	0.0162341
761.739	0.0163477
761.817	0.0164994
761.896	0.0165134
761.974	0.0166698
762.052	0.0167677
762.130	0.0167854
762.208	0.0169257
762.286	0.0170049
762.364	0.0171174
762.442	0.0171506
762.521	0.0170950
762.599	0.0170934
762.677	0.0171806
762.755	0.0170766
762.833	0.0171307
762.911	0.0169628
762.989	0.0170156
763.067	0.0169084
763.146	0.0167007
763.224	0.0165972
763.302	0.0164099
763.380	0.0164146
763.458	0.0164683
763.536	0.0164127
763.614	0.0162447
763.692	0.0160651
763.771	0.0163126
763.849	0.0162148
763.927	0.0161860
764.005	0.0161668
764.083	0.0162070
764.161	0.0159971
764.239	0.0160106
764.317	0.0161484
764.396	0.0161713
764.474	0.0161692
764.552	0.0161801
764.630	0.0161349
764.708	0.0163080
764.786	0.0162130
764.864	0.0162071
764.942	0.0163332
765.021	0.0162865
765.099	0.0164991
765.177	0.0165085
765.255	0.0165785
765.333	0.0166541
765.411	0.0168445
765.489	0.0168545
765.567	0.0168320
765.646	0.0168791
765.724	0.0169064
765.802	0.0170166
765.880	0.0169582
765.958	0.0169951
766.036	0.0171194
766.114	0.0170812
766.192	0.0171325
766.271	0.0169665
766.349	0.0170225
766.427	0.0168320
766.505	0.0168017
766.583	0.0167694
766.661	0.0167233
766.739	0.0166331
766.817	0.0164433
766.896	0.0164112
766.974	0.0164086
767.052	0.0162716
767.130	0.0162455
767.208	0.0162402
767.286	0.0161040
767.364	0.0162077
767.442	0.0162065
767.521	0.0160946
767.599	0.0161601
767.677	0.0162641
767.755	0.0163902
767.833	0.0163431
767.911	0.0162347
767.989	0.0162393
768.067	0.0163522
768.146	0.0163374
768.224	0.0164967
768.302	0.0164765
768.380	0.0162517
768.458	0.0163955
768.536	0.0164103
768.614	0.0163525
768.692	0.0164696
768.771	0.0166724
768.849	0.0164584
768.927	0.0164227
769.005	0.0166789
769.083	0.0166029
769.161	0.0165938
769.239	0.0166512
769.317	0.0166568
769.396	0.0167169
769.474	0.0167158
769.552	0.0166177
769.630	0.0166991
769.708	0.0167224
769.786	0.0165059
769.864	0.0166180
769.942	0.0164656
770.021	0.0163401
770.099	0.0164355
770.177	0.0164001
770.255	0.0162950
770.333	0.0163959
770.411	0.0162373
770.489	0.0162502
770.567	0.0162891
770.646	0.0163087
770.724	0.0163201
770.802	0.0164840
770.880	0.0164211
770.958	0.0164746
771.036	0.0164273
771.114	0.0167291
771.192	0.0167441
771.271	0.0166795
771.349	0.0167889
771.427	0.0168519
771.505	0.0168035
771.583	0.0167216
771.661	0.0167993
771.739	0.0168008
771.817	0.0168180
771.896	0.0167223
771.974	0.0166753
772.052	0.0166073
772.130	0.0164077
772.208	0.0163808
772.286	0.0164707
772.364	0.0163630
772.442	0.0162556
772.521	0.0163154
772.599	0.0163049
772.677	0.0163824
772.755	0.0162892
772.833	0.0163667
772.911	0.0164090
772.989	0.0164394
773.067	0.0166110
773.146	0.0165147
773.224	0.0165334
773.302	0.0165208
773.380	0.0167331
773.458	0.0166109
773.536	0.0166241
773.614	0.0165583
773.692	0.0168555
773.771	0.0168073
773.849	0.0168250
773.927	0.0168366
774.005	0.0168755
774.083	0.0168115
774.161	0.0168032
774.239	0.0169374
774.317	0.0169183
774.396	0.0169086
774.474	0.0167710
774.552	0.0167557
774.630	0.0167723
774.708	0.0167273
774.786	0.0166543
774.864	0.0165939
774.942	0.0164581
775.021	0.0163871
775.099	0.0162811
775.177	0.0162768
775.255	0.0161184
775.333	0.0159669
775.411	0.0161372
775.489	0.0159897
775.567	0.0158477
775.646	0.0159396
775.724	0.0159388
775.802	0.0158739
775.880	0.0160603
775.958	0.0160124
776.036	0.0159842
776.114	0.0160558
776.192	0.0161935
776.271	0.0159405
776.349	0.0161302
776.427	0.0161876
776.505	0.0161081
776.583	0.0162701
776.661	0.0164149
776.739	0.0164939
776.817	0.0164764
776.896	0.0165154
776.974	0.0166362
777.052	0.0168898
777.130	0.0169479
777.208	0.0168204
777.286	0.0170414
777.364	0.0170485
777.442	0.0170667
777.521	0.0170320
777.599	0.0171126
777.677	0.0171120
777.755	0.0169182
777.833	0.0170121
777.911	0.0170106
777.989	0.0170577
778.067	0.0169672
778.146	0.0168803
778.224	0.0166739
778.302	0.0167116
778.380	0.0164337
778.458	0.0164828
778.536	0.0163110
778.614	0.0162989
778.692	0.0160491
778.771	0.0159762
778.849	0.0160452
778.927	0.0158644
779.005	0.0156611
779.083	0.0158868
779.161	0.0158744
779.239	0.0159164
779.317	0.0159460
779.396	0.0159850
779.474	0.0160076
779.552	0.0160404
779.630	0.0161237
779.708	0.0163017
779.786	0.0164133
779.864	0.0164614
779.942	0.0165153
780.021	0.0164611
780.099	0.0165254
780.177	0.0166124
780.255	0.0165933
780.333	0.0167048
780.411	0.0166927
780.489	0.0167667
780.567	0.0166839
780.646	0.0167757
780.724	0.0167159
780.802	0.0167345
780.880	0.0166475
780.958	0.0165362
781.036	0.0166261
781.114	0.0166373
781.192	0.0166218
781.271	0.0164873
781.349	0.0164622
781.427	0.0163853
781.505	0.0162121
781.583	0.0163363
781.661	0.0162925
781.739	0.0162577
781.817	0.0162096
781.896	0.0162005
781.974	0.0163522
782.052	0.0161417
782.130	0.0162618
782.208	0.0163362
782.286	0.0163566
782.364	0.0164175
782.442	0.0165047
782.521	0.0164829
782.599	0.0164919
782.677	0.0166531
782.755	0.0166565
782.833	0.0167670
782.911	0.0169238
782.989	0.0167458
783.067	0.0169225
783.146	0.0167914
783.224	0.0168484
783.302	0.0169060
783.380	0.0168773
783.458	0.0167316
783.536	0.0167348
783.614	0.0167626
783.692	0.0167217
783.771	0.0167486
783.849	0.0166566
783.927	0.0164974
784.005	0.0163826
784.083	0.0163865
784.161	0.0162740
784.239	0.0162652
784.317	0.0161036
784.396	0.0160944
784.474	0.0161412
784.552	0.0161604
784.630	0.0159294
784.708	0.0161574
784.786	0.0161774
784.864	0.0160368
784.942	0.0159144
785.021	0.0159406
785.099	0.0159637
785.177	0.0161751
785.255	0.0161075
785.333	0.0161186
785.411	0.0162215
785.489	0.0163274
785.567	0.0163890
785.646	0.0164239
785.724	0.0163652
785.802	0.0165742
785.880	0.0166791
785.958	0.0167197
786.036	0.0167973
786.114	0.0168596
786.192	0.0169535
786.271	0.0170129
786.349	0.0170235
786.427	0.0171572
786.505	0.0172087
786.583	0.0171005
786.661	0.0171034
786.739	0.0169637
786.817	0.0168331
786.896	0.0169397
786.974	0.0167411
787.052	0.0165499
787.130	0.0165633
787.208	0.0163394
787.286	0.0164143
787.364	0.0161785
787.442	0.0161140
787.521	0.0159111
787.599	0.0160841
787.677	0.0158570
787.755	0.0158464
787.833	0.0158758
787.911	0.0158075
787.989	0.0157644
788.067	0.0159227
788.146	0.0158666
788.224	0.0158708
788.302	0.0159521
788.380	0.0159800
788.458	0.0161047
788.536	0.0161453
788.614	0.0165424
788.692	0.0165213
788.771	0.0164333
788.849	0.0165868
788.927	0.0168146
789.005	0.0167685
789.083	0.0168776
789.161	0.0169208
789.239	0.0169051
789.317	0.0170815
789.396	0.0170393
789.474	0.0170978
789.552	0.0171447
789.630	0.0171799
789.708	0.0170000
789.786	0.0169839
789.864	0.0168962
789.942	0.0168636
790.021	0.0169063
790.099	0.0167766
790.177	0.0167953
790.255	0.0164537
790.333	0.0166558
790.411	0.0165248
790.489	0.0163940
790.567	0.0164516
790.646	0.0164248
790.724	0.0163676
790.802	0.0161990
790.880	0.0162419
790.958	0.0163198
791.036	0.0163339
791.114	0.0161984
791.192	0.0162440
791.271	0.0162609
791.349	0.0163188
791.427	0.0163838
791.505	0.0164841
791.583	0.0164624
791.661	0.0164503
791.739	0.0165285
791.817	0.0165261
791.896	0.0166415
791.974	0.0166155
792.052	0.0167952
792.130	0.0166470
792.208	0.0167066
792.286	0.0167439
792.364	0.0166851
792.442	0.0165962
792.521	0.0165192
792.599	0.0166513
792.677	0.0163201
792.755	0.0162418
792.833	0.0163956
792.911	0.0162959
792.989	0.0163388
793.067	0.0162995
793.146	0.0164035
793.224	0.0162736
793.302	0.0163264
793.380	0.0161945
793.458	0.0161878
793.536	0.0161994
793.614	0.0162083
793.692	0.0162363
793.771	0.0162946
793.849	0.0162164
793.927	0.0161985
794.005	0.0162859
794.083	0.0163476
794.161	0.0163197
794.239	0.0163267
794.317	0.0164787
794.396	0.0165137
794.474	0.0165590
794.552	0.0167723
794.630	0.0166931
794.708	0.0167358
794.786	0.0168304
794.864	0.0167864
794.942	0.0170284
795.021	0.0169592
795.099	0.0169865
795.177	0.0169188
795.255	0.0169281
795.333	0.0170878
795.411	0.0168613
795.489	0.0168326
795.567	0.0169790
795.646	0.0170649
795.724	0.0169650
795.802	0.0168016
795.880	0.0169078
795.958	0.0168246
796.036	0.0167057
796.114	0.0166385
796.192	0.0165415
796.271	0.0164148
796.349	0.0164091
796.427	0.0163439
796.505	0.0161675
796.583	0.0160293
796.661	0.0161058
796.739	0.0160466
796.817	0.0160484
796.896	0.0159932
796.974	0.0160852
797.052	0.0161044
797.130	0.0161626
797.208	0.0161504
797.286	0.0163024
797.364	0.0163049
797.442	0.0163098
797.521	0.0163321
797.599	0.0164485
797.677	0.0164574
797.755	0.0166384
797.833	0.0165968
797.911	0.0166109
797.989	0.0166433
798.067	0.0168130
798.146	0.0167233
798.224	0.0167236
798.302	0.0166786
798.380	0.0167887
798.458	0.0167993
798.536	0.0167310
798.614	0.0168674
798.692	0.0167046
798.771	0.0166370
798.849	0.0168207
798.927	0.0166121
799.005	0.0166520
799.083	0.0166943
799.161	0.0165977
799.239	0.0166866
799.317	0.0164423
799.396	0.0164718
799.474	0.0165003
799.552	0.0165266
799.630	0.0164834
799.708	0.0164994
799.786	0.0165842
799.864	0.0166159
799.942	0.0163876
800.021	0.0164642
800.099	0.0164257
800.177	0.0164558
800.255	0.0164993
800.333	0.0164061
800.411	0.0164797
800.489	0.0162514
800.567	0.0165048
800.646	0.0165209
800.724	0.0163793
800.802	0.0163052
800.880	0.0161556
800.958	0.0161947
801.036	0.0160798
801.114	0.0161951
801.192	0.0159025
801.271	0.0160591
801.349	0.0160326
801.427	0.0160484
801.505	0.0161303
801.583	0.0161427
801.661	0.0162872
801.739	0.0162090
801.817	0.0162272
801.896	0.0162424
801.974	0.0163122
802.052	0.0165504
802.130	0.0163889
802.208	0.0164069
802.286	0.0165926
802.364	0.0165721
802.442	0.0167297
802.521	0.0167321
802.599	0.0169009
802.677	0.0168729
802.755	0.0169168
802.833	0.0171813
802.911	0.0172401
802.989	0.0173244
803.067	0.0172690
803.146	0.0172299
803.224	0.0172292
803.302	0.0172675
803.380	0.0172635
803.458	0.0171389
803.536	0.0169056
803.614	0.0169472
803.692	0.0167719
803.771	0.0167690
803.849	0.0166925
803.927	0.0164977
804.005	0.0163900
804.083	0.0162930
804.161	0.0162217
804.239	0.0161437
804.317	0.0160365
804.396	0.0160462
804.474	0.0160674
804.552	0.0158666
804.630	0.0161063
804.708	0.0157893
804.786	0.0158350
804.864	0.0157184
804.942	0.0158515
805.021	0.0158086
805.099	0.0159086
805.177	0.0158440
805.255	0.0158454
805.333	0.0158051
805.411	0.0158042
805.489	0.0158185
805.567	0.0158732
805.646	0.0159519
805.724	0.0159671
805.802	0.0161091
805.880	0.0161193
805.958	0.0162619
806.036	0.0162698
806.114	0.0165157
806.192	0.0164770
806.271	0.0167336
806.349	0.0167669
806.427	0.0167717
806.505	0.0169500
806.583	0.0170429
806.661	0.0172772
806.739	0.0172964
806.817	0.0172677
806.896	0.0173994
806.974	0.0174847
807.052	0.0175327
807.130	0.0175104
807.208	0.0174844
807.286	0.0172620
807.364	0.0170771
807.442	0.0172000
807.521	0.0169970
807.599	0.0167196
807.677	0.0166328
807.755	0.0166163
807.833	0.0164886
807.911	0.0163200
807.989	0.0160975
808.067	0.0160544
808.146	0.0158975
808.224	0.0158689
808.302	0.0158258
808.380	0.0156595
808.458	0.0155971
808.536	0.0156042
808.614	0.0153558
808.692	0.0153949
808.771	0.0155339
808.849	0.0154745
808.927	0.0155255
809.005	0.0155807
809.083	0.0155828
809.161	0.0157585
809.239	0.0158012
809.317	0.0158942
809.396	0.0159100
809.474	0.0160744
809.552	0.0162228
809.630	0.0162653
809.708	0.0165144
809.786	0.0166232
809.864	0.0166868
809.942	0.0167721
810.021	0.0170049
810.099	0.0170974
810.177	0.0169550
810.255	0.0170242
810.333	0.0172345
810.411	0.0171293
810.489	0.0171988
810.567	0.0173401
810.646	0.0172698
810.724	0.0172089
810.802	0.0171803
810.880	0.0169617
810.958	0.0170086
811.036	0.0168573
811.114	0.0168385
811.192	0.0167919
811.271	0.0167162
811.349	0.0166327
811.427	0.0165867
811.505	0.0163835
811.583	0.0161344
811.661	0.0161510
811.739	0.0160246
811.817	0.0159584
811.896	0.0159071
811.974	0.0158542
812.052	0.0159415
812.130	0.0157514
812.208	0.0157391
812.286	0.0158584
812.364	0.0159864
812.442	0.0160177
812.521	0.0162293
812.599	0.0161380
812.677	0.0162756
812.755	0.0164474
812.833	0.0166195
812.911	0.0167461
812.989	0.0167915
813.067	0.0168958
813.146	0.0170222
813.224	0.0169308
813.302	0.0170617
813.380	0.0170606
813.458	0.0169747
813.536	0.0171262
813.614	0.0170755
813.692	0.0170049
813.771	0.0169948
813.849	0.0170857
813.927	0.0169637
814.005	0.0168771
814.083	0.0168548
814.161	0.0166983
814.239	0.0166648
814.317	0.0167319
814.396	0.0165701
814.474	0.0165121
814.552	0.0164355
814.630	0.0163175
814.708	0.0162501
814.786	0.0161027
814.864	0.0161292
814.942	0.0161661
815.021	0.0162600
815.099	0.0161300
815.177	0.0161681
815.255	0.0161195
815.333	0.0159207
815.411	0.0160773
815.489	0.0161935
815.567	0.0160795
815.646	0.0161427
815.724	0.0161842
815.802	0.0160189
815.880	0.0161396
815.958	0.0160828
816.036	0.0162328
816.114	0.0163017
816.192	0.0163869
816.271	0.0163557
816.349	0.0164749
816.427	0.0163730
816.505	0.0165304
816.583	0.0164957
816.661	0.0164330
816.739	0.0167529
816.817	0.0167586
816.896	0.0167030
816.974	0.0166109
817.052	0.0166228
817.130	0.0166284
817.208	0.0165408
817.286	0.0166814
817.364	0.0167183
817.442	0.0167381
817.521	0.0166788
817.599	0.0165578
817.677	0.0166167
817.755	0.0166502
817.833	0.0165794
817.911	0.0165489
817.989	0.0166113
818.067	0.0165770
818.146	0.0166700
818.224	0.0165936
818.302	0.0166193
818.380	0.0166975
818.458	0.0167792
818.536	0.0166541
818.614	0.0167689
818.692	0.0169078
818.771	0.0168094
818.849	0.0168862
818.927	0.0168728
819.005	0.0167682
819.083	0.0167404
819.161	0.0168111
819.239	0.0167737
819.317	0.0167413
819.396	0.0167353
819.474	0.0166434
819.552	0.0166595
819.630	0.0164454
819.708	0.0166536
819.786	0.0164973
819.864	0.0163825
819.942	0.0164098
820.021	0.0163900
820.099	0.0164130
820.177	0.0163033
820.255	0.0161950
820.333	0.0163252
820.411	0.0163284
820.489	0.0163271
820.567	0.0162876
820.646	0.0162679
820.724	0.0161510
820.802	0.0161637
820.880	0.0161697
820.958	0.0160892
821.036	0.0162385
821.114	0.0162026
821.192	0.0161040
821.271	0.0161040
821.349	0.0161009
821.427	0.0162099
821.505	0.0162155
821.583	0.0161683
821.661	0.0164145
821.739	0.0163383
821.817	0.0163460
821.896	0.0163271
821.974	0.0164924
822.052	0.0167727
822.130	0.0165791
822.208	0.0166656
822.286	0.0167668
822.364	0.0167645
822.442	0.0167576
822.521	0.0167427
822.599	0.0168074
822.677	0.0166508
822.755	0.0165868
822.833	0.0166953
822.911	0.0166378
822.989	0.0166420
823.067	0.0167851
823.146	0.0167617
823.224	0.0167057
823.302	0.0167408
823.380	0.0167492
823.458	0.0166890
823.536	0.0165408
823.614	0.0165987
823.692	0.0167407
823.771	0.0165562
823.849	0.0166628
823.927	0.0165327
824.005	0.0167341
824.083	0.0166400
824.161	0.0165135
824.239	0.0165701
824.317	0.0167052
824.396	0.0165807
824.474	0.0166817
824.552	0.0165901
824.630	0.0165485
824.708	0.0165204
824.786	0.0165543
824.864	0.0164553
824.942	0.0163831
825.021	0.0164223
825.099	0.0164207
825.177	0.0164816
825.255	0.0163887
825.333	0.0163620
825.411	0.0164067
825.489	0.0162446
825.567	0.0163151
825.646	0.0162830
825.724	0.0163967
825.802	0.0164408
825.880	0.0163791
825.958	0.0164220
826.036	0.0164661
826.114	0.0163393
826.192	0.0164099
826.271	0.0164632
826.349	0.0164229
826.427	0.0164648
826.505	0.0164425
826.583	0.0162714
826.661	0.0164333
826.739	0.0164066
826.817	0.0164502
826.896	0.0163815
826.974	0.0163121
827.052	0.0163605
827.130	0.0163186
827.208	0.0164024
827.286	0.0163144
827.364	0.0162904
827.442	0.0163994
827.521	0.0163634
827.599	0.0164957
827.677	0.0165386
827.755	0.0164890
827.833	0.0164862
827.911	0.0167142
827.989	0.0166616
828.067	0.0166237
828.146	0.0167453
828.224	0.0166756
828.302	0.0166031
828.380	0.0167500
828.458	0.0168169
828.536	0.0167175
828.614	0.0167485
828.692	0.0165892
828.771	0.0167065
828.849	0.0165786
828.927	0.0166227
829.005	0.0165506
829.083	0.0164299
829.161	0.0165812
829.239	0.0165508
829.317	0.0165327
829.396	0.0164642
829.474	0.0165662
829.552	0.0166433
829.630	0.0165452
829.708	0.0165681
829.786	0.0165749
829.864	0.0164932
829.942	0.0164024
830.021	0.0165141
830.099	0.0165023
830.177	0.0165440
830.255	0.0164262
830.333	0.0164702
830.411	0.0164939
830.489	0.0165633
830.567	0.0163774
830.646	0.0163071
830.724	0.0164131
830.802	0.0162859
830.880	0.0161033
830.958	0.0161730
831.036	0.0161962
831.114	0.0161921
831.192	0.0162048
831.271	0.0160620
831.349	0.0162090
831.427	0.0162858
831.505	0.0162541
831.583	0.0162046
831.661	0.0163788
831.739	0.0164096
831.817	0.0164763
831.896	0.0165651
831.974	0.0164923
832.052	0.0164959
832.130	0.0167023
832.208	0.0167769
832.286	0.0168794
832.364	0.0166691
832.442	0.0166899
832.521	0.0167790
832.599	0.0169361
832.677	0.0168057
832.755	0.0167972
832.833	0.0169752
832.911	0.0168523
832.989	0.0166462
833.067	0.0169238
833.146	0.0167727
833.224	0.0167278
833.302	0.0165707
833.380	0.0166793
833.458	0.0166697
833.536	0.0166053
833.614	0.0165411
833.692	0.0163911
833.771	0.0165060
833.849	0.0165391
833.927	0.0163490
834.005	0.0165940
834.083	0.0164635
834.161	0.0165784
834.239	0.0164868
834.317	0.0165377
834.396	0.0164816
834.474	0.0165556
834.552	0.0165875
834.630	0.0166305
834.708	0.0165858
834.786	0.0165635
834.864	0.0165487
834.942	0.0163828
835.021	0.0164439
835.099	0.0165294
835.177	0.0163821
835.255	0.0163964
835.333	0.0163747
835.411	0.0163602
835.489	0.0163474
835.567	0.0162705
835.646	0.0163498
835.724	0.0164724
835.802	0.0165020
835.880	0.0163819
835.958	0.0164384
836.036	0.0163784
836.114	0.0163575
836.192	0.0165601
836.271	0.0164484
836.349	0.0166454
836.427	0.0166338
836.505	0.0166212
836.583	0.0165092
836.661	0.0166088
836.739	0.0166249
836.817	0.0166038
836.896	0.0166700
836.974	0.0165285
837.052	0.0166624
837.130	0.0165945
837.208	0.0166542
837.286	0.0166205
837.364	0.0166544
837.442	0.0165248
837.521	0.0166768
837.599	0.0166663
837.677	0.0165564
837.755	0.0166170
837.833	0.0165854
837.911	0.0165480
837.989	0.0165908
838.067	0.0165952
838.146	0.0165832
838.224	0.0166161
838.302	0.0164420
838.380	0.0164898
838.458	0.0165418
838.536	0.0164832
838.614	0.0165730
838.692	0.0164845
838.771	0.0166724
838.849	0.0166119
838.927	0.0166100
839.005	0.0165844
839.083	0.0166505
839.161	0.0167464
839.239	0.0166967
839.317	0.0168203
839.396	0.0167692
839.474	0.0168076
839.552	0.0167322
839.630	0.0167081
839.708	0.0166460
839.786	0.0164980
839.864	0.0166013
839.942	0.0165031
840.021	0.0165834
840.099	0.0165617
840.177	0.0165688
840.255	0.0165280
840.333	0.0164384
840.411	0.0166565
840.489	0.0165009
840.567	0.0163931
840.646	0.0164172
840.724	0.0164677
840.802	0.0164832
840.880	0.0165193
840.958	0.0165897
841.036	0.0164744
841.114	0.0163752
841.192	0.0164034
841.271	0.0164894
841.349	0.0164979
841.427	0.0164356
841.505	0.0165158
841.583	0.0164676
841.661	0.0163755
841.739	0.0164908
841.817	0.0166177
841.896	0.0164230
841.974	0.0164752
842.052	0.0164399
842.130	0.0164546
842.208	0.0163787
842.286	0.0165436
842.364	0.0164512
842.442	0.0164664
842.521	0.0164627
842.599	0.0165902
842.677	0.0164709
842.755	0.0166087
842.833	0.0165880
842.911	0.0165340
842.989	0.0165984
843.067	0.0165179
843.146	0.0167155
843.224	0.0166355
843.302	0.0167455
843.380	0.0167883
843.458	0.0168305
843.536	0.0168901
843.614	0.0168067
843.692	0.0167548
843.771	0.0167973
843.849	0.0167779
843.927	0.0166851
844.005	0.0168268
844.083	0.0166908
844.161	0.0167841
844.239	0.0166542
844.317	0.0166409
844.396	0.0165586
844.474	0.0166923
844.552	0.0165545
844.630	0.0164776
844.708	0.0164078
844.786	0.0164880
844.864	0.0165495
844.942	0.0165075
845.021	0.0164000
845.099	0.0163329
845.177	0.0164523
845.255	0.0164390
845.333	0.0164263
845.411	0.0163964
845.489	0.0164661
845.567	0.0164788
845.646	0.0163167
845.724	0.0164854
845.802	0.0165237
845.880	0.0165171
845.958	0.0165910
846.036	0.0165086
846.114	0.0167064
846.192	0.0164361
846.271	0.0164486
846.349	0.0165762
846.427	0.0163267
846.505	0.0164272
846.583	0.0165746
846.661	0.0164700
846.739	0.0165243
846.817	0.0165813
846.896	0.0165272
846.974	0.0165156
847.052	0.0164011
847.130	0.0164190
847.208	0.0164231
847.286	0.0164519
847.364	0.0164444
847.442	0.0166069
847.521	0.0165302
847.599	0.0163479
847.677	0.0163675
847.755	0.0164009
847.833	0.0162641
847.911	0.0163338
847.989	0.0164333
848.067	0.0164954
848.146	0.0164689
848.224	0.0162979
848.302	0.0164794
848.380	0.0166021
848.458	0.0165981
848.536	0.0164876
848.614	0.0165663
848.692	0.0165443
848.771	0.0165665
848.849	0.0165010
848.927	0.0164465
849.005	0.0165713
849.083	0.0166492
849.161	0.0164802
849.239	0.0165624
849.317	0.0164864
849.396	0.0166064
849.474	0.0165936
849.552	0.0164589
849.630	0.0166504
849.708	0.0165722
849.786	0.0166589
849.864	0.0166801
849.942	0.0165930
850.021	0.0166241
850.099	0.0166525
850.177	0.0166481
850.255	0.0167220
850.333	0.0165672
850.411	0.0166889
850.489	0.0165091
850.567	0.0164482
850.646	0.0166990
850.724	0.0165539
850.802	0.0163994
850.880	0.0164494
850.958	0.0164018
851.036	0.0164935
851.114	0.0163119
851.192	0.0162817
851.271	0.0162662
851.349	0.0162718
851.427	0.0162486
851.505	0.0161778
851.583	0.0162564
851.661	0.0162103
851.739	0.0162054
851.817	0.0161716
851.896	0.0162362
851.974	0.0162646
852.052	0.0163277
852.130	0.0162975
852.208	0.0165032
852.286	0.0164476
852.364	0.0166172
852.442	0.0165623
852.521	0.0165205
852.599	0.0166671
852.677	0.0166009
852.755	0.0165483
852.833	0.0166614
852.911	0.0167352
852.989	0.0166042
853.067	0.0166075
853.146	0.0167259
853.224	0.0167270
853.302	0.0167075
853.380	0.0167902
853.458	0.0166267
853.536	0.0165408
853.614	0.0168050
853.692	0.0166434
853.771	0.0166959
853.849	0.0165904
853.927	0.0163881
854.005	0.0165148
854.083	0.0165375
854.161	0.0163541
854.239	0.0164535
854.317	0.0164099
854.396	0.0162567
854.474	0.0163239
854.552	0.0164127
854.630	0.0162534
854.708	0.0163310
854.786	0.0162948
854.864	0.0162788
854.942	0.0161727
855.021	0.0162229
855.099	0.0163245
855.177	0.0162356
855.255	0.0162949
855.333	0.0163293
855.411	0.0164583
855.489	0.0164857
855.567	0.0165233
855.646	0.0165965
855.724	0.0165269
855.802	0.0165916
855.880	0.0166842
855.958	0.0165482
856.036	0.0166248
856.114	0.0168706
856.192	0.0166212
856.271	0.0165991
856.349	0.0165859
856.427	0.0167065
856.505	0.0166885
856.583	0.0165972
856.661	0.0165595
856.739	0.0164758
856.817	0.0165469
856.896	0.0165169
856.974	0.0165601
857.052	0.0165724
857.130	0.0164449
857.208	0.0166050
857.286	0.0164190
857.364	0.0165946
857.442	0.0164606
857.521	0.0163171
857.599	0.0163200
857.677	0.0165456
857.755	0.0163465
857.833	0.0163210
857.911	0.0163000
857.989	0.0163862
858.067	0.0163782
858.146	0.0163780
858.224	0.0162733
858.302	0.0162652
858.380	0.0163290
858.458	0.0162979
858.536	0.0163152
858.614	0.0163169
858.692	0.0163605
858.771	0.0163323
858.849	0.0164469
858.927	0.0165343
859.005	0.0163847
859.083	0.0165173
859.161	0.0165856
859.239	0.0165973
859.317	0.0166051
859.396	0.0165781
859.474	0.0167158
859.552	0.0166478
859.630	0.0167901
859.708	0.0168298
859.786	0.0167919
859.864	0.0168283
859.942	0.0167679
860.021	0.0167513
860.099	0.0167273
860.177	0.0165997
860.255	0.0168265
860.333	0.0167412
860.411	0.0167088
860.489	0.0166354
860.567	0.0167094
860.646	0.0165675
860.724	0.0164753
860.802	0.0165681
860.880	0.0165032
860.958	0.0164033
861.036	0.0162905
861.114	0.0163099
861.192	0.0163507
861.271	0.0164566
861.349	0.0163982
861.427	0.0165224
861.505	0.0164774
861.583	0.0164601
861.661	0.0164150
861.739	0.0164266
861.817	0.0165440
861.896	0.0165246
861.974	0.0165230
862.052	0.0164494
862.130	0.0165012
862.208	0.0165314
862.286	0.0164677
862.364	0.0165932
862.442	0.0165744
862.521	0.0167101
862.599	0.0165826
862.677	0.0165379
862.755	0.0164403
862.833	0.0167490
862.911	0.0165451
862.989	0.0165463
863.067	0.0166178
863.146	0.0166453
863.224	0.0165722
863.302	0.0164433
863.380	0.0164812
863.458	0.0166267
863.536	0.0165424
863.614	0.0165670
863.692	0.0165618
863.771	0.0165160
863.849	0.0165338
863.927	0.0165177
864.005	0.0166160
864.083	0.0165925
864.161	0.0166253
864.239	0.0165295
864.317	0.0165130
864.396	0.0164502
864.474	0.0163793
864.552	0.0165469
864.630	0.0166186
864.708	0.0165261
864.786	0.0164537
864.864	0.0163929
864.942	0.0165910
865.021	0.0163842
865.099	0.0164163
865.177	0.0164356
865.255	0.0163942
865.333	0.0164864
865.411	0.0164491
865.489	0.0163932
865.567	0.0164534
865.646	0.0164566
865.724	0.0164600
865.802	0.0162902
865.880	0.0164336
865.958	0.0165206
866.036	0.0166046
866.114	0.0165459
866.192	0.0164914
866.271	0.0166518
866.349	0.0167064
866.427	0.0166165
866.505	0.0166241
866.583	0.0166895
866.661	0.0165698
866.739	0.0166362
866.817	0.0165603
866.896	0.0167033
866.974	0.0167232
867.052	0.0166432
867.130	0.0166831
867.208	0.0165735
867.286	0.0166163
867.364	0.0165504
867.442	0.0165198
867.521	0.0166035
867.599	0.0163563
867.677	0.0164828
867.755	0.0164714
867.833	0.0165027
867.911	0.0164951
867.989	0.0162405
868.067	0.0163439
868.146	0.0162155
868.224	0.0164385
868.302	0.0163425
868.380	0.0163902
868.458	0.0164148
868.536	0.0163683
868.614	0.0163331
868.692	0.0164726
868.771	0.0163760
868.849	0.0164078
868.927	0.0165065
869.005	0.0164072
869.083	0.0163258
869.161	0.0164720
869.239	0.0164719
869.317	0.0163539
869.396	0.0163889
869.474	0.0163762
869.552	0.0162424
869.630	0.0163150
869.708	0.0163966
869.786	0.0164083
869.864	0.0162518
869.942	0.0164553
