06/03/2022	15:32:51	Ver.	4.1	UNKNOWN
Optical Delay	550.020508	Delta X		0.078125	Sweeps	1	Scan Rate	0/0
Coordinates	Axis 1	NaN	Axis 2	NaN	Axis 3	NaN	Axis 4	NaN	Axis 5	NaN	Axis 6	0.000000
TX Power	0.000000	RX Power	0.000000

550.021	0.0160896
550.099	0.0161296
550.177	0.0161855
550.255	0.0159793
550.333	0.0161919
550.411	0.0161692
550.489	0.0160382
550.567	0.0160676
550.646	0.0160502
550.724	0.0160905
550.802	0.0160511
550.880	0.0160362
550.958	0.0160035
551.036	0.0161096
551.114	0.0161715
551.192	0.0160973
551.271	0.0161232
551.349	0.0161272
551.427	0.0160896
551.505	0.0161025
551.583	0.0161274
551.661	0.0162106
551.739	0.0161264
551.817	0.0160448
551.896	0.0160355
551.974	0.0161400
552.052	0.0161308
552.130	0.0161571
552.208	0.0162029
552.286	0.0159660
552.364	0.0160054
552.442	0.0161417
552.521	0.0161584
552.599	0.0161135
552.677	0.0161371
552.755	0.0160134
552.833	0.0160439
552.911	0.0162209
552.989	0.0160640
553.067	0.0160036
553.146	0.0160634
553.224	0.0160593
553.302	0.0161456
553.380	0.0160528
553.458	0.0162502
553.536	0.0160474
553.614	0.0161087
553.692	0.0160153
553.771	0.0160767
553.849	0.0161489
553.927	0.0160448
554.005	0.0160199
554.083	0.0160973
554.161	0.0161479
554.239	0.0161405
554.317	0.0159620
554.396	0.0160061
554.474	0.0160381
554.552	0.0161060
554.630	0.0161506
554.708	0.0160900
554.786	0.0161015
554.864	0.0161069
554.942	0.0160722
555.021	0.0161292
555.099	0.0158850
555.177	0.0160085
555.255	0.0161186
555.333	0.0160472
555.411	0.0161076
555.489	0.0160400
555.567	0.0161156
555.646	0.0160435
555.724	0.0161008
555.802	0.0161371
555.880	0.0160439
555.958	0.0161045
556.036	0.0160670
556.114	0.0160695
556.192	0.0160303
556.271	0.0160702
556.349	0.0161058
556.427	0.0160237
556.505	0.0160999
556.583	0.0161058
556.661	0.0160907
556.739	0.0160401
556.817	0.0159528
556.896	0.0159827
556.974	0.0161938
557.052	0.0160969
557.130	0.0159818
557.208	0.0160760
557.286	0.0160856
557.364	0.0160470
557.442	0.0160329
557.521	0.0159862
557.599	0.0161277
557.677	0.0160958
557.755	0.0159904
557.833	0.0161859
557.911	0.0159715
557.989	0.0161392
558.067	0.0161054
558.146	0.0160739
558.224	0.0160421
558.302	0.0162098
558.380	0.0160761
558.458	0.0161440
558.536	0.0160545
558.614	0.0162112
558.692	0.0161282
558.771	0.0161229
558.849	0.0161201
558.927	0.0160818
559.005	0.0159946
559.083	0.0161279
559.161	0.0161047
559.239	0.0159568
559.317	0.0160716
559.396	0.0160322
559.474	0.0159377
559.552	0.0159584
559.630	0.0160921
559.708	0.0161108
559.786	0.0159296
559.864	0.0158790
559.942	0.0160662
560.021	0.0161022
560.099	0.0161941
560.177	0.0161564
560.255	0.0159308
560.333	0.0160326
560.411	0.0161095
560.489	0.0160694
560.567	0.0159688
560.646	0.0160008
560.724	0.0161137
560.802	0.0161255
560.880	0.0160520
560.958	0.0160598
561.036	0.0160429
561.114	0.0160271
561.192	0.0161382
561.271	0.0160083
561.349	0.0160966
561.427	0.0161581
561.505	0.0161041
561.583	0.0159892
561.661	0.0160529
561.739	0.0160258
561.817	0.0160827
561.896	0.0159916
561.974	0.0161786
562.052	0.0160349
562.130	0.0161007
562.208	0.0160568
562.286	0.0160860
562.364	0.0160325
562.442	0.0160520
562.521	0.0160490
562.599	0.0160448
562.677	0.0160046
562.755	0.0160570
562.833	0.0159911
562.911	0.0159970
562.989	0.0160852
563.067	0.0159909
563.146	0.0160743
563.224	0.0161845
563.302	0.0160228
563.380	0.0161224
563.458	0.0160431
563.536	0.0160780
563.614	0.0160133
563.692	0.0161156
563.771	0.0160835
563.849	0.0159794
563.927	0.0160416
564.005	0.0160051
564.083	0.0161799
564.161	0.0160725
564.239	0.0158912
564.317	0.0160561
564.396	0.0160797
564.474	0.0159729
564.552	0.0161073
564.630	0.0160792
564.708	0.0161579
564.786	0.0159218
564.864	0.0160552
564.942	0.0160717
565.021	0.0159414
565.099	0.0160947
565.177	0.0160366
565.255	0.0160741
565.333	0.0162018
565.411	0.0159066
565.489	0.0160495
565.567	0.0161303
565.646	0.0160704
565.724	0.0158995
565.802	0.0159319
565.880	0.0161768
565.958	0.0159536
566.036	0.0160023
566.114	0.0160157
566.192	0.0160513
566.271	0.0160232
566.349	0.0160987
566.427	0.0159303
566.505	0.0160672
566.583	0.0160169
566.661	0.0160567
566.739	0.0159824
566.817	0.0161745
566.896	0.0159451
566.974	0.0160027
567.052	0.0160717
567.130	0.0160497
567.208	0.0158952
567.286	0.0160128
567.364	0.0160410
567.442	0.0160265
567.521	0.0160374
567.599	0.0161406
567.677	0.0159738
567.755	0.0160130
567.833	0.0160196
567.911	0.0160480
567.989	0.0159519
568.067	0.0160273
568.146	0.0161445
568.224	0.0158610
568.302	0.0160335
568.380	0.0160338
568.458	0.0160907
568.536	0.0158707
568.614	0.0159935
568.692	0.0160113
568.771	0.0158676
568.849	0.0160804
568.927	0.0159957
569.005	0.0160589
569.083	0.0160902
569.161	0.0161751
569.239	0.0161687
569.317	0.0160603
569.396	0.0159832
569.474	0.0160875
569.552	0.0161858
569.630	0.0161182
569.708	0.0160266
569.786	0.0160473
569.864	0.0160995
569.942	0.0159336
570.021	0.0160278
570.099	0.0160382
570.177	0.0161097
570.255	0.0160497
570.333	0.0160068
570.411	0.0160734
570.489	0.0161502
570.567	0.0161034
570.646	0.0160993
570.724	0.0161131
570.802	0.0160552
570.880	0.0161098
570.958	0.0159995
571.036	0.0160077
571.114	0.0159858
571.192	0.0160416
571.271	0.0160542
571.349	0.0159551
571.427	0.0162556
571.505	0.0161284
571.583	0.0159998
571.661	0.0161534
571.739	0.0161494
571.817	0.0159476
571.896	0.0160995
571.974	0.0159694
572.052	0.0161562
572.130	0.0161713
572.208	0.0161279
572.286	0.0160979
572.364	0.0159520
572.442	0.0160728
572.521	0.0161395
572.599	0.0160118
572.677	0.0161030
572.755	0.0161538
572.833	0.0161613
572.911	0.0160793
572.989	0.0159416
573.067	0.0161448
573.146	0.0159900
573.224	0.0160145
573.302	0.0159967
573.380	0.0160793
573.458	0.0162257
573.536	0.0161397
573.614	0.0160008
573.692	0.0160934
573.771	0.0159430
573.849	0.0158694
573.927	0.0160833
574.005	0.0161669
574.083	0.0161942
574.161	0.0159894
574.239	0.0160806
574.317	0.0160789
574.396	0.0161086
574.474	0.0160185
574.552	0.0160923
574.630	0.0160715
574.708	0.0160166
574.786	0.0160036
574.864	0.0161420
574.942	0.0160949
575.021	0.0160165
575.099	0.0160348
575.177	0.0161462
575.255	0.0161839
575.333	0.0160459
575.411	0.0161333
575.489	0.0161135
575.567	0.0160324
575.646	0.0160619
575.724	0.0161972
575.802	0.0160919
575.880	0.0159951
575.958	0.0159312
576.036	0.0161680
576.114	0.0160581
576.192	0.0161172
576.271	0.0161765
576.349	0.0160395
576.427	0.0161607
576.505	0.0159563
576.583	0.0160526
576.661	0.0161516
576.739	0.0160104
576.817	0.0159716
576.896	0.0161516
576.974	0.0161100
577.052	0.0160047
577.130	0.0161872
577.208	0.0160994
577.286	0.0161587
577.364	0.0160994
577.442	0.0159916
577.521	0.0160677
577.599	0.0159555
577.677	0.0160535
577.755	0.0161068
577.833	0.0161947
577.911	0.0160691
577.989	0.0160043
578.067	0.0161941
578.146	0.0160297
578.224	0.0161151
578.302	0.0161024
578.380	0.0162618
578.458	0.0161371
578.536	0.0161084
578.614	0.0161283
578.692	0.0159556
578.771	0.0160033
578.849	0.0161337
578.927	0.0160510
579.005	0.0159655
579.083	0.0160632
579.161	0.0160294
579.239	0.0160970
579.317	0.0162479
579.396	0.0160213
579.474	0.0160516
579.552	0.0162405
579.630	0.0160962
579.708	0.0160504
579.786	0.0161231
579.864	0.0160468
579.942	0.0161496
580.021	0.0161057
580.099	0.0161068
580.177	0.0160458
580.255	0.0161476
580.333	0.0161463
580.411	0.0160117
580.489	0.0160616
580.567	0.0161741
580.646	0.0160931
580.724	0.0160519
580.802	0.0161193
580.880	0.0160170
580.958	0.0160518
581.036	0.0161626
581.114	0.0160972
581.192	0.0161314
581.271	0.0160787
581.349	0.0161675
581.427	0.0160895
581.505	0.0160556
581.583	0.0160750
581.661	0.0161404
581.739	0.0160857
581.817	0.0161135
581.896	0.0160911
581.974	0.0161446
582.052	0.0160306
582.130	0.0161038
582.208	0.0160258
582.286	0.0160949
582.364	0.0160216
582.442	0.0160715
582.521	0.0161072
582.599	0.0160877
582.677	0.0159388
582.755	0.0160120
582.833	0.0161568
582.911	0.0160630
582.989	0.0159600
583.067	0.0159521
583.146	0.0161599
583.224	0.0159546
583.302	0.0160863
583.380	0.0160744
583.458	0.0160842
583.536	0.0159290
583.614	0.0159701
583.692	0.0159431
583.771	0.0160814
583.849	0.0160258
583.927	0.0160815
584.005	0.0160352
584.083	0.0160130
584.161	0.0159895
584.239	0.0160765
584.317	0.0161642
584.396	0.0160914
584.474	0.0160507
584.552	0.0160480
584.630	0.0161610
584.708	0.0160178
584.786	0.0160768
584.864	0.0161398
584.942	0.0160418
585.021	0.0161204
585.099	0.0160583
585.177	0.0160475
585.255	0.0160207
585.333	0.0159916
585.411	0.0160602
585.489	0.0160670
585.567	0.0160410
585.646	0.0160753
585.724	0.0160672
585.802	0.0161064
585.880	0.0161217
585.958	0.0161127
586.036	0.0159782
586.114	0.0160672
586.192	0.0161588
586.271	0.0158442
586.349	0.0160611
586.427	0.0161590
586.505	0.0160381
586.583	0.0160155
586.661	0.0161107
586.739	0.0160315
586.817	0.0161378
586.896	0.0160520
586.974	0.0159398
587.052	0.0160197
587.130	0.0159518
587.208	0.0159924
587.286	0.0160699
587.364	0.0160395
587.442	0.0159856
587.521	0.0160320
587.599	0.0162033
587.677	0.0161695
587.755	0.0160388
587.833	0.0159485
587.911	0.0160225
587.989	0.0159990
588.067	0.0160970
588.146	0.0160817
588.224	0.0162606
588.302	0.0160479
588.380	0.0161586
588.458	0.0161582
588.536	0.0160210
588.614	0.0160687
588.692	0.0159425
588.771	0.0161700
588.849	0.0160892
588.927	0.0160851
589.005	0.0160487
589.083	0.0158815
589.161	0.0160744
589.239	0.0160176
589.317	0.0160474
589.396	0.0161406
589.474	0.0160238
589.552	0.0160124
589.630	0.0159505
589.708	0.0159927
589.786	0.0161500
589.864	0.0161930
589.942	0.0160870
590.021	0.0161270
590.099	0.0160047
590.177	0.0159894
590.255	0.0161246
590.333	0.0160086
590.411	0.0159721
590.489	0.0161080
590.567	0.0161123
590.646	0.0160194
590.724	0.0159435
590.802	0.0159547
590.880	0.0160415
590.958	0.0159854
591.036	0.0160694
591.114	0.0161975
591.192	0.0161595
591.271	0.0161531
591.349	0.0159895
591.427	0.0160800
591.505	0.0160890
591.583	0.0161413
591.661	0.0161623
591.739	0.0160382
591.817	0.0160420
591.896	0.0161666
591.974	0.0160890
592.052	0.0160890
592.130	0.0161305
592.208	0.0161276
592.286	0.0160861
592.364	0.0160862
592.442	0.0162239
592.521	0.0162225
592.599	0.0161094
592.677	0.0158906
592.755	0.0161028
592.833	0.0161604
592.911	0.0162131
592.989	0.0161388
593.067	0.0160091
593.146	0.0160860
593.224	0.0161821
593.302	0.0160649
593.380	0.0160434
593.458	0.0161123
593.536	0.0161768
593.614	0.0161533
593.692	0.0160708
593.771	0.0160553
593.849	0.0159744
593.927	0.0160688
594.005	0.0159249
594.083	0.0160557
594.161	0.0160714
594.239	0.0160482
594.317	0.0160983
594.396	0.0160961
594.474	0.0159914
594.552	0.0160130
594.630	0.0161517
594.708	0.0160801
594.786	0.0159762
594.864	0.0160172
594.942	0.0161210
595.021	0.0162291
595.099	0.0159766
595.177	0.0159828
595.255	0.0161042
595.333	0.0158881
595.411	0.0160080
595.489	0.0160899
595.567	0.0160034
595.646	0.0159425
595.724	0.0160646
595.802	0.0159367
595.880	0.0161364
595.958	0.0160595
596.036	0.0160098
596.114	0.0160482
596.192	0.0160378
596.271	0.0160097
596.349	0.0159451
596.427	0.0161966
596.505	0.0159351
596.583	0.0160699
596.661	0.0161654
596.739	0.0159142
596.817	0.0159190
596.896	0.0160608
596.974	0.0160600
597.052	0.0159666
597.130	0.0161077
597.208	0.0161034
597.286	0.0161512
597.364	0.0161668
597.442	0.0159895
597.521	0.0161446
597.599	0.0161942
597.677	0.0161130
597.755	0.0160213
597.833	0.0158891
597.911	0.0159951
597.989	0.0161171
598.067	0.0161134
598.146	0.0159572
598.224	0.0160772
598.302	0.0161125
598.380	0.0160062
598.458	0.0160150
598.536	0.0161552
598.614	0.0159798
598.692	0.0160036
598.771	0.0159507
598.849	0.0161064
598.927	0.0161747
599.005	0.0160101
599.083	0.0159632
599.161	0.0161538
599.239	0.0159252
599.317	0.0161771
599.396	0.0161837
599.474	0.0161491
599.552	0.0160539
599.630	0.0160617
599.708	0.0161174
599.786	0.0161079
599.864	0.0161241
599.942	0.0160889
600.021	0.0160387
600.099	0.0159512
600.177	0.0159322
600.255	0.0160646
600.333	0.0161865
600.411	0.0159993
600.489	0.0162106
600.567	0.0161945
600.646	0.0160741
600.724	0.0160011
600.802	0.0160970
600.880	0.0161983
600.958	0.0162740
601.036	0.0162636
601.114	0.0161628
601.192	0.0160517
601.271	0.0161121
601.349	0.0160928
601.427	0.0161347
601.505	0.0161948
601.583	0.0159500
601.661	0.0160950
601.739	0.0161429
601.817	0.0160794
601.896	0.0161301
601.974	0.0160681
602.052	0.0160850
602.130	0.0160486
602.208	0.0160592
602.286	0.0159577
602.364	0.0160819
602.442	0.0161011
602.521	0.0161633
602.599	0.0160968
602.677	0.0161265
602.755	0.0161829
602.833	0.0160424
602.911	0.0161595
602.989	0.0160307
603.067	0.0159514
603.146	0.0161308
603.224	0.0161308
603.302	0.0161388
603.380	0.0160692
603.458	0.0161275
603.536	0.0160308
603.614	0.0159960
603.692	0.0161201
603.771	0.0160777
603.849	0.0161694
603.927	0.0159944
604.005	0.0160335
604.083	0.0161358
604.161	0.0161274
604.239	0.0161520
604.317	0.0160271
604.396	0.0160169
604.474	0.0161012
604.552	0.0162197
604.630	0.0161098
604.708	0.0161581
604.786	0.0160996
604.864	0.0161000
604.942	0.0161272
605.021	0.0160527
605.099	0.0159595
605.177	0.0160945
605.255	0.0159932
605.333	0.0160355
605.411	0.0161251
605.489	0.0160331
605.567	0.0160638
605.646	0.0160845
605.724	0.0160451
605.802	0.0162478
605.880	0.0161123
605.958	0.0160221
606.036	0.0159799
606.114	0.0160767
606.192	0.0161943
606.271	0.0160329
606.349	0.0160023
606.427	0.0161065
606.505	0.0161662
606.583	0.0160511
606.661	0.0161162
606.739	0.0160648
606.817	0.0160822
606.896	0.0161058
606.974	0.0159554
607.052	0.0159713
607.130	0.0161398
607.208	0.0160615
607.286	0.0161357
607.364	0.0161447
607.442	0.0161492
607.521	0.0160293
607.599	0.0159777
607.677	0.0160963
607.755	0.0160519
607.833	0.0160786
607.911	0.0160012
607.989	0.0160560
608.067	0.0161733
608.146	0.0159359
608.224	0.0160722
608.302	0.0161214
608.380	0.0160413
608.458	0.0160995
608.536	0.0161302
608.614	0.0160891
608.692	0.0161516
608.771	0.0160172
608.849	0.0161017
608.927	0.0162404
609.005	0.0160479
609.083	0.0160445
609.161	0.0162096
609.239	0.0159342
609.317	0.0160455
609.396	0.0161662
609.474	0.0162170
609.552	0.0159750
609.630	0.0161208
609.708	0.0161153
609.786	0.0160760
609.864	0.0160151
609.942	0.0161535
610.021	0.0161710
610.099	0.0159319
610.177	0.0161051
610.255	0.0161759
610.333	0.0159791
610.411	0.0160353
610.489	0.0160341
610.567	0.0161568
610.646	0.0162056
610.724	0.0161480
610.802	0.0160718
610.880	0.0160777
610.958	0.0160178
611.036	0.0159771
611.114	0.0160758
611.192	0.0162412
611.271	0.0160641
611.349	0.0159734
611.427	0.0161589
611.505	0.0160419
611.583	0.0159778
611.661	0.0160807
611.739	0.0161418
611.817	0.0159693
611.896	0.0160305
611.974	0.0161803
612.052	0.0160007
612.130	0.0161119
612.208	0.0160498
612.286	0.0162074
612.364	0.0160963
612.442	0.0160281
612.521	0.0160551
612.599	0.0160600
612.677	0.0160566
612.755	0.0160134
612.833	0.0160078
612.911	0.0161645
612.989	0.0160360
613.067	0.0160334
613.146	0.0161316
613.224	0.0158961
613.302	0.0160163
613.380	0.0159651
613.458	0.0160242
613.536	0.0160784
613.614	0.0160574
613.692	0.0160677
613.771	0.0160171
613.849	0.0160914
613.927	0.0161647
614.005	0.0161423
614.083	0.0160448
614.161	0.0160442
614.239	0.0162191
614.317	0.0160965
614.396	0.0160155
614.474	0.0161225
614.552	0.0161296
614.630	0.0160207
614.708	0.0160439
614.786	0.0159822
614.864	0.0160504
614.942	0.0160294
615.021	0.0160942
615.099	0.0161008
615.177	0.0161446
615.255	0.0161167
615.333	0.0160403
615.411	0.0161459
615.489	0.0160173
615.567	0.0162038
615.646	0.0161418
615.724	0.0159959
615.802	0.0161102
615.880	0.0161710
615.958	0.0160686
616.036	0.0160266
616.114	0.0159684
616.192	0.0161692
616.271	0.0161059
616.349	0.0160307
616.427	0.0160522
616.505	0.0161158
616.583	0.0161597
616.661	0.0160698
616.739	0.0160611
616.817	0.0161292
616.896	0.0160993
616.974	0.0162637
617.052	0.0161994
617.130	0.0159869
617.208	0.0160345
617.286	0.0162287
617.364	0.0160673
617.442	0.0160622
617.521	0.0160567
617.599	0.0161492
617.677	0.0161404
617.755	0.0161422
617.833	0.0160191
617.911	0.0161302
617.989	0.0160292
618.067	0.0160423
618.146	0.0160225
618.224	0.0160070
618.302	0.0158787
618.380	0.0161370
618.458	0.0161427
618.536	0.0160648
618.614	0.0160390
618.692	0.0160242
618.771	0.0159940
618.849	0.0162004
618.927	0.0159191
619.005	0.0160539
619.083	0.0160818
619.161	0.0159034
619.239	0.0161588
619.317	0.0161661
619.396	0.0161863
619.474	0.0159801
619.552	0.0159895
619.630	0.0161025
619.708	0.0161315
619.786	0.0160668
619.864	0.0160735
619.942	0.0161301
620.021	0.0160989
620.099	0.0160319
620.177	0.0161127
620.255	0.0161463
620.333	0.0160263
620.411	0.0161488
620.489	0.0162409
620.567	0.0161010
620.646	0.0160942
620.724	0.0160788
620.802	0.0160279
620.880	0.0162056
620.958	0.0161254
621.036	0.0162281
621.114	0.0159879
621.192	0.0160251
621.271	0.0162223
621.349	0.0161846
621.427	0.0160851
621.505	0.0161264
621.583	0.0161231
621.661	0.0161924
621.739	0.0162257
621.817	0.0161150
621.896	0.0160990
621.974	0.0161111
622.052	0.0160625
622.130	0.0161179
622.208	0.0160152
622.286	0.0161115
622.364	0.0159334
622.442	0.0160659
622.521	0.0160855
622.599	0.0161369
622.677	0.0160126
622.755	0.0160589
622.833	0.0160461
622.911	0.0160576
622.989	0.0160096
623.067	0.0160764
623.146	0.0161298
623.224	0.0160474
623.302	0.0161324
623.380	0.0161655
623.458	0.0160954
623.536	0.0162044
623.614	0.0162607
623.692	0.0160818
623.771	0.0161124
623.849	0.0160675
623.927	0.0160729
624.005	0.0162295
624.083	0.0162154
624.161	0.0162089
624.239	0.0160355
624.317	0.0161260
624.396	0.0161553
624.474	0.0161292
624.552	0.0161108
624.630	0.0160728
624.708	0.0161848
624.786	0.0160255
624.864	0.0160480
624.942	0.0161055
625.021	0.0159867
625.099	0.0161545
625.177	0.0161228
625.255	0.0160674
625.333	0.0159599
625.411	0.0161015
625.489	0.0160992
625.567	0.0160094
625.646	0.0159860
625.724	0.0161894
625.802	0.0160506
625.880	0.0161293
625.958	0.0161693
626.036	0.0160995
626.114	0.0161066
626.192	0.0161366
626.271	0.0160329
626.349	0.0160976
626.427	0.0160613
626.505	0.0161377
626.583	0.0160739
626.661	0.0162228
626.739	0.0160591
626.817	0.0160831
626.896	0.0161559
626.974	0.0160148
627.052	0.0161098
627.130	0.0161306
627.208	0.0160744
627.286	0.0159906
627.364	0.0161489
627.442	0.0161627
627.521	0.0160372
627.599	0.0161707
627.677	0.0161510
627.755	0.0160770
627.833	0.0161154
627.911	0.0160661
627.989	0.0160867
628.067	0.0159664
628.146	0.0161691
628.224	0.0160327
628.302	0.0159718
628.380	0.0161678
628.458	0.0160584
628.536	0.0160394
628.614	0.0160793
628.692	0.0159937
628.771	0.0160466
628.849	0.0161294
628.927	0.0161648
629.005	0.0160286
629.083	0.0160242
629.161	0.0161869
629.239	0.0162001
629.317	0.0160554
629.396	0.0160667
629.474	0.0159381
629.552	0.0159594
629.630	0.0159958
629.708	0.0158684
629.786	0.0161170
629.864	0.0160743
629.942	0.0160613
630.021	0.0160703
630.099	0.0161988
630.177	0.0159207
630.255	0.0159413
630.333	0.0160686
630.411	0.0160374
630.489	0.0160604
630.567	0.0160385
630.646	0.0162582
630.724	0.0162231
630.802	0.0161977
630.880	0.0160691
630.958	0.0160957
631.036	0.0161343
631.114	0.0160487
631.192	0.0160881
631.271	0.0161569
631.349	0.0161664
631.427	0.0160587
631.505	0.0160907
631.583	0.0161890
631.661	0.0161536
631.739	0.0159366
631.817	0.0160591
631.896	0.0161546
631.974	0.0161317
632.052	0.0161048
632.130	0.0161505
632.208	0.0161079
632.286	0.0159342
632.364	0.0161244
632.442	0.0161524
632.521	0.0161598
632.599	0.0161150
632.677	0.0159264
632.755	0.0161250
632.833	0.0161654
632.911	0.0160172
632.989	0.0158772
633.067	0.0159712
633.146	0.0159517
633.224	0.0161090
633.302	0.0162112
633.380	0.0160738
633.458	0.0159985
633.536	0.0159917
633.614	0.0160117
633.692	0.0160145
633.771	0.0159457
633.849	0.0162101
633.927	0.0160272
634.005	0.0161697
634.083	0.0160777
634.161	0.0161330
634.239	0.0160491
634.317	0.0161495
634.396	0.0160941
634.474	0.0161139
634.552	0.0161240
634.630	0.0161694
634.708	0.0160487
634.786	0.0160400
634.864	0.0161506
634.942	0.0162358
635.021	0.0161518
635.099	0.0159972
635.177	0.0161304
635.255	0.0162009
635.333	0.0162369
635.411	0.0161301
635.489	0.0161349
635.567	0.0161475
635.646	0.0160920
635.724	0.0161745
635.802	0.0162030
635.880	0.0161729
635.958	0.0160744
636.036	0.0161237
636.114	0.0161836
636.192	0.0162365
636.271	0.0160612
636.349	0.0160730
636.427	0.0158999
636.505	0.0159517
636.583	0.0161327
636.661	0.0159932
636.739	0.0159408
636.817	0.0159708
636.896	0.0161575
636.974	0.0160529
637.052	0.0160071
637.130	0.0160199
637.208	0.0160169
637.286	0.0159258
637.364	0.0160304
637.442	0.0160047
637.521	0.0160455
637.599	0.0161156
637.677	0.0161143
637.755	0.0160834
637.833	0.0161560
637.911	0.0162188
637.989	0.0160476
638.067	0.0161829
638.146	0.0162090
638.224	0.0160485
638.302	0.0161160
638.380	0.0161303
638.458	0.0162107
638.536	0.0161297
638.614	0.0161922
638.692	0.0161238
638.771	0.0161000
638.849	0.0161091
638.927	0.0160555
639.005	0.0160866
639.083	0.0160302
639.161	0.0161304
639.239	0.0160005
639.317	0.0160816
639.396	0.0160897
639.474	0.0160999
639.552	0.0161028
639.630	0.0160545
639.708	0.0160155
639.786	0.0161029
639.864	0.0160052
639.942	0.0160335
640.021	0.0159983
640.099	0.0160846
640.177	0.0161515
640.255	0.0161314
640.333	0.0160819
640.411	0.0159886
640.489	0.0160892
640.567	0.0160363
640.646	0.0162021
640.724	0.0159161
640.802	0.0160829
640.880	0.0161823
640.958	0.0159954
641.036	0.0160413
641.114	0.0161605
641.192	0.0161423
641.271	0.0160788
641.349	0.0159776
641.427	0.0160463
641.505	0.0161438
641.583	0.0160032
641.661	0.0160753
641.739	0.0160767
641.817	0.0160549
641.896	0.0161069
641.974	0.0161305
642.052	0.0161677
642.130	0.0160744
642.208	0.0161137
642.286	0.0160945
642.364	0.0161974
642.442	0.0161337
642.521	0.0162451
642.599	0.0160814
642.677	0.0160340
642.755	0.0160783
642.833	0.0160859
642.911	0.0160165
642.989	0.0161140
643.067	0.0160745
643.146	0.0160732
643.224	0.0161878
643.302	0.0161316
643.380	0.0159991
643.458	0.0161317
643.536	0.0161103
643.614	0.0161250
643.692	0.0160677
643.771	0.0160705
643.849	0.0160719
643.927	0.0161388
644.005	0.0161384
644.083	0.0160542
644.161	0.0160298
644.239	0.0161964
644.317	0.0161295
644.396	0.0160953
644.474	0.0161653
644.552	0.0159982
644.630	0.0159621
644.708	0.0160849
644.786	0.0160396
644.864	0.0160316
644.942	0.0161612
645.021	0.0159502
645.099	0.0159184
645.177	0.0161880
645.255	0.0160500
645.333	0.0160678
645.411	0.0160039
645.489	0.0160250
645.567	0.0160609
645.646	0.0160724
645.724	0.0159809
645.802	0.0160452
645.880	0.0161157
645.958	0.0161514
646.036	0.0160789
646.114	0.0159552
646.192	0.0160522
646.271	0.0160379
646.349	0.0159468
646.427	0.0160426
646.505	0.0160153
646.583	0.0161084
646.661	0.0162005
646.739	0.0161519
646.817	0.0160970
646.896	0.0161244
646.974	0.0160046
647.052	0.0160553
647.130	0.0161286
647.208	0.0161758
647.286	0.0158997
647.364	0.0159610
647.442	0.0160403
647.521	0.0159846
647.599	0.0161082
647.677	0.0160650
647.755	0.0160637
647.833	0.0162056
647.911	0.0161337
647.989	0.0160488
648.067	0.0161736
648.146	0.0161226
648.224	0.0161765
648.302	0.0159940
648.380	0.0160549
648.458	0.0161828
648.536	0.0161564
648.614	0.0161345
648.692	0.0161351
648.771	0.0160305
648.849	0.0161644
648.927	0.0161957
649.005	0.0161258
649.083	0.0160238
649.161	0.0160224
649.239	0.0160756
649.317	0.0161878
649.396	0.0160821
649.474	0.0160369
649.552	0.0161623
649.630	0.0160874
649.708	0.0161184
649.786	0.0161832
649.864	0.0162115
649.942	0.0160174
650.021	0.0160751
650.099	0.0159872
650.177	0.0160369
650.255	0.0160954
650.333	0.0161721
650.411	0.0162053
650.489	0.0159488
650.567	0.0161594
650.646	0.0161638
650.724	0.0161590
650.802	0.0160742
650.880	0.0160162
650.958	0.0160745
651.036	0.0160586
651.114	0.0161275
651.192	0.0159716
651.271	0.0161177
651.349	0.0160159
651.427	0.0160822
651.505	0.0160297
651.583	0.0161411
651.661	0.0160291
651.739	0.0161404
651.817	0.0160071
651.896	0.0160612
651.974	0.0162474
652.052	0.0161711
652.130	0.0159682
652.208	0.0160089
652.286	0.0160077
652.364	0.0159816
652.442	0.0159900
652.521	0.0162070
652.599	0.0161288
652.677	0.0161137
652.755	0.0160942
652.833	0.0161797
652.911	0.0161806
652.989	0.0160673
653.067	0.0159458
653.146	0.0161483
653.224	0.0161958
653.302	0.0160265
653.380	0.0161855
653.458	0.0160767
653.536	0.0160078
653.614	0.0160598
653.692	0.0161356
653.771	0.0160149
653.849	0.0160632
653.927	0.0161156
654.005	0.0162097
654.083	0.0162335
654.161	0.0160212
654.239	0.0160567
654.317	0.0160483
654.396	0.0161777
654.474	0.0161338
654.552	0.0159460
654.630	0.0161383
654.708	0.0160172
654.786	0.0161928
654.864	0.0162102
654.942	0.0160190
655.021	0.0161266
655.099	0.0161313
655.177	0.0160737
655.255	0.0160483
655.333	0.0161588
655.411	0.0159898
655.489	0.0161382
655.567	0.0160038
655.646	0.0161086
655.724	0.0159949
655.802	0.0160666
655.880	0.0160075
655.958	0.0161057
656.036	0.0160394
656.114	0.0160629
656.192	0.0161517
656.271	0.0159658
656.349	0.0160612
656.427	0.0160716
656.505	0.0159838
656.583	0.0160622
656.661	0.0162110
656.739	0.0161874
656.817	0.0160494
656.896	0.0160436
656.974	0.0160649
657.052	0.0161249
657.130	0.0161295
657.208	0.0161147
657.286	0.0160233
657.364	0.0161523
657.442	0.0160000
657.521	0.0160398
657.599	0.0161309
657.677	0.0161266
657.755	0.0160374
657.833	0.0160735
657.911	0.0160944
657.989	0.0160957
658.067	0.0160696
658.146	0.0159728
658.224	0.0160070
658.302	0.0159711
658.380	0.0160968
658.458	0.0161037
658.536	0.0159212
658.614	0.0160928
658.692	0.0161579
658.771	0.0161023
658.849	0.0160867
658.927	0.0161304
659.005	0.0161954
659.083	0.0161020
659.161	0.0160497
659.239	0.0161468
659.317	0.0160228
659.396	0.0161148
659.474	0.0162666
659.552	0.0160830
659.630	0.0160107
659.708	0.0161649
659.786	0.0160932
659.864	0.0161020
659.942	0.0161362
660.021	0.0162095
660.099	0.0159970
660.177	0.0161046
660.255	0.0160741
660.333	0.0159757
660.411	0.0161944
660.489	0.0161019
660.567	0.0159487
660.646	0.0158942
660.724	0.0160227
660.802	0.0160823
660.880	0.0161391
660.958	0.0160645
661.036	0.0160970
661.114	0.0160606
661.192	0.0161340
661.271	0.0159039
661.349	0.0162128
661.427	0.0160352
661.505	0.0161263
661.583	0.0161271
661.661	0.0161298
661.739	0.0160841
661.817	0.0160751
661.896	0.0161139
661.974	0.0161722
662.052	0.0161281
662.130	0.0160879
662.208	0.0161602
662.286	0.0160836
662.364	0.0160824
662.442	0.0160772
662.521	0.0160155
662.599	0.0161554
662.677	0.0160596
662.755	0.0161047
662.833	0.0161763
662.911	0.0160870
662.989	0.0160947
663.067	0.0160631
663.146	0.0159727
663.224	0.0161984
663.302	0.0160786
663.380	0.0161115
663.458	0.0160268
663.536	0.0161492
663.614	0.0161657
663.692	0.0160677
663.771	0.0160300
663.849	0.0160447
663.927	0.0161708
664.005	0.0161369
664.083	0.0161469
664.161	0.0161909
664.239	0.0161575
664.317	0.0161177
664.396	0.0160394
664.474	0.0160635
664.552	0.0160491
664.630	0.0160866
664.708	0.0160018
664.786	0.0159612
664.864	0.0160799
664.942	0.0161707
665.021	0.0161343
665.099	0.0160571
665.177	0.0161111
665.255	0.0160994
665.333	0.0160459
665.411	0.0160651
665.489	0.0160981
665.567	0.0162105
665.646	0.0162195
665.724	0.0160648
665.802	0.0161131
665.880	0.0160042
665.958	0.0160953
666.036	0.0161697
666.114	0.0161195
666.192	0.0161247
666.271	0.0162232
666.349	0.0162273
666.427	0.0160990
666.505	0.0161684
666.583	0.0160552
666.661	0.0160882
666.739	0.0160663
666.817	0.0160801
666.896	0.0160182
666.974	0.0160588
667.052	0.0159840
667.130	0.0161133
667.208	0.0161054
667.286	0.0160310
667.364	0.0160594
667.442	0.0159392
667.521	0.0160842
667.599	0.0161421
667.677	0.0159933
667.755	0.0162083
667.833	0.0160476
667.911	0.0160264
667.989	0.0160506
668.067	0.0161204
668.146	0.0159495
668.224	0.0160341
668.302	0.0161395
668.380	0.0160596
668.458	0.0160778
668.536	0.0159981
668.614	0.0160400
668.692	0.0160825
668.771	0.0160612
668.849	0.0161475
668.927	0.0160320
669.005	0.0160172
669.083	0.0160423
669.161	0.0160857
669.239	0.0160835
669.317	0.0160996
669.396	0.0161270
669.474	0.0161649
669.552	0.0160322
669.630	0.0160166
669.708	0.0160017
669.786	0.0160874
669.864	0.0160981
669.942	0.0161391
670.021	0.0159349
670.099	0.0159780
670.177	0.0159982
670.255	0.0160726
670.333	0.0160560
670.411	0.0161322
670.489	0.0161283
670.567	0.0161674
670.646	0.0162099
670.724	0.0160626
670.802	0.0160360
670.880	0.0161391
670.958	0.0161467
671.036	0.0159692
671.114	0.0161812
671.192	0.0160174
671.271	0.0160571
671.349	0.0160647
671.427	0.0160148
671.505	0.0160065
671.583	0.0161282
671.661	0.0159874
671.739	0.0160609
671.817	0.0160135
671.896	0.0161037
671.974	0.0160441
672.052	0.0161388
672.130	0.0160044
672.208	0.0159321
672.286	0.0160781
672.364	0.0158989
672.442	0.0159944
672.521	0.0161224
672.599	0.0160856
672.677	0.0160040
672.755	0.0160060
672.833	0.0160839
672.911	0.0159203
672.989	0.0159301
673.067	0.0160725
673.146	0.0161541
673.224	0.0161742
673.302	0.0160509
673.380	0.0160252
673.458	0.0160965
673.536	0.0160581
673.614	0.0159866
673.692	0.0159609
673.771	0.0159534
673.849	0.0160094
673.927	0.0160555
674.005	0.0159449
674.083	0.0162438
674.161	0.0161379
674.239	0.0160985
674.317	0.0161056
674.396	0.0161607
674.474	0.0160849
674.552	0.0161943
674.630	0.0160488
674.708	0.0160587
674.786	0.0159864
674.864	0.0161992
674.942	0.0161038
675.021	0.0160443
675.099	0.0160571
675.177	0.0160490
675.255	0.0160981
675.333	0.0159703
675.411	0.0162186
675.489	0.0161529
675.567	0.0160442
675.646	0.0160124
675.724	0.0160373
675.802	0.0160993
675.880	0.0160846
675.958	0.0160372
676.036	0.0160583
676.114	0.0160156
676.192	0.0161819
676.271	0.0160780
676.349	0.0161086
676.427	0.0160630
676.505	0.0161527
676.583	0.0160539
676.661	0.0161691
676.739	0.0161098
676.817	0.0160792
676.896	0.0160871
676.974	0.0161774
677.052	0.0161932
677.130	0.0161987
677.208	0.0161599
677.286	0.0161297
677.364	0.0161396
677.442	0.0161734
677.521	0.0160414
677.599	0.0161597
677.677	0.0161201
677.755	0.0161103
677.833	0.0160980
677.911	0.0161026
677.989	0.0160520
678.067	0.0160415
678.146	0.0160350
678.224	0.0162577
678.302	0.0159512
678.380	0.0160834
678.458	0.0160933
678.536	0.0159937
678.614	0.0161680
678.692	0.0161025
678.771	0.0159966
678.849	0.0160722
678.927	0.0160548
679.005	0.0161257
679.083	0.0161980
679.161	0.0160760
679.239	0.0160187
679.317	0.0160513
679.396	0.0161077
679.474	0.0161902
679.552	0.0161213
679.630	0.0161882
679.708	0.0161285
679.786	0.0159627
679.864	0.0161782
679.942	0.0161549
680.021	0.0160798
680.099	0.0160051
680.177	0.0161420
680.255	0.0160024
680.333	0.0160041
680.411	0.0161504
680.489	0.0161578
680.567	0.0160873
680.646	0.0161523
680.724	0.0161290
680.802	0.0159808
680.880	0.0160574
680.958	0.0160535
681.036	0.0161423
681.114	0.0161587
681.192	0.0161165
681.271	0.0161140
681.349	0.0161517
681.427	0.0160258
681.505	0.0161286
681.583	0.0161185
681.661	0.0161134
681.739	0.0161076
681.817	0.0161726
681.896	0.0159937
681.974	0.0161131
682.052	0.0161566
682.130	0.0160770
682.208	0.0162182
682.286	0.0160831
682.364	0.0161126
682.442	0.0161138
682.521	0.0159199
682.599	0.0161473
682.677	0.0161543
682.755	0.0162057
682.833	0.0160325
682.911	0.0161533
682.989	0.0161781
683.067	0.0161006
683.146	0.0160807
683.224	0.0161047
683.302	0.0162652
683.380	0.0162528
683.458	0.0161358
683.536	0.0160699
683.614	0.0160773
683.692	0.0161789
683.771	0.0160632
683.849	0.0160646
683.927	0.0162460
684.005	0.0160744
684.083	0.0161575
684.161	0.0161133
684.239	0.0160345
684.317	0.0161501
684.396	0.0160694
684.474	0.0160041
684.552	0.0160651
684.630	0.0160362
684.708	0.0161794
684.786	0.0161095
684.864	0.0162855
684.942	0.0162101
685.021	0.0159690
685.099	0.0160926
685.177	0.0161115
685.255	0.0160814
685.333	0.0161548
685.411	0.0161707
685.489	0.0160237
685.567	0.0160213
685.646	0.0160972
685.724	0.0160416
685.802	0.0161736
685.880	0.0160633
685.958	0.0160589
686.036	0.0159951
686.114	0.0161565
686.192	0.0160800
686.271	0.0160222
686.349	0.0160284
686.427	0.0160986
686.505	0.0160854
686.583	0.0159624
686.661	0.0161077
686.739	0.0161825
686.817	0.0160524
686.896	0.0159821
686.974	0.0161726
687.052	0.0161549
687.130	0.0159748
687.208	0.0160435
687.286	0.0160285
687.364	0.0160944
687.442	0.0161214
687.521	0.0160555
687.599	0.0161162
687.677	0.0161295
687.755	0.0160963
687.833	0.0161929
687.911	0.0161186
687.989	0.0159661
688.067	0.0160804
688.146	0.0160661
688.224	0.0161101
688.302	0.0161154
688.380	0.0160423
688.458	0.0160748
688.536	0.0160531
688.614	0.0160798
688.692	0.0160555
688.771	0.0160552
688.849	0.0161781
688.927	0.0162041
689.005	0.0159464
689.083	0.0161945
689.161	0.0159744
689.239	0.0160265
689.317	0.0160119
689.396	0.0160240
689.474	0.0161287
689.552	0.0161450
689.630	0.0161185
689.708	0.0161259
689.786	0.0160785
689.864	0.0159882
689.942	0.0159760
690.021	0.0161084
690.099	0.0161684
690.177	0.0161163
690.255	0.0160070
690.333	0.0160822
690.411	0.0160254
690.489	0.0158937
690.567	0.0160232
690.646	0.0160659
690.724	0.0161063
690.802	0.0160008
690.880	0.0160408
690.958	0.0159999
691.036	0.0161636
691.114	0.0159637
691.192	0.0160130
691.271	0.0162586
691.349	0.0162415
691.427	0.0161967
691.505	0.0162440
691.583	0.0162398
691.661	0.0162767
691.739	0.0162202
691.817	0.0162061
691.896	0.0161852
691.974	0.0161897
692.052	0.0159981
692.130	0.0159521
692.208	0.0158456
692.286	0.0158669
692.364	0.0158540
692.442	0.0160226
692.521	0.0158768
692.599	0.0158792
692.677	0.0161802
692.755	0.0161594
692.833	0.0161017
692.911	0.0163022
692.989	0.0163913
693.067	0.0165839
693.146	0.0163873
693.224	0.0163901
693.302	0.0162356
693.380	0.0162421
693.458	0.0161236
693.536	0.0159055
693.614	0.0158539
693.692	0.0157173
693.771	0.0155116
693.849	0.0154665
693.927	0.0155211
694.005	0.0156277
694.083	0.0157002
694.161	0.0157803
694.239	0.0159840
694.317	0.0163307
694.396	0.0165379
694.474	0.0167171
694.552	0.0169491
694.630	0.0168578
694.708	0.0169206
694.786	0.0167002
694.864	0.0165720
694.942	0.0162559
695.021	0.0159550
695.099	0.0156574
695.177	0.0152573
695.255	0.0150626
695.333	0.0148723
695.411	0.0151318
695.489	0.0151201
695.567	0.0153270
695.646	0.0157399
695.724	0.0159785
695.802	0.0161889
695.880	0.0164397
695.958	0.0169913
696.036	0.0171606
696.114	0.0171498
696.192	0.0172361
696.271	0.0170399
696.349	0.0167204
696.427	0.0164864
696.505	0.0160076
696.583	0.0158037
696.661	0.0154079
696.739	0.0151866
696.817	0.0150391
696.896	0.0150361
696.974	0.0149395
697.052	0.0151812
697.130	0.0152077
697.208	0.0154968
697.286	0.0157880
697.364	0.0159810
697.442	0.0161964
697.521	0.0163383
697.599	0.0166057
697.677	0.0165923
697.755	0.0166600
697.833	0.0167091
697.911	0.0164641
697.989	0.0163821
698.067	0.0161096
698.146	0.0159116
698.224	0.0156801
698.302	0.0157847
698.380	0.0154757
698.458	0.0153780
698.536	0.0154761
698.614	0.0156248
698.692	0.0157641
698.771	0.0159908
698.849	0.0161528
698.927	0.0164166
699.005	0.0168038
699.083	0.0171006
699.161	0.0172450
699.239	0.0175165
699.317	0.0175870
699.396	0.0173449
699.474	0.0172821
699.552	0.0171796
699.630	0.0168200
699.708	0.0165318
699.786	0.0164014
699.864	0.0161617
699.942	0.0157719
700.021	0.0155559
700.099	0.0155764
700.177	0.0154124
700.255	0.0152963
700.333	0.0151839
700.411	0.0149883
700.489	0.0150777
700.567	0.0149286
700.646	0.0148790
700.724	0.0147456
700.802	0.0146382
700.880	0.0146193
700.958	0.0148486
701.036	0.0148792
701.114	0.0149927
701.192	0.0152489
701.271	0.0155270
701.349	0.0158213
701.427	0.0159477
701.505	0.0161892
701.583	0.0164333
701.661	0.0166855
701.739	0.0168690
701.817	0.0169839
701.896	0.0169006
701.974	0.0168908
702.052	0.0169485
702.130	0.0169392
702.208	0.0167558
702.286	0.0168761
702.364	0.0168568
702.442	0.0168535
702.521	0.0170099
702.599	0.0170858
702.677	0.0170722
702.755	0.0173096
702.833	0.0172247
702.911	0.0172924
702.989	0.0173912
703.067	0.0173017
703.146	0.0173299
703.224	0.0173917
703.302	0.0174797
703.380	0.0174112
703.458	0.0173112
703.536	0.0173145
703.614	0.0171090
703.692	0.0169917
703.771	0.0169009
703.849	0.0163208
703.927	0.0160751
704.005	0.0156966
704.083	0.0153767
704.161	0.0149038
704.239	0.0143408
704.317	0.0139101
704.396	0.0134531
704.474	0.0130289
704.552	0.0125814
704.630	0.0124011
704.708	0.0121872
704.786	0.0120183
704.864	0.0121166
704.942	0.0122242
705.021	0.0123729
705.099	0.0126765
705.177	0.0131830
705.255	0.0136596
705.333	0.0144326
705.411	0.0151862
705.489	0.0159006
705.567	0.0164943
705.646	0.0169549
705.724	0.0176353
705.802	0.0181746
705.880	0.0184948
705.958	0.0187658
706.036	0.0188396
706.114	0.0189558
706.192	0.0188403
706.271	0.0188899
706.349	0.0187389
706.427	0.0185993
706.505	0.0184441
706.583	0.0184164
706.661	0.0186076
706.739	0.0187482
706.817	0.0189161
706.896	0.0193541
706.974	0.0197900
707.052	0.0201965
707.130	0.0206651
707.208	0.0209878
707.286	0.0213259
707.364	0.0215402
707.442	0.0214776
707.521	0.0212244
707.599	0.0208575
707.677	0.0200800
707.755	0.0191528
707.833	0.0180949
707.911	0.0167951
707.989	0.0153360
708.067	0.0138287
708.146	0.0123211
708.224	0.0107420
708.302	0.00906822
708.380	0.00795158
708.458	0.00666565
708.536	0.00568039
708.614	0.00487968
708.692	0.00423164
708.771	0.00411903
708.849	0.00409813
708.927	0.00440895
709.005	0.00489868
709.083	0.00591270
709.161	0.00729721
709.239	0.00867210
709.317	0.0104444
709.396	0.0123157
709.474	0.0144438
709.552	0.0165424
709.630	0.0184345
709.708	0.0202969
709.786	0.0219544
709.864	0.0233237
709.942	0.0245079
710.021	0.0252225
710.099	0.0255822
710.177	0.0257117
710.255	0.0258245
710.333	0.0256871
710.411	0.0254475
710.489	0.0251418
710.567	0.0248145
710.646	0.0248052
710.724	0.0247325
710.802	0.0245589
710.880	0.0244789
710.958	0.0243048
711.036	0.0242032
711.114	0.0237081
711.192	0.0232803
711.271	0.0225636
711.349	0.0211964
711.427	0.0195068
711.505	0.0178719
711.583	0.0162739
711.661	0.0142560
711.739	0.0121717
711.817	0.0103230
711.896	0.00842262
711.974	0.00680534
712.052	0.00555107
712.130	0.00438614
712.208	0.00382042
712.286	0.00339317
712.364	0.00310089
712.442	0.00336395
712.521	0.00370682
712.599	0.00430435
712.677	0.00514221
712.755	0.00634850
712.833	0.00753883
712.911	0.00881264
712.989	0.0100063
713.067	0.0115546
713.146	0.0131012
713.224	0.0144666
713.302	0.0160524
713.380	0.0173770
713.458	0.0187370
713.536	0.0197427
713.614	0.0207812
713.692	0.0216338
713.771	0.0221050
713.849	0.0226943
713.927	0.0232673
714.005	0.0234582
714.083	0.0237108
714.161	0.0241068
714.239	0.0243454
714.317	0.0245345
714.396	0.0247523
714.474	0.0249476
714.552	0.0248624
714.630	0.0248459
714.708	0.0243498
714.786	0.0238116
714.864	0.0232906
714.942	0.0224332
715.021	0.0213034
715.099	0.0201815
715.177	0.0187164
715.255	0.0172505
715.333	0.0159436
715.411	0.0142726
715.489	0.0130465
715.567	0.0117209
715.646	0.0103115
715.724	0.00943146
715.802	0.00836868
715.880	0.00749413
715.958	0.00680435
716.036	0.00645348
716.114	0.00619759
716.192	0.00606850
716.271	0.00626205
716.349	0.00653549
716.427	0.00709404
716.505	0.00798454
716.583	0.00889801
716.661	0.0100170
716.739	0.0114442
716.817	0.0126836
716.896	0.0142184
716.974	0.0156186
717.052	0.0169534
717.130	0.0182200
717.208	0.0195935
717.286	0.0205301
717.364	0.0214749
717.442	0.0221751
717.521	0.0228997
717.599	0.0233388
717.677	0.0237297
717.755	0.0240357
717.833	0.0241764
717.911	0.0242873
717.989	0.0242950
718.067	0.0242007
718.146	0.0238665
718.224	0.0233730
718.302	0.0229213
718.380	0.0219474
718.458	0.0211019
718.536	0.0198683
718.614	0.0184787
718.692	0.0172310
718.771	0.0159576
718.849	0.0147356
718.927	0.0134233
719.005	0.0123384
719.083	0.0114601
719.161	0.0108107
719.239	0.0102924
719.317	0.00985718
719.396	0.00972900
719.474	0.00946938
719.552	0.00941673
719.630	0.00937843
719.708	0.00941643
719.786	0.00953529
719.864	0.00973145
719.942	0.00999603
720.021	0.0103058
720.099	0.0106441
720.177	0.0111143
720.255	0.0116429
720.333	0.0123195
720.411	0.0130483
720.489	0.0138705
720.567	0.0145950
720.646	0.0153629
720.724	0.0163110
720.802	0.0171639
720.880	0.0179234
720.958	0.0187353
721.036	0.0193024
721.114	0.0200570
721.192	0.0206254
721.271	0.0213360
721.349	0.0218819
721.427	0.0224638
721.505	0.0228348
721.583	0.0232129
721.661	0.0233575
721.739	0.0232642
721.817	0.0230019
721.896	0.0226400
721.974	0.0220505
722.052	0.0216608
722.130	0.0206885
722.208	0.0196699
722.286	0.0187766
722.364	0.0176167
722.442	0.0166263
722.521	0.0157861
722.599	0.0148363
722.677	0.0141859
722.755	0.0136269
722.833	0.0130567
722.911	0.0125546
722.989	0.0122392
723.067	0.0120649
723.146	0.0118932
723.224	0.0117425
723.302	0.0118349
723.380	0.0119676
723.458	0.0119345
723.536	0.0122298
723.614	0.0123035
723.692	0.0125996
723.771	0.0126693
723.849	0.0130514
723.927	0.0134803
724.005	0.0138231
724.083	0.0142194
724.161	0.0146282
724.239	0.0149277
724.317	0.0154097
724.396	0.0157093
724.474	0.0161734
724.552	0.0166045
724.630	0.0168523
724.708	0.0172311
724.786	0.0176149
724.864	0.0178223
724.942	0.0179936
725.021	0.0183784
725.099	0.0184677
725.177	0.0185841
725.255	0.0185033
725.333	0.0185778
725.411	0.0186195
725.489	0.0183635
725.567	0.0182237
725.646	0.0180765
725.724	0.0178638
725.802	0.0175262
725.880	0.0172836
725.958	0.0168302
726.036	0.0165231
726.114	0.0160723
726.192	0.0156876
726.271	0.0153951
726.349	0.0150237
726.427	0.0146468
726.505	0.0144210
726.583	0.0142970
726.661	0.0140357
726.739	0.0138103
726.817	0.0135824
726.896	0.0135860
726.974	0.0135928
727.052	0.0136300
727.130	0.0139059
727.208	0.0141012
727.286	0.0144424
727.364	0.0148428
727.442	0.0151662
727.521	0.0158356
727.599	0.0163300
727.677	0.0169596
727.755	0.0173489
727.833	0.0177494
727.911	0.0181306
727.989	0.0183708
728.067	0.0184660
728.146	0.0187220
728.224	0.0187277
728.302	0.0186707
728.380	0.0186557
728.458	0.0183504
728.536	0.0183507
728.614	0.0180249
728.692	0.0177592
728.771	0.0175860
728.849	0.0173750
728.927	0.0170666
729.005	0.0166598
729.083	0.0162998
729.161	0.0162251
729.239	0.0159040
729.317	0.0157516
729.396	0.0156619
729.474	0.0155188
729.552	0.0153492
729.630	0.0152168
729.708	0.0151238
729.786	0.0151389
729.864	0.0152065
729.942	0.0152822
730.021	0.0152229
730.099	0.0151802
730.177	0.0152325
730.255	0.0152988
730.333	0.0152054
730.411	0.0153362
730.489	0.0150832
730.567	0.0149889
730.646	0.0149780
730.724	0.0149242
730.802	0.0148017
730.880	0.0150091
730.958	0.0149895
731.036	0.0150142
731.114	0.0150787
731.192	0.0151488
731.271	0.0153998
731.349	0.0155239
731.427	0.0155000
731.505	0.0156523
731.583	0.0159700
731.661	0.0161211
731.739	0.0161784
731.817	0.0164274
731.896	0.0166994
731.974	0.0166359
732.052	0.0165920
732.130	0.0169539
732.208	0.0169714
732.286	0.0169215
732.364	0.0168923
732.442	0.0167963
732.521	0.0166933
732.599	0.0168638
732.677	0.0166309
732.755	0.0166422
732.833	0.0165542
732.911	0.0164502
732.989	0.0162751
733.067	0.0163544
733.146	0.0164056
733.224	0.0164024
733.302	0.0164221
733.380	0.0165298
733.458	0.0165737
733.536	0.0168698
733.614	0.0169165
733.692	0.0168704
733.771	0.0169374
733.849	0.0168880
733.927	0.0168918
734.005	0.0168975
734.083	0.0167884
734.161	0.0166456
734.239	0.0165518
734.317	0.0163627
734.396	0.0163017
734.474	0.0161265
734.552	0.0159370
734.630	0.0158898
734.708	0.0158220
734.786	0.0155405
734.864	0.0155820
734.942	0.0155612
735.021	0.0155466
735.099	0.0154331
735.177	0.0153780
735.255	0.0155348
735.333	0.0155769
735.411	0.0155375
735.489	0.0155813
735.567	0.0156297
735.646	0.0156823
735.724	0.0154702
735.802	0.0155698
735.880	0.0154478
735.958	0.0152444
736.036	0.0151363
736.114	0.0151738
736.192	0.0150159
736.271	0.0149076
736.349	0.0148048
736.427	0.0149378
736.505	0.0149836
736.583	0.0149765
736.661	0.0150824
736.739	0.0152654
736.817	0.0154420
736.896	0.0157942
736.974	0.0161881
737.052	0.0163905
737.130	0.0168807
737.208	0.0171334
737.286	0.0173161
737.364	0.0176818
737.442	0.0179723
737.521	0.0178680
737.599	0.0181127
737.677	0.0180422
737.755	0.0181644
737.833	0.0181528
737.911	0.0179050
737.989	0.0177702
738.067	0.0177217
738.146	0.0174913
738.224	0.0172606
738.302	0.0170597
738.380	0.0169417
738.458	0.0166935
738.536	0.0165881
738.614	0.0164229
738.692	0.0161960
738.771	0.0161961
738.849	0.0160925
738.927	0.0159564
739.005	0.0157689
739.083	0.0156352
739.161	0.0154225
739.239	0.0153275
739.317	0.0152060
739.396	0.0149315
739.474	0.0148465
739.552	0.0144860
739.630	0.0144690
739.708	0.0145415
739.786	0.0142535
739.864	0.0142718
739.942	0.0140877
740.021	0.0140865
740.099	0.0142872
740.177	0.0143073
740.255	0.0144233
740.333	0.0146284
740.411	0.0147987
740.489	0.0152025
740.567	0.0154480
740.646	0.0155987
740.724	0.0159170
740.802	0.0163161
740.880	0.0164590
740.958	0.0165913
741.036	0.0168508
741.114	0.0170168
741.192	0.0171519
741.271	0.0171901
741.349	0.0172933
741.427	0.0174161
741.505	0.0173231
741.583	0.0174627
741.661	0.0173894
741.739	0.0171075
741.817	0.0173535
741.896	0.0172522
741.974	0.0172739
742.052	0.0172875
742.130	0.0172557
742.208	0.0171548
742.286	0.0172796
742.364	0.0172379
742.442	0.0173243
742.521	0.0173009
742.599	0.0171339
742.677	0.0172887
742.755	0.0172049
742.833	0.0171443
742.911	0.0170296
742.989	0.0168274
743.067	0.0165928
743.146	0.0164404
743.224	0.0162447
743.302	0.0160857
743.380	0.0156958
743.458	0.0155667
743.536	0.0154304
743.614	0.0152255
743.692	0.0150700
743.771	0.0147966
743.849	0.0146515
743.927	0.0144431
744.005	0.0144806
744.083	0.0145184
744.161	0.0144197
744.239	0.0144720
744.317	0.0146712
744.396	0.0149164
744.474	0.0150037
744.552	0.0152005
744.630	0.0154446
744.708	0.0155202
744.786	0.0157981
744.864	0.0157310
744.942	0.0158446
745.021	0.0160758
745.099	0.0163582
745.177	0.0164578
745.255	0.0165913
745.333	0.0164001
745.411	0.0166017
745.489	0.0166546
745.567	0.0167624
745.646	0.0167283
745.724	0.0168118
745.802	0.0167095
745.880	0.0169463
745.958	0.0171349
746.036	0.0172036
746.114	0.0173526
746.192	0.0175483
746.271	0.0176894
746.349	0.0176590
746.427	0.0175168
746.505	0.0172613
746.583	0.0171835
746.661	0.0168854
746.739	0.0166821
746.817	0.0164077
746.896	0.0160284
746.974	0.0155764
747.052	0.0154712
747.130	0.0150917
747.208	0.0148790
747.286	0.0146680
747.364	0.0144125
747.442	0.0142564
747.521	0.0143237
747.599	0.0143539
747.677	0.0144568
747.755	0.0145944
747.833	0.0147003
747.911	0.0150682
747.989	0.0150140
748.067	0.0154081
748.146	0.0155774
748.224	0.0156477
748.302	0.0158771
748.380	0.0158864
748.458	0.0158991
748.536	0.0160761
748.614	0.0161062
748.692	0.0161313
748.771	0.0162350
748.849	0.0163907
748.927	0.0162929
749.005	0.0163419
749.083	0.0164402
749.161	0.0166059
749.239	0.0166806
749.317	0.0167258
749.396	0.0168404
749.474	0.0170645
749.552	0.0172410
749.630	0.0171407
749.708	0.0172428
749.786	0.0174909
749.864	0.0175552
749.942	0.0174110
750.021	0.0175132
750.099	0.0176318
750.177	0.0174799
750.255	0.0173515
750.333	0.0172639
750.411	0.0171726
750.489	0.0168123
750.567	0.0168010
750.646	0.0165809
750.724	0.0162117
750.802	0.0159998
750.880	0.0159047
750.958	0.0156037
751.036	0.0154572
751.114	0.0153980
751.192	0.0153927
751.271	0.0151880
751.349	0.0151222
751.427	0.0149876
751.505	0.0148846
751.583	0.0148251
751.661	0.0147388
751.739	0.0147639
751.817	0.0149702
751.896	0.0147295
751.974	0.0146862
752.052	0.0148166
752.130	0.0148333
752.208	0.0149536
752.286	0.0150508
752.364	0.0149512
752.442	0.0151268
752.521	0.0152169
752.599	0.0153122
752.677	0.0155332
752.755	0.0157185
752.833	0.0158559
752.911	0.0161301
752.989	0.0162900
753.067	0.0164060
753.146	0.0164930
753.224	0.0166172
753.302	0.0167661
753.380	0.0167774
753.458	0.0169199
753.536	0.0170081
753.614	0.0170781
753.692	0.0170401
753.771	0.0169697
753.849	0.0170460
753.927	0.0170743
754.005	0.0170798
754.083	0.0170930
754.161	0.0169556
754.239	0.0168690
754.317	0.0168426
754.396	0.0169260
754.474	0.0167450
754.552	0.0165445
754.630	0.0163475
754.708	0.0160819
754.786	0.0163220
754.864	0.0159872
754.942	0.0157458
755.021	0.0157091
755.099	0.0156247
755.177	0.0154065
755.255	0.0152611
755.333	0.0151901
755.411	0.0150719
755.489	0.0151451
755.567	0.0149788
755.646	0.0149628
755.724	0.0151308
755.802	0.0152331
755.880	0.0152198
755.958	0.0154301
756.036	0.0154792
756.114	0.0156869
756.192	0.0158655
756.271	0.0159470
756.349	0.0161669
756.427	0.0163978
756.505	0.0166151
756.583	0.0166496
756.661	0.0167616
756.739	0.0167648
756.817	0.0170098
756.896	0.0169902
756.974	0.0171002
757.052	0.0170210
757.130	0.0169660
757.208	0.0167949
757.286	0.0167004
757.364	0.0165029
757.442	0.0163847
757.521	0.0161862
757.599	0.0160297
757.677	0.0159481
757.755	0.0157992
757.833	0.0155531
757.911	0.0155378
757.989	0.0153611
758.067	0.0154557
758.146	0.0152890
758.224	0.0156018
758.302	0.0154951
758.380	0.0154854
758.458	0.0157311
758.536	0.0157388
758.614	0.0158690
758.692	0.0159103
758.771	0.0159548
758.849	0.0159325
758.927	0.0160868
759.005	0.0161730
759.083	0.0161363
759.161	0.0161216
759.239	0.0160715
759.317	0.0161983
759.396	0.0161604
759.474	0.0161961
759.552	0.0162084
759.630	0.0162312
759.708	0.0162623
759.786	0.0163183
759.864	0.0162529
759.942	0.0164215
760.021	0.0164430
760.099	0.0165012
760.177	0.0165840
760.255	0.0166945
760.333	0.0167911
760.411	0.0165374
760.489	0.0167900
760.567	0.0167036
760.646	0.0165153
760.724	0.0164960
760.802	0.0164756
760.880	0.0165078
760.958	0.0161998
761.036	0.0163040
761.114	0.0159428
761.192	0.0159206
761.271	0.0157740
761.349	0.0156590
761.427	0.0155218
761.505	0.0154485
761.583	0.0155322
761.661	0.0155070
761.739	0.0154414
761.817	0.0157002
761.896	0.0156515
761.974	0.0156844
762.052	0.0158625
762.130	0.0160390
762.208	0.0160155
762.286	0.0161101
762.364	0.0162553
762.442	0.0162818
762.521	0.0164021
762.599	0.0164765
762.677	0.0164217
762.755	0.0164874
762.833	0.0163532
762.911	0.0164858
762.989	0.0165926
763.067	0.0164622
763.146	0.0165490
763.224	0.0164816
763.302	0.0163219
763.380	0.0164273
763.458	0.0163721
763.536	0.0163482
763.614	0.0164677
763.692	0.0163741
763.771	0.0162705
763.849	0.0162678
763.927	0.0162808
764.005	0.0162105
764.083	0.0159326
764.161	0.0160119
764.239	0.0160343
764.317	0.0160044
764.396	0.0158755
764.474	0.0158292
764.552	0.0159325
764.630	0.0157054
764.708	0.0159027
764.786	0.0159303
764.864	0.0159793
764.942	0.0157893
765.021	0.0158286
765.099	0.0159040
765.177	0.0157748
765.255	0.0158828
765.333	0.0159251
765.411	0.0158972
765.489	0.0159825
765.567	0.0158734
765.646	0.0159540
765.724	0.0160000
765.802	0.0160665
765.880	0.0160847
765.958	0.0161792
766.036	0.0161426
766.114	0.0162254
766.192	0.0162779
766.271	0.0162240
766.349	0.0164117
766.427	0.0162823
766.505	0.0164051
766.583	0.0165894
766.661	0.0165511
766.739	0.0165164
766.817	0.0164702
766.896	0.0166113
766.974	0.0167647
767.052	0.0166132
767.130	0.0166978
767.208	0.0165535
767.286	0.0166099
767.364	0.0165125
767.442	0.0164236
767.521	0.0164391
767.599	0.0163735
767.677	0.0162250
767.755	0.0162666
767.833	0.0161626
767.911	0.0161163
767.989	0.0160658
768.067	0.0162238
768.146	0.0160844
768.224	0.0159754
768.302	0.0159566
768.380	0.0158720
768.458	0.0159170
768.536	0.0158572
768.614	0.0158672
768.692	0.0158675
768.771	0.0159159
768.849	0.0157840
768.927	0.0158543
769.005	0.0157575
769.083	0.0159118
769.161	0.0158753
769.239	0.0158218
769.317	0.0157694
769.396	0.0157516
769.474	0.0157984
769.552	0.0158704
769.630	0.0158935
769.708	0.0159460
769.786	0.0158356
769.864	0.0157829
769.942	0.0159835
770.021	0.0159752
770.099	0.0160013
770.177	0.0161018
770.255	0.0159824
770.333	0.0161035
770.411	0.0161606
770.489	0.0160323
770.567	0.0161308
770.646	0.0162755
770.724	0.0162642
770.802	0.0162753
770.880	0.0161211
770.958	0.0159948
771.036	0.0162099
771.114	0.0162522
771.192	0.0160944
771.271	0.0161534
771.349	0.0161405
771.427	0.0162478
771.505	0.0161799
771.583	0.0161161
771.661	0.0161198
771.739	0.0161446
771.817	0.0160772
771.896	0.0161837
771.974	0.0162960
772.052	0.0161730
772.130	0.0161029
772.208	0.0161056
772.286	0.0161971
772.364	0.0161433
772.442	0.0161087
772.521	0.0161121
772.599	0.0161942
772.677	0.0161907
772.755	0.0162838
772.833	0.0160664
772.911	0.0161262
772.989	0.0161745
773.067	0.0161167
773.146	0.0163788
773.224	0.0163357
773.302	0.0163232
773.380	0.0161342
773.458	0.0162149
773.536	0.0161665
773.614	0.0162244
773.692	0.0162257
773.771	0.0162029
773.849	0.0161963
773.927	0.0161340
774.005	0.0159962
774.083	0.0160918
774.161	0.0161589
774.239	0.0159569
774.317	0.0159529
774.396	0.0161299
774.474	0.0161026
774.552	0.0161286
774.630	0.0159710
774.708	0.0160485
774.786	0.0160488
774.864	0.0159777
774.942	0.0160875
775.021	0.0161968
775.099	0.0161753
775.177	0.0160044
775.255	0.0160875
775.333	0.0160203
775.411	0.0159191
775.489	0.0157879
775.567	0.0158313
775.646	0.0157627
775.724	0.0158028
775.802	0.0157031
775.880	0.0157567
775.958	0.0156362
776.036	0.0157069
776.114	0.0158767
776.192	0.0156586
776.271	0.0157066
776.349	0.0156585
776.427	0.0156837
776.505	0.0159266
776.583	0.0158367
776.661	0.0158253
776.739	0.0159669
776.817	0.0159535
776.896	0.0160432
776.974	0.0159814
777.052	0.0159516
777.130	0.0160443
777.208	0.0160512
777.286	0.0161767
777.364	0.0160262
777.442	0.0160447
777.521	0.0162487
777.599	0.0162206
777.677	0.0160963
777.755	0.0162622
777.833	0.0162063
777.911	0.0162002
777.989	0.0163741
778.067	0.0165161
778.146	0.0165403
778.224	0.0165094
778.302	0.0164175
778.380	0.0165869
778.458	0.0166059
778.536	0.0166296
778.614	0.0166186
778.692	0.0165416
778.771	0.0164713
778.849	0.0165069
778.927	0.0164623
779.005	0.0163680
779.083	0.0162442
779.161	0.0160650
779.239	0.0159522
779.317	0.0158469
779.396	0.0158307
779.474	0.0156856
779.552	0.0154361
779.630	0.0156670
779.708	0.0155970
779.786	0.0154111
779.864	0.0153677
779.942	0.0153988
780.021	0.0155584
780.099	0.0156478
780.177	0.0157145
780.255	0.0155688
780.333	0.0157294
780.411	0.0157797
780.489	0.0158419
780.567	0.0158784
780.646	0.0158330
780.724	0.0159661
780.802	0.0158971
780.880	0.0159682
780.958	0.0159130
781.036	0.0161237
781.114	0.0161628
781.192	0.0160297
781.271	0.0160596
781.349	0.0161713
781.427	0.0162437
781.505	0.0161676
781.583	0.0161364
781.661	0.0164827
781.739	0.0163708
781.817	0.0164447
781.896	0.0165961
781.974	0.0167088
782.052	0.0163780
782.130	0.0165120
782.208	0.0166400
782.286	0.0164578
782.364	0.0166892
782.442	0.0167152
782.521	0.0165363
782.599	0.0164032
782.677	0.0165329
782.755	0.0164687
782.833	0.0163377
782.911	0.0162394
782.989	0.0162292
783.067	0.0160183
783.146	0.0159463
783.224	0.0160425
783.302	0.0158529
783.380	0.0157685
783.458	0.0158016
783.536	0.0157958
783.614	0.0157920
783.692	0.0158344
783.771	0.0157738
783.849	0.0158901
783.927	0.0159467
784.005	0.0160406
784.083	0.0160111
784.161	0.0160015
784.239	0.0161266
784.317	0.0160990
784.396	0.0161182
784.474	0.0159398
784.552	0.0158582
784.630	0.0159945
784.708	0.0160188
784.786	0.0161169
784.864	0.0159291
784.942	0.0158564
785.021	0.0159342
785.099	0.0158556
785.177	0.0159059
785.255	0.0159054
785.333	0.0160548
785.411	0.0159288
785.489	0.0158185
785.567	0.0158953
785.646	0.0159035
785.724	0.0160526
785.802	0.0159875
785.880	0.0160522
785.958	0.0162444
786.036	0.0161820
786.114	0.0162889
786.192	0.0162692
786.271	0.0163183
786.349	0.0163396
786.427	0.0163538
786.505	0.0166096
786.583	0.0166307
786.661	0.0164134
786.739	0.0165883
786.817	0.0165088
786.896	0.0165459
786.974	0.0164218
787.052	0.0163395
787.130	0.0165090
787.208	0.0164197
787.286	0.0164385
787.364	0.0163470
787.442	0.0161649
787.521	0.0162824
787.599	0.0162286
787.677	0.0161478
787.755	0.0158990
787.833	0.0159336
787.911	0.0158806
787.989	0.0156722
788.067	0.0156524
788.146	0.0156868
788.224	0.0155574
788.302	0.0156456
788.380	0.0156433
788.458	0.0155976
788.536	0.0155879
788.614	0.0156580
788.692	0.0156385
788.771	0.0155922
788.849	0.0157151
788.927	0.0157909
789.005	0.0158952
789.083	0.0159196
789.161	0.0160329
789.239	0.0161263
789.317	0.0160050
789.396	0.0161417
789.474	0.0161935
789.552	0.0160276
789.630	0.0162526
789.708	0.0164941
789.786	0.0166459
789.864	0.0166171
789.942	0.0166606
790.021	0.0167673
790.099	0.0169475
790.177	0.0167541
790.255	0.0169865
790.333	0.0167786
790.411	0.0168761
790.489	0.0168783
790.567	0.0168063
790.646	0.0167761
790.724	0.0167161
790.802	0.0165678
790.880	0.0163445
790.958	0.0162428
791.036	0.0163515
791.114	0.0160265
791.192	0.0160128
791.271	0.0160638
791.349	0.0159769
791.427	0.0159405
791.505	0.0158221
791.583	0.0157126
791.661	0.0158804
791.739	0.0158252
791.817	0.0157352
791.896	0.0157949
791.974	0.0157584
792.052	0.0156690
792.130	0.0156731
792.208	0.0156257
792.286	0.0158212
792.364	0.0156885
792.442	0.0157701
792.521	0.0156574
792.599	0.0157365
792.677	0.0157404
792.755	0.0156938
792.833	0.0157431
792.911	0.0157437
792.989	0.0158630
793.067	0.0158652
793.146	0.0157658
793.224	0.0158263
793.302	0.0159331
793.380	0.0159366
793.458	0.0159456
793.536	0.0160124
793.614	0.0159370
793.692	0.0160629
793.771	0.0161145
793.849	0.0161004
793.927	0.0161310
794.005	0.0162333
794.083	0.0161908
794.161	0.0163425
794.239	0.0163354
794.317	0.0163302
794.396	0.0164697
794.474	0.0164364
794.552	0.0164835
794.630	0.0164743
794.708	0.0164189
794.786	0.0163708
794.864	0.0163412
794.942	0.0163029
795.021	0.0164402
795.099	0.0164471
795.177	0.0163497
795.255	0.0163630
795.333	0.0164206
795.411	0.0164669
795.489	0.0163055
795.567	0.0163305
795.646	0.0163771
795.724	0.0162501
795.802	0.0163712
795.880	0.0164904
795.958	0.0163472
796.036	0.0162785
796.114	0.0163636
796.192	0.0163805
796.271	0.0162388
796.349	0.0160396
796.427	0.0160536
796.505	0.0161898
796.583	0.0159849
796.661	0.0158861
796.739	0.0158286
796.817	0.0156481
796.896	0.0153734
796.974	0.0155630
797.052	0.0155868
797.130	0.0154336
797.208	0.0153571
797.286	0.0153358
797.364	0.0154317
797.442	0.0155414
797.521	0.0154445
797.599	0.0156238
797.677	0.0156700
797.755	0.0157016
797.833	0.0156474
797.911	0.0158434
797.989	0.0160509
798.067	0.0158780
798.146	0.0160823
798.224	0.0162752
798.302	0.0164372
798.380	0.0164349
798.458	0.0165311
798.536	0.0166525
798.614	0.0163978
798.692	0.0166171
798.771	0.0165639
798.849	0.0165005
798.927	0.0167230
799.005	0.0166485
799.083	0.0166702
799.161	0.0165496
799.239	0.0165473
799.317	0.0164501
799.396	0.0165555
799.474	0.0164947
799.552	0.0164297
799.630	0.0164003
799.708	0.0163117
799.786	0.0162383
799.864	0.0162946
799.942	0.0162144
800.021	0.0161161
800.099	0.0161815
800.177	0.0160052
800.255	0.0159385
800.333	0.0157894
800.411	0.0157581
800.489	0.0156255
800.567	0.0155650
800.646	0.0153693
800.724	0.0152640
800.802	0.0153188
800.880	0.0152351
800.958	0.0153027
801.036	0.0151991
801.114	0.0152032
801.192	0.0153104
801.271	0.0154569
801.349	0.0153297
801.427	0.0153249
801.505	0.0153470
801.583	0.0154650
801.661	0.0154782
801.739	0.0157235
801.817	0.0158120
801.896	0.0158330
801.974	0.0157516
802.052	0.0157986
802.130	0.0160403
802.208	0.0161847
802.286	0.0161747
802.364	0.0162826
802.442	0.0164590
802.521	0.0164349
802.599	0.0164648
802.677	0.0166573
802.755	0.0166044
802.833	0.0167704
802.911	0.0168359
802.989	0.0168385
803.067	0.0167930
803.146	0.0166572
803.224	0.0168519
803.302	0.0168195
803.380	0.0168129
803.458	0.0168237
803.536	0.0167390
803.614	0.0166486
803.692	0.0167707
803.771	0.0167739
803.849	0.0166085
803.927	0.0163818
804.005	0.0165005
804.083	0.0165035
804.161	0.0162093
804.239	0.0161517
804.317	0.0160322
804.396	0.0160311
804.474	0.0158666
804.552	0.0157417
804.630	0.0156241
804.708	0.0154714
804.786	0.0153625
804.864	0.0150658
804.942	0.0150829
805.021	0.0151279
805.099	0.0149945
805.177	0.0151073
805.255	0.0148866
805.333	0.0148667
805.411	0.0149683
805.489	0.0149003
805.567	0.0151749
805.646	0.0152023
805.724	0.0152949
805.802	0.0154020
805.880	0.0154739
805.958	0.0155664
806.036	0.0155365
806.114	0.0158150
806.192	0.0159253
806.271	0.0159484
806.349	0.0161088
806.427	0.0162304
806.505	0.0163625
806.583	0.0165492
806.661	0.0164867
806.739	0.0167427
806.817	0.0167683
806.896	0.0169044
806.974	0.0170102
807.052	0.0170711
807.130	0.0171026
807.208	0.0171989
807.286	0.0172329
807.364	0.0173316
807.442	0.0172019
807.521	0.0173255
807.599	0.0171458
807.677	0.0171684
807.755	0.0169450
807.833	0.0168684
807.911	0.0167577
807.989	0.0166920
808.067	0.0164997
808.146	0.0164362
808.224	0.0161993
808.302	0.0159998
808.380	0.0159750
808.458	0.0156389
808.536	0.0155974
808.614	0.0155251
808.692	0.0154541
808.771	0.0152445
808.849	0.0151881
808.927	0.0149676
809.005	0.0149127
809.083	0.0147990
809.161	0.0150197
809.239	0.0147829
809.317	0.0148034
809.396	0.0147525
809.474	0.0148295
809.552	0.0148905
809.630	0.0149663
809.708	0.0148479
809.786	0.0148753
809.864	0.0151564
809.942	0.0152999
810.021	0.0153014
810.099	0.0156260
810.177	0.0156418
810.255	0.0157673
810.333	0.0160833
810.411	0.0160703
810.489	0.0165076
810.567	0.0166588
810.646	0.0169227
810.724	0.0169303
810.802	0.0171098
810.880	0.0174220
810.958	0.0174846
811.036	0.0174608
811.114	0.0175669
811.192	0.0175554
811.271	0.0175912
811.349	0.0176572
811.427	0.0174174
811.505	0.0174251
811.583	0.0172639
811.661	0.0171558
811.739	0.0171416
811.817	0.0167817
811.896	0.0166792
811.974	0.0166325
812.052	0.0166083
812.130	0.0162928
812.208	0.0162046
812.286	0.0161117
812.364	0.0161346
812.442	0.0159368
812.521	0.0158231
812.599	0.0157758
812.677	0.0157248
812.755	0.0156808
812.833	0.0155958
812.911	0.0154295
812.989	0.0154906
813.067	0.0153192
813.146	0.0155235
813.224	0.0154650
813.302	0.0153326
813.380	0.0155273
813.458	0.0154260
813.536	0.0154700
813.614	0.0155131
813.692	0.0155572
813.771	0.0156106
813.849	0.0156348
813.927	0.0157590
814.005	0.0159119
814.083	0.0157903
814.161	0.0159223
814.239	0.0159518
814.317	0.0161086
814.396	0.0163385
814.474	0.0163250
814.552	0.0165071
814.630	0.0164757
814.708	0.0165556
814.786	0.0167586
814.864	0.0167711
814.942	0.0166119
815.021	0.0167168
815.099	0.0167988
815.177	0.0165904
815.255	0.0167287
815.333	0.0165552
815.411	0.0166152
815.489	0.0164740
815.567	0.0164786
815.646	0.0162701
815.724	0.0163450
815.802	0.0163566
815.880	0.0162593
815.958	0.0161525
816.036	0.0159776
816.114	0.0160415
816.192	0.0158692
816.271	0.0157709
816.349	0.0159312
816.427	0.0158675
816.505	0.0156219
816.583	0.0157399
816.661	0.0156838
816.739	0.0157437
816.817	0.0157058
816.896	0.0156499
816.974	0.0156595
817.052	0.0157016
817.130	0.0157699
817.208	0.0156445
817.286	0.0157016
817.364	0.0157885
817.442	0.0157897
817.521	0.0159634
817.599	0.0158928
817.677	0.0159576
817.755	0.0160310
817.833	0.0160305
817.911	0.0162229
817.989	0.0162492
818.067	0.0164820
818.146	0.0164075
818.224	0.0164336
818.302	0.0162975
818.380	0.0165569
818.458	0.0165635
818.536	0.0165814
818.614	0.0166972
818.692	0.0165067
818.771	0.0166280
818.849	0.0166210
818.927	0.0164590
819.005	0.0164503
819.083	0.0165131
819.161	0.0164905
819.239	0.0164091
819.317	0.0163122
819.396	0.0163637
819.474	0.0164434
819.552	0.0166174
819.630	0.0164037
819.708	0.0163493
819.786	0.0164255
819.864	0.0163117
819.942	0.0162431
820.021	0.0161551
820.099	0.0159979
820.177	0.0159550
820.255	0.0159683
820.333	0.0158084
820.411	0.0157933
820.489	0.0156985
820.567	0.0155240
820.646	0.0156001
820.724	0.0155574
820.802	0.0155154
820.880	0.0154205
820.958	0.0154072
821.036	0.0153542
821.114	0.0153756
821.192	0.0153563
821.271	0.0153515
821.349	0.0153839
821.427	0.0155687
821.505	0.0153778
821.583	0.0156658
821.661	0.0157302
821.739	0.0159202
821.817	0.0157999
821.896	0.0160535
821.974	0.0160661
822.052	0.0160252
822.130	0.0161521
822.208	0.0162813
822.286	0.0163052
822.364	0.0163225
822.442	0.0164465
822.521	0.0163155
822.599	0.0162762
822.677	0.0163107
822.755	0.0163050
822.833	0.0163749
822.911	0.0163496
822.989	0.0164191
823.067	0.0162673
823.146	0.0164323
823.224	0.0163134
823.302	0.0163132
823.380	0.0164877
823.458	0.0165281
823.536	0.0164384
823.614	0.0166617
823.692	0.0165250
823.771	0.0163803
823.849	0.0164532
823.927	0.0164513
824.005	0.0163464
824.083	0.0164243
824.161	0.0162987
824.239	0.0160863
824.317	0.0160394
824.396	0.0160985
824.474	0.0160743
824.552	0.0161980
824.630	0.0159719
824.708	0.0159358
824.786	0.0158409
824.864	0.0156982
824.942	0.0157845
825.021	0.0158154
825.099	0.0157831
825.177	0.0159208
825.255	0.0157131
825.333	0.0157362
825.411	0.0156836
825.489	0.0157442
825.567	0.0158826
825.646	0.0158304
825.724	0.0157776
825.802	0.0159074
825.880	0.0158734
825.958	0.0159509
826.036	0.0159221
826.114	0.0158444
826.192	0.0159220
826.271	0.0161934
826.349	0.0161611
826.427	0.0161931
826.505	0.0161236
826.583	0.0160289
826.661	0.0162524
826.739	0.0161347
826.817	0.0161024
826.896	0.0159293
826.974	0.0158888
827.052	0.0159338
827.130	0.0159248
827.208	0.0159059
827.286	0.0158044
827.364	0.0158808
827.442	0.0157120
827.521	0.0157350
827.599	0.0159333
827.677	0.0158886
827.755	0.0159084
827.833	0.0159740
827.911	0.0160805
827.989	0.0163665
828.067	0.0162276
828.146	0.0163547
828.224	0.0164592
828.302	0.0164291
828.380	0.0165012
828.458	0.0165637
828.536	0.0165868
828.614	0.0165147
828.692	0.0165462
828.771	0.0164707
828.849	0.0162932
828.927	0.0164002
829.005	0.0162875
829.083	0.0159994
829.161	0.0162502
829.239	0.0161632
829.317	0.0160403
829.396	0.0159972
829.474	0.0160270
829.552	0.0159447
829.630	0.0158791
829.708	0.0159216
829.786	0.0158434
829.864	0.0159312
829.942	0.0160160
830.021	0.0161407
830.099	0.0161263
830.177	0.0161391
830.255	0.0161057
830.333	0.0162249
830.411	0.0161211
830.489	0.0161167
830.567	0.0162174
830.646	0.0161178
830.724	0.0161011
830.802	0.0160925
830.880	0.0160582
830.958	0.0159065
831.036	0.0158051
831.114	0.0158234
831.192	0.0159352
831.271	0.0158082
831.349	0.0158334
831.427	0.0157488
831.505	0.0158144
831.583	0.0160101
831.661	0.0160450
831.739	0.0159722
831.817	0.0159480
831.896	0.0160608
831.974	0.0161245
832.052	0.0161512
832.130	0.0162981
832.208	0.0161789
832.286	0.0162966
832.364	0.0162769
832.442	0.0161914
832.521	0.0162849
832.599	0.0163499
832.677	0.0163766
832.755	0.0164141
832.833	0.0164117
832.911	0.0164342
832.989	0.0164858
833.067	0.0163943
833.146	0.0163954
833.224	0.0161794
833.302	0.0162820
833.380	0.0160965
833.458	0.0160604
833.536	0.0161440
833.614	0.0163365
833.692	0.0159799
833.771	0.0160992
833.849	0.0161388
833.927	0.0160770
834.005	0.0161054
834.083	0.0160366
834.161	0.0160905
834.239	0.0161368
834.317	0.0160221
834.396	0.0161256
834.474	0.0159971
834.552	0.0160596
834.630	0.0161547
834.708	0.0162183
834.786	0.0160410
834.864	0.0161331
834.942	0.0161064
835.021	0.0161001
835.099	0.0161712
835.177	0.0160467
835.255	0.0161015
835.333	0.0160780
835.411	0.0158764
835.489	0.0160271
835.567	0.0161276
835.646	0.0157687
835.724	0.0158819
835.802	0.0158573
835.880	0.0158645
835.958	0.0158134
836.036	0.0156574
836.114	0.0158434
836.192	0.0156425
836.271	0.0157384
836.349	0.0157949
836.427	0.0159019
836.505	0.0159082
836.583	0.0160908
836.661	0.0161149
836.739	0.0159904
836.817	0.0162396
836.896	0.0162426
836.974	0.0163239
837.052	0.0162812
837.130	0.0163685
837.208	0.0165035
837.286	0.0165928
837.364	0.0165627
837.442	0.0165926
837.521	0.0165179
837.599	0.0164749
837.677	0.0164404
837.755	0.0163719
837.833	0.0162144
837.911	0.0161050
837.989	0.0161163
838.067	0.0160487
838.146	0.0158375
838.224	0.0159534
838.302	0.0159611
838.380	0.0159253
838.458	0.0160262
838.536	0.0158639
838.614	0.0160674
838.692	0.0159184
838.771	0.0161398
838.849	0.0161339
838.927	0.0161042
839.005	0.0160860
839.083	0.0163311
839.161	0.0162699
839.239	0.0162428
839.317	0.0162513
839.396	0.0162762
839.474	0.0162199
839.552	0.0162714
839.630	0.0160982
839.708	0.0162727
839.786	0.0162569
839.864	0.0161716
839.942	0.0163099
840.021	0.0162888
840.099	0.0161433
840.177	0.0160339
840.255	0.0160470
840.333	0.0161089
840.411	0.0159718
840.489	0.0161288
840.567	0.0160313
840.646	0.0160372
840.724	0.0160075
840.802	0.0160126
840.880	0.0162016
840.958	0.0161613
841.036	0.0160390
841.114	0.0160340
841.192	0.0160172
841.271	0.0160939
841.349	0.0161063
841.427	0.0161391
841.505	0.0160336
841.583	0.0161331
841.661	0.0160952
841.739	0.0160326
841.817	0.0161552
841.896	0.0160731
841.974	0.0160845
842.052	0.0158964
842.130	0.0159483
842.208	0.0160117
842.286	0.0159074
842.364	0.0159214
842.442	0.0158673
842.521	0.0159005
842.599	0.0160037
842.677	0.0159957
842.755	0.0159354
842.833	0.0158819
842.911	0.0160149
842.989	0.0160600
843.067	0.0161539
843.146	0.0161491
843.224	0.0160593
843.302	0.0160577
843.380	0.0162543
843.458	0.0162144
843.536	0.0162863
843.614	0.0162393
843.692	0.0162287
843.771	0.0161603
843.849	0.0162869
843.927	0.0162643
844.005	0.0164932
844.083	0.0161615
844.161	0.0162080
844.239	0.0162313
844.317	0.0160521
844.396	0.0161036
844.474	0.0161686
844.552	0.0161446
844.630	0.0161366
844.708	0.0159865
844.786	0.0159699
844.864	0.0160477
844.942	0.0159311
845.021	0.0159448
845.099	0.0159210
845.177	0.0158483
845.255	0.0160521
845.333	0.0160361
845.411	0.0159139
845.489	0.0157098
845.567	0.0159285
845.646	0.0159403
845.724	0.0158631
845.802	0.0159237
845.880	0.0160464
845.958	0.0160371
846.036	0.0158993
846.114	0.0159991
846.192	0.0161049
846.271	0.0161349
846.349	0.0161292
846.427	0.0162018
846.505	0.0160313
846.583	0.0162381
846.661	0.0161674
846.739	0.0159356
846.817	0.0161538
846.896	0.0161407
846.974	0.0161755
847.052	0.0160993
847.130	0.0159435
847.208	0.0161044
847.286	0.0161607
847.364	0.0160178
847.442	0.0161011
847.521	0.0159989
847.599	0.0159180
847.677	0.0160630
847.755	0.0160955
847.833	0.0161241
847.911	0.0160075
847.989	0.0159338
848.067	0.0159483
848.146	0.0160958
848.224	0.0158813
848.302	0.0159314
848.380	0.0159370
848.458	0.0159230
848.536	0.0159576
848.614	0.0159805
848.692	0.0160101
848.771	0.0160134
848.849	0.0160687
848.927	0.0159976
849.005	0.0161406
849.083	0.0160162
849.161	0.0160207
849.239	0.0160053
849.317	0.0161466
849.396	0.0161518
849.474	0.0161993
849.552	0.0161573
849.630	0.0162189
849.708	0.0161142
849.786	0.0162754
849.864	0.0163226
849.942	0.0160958
850.021	0.0162608
850.099	0.0160679
850.177	0.0162227
850.255	0.0161580
850.333	0.0162185
850.411	0.0162358
850.489	0.0161944
850.567	0.0162078
850.646	0.0162062
850.724	0.0163190
850.802	0.0162585
850.880	0.0162905
850.958	0.0161747
851.036	0.0161699
851.114	0.0160516
851.192	0.0162946
851.271	0.0161039
851.349	0.0161212
851.427	0.0159837
851.505	0.0160295
851.583	0.0158140
851.661	0.0159184
851.739	0.0160857
851.817	0.0158109
851.896	0.0159100
851.974	0.0158601
852.052	0.0157999
852.130	0.0158330
852.208	0.0158701
852.286	0.0157685
852.364	0.0158372
852.442	0.0158075
852.521	0.0157417
852.599	0.0158537
852.677	0.0160484
852.755	0.0159358
852.833	0.0160673
852.911	0.0162574
852.989	0.0161963
853.067	0.0162072
853.146	0.0163631
853.224	0.0163110
853.302	0.0162502
853.380	0.0163258
853.458	0.0163828
853.536	0.0164376
853.614	0.0163627
853.692	0.0163275
853.771	0.0164264
853.849	0.0164639
853.927	0.0163396
854.005	0.0163348
854.083	0.0162693
854.161	0.0163392
854.239	0.0163680
854.317	0.0163461
854.396	0.0163220
854.474	0.0162262
854.552	0.0161371
854.630	0.0161303
854.708	0.0160815
854.786	0.0161107
854.864	0.0159845
854.942	0.0160364
855.021	0.0159154
855.099	0.0159029
855.177	0.0159351
855.255	0.0159893
855.333	0.0158617
855.411	0.0161340
855.489	0.0159636
855.567	0.0158872
855.646	0.0158497
855.724	0.0159638
855.802	0.0159797
855.880	0.0160650
855.958	0.0161089
856.036	0.0160232
856.114	0.0160258
856.192	0.0160687
856.271	0.0160587
856.349	0.0161146
856.427	0.0159894
856.505	0.0159740
856.583	0.0162179
856.661	0.0161900
856.739	0.0161388
856.817	0.0162155
856.896	0.0162422
856.974	0.0161672
857.052	0.0161131
857.130	0.0161163
857.208	0.0160719
857.286	0.0161610
857.364	0.0161481
857.442	0.0162017
857.521	0.0161999
857.599	0.0161472
857.677	0.0160733
857.755	0.0161259
857.833	0.0161327
857.911	0.0160310
857.989	0.0162577
858.067	0.0160923
858.146	0.0160863
858.224	0.0161095
858.302	0.0160521
858.380	0.0160398
858.458	0.0160490
858.536	0.0159839
858.614	0.0160350
858.692	0.0159785
858.771	0.0161235
858.849	0.0162035
858.927	0.0160419
859.005	0.0160488
859.083	0.0161491
859.161	0.0159947
859.239	0.0161292
859.317	0.0162064
859.396	0.0162164
859.474	0.0161803
859.552	0.0161408
859.630	0.0162552
859.708	0.0162173
859.786	0.0160960
859.864	0.0162364
859.942	0.0162848
860.021	0.0161802
860.099	0.0161771
860.177	0.0162593
860.255	0.0163895
860.333	0.0162074
860.411	0.0161990
860.489	0.0161552
860.567	0.0161406
860.646	0.0161871
860.724	0.0162122
860.802	0.0161116
860.880	0.0160239
860.958	0.0160834
861.036	0.0160746
861.114	0.0159929
861.192	0.0160317
861.271	0.0159503
861.349	0.0158947
861.427	0.0158147
861.505	0.0160069
861.583	0.0159723
861.661	0.0158923
861.739	0.0159298
861.817	0.0159048
861.896	0.0159737
861.974	0.0160841
862.052	0.0159022
862.130	0.0159973
862.208	0.0159398
862.286	0.0160229
862.364	0.0160356
862.442	0.0160069
862.521	0.0159993
862.599	0.0160638
862.677	0.0159997
862.755	0.0159777
862.833	0.0161743
862.911	0.0162084
862.989	0.0159399
863.067	0.0159848
863.146	0.0162811
863.224	0.0160427
863.302	0.0160769
863.380	0.0161743
863.458	0.0161932
863.536	0.0160483
863.614	0.0161127
863.692	0.0162220
863.771	0.0162469
863.849	0.0163432
863.927	0.0163457
864.005	0.0161717
864.083	0.0162722
864.161	0.0162417
864.239	0.0162212
864.317	0.0162544
864.396	0.0162666
864.474	0.0161670
864.552	0.0162904
864.630	0.0162485
864.708	0.0163363
864.786	0.0162165
864.864	0.0161417
864.942	0.0160943
865.021	0.0160722
865.099	0.0159682
865.177	0.0161443
865.255	0.0160148
865.333	0.0159089
865.411	0.0158836
865.489	0.0157577
865.567	0.0158843
865.646	0.0157613
865.724	0.0158076
865.802	0.0158070
865.880	0.0158517
865.958	0.0158045
866.036	0.0157549
866.114	0.0161220
866.192	0.0158743
866.271	0.0159888
866.349	0.0160715
866.427	0.0160317
866.505	0.0159645
866.583	0.0158642
866.661	0.0159872
866.739	0.0160046
866.817	0.0158817
866.896	0.0161079
866.974	0.0161463
867.052	0.0162814
867.130	0.0161291
867.208	0.0161540
867.286	0.0162653
867.364	0.0162495
867.442	0.0162419
867.521	0.0163428
867.599	0.0161257
867.677	0.0163345
867.755	0.0161849
867.833	0.0161015
867.911	0.0162173
867.989	0.0162238
868.067	0.0162287
868.146	0.0162013
868.224	0.0161433
868.302	0.0158943
868.380	0.0160578
868.458	0.0161208
868.536	0.0159912
868.614	0.0159818
868.692	0.0159679
868.771	0.0158701
868.849	0.0160590
868.927	0.0160257
869.005	0.0158259
869.083	0.0161753
869.161	0.0161099
869.239	0.0159753
869.317	0.0160414
869.396	0.0160300
869.474	0.0160452
869.552	0.0158289
869.630	0.0158515
869.708	0.0160072
869.786	0.0159351
869.864	0.0158885
869.942	0.0158859
