06/03/2022	15:35:01	Ver.	4.1	UNKNOWN
Optical Delay	550.020508	Delta X		0.078125	Sweeps	1	Scan Rate	0/0
Coordinates	Axis 1	NaN	Axis 2	NaN	Axis 3	NaN	Axis 4	NaN	Axis 5	NaN	Axis 6	0.000000
TX Power	0.000000	RX Power	0.000000

550.021	0.0159476
550.099	0.0158765
550.177	0.0159798
550.255	0.0159434
550.333	0.0158879
550.411	0.0159292
550.489	0.0161156
550.567	0.0159779
550.646	0.0159367
550.724	0.0160821
550.802	0.0160992
550.880	0.0160200
550.958	0.0159772
551.036	0.0159209
551.114	0.0159659
551.192	0.0158698
551.271	0.0159888
551.349	0.0160342
551.427	0.0160423
551.505	0.0159947
551.583	0.0160743
551.661	0.0160854
551.739	0.0158547
551.817	0.0159097
551.896	0.0160091
551.974	0.0160692
552.052	0.0158852
552.130	0.0160827
552.208	0.0160320
552.286	0.0160517
552.364	0.0160017
552.442	0.0160271
552.521	0.0159715
552.599	0.0159602
552.677	0.0160144
552.755	0.0161375
552.833	0.0159473
552.911	0.0158202
552.989	0.0159431
553.067	0.0160720
553.146	0.0158691
553.224	0.0161330
553.302	0.0160822
553.380	0.0159827
553.458	0.0159774
553.536	0.0159119
553.614	0.0160339
553.692	0.0159337
553.771	0.0158144
553.849	0.0159084
553.927	0.0160861
554.005	0.0160463
554.083	0.0159436
554.161	0.0159395
554.239	0.0159246
554.317	0.0159308
554.396	0.0159816
554.474	0.0158944
554.552	0.0158202
554.630	0.0160910
554.708	0.0159923
554.786	0.0159772
554.864	0.0159153
554.942	0.0159502
555.021	0.0159060
555.099	0.0159336
555.177	0.0160825
555.255	0.0161009
555.333	0.0159045
555.411	0.0157867
555.489	0.0160735
555.567	0.0159570
555.646	0.0160294
555.724	0.0159629
555.802	0.0158741
555.880	0.0160366
555.958	0.0160789
556.036	0.0159682
556.114	0.0159348
556.192	0.0158496
556.271	0.0159505
556.349	0.0160564
556.427	0.0158752
556.505	0.0160181
556.583	0.0158978
556.661	0.0159394
556.739	0.0159489
556.817	0.0160763
556.896	0.0159316
556.974	0.0159110
557.052	0.0158620
557.130	0.0160254
557.208	0.0160420
557.286	0.0158485
557.364	0.0158830
557.442	0.0160141
557.521	0.0160149
557.599	0.0159808
557.677	0.0159179
557.755	0.0161098
557.833	0.0159907
557.911	0.0158511
557.989	0.0158532
558.067	0.0161023
558.146	0.0160079
558.224	0.0158544
558.302	0.0159616
558.380	0.0159017
558.458	0.0159634
558.536	0.0159824
558.614	0.0160410
558.692	0.0159493
558.771	0.0159629
558.849	0.0159578
558.927	0.0160092
559.005	0.0159030
559.083	0.0159263
559.161	0.0159071
559.239	0.0158485
559.317	0.0160095
559.396	0.0159375
559.474	0.0160074
559.552	0.0160365
559.630	0.0159869
559.708	0.0159785
559.786	0.0159292
559.864	0.0159245
559.942	0.0159542
560.021	0.0159277
560.099	0.0158902
560.177	0.0159571
560.255	0.0159756
560.333	0.0160595
560.411	0.0159027
560.489	0.0159135
560.567	0.0159311
560.646	0.0160054
560.724	0.0158932
560.802	0.0159794
560.880	0.0159988
560.958	0.0158531
561.036	0.0158517
561.114	0.0159412
561.192	0.0159097
561.271	0.0160567
561.349	0.0159720
561.427	0.0159121
561.505	0.0160361
561.583	0.0158833
561.661	0.0159605
561.739	0.0159162
561.817	0.0161711
561.896	0.0159560
561.974	0.0160141
562.052	0.0159164
562.130	0.0159631
562.208	0.0158226
562.286	0.0159319
562.364	0.0159594
562.442	0.0159319
562.521	0.0160084
562.599	0.0159599
562.677	0.0159470
562.755	0.0159516
562.833	0.0159553
562.911	0.0160799
562.989	0.0159119
563.067	0.0159155
563.146	0.0158851
563.224	0.0158681
563.302	0.0158667
563.380	0.0159383
563.458	0.0159200
563.536	0.0161190
563.614	0.0161195
563.692	0.0159049
563.771	0.0159067
563.849	0.0159987
563.927	0.0160473
564.005	0.0159319
564.083	0.0158896
564.161	0.0160545
564.239	0.0159092
564.317	0.0160462
564.396	0.0159730
564.474	0.0159872
564.552	0.0158833
564.630	0.0160308
564.708	0.0160433
564.786	0.0159035
564.864	0.0159688
564.942	0.0161311
565.021	0.0160247
565.099	0.0160909
565.177	0.0159312
565.255	0.0158871
565.333	0.0159813
565.411	0.0160155
565.489	0.0158804
565.567	0.0160162
565.646	0.0160257
565.724	0.0159494
565.802	0.0160675
565.880	0.0160330
565.958	0.0158099
566.036	0.0159239
566.114	0.0159983
566.192	0.0159000
566.271	0.0160281
566.349	0.0159953
566.427	0.0159229
566.505	0.0158325
566.583	0.0159682
566.661	0.0160653
566.739	0.0159718
566.817	0.0159090
566.896	0.0159846
566.974	0.0159427
567.052	0.0159554
567.130	0.0160509
567.208	0.0159385
567.286	0.0160066
567.364	0.0159913
567.442	0.0159373
567.521	0.0158713
567.599	0.0160052
567.677	0.0159214
567.755	0.0160098
567.833	0.0159975
567.911	0.0158968
567.989	0.0160378
568.067	0.0160648
568.146	0.0158597
568.224	0.0159454
568.302	0.0159087
568.380	0.0159274
568.458	0.0159936
568.536	0.0158966
568.614	0.0159955
568.692	0.0161575
568.771	0.0160024
568.849	0.0160948
568.927	0.0160350
569.005	0.0159641
569.083	0.0159165
569.161	0.0158477
569.239	0.0160408
569.317	0.0159639
569.396	0.0159554
569.474	0.0161624
569.552	0.0159531
569.630	0.0158642
569.708	0.0160083
569.786	0.0160926
569.864	0.0159124
569.942	0.0157893
570.021	0.0159122
570.099	0.0159377
570.177	0.0159595
570.255	0.0158308
570.333	0.0159612
570.411	0.0159557
570.489	0.0159100
570.567	0.0159400
570.646	0.0159181
570.724	0.0159435
570.802	0.0160158
570.880	0.0158804
570.958	0.0161507
571.036	0.0159936
571.114	0.0158606
571.192	0.0159947
571.271	0.0159112
571.349	0.0158739
571.427	0.0159550
571.505	0.0160064
571.583	0.0160974
571.661	0.0160696
571.739	0.0159755
571.817	0.0159695
571.896	0.0160234
571.974	0.0161079
572.052	0.0159219
572.130	0.0159182
572.208	0.0161046
572.286	0.0160472
572.364	0.0159464
572.442	0.0159198
572.521	0.0160078
572.599	0.0158741
572.677	0.0159605
572.755	0.0160432
572.833	0.0160396
572.911	0.0158853
572.989	0.0159502
573.067	0.0159686
573.146	0.0159466
573.224	0.0160309
573.302	0.0158849
573.380	0.0160011
573.458	0.0161284
573.536	0.0159280
573.614	0.0159051
573.692	0.0159715
573.771	0.0159970
573.849	0.0159729
573.927	0.0159402
574.005	0.0159431
574.083	0.0159314
574.161	0.0159026
574.239	0.0158579
574.317	0.0160593
574.396	0.0160435
574.474	0.0160119
574.552	0.0159261
574.630	0.0158974
574.708	0.0159615
574.786	0.0159153
574.864	0.0158180
574.942	0.0160135
575.021	0.0160463
575.099	0.0159290
575.177	0.0158997
575.255	0.0159634
575.333	0.0159669
575.411	0.0160091
575.489	0.0160014
575.567	0.0160593
575.646	0.0160257
575.724	0.0160069
575.802	0.0160184
575.880	0.0160356
575.958	0.0159149
576.036	0.0159591
576.114	0.0160000
576.192	0.0159608
576.271	0.0159999
576.349	0.0159573
576.427	0.0159829
576.505	0.0159547
576.583	0.0158768
576.661	0.0159703
576.739	0.0159141
576.817	0.0159959
576.896	0.0158634
576.974	0.0159757
577.052	0.0160291
577.130	0.0159259
577.208	0.0159657
577.286	0.0159501
577.364	0.0159964
577.442	0.0158306
577.521	0.0159384
577.599	0.0159495
577.677	0.0158642
577.755	0.0159979
577.833	0.0160014
577.911	0.0158971
577.989	0.0159808
578.067	0.0159634
578.146	0.0159755
578.224	0.0159212
578.302	0.0159911
578.380	0.0159283
578.458	0.0158560
578.536	0.0160172
578.614	0.0160246
578.692	0.0158570
578.771	0.0159718
578.849	0.0160828
578.927	0.0159507
579.005	0.0159966
579.083	0.0160418
579.161	0.0160342
579.239	0.0158948
579.317	0.0160280
579.396	0.0159227
579.474	0.0159977
579.552	0.0158826
579.630	0.0160331
579.708	0.0160454
579.786	0.0158894
579.864	0.0159480
579.942	0.0157998
580.021	0.0160319
580.099	0.0160142
580.177	0.0159977
580.255	0.0159631
580.333	0.0160269
580.411	0.0159965
580.489	0.0159919
580.567	0.0159882
580.646	0.0159465
580.724	0.0160139
580.802	0.0160220
580.880	0.0158949
580.958	0.0158829
581.036	0.0160397
581.114	0.0159704
581.192	0.0159208
581.271	0.0158990
581.349	0.0159551
581.427	0.0160182
581.505	0.0160505
581.583	0.0160424
581.661	0.0160349
581.739	0.0159776
581.817	0.0160359
581.896	0.0158508
581.974	0.0159730
582.052	0.0159258
582.130	0.0160175
582.208	0.0160924
582.286	0.0159163
582.364	0.0159636
582.442	0.0160226
582.521	0.0159177
582.599	0.0158714
582.677	0.0160834
582.755	0.0159960
582.833	0.0160320
582.911	0.0160498
582.989	0.0160261
583.067	0.0159322
583.146	0.0160062
583.224	0.0159093
583.302	0.0159774
583.380	0.0159972
583.458	0.0159181
583.536	0.0158370
583.614	0.0158752
583.692	0.0159995
583.771	0.0159938
583.849	0.0159071
583.927	0.0159610
584.005	0.0158488
584.083	0.0160754
584.161	0.0159542
584.239	0.0159067
584.317	0.0159838
584.396	0.0159629
584.474	0.0160696
584.552	0.0158659
584.630	0.0159626
584.708	0.0160027
584.786	0.0159335
584.864	0.0160753
584.942	0.0159505
585.021	0.0159985
585.099	0.0160474
585.177	0.0160223
585.255	0.0159007
585.333	0.0160265
585.411	0.0160714
585.489	0.0159184
585.567	0.0159808
585.646	0.0160634
585.724	0.0159937
585.802	0.0161069
585.880	0.0160662
585.958	0.0159345
586.036	0.0159210
586.114	0.0158969
586.192	0.0160648
586.271	0.0159049
586.349	0.0159039
586.427	0.0160879
586.505	0.0159685
586.583	0.0160616
586.661	0.0160849
586.739	0.0159270
586.817	0.0160114
586.896	0.0159164
586.974	0.0160121
587.052	0.0159600
587.130	0.0160110
587.208	0.0159348
587.286	0.0160537
587.364	0.0159704
587.442	0.0160762
587.521	0.0158684
587.599	0.0160747
587.677	0.0159840
587.755	0.0158855
587.833	0.0159171
587.911	0.0159569
587.989	0.0159978
588.067	0.0159161
588.146	0.0159800
588.224	0.0159412
588.302	0.0160545
588.380	0.0158768
588.458	0.0158911
588.536	0.0159208
588.614	0.0159305
588.692	0.0158816
588.771	0.0161438
588.849	0.0159820
588.927	0.0158822
589.005	0.0161250
589.083	0.0159896
589.161	0.0158911
589.239	0.0159975
589.317	0.0161000
589.396	0.0159164
589.474	0.0159821
589.552	0.0158376
589.630	0.0160046
589.708	0.0160489
589.786	0.0161015
589.864	0.0161250
589.942	0.0159035
590.021	0.0160564
590.099	0.0160381
590.177	0.0160023
590.255	0.0157755
590.333	0.0159333
590.411	0.0159438
590.489	0.0159373
590.567	0.0159946
590.646	0.0157919
590.724	0.0159627
590.802	0.0161221
590.880	0.0159722
590.958	0.0159295
591.036	0.0158746
591.114	0.0159790
591.192	0.0160793
591.271	0.0158799
591.349	0.0159851
591.427	0.0160708
591.505	0.0159027
591.583	0.0159316
591.661	0.0159840
591.739	0.0159258
591.817	0.0158611
591.896	0.0159091
591.974	0.0159251
592.052	0.0160892
592.130	0.0159428
592.208	0.0158128
592.286	0.0158591
592.364	0.0160249
592.442	0.0160950
592.521	0.0158945
592.599	0.0161111
592.677	0.0160192
592.755	0.0158875
592.833	0.0158897
592.911	0.0159702
592.989	0.0160134
593.067	0.0161124
593.146	0.0158619
593.224	0.0159032
593.302	0.0158631
593.380	0.0160969
593.458	0.0160314
593.536	0.0158900
593.614	0.0158223
593.692	0.0159589
593.771	0.0159264
593.849	0.0157919
593.927	0.0160287
594.005	0.0159509
594.083	0.0159764
594.161	0.0159557
594.239	0.0158128
594.317	0.0161368
594.396	0.0160053
594.474	0.0159119
594.552	0.0159738
594.630	0.0160401
594.708	0.0159708
594.786	0.0159276
594.864	0.0160825
594.942	0.0159398
595.021	0.0159096
595.099	0.0159239
595.177	0.0159972
595.255	0.0159843
595.333	0.0159830
595.411	0.0159206
595.489	0.0160173
595.567	0.0159865
595.646	0.0158578
595.724	0.0159538
595.802	0.0159908
595.880	0.0159056
595.958	0.0159543
596.036	0.0160172
596.114	0.0160751
596.192	0.0157724
596.271	0.0159380
596.349	0.0159793
596.427	0.0159261
596.505	0.0161005
596.583	0.0159666
596.661	0.0161336
596.739	0.0159480
596.817	0.0159418
596.896	0.0160371
596.974	0.0159956
597.052	0.0159746
597.130	0.0158456
597.208	0.0159743
597.286	0.0158990
597.364	0.0159447
597.442	0.0160397
597.521	0.0159328
597.599	0.0159715
597.677	0.0158987
597.755	0.0159087
597.833	0.0158959
597.911	0.0159035
597.989	0.0160294
598.067	0.0159520
598.146	0.0158443
598.224	0.0160489
598.302	0.0159763
598.380	0.0159162
598.458	0.0159668
598.536	0.0158910
598.614	0.0158517
598.692	0.0160649
598.771	0.0159368
598.849	0.0159944
598.927	0.0160535
599.005	0.0158684
599.083	0.0160352
599.161	0.0159421
599.239	0.0159763
599.317	0.0158556
599.396	0.0159569
599.474	0.0159731
599.552	0.0159916
599.630	0.0157941
599.708	0.0158565
599.786	0.0160416
599.864	0.0160446
599.942	0.0159232
600.021	0.0159863
600.099	0.0160064
600.177	0.0160138
600.255	0.0159737
600.333	0.0158994
600.411	0.0160600
600.489	0.0159407
600.567	0.0158977
600.646	0.0160915
600.724	0.0159705
600.802	0.0159334
600.880	0.0159138
600.958	0.0159875
601.036	0.0158945
601.114	0.0160651
601.192	0.0159901
601.271	0.0159635
601.349	0.0158604
601.427	0.0158440
601.505	0.0159386
601.583	0.0158889
601.661	0.0159016
601.739	0.0160661
601.817	0.0158613
601.896	0.0160109
601.974	0.0159399
602.052	0.0158870
602.130	0.0158577
602.208	0.0160484
602.286	0.0160171
602.364	0.0158492
602.442	0.0159609
602.521	0.0158851
602.599	0.0159408
602.677	0.0158883
602.755	0.0159344
602.833	0.0159687
602.911	0.0160062
602.989	0.0160580
603.067	0.0160120
603.146	0.0158719
603.224	0.0159532
603.302	0.0158776
603.380	0.0160127
603.458	0.0159454
603.536	0.0159102
603.614	0.0159679
603.692	0.0161171
603.771	0.0159901
603.849	0.0159504
603.927	0.0161179
604.005	0.0158551
604.083	0.0159418
604.161	0.0160159
604.239	0.0159227
604.317	0.0158256
604.396	0.0160027
604.474	0.0159974
604.552	0.0159081
604.630	0.0160415
604.708	0.0160393
604.786	0.0158109
604.864	0.0158993
604.942	0.0160555
605.021	0.0159932
605.099	0.0161313
605.177	0.0159709
605.255	0.0158716
605.333	0.0159558
605.411	0.0160738
605.489	0.0159901
605.567	0.0158949
605.646	0.0159256
605.724	0.0159655
605.802	0.0160577
605.880	0.0159234
605.958	0.0159486
606.036	0.0160632
606.114	0.0159681
606.192	0.0160592
606.271	0.0159545
606.349	0.0159642
606.427	0.0158782
606.505	0.0159505
606.583	0.0159995
606.661	0.0158937
606.739	0.0160071
606.817	0.0160620
606.896	0.0159868
606.974	0.0159185
607.052	0.0160177
607.130	0.0160960
607.208	0.0158638
607.286	0.0160085
607.364	0.0160675
607.442	0.0159828
607.521	0.0159768
607.599	0.0160810
607.677	0.0160370
607.755	0.0158727
607.833	0.0159724
607.911	0.0159258
607.989	0.0159183
608.067	0.0159739
608.146	0.0159905
608.224	0.0158327
608.302	0.0158497
608.380	0.0159701
608.458	0.0160474
608.536	0.0160851
608.614	0.0160973
608.692	0.0160126
608.771	0.0160007
608.849	0.0160178
608.927	0.0158657
609.005	0.0160894
609.083	0.0160161
609.161	0.0160641
609.239	0.0159759
609.317	0.0157996
609.396	0.0158910
609.474	0.0159568
609.552	0.0160587
609.630	0.0159912
609.708	0.0160316
609.786	0.0158755
609.864	0.0158852
609.942	0.0159352
610.021	0.0159724
610.099	0.0159125
610.177	0.0158935
610.255	0.0161157
610.333	0.0159700
610.411	0.0159764
610.489	0.0159967
610.567	0.0159626
610.646	0.0160603
610.724	0.0160453
610.802	0.0159313
610.880	0.0159888
610.958	0.0159875
611.036	0.0159415
611.114	0.0159543
611.192	0.0160342
611.271	0.0159995
611.349	0.0159709
611.427	0.0158936
611.505	0.0159799
611.583	0.0159538
611.661	0.0159681
611.739	0.0160079
611.817	0.0159953
611.896	0.0160151
611.974	0.0159712
612.052	0.0159980
612.130	0.0159267
612.208	0.0160504
612.286	0.0159628
612.364	0.0158484
612.442	0.0158783
612.521	0.0160334
612.599	0.0160760
612.677	0.0159640
612.755	0.0158572
612.833	0.0159799
612.911	0.0159907
612.989	0.0161695
613.067	0.0160011
613.146	0.0158794
613.224	0.0161549
613.302	0.0160244
613.380	0.0160503
613.458	0.0160200
613.536	0.0160506
613.614	0.0159976
613.692	0.0159109
613.771	0.0160117
613.849	0.0159425
613.927	0.0158631
614.005	0.0160181
614.083	0.0159029
614.161	0.0161682
614.239	0.0158907
614.317	0.0158443
614.396	0.0159661
614.474	0.0160278
614.552	0.0160060
614.630	0.0160442
614.708	0.0159186
614.786	0.0159702
614.864	0.0159595
614.942	0.0159379
615.021	0.0159472
615.099	0.0159695
615.177	0.0160083
615.255	0.0159522
615.333	0.0160283
615.411	0.0159886
615.489	0.0160019
615.567	0.0159079
615.646	0.0159121
615.724	0.0159842
615.802	0.0160713
615.880	0.0159663
615.958	0.0160110
616.036	0.0158566
616.114	0.0160110
616.192	0.0158785
616.271	0.0160058
616.349	0.0159583
616.427	0.0159280
616.505	0.0159605
616.583	0.0159166
616.661	0.0158451
616.739	0.0158972
616.817	0.0160053
616.896	0.0159538
616.974	0.0160030
617.052	0.0160112
617.130	0.0158136
617.208	0.0159682
617.286	0.0159423
617.364	0.0160313
617.442	0.0158808
617.521	0.0160027
617.599	0.0159949
617.677	0.0159571
617.755	0.0159943
617.833	0.0160431
617.911	0.0158422
617.989	0.0159039
618.067	0.0159702
618.146	0.0159612
618.224	0.0159812
618.302	0.0159901
618.380	0.0160173
618.458	0.0160492
618.536	0.0159821
618.614	0.0160574
618.692	0.0159634
618.771	0.0160748
618.849	0.0160831
618.927	0.0158977
619.005	0.0158362
619.083	0.0159222
619.161	0.0158923
619.239	0.0159476
619.317	0.0159850
619.396	0.0159600
619.474	0.0158784
619.552	0.0159388
619.630	0.0159220
619.708	0.0159689
619.786	0.0159106
619.864	0.0160107
619.942	0.0159902
620.021	0.0160818
620.099	0.0158936
620.177	0.0158807
620.255	0.0160075
620.333	0.0159448
620.411	0.0159763
620.489	0.0158301
620.567	0.0159621
620.646	0.0158781
620.724	0.0159037
620.802	0.0161190
620.880	0.0160548
620.958	0.0159049
621.036	0.0158549
621.114	0.0158983
621.192	0.0159384
621.271	0.0160358
621.349	0.0159985
621.427	0.0158901
621.505	0.0160680
621.583	0.0158916
621.661	0.0158204
621.739	0.0159336
621.817	0.0160395
621.896	0.0160047
621.974	0.0158920
622.052	0.0160815
622.130	0.0159286
622.208	0.0159850
622.286	0.0160182
622.364	0.0159916
622.442	0.0159807
622.521	0.0159866
622.599	0.0159038
622.677	0.0160279
622.755	0.0160636
622.833	0.0160382
622.911	0.0161197
622.989	0.0160287
623.067	0.0160418
623.146	0.0159737
623.224	0.0159344
623.302	0.0159399
623.380	0.0159959
623.458	0.0159301
623.536	0.0160014
623.614	0.0160094
623.692	0.0158877
623.771	0.0159819
623.849	0.0157545
623.927	0.0158858
624.005	0.0158550
624.083	0.0158876
624.161	0.0160307
624.239	0.0159957
624.317	0.0160581
624.396	0.0159218
624.474	0.0160091
624.552	0.0159911
624.630	0.0159068
624.708	0.0159101
624.786	0.0160164
624.864	0.0158603
624.942	0.0159251
625.021	0.0158807
625.099	0.0158570
625.177	0.0160136
625.255	0.0160631
625.333	0.0158804
625.411	0.0159504
625.489	0.0160255
625.567	0.0159025
625.646	0.0159406
625.724	0.0160246
625.802	0.0159401
625.880	0.0159297
625.958	0.0159274
626.036	0.0161082
626.114	0.0158080
626.192	0.0157996
626.271	0.0158627
626.349	0.0160151
626.427	0.0159353
626.505	0.0159566
626.583	0.0158753
626.661	0.0159288
626.739	0.0158389
626.817	0.0159882
626.896	0.0160116
626.974	0.0159403
627.052	0.0158174
627.130	0.0159122
627.208	0.0159242
627.286	0.0159800
627.364	0.0158336
627.442	0.0159897
627.521	0.0159190
627.599	0.0159915
627.677	0.0160476
627.755	0.0158933
627.833	0.0158018
627.911	0.0158749
627.989	0.0160112
628.067	0.0160376
628.146	0.0160375
628.224	0.0159478
628.302	0.0160610
628.380	0.0160268
628.458	0.0160237
628.536	0.0160290
628.614	0.0161261
628.692	0.0158771
628.771	0.0159988
628.849	0.0160072
628.927	0.0158736
629.005	0.0158920
629.083	0.0158584
629.161	0.0157999
629.239	0.0159402
629.317	0.0160209
629.396	0.0159811
629.474	0.0159781
629.552	0.0158442
629.630	0.0159361
629.708	0.0158829
629.786	0.0159489
629.864	0.0160330
629.942	0.0158363
630.021	0.0158547
630.099	0.0159219
630.177	0.0159933
630.255	0.0160116
630.333	0.0158015
630.411	0.0159673
630.489	0.0159393
630.567	0.0159161
630.646	0.0159235
630.724	0.0160398
630.802	0.0159866
630.880	0.0160289
630.958	0.0160095
631.036	0.0159973
631.114	0.0158851
631.192	0.0159246
631.271	0.0160139
631.349	0.0160825
631.427	0.0159200
631.505	0.0159195
631.583	0.0158482
631.661	0.0159293
631.739	0.0161273
631.817	0.0159688
631.896	0.0158926
631.974	0.0160288
632.052	0.0161286
632.130	0.0159906
632.208	0.0159274
632.286	0.0160000
632.364	0.0160074
632.442	0.0158614
632.521	0.0159373
632.599	0.0159850
632.677	0.0159548
632.755	0.0158041
632.833	0.0159792
632.911	0.0160332
632.989	0.0160411
633.067	0.0157339
633.146	0.0158245
633.224	0.0158729
633.302	0.0159581
633.380	0.0157868
633.458	0.0160231
633.536	0.0159499
633.614	0.0158634
633.692	0.0157278
633.771	0.0158563
633.849	0.0158375
633.927	0.0159268
634.005	0.0158651
634.083	0.0160651
634.161	0.0159903
634.239	0.0159196
634.317	0.0159560
634.396	0.0161111
634.474	0.0160165
634.552	0.0159542
634.630	0.0159415
634.708	0.0160808
634.786	0.0160764
634.864	0.0159889
634.942	0.0160880
635.021	0.0158769
635.099	0.0160246
635.177	0.0161486
635.255	0.0159629
635.333	0.0159171
635.411	0.0161983
635.489	0.0159796
635.567	0.0160033
635.646	0.0161426
635.724	0.0161264
635.802	0.0161790
635.880	0.0160403
635.958	0.0160181
636.036	0.0159847
636.114	0.0159981
636.192	0.0159940
636.271	0.0159973
636.349	0.0159708
636.427	0.0161497
636.505	0.0160723
636.583	0.0159064
636.661	0.0160226
636.739	0.0157748
636.817	0.0158657
636.896	0.0158424
636.974	0.0159849
637.052	0.0158006
637.130	0.0158688
637.208	0.0158699
637.286	0.0159283
637.364	0.0158837
637.442	0.0158459
637.521	0.0158414
637.599	0.0158284
637.677	0.0159326
637.755	0.0158305
637.833	0.0159263
637.911	0.0158687
637.989	0.0158778
638.067	0.0160396
638.146	0.0159857
638.224	0.0159199
638.302	0.0159000
638.380	0.0158737
638.458	0.0158901
638.536	0.0159093
638.614	0.0159403
638.692	0.0159509
638.771	0.0160254
638.849	0.0161516
638.927	0.0160107
639.005	0.0160822
639.083	0.0160030
639.161	0.0159490
639.239	0.0159875
639.317	0.0159653
639.396	0.0158805
639.474	0.0159193
639.552	0.0160624
639.630	0.0160293
639.708	0.0159921
639.786	0.0159349
639.864	0.0158623
639.942	0.0159214
640.021	0.0159550
640.099	0.0159657
640.177	0.0159552
640.255	0.0159999
640.333	0.0158791
640.411	0.0159123
640.489	0.0159746
640.567	0.0159315
640.646	0.0159940
640.724	0.0158976
640.802	0.0158058
640.880	0.0159764
640.958	0.0158615
641.036	0.0159589
641.114	0.0158731
641.192	0.0158511
641.271	0.0159332
641.349	0.0159228
641.427	0.0159879
641.505	0.0158531
641.583	0.0158285
641.661	0.0160484
641.739	0.0159547
641.817	0.0160134
641.896	0.0159117
641.974	0.0160175
642.052	0.0159489
642.130	0.0157970
642.208	0.0159661
642.286	0.0161242
642.364	0.0158346
642.442	0.0160260
642.521	0.0159425
642.599	0.0160223
642.677	0.0160038
642.755	0.0160361
642.833	0.0159467
642.911	0.0161171
642.989	0.0159402
643.067	0.0159644
643.146	0.0158673
643.224	0.0159699
643.302	0.0159942
643.380	0.0160753
643.458	0.0159573
643.536	0.0159216
643.614	0.0159784
643.692	0.0159495
643.771	0.0158909
643.849	0.0160182
643.927	0.0159641
644.005	0.0160091
644.083	0.0160983
644.161	0.0158157
644.239	0.0160134
644.317	0.0160055
644.396	0.0159373
644.474	0.0159760
644.552	0.0159348
644.630	0.0159780
644.708	0.0158961
644.786	0.0160575
644.864	0.0158984
644.942	0.0159252
645.021	0.0159669
645.099	0.0159037
645.177	0.0159002
645.255	0.0158949
645.333	0.0158444
645.411	0.0158861
645.489	0.0159756
645.567	0.0159017
645.646	0.0159161
645.724	0.0159696
645.802	0.0158762
645.880	0.0160356
645.958	0.0158918
646.036	0.0159603
646.114	0.0158942
646.192	0.0160120
646.271	0.0160172
646.349	0.0158403
646.427	0.0159497
646.505	0.0161135
646.583	0.0159605
646.661	0.0159361
646.739	0.0160274
646.817	0.0158395
646.896	0.0159696
646.974	0.0159894
647.052	0.0159447
647.130	0.0159415
647.208	0.0159035
647.286	0.0159217
647.364	0.0159290
647.442	0.0158372
647.521	0.0159978
647.599	0.0159345
647.677	0.0160399
647.755	0.0159665
647.833	0.0159350
647.911	0.0159749
647.989	0.0159083
648.067	0.0159444
648.146	0.0159746
648.224	0.0159640
648.302	0.0158348
648.380	0.0158881
648.458	0.0158195
648.536	0.0159837
648.614	0.0159793
648.692	0.0158774
648.771	0.0160159
648.849	0.0158742
648.927	0.0159121
649.005	0.0161111
649.083	0.0160392
649.161	0.0160841
649.239	0.0159367
649.317	0.0159187
649.396	0.0159769
649.474	0.0159866
649.552	0.0159877
649.630	0.0160300
649.708	0.0160103
649.786	0.0158873
649.864	0.0159365
649.942	0.0159183
650.021	0.0159093
650.099	0.0160817
650.177	0.0160135
650.255	0.0158902
650.333	0.0160034
650.411	0.0160609
650.489	0.0159974
650.567	0.0159480
650.646	0.0160123
650.724	0.0160962
650.802	0.0160912
650.880	0.0159261
650.958	0.0160369
651.036	0.0158958
651.114	0.0160225
651.192	0.0159876
651.271	0.0158955
651.349	0.0159583
651.427	0.0159848
651.505	0.0159770
651.583	0.0160418
651.661	0.0160465
651.739	0.0159693
651.817	0.0160059
651.896	0.0159553
651.974	0.0160632
652.052	0.0160793
652.130	0.0159581
652.208	0.0159813
652.286	0.0160696
652.364	0.0160870
652.442	0.0159814
652.521	0.0159556
652.599	0.0158603
652.677	0.0159783
652.755	0.0160284
652.833	0.0160799
652.911	0.0160062
652.989	0.0160059
653.067	0.0161958
653.146	0.0159748
653.224	0.0159174
653.302	0.0158933
653.380	0.0159753
653.458	0.0159629
653.536	0.0160985
653.614	0.0160358
653.692	0.0160633
653.771	0.0158699
653.849	0.0159629
653.927	0.0159953
654.005	0.0161152
654.083	0.0158889
654.161	0.0160268
654.239	0.0159448
654.317	0.0159187
654.396	0.0159645
654.474	0.0159975
654.552	0.0159369
654.630	0.0159960
654.708	0.0159733
654.786	0.0160391
654.864	0.0159779
654.942	0.0159664
655.021	0.0160757
655.099	0.0159497
655.177	0.0158247
655.255	0.0158591
655.333	0.0159859
655.411	0.0159473
655.489	0.0160175
655.567	0.0159549
655.646	0.0159871
655.724	0.0159727
655.802	0.0158968
655.880	0.0159364
655.958	0.0159640
656.036	0.0160255
656.114	0.0159211
656.192	0.0161215
656.271	0.0159718
656.349	0.0159855
656.427	0.0158839
656.505	0.0159869
656.583	0.0160748
656.661	0.0160381
656.739	0.0159389
656.817	0.0159661
656.896	0.0159679
656.974	0.0158762
657.052	0.0160827
657.130	0.0160520
657.208	0.0159981
657.286	0.0158336
657.364	0.0159746
657.442	0.0159148
657.521	0.0158677
657.599	0.0160896
657.677	0.0160519
657.755	0.0160031
657.833	0.0158331
657.911	0.0159807
657.989	0.0160015
658.067	0.0160815
658.146	0.0159113
658.224	0.0160249
658.302	0.0160773
658.380	0.0159594
658.458	0.0159161
658.536	0.0159116
658.614	0.0160282
658.692	0.0159846
658.771	0.0159036
658.849	0.0159454
658.927	0.0160365
659.005	0.0160587
659.083	0.0159740
659.161	0.0159367
659.239	0.0159190
659.317	0.0159915
659.396	0.0159459
659.474	0.0159230
659.552	0.0159769
659.630	0.0159840
659.708	0.0160464
659.786	0.0159156
659.864	0.0159424
659.942	0.0157950
660.021	0.0159198
660.099	0.0159179
660.177	0.0160077
660.255	0.0159213
660.333	0.0159892
660.411	0.0160867
660.489	0.0160768
660.567	0.0159246
660.646	0.0159235
660.724	0.0159007
660.802	0.0158797
660.880	0.0159504
660.958	0.0159542
661.036	0.0158912
661.114	0.0160332
661.192	0.0160245
661.271	0.0159634
661.349	0.0160400
661.427	0.0158805
661.505	0.0158930
661.583	0.0159123
661.661	0.0161720
661.739	0.0159744
661.817	0.0159770
661.896	0.0159742
661.974	0.0159550
662.052	0.0160294
662.130	0.0160420
662.208	0.0159964
662.286	0.0158987
662.364	0.0159088
662.442	0.0159895
662.521	0.0159343
662.599	0.0160876
662.677	0.0159200
662.755	0.0160497
662.833	0.0159840
662.911	0.0159306
662.989	0.0159911
663.067	0.0161362
663.146	0.0159519
663.224	0.0160066
663.302	0.0161160
663.380	0.0159273
663.458	0.0159346
663.536	0.0159942
663.614	0.0159010
663.692	0.0160240
663.771	0.0159309
663.849	0.0159991
663.927	0.0159738
664.005	0.0160078
664.083	0.0160307
664.161	0.0161446
664.239	0.0159406
664.317	0.0159554
664.396	0.0159573
664.474	0.0158724
664.552	0.0158897
664.630	0.0160277
664.708	0.0159018
664.786	0.0158754
664.864	0.0158738
664.942	0.0159037
665.021	0.0159261
665.099	0.0160241
665.177	0.0161273
665.255	0.0159836
665.333	0.0159145
665.411	0.0159260
665.489	0.0159444
665.567	0.0161240
665.646	0.0160155
665.724	0.0159714
665.802	0.0159467
665.880	0.0160932
665.958	0.0158720
666.036	0.0159182
666.114	0.0160391
666.192	0.0160306
666.271	0.0159277
666.349	0.0158998
666.427	0.0159249
666.505	0.0159004
666.583	0.0160524
666.661	0.0160346
666.739	0.0159726
666.817	0.0161369
666.896	0.0159397
666.974	0.0158517
667.052	0.0160103
667.130	0.0160191
667.208	0.0159095
667.286	0.0158644
667.364	0.0160285
667.442	0.0159819
667.521	0.0160183
667.599	0.0160004
667.677	0.0159944
667.755	0.0159430
667.833	0.0160670
667.911	0.0159863
667.989	0.0159260
668.067	0.0161213
668.146	0.0159915
668.224	0.0159806
668.302	0.0159628
668.380	0.0160130
668.458	0.0160207
668.536	0.0159730
668.614	0.0160211
668.692	0.0159518
668.771	0.0159644
668.849	0.0160482
668.927	0.0158951
669.005	0.0160003
669.083	0.0159751
669.161	0.0159942
669.239	0.0160206
669.317	0.0160695
669.396	0.0160227
669.474	0.0160199
669.552	0.0159499
669.630	0.0158638
669.708	0.0161243
669.786	0.0159609
669.864	0.0159014
669.942	0.0159497
670.021	0.0160386
670.099	0.0160060
670.177	0.0159454
670.255	0.0159536
670.333	0.0160461
670.411	0.0159785
670.489	0.0160056
670.567	0.0159996
670.646	0.0159784
670.724	0.0160545
670.802	0.0159702
670.880	0.0159957
670.958	0.0159875
671.036	0.0159921
671.114	0.0160226
671.192	0.0159263
671.271	0.0159545
671.349	0.0160786
671.427	0.0159667
671.505	0.0161333
671.583	0.0160316
671.661	0.0161015
671.739	0.0159291
671.817	0.0160778
671.896	0.0159592
671.974	0.0159661
672.052	0.0159839
672.130	0.0161515
672.208	0.0160069
672.286	0.0158218
672.364	0.0159481
672.442	0.0159974
672.521	0.0160686
672.599	0.0159821
672.677	0.0159553
672.755	0.0159570
672.833	0.0159312
672.911	0.0158906
672.989	0.0160049
673.067	0.0158298
673.146	0.0157684
673.224	0.0160936
673.302	0.0159073
673.380	0.0159371
673.458	0.0160644
673.536	0.0160757
673.614	0.0159888
673.692	0.0159703
673.771	0.0160048
673.849	0.0158974
673.927	0.0158072
674.005	0.0160138
674.083	0.0160578
674.161	0.0160834
674.239	0.0159573
674.317	0.0160076
674.396	0.0160301
674.474	0.0158955
674.552	0.0160297
674.630	0.0160590
674.708	0.0159012
674.786	0.0159473
674.864	0.0159983
674.942	0.0160715
675.021	0.0158912
675.099	0.0159798
675.177	0.0159547
675.255	0.0159614
675.333	0.0159668
675.411	0.0160447
675.489	0.0159834
675.567	0.0159762
675.646	0.0159873
675.724	0.0158595
675.802	0.0160349
675.880	0.0159411
675.958	0.0158703
676.036	0.0159770
676.114	0.0158249
676.192	0.0159908
676.271	0.0160205
676.349	0.0159437
676.427	0.0160594
676.505	0.0159760
676.583	0.0160459
676.661	0.0160885
676.739	0.0158878
676.817	0.0159461
676.896	0.0160738
676.974	0.0159776
677.052	0.0161490
677.130	0.0160516
677.208	0.0159956
677.286	0.0159587
677.364	0.0161075
677.442	0.0159505
677.521	0.0158410
677.599	0.0159512
677.677	0.0160497
677.755	0.0158086
677.833	0.0159332
677.911	0.0158939
677.989	0.0159836
678.067	0.0159387
678.146	0.0159282
678.224	0.0159100
678.302	0.0159859
678.380	0.0160173
678.458	0.0159460
678.536	0.0158740
678.614	0.0159285
678.692	0.0159423
678.771	0.0159953
678.849	0.0160534
678.927	0.0159795
679.005	0.0159306
679.083	0.0160725
679.161	0.0158429
679.239	0.0159685
679.317	0.0160033
679.396	0.0160130
679.474	0.0160670
679.552	0.0159566
679.630	0.0160356
679.708	0.0161950
679.786	0.0160673
679.864	0.0160235
679.942	0.0160184
680.021	0.0159284
680.099	0.0159814
680.177	0.0159892
680.255	0.0160883
680.333	0.0158870
680.411	0.0159843
680.489	0.0159322
680.567	0.0160585
680.646	0.0160945
680.724	0.0159265
680.802	0.0160799
680.880	0.0159786
680.958	0.0159161
681.036	0.0159133
681.114	0.0159055
681.192	0.0160046
681.271	0.0160767
681.349	0.0160419
681.427	0.0160091
681.505	0.0159336
681.583	0.0158774
681.661	0.0158620
681.739	0.0159106
681.817	0.0158761
681.896	0.0158966
681.974	0.0159133
682.052	0.0160191
682.130	0.0159059
682.208	0.0159149
682.286	0.0159039
682.364	0.0159073
682.442	0.0159141
682.521	0.0159576
682.599	0.0159940
682.677	0.0158816
682.755	0.0160546
682.833	0.0158654
682.911	0.0158987
682.989	0.0158414
683.067	0.0158874
683.146	0.0160487
683.224	0.0160056
683.302	0.0159201
683.380	0.0158900
683.458	0.0159647
683.536	0.0159942
683.614	0.0158889
683.692	0.0160069
683.771	0.0159375
683.849	0.0158189
683.927	0.0159197
684.005	0.0159620
684.083	0.0159003
684.161	0.0159578
684.239	0.0160548
684.317	0.0161264
684.396	0.0159218
684.474	0.0158644
684.552	0.0159241
684.630	0.0160476
684.708	0.0159712
684.786	0.0159489
684.864	0.0158759
684.942	0.0159314
685.021	0.0159608
685.099	0.0160278
685.177	0.0159619
685.255	0.0159052
685.333	0.0158887
685.411	0.0159106
685.489	0.0159479
685.567	0.0158598
685.646	0.0160303
685.724	0.0159264
685.802	0.0160057
685.880	0.0159673
685.958	0.0159037
686.036	0.0158144
686.114	0.0157807
686.192	0.0158476
686.271	0.0160947
686.349	0.0159180
686.427	0.0159209
686.505	0.0159412
686.583	0.0158630
686.661	0.0158486
686.739	0.0160419
686.817	0.0160819
686.896	0.0159885
686.974	0.0160768
687.052	0.0159389
687.130	0.0159131
687.208	0.0159870
687.286	0.0159704
687.364	0.0159673
687.442	0.0158562
687.521	0.0160166
687.599	0.0159216
687.677	0.0158757
687.755	0.0158015
687.833	0.0157524
687.911	0.0159193
687.989	0.0158471
688.067	0.0160000
688.146	0.0159715
688.224	0.0159187
688.302	0.0160056
688.380	0.0160897
688.458	0.0159145
688.536	0.0160193
688.614	0.0161839
688.692	0.0161559
688.771	0.0161139
688.849	0.0160696
688.927	0.0159920
689.005	0.0159628
689.083	0.0159132
689.161	0.0159144
689.239	0.0158592
689.317	0.0158475
689.396	0.0159736
689.474	0.0158935
689.552	0.0156594
689.630	0.0158308
689.708	0.0159863
689.786	0.0160187
689.864	0.0161521
689.942	0.0162833
690.021	0.0162459
690.099	0.0163847
690.177	0.0163731
690.255	0.0163530
690.333	0.0160785
690.411	0.0162315
690.489	0.0158989
690.567	0.0158428
690.646	0.0156261
690.724	0.0154006
690.802	0.0155280
690.880	0.0153358
690.958	0.0154536
691.036	0.0154871
691.114	0.0154421
691.192	0.0156516
691.271	0.0158640
691.349	0.0161173
691.427	0.0164046
691.505	0.0165633
691.583	0.0167359
691.661	0.0168086
691.739	0.0167328
691.817	0.0164582
691.896	0.0164564
691.974	0.0161963
692.052	0.0159272
692.130	0.0154720
692.208	0.0151328
692.286	0.0150140
692.364	0.0148806
692.442	0.0149172
692.521	0.0150526
692.599	0.0152746
692.677	0.0155073
692.755	0.0158272
692.833	0.0161142
692.911	0.0163483
692.989	0.0166225
693.067	0.0168493
693.146	0.0169688
693.224	0.0170187
693.302	0.0168254
693.380	0.0166410
693.458	0.0163331
693.536	0.0157402
693.614	0.0154283
693.692	0.0150257
693.771	0.0149120
693.849	0.0149709
693.927	0.0148193
694.005	0.0149261
694.083	0.0151256
694.161	0.0155640
694.239	0.0156305
694.317	0.0157731
694.396	0.0159359
694.474	0.0162901
694.552	0.0166713
694.630	0.0166789
694.708	0.0167664
694.786	0.0168066
694.864	0.0167091
694.942	0.0166383
695.021	0.0165153
695.099	0.0161687
695.177	0.0160095
695.255	0.0158369
695.333	0.0154635
695.411	0.0152934
695.489	0.0152779
695.567	0.0151857
695.646	0.0152808
695.724	0.0154333
695.802	0.0154451
695.880	0.0158148
695.958	0.0159140
696.036	0.0159949
696.114	0.0162231
696.192	0.0165009
696.271	0.0163761
696.349	0.0164313
696.427	0.0163155
696.505	0.0161472
696.583	0.0160760
696.661	0.0158849
696.739	0.0157570
696.817	0.0154914
696.896	0.0156486
696.974	0.0154500
697.052	0.0155272
697.130	0.0156768
697.208	0.0157703
697.286	0.0159581
697.364	0.0159782
697.442	0.0160141
697.521	0.0163528
697.599	0.0162519
697.677	0.0161446
697.755	0.0162090
697.833	0.0162837
697.911	0.0163533
697.989	0.0161861
698.067	0.0164203
698.146	0.0164075
698.224	0.0162534
698.302	0.0163046
698.380	0.0162927
698.458	0.0163668
698.536	0.0163525
698.614	0.0162650
698.692	0.0163359
698.771	0.0161137
698.849	0.0159617
698.927	0.0157856
699.005	0.0156419
699.083	0.0155625
699.161	0.0151375
699.239	0.0149770
699.317	0.0149218
699.396	0.0149870
699.474	0.0150894
699.552	0.0151841
699.630	0.0151807
699.708	0.0155495
699.786	0.0156644
699.864	0.0157615
699.942	0.0159212
700.021	0.0159216
700.099	0.0160661
700.177	0.0161549
700.255	0.0161782
700.333	0.0161195
700.411	0.0159298
700.489	0.0160087
700.567	0.0159198
700.646	0.0158484
700.724	0.0157765
700.802	0.0157991
700.880	0.0159525
700.958	0.0160709
701.036	0.0161217
701.114	0.0163017
701.192	0.0164837
701.271	0.0166148
701.349	0.0166565
701.427	0.0168433
701.505	0.0167696
701.583	0.0167316
701.661	0.0167197
701.739	0.0166025
701.817	0.0164505
701.896	0.0163762
701.974	0.0163528
702.052	0.0163966
702.130	0.0164764
702.208	0.0165458
702.286	0.0166119
702.364	0.0167196
702.442	0.0169833
702.521	0.0172009
702.599	0.0173062
702.677	0.0175098
702.755	0.0175715
702.833	0.0175553
702.911	0.0172660
702.989	0.0169657
703.067	0.0166235
703.146	0.0161806
703.224	0.0157645
703.302	0.0152356
703.380	0.0145396
703.458	0.0139516
703.536	0.0132663
703.614	0.0128337
703.692	0.0124599
703.771	0.0122260
703.849	0.0119138
703.927	0.0120592
704.005	0.0121152
704.083	0.0122153
704.161	0.0125665
704.239	0.0129202
704.317	0.0133723
704.396	0.0138474
704.474	0.0145173
704.552	0.0150211
704.630	0.0155459
704.708	0.0163945
704.786	0.0170621
704.864	0.0178521
704.942	0.0186736
705.021	0.0192581
705.099	0.0198030
705.177	0.0202991
705.255	0.0204887
705.333	0.0206647
705.411	0.0206452
705.489	0.0202635
705.567	0.0201095
705.646	0.0195963
705.724	0.0188474
705.802	0.0182664
705.880	0.0175992
705.958	0.0169630
706.036	0.0163826
706.114	0.0158292
706.192	0.0153687
706.271	0.0151059
706.349	0.0150719
706.427	0.0148194
706.505	0.0148967
706.583	0.0150977
706.661	0.0150343
706.739	0.0152489
706.817	0.0153680
706.896	0.0153604
706.974	0.0156038
707.052	0.0158187
707.130	0.0158630
707.208	0.0161543
707.286	0.0161614
707.364	0.0163940
707.442	0.0168048
707.521	0.0167794
707.599	0.0169659
707.677	0.0170964
707.755	0.0170570
707.833	0.0168056
707.911	0.0164883
707.989	0.0157320
708.067	0.0149967
708.146	0.0142697
708.224	0.0133213
708.302	0.0122355
708.380	0.0113427
708.458	0.0103891
708.536	0.00948128
708.614	0.00888336
708.692	0.00852341
708.771	0.00848442
708.849	0.00871223
708.927	0.00915787
709.005	0.00982147
709.083	0.0108191
709.161	0.0117986
709.239	0.0130389
709.317	0.0145748
709.396	0.0156630
709.474	0.0172266
709.552	0.0182529
709.630	0.0193593
709.708	0.0204723
709.786	0.0213979
709.864	0.0221512
709.942	0.0228220
710.021	0.0233219
710.099	0.0235714
710.177	0.0235899
710.255	0.0236679
710.333	0.0234352
710.411	0.0230627
710.489	0.0226122
710.567	0.0221303
710.646	0.0215864
710.724	0.0210064
710.802	0.0204766
710.880	0.0199341
710.958	0.0196662
711.036	0.0194925
711.114	0.0193060
711.192	0.0190871
711.271	0.0190556
711.349	0.0190690
711.427	0.0190936
711.505	0.0189428
711.583	0.0184998
711.661	0.0179746
711.739	0.0172147
711.817	0.0161913
711.896	0.0150563
711.974	0.0136732
712.052	0.0122582
712.130	0.0107590
712.208	0.00904884
712.286	0.00738777
712.364	0.00596039
712.442	0.00453537
712.521	0.00327080
712.599	0.00245201
712.677	0.00167274
712.755	0.00134750
712.833	0.00126854
712.911	0.00162079
712.989	0.00227722
713.067	0.00334602
713.146	0.00483887
713.224	0.00652496
713.302	0.00832008
713.380	0.0103533
713.458	0.0127224
713.536	0.0152071
713.614	0.0174287
713.692	0.0195518
713.771	0.0217673
713.849	0.0235487
713.927	0.0250970
714.005	0.0261882
714.083	0.0274299
714.161	0.0279614
714.239	0.0285138
714.317	0.0285812
714.396	0.0284310
714.474	0.0281535
714.552	0.0278104
714.630	0.0273036
714.708	0.0264499
714.786	0.0257963
714.864	0.0250423
714.942	0.0243965
715.021	0.0238320
715.099	0.0232041
715.177	0.0224736
715.255	0.0220589
715.333	0.0215644
715.411	0.0208833
715.489	0.0204271
715.567	0.0195228
715.646	0.0189101
715.724	0.0176197
715.802	0.0163225
715.880	0.0150571
715.958	0.0134223
716.036	0.0116745
716.114	0.0101743
716.192	0.00837372
716.271	0.00667336
716.349	0.00500038
716.427	0.00345512
716.505	0.00228096
716.583	0.00148987
716.661	0.00100830
716.739	0.000614624
716.817	0.000733185
716.896	0.00149178
716.974	0.00226562
717.052	0.00329979
717.130	0.00489769
717.208	0.00648964
717.286	0.00840019
717.364	0.0104701
717.442	0.0125597
717.521	0.0145696
717.599	0.0166509
717.677	0.0186281
717.755	0.0204174
717.833	0.0219257
717.911	0.0232914
717.989	0.0244902
718.067	0.0253345
718.146	0.0257321
718.224	0.0260234
718.302	0.0261049
718.380	0.0258979
718.458	0.0255410
718.536	0.0250050
718.614	0.0246850
718.692	0.0240650
718.771	0.0234006
718.849	0.0225314
718.927	0.0219756
719.005	0.0211199
719.083	0.0205791
719.161	0.0198971
719.239	0.0191599
719.317	0.0188104
719.396	0.0183873
719.474	0.0176710
719.552	0.0170227
719.630	0.0166547
719.708	0.0160291
719.786	0.0153417
719.864	0.0145200
719.942	0.0139324
720.021	0.0131992
720.099	0.0124088
720.177	0.0115912
720.255	0.0108207
720.333	0.00996002
720.411	0.00926224
720.489	0.00862846
720.567	0.00787521
720.646	0.00746300
720.724	0.00712700
720.802	0.00720810
720.880	0.00734901
720.958	0.00773087
721.036	0.00854752
721.114	0.00957344
721.192	0.0107384
721.271	0.0120532
721.349	0.0134810
721.427	0.0148257
721.505	0.0162570
721.583	0.0175681
721.661	0.0189377
721.739	0.0199736
721.817	0.0210332
721.896	0.0217603
721.974	0.0223385
722.052	0.0228519
722.130	0.0228715
722.208	0.0229335
722.286	0.0229447
722.364	0.0228223
722.442	0.0223628
722.521	0.0218844
722.599	0.0212641
722.677	0.0206608
722.755	0.0200297
722.833	0.0194938
722.911	0.0184595
722.989	0.0177254
723.067	0.0171675
723.146	0.0164336
723.224	0.0158487
723.302	0.0154279
723.380	0.0149329
723.458	0.0144691
723.536	0.0142261
723.614	0.0139532
723.692	0.0135983
723.771	0.0134617
723.849	0.0129412
723.927	0.0127902
724.005	0.0127165
724.083	0.0122908
724.161	0.0120133
724.239	0.0120673
724.317	0.0119342
724.396	0.0118066
724.474	0.0120075
724.552	0.0121646
724.630	0.0124559
724.708	0.0125201
724.786	0.0130385
724.864	0.0136197
724.942	0.0140683
725.021	0.0144804
725.099	0.0151326
725.177	0.0156376
725.255	0.0160248
725.333	0.0165569
725.411	0.0166512
725.489	0.0171729
725.567	0.0173451
725.646	0.0176307
725.724	0.0175625
725.802	0.0177988
725.880	0.0178469
725.958	0.0180222
726.036	0.0179951
726.114	0.0180374
726.192	0.0178940
726.271	0.0178408
726.349	0.0178932
726.427	0.0176665
726.505	0.0176353
726.583	0.0174727
726.661	0.0173858
726.739	0.0170961
726.817	0.0169180
726.896	0.0167504
726.974	0.0166515
727.052	0.0164293
727.130	0.0163303
727.208	0.0161137
727.286	0.0161383
727.364	0.0160925
727.442	0.0160490
727.521	0.0160604
727.599	0.0161509
727.677	0.0161050
727.755	0.0164278
727.833	0.0163730
727.911	0.0165206
727.989	0.0164801
728.067	0.0163083
728.146	0.0162370
728.224	0.0163385
728.302	0.0161736
728.380	0.0161498
728.458	0.0160665
728.536	0.0158382
728.614	0.0158302
728.692	0.0158017
728.771	0.0157733
728.849	0.0157160
728.927	0.0157944
729.005	0.0158913
729.083	0.0159262
729.161	0.0158965
729.239	0.0159129
729.317	0.0159687
729.396	0.0158735
729.474	0.0158992
729.552	0.0159048
729.630	0.0158922
729.708	0.0155999
729.786	0.0154745
729.864	0.0154644
729.942	0.0154573
730.021	0.0154645
730.099	0.0152666
730.177	0.0152770
730.255	0.0151369
730.333	0.0149831
730.411	0.0150074
730.489	0.0150529
730.567	0.0151044
730.646	0.0150625
730.724	0.0151796
730.802	0.0151284
730.880	0.0150848
730.958	0.0150816
731.036	0.0152642
731.114	0.0151780
731.192	0.0151221
731.271	0.0153531
731.349	0.0155315
731.427	0.0153339
731.505	0.0155492
731.583	0.0156815
731.661	0.0155805
731.739	0.0157033
731.817	0.0159051
731.896	0.0160219
731.974	0.0161638
732.052	0.0162257
732.130	0.0162776
732.208	0.0164256
732.286	0.0162657
732.364	0.0163950
732.442	0.0164915
732.521	0.0165555
732.599	0.0165450
732.677	0.0165385
732.755	0.0165105
732.833	0.0166103
732.911	0.0166294
732.989	0.0166759
733.067	0.0168113
733.146	0.0168077
733.224	0.0167525
733.302	0.0168936
733.380	0.0170641
733.458	0.0170626
733.536	0.0170860
733.614	0.0172430
733.692	0.0173853
733.771	0.0171852
733.849	0.0172098
733.927	0.0172826
734.005	0.0173009
734.083	0.0170168
734.161	0.0170543
734.239	0.0167779
734.317	0.0167228
734.396	0.0166796
734.474	0.0164241
734.552	0.0161080
734.630	0.0162157
734.708	0.0159037
734.786	0.0156078
734.864	0.0155190
734.942	0.0153289
735.021	0.0152614
735.099	0.0151973
735.177	0.0150329
735.255	0.0149851
735.333	0.0149002
735.411	0.0147543
735.489	0.0146907
735.567	0.0146407
735.646	0.0146651
735.724	0.0145307
735.802	0.0144986
735.880	0.0144846
735.958	0.0145838
736.036	0.0143638
736.114	0.0142904
736.192	0.0145227
736.271	0.0145436
736.349	0.0144215
736.427	0.0146252
736.505	0.0147837
736.583	0.0148025
736.661	0.0150050
736.739	0.0153542
736.817	0.0152814
736.896	0.0155209
736.974	0.0157796
737.052	0.0158948
737.130	0.0160452
737.208	0.0162914
737.286	0.0165363
737.364	0.0167374
737.442	0.0169940
737.521	0.0170563
737.599	0.0172509
737.677	0.0174361
737.755	0.0176976
737.833	0.0175871
737.911	0.0177747
737.989	0.0178579
738.067	0.0179730
738.146	0.0178568
738.224	0.0178031
738.302	0.0176867
738.380	0.0175381
738.458	0.0174557
738.536	0.0172647
738.614	0.0170517
738.692	0.0169402
738.771	0.0166917
738.849	0.0164790
738.927	0.0163808
739.005	0.0162167
739.083	0.0162237
739.161	0.0158940
739.239	0.0159808
739.317	0.0158439
739.396	0.0155555
739.474	0.0155819
739.552	0.0153834
739.630	0.0151405
739.708	0.0149889
739.786	0.0147686
739.864	0.0146857
739.942	0.0144376
740.021	0.0143347
740.099	0.0143092
740.177	0.0143329
740.255	0.0142731
740.333	0.0140540
740.411	0.0141223
740.489	0.0141785
740.567	0.0141206
740.646	0.0142400
740.724	0.0144789
740.802	0.0144743
740.880	0.0145847
740.958	0.0146149
741.036	0.0149097
741.114	0.0150529
741.192	0.0152000
741.271	0.0154601
741.349	0.0157246
741.427	0.0160587
741.505	0.0163699
741.583	0.0164628
741.661	0.0168024
741.739	0.0171244
741.817	0.0171937
741.896	0.0174578
741.974	0.0176926
742.052	0.0178260
742.130	0.0179231
742.208	0.0180013
742.286	0.0179195
742.364	0.0180192
742.442	0.0178056
742.521	0.0178363
742.599	0.0177271
742.677	0.0178031
742.755	0.0176244
742.833	0.0173326
742.911	0.0172549
742.989	0.0171449
743.067	0.0169314
743.146	0.0167767
743.224	0.0163551
743.302	0.0163882
743.380	0.0160202
743.458	0.0157971
743.536	0.0155346
743.614	0.0153512
743.692	0.0148962
743.771	0.0146947
743.849	0.0145219
743.927	0.0145346
744.005	0.0143822
744.083	0.0142118
744.161	0.0140740
744.239	0.0141473
744.317	0.0139426
744.396	0.0141248
744.474	0.0140369
744.552	0.0139622
744.630	0.0141500
744.708	0.0143638
744.786	0.0142629
744.864	0.0143972
744.942	0.0146290
745.021	0.0148654
745.099	0.0151812
745.177	0.0152248
745.255	0.0153121
745.333	0.0157329
745.411	0.0159443
745.489	0.0162914
745.567	0.0162865
745.646	0.0165023
745.724	0.0168430
745.802	0.0168511
745.880	0.0171352
745.958	0.0172535
746.036	0.0173356
746.114	0.0173707
746.192	0.0172987
746.271	0.0175724
746.349	0.0175704
746.427	0.0175819
746.505	0.0176685
746.583	0.0176364
746.661	0.0177485
746.739	0.0177187
746.817	0.0174876
746.896	0.0173241
746.974	0.0173721
747.052	0.0170583
747.130	0.0166829
747.208	0.0164142
747.286	0.0160801
747.364	0.0157051
747.442	0.0153931
747.521	0.0150554
747.599	0.0147726
747.677	0.0144196
747.755	0.0142361
747.833	0.0140305
747.911	0.0139289
747.989	0.0140084
748.067	0.0140365
748.146	0.0140328
748.224	0.0140454
748.302	0.0142050
748.380	0.0142486
748.458	0.0144051
748.536	0.0145644
748.614	0.0149086
748.692	0.0149094
748.771	0.0149911
748.849	0.0153218
748.927	0.0156243
749.005	0.0155600
749.083	0.0159049
749.161	0.0160821
749.239	0.0162022
749.317	0.0167190
749.396	0.0168681
749.474	0.0169210
749.552	0.0172744
749.630	0.0174005
749.708	0.0177004
749.786	0.0177031
749.864	0.0178677
749.942	0.0179702
750.021	0.0178796
750.099	0.0178746
750.177	0.0177763
750.255	0.0177398
750.333	0.0177539
750.411	0.0175420
750.489	0.0174326
750.567	0.0172474
750.646	0.0172900
750.724	0.0170555
750.802	0.0170854
750.880	0.0168655
750.958	0.0169694
751.036	0.0168914
751.114	0.0167593
751.192	0.0165260
751.271	0.0162171
751.349	0.0159326
751.427	0.0157774
751.505	0.0154095
751.583	0.0150858
751.661	0.0147168
751.739	0.0143106
751.817	0.0139257
751.896	0.0137501
751.974	0.0134163
752.052	0.0132069
752.130	0.0132617
752.208	0.0132349
752.286	0.0133077
752.364	0.0134163
752.442	0.0134023
752.521	0.0136710
752.599	0.0140287
752.677	0.0141913
752.755	0.0145915
752.833	0.0147592
752.911	0.0149842
752.989	0.0153284
753.067	0.0156197
753.146	0.0158416
753.224	0.0161805
753.302	0.0162006
753.380	0.0165647
753.458	0.0166241
753.536	0.0166699
753.614	0.0167178
753.692	0.0166935
753.771	0.0167110
753.849	0.0169345
753.927	0.0170388
754.005	0.0170694
754.083	0.0170233
754.161	0.0169880
754.239	0.0172245
754.317	0.0172886
754.396	0.0174425
754.474	0.0175636
754.552	0.0176205
754.630	0.0176711
754.708	0.0177365
754.786	0.0178014
754.864	0.0177360
754.942	0.0176133
755.021	0.0175998
755.099	0.0174302
755.177	0.0172746
755.255	0.0170114
755.333	0.0168224
755.411	0.0164564
755.489	0.0161691
755.567	0.0159473
755.646	0.0157371
755.724	0.0154619
755.802	0.0151995
755.880	0.0148494
755.958	0.0148583
756.036	0.0147925
756.114	0.0145940
756.192	0.0146035
756.271	0.0145708
756.349	0.0145824
756.427	0.0146857
756.505	0.0146960
756.583	0.0146761
756.661	0.0148988
756.739	0.0148975
756.817	0.0149638
756.896	0.0151078
756.974	0.0152131
757.052	0.0153349
757.130	0.0153778
757.208	0.0155825
757.286	0.0156964
757.364	0.0159348
757.442	0.0160361
757.521	0.0161832
757.599	0.0162943
757.677	0.0163773
757.755	0.0163952
757.833	0.0163647
757.911	0.0164336
757.989	0.0164178
758.067	0.0163947
758.146	0.0162812
758.224	0.0162769
758.302	0.0162312
758.380	0.0161275
758.458	0.0161367
758.536	0.0161259
758.614	0.0160911
758.692	0.0160697
758.771	0.0162473
758.849	0.0163746
758.927	0.0163800
759.005	0.0164827
759.083	0.0165393
759.161	0.0166963
759.239	0.0166285
759.317	0.0165726
759.396	0.0164758
759.474	0.0163740
759.552	0.0161788
759.630	0.0161369
759.708	0.0160330
759.786	0.0159798
759.864	0.0157291
759.942	0.0158264
760.021	0.0156010
760.099	0.0153712
760.177	0.0153759
760.255	0.0153985
760.333	0.0154028
760.411	0.0154036
760.489	0.0154597
760.567	0.0154894
760.646	0.0156171
760.724	0.0155271
760.802	0.0154298
760.880	0.0155045
760.958	0.0156731
761.036	0.0156629
761.114	0.0155456
761.192	0.0156488
761.271	0.0158060
761.349	0.0156906
761.427	0.0157207
761.505	0.0156374
761.583	0.0159089
761.661	0.0158630
761.739	0.0159225
761.817	0.0159314
761.896	0.0159903
761.974	0.0159420
762.052	0.0159844
762.130	0.0160143
762.208	0.0160756
762.286	0.0161482
762.364	0.0160641
762.442	0.0162399
762.521	0.0163227
762.599	0.0164710
762.677	0.0163871
762.755	0.0165669
762.833	0.0167254
762.911	0.0166742
762.989	0.0168871
763.067	0.0169540
763.146	0.0168696
763.224	0.0169418
763.302	0.0167744
763.380	0.0168816
763.458	0.0167226
763.536	0.0166608
763.614	0.0165093
763.692	0.0164011
763.771	0.0162932
763.849	0.0160992
763.927	0.0159609
764.005	0.0157204
764.083	0.0155746
764.161	0.0155162
764.239	0.0152985
764.317	0.0151986
764.396	0.0151557
764.474	0.0151368
764.552	0.0152788
764.630	0.0151051
764.708	0.0150820
764.786	0.0149825
764.864	0.0151186
764.942	0.0151123
765.021	0.0153212
765.099	0.0151112
765.177	0.0153088
765.255	0.0152512
765.333	0.0152871
765.411	0.0153965
765.489	0.0155304
765.567	0.0154264
765.646	0.0154472
765.724	0.0156409
765.802	0.0155315
765.880	0.0155481
765.958	0.0156757
766.036	0.0158730
766.114	0.0157237
766.192	0.0158824
766.271	0.0161094
766.349	0.0161937
766.427	0.0164246
766.505	0.0164526
766.583	0.0164269
766.661	0.0168636
766.739	0.0169604
766.817	0.0167876
766.896	0.0170284
766.974	0.0168304
767.052	0.0168317
767.130	0.0168673
767.208	0.0168788
767.286	0.0166813
767.364	0.0165838
767.442	0.0162842
767.521	0.0164587
767.599	0.0162986
767.677	0.0160815
767.755	0.0160033
767.833	0.0160197
767.911	0.0157769
767.989	0.0157938
768.067	0.0160074
768.146	0.0159238
768.224	0.0157977
768.302	0.0158659
768.380	0.0157235
768.458	0.0157867
768.536	0.0157327
768.614	0.0158293
768.692	0.0157581
768.771	0.0158254
768.849	0.0156387
768.927	0.0157371
769.005	0.0156667
769.083	0.0155622
769.161	0.0154333
769.239	0.0154955
769.317	0.0155038
769.396	0.0153872
769.474	0.0153732
769.552	0.0153423
769.630	0.0154653
769.708	0.0154668
769.786	0.0153051
769.864	0.0153461
769.942	0.0154323
770.021	0.0156287
770.099	0.0156748
770.177	0.0157421
770.255	0.0159647
770.333	0.0158965
770.411	0.0159924
770.489	0.0161053
770.567	0.0161871
770.646	0.0161740
770.724	0.0161464
770.802	0.0162882
770.880	0.0162300
770.958	0.0162059
771.036	0.0162058
771.114	0.0162769
771.192	0.0160527
771.271	0.0159399
771.349	0.0160798
771.427	0.0159729
771.505	0.0157983
771.583	0.0157860
771.661	0.0159043
771.739	0.0160168
771.817	0.0160593
771.896	0.0160722
771.974	0.0161584
772.052	0.0162089
772.130	0.0164807
772.208	0.0164922
772.286	0.0164017
772.364	0.0163988
772.442	0.0164980
772.521	0.0165371
772.599	0.0164754
772.677	0.0163139
772.755	0.0164634
772.833	0.0162655
772.911	0.0164043
772.989	0.0163277
773.067	0.0162264
773.146	0.0159260
773.224	0.0159540
773.302	0.0157999
773.380	0.0156541
773.458	0.0155593
773.536	0.0155708
773.614	0.0155268
773.692	0.0155242
773.771	0.0155968
773.849	0.0154644
773.927	0.0154127
774.005	0.0155439
774.083	0.0154839
774.161	0.0155809
774.239	0.0156633
774.317	0.0157009
774.396	0.0158006
774.474	0.0158170
774.552	0.0159545
774.630	0.0161180
774.708	0.0160393
774.786	0.0159668
774.864	0.0163192
774.942	0.0161783
775.021	0.0161121
775.099	0.0161544
775.177	0.0161237
775.255	0.0161697
775.333	0.0161101
775.411	0.0162253
775.489	0.0160751
775.567	0.0158520
775.646	0.0158300
775.724	0.0159492
775.802	0.0158604
775.880	0.0158546
775.958	0.0159068
776.036	0.0160376
776.114	0.0159592
776.192	0.0159277
776.271	0.0158427
776.349	0.0159212
776.427	0.0157036
776.505	0.0158582
776.583	0.0156837
776.661	0.0156165
776.739	0.0158475
776.817	0.0157586
776.896	0.0157392
776.974	0.0156998
777.052	0.0156244
777.130	0.0157161
777.208	0.0157078
777.286	0.0157316
777.364	0.0155901
777.442	0.0157830
777.521	0.0157668
777.599	0.0157319
777.677	0.0156651
777.755	0.0158310
777.833	0.0157184
777.911	0.0157481
777.989	0.0157881
778.067	0.0160994
778.146	0.0161649
778.224	0.0160813
778.302	0.0161620
778.380	0.0163644
778.458	0.0163453
778.536	0.0164017
778.614	0.0164269
778.692	0.0164648
778.771	0.0166795
778.849	0.0166724
778.927	0.0164973
779.005	0.0165443
779.083	0.0166497
779.161	0.0165426
779.239	0.0165182
779.317	0.0163817
779.396	0.0161415
779.474	0.0161528
779.552	0.0160971
779.630	0.0159680
779.708	0.0158167
779.786	0.0157207
779.864	0.0154800
779.942	0.0154250
780.021	0.0153921
780.099	0.0153818
780.177	0.0153159
780.255	0.0153426
780.333	0.0153335
780.411	0.0152536
780.489	0.0153568
780.567	0.0153627
780.646	0.0153733
780.724	0.0155350
780.802	0.0156126
780.880	0.0156279
780.958	0.0155335
781.036	0.0156528
781.114	0.0158027
781.192	0.0156647
781.271	0.0158272
781.349	0.0159121
781.427	0.0160059
781.505	0.0158659
781.583	0.0159775
781.661	0.0160030
781.739	0.0158862
781.817	0.0159210
781.896	0.0160408
781.974	0.0161177
782.052	0.0161077
782.130	0.0160855
782.208	0.0163280
782.286	0.0162915
782.364	0.0161788
782.442	0.0162852
782.521	0.0161289
782.599	0.0162775
782.677	0.0163155
782.755	0.0162766
782.833	0.0163048
782.911	0.0163628
782.989	0.0162046
783.067	0.0161457
783.146	0.0162019
783.224	0.0159715
783.302	0.0160207
783.380	0.0158507
783.458	0.0158185
783.536	0.0156470
783.614	0.0155357
783.692	0.0155923
783.771	0.0155397
783.849	0.0155547
783.927	0.0154182
784.005	0.0155573
784.083	0.0153948
784.161	0.0155095
784.239	0.0155651
784.317	0.0155001
784.396	0.0155066
784.474	0.0155582
784.552	0.0156113
784.630	0.0156415
784.708	0.0155746
784.786	0.0158114
784.864	0.0157692
784.942	0.0158175
785.021	0.0159049
785.099	0.0160042
785.177	0.0159698
785.255	0.0160435
785.333	0.0160527
785.411	0.0160313
785.489	0.0160950
785.567	0.0160593
785.646	0.0161425
785.724	0.0160946
785.802	0.0160920
785.880	0.0161977
785.958	0.0162701
786.036	0.0161674
786.114	0.0160993
786.192	0.0162096
786.271	0.0161949
786.349	0.0161560
786.427	0.0163670
786.505	0.0163359
786.583	0.0162984
786.661	0.0163554
786.739	0.0163837
786.817	0.0164609
786.896	0.0164406
786.974	0.0164049
787.052	0.0164713
787.130	0.0164914
787.208	0.0163994
787.286	0.0163368
787.364	0.0162327
787.442	0.0160640
787.521	0.0160595
787.599	0.0160451
787.677	0.0158879
787.755	0.0156946
787.833	0.0155929
787.911	0.0155662
787.989	0.0154707
788.067	0.0153259
788.146	0.0154073
788.224	0.0155668
788.302	0.0155761
788.380	0.0154723
788.458	0.0154668
788.536	0.0154760
788.614	0.0155514
788.692	0.0154308
788.771	0.0154510
788.849	0.0155811
788.927	0.0157092
789.005	0.0154578
789.083	0.0154237
789.161	0.0155910
789.239	0.0155950
789.317	0.0154946
789.396	0.0156952
789.474	0.0157825
789.552	0.0156510
789.630	0.0158506
789.708	0.0158887
789.786	0.0159883
789.864	0.0159899
789.942	0.0159882
790.021	0.0161971
790.099	0.0163577
790.177	0.0164093
790.255	0.0164728
790.333	0.0164692
790.411	0.0165772
790.489	0.0166188
790.567	0.0165989
790.646	0.0167088
790.724	0.0166882
790.802	0.0166787
790.880	0.0167245
790.958	0.0167051
791.036	0.0167249
791.114	0.0166330
791.192	0.0164071
791.271	0.0164785
791.349	0.0162355
791.427	0.0162021
791.505	0.0161674
791.583	0.0158917
791.661	0.0158270
791.739	0.0156519
791.817	0.0156280
791.896	0.0154462
791.974	0.0154012
792.052	0.0152921
792.130	0.0152821
792.208	0.0152736
792.286	0.0151951
792.364	0.0151218
792.442	0.0151899
792.521	0.0151135
792.599	0.0150982
792.677	0.0151059
792.755	0.0152621
792.833	0.0154916
792.911	0.0154197
792.989	0.0155252
793.067	0.0155484
793.146	0.0156992
793.224	0.0156612
793.302	0.0158830
793.380	0.0159744
793.458	0.0159302
793.536	0.0158812
793.614	0.0160605
793.692	0.0160519
793.771	0.0160958
793.849	0.0162133
793.927	0.0163870
794.005	0.0161835
794.083	0.0163383
794.161	0.0163127
794.239	0.0163538
794.317	0.0164652
794.396	0.0165365
794.474	0.0166730
794.552	0.0167150
794.630	0.0167377
794.708	0.0167122
794.786	0.0166856
794.864	0.0165859
794.942	0.0168130
795.021	0.0163799
795.099	0.0165442
795.177	0.0165323
795.255	0.0164948
795.333	0.0162949
795.411	0.0163604
795.489	0.0162257
795.567	0.0162440
795.646	0.0161890
795.724	0.0158831
795.802	0.0157902
795.880	0.0157383
795.958	0.0155796
796.036	0.0155908
796.114	0.0155901
796.192	0.0154469
796.271	0.0154286
796.349	0.0154550
796.427	0.0154034
796.505	0.0152773
796.583	0.0153203
796.661	0.0153861
796.739	0.0153632
796.817	0.0153021
796.896	0.0153976
796.974	0.0154612
797.052	0.0152852
797.130	0.0153307
797.208	0.0153684
797.286	0.0152351
797.364	0.0152219
797.442	0.0151884
797.521	0.0153249
797.599	0.0153129
797.677	0.0154058
797.755	0.0155489
797.833	0.0155235
797.911	0.0157183
797.989	0.0157574
798.067	0.0160061
798.146	0.0160278
798.224	0.0161880
798.302	0.0163562
798.380	0.0165180
798.458	0.0166849
798.536	0.0167701
798.614	0.0167650
798.692	0.0168804
798.771	0.0169956
798.849	0.0169673
798.927	0.0171684
799.005	0.0172674
799.083	0.0169993
799.161	0.0170688
799.239	0.0170328
799.317	0.0168311
799.396	0.0167966
799.474	0.0167638
799.552	0.0165381
799.630	0.0163303
799.708	0.0163306
799.786	0.0160371
799.864	0.0160962
799.942	0.0158851
800.021	0.0156645
800.099	0.0155406
800.177	0.0155238
800.255	0.0151758
800.333	0.0151470
800.411	0.0151137
800.489	0.0151790
800.567	0.0150446
800.646	0.0150636
800.724	0.0149391
800.802	0.0150270
800.880	0.0149530
800.958	0.0150521
801.036	0.0151524
801.114	0.0152544
801.192	0.0152952
801.271	0.0152215
801.349	0.0153271
801.427	0.0152801
801.505	0.0154190
801.583	0.0154884
801.661	0.0154897
801.739	0.0155589
801.817	0.0156467
801.896	0.0157738
801.974	0.0157603
802.052	0.0159298
802.130	0.0159386
802.208	0.0162129
802.286	0.0162119
802.364	0.0164367
802.442	0.0163808
802.521	0.0166344
802.599	0.0167963
802.677	0.0169560
802.755	0.0169432
802.833	0.0170943
802.911	0.0171729
802.989	0.0171313
803.067	0.0169996
803.146	0.0171475
803.224	0.0170900
803.302	0.0169859
803.380	0.0170058
803.458	0.0169296
803.536	0.0167321
803.614	0.0166685
803.692	0.0165532
803.771	0.0164256
803.849	0.0163327
803.927	0.0164513
804.005	0.0161782
804.083	0.0161050
804.161	0.0160287
804.239	0.0158868
804.317	0.0156857
804.396	0.0156855
804.474	0.0154035
804.552	0.0152072
804.630	0.0150188
804.708	0.0150269
804.786	0.0149563
804.864	0.0147188
804.942	0.0146439
805.021	0.0146834
805.099	0.0145498
805.177	0.0145261
805.255	0.0145366
805.333	0.0146217
805.411	0.0146920
805.489	0.0147350
805.567	0.0147689
805.646	0.0149275
805.724	0.0150809
805.802	0.0150297
805.880	0.0153890
805.958	0.0155830
806.036	0.0155956
806.114	0.0158649
806.192	0.0159281
806.271	0.0161089
806.349	0.0162282
806.427	0.0164447
806.505	0.0166424
806.583	0.0166805
806.661	0.0169217
806.739	0.0170457
806.817	0.0171224
806.896	0.0171684
806.974	0.0172066
807.052	0.0171777
807.130	0.0171957
807.208	0.0172807
807.286	0.0172572
807.364	0.0172391
807.442	0.0172308
807.521	0.0171580
807.599	0.0171013
807.677	0.0170912
807.755	0.0171316
807.833	0.0170939
807.911	0.0169865
807.989	0.0168500
808.067	0.0165871
808.146	0.0164326
808.224	0.0164715
808.302	0.0161594
808.380	0.0159350
808.458	0.0158045
808.536	0.0156435
808.614	0.0153716
808.692	0.0150806
808.771	0.0149859
808.849	0.0147293
808.927	0.0144926
809.005	0.0143489
809.083	0.0142640
809.161	0.0142334
809.239	0.0140975
809.317	0.0141191
809.396	0.0139574
809.474	0.0140394
809.552	0.0141504
809.630	0.0141935
809.708	0.0142955
809.786	0.0144014
809.864	0.0145894
809.942	0.0147481
810.021	0.0148655
810.099	0.0149837
810.177	0.0153550
810.255	0.0156400
810.333	0.0158268
810.411	0.0159895
810.489	0.0161428
810.567	0.0163683
810.646	0.0166224
810.724	0.0167929
810.802	0.0169647
810.880	0.0169845
810.958	0.0171801
811.036	0.0174506
811.114	0.0174014
811.192	0.0175420
811.271	0.0178510
811.349	0.0177608
811.427	0.0178647
811.505	0.0179987
811.583	0.0179594
811.661	0.0179559
811.739	0.0180548
811.817	0.0180153
811.896	0.0177855
811.974	0.0177164
812.052	0.0175915
812.130	0.0174430
812.208	0.0171782
812.286	0.0170515
812.364	0.0168235
812.442	0.0164245
812.521	0.0162241
812.599	0.0159607
812.677	0.0156517
812.755	0.0153257
812.833	0.0151503
812.911	0.0149121
812.989	0.0145046
813.067	0.0144307
813.146	0.0141476
813.224	0.0139590
813.302	0.0138129
813.380	0.0138770
813.458	0.0138290
813.536	0.0138319
813.614	0.0137524
813.692	0.0138099
813.771	0.0139020
813.849	0.0142323
813.927	0.0143668
814.005	0.0145286
814.083	0.0146023
814.161	0.0147856
814.239	0.0150067
814.317	0.0151871
814.396	0.0153900
814.474	0.0155167
814.552	0.0158449
814.630	0.0161351
814.708	0.0164100
814.786	0.0165588
814.864	0.0166806
814.942	0.0169260
815.021	0.0169927
815.099	0.0172118
815.177	0.0173042
815.255	0.0173895
815.333	0.0174294
815.411	0.0175611
815.489	0.0175936
815.567	0.0177370
815.646	0.0175014
815.724	0.0175508
815.802	0.0174809
815.880	0.0172142
815.958	0.0173241
816.036	0.0172633
816.114	0.0170546
816.192	0.0169143
816.271	0.0166278
816.349	0.0164744
816.427	0.0164309
816.505	0.0162978
816.583	0.0159636
816.661	0.0158340
816.739	0.0157849
816.817	0.0157484
816.896	0.0154970
816.974	0.0153737
817.052	0.0152874
817.130	0.0152602
817.208	0.0151056
817.286	0.0150785
817.364	0.0150026
817.442	0.0150294
817.521	0.0150536
817.599	0.0148836
817.677	0.0148846
817.755	0.0149380
817.833	0.0148884
817.911	0.0149779
817.989	0.0151279
818.067	0.0151182
818.146	0.0151382
818.224	0.0152197
818.302	0.0153707
818.380	0.0154396
818.458	0.0156049
818.536	0.0155844
818.614	0.0157411
818.692	0.0158544
818.771	0.0160693
818.849	0.0159197
818.927	0.0161027
819.005	0.0162712
819.083	0.0162204
819.161	0.0165974
819.239	0.0166676
819.317	0.0166074
819.396	0.0167242
819.474	0.0167544
819.552	0.0169061
819.630	0.0169240
819.708	0.0168945
819.786	0.0169051
819.864	0.0169180
819.942	0.0168980
820.021	0.0169415
820.099	0.0168684
820.177	0.0167101
820.255	0.0168121
820.333	0.0166396
820.411	0.0164664
820.489	0.0163292
820.567	0.0162944
820.646	0.0160742
820.724	0.0160059
820.802	0.0158755
820.880	0.0156892
820.958	0.0157874
821.036	0.0155247
821.114	0.0154247
821.192	0.0155109
821.271	0.0151860
821.349	0.0151544
821.427	0.0151884
821.505	0.0152612
821.583	0.0150125
821.661	0.0152100
821.739	0.0152030
821.817	0.0151992
821.896	0.0153155
821.974	0.0152374
822.052	0.0153551
822.130	0.0155300
822.208	0.0155260
822.286	0.0154736
822.364	0.0155681
822.442	0.0156523
822.521	0.0157540
822.599	0.0158521
822.677	0.0158607
822.755	0.0159258
822.833	0.0160901
822.911	0.0161584
822.989	0.0162774
823.067	0.0161818
823.146	0.0161304
823.224	0.0162965
823.302	0.0165573
823.380	0.0166917
823.458	0.0165826
823.536	0.0166766
823.614	0.0168798
823.692	0.0167998
823.771	0.0169339
823.849	0.0170731
823.927	0.0169423
824.005	0.0167979
824.083	0.0169366
824.161	0.0168999
824.239	0.0168984
824.317	0.0168345
824.396	0.0165897
824.474	0.0165514
824.552	0.0164400
824.630	0.0162386
824.708	0.0160624
824.786	0.0159109
824.864	0.0156832
824.942	0.0156787
825.021	0.0155962
825.099	0.0154206
825.177	0.0153735
825.255	0.0152824
825.333	0.0152241
825.411	0.0152750
825.489	0.0150349
825.567	0.0151835
825.646	0.0149783
825.724	0.0152006
825.802	0.0153361
825.880	0.0152260
825.958	0.0151836
826.036	0.0153922
826.114	0.0154721
826.192	0.0153642
826.271	0.0155463
826.349	0.0156525
826.427	0.0155909
826.505	0.0156181
826.583	0.0157403
826.661	0.0158377
826.739	0.0158564
826.817	0.0158635
826.896	0.0159216
826.974	0.0159834
827.052	0.0158422
827.130	0.0159997
827.208	0.0161171
827.286	0.0160728
827.364	0.0162914
827.442	0.0162517
827.521	0.0162912
827.599	0.0164066
827.677	0.0164295
827.755	0.0162390
827.833	0.0164758
827.911	0.0165851
827.989	0.0167982
828.067	0.0167816
828.146	0.0166312
828.224	0.0168293
828.302	0.0168370
828.380	0.0167680
828.458	0.0167890
828.536	0.0166643
828.614	0.0168021
828.692	0.0165874
828.771	0.0166013
828.849	0.0164075
828.927	0.0164971
829.005	0.0163988
829.083	0.0162500
829.161	0.0162017
829.239	0.0159862
829.317	0.0159914
829.396	0.0156630
829.474	0.0157722
829.552	0.0157935
829.630	0.0156215
829.708	0.0154111
829.786	0.0155435
829.864	0.0154923
829.942	0.0155410
830.021	0.0153969
830.099	0.0155002
830.177	0.0153306
830.255	0.0152924
830.333	0.0153175
830.411	0.0153947
830.489	0.0154549
830.567	0.0155132
830.646	0.0156047
830.724	0.0157659
830.802	0.0156862
830.880	0.0157470
830.958	0.0157388
831.036	0.0158536
831.114	0.0157815
831.192	0.0158540
831.271	0.0157536
831.349	0.0157845
831.427	0.0160651
831.505	0.0160020
831.583	0.0159083
831.661	0.0159816
831.739	0.0160514
831.817	0.0161411
831.896	0.0161486
831.974	0.0162487
832.052	0.0163293
832.130	0.0164680
832.208	0.0162845
832.286	0.0164286
832.364	0.0165638
832.442	0.0166009
832.521	0.0165765
832.599	0.0164036
832.677	0.0164562
832.755	0.0165348
832.833	0.0164498
832.911	0.0164798
832.989	0.0163065
833.067	0.0163132
833.146	0.0163317
833.224	0.0161138
833.302	0.0160346
833.380	0.0161617
833.458	0.0160300
833.536	0.0159377
833.614	0.0159767
833.692	0.0159874
833.771	0.0159472
833.849	0.0158289
833.927	0.0158903
834.005	0.0159795
834.083	0.0159465
834.161	0.0159348
834.239	0.0161057
834.317	0.0159155
834.396	0.0159962
834.474	0.0158116
834.552	0.0158039
834.630	0.0158543
834.708	0.0159182
834.786	0.0156515
834.864	0.0157747
834.942	0.0156666
835.021	0.0155281
835.099	0.0156615
835.177	0.0153950
835.255	0.0155109
835.333	0.0155089
835.411	0.0153719
835.489	0.0155332
835.567	0.0154261
835.646	0.0155476
835.724	0.0154185
835.802	0.0156454
835.880	0.0157025
835.958	0.0157756
836.036	0.0160367
836.114	0.0161328
836.192	0.0161174
836.271	0.0162871
836.349	0.0163828
836.427	0.0165382
836.505	0.0165215
836.583	0.0166261
836.661	0.0167516
836.739	0.0166142
836.817	0.0166627
836.896	0.0166679
836.974	0.0167533
837.052	0.0165931
837.130	0.0164140
837.208	0.0165262
837.286	0.0164365
837.364	0.0163776
837.442	0.0162302
837.521	0.0161184
837.599	0.0160551
837.677	0.0160216
837.755	0.0160471
837.833	0.0160356
837.911	0.0160400
837.989	0.0158263
838.067	0.0158315
838.146	0.0159703
838.224	0.0159604
838.302	0.0159007
838.380	0.0157925
838.458	0.0157800
838.536	0.0159514
838.614	0.0157883
838.692	0.0158144
838.771	0.0158476
838.849	0.0157114
838.927	0.0157724
839.005	0.0156575
839.083	0.0155383
839.161	0.0156922
839.239	0.0155407
839.317	0.0155573
839.396	0.0155504
839.474	0.0154585
839.552	0.0156052
839.630	0.0156073
839.708	0.0155542
839.786	0.0155811
839.864	0.0155939
839.942	0.0156847
840.021	0.0156631
840.099	0.0158566
840.177	0.0157427
840.255	0.0159077
840.333	0.0159654
840.411	0.0160396
840.489	0.0161180
840.567	0.0161104
840.646	0.0161520
840.724	0.0162316
840.802	0.0162609
840.880	0.0162704
840.958	0.0164423
841.036	0.0163708
841.114	0.0162703
841.192	0.0164009
841.271	0.0163379
841.349	0.0163986
841.427	0.0162881
841.505	0.0163657
841.583	0.0162805
841.661	0.0162893
841.739	0.0162348
841.817	0.0161429
841.896	0.0163391
841.974	0.0161806
842.052	0.0160155
842.130	0.0160539
842.208	0.0159107
842.286	0.0159654
842.364	0.0159649
842.442	0.0156899
842.521	0.0159150
842.599	0.0157996
842.677	0.0157114
842.755	0.0157801
842.833	0.0157462
842.911	0.0156637
842.989	0.0158135
843.067	0.0157230
843.146	0.0157098
843.224	0.0158785
843.302	0.0157478
843.380	0.0156906
843.458	0.0157011
843.536	0.0157122
843.614	0.0157884
843.692	0.0158444
843.771	0.0157846
843.849	0.0157031
843.927	0.0157937
844.005	0.0159756
844.083	0.0159052
844.161	0.0157980
844.239	0.0158267
844.317	0.0158691
844.396	0.0159894
844.474	0.0158739
844.552	0.0159225
844.630	0.0157919
844.708	0.0157938
844.786	0.0159846
844.864	0.0160920
844.942	0.0159852
845.021	0.0160973
845.099	0.0160547
845.177	0.0159605
845.255	0.0161044
845.333	0.0162010
845.411	0.0161826
845.489	0.0162236
845.567	0.0161623
845.646	0.0161012
845.724	0.0161742
845.802	0.0161921
845.880	0.0161038
845.958	0.0160735
846.036	0.0161325
846.114	0.0160641
846.192	0.0160383
846.271	0.0159563
846.349	0.0160256
846.427	0.0157928
846.505	0.0157854
846.583	0.0158775
846.661	0.0158820
846.739	0.0159113
846.817	0.0158175
846.896	0.0158572
846.974	0.0159858
847.052	0.0158325
847.130	0.0159151
847.208	0.0159986
847.286	0.0160268
847.364	0.0159575
847.442	0.0159396
847.521	0.0161153
847.599	0.0160147
847.677	0.0160609
847.755	0.0159879
847.833	0.0159284
847.911	0.0160295
847.989	0.0160262
848.067	0.0159126
848.146	0.0159953
848.224	0.0158425
848.302	0.0159252
848.380	0.0159207
848.458	0.0159248
848.536	0.0159091
848.614	0.0158487
848.692	0.0159892
848.771	0.0159435
848.849	0.0157705
848.927	0.0158395
849.005	0.0158836
849.083	0.0159339
849.161	0.0159113
849.239	0.0160410
849.317	0.0157590
849.396	0.0158411
849.474	0.0160448
849.552	0.0159641
849.630	0.0159081
849.708	0.0159214
849.786	0.0160518
849.864	0.0159464
849.942	0.0158476
850.021	0.0159191
850.099	0.0159541
850.177	0.0158501
850.255	0.0159802
850.333	0.0159703
850.411	0.0159721
850.489	0.0160020
850.567	0.0158883
850.646	0.0160052
850.724	0.0159511
850.802	0.0159979
850.880	0.0159583
850.958	0.0159674
851.036	0.0160024
851.114	0.0160704
851.192	0.0160498
851.271	0.0160748
851.349	0.0161488
851.427	0.0162273
851.505	0.0161564
851.583	0.0161865
851.661	0.0162691
851.739	0.0160603
851.817	0.0159109
851.896	0.0160725
851.974	0.0159126
852.052	0.0158556
852.130	0.0158875
852.208	0.0158083
852.286	0.0158787
852.364	0.0157200
852.442	0.0157708
852.521	0.0157286
852.599	0.0157520
852.677	0.0157683
852.755	0.0157793
852.833	0.0158382
852.911	0.0158468
852.989	0.0157829
853.067	0.0158545
853.146	0.0157160
853.224	0.0159265
853.302	0.0158072
853.380	0.0158817
853.458	0.0159872
853.536	0.0162792
853.614	0.0161254
853.692	0.0160636
853.771	0.0161249
853.849	0.0160479
853.927	0.0161185
854.005	0.0161433
854.083	0.0161376
854.161	0.0161077
854.239	0.0160186
854.317	0.0160749
854.396	0.0161616
854.474	0.0160799
854.552	0.0159987
854.630	0.0160138
854.708	0.0161313
854.786	0.0159906
854.864	0.0159971
854.942	0.0159394
855.021	0.0160452
855.099	0.0158991
855.177	0.0160436
855.255	0.0159912
855.333	0.0159521
855.411	0.0158347
855.489	0.0158994
855.567	0.0159286
855.646	0.0158161
855.724	0.0158932
855.802	0.0158541
855.880	0.0157253
855.958	0.0159344
856.036	0.0158417
856.114	0.0157954
856.192	0.0158322
856.271	0.0158747
856.349	0.0158210
856.427	0.0158340
856.505	0.0158678
856.583	0.0157051
856.661	0.0156846
856.739	0.0156747
856.817	0.0157629
856.896	0.0157628
856.974	0.0157250
857.052	0.0158115
857.130	0.0158855
857.208	0.0159136
857.286	0.0157658
857.364	0.0157710
857.442	0.0159865
857.521	0.0160089
857.599	0.0160217
857.677	0.0159036
857.755	0.0160231
857.833	0.0160522
857.911	0.0159608
857.989	0.0159889
858.067	0.0159990
858.146	0.0159621
858.224	0.0161583
858.302	0.0160345
858.380	0.0162218
858.458	0.0162045
858.536	0.0162092
858.614	0.0160563
858.692	0.0162623
858.771	0.0162020
858.849	0.0162690
858.927	0.0161900
859.005	0.0161827
859.083	0.0163570
859.161	0.0162540
859.239	0.0163087
859.317	0.0161935
859.396	0.0162508
859.474	0.0162139
859.552	0.0161560
859.630	0.0161047
859.708	0.0161963
859.786	0.0161664
859.864	0.0161579
859.942	0.0160176
860.021	0.0161032
860.099	0.0160064
860.177	0.0160193
860.255	0.0160828
860.333	0.0159190
860.411	0.0158922
860.489	0.0158485
860.567	0.0159107
860.646	0.0157445
860.724	0.0157624
860.802	0.0157034
860.880	0.0158516
860.958	0.0158675
861.036	0.0158160
861.114	0.0157045
861.192	0.0156407
861.271	0.0155992
861.349	0.0156546
861.427	0.0157816
861.505	0.0157346
861.583	0.0156914
861.661	0.0157561
861.739	0.0155200
861.817	0.0156728
861.896	0.0157399
861.974	0.0156490
862.052	0.0157388
862.130	0.0157608
862.208	0.0156808
862.286	0.0157019
862.364	0.0158968
862.442	0.0159372
862.521	0.0159402
862.599	0.0159515
862.677	0.0160695
862.755	0.0159969
862.833	0.0161718
862.911	0.0160184
862.989	0.0161449
863.067	0.0161131
863.146	0.0162370
863.224	0.0162485
863.302	0.0162356
863.380	0.0161543
863.458	0.0160599
863.536	0.0162519
863.614	0.0162972
863.692	0.0162350
863.771	0.0163437
863.849	0.0161282
863.927	0.0162388
864.005	0.0163265
864.083	0.0161147
864.161	0.0161582
864.239	0.0159917
864.317	0.0161333
864.396	0.0160354
864.474	0.0162206
864.552	0.0159117
864.630	0.0159659
864.708	0.0159109
864.786	0.0158719
864.864	0.0158302
864.942	0.0159592
865.021	0.0158239
865.099	0.0157792
865.177	0.0158733
865.255	0.0157922
865.333	0.0157999
865.411	0.0156375
865.489	0.0155739
865.567	0.0157003
865.646	0.0156674
865.724	0.0157003
865.802	0.0156381
865.880	0.0156875
865.958	0.0157710
866.036	0.0157116
866.114	0.0157677
866.192	0.0157421
866.271	0.0158232
866.349	0.0157861
866.427	0.0157632
866.505	0.0157833
866.583	0.0157893
866.661	0.0158366
866.739	0.0158604
866.817	0.0158530
866.896	0.0157189
866.974	0.0158995
867.052	0.0157510
867.130	0.0158889
867.208	0.0159149
867.286	0.0158704
867.364	0.0160119
867.442	0.0160075
867.521	0.0159945
867.599	0.0159927
867.677	0.0160207
867.755	0.0159443
867.833	0.0160329
867.911	0.0161449
867.989	0.0160123
868.067	0.0161655
868.146	0.0161380
868.224	0.0163254
868.302	0.0162648
868.380	0.0160406
868.458	0.0161964
868.536	0.0162915
868.614	0.0161392
868.692	0.0160177
868.771	0.0161171
868.849	0.0161246
868.927	0.0161117
869.005	0.0162423
869.083	0.0161835
869.161	0.0159983
869.239	0.0159354
869.317	0.0158528
869.396	0.0159822
869.474	0.0158888
869.552	0.0159060
869.630	0.0158818
869.708	0.0158162
869.786	0.0157256
869.864	0.0157576
869.942	0.0157346
