06/03/2022	15:35:16	Ver.	4.1	UNKNOWN
Optical Delay	550.020508	Delta X		0.078125	Sweeps	1	Scan Rate	0/0
Coordinates	Axis 1	NaN	Axis 2	NaN	Axis 3	NaN	Axis 4	NaN	Axis 5	NaN	Axis 6	0.000000
TX Power	0.000000	RX Power	0.000000

550.021	0.0158567
550.099	0.0158762
550.177	0.0159653
550.255	0.0157991
550.333	0.0159296
550.411	0.0158517
550.489	0.0158542
550.567	0.0158055
550.646	0.0159626
550.724	0.0158940
550.802	0.0158339
550.880	0.0159262
550.958	0.0159074
551.036	0.0158592
551.114	0.0159541
551.192	0.0158959
551.271	0.0157430
551.349	0.0158469
551.427	0.0159987
551.505	0.0158605
551.583	0.0158135
551.661	0.0158074
551.739	0.0156613
551.817	0.0159432
551.896	0.0157912
551.974	0.0159904
552.052	0.0158150
552.130	0.0158252
552.208	0.0158944
552.286	0.0158529
552.364	0.0158501
552.442	0.0158073
552.521	0.0158133
552.599	0.0159026
552.677	0.0157616
552.755	0.0157491
552.833	0.0157282
552.911	0.0157882
552.989	0.0158013
553.067	0.0158946
553.146	0.0158506
553.224	0.0159710
553.302	0.0158186
553.380	0.0159186
553.458	0.0158630
553.536	0.0159354
553.614	0.0159438
553.692	0.0157947
553.771	0.0158604
553.849	0.0158579
553.927	0.0159625
554.005	0.0158604
554.083	0.0158656
554.161	0.0158159
554.239	0.0157949
554.317	0.0158479
554.396	0.0158479
554.474	0.0158351
554.552	0.0159113
554.630	0.0159107
554.708	0.0158440
554.786	0.0157394
554.864	0.0157488
554.942	0.0158757
555.021	0.0159837
555.099	0.0159246
555.177	0.0158515
555.255	0.0158208
555.333	0.0159428
555.411	0.0159319
555.489	0.0158398
555.567	0.0158559
555.646	0.0158149
555.724	0.0158177
555.802	0.0158073
555.880	0.0159679
555.958	0.0158282
556.036	0.0159136
556.114	0.0157545
556.192	0.0159364
556.271	0.0159495
556.349	0.0158234
556.427	0.0157523
556.505	0.0158795
556.583	0.0158907
556.661	0.0159547
556.739	0.0159400
556.817	0.0158977
556.896	0.0158334
556.974	0.0158996
557.052	0.0158947
557.130	0.0158860
557.208	0.0157681
557.286	0.0158124
557.364	0.0160403
557.442	0.0158791
557.521	0.0158126
557.599	0.0157823
557.677	0.0157903
557.755	0.0159624
557.833	0.0157734
557.911	0.0158344
557.989	0.0158336
558.067	0.0158969
558.146	0.0157942
558.224	0.0158459
558.302	0.0159833
558.380	0.0158569
558.458	0.0158459
558.536	0.0158739
558.614	0.0158681
558.692	0.0157670
558.771	0.0158228
558.849	0.0158825
558.927	0.0158955
559.005	0.0158343
559.083	0.0158268
559.161	0.0157902
559.239	0.0159350
559.317	0.0158530
559.396	0.0158801
559.474	0.0158234
559.552	0.0159211
559.630	0.0159559
559.708	0.0159418
559.786	0.0157887
559.864	0.0158381
559.942	0.0159307
560.021	0.0158759
560.099	0.0159199
560.177	0.0158718
560.255	0.0158396
560.333	0.0158360
560.411	0.0159073
560.489	0.0157986
560.567	0.0159633
560.646	0.0158192
560.724	0.0158708
560.802	0.0158748
560.880	0.0158253
560.958	0.0157921
561.036	0.0157796
561.114	0.0158485
561.192	0.0158107
561.271	0.0158009
561.349	0.0159170
561.427	0.0159736
561.505	0.0159631
561.583	0.0156669
561.661	0.0158298
561.739	0.0159598
561.817	0.0159958
561.896	0.0159024
561.974	0.0158394
562.052	0.0159190
562.130	0.0159332
562.208	0.0157498
562.286	0.0158316
562.364	0.0158781
562.442	0.0158559
562.521	0.0159227
562.599	0.0158913
562.677	0.0158369
562.755	0.0158564
562.833	0.0158459
562.911	0.0158653
562.989	0.0158394
563.067	0.0158372
563.146	0.0159154
563.224	0.0159299
563.302	0.0158075
563.380	0.0157584
563.458	0.0158806
563.536	0.0157710
563.614	0.0158444
563.692	0.0157558
563.771	0.0158852
563.849	0.0158726
563.927	0.0157687
564.005	0.0157008
564.083	0.0158057
564.161	0.0159080
564.239	0.0158178
564.317	0.0158551
564.396	0.0157369
564.474	0.0159382
564.552	0.0159141
564.630	0.0157699
564.708	0.0158138
564.786	0.0159289
564.864	0.0157580
564.942	0.0158324
565.021	0.0159348
565.099	0.0160454
565.177	0.0157140
565.255	0.0158514
565.333	0.0158569
565.411	0.0158046
565.489	0.0159299
565.567	0.0158874
565.646	0.0157452
565.724	0.0157931
565.802	0.0157318
565.880	0.0158154
565.958	0.0159875
566.036	0.0159130
566.114	0.0159489
566.192	0.0158532
566.271	0.0158215
566.349	0.0158298
566.427	0.0158708
566.505	0.0157820
566.583	0.0158753
566.661	0.0158093
566.739	0.0158167
566.817	0.0158407
566.896	0.0159100
566.974	0.0158470
567.052	0.0159445
567.130	0.0157800
567.208	0.0159323
567.286	0.0158421
567.364	0.0158206
567.442	0.0157313
567.521	0.0157910
567.599	0.0157094
567.677	0.0157628
567.755	0.0159071
567.833	0.0158450
567.911	0.0157133
567.989	0.0158464
568.067	0.0158689
568.146	0.0158974
568.224	0.0159238
568.302	0.0157254
568.380	0.0157765
568.458	0.0158768
568.536	0.0160004
568.614	0.0159096
568.692	0.0159720
568.771	0.0157597
568.849	0.0156797
568.927	0.0158631
569.005	0.0159324
569.083	0.0159237
569.161	0.0158194
569.239	0.0158566
569.317	0.0158363
569.396	0.0158708
569.474	0.0159447
569.552	0.0158662
569.630	0.0157643
569.708	0.0159901
569.786	0.0158565
569.864	0.0159417
569.942	0.0158307
570.021	0.0157607
570.099	0.0158836
570.177	0.0157284
570.255	0.0158292
570.333	0.0159341
570.411	0.0159676
570.489	0.0159768
570.567	0.0158567
570.646	0.0157992
570.724	0.0159804
570.802	0.0159673
570.880	0.0158121
570.958	0.0156597
571.036	0.0159102
571.114	0.0157671
571.192	0.0158573
571.271	0.0157925
571.349	0.0158856
571.427	0.0159396
571.505	0.0157678
571.583	0.0157820
571.661	0.0158298
571.739	0.0159079
571.817	0.0158696
571.896	0.0159921
571.974	0.0158415
572.052	0.0159213
572.130	0.0157121
572.208	0.0158268
572.286	0.0158216
572.364	0.0158760
572.442	0.0158205
572.521	0.0158309
572.599	0.0157472
572.677	0.0158668
572.755	0.0157715
572.833	0.0158813
572.911	0.0159075
572.989	0.0158585
573.067	0.0157498
573.146	0.0158934
573.224	0.0159992
573.302	0.0158196
573.380	0.0158168
573.458	0.0158041
573.536	0.0158736
573.614	0.0158572
573.692	0.0159086
573.771	0.0158289
573.849	0.0158035
573.927	0.0157170
574.005	0.0158875
574.083	0.0157180
574.161	0.0159180
574.239	0.0158440
574.317	0.0159253
574.396	0.0158845
574.474	0.0157925
574.552	0.0159724
574.630	0.0160035
574.708	0.0159447
574.786	0.0157732
574.864	0.0159267
574.942	0.0158299
575.021	0.0157483
575.099	0.0159480
575.177	0.0158306
575.255	0.0158085
575.333	0.0157944
575.411	0.0158195
575.489	0.0158939
575.567	0.0158871
575.646	0.0157579
575.724	0.0157896
575.802	0.0157521
575.880	0.0158633
575.958	0.0158918
576.036	0.0159035
576.114	0.0158111
576.192	0.0157773
576.271	0.0157648
576.349	0.0158305
576.427	0.0158162
576.505	0.0160213
576.583	0.0158354
576.661	0.0158133
576.739	0.0158582
576.817	0.0158969
576.896	0.0159002
576.974	0.0157380
577.052	0.0157865
577.130	0.0159083
577.208	0.0159153
577.286	0.0158244
577.364	0.0159077
577.442	0.0158131
577.521	0.0157533
577.599	0.0157710
577.677	0.0158710
577.755	0.0159496
577.833	0.0158793
577.911	0.0158414
577.989	0.0158781
578.067	0.0158495
578.146	0.0156976
578.224	0.0158942
578.302	0.0157789
578.380	0.0158758
578.458	0.0158092
578.536	0.0158733
578.614	0.0157815
578.692	0.0158697
578.771	0.0158221
578.849	0.0158690
578.927	0.0158428
579.005	0.0159548
579.083	0.0157936
579.161	0.0159268
579.239	0.0158289
579.317	0.0157610
579.396	0.0157648
579.474	0.0157307
579.552	0.0158681
579.630	0.0158721
579.708	0.0159637
579.786	0.0158251
579.864	0.0158161
579.942	0.0157625
580.021	0.0158987
580.099	0.0158813
580.177	0.0159079
580.255	0.0158134
580.333	0.0159620
580.411	0.0158450
580.489	0.0157930
580.567	0.0158895
580.646	0.0158820
580.724	0.0158428
580.802	0.0158469
580.880	0.0159244
580.958	0.0158657
581.036	0.0158406
581.114	0.0158143
581.192	0.0158098
581.271	0.0158307
581.349	0.0158217
581.427	0.0157226
581.505	0.0158834
581.583	0.0159077
581.661	0.0158627
581.739	0.0159149
581.817	0.0157918
581.896	0.0157543
581.974	0.0159637
582.052	0.0158581
582.130	0.0158347
582.208	0.0156839
582.286	0.0158115
582.364	0.0158038
582.442	0.0159590
582.521	0.0158402
582.599	0.0159666
582.677	0.0158520
582.755	0.0157262
582.833	0.0157957
582.911	0.0159232
582.989	0.0158717
583.067	0.0157607
583.146	0.0158419
583.224	0.0157675
583.302	0.0158566
583.380	0.0157976
583.458	0.0157925
583.536	0.0157246
583.614	0.0158312
583.692	0.0156652
583.771	0.0158574
583.849	0.0158794
583.927	0.0157490
584.005	0.0158118
584.083	0.0159445
584.161	0.0158979
584.239	0.0157710
584.317	0.0158463
584.396	0.0158837
584.474	0.0158148
584.552	0.0157540
584.630	0.0159016
584.708	0.0159631
584.786	0.0157845
584.864	0.0159022
584.942	0.0158484
585.021	0.0158683
585.099	0.0158468
585.177	0.0158791
585.255	0.0158477
585.333	0.0158298
585.411	0.0159352
585.489	0.0159661
585.567	0.0159521
585.646	0.0158488
585.724	0.0157614
585.802	0.0158878
585.880	0.0159322
585.958	0.0158106
586.036	0.0159471
586.114	0.0157765
586.192	0.0159160
586.271	0.0159575
586.349	0.0156907
586.427	0.0158341
586.505	0.0159094
586.583	0.0159208
586.661	0.0159032
586.739	0.0158364
586.817	0.0159703
586.896	0.0158462
586.974	0.0158940
587.052	0.0157760
587.130	0.0158507
587.208	0.0160256
587.286	0.0158990
587.364	0.0158260
587.442	0.0157889
587.521	0.0158265
587.599	0.0158694
587.677	0.0158743
587.755	0.0157583
587.833	0.0157349
587.911	0.0157970
587.989	0.0158735
588.067	0.0159475
588.146	0.0157887
588.224	0.0158553
588.302	0.0159667
588.380	0.0158134
588.458	0.0157922
588.536	0.0157452
588.614	0.0157774
588.692	0.0157746
588.771	0.0157697
588.849	0.0159345
588.927	0.0159415
589.005	0.0159055
589.083	0.0159731
589.161	0.0158414
589.239	0.0157981
589.317	0.0159007
589.396	0.0158632
589.474	0.0157522
589.552	0.0158907
589.630	0.0159574
589.708	0.0158434
589.786	0.0157884
589.864	0.0157407
589.942	0.0159183
590.021	0.0159291
590.099	0.0158782
590.177	0.0158843
590.255	0.0158744
590.333	0.0158398
590.411	0.0157849
590.489	0.0157936
590.567	0.0158328
590.646	0.0160095
590.724	0.0159624
590.802	0.0158356
590.880	0.0157963
590.958	0.0158196
591.036	0.0159465
591.114	0.0158417
591.192	0.0158731
591.271	0.0159478
591.349	0.0158482
591.427	0.0159612
591.505	0.0157947
591.583	0.0158530
591.661	0.0158722
591.739	0.0160031
591.817	0.0158472
591.896	0.0158287
591.974	0.0158392
592.052	0.0157838
592.130	0.0159198
592.208	0.0157339
592.286	0.0157516
592.364	0.0158969
592.442	0.0159034
592.521	0.0159257
592.599	0.0159040
592.677	0.0158999
592.755	0.0158793
592.833	0.0158239
592.911	0.0158308
592.989	0.0157993
593.067	0.0158563
593.146	0.0158375
593.224	0.0158868
593.302	0.0158316
593.380	0.0158259
593.458	0.0158935
593.536	0.0159989
593.614	0.0158969
593.692	0.0158676
593.771	0.0158863
593.849	0.0159793
593.927	0.0159873
594.005	0.0159647
594.083	0.0159484
594.161	0.0157895
594.239	0.0158163
594.317	0.0158310
594.396	0.0157427
594.474	0.0158895
594.552	0.0158109
594.630	0.0159234
594.708	0.0158874
594.786	0.0158267
594.864	0.0158183
594.942	0.0158484
595.021	0.0158292
595.099	0.0158571
595.177	0.0157702
595.255	0.0158811
595.333	0.0158406
595.411	0.0158553
595.489	0.0158176
595.567	0.0158894
595.646	0.0159779
595.724	0.0158032
595.802	0.0158479
595.880	0.0158278
595.958	0.0157957
596.036	0.0158884
596.114	0.0158152
596.192	0.0158269
596.271	0.0158858
596.349	0.0158508
596.427	0.0159549
596.505	0.0158219
596.583	0.0158803
596.661	0.0156757
596.739	0.0157906
596.817	0.0158724
596.896	0.0158229
596.974	0.0158488
597.052	0.0158688
597.130	0.0158372
597.208	0.0158659
597.286	0.0158078
597.364	0.0160210
597.442	0.0159814
597.521	0.0159927
597.599	0.0158215
597.677	0.0158786
597.755	0.0160173
597.833	0.0158569
597.911	0.0157194
597.989	0.0159151
598.067	0.0159264
598.146	0.0158440
598.224	0.0157437
598.302	0.0158490
598.380	0.0159005
598.458	0.0158253
598.536	0.0158667
598.614	0.0159158
598.692	0.0158504
598.771	0.0158099
598.849	0.0158345
598.927	0.0157906
599.005	0.0157870
599.083	0.0158681
599.161	0.0157499
599.239	0.0159413
599.317	0.0159126
599.396	0.0158245
599.474	0.0157947
599.552	0.0157862
599.630	0.0158742
599.708	0.0157736
599.786	0.0158282
599.864	0.0157984
599.942	0.0158891
600.021	0.0158148
600.099	0.0159374
600.177	0.0159433
600.255	0.0158908
600.333	0.0157915
600.411	0.0158553
600.489	0.0158916
600.567	0.0159426
600.646	0.0158493
600.724	0.0158501
600.802	0.0158550
600.880	0.0159105
600.958	0.0159061
601.036	0.0158574
601.114	0.0158811
601.192	0.0158698
601.271	0.0158211
601.349	0.0156959
601.427	0.0159226
601.505	0.0158332
601.583	0.0159735
601.661	0.0158459
601.739	0.0158878
601.817	0.0157905
601.896	0.0158446
601.974	0.0159955
602.052	0.0158580
602.130	0.0157959
602.208	0.0158119
602.286	0.0160313
602.364	0.0158946
602.442	0.0157889
602.521	0.0156906
602.599	0.0157974
602.677	0.0158957
602.755	0.0159109
602.833	0.0158305
602.911	0.0159173
602.989	0.0158720
603.067	0.0157742
603.146	0.0158810
603.224	0.0158683
603.302	0.0159120
603.380	0.0158189
603.458	0.0160364
603.536	0.0157738
603.614	0.0158273
603.692	0.0158347
603.771	0.0158499
603.849	0.0158956
603.927	0.0158855
604.005	0.0157803
604.083	0.0157975
604.161	0.0158121
604.239	0.0158508
604.317	0.0157560
604.396	0.0158418
604.474	0.0159919
604.552	0.0157300
604.630	0.0158227
604.708	0.0160391
604.786	0.0159080
604.864	0.0157259
604.942	0.0159252
605.021	0.0158096
605.099	0.0159934
605.177	0.0158485
605.255	0.0158642
605.333	0.0159259
605.411	0.0157152
605.489	0.0158492
605.567	0.0157931
605.646	0.0158138
605.724	0.0157481
605.802	0.0157642
605.880	0.0157578
605.958	0.0158588
606.036	0.0158728
606.114	0.0157581
606.192	0.0158641
606.271	0.0158782
606.349	0.0157677
606.427	0.0158157
606.505	0.0158275
606.583	0.0158980
606.661	0.0158142
606.739	0.0158816
606.817	0.0159377
606.896	0.0157513
606.974	0.0157800
607.052	0.0157974
607.130	0.0157946
607.208	0.0157382
607.286	0.0158202
607.364	0.0159249
607.442	0.0158035
607.521	0.0158700
607.599	0.0158012
607.677	0.0159133
607.755	0.0160387
607.833	0.0159032
607.911	0.0157384
607.989	0.0158305
608.067	0.0158698
608.146	0.0158663
608.224	0.0159396
608.302	0.0158939
608.380	0.0158029
608.458	0.0159942
608.536	0.0159341
608.614	0.0158632
608.692	0.0158717
608.771	0.0157407
608.849	0.0158498
608.927	0.0157922
609.005	0.0159335
609.083	0.0158857
609.161	0.0158801
609.239	0.0159513
609.317	0.0159845
609.396	0.0159010
609.474	0.0158103
609.552	0.0159795
609.630	0.0158739
609.708	0.0160053
609.786	0.0157552
609.864	0.0157515
609.942	0.0158927
610.021	0.0158409
610.099	0.0158499
610.177	0.0159367
610.255	0.0159456
610.333	0.0159054
610.411	0.0157146
610.489	0.0158302
610.567	0.0158360
610.646	0.0158017
610.724	0.0158561
610.802	0.0158402
610.880	0.0158764
610.958	0.0158105
611.036	0.0159058
611.114	0.0158926
611.192	0.0158305
611.271	0.0159645
611.349	0.0157948
611.427	0.0159718
611.505	0.0157820
611.583	0.0159892
611.661	0.0158202
611.739	0.0158833
611.817	0.0158157
611.896	0.0159591
611.974	0.0158196
612.052	0.0157193
612.130	0.0159294
612.208	0.0158089
612.286	0.0158186
612.364	0.0159288
612.442	0.0159267
612.521	0.0159370
612.599	0.0158247
612.677	0.0158063
612.755	0.0158649
612.833	0.0158387
612.911	0.0157455
612.989	0.0157616
613.067	0.0159177
613.146	0.0159011
613.224	0.0158981
613.302	0.0157529
613.380	0.0158829
613.458	0.0159115
613.536	0.0157516
613.614	0.0157948
613.692	0.0158902
613.771	0.0160051
613.849	0.0158078
613.927	0.0158250
614.005	0.0159662
614.083	0.0159133
614.161	0.0158472
614.239	0.0158588
614.317	0.0159166
614.396	0.0158138
614.474	0.0159188
614.552	0.0158355
614.630	0.0158698
614.708	0.0159815
614.786	0.0156474
614.864	0.0156765
614.942	0.0158072
615.021	0.0158581
615.099	0.0158978
615.177	0.0158788
615.255	0.0157895
615.333	0.0159767
615.411	0.0158199
615.489	0.0158239
615.567	0.0159087
615.646	0.0160165
615.724	0.0158897
615.802	0.0158287
615.880	0.0158330
615.958	0.0156744
616.036	0.0158620
616.114	0.0158218
616.192	0.0159039
616.271	0.0158071
616.349	0.0159075
616.427	0.0159107
616.505	0.0158472
616.583	0.0158801
616.661	0.0158283
616.739	0.0158237
616.817	0.0157793
616.896	0.0158741
616.974	0.0158906
617.052	0.0158439
617.130	0.0159488
617.208	0.0157624
617.286	0.0158803
617.364	0.0158712
617.442	0.0158281
617.521	0.0160130
617.599	0.0158004
617.677	0.0159273
617.755	0.0157220
617.833	0.0159023
617.911	0.0159094
617.989	0.0158315
618.067	0.0158178
618.146	0.0157926
618.224	0.0158322
618.302	0.0159706
618.380	0.0158896
618.458	0.0158765
618.536	0.0157399
618.614	0.0159642
618.692	0.0158604
618.771	0.0158772
618.849	0.0158368
618.927	0.0157592
619.005	0.0159672
619.083	0.0158628
619.161	0.0157612
619.239	0.0158762
619.317	0.0157704
619.396	0.0159017
619.474	0.0158715
619.552	0.0158086
619.630	0.0159812
619.708	0.0156880
619.786	0.0159203
619.864	0.0159084
619.942	0.0157843
620.021	0.0158739
620.099	0.0158663
620.177	0.0158889
620.255	0.0158930
620.333	0.0159440
620.411	0.0159734
620.489	0.0157686
620.567	0.0158014
620.646	0.0158461
620.724	0.0158530
620.802	0.0158423
620.880	0.0158749
620.958	0.0157385
621.036	0.0159514
621.114	0.0158698
621.192	0.0158119
621.271	0.0158125
621.349	0.0158477
621.427	0.0158228
621.505	0.0158543
621.583	0.0159422
621.661	0.0157923
621.739	0.0157282
621.817	0.0159595
621.896	0.0158866
621.974	0.0159567
622.052	0.0159193
622.130	0.0158256
622.208	0.0159867
622.286	0.0158855
622.364	0.0158020
622.442	0.0158865
622.521	0.0158430
622.599	0.0158333
622.677	0.0159087
622.755	0.0159534
622.833	0.0158661
622.911	0.0158401
622.989	0.0159103
623.067	0.0159127
623.146	0.0158948
623.224	0.0158288
623.302	0.0160134
623.380	0.0158707
623.458	0.0159437
623.536	0.0159066
623.614	0.0158363
623.692	0.0158411
623.771	0.0158701
623.849	0.0159003
623.927	0.0157531
624.005	0.0158782
624.083	0.0158994
624.161	0.0157682
624.239	0.0159954
624.317	0.0158968
624.396	0.0157542
624.474	0.0158359
624.552	0.0158254
624.630	0.0159392
624.708	0.0157757
624.786	0.0157941
624.864	0.0159050
624.942	0.0157604
625.021	0.0158655
625.099	0.0158869
625.177	0.0159509
625.255	0.0157796
625.333	0.0157331
625.411	0.0157252
625.489	0.0156991
625.567	0.0159758
625.646	0.0159472
625.724	0.0157662
625.802	0.0159073
625.880	0.0158832
625.958	0.0159047
626.036	0.0159824
626.114	0.0157643
626.192	0.0157917
626.271	0.0158659
626.349	0.0158939
626.427	0.0159862
626.505	0.0159818
626.583	0.0158632
626.661	0.0158501
626.739	0.0158604
626.817	0.0158585
626.896	0.0160259
626.974	0.0160491
627.052	0.0158774
627.130	0.0159696
627.208	0.0159769
627.286	0.0158633
627.364	0.0159446
627.442	0.0158743
627.521	0.0158224
627.599	0.0157594
627.677	0.0158710
627.755	0.0158112
627.833	0.0159708
627.911	0.0159361
627.989	0.0159079
628.067	0.0159885
628.146	0.0160525
628.224	0.0159145
628.302	0.0158842
628.380	0.0158733
628.458	0.0159357
628.536	0.0159522
628.614	0.0158422
628.692	0.0157539
628.771	0.0156013
628.849	0.0158265
628.927	0.0159595
629.005	0.0160061
629.083	0.0157873
629.161	0.0158797
629.239	0.0159102
629.317	0.0157784
629.396	0.0157375
629.474	0.0157841
629.552	0.0159231
629.630	0.0157365
629.708	0.0156744
629.786	0.0160120
629.864	0.0159306
629.942	0.0157201
630.021	0.0158771
630.099	0.0158741
630.177	0.0159821
630.255	0.0158878
630.333	0.0158545
630.411	0.0158371
630.489	0.0159560
630.567	0.0158695
630.646	0.0159717
630.724	0.0159447
630.802	0.0159165
630.880	0.0159016
630.958	0.0158918
631.036	0.0158780
631.114	0.0159711
631.192	0.0159927
631.271	0.0159396
631.349	0.0159074
631.427	0.0159609
631.505	0.0158367
631.583	0.0158541
631.661	0.0158763
631.739	0.0158668
631.817	0.0157986
631.896	0.0158447
631.974	0.0158790
632.052	0.0158987
632.130	0.0158647
632.208	0.0158635
632.286	0.0159641
632.364	0.0158079
632.442	0.0157977
632.521	0.0159290
632.599	0.0159164
632.677	0.0158432
632.755	0.0158640
632.833	0.0159024
632.911	0.0159164
632.989	0.0157941
633.067	0.0157466
633.146	0.0158864
633.224	0.0157959
633.302	0.0157926
633.380	0.0156748
633.458	0.0157950
633.536	0.0157048
633.614	0.0158497
633.692	0.0158582
633.771	0.0157245
633.849	0.0157458
633.927	0.0156959
634.005	0.0158199
634.083	0.0157084
634.161	0.0158376
634.239	0.0158809
634.317	0.0158514
634.396	0.0159034
634.474	0.0159625
634.552	0.0158260
634.630	0.0158894
634.708	0.0159065
634.786	0.0159811
634.864	0.0158801
634.942	0.0160627
635.021	0.0159395
635.099	0.0158080
635.177	0.0159385
635.255	0.0158663
635.333	0.0159765
635.411	0.0159174
635.489	0.0159013
635.567	0.0160422
635.646	0.0160023
635.724	0.0158799
635.802	0.0158584
635.880	0.0158418
635.958	0.0158698
636.036	0.0160260
636.114	0.0158224
636.192	0.0158619
636.271	0.0157566
636.349	0.0158667
636.427	0.0159142
636.505	0.0159512
636.583	0.0158895
636.661	0.0159431
636.739	0.0159292
636.817	0.0158142
636.896	0.0158659
636.974	0.0158128
637.052	0.0158737
637.130	0.0158393
637.208	0.0157362
637.286	0.0158462
637.364	0.0157969
637.442	0.0158567
637.521	0.0157494
637.599	0.0158786
637.677	0.0156409
637.755	0.0158076
637.833	0.0157412
637.911	0.0157391
637.989	0.0158157
638.067	0.0157478
638.146	0.0157515
638.224	0.0157588
638.302	0.0158893
638.380	0.0159010
638.458	0.0158211
638.536	0.0159174
638.614	0.0159193
638.692	0.0158721
638.771	0.0158723
638.849	0.0160409
638.927	0.0158897
639.005	0.0158898
639.083	0.0159915
639.161	0.0159658
639.239	0.0160075
639.317	0.0157977
639.396	0.0158876
639.474	0.0159277
639.552	0.0159001
639.630	0.0158494
639.708	0.0159196
639.786	0.0160214
639.864	0.0159680
639.942	0.0158006
640.021	0.0159299
640.099	0.0159196
640.177	0.0159056
640.255	0.0159396
640.333	0.0157996
640.411	0.0159307
640.489	0.0159949
640.567	0.0158224
640.646	0.0158098
640.724	0.0158873
640.802	0.0158054
640.880	0.0160229
640.958	0.0159676
641.036	0.0157898
641.114	0.0159011
641.192	0.0159157
641.271	0.0156944
641.349	0.0158437
641.427	0.0158718
641.505	0.0158118
641.583	0.0158352
641.661	0.0158073
641.739	0.0157998
641.817	0.0158678
641.896	0.0160088
641.974	0.0158781
642.052	0.0158006
642.130	0.0158918
642.208	0.0159116
642.286	0.0157394
642.364	0.0158125
642.442	0.0158540
642.521	0.0158712
642.599	0.0159393
642.677	0.0158546
642.755	0.0159651
642.833	0.0158672
642.911	0.0157751
642.989	0.0159651
643.067	0.0158546
643.146	0.0158891
643.224	0.0159749
643.302	0.0159325
643.380	0.0158772
643.458	0.0159829
643.536	0.0158196
643.614	0.0157752
643.692	0.0158608
643.771	0.0159251
643.849	0.0158656
643.927	0.0158862
644.005	0.0158307
644.083	0.0159033
644.161	0.0158280
644.239	0.0159029
644.317	0.0157809
644.396	0.0160275
644.474	0.0159552
644.552	0.0158710
644.630	0.0158297
644.708	0.0159335
644.786	0.0158539
644.864	0.0158173
644.942	0.0159923
645.021	0.0158564
645.099	0.0157430
645.177	0.0160036
645.255	0.0157964
645.333	0.0158658
645.411	0.0159128
645.489	0.0159814
645.567	0.0158455
645.646	0.0157632
645.724	0.0158786
645.802	0.0158158
645.880	0.0158470
645.958	0.0160413
646.036	0.0158521
646.114	0.0159686
646.192	0.0159074
646.271	0.0157188
646.349	0.0159083
646.427	0.0159558
646.505	0.0159127
646.583	0.0158299
646.661	0.0158140
646.739	0.0158222
646.817	0.0158162
646.896	0.0158920
646.974	0.0159047
647.052	0.0158807
647.130	0.0158741
647.208	0.0159076
647.286	0.0159352
647.364	0.0159353
647.442	0.0158657
647.521	0.0159632
647.599	0.0159333
647.677	0.0158273
647.755	0.0159444
647.833	0.0158353
647.911	0.0159264
647.989	0.0159584
648.067	0.0159273
648.146	0.0158910
648.224	0.0158657
648.302	0.0158082
648.380	0.0158943
648.458	0.0158012
648.536	0.0158816
648.614	0.0160116
648.692	0.0160117
648.771	0.0158765
648.849	0.0158455
648.927	0.0159571
649.005	0.0159592
649.083	0.0158994
649.161	0.0159395
649.239	0.0159721
649.317	0.0159244
649.396	0.0159592
649.474	0.0159439
649.552	0.0158953
649.630	0.0159500
649.708	0.0158826
649.786	0.0158409
649.864	0.0157734
649.942	0.0159680
650.021	0.0159905
650.099	0.0159370
650.177	0.0158297
650.255	0.0158368
650.333	0.0158445
650.411	0.0159088
650.489	0.0159448
650.567	0.0159085
650.646	0.0157747
650.724	0.0158427
650.802	0.0159679
650.880	0.0159899
650.958	0.0159114
651.036	0.0159789
651.114	0.0159202
651.192	0.0158297
651.271	0.0159197
651.349	0.0158598
651.427	0.0158211
651.505	0.0159241
651.583	0.0159605
651.661	0.0158591
651.739	0.0158296
651.817	0.0158932
651.896	0.0158129
651.974	0.0159155
652.052	0.0158463
652.130	0.0158549
652.208	0.0159572
652.286	0.0159216
652.364	0.0158905
652.442	0.0158083
652.521	0.0158600
652.599	0.0157941
652.677	0.0158806
652.755	0.0159393
652.833	0.0158017
652.911	0.0158192
652.989	0.0157874
653.067	0.0157950
653.146	0.0158974
653.224	0.0159319
653.302	0.0159940
653.380	0.0158616
653.458	0.0158549
653.536	0.0157767
653.614	0.0158391
653.692	0.0158920
653.771	0.0158130
653.849	0.0158662
653.927	0.0159871
654.005	0.0159320
654.083	0.0159658
654.161	0.0158170
654.239	0.0159064
654.317	0.0158246
654.396	0.0157646
654.474	0.0157605
654.552	0.0157784
654.630	0.0158793
654.708	0.0159679
654.786	0.0159621
654.864	0.0159605
654.942	0.0158260
655.021	0.0158011
655.099	0.0159127
655.177	0.0159109
655.255	0.0159312
655.333	0.0157066
655.411	0.0159867
655.489	0.0158624
655.567	0.0158822
655.646	0.0159512
655.724	0.0158462
655.802	0.0159229
655.880	0.0159408
655.958	0.0159721
656.036	0.0159071
656.114	0.0158614
656.192	0.0158953
656.271	0.0161152
656.349	0.0158168
656.427	0.0158996
656.505	0.0158512
656.583	0.0158319
656.661	0.0158189
656.739	0.0158985
656.817	0.0159550
656.896	0.0158559
656.974	0.0158083
657.052	0.0157693
657.130	0.0158994
657.208	0.0157481
657.286	0.0159066
657.364	0.0159184
657.442	0.0158757
657.521	0.0158263
657.599	0.0158245
657.677	0.0158237
657.755	0.0159554
657.833	0.0160205
657.911	0.0158997
657.989	0.0158248
658.067	0.0157418
658.146	0.0159117
658.224	0.0158102
658.302	0.0157113
658.380	0.0158082
658.458	0.0160855
658.536	0.0159329
658.614	0.0158500
658.692	0.0157494
658.771	0.0159515
658.849	0.0159010
658.927	0.0159373
659.005	0.0158401
659.083	0.0159673
659.161	0.0160083
659.239	0.0158015
659.317	0.0158267
659.396	0.0159345
659.474	0.0157013
659.552	0.0157378
659.630	0.0158897
659.708	0.0158432
659.786	0.0157660
659.864	0.0158262
659.942	0.0157299
660.021	0.0158926
660.099	0.0158276
660.177	0.0158376
660.255	0.0157664
660.333	0.0157954
660.411	0.0158307
660.489	0.0158788
660.567	0.0158762
660.646	0.0157811
660.724	0.0157551
660.802	0.0158606
660.880	0.0158076
660.958	0.0159035
661.036	0.0158800
661.114	0.0158643
661.192	0.0158739
661.271	0.0157621
661.349	0.0158553
661.427	0.0156909
661.505	0.0158821
661.583	0.0160603
661.661	0.0157923
661.739	0.0158299
661.817	0.0157817
661.896	0.0157984
661.974	0.0159656
662.052	0.0157220
662.130	0.0158511
662.208	0.0159917
662.286	0.0159679
662.364	0.0159603
662.442	0.0157915
662.521	0.0158834
662.599	0.0156430
662.677	0.0158248
662.755	0.0159461
662.833	0.0159179
662.911	0.0158529
662.989	0.0157658
663.067	0.0158768
663.146	0.0159181
663.224	0.0158694
663.302	0.0159597
663.380	0.0158144
663.458	0.0159378
663.536	0.0160093
663.614	0.0158847
663.692	0.0159378
663.771	0.0158483
663.849	0.0159097
663.927	0.0158083
664.005	0.0158022
664.083	0.0159634
664.161	0.0158901
664.239	0.0158194
664.317	0.0158695
664.396	0.0158316
664.474	0.0157769
664.552	0.0160226
664.630	0.0159473
664.708	0.0158590
664.786	0.0159383
664.864	0.0157378
664.942	0.0159711
665.021	0.0159856
665.099	0.0158237
665.177	0.0157984
665.255	0.0157671
665.333	0.0158139
665.411	0.0158598
665.489	0.0159081
665.567	0.0158454
665.646	0.0159172
665.724	0.0158393
665.802	0.0159280
665.880	0.0157890
665.958	0.0158076
666.036	0.0159344
666.114	0.0158236
666.192	0.0158364
666.271	0.0158224
666.349	0.0157937
666.427	0.0158118
666.505	0.0158499
666.583	0.0157444
666.661	0.0158072
666.739	0.0157935
666.817	0.0158710
666.896	0.0158261
666.974	0.0159603
667.052	0.0158492
667.130	0.0158566
667.208	0.0159229
667.286	0.0157691
667.364	0.0158321
667.442	0.0158401
667.521	0.0157951
667.599	0.0158346
667.677	0.0158692
667.755	0.0159799
667.833	0.0158538
667.911	0.0158427
667.989	0.0158018
668.067	0.0159351
668.146	0.0158638
668.224	0.0158007
668.302	0.0158932
668.380	0.0157269
668.458	0.0158013
668.536	0.0159090
668.614	0.0158527
668.692	0.0157631
668.771	0.0158184
668.849	0.0158376
668.927	0.0158082
669.005	0.0158939
669.083	0.0158776
669.161	0.0159620
669.239	0.0158197
669.317	0.0158605
669.396	0.0158567
669.474	0.0157044
669.552	0.0158347
669.630	0.0158315
669.708	0.0160032
669.786	0.0159810
669.864	0.0158185
669.942	0.0159501
670.021	0.0157726
670.099	0.0159168
670.177	0.0157970
670.255	0.0158019
670.333	0.0158651
670.411	0.0160329
670.489	0.0158153
670.567	0.0158120
670.646	0.0158176
670.724	0.0157833
670.802	0.0158530
670.880	0.0158527
670.958	0.0159159
671.036	0.0159047
671.114	0.0158699
671.192	0.0158533
671.271	0.0159091
671.349	0.0158378
671.427	0.0157906
671.505	0.0157831
671.583	0.0158372
671.661	0.0158794
671.739	0.0160661
671.817	0.0158205
671.896	0.0158597
671.974	0.0158670
672.052	0.0159062
672.130	0.0158955
672.208	0.0158331
672.286	0.0158602
672.364	0.0159566
672.442	0.0157903
672.521	0.0158414
672.599	0.0158436
672.677	0.0159675
672.755	0.0157748
672.833	0.0157614
672.911	0.0157301
672.989	0.0157359
673.067	0.0158693
673.146	0.0157776
673.224	0.0158992
673.302	0.0158625
673.380	0.0158904
673.458	0.0158825
673.536	0.0158373
673.614	0.0157121
673.692	0.0158241
673.771	0.0159304
673.849	0.0158549
673.927	0.0158165
674.005	0.0159785
674.083	0.0158478
674.161	0.0159402
674.239	0.0159209
674.317	0.0159457
674.396	0.0158680
674.474	0.0160210
674.552	0.0158426
674.630	0.0158199
674.708	0.0158767
674.786	0.0159130
674.864	0.0158974
674.942	0.0159734
675.021	0.0157778
675.099	0.0158921
675.177	0.0158315
675.255	0.0158902
675.333	0.0157621
675.411	0.0157983
675.489	0.0157633
675.567	0.0158459
675.646	0.0158975
675.724	0.0159051
675.802	0.0158562
675.880	0.0158914
675.958	0.0159037
676.036	0.0159827
676.114	0.0159170
676.192	0.0159264
676.271	0.0158515
676.349	0.0157910
676.427	0.0157500
676.505	0.0158689
676.583	0.0158241
676.661	0.0159736
676.739	0.0159469
676.817	0.0157902
676.896	0.0159353
676.974	0.0157973
677.052	0.0158298
677.130	0.0158215
677.208	0.0159425
677.286	0.0158981
677.364	0.0156872
677.442	0.0158115
677.521	0.0160258
677.599	0.0158569
677.677	0.0159226
677.755	0.0158169
677.833	0.0157758
677.911	0.0158688
677.989	0.0159253
678.067	0.0158784
678.146	0.0158971
678.224	0.0158090
678.302	0.0158723
678.380	0.0158450
678.458	0.0158224
678.536	0.0159518
678.614	0.0158571
678.692	0.0158755
678.771	0.0158008
678.849	0.0158485
678.927	0.0158477
679.005	0.0158437
679.083	0.0158873
679.161	0.0159042
679.239	0.0158652
679.317	0.0158434
679.396	0.0157964
679.474	0.0158973
679.552	0.0160075
679.630	0.0158311
679.708	0.0159461
679.786	0.0159010
679.864	0.0158458
679.942	0.0158481
680.021	0.0158878
680.099	0.0158070
680.177	0.0158046
680.255	0.0158150
680.333	0.0159736
680.411	0.0159225
680.489	0.0158952
680.567	0.0160004
680.646	0.0157750
680.724	0.0158968
680.802	0.0158842
680.880	0.0157844
680.958	0.0158754
681.036	0.0157616
681.114	0.0158727
681.192	0.0159219
681.271	0.0158468
681.349	0.0158986
681.427	0.0159366
681.505	0.0158671
681.583	0.0157282
681.661	0.0158413
681.739	0.0157555
681.817	0.0157393
681.896	0.0158030
681.974	0.0158769
682.052	0.0158495
682.130	0.0158102
682.208	0.0157785
682.286	0.0158021
682.364	0.0157502
682.442	0.0158184
682.521	0.0158717
682.599	0.0158039
682.677	0.0158376
682.755	0.0159116
682.833	0.0159997
682.911	0.0158398
682.989	0.0157438
683.067	0.0158250
683.146	0.0157950
683.224	0.0159337
683.302	0.0158892
683.380	0.0158380
683.458	0.0159473
683.536	0.0159193
683.614	0.0159124
683.692	0.0158990
683.771	0.0158812
683.849	0.0158771
683.927	0.0158139
684.005	0.0156721
684.083	0.0158755
684.161	0.0159373
684.239	0.0158389
684.317	0.0158105
684.396	0.0159157
684.474	0.0158425
684.552	0.0159514
684.630	0.0158578
684.708	0.0157848
684.786	0.0158643
684.864	0.0159352
684.942	0.0159227
685.021	0.0158781
685.099	0.0158873
685.177	0.0160052
685.255	0.0158344
685.333	0.0158836
685.411	0.0158250
685.489	0.0158075
685.567	0.0157327
685.646	0.0158695
685.724	0.0157652
685.802	0.0159632
685.880	0.0158890
685.958	0.0158251
686.036	0.0158617
686.114	0.0157983
686.192	0.0158055
686.271	0.0158179
686.349	0.0158179
686.427	0.0157988
686.505	0.0157568
686.583	0.0158792
686.661	0.0158173
686.739	0.0157249
686.817	0.0158968
686.896	0.0158421
686.974	0.0158546
687.052	0.0158335
687.130	0.0158224
687.208	0.0158559
687.286	0.0158887
687.364	0.0157381
687.442	0.0158813
687.521	0.0159283
687.599	0.0157386
687.677	0.0158093
687.755	0.0157601
687.833	0.0159132
687.911	0.0160097
687.989	0.0159101
688.067	0.0160114
688.146	0.0160822
688.224	0.0160622
688.302	0.0159535
688.380	0.0159359
688.458	0.0157977
688.536	0.0158669
688.614	0.0158171
688.692	0.0157590
688.771	0.0157376
688.849	0.0158283
688.927	0.0157391
689.005	0.0157133
689.083	0.0156096
689.161	0.0157213
689.239	0.0159116
689.317	0.0160155
689.396	0.0162106
689.474	0.0162151
689.552	0.0162386
689.630	0.0162794
689.708	0.0162920
689.786	0.0162473
689.864	0.0159446
689.942	0.0159415
690.021	0.0156583
690.099	0.0154115
690.177	0.0155775
690.255	0.0152651
690.333	0.0153174
690.411	0.0153284
690.489	0.0152043
690.567	0.0154284
690.646	0.0155203
690.724	0.0156889
690.802	0.0159140
690.880	0.0161904
690.958	0.0164023
691.036	0.0166341
691.114	0.0166883
691.192	0.0167663
691.271	0.0167154
691.349	0.0164173
691.427	0.0160149
691.505	0.0157535
691.583	0.0154925
691.661	0.0152568
691.739	0.0149736
691.817	0.0149543
691.896	0.0149335
691.974	0.0148618
692.052	0.0152361
692.130	0.0154382
692.208	0.0156068
692.286	0.0160248
692.364	0.0162781
692.442	0.0165562
692.521	0.0167295
692.599	0.0168781
692.677	0.0169270
692.755	0.0167431
692.833	0.0165701
692.911	0.0161330
692.989	0.0158775
693.067	0.0155941
693.146	0.0150137
693.224	0.0149256
693.302	0.0146980
693.380	0.0148876
693.458	0.0148407
693.536	0.0149773
693.614	0.0153288
693.692	0.0154101
693.771	0.0155981
693.849	0.0159113
693.927	0.0160777
694.005	0.0162836
694.083	0.0164579
694.161	0.0166257
694.239	0.0165492
694.317	0.0164761
694.396	0.0163686
694.474	0.0162029
694.552	0.0162128
694.630	0.0160213
694.708	0.0157466
694.786	0.0155484
694.864	0.0152386
694.942	0.0152121
695.021	0.0153890
695.099	0.0152991
695.177	0.0154665
695.255	0.0154459
695.333	0.0156391
695.411	0.0157938
695.489	0.0159828
695.567	0.0160945
695.646	0.0163202
695.724	0.0163258
695.802	0.0163323
695.880	0.0164303
695.958	0.0161823
696.036	0.0159319
696.114	0.0159330
696.192	0.0157134
696.271	0.0155000
696.349	0.0153538
696.427	0.0153680
696.505	0.0153992
696.583	0.0154219
696.661	0.0155114
696.739	0.0155546
696.817	0.0157860
696.896	0.0158937
696.974	0.0160251
697.052	0.0159774
697.130	0.0160201
697.208	0.0158842
697.286	0.0160574
697.364	0.0160719
697.442	0.0160123
697.521	0.0160670
697.599	0.0160457
697.677	0.0161755
697.755	0.0164323
697.833	0.0163846
697.911	0.0163680
697.989	0.0165748
698.067	0.0165047
698.146	0.0164420
698.224	0.0164500
698.302	0.0160460
698.380	0.0160060
698.458	0.0159615
698.536	0.0156789
698.614	0.0155216
698.692	0.0152591
698.771	0.0151340
698.849	0.0150030
698.927	0.0151115
699.005	0.0152253
699.083	0.0151112
699.161	0.0153204
699.239	0.0154343
699.317	0.0156161
699.396	0.0157831
699.474	0.0156785
699.552	0.0158307
699.630	0.0158345
699.708	0.0159348
699.786	0.0157240
699.864	0.0156312
699.942	0.0155005
700.021	0.0154270
700.099	0.0154327
700.177	0.0153581
700.255	0.0154600
700.333	0.0155132
700.411	0.0156435
700.489	0.0159871
700.567	0.0160662
700.646	0.0163078
700.724	0.0163894
700.802	0.0162782
700.880	0.0165211
700.958	0.0166153
701.036	0.0167099
701.114	0.0166278
701.192	0.0163951
701.271	0.0162399
701.349	0.0159901
701.427	0.0160687
701.505	0.0160021
701.583	0.0158833
701.661	0.0158978
701.739	0.0159687
701.817	0.0161538
701.896	0.0164130
701.974	0.0165704
702.052	0.0167617
702.130	0.0169987
702.208	0.0170257
702.286	0.0172689
702.364	0.0173894
702.442	0.0172258
702.521	0.0172023
702.599	0.0172621
702.677	0.0170274
702.755	0.0168147
702.833	0.0165591
702.911	0.0163572
702.989	0.0161025
703.067	0.0158033
703.146	0.0152493
703.224	0.0151275
703.302	0.0147205
703.380	0.0141238
703.458	0.0139265
703.536	0.0132900
703.614	0.0130028
703.692	0.0128362
703.771	0.0125550
703.849	0.0122880
703.927	0.0122925
704.005	0.0122654
704.083	0.0125883
704.161	0.0129272
704.239	0.0132990
704.317	0.0137369
704.396	0.0143761
704.474	0.0150552
704.552	0.0157213
704.630	0.0162738
704.708	0.0168969
704.786	0.0176352
704.864	0.0183418
704.942	0.0188453
705.021	0.0194644
705.099	0.0196399
705.177	0.0198261
705.255	0.0200447
705.333	0.0200416
705.411	0.0200007
705.489	0.0197974
705.567	0.0193781
705.646	0.0189987
705.724	0.0185070
705.802	0.0178650
705.880	0.0174358
705.958	0.0168201
706.036	0.0162650
706.114	0.0157575
706.192	0.0153955
706.271	0.0151070
706.349	0.0147895
706.427	0.0145998
706.505	0.0146240
706.583	0.0144558
706.661	0.0144951
706.739	0.0146899
706.817	0.0146655
706.896	0.0148608
706.974	0.0150460
707.052	0.0152497
707.130	0.0154105
707.208	0.0157323
707.286	0.0158850
707.364	0.0159622
707.442	0.0162416
707.521	0.0164610
707.599	0.0165507
707.677	0.0166283
707.755	0.0167102
707.833	0.0165208
707.911	0.0161701
707.989	0.0157865
708.067	0.0150204
708.146	0.0143417
708.224	0.0135725
708.302	0.0128199
708.380	0.0118842
708.458	0.0111626
708.536	0.0106495
708.614	0.0102811
708.692	0.00991570
708.771	0.00985252
708.849	0.0100272
708.927	0.0106007
709.005	0.0110027
709.083	0.0117435
709.161	0.0127644
709.239	0.0136138
709.317	0.0146552
709.396	0.0158163
709.474	0.0167669
709.552	0.0175522
709.630	0.0184672
709.708	0.0192213
709.786	0.0201157
709.864	0.0206601
709.942	0.0213455
710.021	0.0218152
710.099	0.0223621
710.177	0.0226480
710.255	0.0227905
710.333	0.0227795
710.411	0.0225795
710.489	0.0224471
710.567	0.0220552
710.646	0.0214410
710.724	0.0209750
710.802	0.0203076
710.880	0.0196817
710.958	0.0190553
711.036	0.0184210
711.114	0.0179218
711.192	0.0175950
711.271	0.0174374
711.349	0.0174323
711.427	0.0174011
711.505	0.0172266
711.583	0.0173942
711.661	0.0173835
711.739	0.0171616
711.817	0.0168765
711.896	0.0163332
711.974	0.0157195
712.052	0.0147728
712.130	0.0135645
712.208	0.0121619
712.286	0.0109325
712.364	0.00949936
712.442	0.00767082
712.521	0.00646217
712.599	0.00508034
712.677	0.00395622
712.755	0.00303276
712.833	0.00248802
712.911	0.00205299
712.989	0.00206070
713.067	0.00259499
713.146	0.00326927
713.224	0.00420021
713.302	0.00548798
713.380	0.00720245
713.458	0.00898140
713.536	0.0110607
713.614	0.0130821
713.692	0.0152026
713.771	0.0175956
713.849	0.0200333
713.927	0.0220446
714.005	0.0239164
714.083	0.0257607
714.161	0.0271738
714.239	0.0282759
714.317	0.0290009
714.396	0.0295065
714.474	0.0295614
714.552	0.0294295
714.630	0.0290630
714.708	0.0283525
714.786	0.0275477
714.864	0.0266434
714.942	0.0257702
715.021	0.0247324
715.099	0.0238080
715.177	0.0227990
715.255	0.0220268
715.333	0.0213946
715.411	0.0205591
715.489	0.0200309
715.567	0.0192986
715.646	0.0187157
715.724	0.0180287
715.802	0.0173958
715.880	0.0165656
715.958	0.0155991
716.036	0.0145229
716.114	0.0134720
716.192	0.0118799
716.271	0.0104388
716.349	0.00899269
716.427	0.00740150
716.505	0.00571671
716.583	0.00429565
716.661	0.00294327
716.739	0.00191635
716.817	0.00107201
716.896	0.000469971
716.974	0.000263748
717.052	0.000687561
717.130	0.00128601
717.208	0.00241287
717.286	0.00369026
717.364	0.00527969
717.442	0.00724922
717.521	0.00921303
717.599	0.0113876
717.677	0.0135119
717.755	0.0156133
717.833	0.0177281
717.911	0.0196960
717.989	0.0214240
718.067	0.0227580
718.146	0.0240792
718.224	0.0249577
718.302	0.0256615
718.380	0.0260178
718.458	0.0262536
718.536	0.0263704
718.614	0.0260278
718.692	0.0256871
718.771	0.0252697
718.849	0.0246208
718.927	0.0238365
719.005	0.0231493
719.083	0.0221556
719.161	0.0215585
719.239	0.0209288
719.317	0.0204411
719.396	0.0198695
719.474	0.0192222
719.552	0.0188576
719.630	0.0185503
719.708	0.0183237
719.786	0.0177890
719.864	0.0172834
719.942	0.0168378
720.021	0.0162196
720.099	0.0155450
720.177	0.0146843
720.255	0.0136636
720.333	0.0126738
720.411	0.0115137
720.489	0.0106019
720.567	0.00959068
720.646	0.00864334
720.724	0.00793297
720.802	0.00729530
720.880	0.00679184
720.958	0.00650497
721.036	0.00648338
721.114	0.00677620
721.192	0.00712273
721.271	0.00769188
721.349	0.00868538
721.427	0.00969269
721.505	0.0109059
721.583	0.0121115
721.661	0.0135355
721.739	0.0148888
721.817	0.0163009
721.896	0.0176523
721.974	0.0190580
722.052	0.0200939
722.130	0.0210455
722.208	0.0219341
722.286	0.0223940
722.364	0.0228303
722.442	0.0229742
722.521	0.0229150
722.599	0.0228099
722.677	0.0223920
722.755	0.0218719
722.833	0.0213454
722.911	0.0206740
722.989	0.0200484
723.067	0.0190874
723.146	0.0182494
723.224	0.0175803
723.302	0.0167287
723.380	0.0161911
723.458	0.0156386
723.536	0.0151468
723.614	0.0150179
723.692	0.0147346
723.771	0.0142700
723.849	0.0143387
723.927	0.0142520
724.005	0.0141678
724.083	0.0140041
724.161	0.0139989
724.239	0.0137559
724.317	0.0137412
724.396	0.0136296
724.474	0.0134825
724.552	0.0133322
724.630	0.0131168
724.708	0.0129903
724.786	0.0130310
724.864	0.0130161
724.942	0.0130482
725.021	0.0129063
725.099	0.0131597
725.177	0.0135014
725.255	0.0137282
725.333	0.0139959
725.411	0.0142635
725.489	0.0146842
725.567	0.0149185
725.646	0.0151290
725.724	0.0155267
725.802	0.0157838
725.880	0.0160026
725.958	0.0163732
726.036	0.0165808
726.114	0.0168005
726.192	0.0169444
726.271	0.0172298
726.349	0.0175189
726.427	0.0176534
726.505	0.0176453
726.583	0.0176818
726.661	0.0177328
726.739	0.0177711
726.817	0.0176610
726.896	0.0174706
726.974	0.0174678
727.052	0.0171503
727.130	0.0168653
727.208	0.0167938
727.286	0.0167876
727.364	0.0166090
727.442	0.0164479
727.521	0.0164099
727.599	0.0167117
727.677	0.0165829
727.755	0.0167011
727.833	0.0169102
727.911	0.0168781
727.989	0.0169305
728.067	0.0171438
728.146	0.0173070
728.224	0.0172507
728.302	0.0170822
728.380	0.0169669
728.458	0.0169202
728.536	0.0166209
728.614	0.0162370
728.692	0.0159970
728.771	0.0157289
728.849	0.0156110
728.927	0.0152937
729.005	0.0151005
729.083	0.0149701
729.161	0.0146774
729.239	0.0146535
729.317	0.0146278
729.396	0.0146557
729.474	0.0146082
729.552	0.0143899
729.630	0.0145784
729.708	0.0146806
729.786	0.0147446
729.864	0.0147232
729.942	0.0146990
730.021	0.0146302
730.099	0.0147947
730.177	0.0147826
730.255	0.0147737
730.333	0.0150776
730.411	0.0150159
730.489	0.0151729
730.567	0.0151734
730.646	0.0151770
730.724	0.0153531
730.802	0.0152445
730.880	0.0153362
730.958	0.0152216
731.036	0.0153479
731.114	0.0151693
731.192	0.0150159
731.271	0.0150712
731.349	0.0153004
731.427	0.0153609
731.505	0.0155161
731.583	0.0155402
731.661	0.0157285
731.739	0.0159390
731.817	0.0161183
731.896	0.0163208
731.974	0.0163621
732.052	0.0165083
732.130	0.0169148
732.208	0.0169883
732.286	0.0170581
732.364	0.0171050
732.442	0.0170057
732.521	0.0169022
732.599	0.0167527
732.677	0.0167474
732.755	0.0165370
732.833	0.0163020
732.911	0.0162898
732.989	0.0160596
733.067	0.0161728
733.146	0.0161924
733.224	0.0161181
733.302	0.0163338
733.380	0.0166151
733.458	0.0165567
733.536	0.0167409
733.614	0.0168223
733.692	0.0169661
733.771	0.0168417
733.849	0.0169666
733.927	0.0170126
734.005	0.0170516
734.083	0.0169653
734.161	0.0168362
734.239	0.0167237
734.317	0.0167742
734.396	0.0167370
734.474	0.0166188
734.552	0.0165733
734.630	0.0164777
734.708	0.0162669
734.786	0.0160326
734.864	0.0158793
734.942	0.0156652
735.021	0.0155167
735.099	0.0152606
735.177	0.0149976
735.255	0.0147543
735.333	0.0146230
735.411	0.0143076
735.489	0.0140321
735.567	0.0140858
735.646	0.0138819
735.724	0.0138680
735.802	0.0139191
735.880	0.0141463
735.958	0.0141754
736.036	0.0142803
736.114	0.0144089
736.192	0.0146157
736.271	0.0147139
736.349	0.0149110
736.427	0.0151087
736.505	0.0151931
736.583	0.0152675
736.661	0.0152586
736.739	0.0155267
736.817	0.0155622
736.896	0.0155711
736.974	0.0153587
737.052	0.0157579
737.130	0.0157089
737.208	0.0157081
737.286	0.0159290
737.364	0.0160159
737.442	0.0160517
737.521	0.0164802
737.599	0.0163849
737.677	0.0166439
737.755	0.0167059
737.833	0.0169235
737.911	0.0171237
737.989	0.0171794
738.067	0.0173781
738.146	0.0173853
738.224	0.0174653
738.302	0.0175153
738.380	0.0175269
738.458	0.0175856
738.536	0.0175874
738.614	0.0174775
738.692	0.0173298
738.771	0.0173369
738.849	0.0171037
738.927	0.0169135
739.005	0.0168494
739.083	0.0166172
739.161	0.0163049
739.239	0.0160417
739.317	0.0158325
739.396	0.0159292
739.474	0.0158762
739.552	0.0156481
739.630	0.0154367
739.708	0.0151453
739.786	0.0149522
739.864	0.0146976
739.942	0.0145190
740.021	0.0143169
740.099	0.0142093
740.177	0.0141357
740.255	0.0139796
740.333	0.0138668
740.411	0.0138798
740.489	0.0139534
740.567	0.0140445
740.646	0.0141376
740.724	0.0140598
740.802	0.0143386
740.880	0.0144023
740.958	0.0145737
741.036	0.0147255
741.114	0.0148556
741.192	0.0151800
741.271	0.0151699
741.349	0.0153316
741.427	0.0155047
741.505	0.0156013
741.583	0.0158804
741.661	0.0161240
741.739	0.0164822
741.817	0.0165421
741.896	0.0168617
741.974	0.0169446
742.052	0.0172839
742.130	0.0174386
742.208	0.0175124
742.286	0.0177637
742.364	0.0177674
742.442	0.0177612
742.521	0.0178600
742.599	0.0178237
742.677	0.0178596
742.755	0.0176433
742.833	0.0178159
742.911	0.0176149
742.989	0.0174907
743.067	0.0173387
743.146	0.0170005
743.224	0.0167957
743.302	0.0165349
743.380	0.0162020
743.458	0.0160873
743.536	0.0156274
743.614	0.0153262
743.692	0.0152728
743.771	0.0150613
743.849	0.0147644
743.927	0.0146899
744.005	0.0146733
744.083	0.0144193
744.161	0.0143208
744.239	0.0144193
744.317	0.0142516
744.396	0.0141878
744.474	0.0140665
744.552	0.0139888
744.630	0.0140939
744.708	0.0140772
744.786	0.0139716
744.864	0.0140309
744.942	0.0140980
745.021	0.0142353
745.099	0.0144974
745.177	0.0146562
745.255	0.0149210
745.333	0.0150185
745.411	0.0153999
745.489	0.0157471
745.567	0.0159425
745.646	0.0161575
745.724	0.0163322
745.802	0.0165503
745.880	0.0167780
745.958	0.0169854
746.036	0.0170033
746.114	0.0172070
746.192	0.0171309
746.271	0.0172355
746.349	0.0172828
746.427	0.0173047
746.505	0.0175543
746.583	0.0174572
746.661	0.0174809
746.739	0.0175748
746.817	0.0174655
746.896	0.0174178
746.974	0.0172890
747.052	0.0172848
747.130	0.0172413
747.208	0.0169494
747.286	0.0165880
747.364	0.0165298
747.442	0.0161994
747.521	0.0158436
747.599	0.0156621
747.677	0.0152582
747.755	0.0148538
747.833	0.0146644
747.911	0.0143130
747.989	0.0141280
748.067	0.0139928
748.146	0.0138599
748.224	0.0136694
748.302	0.0135142
748.380	0.0134849
748.458	0.0136024
748.536	0.0136942
748.614	0.0139210
748.692	0.0141606
748.771	0.0143660
748.849	0.0146122
748.927	0.0149834
749.005	0.0153506
749.083	0.0156349
749.161	0.0158645
749.239	0.0160234
749.317	0.0165172
749.396	0.0165411
749.474	0.0168802
749.552	0.0170332
749.630	0.0171435
749.708	0.0171328
749.786	0.0172865
749.864	0.0172870
749.942	0.0173717
750.021	0.0173476
750.099	0.0173711
750.177	0.0174297
750.255	0.0174117
750.333	0.0174096
750.411	0.0174057
750.489	0.0173166
750.567	0.0174317
750.646	0.0173824
750.724	0.0174841
750.802	0.0174654
750.880	0.0174839
750.958	0.0175619
751.036	0.0174217
751.114	0.0171272
751.192	0.0172105
751.271	0.0168395
751.349	0.0165491
751.427	0.0163030
751.505	0.0157575
751.583	0.0156295
751.661	0.0150917
751.739	0.0147490
751.817	0.0144016
751.896	0.0139880
751.974	0.0136445
752.052	0.0133517
752.130	0.0132066
752.208	0.0128465
752.286	0.0129795
752.364	0.0130805
752.442	0.0132965
752.521	0.0132423
752.599	0.0134391
752.677	0.0137592
752.755	0.0139194
752.833	0.0140869
752.911	0.0144592
752.989	0.0145873
753.067	0.0148519
753.146	0.0150694
753.224	0.0152293
753.302	0.0154175
753.380	0.0156214
753.458	0.0158372
753.536	0.0159123
753.614	0.0161470
753.692	0.0164429
753.771	0.0164388
753.849	0.0166997
753.927	0.0168638
754.005	0.0170016
754.083	0.0171246
754.161	0.0171801
754.239	0.0172952
754.317	0.0173774
754.396	0.0174772
754.474	0.0175208
754.552	0.0177003
754.630	0.0176454
754.708	0.0176448
754.786	0.0178324
754.864	0.0176584
754.942	0.0178090
755.021	0.0176305
755.099	0.0175687
755.177	0.0175008
755.255	0.0173986
755.333	0.0171961
755.411	0.0170145
755.489	0.0168249
755.567	0.0166078
755.646	0.0162259
755.724	0.0160786
755.802	0.0157969
755.880	0.0155666
755.958	0.0154352
756.036	0.0151162
756.114	0.0149595
756.192	0.0146703
756.271	0.0143262
756.349	0.0143382
756.427	0.0143030
756.505	0.0142155
756.583	0.0142004
756.661	0.0140078
756.739	0.0141504
756.817	0.0143138
756.896	0.0144431
756.974	0.0146748
757.052	0.0148625
757.130	0.0149969
757.208	0.0150751
757.286	0.0151804
757.364	0.0154452
757.442	0.0154934
757.521	0.0156985
757.599	0.0160373
757.677	0.0159584
757.755	0.0160912
757.833	0.0162946
757.911	0.0160197
757.989	0.0161842
758.067	0.0162046
758.146	0.0161685
758.224	0.0162266
758.302	0.0161539
758.380	0.0161366
758.458	0.0160426
758.536	0.0160786
758.614	0.0161545
758.692	0.0161932
758.771	0.0162838
758.849	0.0162554
758.927	0.0163469
759.005	0.0165681
759.083	0.0164376
759.161	0.0165554
759.239	0.0166319
759.317	0.0165224
759.396	0.0164904
759.474	0.0165696
759.552	0.0165797
759.630	0.0165827
759.708	0.0165000
759.786	0.0163460
759.864	0.0163528
759.942	0.0161430
760.021	0.0158615
760.099	0.0156664
760.177	0.0155976
760.255	0.0155657
760.333	0.0153750
760.411	0.0150777
760.489	0.0149622
760.567	0.0148486
760.646	0.0148498
760.724	0.0148185
760.802	0.0148167
760.880	0.0149789
760.958	0.0149677
761.036	0.0151405
761.114	0.0150909
761.192	0.0152003
761.271	0.0153004
761.349	0.0154325
761.427	0.0155630
761.505	0.0154892
761.583	0.0157635
761.661	0.0158621
761.739	0.0157117
761.817	0.0156632
761.896	0.0157578
761.974	0.0158814
762.052	0.0158446
762.130	0.0157546
762.208	0.0158466
762.286	0.0159686
762.364	0.0158474
762.442	0.0160591
762.521	0.0162704
762.599	0.0160763
762.677	0.0162418
762.755	0.0163480
762.833	0.0165478
762.911	0.0167266
762.989	0.0167800
763.067	0.0170593
763.146	0.0171794
763.224	0.0169595
763.302	0.0171613
763.380	0.0170631
763.458	0.0170495
763.536	0.0169184
763.614	0.0169549
763.692	0.0167354
763.771	0.0164902
763.849	0.0163488
763.927	0.0162412
764.005	0.0159596
764.083	0.0157883
764.161	0.0154947
764.239	0.0154015
764.317	0.0154179
764.396	0.0151523
764.474	0.0149615
764.552	0.0148318
764.630	0.0149230
764.708	0.0146484
764.786	0.0147340
764.864	0.0146615
764.942	0.0146164
765.021	0.0147927
765.099	0.0148428
765.177	0.0149236
765.255	0.0148844
765.333	0.0151094
765.411	0.0152003
765.489	0.0151165
765.567	0.0150923
765.646	0.0152718
765.724	0.0153015
765.802	0.0153778
765.880	0.0154694
765.958	0.0156082
766.036	0.0155458
766.114	0.0156723
766.192	0.0159335
766.271	0.0158673
766.349	0.0159723
766.427	0.0162423
766.505	0.0162111
766.583	0.0163857
766.661	0.0163596
766.739	0.0164555
766.817	0.0165541
766.896	0.0165756
766.974	0.0166840
767.052	0.0166518
767.130	0.0167266
767.208	0.0167764
767.286	0.0165554
767.364	0.0166781
767.442	0.0164097
767.521	0.0166106
767.599	0.0163851
767.677	0.0163120
767.755	0.0163082
767.833	0.0161851
767.911	0.0162228
767.989	0.0160127
768.067	0.0159650
768.146	0.0159361
768.224	0.0159558
768.302	0.0158686
768.380	0.0157695
768.458	0.0158594
768.536	0.0157603
768.614	0.0156287
768.692	0.0156935
768.771	0.0156718
768.849	0.0156027
768.927	0.0156113
769.005	0.0155387
769.083	0.0154381
769.161	0.0154668
769.239	0.0153941
769.317	0.0156081
769.396	0.0153697
769.474	0.0154176
769.552	0.0152893
769.630	0.0152496
769.708	0.0154147
769.786	0.0154226
769.864	0.0154388
769.942	0.0154256
770.021	0.0153604
770.099	0.0153969
770.177	0.0155682
770.255	0.0155408
770.333	0.0156205
770.411	0.0158343
770.489	0.0158221
770.567	0.0159013
770.646	0.0159258
770.724	0.0159441
770.802	0.0158752
770.880	0.0161926
770.958	0.0161183
771.036	0.0159640
771.114	0.0160664
771.192	0.0159825
771.271	0.0160497
771.349	0.0161642
771.427	0.0160387
771.505	0.0159808
771.583	0.0160005
771.661	0.0160626
771.739	0.0159521
771.817	0.0160032
771.896	0.0160419
771.974	0.0160438
772.052	0.0162452
772.130	0.0161401
772.208	0.0161623
772.286	0.0161756
772.364	0.0163851
772.442	0.0164722
772.521	0.0163737
772.599	0.0164142
772.677	0.0162945
772.755	0.0163879
772.833	0.0163809
772.911	0.0162051
772.989	0.0160846
773.067	0.0160910
773.146	0.0160780
773.224	0.0160222
773.302	0.0157954
773.380	0.0157955
773.458	0.0155148
773.536	0.0155253
773.614	0.0156277
773.692	0.0155877
773.771	0.0153545
773.849	0.0154490
773.927	0.0152632
774.005	0.0152248
774.083	0.0152873
774.161	0.0153751
774.239	0.0153175
774.317	0.0153969
774.396	0.0155154
774.474	0.0154752
774.552	0.0155888
774.630	0.0156659
774.708	0.0158733
774.786	0.0158649
774.864	0.0157578
774.942	0.0158295
775.021	0.0159841
775.099	0.0160176
775.177	0.0158110
775.255	0.0160608
775.333	0.0161687
775.411	0.0160735
775.489	0.0159370
775.567	0.0160043
775.646	0.0160179
775.724	0.0158120
775.802	0.0158775
775.880	0.0158376
775.958	0.0158201
776.036	0.0158210
776.114	0.0157893
776.192	0.0158298
776.271	0.0156857
776.349	0.0155900
776.427	0.0157908
776.505	0.0158007
776.583	0.0158398
776.661	0.0157079
776.739	0.0156252
776.817	0.0156007
776.896	0.0156312
776.974	0.0157154
777.052	0.0157986
777.130	0.0156693
777.208	0.0155276
777.286	0.0155532
777.364	0.0156316
777.442	0.0157010
777.521	0.0155087
777.599	0.0156021
777.677	0.0155917
777.755	0.0156852
777.833	0.0157966
777.911	0.0157722
777.989	0.0156580
778.067	0.0156916
778.146	0.0158376
778.224	0.0157115
778.302	0.0157579
778.380	0.0158974
778.458	0.0159479
778.536	0.0161933
778.614	0.0160604
778.692	0.0162720
778.771	0.0162772
778.849	0.0162390
778.927	0.0163798
779.005	0.0166053
779.083	0.0164778
779.161	0.0164794
779.239	0.0165253
779.317	0.0163631
779.396	0.0164108
779.474	0.0163394
779.552	0.0161926
779.630	0.0159532
779.708	0.0158511
779.786	0.0159322
779.864	0.0157734
779.942	0.0157901
780.021	0.0156694
780.099	0.0154326
780.177	0.0154430
780.255	0.0153793
780.333	0.0154186
780.411	0.0152172
780.489	0.0152833
780.567	0.0152625
780.646	0.0153470
780.724	0.0155041
780.802	0.0154633
780.880	0.0154742
780.958	0.0153771
781.036	0.0156257
781.114	0.0155647
781.192	0.0157500
781.271	0.0157652
781.349	0.0157996
781.427	0.0157873
781.505	0.0158281
781.583	0.0156957
781.661	0.0159276
781.739	0.0158704
781.817	0.0158875
781.896	0.0159021
781.974	0.0159193
782.052	0.0157395
782.130	0.0158372
782.208	0.0158746
782.286	0.0158466
782.364	0.0159654
782.442	0.0160204
782.521	0.0160524
782.599	0.0158334
782.677	0.0160312
782.755	0.0160565
782.833	0.0161192
782.911	0.0162134
782.989	0.0161108
783.067	0.0163581
783.146	0.0161670
783.224	0.0160838
783.302	0.0161273
783.380	0.0161091
783.458	0.0159892
783.536	0.0159250
783.614	0.0157594
783.692	0.0156458
783.771	0.0155173
783.849	0.0154244
783.927	0.0153140
784.005	0.0153284
784.083	0.0153941
784.161	0.0152653
784.239	0.0151821
784.317	0.0151710
784.396	0.0151605
784.474	0.0152548
784.552	0.0152888
784.630	0.0153632
784.708	0.0155173
784.786	0.0156420
784.864	0.0155749
784.942	0.0157038
785.021	0.0156735
785.099	0.0158997
785.177	0.0159045
785.255	0.0159674
785.333	0.0158876
785.411	0.0160295
785.489	0.0159998
785.567	0.0159977
785.646	0.0158587
785.724	0.0158578
785.802	0.0159058
785.880	0.0160430
785.958	0.0160395
786.036	0.0159586
786.114	0.0159967
786.192	0.0159319
786.271	0.0161931
786.349	0.0160874
786.427	0.0161736
786.505	0.0162043
786.583	0.0162337
786.661	0.0163947
786.739	0.0164626
786.817	0.0164464
786.896	0.0164247
786.974	0.0163615
787.052	0.0163203
787.130	0.0162788
787.208	0.0162519
787.286	0.0160104
787.364	0.0159502
787.442	0.0160457
787.521	0.0158857
787.599	0.0158616
787.677	0.0156909
787.755	0.0156708
787.833	0.0156680
787.911	0.0155229
787.989	0.0155290
788.067	0.0156017
788.146	0.0153721
788.224	0.0152979
788.302	0.0154434
788.380	0.0154181
788.458	0.0153362
788.536	0.0153977
788.614	0.0155087
788.692	0.0153091
788.771	0.0153963
788.849	0.0154258
788.927	0.0153918
789.005	0.0154888
789.083	0.0154498
789.161	0.0152633
789.239	0.0154073
789.317	0.0154425
789.396	0.0154987
789.474	0.0154079
789.552	0.0155936
789.630	0.0156738
789.708	0.0156178
789.786	0.0157598
789.864	0.0157540
789.942	0.0158378
790.021	0.0158222
790.099	0.0158483
790.177	0.0159107
790.255	0.0161591
790.333	0.0161614
790.411	0.0162879
790.489	0.0164359
790.567	0.0163995
790.646	0.0165479
790.724	0.0165521
790.802	0.0167661
790.880	0.0168051
790.958	0.0167979
791.036	0.0167731
791.114	0.0167657
791.192	0.0167160
791.271	0.0165782
791.349	0.0165005
791.427	0.0165239
791.505	0.0163516
791.583	0.0161796
791.661	0.0159653
791.739	0.0157860
791.817	0.0157040
791.896	0.0155459
791.974	0.0153378
792.052	0.0153230
792.130	0.0151977
792.208	0.0151389
792.286	0.0149648
792.364	0.0149688
792.442	0.0150471
792.521	0.0150213
792.599	0.0150743
792.677	0.0150749
792.755	0.0151373
792.833	0.0152134
792.911	0.0153106
792.989	0.0153093
793.067	0.0153029
793.146	0.0155145
793.224	0.0155157
793.302	0.0156438
793.380	0.0158768
793.458	0.0158595
793.536	0.0157684
793.614	0.0158327
793.692	0.0158444
793.771	0.0159769
793.849	0.0161667
793.927	0.0161085
794.005	0.0160585
794.083	0.0163116
794.161	0.0162138
794.239	0.0161884
794.317	0.0163451
794.396	0.0164673
794.474	0.0163245
794.552	0.0163837
794.630	0.0163991
794.708	0.0165587
794.786	0.0165347
794.864	0.0165434
794.942	0.0166916
795.021	0.0165305
795.099	0.0165678
795.177	0.0165851
795.255	0.0164714
795.333	0.0164046
795.411	0.0164678
795.489	0.0163504
795.567	0.0160967
795.646	0.0161543
795.724	0.0159371
795.802	0.0158333
795.880	0.0157076
795.958	0.0156258
796.036	0.0154906
796.114	0.0154061
796.192	0.0155173
796.271	0.0154200
796.349	0.0152016
796.427	0.0152944
796.505	0.0153419
796.583	0.0152063
796.661	0.0152186
796.739	0.0151900
796.817	0.0153352
796.896	0.0150920
796.974	0.0151578
797.052	0.0151902
797.130	0.0153706
797.208	0.0153027
797.286	0.0154097
797.364	0.0152921
797.442	0.0153392
797.521	0.0152774
797.599	0.0154028
797.677	0.0154070
797.755	0.0155283
797.833	0.0153494
797.911	0.0155063
797.989	0.0156011
798.067	0.0155900
798.146	0.0157555
798.224	0.0158330
798.302	0.0160307
798.380	0.0162201
798.458	0.0162742
798.536	0.0163747
798.614	0.0163736
798.692	0.0165682
798.771	0.0167740
798.849	0.0167059
798.927	0.0168808
799.005	0.0170821
799.083	0.0169147
799.161	0.0170070
799.239	0.0169354
799.317	0.0169112
799.396	0.0169697
799.474	0.0167400
799.552	0.0166541
799.630	0.0165150
799.708	0.0164302
799.786	0.0162656
799.864	0.0161546
799.942	0.0159042
800.021	0.0158019
800.099	0.0154771
800.177	0.0154433
800.255	0.0153685
800.333	0.0151361
800.411	0.0149632
800.489	0.0149892
800.567	0.0150709
800.646	0.0148347
800.724	0.0148302
800.802	0.0148925
800.880	0.0149544
800.958	0.0149316
801.036	0.0149602
801.114	0.0148822
801.192	0.0150611
801.271	0.0149614
801.349	0.0149702
801.427	0.0151786
801.505	0.0150835
801.583	0.0152891
801.661	0.0152678
801.739	0.0153009
801.817	0.0153236
801.896	0.0154418
801.974	0.0156161
802.052	0.0154863
802.130	0.0157969
802.208	0.0159087
802.286	0.0159757
802.364	0.0160251
802.442	0.0161620
802.521	0.0162135
802.599	0.0163029
802.677	0.0163869
802.755	0.0164903
802.833	0.0167641
802.911	0.0167869
802.989	0.0169080
803.067	0.0168916
803.146	0.0169522
803.224	0.0169713
803.302	0.0168182
803.380	0.0168907
803.458	0.0169436
803.536	0.0168481
803.614	0.0167971
803.692	0.0165895
803.771	0.0164738
803.849	0.0163910
803.927	0.0163225
804.005	0.0163169
804.083	0.0160889
804.161	0.0158509
804.239	0.0157147
804.317	0.0157931
804.396	0.0156638
804.474	0.0154025
804.552	0.0152488
804.630	0.0151145
804.708	0.0151001
804.786	0.0151292
804.864	0.0150170
804.942	0.0146459
805.021	0.0144297
805.099	0.0146450
805.177	0.0145850
805.255	0.0143999
805.333	0.0143742
805.411	0.0144607
805.489	0.0146183
805.567	0.0147659
805.646	0.0148567
805.724	0.0149572
805.802	0.0149094
805.880	0.0151023
805.958	0.0152719
806.036	0.0153978
806.114	0.0155446
806.192	0.0157011
806.271	0.0158498
806.349	0.0159908
806.427	0.0164180
806.505	0.0163318
806.583	0.0164320
806.661	0.0164474
806.739	0.0169230
806.817	0.0168250
806.896	0.0168300
806.974	0.0169087
807.052	0.0170042
807.130	0.0170312
807.208	0.0171636
807.286	0.0170681
807.364	0.0170185
807.442	0.0170789
807.521	0.0170480
807.599	0.0168537
807.677	0.0169363
807.755	0.0169165
807.833	0.0169115
807.911	0.0168262
807.989	0.0167965
808.067	0.0167606
808.146	0.0166363
808.224	0.0164595
808.302	0.0165317
808.380	0.0161797
808.458	0.0160212
808.536	0.0158633
808.614	0.0155199
808.692	0.0153139
808.771	0.0152113
808.849	0.0150742
808.927	0.0147317
809.005	0.0144944
809.083	0.0144196
809.161	0.0142070
809.239	0.0139359
809.317	0.0139021
809.396	0.0139667
809.474	0.0138585
809.552	0.0138403
809.630	0.0139383
809.708	0.0139539
809.786	0.0140981
809.864	0.0142007
809.942	0.0143569
810.021	0.0144625
810.099	0.0146759
810.177	0.0149583
810.255	0.0151225
810.333	0.0154142
810.411	0.0154695
810.489	0.0157212
810.567	0.0159927
810.646	0.0161264
810.724	0.0164483
810.802	0.0164742
810.880	0.0167712
810.958	0.0169584
811.036	0.0171789
811.114	0.0172889
811.192	0.0173535
811.271	0.0176086
811.349	0.0176036
811.427	0.0177506
811.505	0.0177666
811.583	0.0179088
811.661	0.0180093
811.739	0.0179786
811.817	0.0179534
811.896	0.0179091
811.974	0.0176984
812.052	0.0175246
812.130	0.0175282
812.208	0.0174401
812.286	0.0171919
812.364	0.0169953
812.442	0.0167386
812.521	0.0165976
812.599	0.0160989
812.677	0.0159572
812.755	0.0155299
812.833	0.0154771
812.911	0.0150119
812.989	0.0148188
813.067	0.0146603
813.146	0.0143893
813.224	0.0142178
813.302	0.0140073
813.380	0.0138903
813.458	0.0137193
813.536	0.0136198
813.614	0.0136413
813.692	0.0136848
813.771	0.0136187
813.849	0.0135256
813.927	0.0136030
814.005	0.0137737
814.083	0.0140003
814.161	0.0141939
814.239	0.0145317
814.317	0.0147274
814.396	0.0148618
814.474	0.0150658
814.552	0.0153683
814.630	0.0154871
814.708	0.0157710
814.786	0.0160653
814.864	0.0162761
814.942	0.0163902
815.021	0.0166259
815.099	0.0167983
815.177	0.0170036
815.255	0.0171227
815.333	0.0173329
815.411	0.0173268
815.489	0.0173708
815.567	0.0175150
815.646	0.0175584
815.724	0.0175061
815.802	0.0175186
815.880	0.0175438
815.958	0.0172965
816.036	0.0173021
816.114	0.0172320
816.192	0.0171192
816.271	0.0171259
816.349	0.0170210
816.427	0.0167112
816.505	0.0167414
816.583	0.0166122
816.661	0.0164552
816.739	0.0162674
816.817	0.0159570
816.896	0.0158118
816.974	0.0158407
817.052	0.0156107
817.130	0.0154081
817.208	0.0152554
817.286	0.0150756
817.364	0.0149892
817.442	0.0149259
817.521	0.0147512
817.599	0.0145731
817.677	0.0145949
817.755	0.0145628
817.833	0.0144751
817.911	0.0145689
817.989	0.0146789
818.067	0.0147047
818.146	0.0146080
818.224	0.0147993
818.302	0.0147173
818.380	0.0148864
818.458	0.0149444
818.536	0.0151414
818.614	0.0151546
818.692	0.0154046
818.771	0.0155143
818.849	0.0155978
818.927	0.0157404
819.005	0.0160081
819.083	0.0159591
819.161	0.0161211
819.239	0.0160419
819.317	0.0162178
819.396	0.0163924
819.474	0.0164683
819.552	0.0165533
819.630	0.0165166
819.708	0.0166169
819.786	0.0167638
819.864	0.0168272
819.942	0.0167052
820.021	0.0168253
820.099	0.0168391
820.177	0.0170636
820.255	0.0168591
820.333	0.0167711
820.411	0.0166887
820.489	0.0166959
820.567	0.0165339
820.646	0.0164681
820.724	0.0163559
820.802	0.0163068
820.880	0.0160728
820.958	0.0158293
821.036	0.0157149
821.114	0.0154933
821.192	0.0154132
821.271	0.0152863
821.349	0.0152898
821.427	0.0152539
821.505	0.0152113
821.583	0.0151431
821.661	0.0151189
821.739	0.0150443
821.817	0.0150008
821.896	0.0149370
821.974	0.0150083
822.052	0.0150429
822.130	0.0150723
822.208	0.0150961
822.286	0.0150954
822.364	0.0150592
822.442	0.0151615
822.521	0.0153297
822.599	0.0153710
822.677	0.0154293
822.755	0.0155154
822.833	0.0156924
822.911	0.0156607
822.989	0.0157650
823.067	0.0159062
823.146	0.0159259
823.224	0.0160951
823.302	0.0161587
823.380	0.0161960
823.458	0.0163524
823.536	0.0164212
823.614	0.0163820
823.692	0.0166379
823.771	0.0165215
823.849	0.0166826
823.927	0.0167924
824.005	0.0167281
824.083	0.0168517
824.161	0.0167348
824.239	0.0168105
824.317	0.0168389
824.396	0.0166802
824.474	0.0165208
824.552	0.0165803
824.630	0.0166305
824.708	0.0162585
824.786	0.0161174
824.864	0.0160211
824.942	0.0158498
825.021	0.0156368
825.099	0.0154706
825.177	0.0153392
825.255	0.0152659
825.333	0.0151258
825.411	0.0151703
825.489	0.0151241
825.567	0.0150431
825.646	0.0150611
825.724	0.0150243
825.802	0.0150043
825.880	0.0150571
825.958	0.0151796
826.036	0.0150284
826.114	0.0151666
826.192	0.0152261
826.271	0.0151308
826.349	0.0151572
826.427	0.0153477
826.505	0.0154588
826.583	0.0152617
826.661	0.0154027
826.739	0.0155749
826.817	0.0154218
826.896	0.0155862
826.974	0.0156181
827.052	0.0155790
827.130	0.0157484
827.208	0.0160206
827.286	0.0158674
827.364	0.0160052
827.442	0.0158775
827.521	0.0160316
827.599	0.0160262
827.677	0.0161031
827.755	0.0164149
827.833	0.0162401
827.911	0.0163299
827.989	0.0164930
828.067	0.0165197
828.146	0.0166142
828.224	0.0167171
828.302	0.0166759
828.380	0.0166650
828.458	0.0165238
828.536	0.0166091
828.614	0.0166077
828.692	0.0165834
828.771	0.0164447
828.849	0.0163531
828.927	0.0164325
829.005	0.0162806
829.083	0.0162927
829.161	0.0162157
829.239	0.0160751
829.317	0.0160718
829.396	0.0159047
829.474	0.0158450
829.552	0.0157467
829.630	0.0156741
829.708	0.0155193
829.786	0.0154877
829.864	0.0154686
829.942	0.0154766
830.021	0.0153390
830.099	0.0152773
830.177	0.0152267
830.255	0.0152798
830.333	0.0151823
830.411	0.0152984
830.489	0.0153259
830.567	0.0152453
830.646	0.0153099
830.724	0.0153312
830.802	0.0152744
830.880	0.0154365
830.958	0.0155467
831.036	0.0154774
831.114	0.0155942
831.192	0.0155660
831.271	0.0156161
831.349	0.0157794
831.427	0.0157161
831.505	0.0156382
831.583	0.0159377
831.661	0.0158543
831.739	0.0158475
831.817	0.0158836
831.896	0.0158795
831.974	0.0159790
832.052	0.0161572
832.130	0.0160914
832.208	0.0161603
832.286	0.0162948
832.364	0.0162427
832.442	0.0161893
832.521	0.0163478
832.599	0.0162807
832.677	0.0162856
832.755	0.0164227
832.833	0.0163544
832.911	0.0162222
832.989	0.0163491
833.067	0.0161935
833.146	0.0162228
833.224	0.0161823
833.302	0.0162016
833.380	0.0160897
833.458	0.0160378
833.536	0.0159850
833.614	0.0159310
833.692	0.0160117
833.771	0.0159355
833.849	0.0159550
833.927	0.0158601
834.005	0.0158144
834.083	0.0159219
834.161	0.0159110
834.239	0.0158449
834.317	0.0157677
834.396	0.0156768
834.474	0.0157938
834.552	0.0157963
834.630	0.0157170
834.708	0.0155973
834.786	0.0155215
834.864	0.0154826
834.942	0.0155133
835.021	0.0153828
835.099	0.0153332
835.177	0.0154325
835.255	0.0153140
835.333	0.0153860
835.411	0.0151913
835.489	0.0152701
835.567	0.0154115
835.646	0.0154241
835.724	0.0154044
835.802	0.0155206
835.880	0.0156451
835.958	0.0156572
836.036	0.0157813
836.114	0.0158334
836.192	0.0157642
836.271	0.0160653
836.349	0.0162130
836.427	0.0163351
836.505	0.0163199
836.583	0.0166039
836.661	0.0165823
836.739	0.0167252
836.817	0.0165672
836.896	0.0163578
836.974	0.0164760
837.052	0.0165410
837.130	0.0163960
837.208	0.0165668
837.286	0.0164799
837.364	0.0163393
837.442	0.0162283
837.521	0.0162516
837.599	0.0161197
837.677	0.0160165
837.755	0.0158805
837.833	0.0158738
837.911	0.0159828
837.989	0.0159284
838.067	0.0158369
838.146	0.0156571
838.224	0.0157668
838.302	0.0158116
838.380	0.0157192
838.458	0.0158756
838.536	0.0157471
838.614	0.0157751
838.692	0.0158346
838.771	0.0158444
838.849	0.0156578
838.927	0.0156894
839.005	0.0156265
839.083	0.0156069
839.161	0.0155096
839.239	0.0154151
839.317	0.0154375
839.396	0.0154294
839.474	0.0153207
839.552	0.0152547
839.630	0.0152727
839.708	0.0152669
839.786	0.0152163
839.864	0.0152908
839.942	0.0152997
840.021	0.0153963
840.099	0.0155576
840.177	0.0154396
840.255	0.0154662
840.333	0.0157672
840.411	0.0158443
840.489	0.0157938
840.567	0.0161032
840.646	0.0160307
840.724	0.0161482
840.802	0.0160894
840.880	0.0162356
840.958	0.0161827
841.036	0.0163729
841.114	0.0165125
841.192	0.0163253
841.271	0.0164392
841.349	0.0164729
841.427	0.0164246
841.505	0.0163563
841.583	0.0163522
841.661	0.0162397
841.739	0.0162641
841.817	0.0162170
841.896	0.0161182
841.974	0.0162462
842.052	0.0161655
842.130	0.0160973
842.208	0.0160201
842.286	0.0160819
842.364	0.0158156
842.442	0.0155990
842.521	0.0157420
842.599	0.0158015
842.677	0.0158760
842.755	0.0156578
842.833	0.0158114
842.911	0.0156068
842.989	0.0156316
843.067	0.0155205
843.146	0.0156750
843.224	0.0156104
843.302	0.0155570
843.380	0.0156107
843.458	0.0155655
843.536	0.0155997
843.614	0.0155614
843.692	0.0155632
843.771	0.0154649
843.849	0.0153752
843.927	0.0156269
844.005	0.0155966
844.083	0.0156882
844.161	0.0156587
844.239	0.0157190
844.317	0.0156103
844.396	0.0156527
844.474	0.0156509
844.552	0.0156819
844.630	0.0158543
844.708	0.0157980
844.786	0.0159740
844.864	0.0159668
844.942	0.0159437
845.021	0.0158998
845.099	0.0159139
845.177	0.0160779
845.255	0.0160614
845.333	0.0160096
845.411	0.0160112
845.489	0.0160981
845.567	0.0161050
845.646	0.0159427
845.724	0.0159427
845.802	0.0160240
845.880	0.0159907
845.958	0.0159767
846.036	0.0159908
846.114	0.0159364
846.192	0.0159047
846.271	0.0158305
846.349	0.0158470
846.427	0.0158322
846.505	0.0158698
846.583	0.0159413
846.661	0.0158100
846.739	0.0158022
846.817	0.0158762
846.896	0.0158210
846.974	0.0158047
847.052	0.0157793
847.130	0.0158636
847.208	0.0158967
847.286	0.0159138
847.364	0.0158806
847.442	0.0158963
847.521	0.0158554
847.599	0.0157977
847.677	0.0158359
847.755	0.0158080
847.833	0.0157796
847.911	0.0157495
847.989	0.0158003
848.067	0.0157098
848.146	0.0157378
848.224	0.0157343
848.302	0.0156853
848.380	0.0158180
848.458	0.0157873
848.536	0.0157330
848.614	0.0157875
848.692	0.0157172
848.771	0.0157068
848.849	0.0157442
848.927	0.0157814
849.005	0.0158150
849.083	0.0156965
849.161	0.0157227
849.239	0.0156866
849.317	0.0158176
849.396	0.0158405
849.474	0.0158139
849.552	0.0158505
849.630	0.0158056
849.708	0.0158372
849.786	0.0157761
849.864	0.0156557
849.942	0.0159740
850.021	0.0158277
850.099	0.0158393
850.177	0.0158176
850.255	0.0157957
850.333	0.0158489
850.411	0.0158632
850.489	0.0158782
850.567	0.0157114
850.646	0.0157894
850.724	0.0158797
850.802	0.0159609
850.880	0.0158989
850.958	0.0158955
851.036	0.0160014
851.114	0.0159743
851.192	0.0159663
851.271	0.0160497
851.349	0.0160169
851.427	0.0160578
851.505	0.0161652
851.583	0.0160889
851.661	0.0160445
851.739	0.0159966
851.817	0.0160756
851.896	0.0160419
851.974	0.0159071
852.052	0.0159290
852.130	0.0158411
852.208	0.0157781
852.286	0.0157886
852.364	0.0157442
852.442	0.0156787
852.521	0.0155865
852.599	0.0156364
852.677	0.0156480
852.755	0.0155795
852.833	0.0155933
852.911	0.0156279
852.989	0.0156728
853.067	0.0155683
853.146	0.0156366
853.224	0.0157014
853.302	0.0157678
853.380	0.0158060
853.458	0.0157832
853.536	0.0157611
853.614	0.0158734
853.692	0.0157954
853.771	0.0160023
853.849	0.0160274
853.927	0.0159396
854.005	0.0159721
854.083	0.0160092
854.161	0.0160865
854.239	0.0160355
854.317	0.0159726
854.396	0.0159859
854.474	0.0160561
854.552	0.0159101
854.630	0.0159609
854.708	0.0160087
854.786	0.0159225
854.864	0.0159446
854.942	0.0159148
855.021	0.0158546
855.099	0.0158635
855.177	0.0159314
855.255	0.0160889
855.333	0.0158359
855.411	0.0157985
855.489	0.0158960
855.567	0.0159137
855.646	0.0157854
855.724	0.0158638
855.802	0.0157863
855.880	0.0157812
855.958	0.0159741
856.036	0.0158978
856.114	0.0157837
856.192	0.0158273
856.271	0.0158439
856.349	0.0156078
856.427	0.0155855
856.505	0.0157120
856.583	0.0155876
856.661	0.0155764
856.739	0.0157245
856.817	0.0156988
856.896	0.0156258
856.974	0.0156797
857.052	0.0156478
857.130	0.0157127
857.208	0.0157150
857.286	0.0157114
857.364	0.0155688
857.442	0.0156574
857.521	0.0157750
857.599	0.0158097
857.677	0.0157407
857.755	0.0158734
857.833	0.0158730
857.911	0.0161070
857.989	0.0158920
858.067	0.0159361
858.146	0.0160094
858.224	0.0159753
858.302	0.0160146
858.380	0.0159089
858.458	0.0160055
858.536	0.0160310
858.614	0.0161604
858.692	0.0161021
858.771	0.0162602
858.849	0.0162579
858.927	0.0160004
859.005	0.0161934
859.083	0.0162694
859.161	0.0160035
859.239	0.0162938
859.317	0.0162013
859.396	0.0160892
859.474	0.0161933
859.552	0.0161607
859.630	0.0161716
859.708	0.0159760
859.786	0.0160580
859.864	0.0159767
859.942	0.0158829
860.021	0.0159415
860.099	0.0158948
860.177	0.0157542
860.255	0.0157351
860.333	0.0157409
860.411	0.0158718
860.489	0.0157199
860.567	0.0156748
860.646	0.0157273
860.724	0.0156950
860.802	0.0156540
860.880	0.0157298
860.958	0.0157717
861.036	0.0156226
861.114	0.0156085
861.192	0.0155496
861.271	0.0155527
861.349	0.0155770
861.427	0.0156161
861.505	0.0155223
861.583	0.0154699
861.661	0.0154982
861.739	0.0155837
861.817	0.0155564
861.896	0.0155584
861.974	0.0156308
862.052	0.0156503
862.130	0.0156649
862.208	0.0156057
862.286	0.0157566
862.364	0.0157652
862.442	0.0157083
862.521	0.0158243
862.599	0.0157532
862.677	0.0158827
862.755	0.0160026
862.833	0.0159651
862.911	0.0161593
862.989	0.0161684
863.067	0.0161887
863.146	0.0160555
863.224	0.0160635
863.302	0.0162383
863.380	0.0162688
863.458	0.0161375
863.536	0.0160508
863.614	0.0161936
863.692	0.0160854
863.771	0.0161983
863.849	0.0161964
863.927	0.0160604
864.005	0.0159942
864.083	0.0161254
864.161	0.0160695
864.239	0.0160511
864.317	0.0158909
864.396	0.0160878
864.474	0.0159911
864.552	0.0158436
864.630	0.0159924
864.708	0.0158576
864.786	0.0156913
864.864	0.0157500
864.942	0.0156863
865.021	0.0159229
865.099	0.0158613
865.177	0.0155997
865.255	0.0156374
865.333	0.0156527
865.411	0.0155460
865.489	0.0156436
865.567	0.0156737
865.646	0.0157137
865.724	0.0156425
865.802	0.0156991
865.880	0.0156931
865.958	0.0157008
866.036	0.0156626
866.114	0.0156297
866.192	0.0157166
866.271	0.0157556
866.349	0.0157068
866.427	0.0155518
866.505	0.0157867
866.583	0.0157739
866.661	0.0156301
866.739	0.0157479
866.817	0.0156726
866.896	0.0155209
866.974	0.0156794
867.052	0.0156616
867.130	0.0157062
867.208	0.0156499
867.286	0.0156332
867.364	0.0156467
867.442	0.0156805
867.521	0.0156109
867.599	0.0156640
867.677	0.0158038
867.755	0.0159604
867.833	0.0158923
867.911	0.0159337
867.989	0.0160281
868.067	0.0160669
868.146	0.0161279
868.224	0.0160963
868.302	0.0160629
868.380	0.0160809
868.458	0.0161469
868.536	0.0160184
868.614	0.0161403
868.692	0.0161707
868.771	0.0161160
868.849	0.0160906
868.927	0.0161101
869.005	0.0160445
869.083	0.0161571
869.161	0.0160784
869.239	0.0160427
869.317	0.0159724
869.396	0.0158668
869.474	0.0158411
869.552	0.0158881
869.630	0.0157584
869.708	0.0157995
869.786	0.0157909
869.864	0.0156578
869.942	0.0156698
