06/03/2022	15:36:26	Ver.	4.1	UNKNOWN
Optical Delay	550.020508	Delta X		0.078125	Sweeps	1	Scan Rate	0/0
Coordinates	Axis 1	NaN	Axis 2	NaN	Axis 3	NaN	Axis 4	NaN	Axis 5	NaN	Axis 6	0.000000
TX Power	0.000000	RX Power	0.000000

550.021	0.0164458
550.099	0.0165937
550.177	0.0164771
550.255	0.0165403
550.333	0.0164573
550.411	0.0164235
550.489	0.0165820
550.567	0.0164693
550.646	0.0164334
550.724	0.0164424
550.802	0.0164630
550.880	0.0165100
550.958	0.0165041
551.036	0.0165501
551.114	0.0164089
551.192	0.0163255
551.271	0.0163866
551.349	0.0165053
551.427	0.0164925
551.505	0.0164406
551.583	0.0164482
551.661	0.0165355
551.739	0.0165304
551.817	0.0164500
551.896	0.0164973
551.974	0.0164935
552.052	0.0165242
552.130	0.0164798
552.208	0.0164085
552.286	0.0163807
552.364	0.0163742
552.442	0.0165079
552.521	0.0165078
552.599	0.0164910
552.677	0.0164657
552.755	0.0163708
552.833	0.0164526
552.911	0.0165962
552.989	0.0164255
553.067	0.0163879
553.146	0.0165563
553.224	0.0165941
553.302	0.0165782
553.380	0.0164813
553.458	0.0164436
553.536	0.0165439
553.614	0.0165498
553.692	0.0165533
553.771	0.0165009
553.849	0.0163776
553.927	0.0163518
554.005	0.0164153
554.083	0.0164828
554.161	0.0164516
554.239	0.0164368
554.317	0.0164259
554.396	0.0164714
554.474	0.0165289
554.552	0.0165047
554.630	0.0165141
554.708	0.0166132
554.786	0.0164162
554.864	0.0164703
554.942	0.0165498
555.021	0.0164737
555.099	0.0164742
555.177	0.0165099
555.255	0.0165105
555.333	0.0165012
555.411	0.0165395
555.489	0.0163332
555.567	0.0165576
555.646	0.0165119
555.724	0.0165847
555.802	0.0163776
555.880	0.0165147
555.958	0.0166766
556.036	0.0164079
556.114	0.0163628
556.192	0.0164319
556.271	0.0163927
556.349	0.0163502
556.427	0.0164961
556.505	0.0163718
556.583	0.0163937
556.661	0.0165089
556.739	0.0164282
556.817	0.0164377
556.896	0.0164279
556.974	0.0164603
557.052	0.0164758
557.130	0.0164490
557.208	0.0164046
557.286	0.0163418
557.364	0.0165264
557.442	0.0165646
557.521	0.0165195
557.599	0.0164494
557.677	0.0164188
557.755	0.0163924
557.833	0.0163625
557.911	0.0166422
557.989	0.0165366
558.067	0.0163818
558.146	0.0165363
558.224	0.0166081
558.302	0.0166196
558.380	0.0164374
558.458	0.0164152
558.536	0.0163662
558.614	0.0164584
558.692	0.0165932
558.771	0.0164001
558.849	0.0163833
558.927	0.0163930
559.005	0.0164690
559.083	0.0164490
559.161	0.0164281
559.239	0.0164259
559.317	0.0166050
559.396	0.0163964
559.474	0.0164711
559.552	0.0165273
559.630	0.0165583
559.708	0.0165840
559.786	0.0163708
559.864	0.0165024
559.942	0.0165134
560.021	0.0163300
560.099	0.0164683
560.177	0.0163882
560.255	0.0164680
560.333	0.0164433
560.411	0.0164533
560.489	0.0165367
560.567	0.0165399
560.646	0.0164311
560.724	0.0164838
560.802	0.0164523
560.880	0.0163239
560.958	0.0163600
561.036	0.0166737
561.114	0.0165390
561.192	0.0163674
561.271	0.0165235
561.349	0.0164436
561.427	0.0163322
561.505	0.0164468
561.583	0.0164078
561.661	0.0165391
561.739	0.0163589
561.817	0.0164118
561.896	0.0165849
561.974	0.0165429
562.052	0.0165453
562.130	0.0166074
562.208	0.0163525
562.286	0.0164467
562.364	0.0164601
562.442	0.0164407
562.521	0.0164973
562.599	0.0165172
562.677	0.0165404
562.755	0.0165521
562.833	0.0164841
562.911	0.0164730
562.989	0.0165929
563.067	0.0165379
563.146	0.0164072
563.224	0.0163830
563.302	0.0165129
563.380	0.0166317
563.458	0.0164886
563.536	0.0164921
563.614	0.0164816
563.692	0.0164730
563.771	0.0165989
563.849	0.0165511
563.927	0.0164839
564.005	0.0164198
564.083	0.0164293
564.161	0.0165645
564.239	0.0164825
564.317	0.0165073
564.396	0.0164333
564.474	0.0165346
564.552	0.0164955
564.630	0.0165520
564.708	0.0164532
564.786	0.0164757
564.864	0.0164660
564.942	0.0165143
565.021	0.0163857
565.099	0.0165331
565.177	0.0165298
565.255	0.0164903
565.333	0.0164632
565.411	0.0164636
565.489	0.0165168
565.567	0.0164700
565.646	0.0164869
565.724	0.0165209
565.802	0.0164989
565.880	0.0164457
565.958	0.0165418
566.036	0.0165725
566.114	0.0164411
566.192	0.0163758
566.271	0.0165101
566.349	0.0165388
566.427	0.0165289
566.505	0.0163605
566.583	0.0164904
566.661	0.0165893
566.739	0.0166805
566.817	0.0163976
566.896	0.0164134
566.974	0.0164562
567.052	0.0166054
567.130	0.0164191
567.208	0.0164943
567.286	0.0164648
567.364	0.0164774
567.442	0.0163969
567.521	0.0165786
567.599	0.0164915
567.677	0.0164047
567.755	0.0163744
567.833	0.0165964
567.911	0.0164435
567.989	0.0164799
568.067	0.0163969
568.146	0.0164052
568.224	0.0163989
568.302	0.0163717
568.380	0.0165121
568.458	0.0165608
568.536	0.0165090
568.614	0.0164054
568.692	0.0163766
568.771	0.0165465
568.849	0.0164997
568.927	0.0165041
569.005	0.0164611
569.083	0.0164957
569.161	0.0166158
569.239	0.0163619
569.317	0.0164933
569.396	0.0163712
569.474	0.0164396
569.552	0.0165150
569.630	0.0165025
569.708	0.0165434
569.786	0.0165434
569.864	0.0164559
569.942	0.0164561
570.021	0.0163494
570.099	0.0165929
570.177	0.0167056
570.255	0.0165558
570.333	0.0163905
570.411	0.0164141
570.489	0.0164216
570.567	0.0165263
570.646	0.0165374
570.724	0.0163704
570.802	0.0165010
570.880	0.0164740
570.958	0.0163930
571.036	0.0164210
571.114	0.0164954
571.192	0.0165751
571.271	0.0164947
571.349	0.0164275
571.427	0.0164642
571.505	0.0164657
571.583	0.0164091
571.661	0.0164410
571.739	0.0165674
571.817	0.0165365
571.896	0.0164595
571.974	0.0164773
572.052	0.0165270
572.130	0.0164560
572.208	0.0164689
572.286	0.0164137
572.364	0.0164590
572.442	0.0164169
572.521	0.0166187
572.599	0.0165360
572.677	0.0165598
572.755	0.0164808
572.833	0.0164918
572.911	0.0164526
572.989	0.0164426
573.067	0.0164763
573.146	0.0164775
573.224	0.0165593
573.302	0.0163697
573.380	0.0163385
573.458	0.0166118
573.536	0.0164342
573.614	0.0163787
573.692	0.0164940
573.771	0.0165282
573.849	0.0163747
573.927	0.0164289
574.005	0.0164583
574.083	0.0166181
574.161	0.0165302
574.239	0.0165105
574.317	0.0165675
574.396	0.0164096
574.474	0.0164391
574.552	0.0164973
574.630	0.0164426
574.708	0.0164857
574.786	0.0164367
574.864	0.0164270
574.942	0.0165104
575.021	0.0164162
575.099	0.0164991
575.177	0.0164430
575.255	0.0163995
575.333	0.0164674
575.411	0.0164209
575.489	0.0164688
575.567	0.0164394
575.646	0.0164648
575.724	0.0164723
575.802	0.0164424
575.880	0.0163946
575.958	0.0163789
576.036	0.0164589
576.114	0.0164718
576.192	0.0163410
576.271	0.0164304
576.349	0.0164766
576.427	0.0165233
576.505	0.0164178
576.583	0.0164256
576.661	0.0165286
576.739	0.0164389
576.817	0.0165936
576.896	0.0165759
576.974	0.0164098
577.052	0.0164568
577.130	0.0164562
577.208	0.0165913
577.286	0.0164710
577.364	0.0165882
577.442	0.0164172
577.521	0.0166161
577.599	0.0164605
577.677	0.0163371
577.755	0.0164491
577.833	0.0163625
577.911	0.0164468
577.989	0.0164365
578.067	0.0165297
578.146	0.0165325
578.224	0.0164089
578.302	0.0164165
578.380	0.0163809
578.458	0.0166096
578.536	0.0166386
578.614	0.0164229
578.692	0.0164153
578.771	0.0163378
578.849	0.0164631
578.927	0.0164447
579.005	0.0164839
579.083	0.0165498
579.161	0.0165686
579.239	0.0163859
579.317	0.0164883
579.396	0.0165022
579.474	0.0163550
579.552	0.0163694
579.630	0.0164870
579.708	0.0165130
579.786	0.0164055
579.864	0.0165239
579.942	0.0164511
580.021	0.0165551
580.099	0.0164650
580.177	0.0164897
580.255	0.0166195
580.333	0.0164418
580.411	0.0164449
580.489	0.0163819
580.567	0.0165656
580.646	0.0165755
580.724	0.0165952
580.802	0.0164783
580.880	0.0164555
580.958	0.0164513
581.036	0.0165279
581.114	0.0164118
581.192	0.0164798
581.271	0.0163818
581.349	0.0163407
581.427	0.0165812
581.505	0.0164306
581.583	0.0165017
581.661	0.0165234
581.739	0.0163997
581.817	0.0166338
581.896	0.0164256
581.974	0.0165801
582.052	0.0164983
582.130	0.0164268
582.208	0.0164312
582.286	0.0164396
582.364	0.0165251
582.442	0.0165952
582.521	0.0164937
582.599	0.0164571
582.677	0.0164095
582.755	0.0165023
582.833	0.0165729
582.911	0.0164715
582.989	0.0163805
583.067	0.0164279
583.146	0.0164407
583.224	0.0164938
583.302	0.0164215
583.380	0.0164812
583.458	0.0164719
583.536	0.0164545
583.614	0.0164314
583.692	0.0165063
583.771	0.0164697
583.849	0.0163860
583.927	0.0165788
584.005	0.0164780
584.083	0.0164671
584.161	0.0163958
584.239	0.0164730
584.317	0.0165218
584.396	0.0163326
584.474	0.0165709
584.552	0.0163548
584.630	0.0164933
584.708	0.0165762
584.786	0.0164818
584.864	0.0163863
584.942	0.0164844
585.021	0.0163680
585.099	0.0164507
585.177	0.0165537
585.255	0.0165063
585.333	0.0165502
585.411	0.0165211
585.489	0.0164793
585.567	0.0164190
585.646	0.0163100
585.724	0.0164090
585.802	0.0164193
585.880	0.0164788
585.958	0.0164889
586.036	0.0164949
586.114	0.0165894
586.192	0.0166115
586.271	0.0164587
586.349	0.0163068
586.427	0.0163653
586.505	0.0165016
586.583	0.0163998
586.661	0.0164224
586.739	0.0164975
586.817	0.0164941
586.896	0.0164762
586.974	0.0163814
587.052	0.0163637
587.130	0.0165128
587.208	0.0165363
587.286	0.0165598
587.364	0.0164034
587.442	0.0163918
587.521	0.0164849
587.599	0.0164564
587.677	0.0163581
587.755	0.0164220
587.833	0.0164185
587.911	0.0165108
587.989	0.0164820
588.067	0.0164087
588.146	0.0164417
588.224	0.0164240
588.302	0.0163998
588.380	0.0163280
588.458	0.0165597
588.536	0.0163548
588.614	0.0164314
588.692	0.0163940
588.771	0.0163552
588.849	0.0164317
588.927	0.0164691
589.005	0.0163546
589.083	0.0164606
589.161	0.0165337
589.239	0.0163227
589.317	0.0164333
589.396	0.0165810
589.474	0.0163998
589.552	0.0164872
589.630	0.0165529
589.708	0.0163179
589.786	0.0164126
589.864	0.0164246
589.942	0.0164747
590.021	0.0163985
590.099	0.0163676
590.177	0.0163801
590.255	0.0164261
590.333	0.0164183
590.411	0.0164140
590.489	0.0164744
590.567	0.0164985
590.646	0.0164038
590.724	0.0163743
590.802	0.0165540
590.880	0.0163020
590.958	0.0164986
591.036	0.0164571
591.114	0.0164112
591.192	0.0162938
591.271	0.0165150
591.349	0.0165286
591.427	0.0164359
591.505	0.0164674
591.583	0.0163914
591.661	0.0164377
591.739	0.0163670
591.817	0.0163942
591.896	0.0164464
591.974	0.0164722
592.052	0.0164188
592.130	0.0163541
592.208	0.0165266
592.286	0.0164485
592.364	0.0163975
592.442	0.0165697
592.521	0.0165275
592.599	0.0165145
592.677	0.0163609
592.755	0.0163508
592.833	0.0164550
592.911	0.0164603
592.989	0.0163343
593.067	0.0163534
593.146	0.0163935
593.224	0.0164421
593.302	0.0165814
593.380	0.0165406
593.458	0.0163984
593.536	0.0165054
593.614	0.0164334
593.692	0.0164402
593.771	0.0165209
593.849	0.0164014
593.927	0.0163927
594.005	0.0165160
594.083	0.0165111
594.161	0.0166082
594.239	0.0163219
594.317	0.0164745
594.396	0.0165398
594.474	0.0164119
594.552	0.0164745
594.630	0.0164214
594.708	0.0164555
594.786	0.0164081
594.864	0.0163724
594.942	0.0164088
595.021	0.0164317
595.099	0.0163586
595.177	0.0165939
595.255	0.0164911
595.333	0.0163897
595.411	0.0163848
595.489	0.0164682
595.567	0.0164642
595.646	0.0164882
595.724	0.0164727
595.802	0.0165101
595.880	0.0164361
595.958	0.0163929
596.036	0.0165472
596.114	0.0163857
596.192	0.0164442
596.271	0.0164356
596.349	0.0165996
596.427	0.0163017
596.505	0.0164468
596.583	0.0162930
596.661	0.0163905
596.739	0.0164634
596.817	0.0163235
596.896	0.0163666
596.974	0.0164743
597.052	0.0164053
597.130	0.0163593
597.208	0.0164572
597.286	0.0164581
597.364	0.0164360
597.442	0.0164647
597.521	0.0164819
597.599	0.0163603
597.677	0.0163390
597.755	0.0163631
597.833	0.0165030
597.911	0.0164651
597.989	0.0165067
598.067	0.0166019
598.146	0.0165440
598.224	0.0162668
598.302	0.0163264
598.380	0.0165013
598.458	0.0165362
598.536	0.0165692
598.614	0.0165004
598.692	0.0164514
598.771	0.0164195
598.849	0.0164764
598.927	0.0164698
599.005	0.0165140
599.083	0.0164690
599.161	0.0163680
599.239	0.0164319
599.317	0.0164951
599.396	0.0166077
599.474	0.0164365
599.552	0.0163944
599.630	0.0163229
599.708	0.0164268
599.786	0.0165590
599.864	0.0164678
599.942	0.0166678
600.021	0.0163786
600.099	0.0164187
600.177	0.0164915
600.255	0.0165170
600.333	0.0165117
600.411	0.0163152
600.489	0.0164664
600.567	0.0165042
600.646	0.0163873
600.724	0.0163965
600.802	0.0163880
600.880	0.0165069
600.958	0.0164834
601.036	0.0163943
601.114	0.0165347
601.192	0.0164361
601.271	0.0164402
601.349	0.0164539
601.427	0.0164381
601.505	0.0164726
601.583	0.0164027
601.661	0.0165378
601.739	0.0163908
601.817	0.0164707
601.896	0.0165883
601.974	0.0164611
602.052	0.0165054
602.130	0.0165301
602.208	0.0163996
602.286	0.0165145
602.364	0.0165775
602.442	0.0165670
602.521	0.0163866
602.599	0.0164863
602.677	0.0164137
602.755	0.0165269
602.833	0.0163736
602.911	0.0163654
602.989	0.0163786
603.067	0.0165789
603.146	0.0165182
603.224	0.0165618
603.302	0.0165031
603.380	0.0164568
603.458	0.0165842
603.536	0.0165099
603.614	0.0164487
603.692	0.0162815
603.771	0.0164420
603.849	0.0164641
603.927	0.0164523
604.005	0.0164797
604.083	0.0166270
604.161	0.0165134
604.239	0.0163742
604.317	0.0164057
604.396	0.0165453
604.474	0.0164815
604.552	0.0164300
604.630	0.0163643
604.708	0.0164720
604.786	0.0164600
604.864	0.0165125
604.942	0.0165285
605.021	0.0163857
605.099	0.0164718
605.177	0.0164398
605.255	0.0164514
605.333	0.0164475
605.411	0.0165148
605.489	0.0164922
605.567	0.0165202
605.646	0.0164813
605.724	0.0163405
605.802	0.0164417
605.880	0.0164812
605.958	0.0165536
606.036	0.0163797
606.114	0.0164449
606.192	0.0165235
606.271	0.0165689
606.349	0.0165401
606.427	0.0165646
606.505	0.0164365
606.583	0.0165156
606.661	0.0164812
606.739	0.0165987
606.817	0.0165162
606.896	0.0163828
606.974	0.0163564
607.052	0.0164349
607.130	0.0164418
607.208	0.0164331
607.286	0.0164816
607.364	0.0164661
607.442	0.0164649
607.521	0.0165045
607.599	0.0163944
607.677	0.0164526
607.755	0.0164236
607.833	0.0164542
607.911	0.0163927
607.989	0.0164709
608.067	0.0165589
608.146	0.0165548
608.224	0.0163339
608.302	0.0163900
608.380	0.0163404
608.458	0.0164653
608.536	0.0163637
608.614	0.0165289
608.692	0.0164444
608.771	0.0163615
608.849	0.0164851
608.927	0.0163537
609.005	0.0164436
609.083	0.0164289
609.161	0.0163904
609.239	0.0164220
609.317	0.0165630
609.396	0.0164621
609.474	0.0163927
609.552	0.0163503
609.630	0.0165395
609.708	0.0164806
609.786	0.0165559
609.864	0.0164753
609.942	0.0164978
610.021	0.0164526
610.099	0.0163870
610.177	0.0164831
610.255	0.0164682
610.333	0.0165605
610.411	0.0164732
610.489	0.0164803
610.567	0.0164440
610.646	0.0163197
610.724	0.0164677
610.802	0.0165379
610.880	0.0163998
610.958	0.0164285
611.036	0.0161994
611.114	0.0167036
611.192	0.0165079
611.271	0.0163879
611.349	0.0164082
611.427	0.0165476
611.505	0.0164841
611.583	0.0163340
611.661	0.0164950
611.739	0.0164307
611.817	0.0164835
611.896	0.0164665
611.974	0.0164433
612.052	0.0164717
612.130	0.0164958
612.208	0.0164338
612.286	0.0164893
612.364	0.0165784
612.442	0.0166654
612.521	0.0164845
612.599	0.0164178
612.677	0.0165949
612.755	0.0165901
612.833	0.0164123
612.911	0.0164468
612.989	0.0165373
613.067	0.0164375
613.146	0.0165430
613.224	0.0163827
613.302	0.0164652
613.380	0.0165077
613.458	0.0164387
613.536	0.0163680
613.614	0.0163065
613.692	0.0165104
613.771	0.0165468
613.849	0.0165209
613.927	0.0165316
614.005	0.0164543
614.083	0.0163986
614.161	0.0164821
614.239	0.0165009
614.317	0.0165179
614.396	0.0164469
614.474	0.0165215
614.552	0.0164969
614.630	0.0164139
614.708	0.0164068
614.786	0.0165858
614.864	0.0165268
614.942	0.0164480
615.021	0.0164192
615.099	0.0165160
615.177	0.0165091
615.255	0.0164939
615.333	0.0164845
615.411	0.0164518
615.489	0.0163701
615.567	0.0164863
615.646	0.0164336
615.724	0.0164800
615.802	0.0165191
615.880	0.0164609
615.958	0.0164130
616.036	0.0164138
616.114	0.0164310
616.192	0.0164957
616.271	0.0165683
616.349	0.0164838
616.427	0.0165643
616.505	0.0164407
616.583	0.0164527
616.661	0.0163752
616.739	0.0165101
616.817	0.0166509
616.896	0.0166113
616.974	0.0164842
617.052	0.0165724
617.130	0.0164843
617.208	0.0163755
617.286	0.0165125
617.364	0.0165228
617.442	0.0164602
617.521	0.0163586
617.599	0.0165508
617.677	0.0166055
617.755	0.0165269
617.833	0.0164664
617.911	0.0164544
617.989	0.0165672
618.067	0.0165382
618.146	0.0164661
618.224	0.0165220
618.302	0.0164559
618.380	0.0164794
618.458	0.0164688
618.536	0.0165198
618.614	0.0165219
618.692	0.0164293
618.771	0.0165182
618.849	0.0166123
618.927	0.0165356
619.005	0.0164683
619.083	0.0165551
619.161	0.0163043
619.239	0.0165205
619.317	0.0166055
619.396	0.0166189
619.474	0.0164741
619.552	0.0165041
619.630	0.0165857
619.708	0.0165549
619.786	0.0165117
619.864	0.0164410
619.942	0.0165452
620.021	0.0164120
620.099	0.0163951
620.177	0.0164878
620.255	0.0164170
620.333	0.0164652
620.411	0.0163135
620.489	0.0164967
620.567	0.0165423
620.646	0.0164630
620.724	0.0164725
620.802	0.0165054
620.880	0.0165702
620.958	0.0165543
621.036	0.0163931
621.114	0.0164844
621.192	0.0165752
621.271	0.0165012
621.349	0.0164022
621.427	0.0165703
621.505	0.0165358
621.583	0.0163499
621.661	0.0164369
621.739	0.0165092
621.817	0.0165450
621.896	0.0165018
621.974	0.0165447
622.052	0.0163105
622.130	0.0165773
622.208	0.0165112
622.286	0.0165054
622.364	0.0164102
622.442	0.0164532
622.521	0.0164066
622.599	0.0165881
622.677	0.0165514
622.755	0.0165450
622.833	0.0165913
622.911	0.0165089
622.989	0.0163493
623.067	0.0165337
623.146	0.0165749
623.224	0.0166489
623.302	0.0166481
623.380	0.0162951
623.458	0.0165452
623.536	0.0164311
623.614	0.0164202
623.692	0.0165078
623.771	0.0163918
623.849	0.0165301
623.927	0.0165092
624.005	0.0165374
624.083	0.0165137
624.161	0.0165104
624.239	0.0164531
624.317	0.0165071
624.396	0.0164283
624.474	0.0165800
624.552	0.0164945
624.630	0.0164793
624.708	0.0166444
624.786	0.0164510
624.864	0.0164413
624.942	0.0165450
625.021	0.0165079
625.099	0.0164955
625.177	0.0166391
625.255	0.0165929
625.333	0.0165016
625.411	0.0164520
625.489	0.0165519
625.567	0.0164487
625.646	0.0163738
625.724	0.0165343
625.802	0.0165493
625.880	0.0164838
625.958	0.0164420
626.036	0.0164684
626.114	0.0165926
626.192	0.0165472
626.271	0.0163741
626.349	0.0163771
626.427	0.0165060
626.505	0.0165400
626.583	0.0164185
626.661	0.0165783
626.739	0.0164808
626.817	0.0164359
626.896	0.0164967
626.974	0.0164205
627.052	0.0164044
627.130	0.0164047
627.208	0.0166094
627.286	0.0164301
627.364	0.0164523
627.442	0.0164785
627.521	0.0166557
627.599	0.0166210
627.677	0.0165553
627.755	0.0164756
627.833	0.0164866
627.911	0.0164638
627.989	0.0163323
628.067	0.0165546
628.146	0.0164913
628.224	0.0163799
628.302	0.0164443
628.380	0.0165499
628.458	0.0163930
628.536	0.0163822
628.614	0.0163234
628.692	0.0164699
628.771	0.0165281
628.849	0.0164956
628.927	0.0164908
629.005	0.0165055
629.083	0.0165438
629.161	0.0165223
629.239	0.0165377
629.317	0.0164284
629.396	0.0164580
629.474	0.0164588
629.552	0.0165810
629.630	0.0165218
629.708	0.0165178
629.786	0.0164046
629.864	0.0165598
629.942	0.0165939
630.021	0.0164346
630.099	0.0166106
630.177	0.0165575
630.255	0.0166146
630.333	0.0165971
630.411	0.0164805
630.489	0.0164076
630.567	0.0165220
630.646	0.0164349
630.724	0.0164732
630.802	0.0166426
630.880	0.0164927
630.958	0.0165372
631.036	0.0164193
631.114	0.0165147
631.192	0.0164542
631.271	0.0163461
631.349	0.0164761
631.427	0.0165616
631.505	0.0165137
631.583	0.0164701
631.661	0.0164866
631.739	0.0164858
631.817	0.0164809
631.896	0.0165399
631.974	0.0166376
632.052	0.0163045
632.130	0.0163516
632.208	0.0165318
632.286	0.0165118
632.364	0.0164901
632.442	0.0164952
632.521	0.0165428
632.599	0.0165004
632.677	0.0165176
632.755	0.0164200
632.833	0.0164819
632.911	0.0165314
632.989	0.0164793
633.067	0.0164586
633.146	0.0165604
633.224	0.0166328
633.302	0.0163925
633.380	0.0164779
633.458	0.0164960
633.536	0.0162605
633.614	0.0165657
633.692	0.0164820
633.771	0.0164091
633.849	0.0164179
633.927	0.0163166
634.005	0.0163753
634.083	0.0165031
634.161	0.0165746
634.239	0.0164573
634.317	0.0163778
634.396	0.0164451
634.474	0.0164474
634.552	0.0164977
634.630	0.0164533
634.708	0.0164985
634.786	0.0165581
634.864	0.0167059
634.942	0.0165435
635.021	0.0164042
635.099	0.0164477
635.177	0.0164273
635.255	0.0165459
635.333	0.0164938
635.411	0.0164138
635.489	0.0165079
635.567	0.0165024
635.646	0.0165260
635.724	0.0166283
635.802	0.0164471
635.880	0.0164152
635.958	0.0165350
636.036	0.0165328
636.114	0.0164559
636.192	0.0164691
636.271	0.0163933
636.349	0.0164702
636.427	0.0164820
636.505	0.0164633
636.583	0.0165527
636.661	0.0165237
636.739	0.0163649
636.817	0.0166406
636.896	0.0164755
636.974	0.0164289
637.052	0.0165884
637.130	0.0165681
637.208	0.0164880
637.286	0.0164045
637.364	0.0165479
637.442	0.0163992
637.521	0.0164511
637.599	0.0165138
637.677	0.0164883
637.755	0.0164868
637.833	0.0164838
637.911	0.0164537
637.989	0.0164670
638.067	0.0164659
638.146	0.0162193
638.224	0.0164925
638.302	0.0164733
638.380	0.0163762
638.458	0.0164359
638.536	0.0164002
638.614	0.0165215
638.692	0.0164858
638.771	0.0166333
638.849	0.0165548
638.927	0.0166053
639.005	0.0166753
639.083	0.0165203
639.161	0.0164600
639.239	0.0164796
639.317	0.0165446
639.396	0.0166093
639.474	0.0164426
639.552	0.0166470
639.630	0.0165974
639.708	0.0164813
639.786	0.0165784
639.864	0.0166101
639.942	0.0165314
640.021	0.0164562
640.099	0.0164688
640.177	0.0165474
640.255	0.0166158
640.333	0.0164674
640.411	0.0165518
640.489	0.0165638
640.567	0.0165338
640.646	0.0164001
640.724	0.0164738
640.802	0.0165004
640.880	0.0163679
640.958	0.0164867
641.036	0.0164082
641.114	0.0164756
641.192	0.0164990
641.271	0.0163462
641.349	0.0166145
641.427	0.0163997
641.505	0.0164098
641.583	0.0164659
641.661	0.0164342
641.739	0.0163681
641.817	0.0163982
641.896	0.0163175
641.974	0.0164387
642.052	0.0164248
642.130	0.0164892
642.208	0.0163959
642.286	0.0164706
642.364	0.0164785
642.442	0.0164532
642.521	0.0165153
642.599	0.0164771
642.677	0.0165112
642.755	0.0165336
642.833	0.0163518
642.911	0.0164689
642.989	0.0166143
643.067	0.0164907
643.146	0.0164613
643.224	0.0165259
643.302	0.0164119
643.380	0.0163303
643.458	0.0164349
643.536	0.0165191
643.614	0.0165665
643.692	0.0165350
643.771	0.0165303
643.849	0.0165136
643.927	0.0164559
644.005	0.0165353
644.083	0.0165506
644.161	0.0166493
644.239	0.0166506
644.317	0.0164471
644.396	0.0165557
644.474	0.0165915
644.552	0.0164684
644.630	0.0164887
644.708	0.0165425
644.786	0.0163899
644.864	0.0165624
644.942	0.0165833
645.021	0.0166036
645.099	0.0164519
645.177	0.0165993
645.255	0.0165779
645.333	0.0165079
645.411	0.0164207
645.489	0.0165089
645.567	0.0164880
645.646	0.0164676
645.724	0.0164272
645.802	0.0164672
645.880	0.0165464
645.958	0.0166264
646.036	0.0165562
646.114	0.0164013
646.192	0.0165685
646.271	0.0165150
646.349	0.0165288
646.427	0.0164021
646.505	0.0163960
646.583	0.0163144
646.661	0.0163534
646.739	0.0164731
646.817	0.0162611
646.896	0.0164790
646.974	0.0165430
647.052	0.0165232
647.130	0.0165037
647.208	0.0164232
647.286	0.0164735
647.364	0.0163258
647.442	0.0163101
647.521	0.0165405
647.599	0.0165501
647.677	0.0165202
647.755	0.0165481
647.833	0.0165630
647.911	0.0165264
647.989	0.0165329
648.067	0.0163963
648.146	0.0163393
648.224	0.0164856
648.302	0.0166001
648.380	0.0163918
648.458	0.0164390
648.536	0.0165058
648.614	0.0164309
648.692	0.0165320
648.771	0.0164753
648.849	0.0164941
648.927	0.0164519
649.005	0.0164972
649.083	0.0165799
649.161	0.0164423
649.239	0.0164922
649.317	0.0164362
649.396	0.0165249
649.474	0.0165886
649.552	0.0165509
649.630	0.0163803
649.708	0.0164368
649.786	0.0164514
649.864	0.0164429
649.942	0.0166525
650.021	0.0164939
650.099	0.0164648
650.177	0.0165167
650.255	0.0165202
650.333	0.0164612
650.411	0.0164222
650.489	0.0164404
650.567	0.0164426
650.646	0.0163371
650.724	0.0164491
650.802	0.0165346
650.880	0.0164154
650.958	0.0164257
651.036	0.0166043
651.114	0.0165951
651.192	0.0164981
651.271	0.0163471
651.349	0.0163546
651.427	0.0163304
651.505	0.0165091
651.583	0.0165234
651.661	0.0164907
651.739	0.0165145
651.817	0.0163130
651.896	0.0164854
651.974	0.0165378
652.052	0.0165630
652.130	0.0164220
652.208	0.0165521
652.286	0.0165027
652.364	0.0165095
652.442	0.0163515
652.521	0.0163924
652.599	0.0163450
652.677	0.0164816
652.755	0.0164706
652.833	0.0165087
652.911	0.0163997
652.989	0.0164720
653.067	0.0165234
653.146	0.0165139
653.224	0.0164334
653.302	0.0163688
653.380	0.0164676
653.458	0.0166663
653.536	0.0165579
653.614	0.0165538
653.692	0.0164316
653.771	0.0165438
653.849	0.0165356
653.927	0.0165411
654.005	0.0165164
654.083	0.0163441
654.161	0.0165039
654.239	0.0164848
654.317	0.0165106
654.396	0.0165511
654.474	0.0163988
654.552	0.0164668
654.630	0.0164514
654.708	0.0164552
654.786	0.0165240
654.864	0.0165869
654.942	0.0165923
655.021	0.0165460
655.099	0.0163616
655.177	0.0164996
655.255	0.0163879
655.333	0.0165348
655.411	0.0164308
655.489	0.0164788
655.567	0.0164162
655.646	0.0165577
655.724	0.0163652
655.802	0.0164281
655.880	0.0165587
655.958	0.0165028
656.036	0.0165017
656.114	0.0164677
656.192	0.0165080
656.271	0.0164806
656.349	0.0165608
656.427	0.0165040
656.505	0.0163458
656.583	0.0165038
656.661	0.0165832
656.739	0.0164341
656.817	0.0163776
656.896	0.0164461
656.974	0.0163284
657.052	0.0165305
657.130	0.0165190
657.208	0.0164783
657.286	0.0164322
657.364	0.0165240
657.442	0.0165193
657.521	0.0165424
657.599	0.0165397
657.677	0.0165588
657.755	0.0164131
657.833	0.0166342
657.911	0.0163580
657.989	0.0164923
658.067	0.0164824
658.146	0.0163533
658.224	0.0165310
658.302	0.0165563
658.380	0.0164422
658.458	0.0165409
658.536	0.0164971
658.614	0.0165146
658.692	0.0164084
658.771	0.0165438
658.849	0.0164937
658.927	0.0165050
659.005	0.0164626
659.083	0.0166132
659.161	0.0164342
659.239	0.0165940
659.317	0.0164682
659.396	0.0165129
659.474	0.0164325
659.552	0.0165238
659.630	0.0164587
659.708	0.0165245
659.786	0.0165056
659.864	0.0165101
659.942	0.0164240
660.021	0.0165856
660.099	0.0163711
660.177	0.0164420
660.255	0.0165445
660.333	0.0165592
660.411	0.0166601
660.489	0.0165908
660.567	0.0164877
660.646	0.0164496
660.724	0.0165183
660.802	0.0164680
660.880	0.0164553
660.958	0.0166120
661.036	0.0164986
661.114	0.0164403
661.192	0.0164106
661.271	0.0163667
661.349	0.0165348
661.427	0.0164910
661.505	0.0164256
661.583	0.0164495
661.661	0.0165851
661.739	0.0165305
661.817	0.0164969
661.896	0.0164913
661.974	0.0166191
662.052	0.0164457
662.130	0.0164388
662.208	0.0164703
662.286	0.0165176
662.364	0.0164714
662.442	0.0164725
662.521	0.0164216
662.599	0.0165536
662.677	0.0163404
662.755	0.0164290
662.833	0.0164652
662.911	0.0163783
662.989	0.0163802
663.067	0.0164238
663.146	0.0165821
663.224	0.0162809
663.302	0.0164072
663.380	0.0165089
663.458	0.0165102
663.536	0.0165166
663.614	0.0164654
663.692	0.0164445
663.771	0.0164442
663.849	0.0165420
663.927	0.0163967
664.005	0.0163774
664.083	0.0165685
664.161	0.0164430
664.239	0.0164883
664.317	0.0163333
664.396	0.0164980
664.474	0.0164486
664.552	0.0164170
664.630	0.0164919
664.708	0.0165079
664.786	0.0165281
664.864	0.0165871
664.942	0.0164085
665.021	0.0164103
665.099	0.0164767
665.177	0.0164983
665.255	0.0164977
665.333	0.0164780
665.411	0.0163481
665.489	0.0165561
665.567	0.0164442
665.646	0.0164395
665.724	0.0166111
665.802	0.0165299
665.880	0.0163794
665.958	0.0164271
666.036	0.0165232
666.114	0.0164561
666.192	0.0164989
666.271	0.0163682
666.349	0.0163952
666.427	0.0163839
666.505	0.0164583
666.583	0.0165420
666.661	0.0163094
666.739	0.0163656
666.817	0.0164379
666.896	0.0165115
666.974	0.0165034
667.052	0.0165195
667.130	0.0164294
667.208	0.0165074
667.286	0.0164741
667.364	0.0164857
667.442	0.0163721
667.521	0.0164355
667.599	0.0164403
667.677	0.0163599
667.755	0.0162965
667.833	0.0164467
667.911	0.0164532
667.989	0.0165466
668.067	0.0166284
668.146	0.0164013
668.224	0.0165524
668.302	0.0165722
668.380	0.0163541
668.458	0.0164661
668.536	0.0163975
668.614	0.0164833
668.692	0.0163605
668.771	0.0164034
668.849	0.0164236
668.927	0.0164655
669.005	0.0164878
669.083	0.0164525
669.161	0.0164216
669.239	0.0164860
669.317	0.0165504
669.396	0.0164648
669.474	0.0164378
669.552	0.0164233
669.630	0.0163989
669.708	0.0165591
669.786	0.0163920
669.864	0.0165676
669.942	0.0164484
670.021	0.0164145
670.099	0.0164646
670.177	0.0164938
670.255	0.0163689
670.333	0.0164544
670.411	0.0165800
670.489	0.0165118
670.567	0.0164645
670.646	0.0165165
670.724	0.0166287
670.802	0.0164024
670.880	0.0164111
670.958	0.0166025
671.036	0.0164529
671.114	0.0165020
671.192	0.0164388
671.271	0.0164977
671.349	0.0165561
671.427	0.0166723
671.505	0.0164725
671.583	0.0165083
671.661	0.0165451
671.739	0.0165031
671.817	0.0165697
671.896	0.0164024
671.974	0.0165376
672.052	0.0164907
672.130	0.0164419
672.208	0.0164796
672.286	0.0165295
672.364	0.0164187
672.442	0.0165159
672.521	0.0164755
672.599	0.0164907
672.677	0.0164838
672.755	0.0164240
672.833	0.0164314
672.911	0.0164727
672.989	0.0165313
673.067	0.0164715
673.146	0.0164655
673.224	0.0164724
673.302	0.0164321
673.380	0.0164691
673.458	0.0163242
673.536	0.0165305
673.614	0.0165828
673.692	0.0164999
673.771	0.0164121
673.849	0.0164841
673.927	0.0164401
674.005	0.0165308
674.083	0.0164026
674.161	0.0164729
674.239	0.0164883
674.317	0.0164809
674.396	0.0163969
674.474	0.0165903
674.552	0.0165775
674.630	0.0164471
674.708	0.0164976
674.786	0.0164353
674.864	0.0164998
674.942	0.0167332
675.021	0.0166292
675.099	0.0164018
675.177	0.0164235
675.255	0.0165476
675.333	0.0166527
675.411	0.0166055
675.489	0.0166405
675.567	0.0165118
675.646	0.0165886
675.724	0.0165001
675.802	0.0165514
675.880	0.0165307
675.958	0.0166637
676.036	0.0164432
676.114	0.0165821
676.192	0.0165953
676.271	0.0164075
676.349	0.0165824
676.427	0.0166011
676.505	0.0166406
676.583	0.0164886
676.661	0.0165945
676.739	0.0166574
676.817	0.0164324
676.896	0.0164113
676.974	0.0164616
677.052	0.0165900
677.130	0.0164285
677.208	0.0165703
677.286	0.0165710
677.364	0.0164219
677.442	0.0165577
677.521	0.0165453
677.599	0.0165759
677.677	0.0164902
677.755	0.0164233
677.833	0.0165427
677.911	0.0164931
677.989	0.0164624
678.067	0.0165402
678.146	0.0163326
678.224	0.0163648
678.302	0.0166074
678.380	0.0165241
678.458	0.0164749
678.536	0.0165222
678.614	0.0164568
678.692	0.0165285
678.771	0.0164928
678.849	0.0165856
678.927	0.0164722
679.005	0.0165520
679.083	0.0165080
679.161	0.0165135
679.239	0.0163600
679.317	0.0165987
679.396	0.0166290
679.474	0.0164844
679.552	0.0165365
679.630	0.0164419
679.708	0.0165312
679.786	0.0163758
679.864	0.0164910
679.942	0.0165437
680.021	0.0165406
680.099	0.0164121
680.177	0.0165089
680.255	0.0163885
680.333	0.0164967
680.411	0.0165851
680.489	0.0166489
680.567	0.0166324
680.646	0.0164023
680.724	0.0164217
680.802	0.0164746
680.880	0.0165487
680.958	0.0164516
681.036	0.0164452
681.114	0.0164757
681.192	0.0164573
681.271	0.0164682
681.349	0.0163728
681.427	0.0165263
681.505	0.0164564
681.583	0.0164354
681.661	0.0163837
681.739	0.0165965
681.817	0.0163232
681.896	0.0164022
681.974	0.0166177
682.052	0.0165621
682.130	0.0163882
682.208	0.0163926
682.286	0.0164629
682.364	0.0165128
682.442	0.0164037
682.521	0.0164080
682.599	0.0165979
682.677	0.0163849
682.755	0.0164600
682.833	0.0164152
682.911	0.0165152
682.989	0.0163729
683.067	0.0163282
683.146	0.0164342
683.224	0.0166803
683.302	0.0163529
683.380	0.0164443
683.458	0.0164200
683.536	0.0163213
683.614	0.0163951
683.692	0.0162772
683.771	0.0165237
683.849	0.0164653
683.927	0.0164076
684.005	0.0164037
684.083	0.0164803
684.161	0.0164456
684.239	0.0165765
684.317	0.0165218
684.396	0.0164133
684.474	0.0163811
684.552	0.0163627
684.630	0.0164384
684.708	0.0164319
684.786	0.0162908
684.864	0.0163264
684.942	0.0163798
685.021	0.0163296
685.099	0.0163679
685.177	0.0164747
685.255	0.0163963
685.333	0.0164307
685.411	0.0163600
685.489	0.0166179
685.567	0.0167271
685.646	0.0164995
685.724	0.0164569
685.802	0.0164291
685.880	0.0165532
685.958	0.0166383
686.036	0.0166673
686.114	0.0164743
686.192	0.0164474
686.271	0.0165984
686.349	0.0164867
686.427	0.0164429
686.505	0.0163608
686.583	0.0163775
686.661	0.0164139
686.739	0.0162505
686.817	0.0163350
686.896	0.0163030
686.974	0.0164482
687.052	0.0165018
687.130	0.0166325
687.208	0.0167899
687.286	0.0168162
687.364	0.0167926
687.442	0.0168462
687.521	0.0168130
687.599	0.0166706
687.677	0.0165784
687.755	0.0163905
687.833	0.0164344
687.911	0.0162256
687.989	0.0160336
688.067	0.0160582
688.146	0.0158961
688.224	0.0158457
688.302	0.0160516
688.380	0.0160545
688.458	0.0161516
688.536	0.0163960
688.614	0.0165580
688.692	0.0169062
688.771	0.0172607
688.849	0.0172178
688.927	0.0173870
689.005	0.0173665
689.083	0.0172013
689.161	0.0169733
689.239	0.0167940
689.317	0.0164087
689.396	0.0158910
689.474	0.0158022
689.552	0.0155279
689.630	0.0154819
689.708	0.0154414
689.786	0.0156027
689.864	0.0157349
689.942	0.0160897
690.021	0.0163767
690.099	0.0165162
690.177	0.0169679
690.255	0.0173011
690.333	0.0174154
690.411	0.0174297
690.489	0.0174046
690.567	0.0172812
690.646	0.0172417
690.724	0.0167068
690.802	0.0163135
690.880	0.0159157
690.958	0.0156952
691.036	0.0155091
691.114	0.0155285
691.192	0.0155151
691.271	0.0155348
691.349	0.0157306
691.427	0.0159283
691.505	0.0161301
691.583	0.0163822
691.661	0.0166479
691.739	0.0168299
691.817	0.0170224
691.896	0.0172332
691.974	0.0172755
692.052	0.0172962
692.130	0.0171037
692.208	0.0170728
692.286	0.0169186
692.364	0.0167196
692.442	0.0164212
692.521	0.0160509
692.599	0.0159967
692.677	0.0158778
692.755	0.0158131
692.833	0.0157390
692.911	0.0157471
692.989	0.0158626
693.067	0.0159810
693.146	0.0161946
693.224	0.0165438
693.302	0.0168413
693.380	0.0169751
693.458	0.0170846
693.536	0.0173582
693.614	0.0173324
693.692	0.0170646
693.771	0.0170584
693.849	0.0169353
693.927	0.0167535
694.005	0.0166631
694.083	0.0162897
694.161	0.0162489
694.239	0.0159459
694.317	0.0159477
694.396	0.0159906
694.474	0.0160889
694.552	0.0162346
694.630	0.0163810
694.708	0.0163344
694.786	0.0166013
694.864	0.0166291
694.942	0.0164362
695.021	0.0164429
695.099	0.0162549
695.177	0.0165237
695.255	0.0162922
695.333	0.0163006
695.411	0.0162714
695.489	0.0162864
695.567	0.0162718
695.646	0.0164703
695.724	0.0165203
695.802	0.0166441
695.880	0.0166740
695.958	0.0166548
696.036	0.0168298
696.114	0.0166900
696.192	0.0165292
696.271	0.0164788
696.349	0.0164568
696.427	0.0163271
696.505	0.0162997
696.583	0.0162933
696.661	0.0162073
696.739	0.0165345
696.817	0.0164780
696.896	0.0166117
696.974	0.0167876
697.052	0.0170832
697.130	0.0171800
697.208	0.0173730
697.286	0.0171271
697.364	0.0171494
697.442	0.0171032
697.521	0.0169685
697.599	0.0167982
697.677	0.0165921
697.755	0.0162897
697.833	0.0161085
697.911	0.0159229
697.989	0.0158186
698.067	0.0156058
698.146	0.0156316
698.224	0.0156934
698.302	0.0157678
698.380	0.0157454
698.458	0.0159145
698.536	0.0160790
698.614	0.0162692
698.692	0.0164628
698.771	0.0163002
698.849	0.0163711
698.927	0.0164841
699.005	0.0164484
699.083	0.0165578
699.161	0.0163130
699.239	0.0163826
699.317	0.0163529
699.396	0.0163390
699.474	0.0164125
699.552	0.0163505
699.630	0.0164754
699.708	0.0167800
699.786	0.0167436
699.864	0.0168430
699.942	0.0168616
700.021	0.0168665
700.099	0.0168694
700.177	0.0169970
700.255	0.0169427
700.333	0.0168225
700.411	0.0167336
700.489	0.0169288
700.567	0.0167419
700.646	0.0167300
700.724	0.0166166
700.802	0.0167045
700.880	0.0164830
700.958	0.0167442
701.036	0.0168208
701.114	0.0168319
701.192	0.0168940
701.271	0.0169186
701.349	0.0171071
701.427	0.0172441
701.505	0.0171057
701.583	0.0172378
701.661	0.0172443
701.739	0.0171667
701.817	0.0172604
701.896	0.0173013
701.974	0.0172006
702.052	0.0171334
702.130	0.0171066
702.208	0.0170051
702.286	0.0169112
702.364	0.0168253
702.442	0.0165168
702.521	0.0162980
702.599	0.0157037
702.677	0.0155180
702.755	0.0149869
702.833	0.0147639
702.911	0.0144567
702.989	0.0141026
703.067	0.0137552
703.146	0.0136786
703.224	0.0136598
703.302	0.0136439
703.380	0.0137566
703.458	0.0141165
703.536	0.0143259
703.614	0.0150081
703.692	0.0155916
703.771	0.0159301
703.849	0.0163947
703.927	0.0169396
704.005	0.0174553
704.083	0.0178948
704.161	0.0181178
704.239	0.0183576
704.317	0.0185996
704.396	0.0187804
704.474	0.0188918
704.552	0.0187091
704.630	0.0188257
704.708	0.0188556
704.786	0.0187289
704.864	0.0186246
704.942	0.0184528
705.021	0.0181525
705.099	0.0180375
705.177	0.0179004
705.255	0.0176838
705.333	0.0175764
705.411	0.0175159
705.489	0.0172178
705.567	0.0172097
705.646	0.0171849
705.724	0.0169965
705.802	0.0165993
705.880	0.0164632
705.958	0.0161750
706.036	0.0158924
706.114	0.0154741
706.192	0.0153130
706.271	0.0149804
706.349	0.0148953
706.427	0.0149028
706.505	0.0149255
706.583	0.0151556
706.661	0.0154628
706.739	0.0156084
706.817	0.0159663
706.896	0.0166113
706.974	0.0169218
707.052	0.0171408
707.130	0.0172981
707.208	0.0172647
707.286	0.0173905
707.364	0.0169556
707.442	0.0164584
707.521	0.0159016
707.599	0.0152610
707.677	0.0145754
707.755	0.0140298
707.833	0.0132855
707.911	0.0128521
707.989	0.0125642
708.067	0.0123735
708.146	0.0123466
708.224	0.0123829
708.302	0.0127573
708.380	0.0131620
708.458	0.0135355
708.536	0.0140855
708.614	0.0148026
708.692	0.0153819
708.771	0.0161465
708.849	0.0168098
708.927	0.0173346
709.005	0.0178713
709.083	0.0183128
709.161	0.0187769
709.239	0.0191243
709.317	0.0195718
709.396	0.0199664
709.474	0.0203139
709.552	0.0206382
709.630	0.0209812
709.708	0.0212109
709.786	0.0212981
709.864	0.0214601
709.942	0.0213760
710.021	0.0212700
710.099	0.0208922
710.177	0.0204156
710.255	0.0198304
710.333	0.0192117
710.411	0.0185799
710.489	0.0178335
710.567	0.0171394
710.646	0.0166603
710.724	0.0162875
710.802	0.0157875
710.880	0.0152901
710.958	0.0150327
711.036	0.0150190
711.114	0.0147940
711.192	0.0147631
711.271	0.0147957
711.349	0.0150610
711.427	0.0152612
711.505	0.0155521
711.583	0.0157072
711.661	0.0159364
711.739	0.0162177
711.817	0.0165431
711.896	0.0167017
711.974	0.0169421
712.052	0.0168926
712.130	0.0166731
712.208	0.0162481
712.286	0.0157182
712.364	0.0150031
712.442	0.0142217
712.521	0.0129385
712.599	0.0118503
712.677	0.0107714
712.755	0.00958412
712.833	0.00860512
712.911	0.00793907
712.989	0.00712105
713.067	0.00675369
713.146	0.00673851
713.224	0.00709259
713.302	0.00758766
713.380	0.00831116
713.458	0.00958450
713.536	0.0108238
713.614	0.0124671
713.692	0.0140871
713.771	0.0159519
713.849	0.0178652
713.927	0.0197243
714.005	0.0215128
714.083	0.0235170
714.161	0.0249371
714.239	0.0263601
714.317	0.0273829
714.396	0.0283336
714.474	0.0289245
714.552	0.0292142
714.630	0.0292242
714.708	0.0288624
714.786	0.0282886
714.864	0.0274738
714.942	0.0263342
715.021	0.0252426
715.099	0.0240029
715.177	0.0226653
715.255	0.0214538
715.333	0.0200507
715.411	0.0191979
715.489	0.0183384
715.567	0.0177183
715.646	0.0169068
715.724	0.0164623
715.802	0.0162704
715.880	0.0159428
715.958	0.0157520
716.036	0.0156374
716.114	0.0155013
716.192	0.0153069
716.271	0.0148629
716.349	0.0145963
716.427	0.0140405
716.505	0.0132351
716.583	0.0123985
716.661	0.0115237
716.739	0.0102423
716.817	0.00889717
716.896	0.00755951
716.974	0.00634521
717.052	0.00506500
717.130	0.00397026
717.208	0.00331963
717.286	0.00241295
717.364	0.00217812
717.442	0.00222321
717.521	0.00247421
717.599	0.00315964
717.677	0.00435127
717.755	0.00566917
717.833	0.00722275
717.911	0.00904434
717.989	0.0110799
718.067	0.0131360
718.146	0.0152486
718.224	0.0173109
718.302	0.0194436
718.380	0.0214311
718.458	0.0234243
718.536	0.0250411
718.614	0.0266286
718.692	0.0280845
718.771	0.0291033
718.849	0.0299601
718.927	0.0305259
719.005	0.0306430
719.083	0.0308067
719.161	0.0304446
719.239	0.0297104
719.317	0.0290266
719.396	0.0281092
719.474	0.0268224
719.552	0.0255640
719.630	0.0243002
719.708	0.0229892
719.786	0.0216150
719.864	0.0206295
719.942	0.0195041
720.021	0.0185712
720.099	0.0177659
720.177	0.0171061
720.255	0.0166730
720.333	0.0161222
720.411	0.0156619
720.489	0.0152839
720.567	0.0147735
720.646	0.0143164
720.724	0.0137086
720.802	0.0131377
720.880	0.0121842
720.958	0.0115051
721.036	0.0105203
721.114	0.00966667
721.192	0.00860733
721.271	0.00755241
721.349	0.00679176
721.427	0.00603386
721.505	0.00540634
721.583	0.00505196
721.661	0.00491753
721.739	0.00509644
721.817	0.00553719
721.896	0.00613968
721.974	0.00703247
722.052	0.00827209
722.130	0.00965439
722.208	0.0112360
722.286	0.0130513
722.364	0.0145129
722.442	0.0163908
722.521	0.0178000
722.599	0.0193571
722.677	0.0205531
722.755	0.0216369
722.833	0.0225529
722.911	0.0231926
722.989	0.0236888
723.067	0.0240508
723.146	0.0241341
723.224	0.0241927
723.302	0.0240437
723.380	0.0236803
723.458	0.0233426
723.536	0.0228099
723.614	0.0222353
723.692	0.0216710
723.771	0.0210857
723.849	0.0203784
723.927	0.0197779
724.005	0.0193694
724.083	0.0189841
724.161	0.0186660
724.239	0.0182695
724.317	0.0179918
724.396	0.0179589
724.474	0.0178677
724.552	0.0178510
724.630	0.0178271
724.708	0.0175401
724.786	0.0175430
724.864	0.0172622
724.942	0.0169144
725.021	0.0166058
725.099	0.0164227
725.177	0.0158527
725.255	0.0152553
725.333	0.0145994
725.411	0.0141022
725.489	0.0134720
725.567	0.0127569
725.646	0.0123660
725.724	0.0116811
725.802	0.0110803
725.880	0.0106841
725.958	0.0105335
726.036	0.0102469
726.114	0.0101934
726.192	0.0103611
726.271	0.0106286
726.349	0.0110683
726.427	0.0115981
726.505	0.0123044
726.583	0.0131424
726.661	0.0140361
726.739	0.0148235
726.817	0.0156427
726.896	0.0166053
726.974	0.0175436
727.052	0.0183572
727.130	0.0189574
727.208	0.0196707
727.286	0.0203223
727.364	0.0205483
727.442	0.0207835
727.521	0.0209582
727.599	0.0208582
727.677	0.0208009
727.755	0.0204891
727.833	0.0202084
727.911	0.0199441
727.989	0.0194695
728.067	0.0191238
728.146	0.0188062
728.224	0.0185082
728.302	0.0182607
728.380	0.0181284
728.458	0.0178166
728.536	0.0178597
728.614	0.0177248
728.692	0.0177962
728.771	0.0176254
728.849	0.0175793
728.927	0.0178246
729.005	0.0177600
729.083	0.0176391
729.161	0.0173914
729.239	0.0174679
729.317	0.0172879
729.396	0.0168382
729.474	0.0166850
729.552	0.0164017
729.630	0.0158330
729.708	0.0154679
729.786	0.0150816
729.864	0.0146058
729.942	0.0140594
730.021	0.0134823
730.099	0.0131154
730.177	0.0129896
730.255	0.0126553
730.333	0.0124378
730.411	0.0122645
730.489	0.0122857
730.567	0.0125227
730.646	0.0127423
730.724	0.0131705
730.802	0.0133460
730.880	0.0138960
730.958	0.0143458
731.036	0.0147976
731.114	0.0151472
731.192	0.0156532
731.271	0.0159922
731.349	0.0162357
731.427	0.0165142
731.505	0.0168974
731.583	0.0170962
731.661	0.0170159
731.739	0.0170534
731.817	0.0171349
731.896	0.0170322
731.974	0.0171198
732.052	0.0171381
732.130	0.0170110
732.208	0.0170099
732.286	0.0169043
732.364	0.0171702
732.442	0.0174007
732.521	0.0174001
732.599	0.0177662
732.677	0.0180271
732.755	0.0181335
732.833	0.0184368
732.911	0.0186734
732.989	0.0188403
733.067	0.0189897
733.146	0.0192035
733.224	0.0192281
733.302	0.0191988
733.380	0.0191596
733.458	0.0193046
733.536	0.0189738
733.614	0.0188873
733.692	0.0186408
733.771	0.0185274
733.849	0.0183402
733.927	0.0182857
734.005	0.0180627
734.083	0.0176252
734.161	0.0173190
734.239	0.0169179
734.317	0.0165659
734.396	0.0161271
734.474	0.0157586
734.552	0.0153461
734.630	0.0150244
734.708	0.0148949
734.786	0.0146647
734.864	0.0145477
734.942	0.0144807
735.021	0.0145758
735.099	0.0146515
735.177	0.0144801
735.255	0.0147266
735.333	0.0146504
735.411	0.0148629
735.489	0.0148785
735.567	0.0147517
735.646	0.0149643
735.724	0.0147880
735.802	0.0146519
735.880	0.0146393
735.958	0.0145554
736.036	0.0145929
736.114	0.0145282
736.192	0.0144493
736.271	0.0144583
736.349	0.0144202
736.427	0.0146561
736.505	0.0146907
736.583	0.0148606
736.661	0.0152386
736.739	0.0156665
736.817	0.0158397
736.896	0.0160793
736.974	0.0164896
737.052	0.0168240
737.130	0.0170676
737.208	0.0173762
737.286	0.0177494
737.364	0.0180763
737.442	0.0182216
737.521	0.0183189
737.599	0.0184032
737.677	0.0185834
737.755	0.0185207
737.833	0.0185096
737.911	0.0184171
737.989	0.0184389
738.067	0.0183987
738.146	0.0182912
738.224	0.0180988
738.302	0.0180362
738.380	0.0179507
738.458	0.0178805
738.536	0.0179035
738.614	0.0177076
738.692	0.0176470
738.771	0.0175391
738.849	0.0174683
738.927	0.0172322
739.005	0.0172198
739.083	0.0171068
739.161	0.0170700
739.239	0.0168864
739.317	0.0168038
739.396	0.0165543
739.474	0.0166402
739.552	0.0166392
739.630	0.0163557
739.708	0.0161465
739.786	0.0161053
739.864	0.0158891
739.942	0.0156897
740.021	0.0155431
740.099	0.0152943
740.177	0.0151247
740.255	0.0148210
740.333	0.0147741
740.411	0.0146681
740.489	0.0142763
740.567	0.0142020
740.646	0.0140284
740.724	0.0140973
740.802	0.0141713
740.880	0.0143166
740.958	0.0145103
741.036	0.0146424
741.114	0.0149899
741.192	0.0152006
741.271	0.0155760
741.349	0.0158971
741.427	0.0162801
741.505	0.0165563
741.583	0.0169051
741.661	0.0171888
741.739	0.0175658
741.817	0.0177443
741.896	0.0178857
741.974	0.0182130
742.052	0.0181586
742.130	0.0183150
742.208	0.0182500
742.286	0.0182663
742.364	0.0181255
742.442	0.0181136
742.521	0.0179966
742.599	0.0179267
742.677	0.0178159
742.755	0.0175445
742.833	0.0173555
742.911	0.0173857
742.989	0.0170828
743.067	0.0169467
743.146	0.0167643
743.224	0.0166900
743.302	0.0165293
743.380	0.0165190
743.458	0.0165020
743.536	0.0165306
743.614	0.0165161
743.692	0.0165167
743.771	0.0165199
743.849	0.0164031
743.927	0.0163716
744.005	0.0163354
744.083	0.0164047
744.161	0.0161590
744.239	0.0160043
744.317	0.0160189
744.396	0.0157880
744.474	0.0155251
744.552	0.0154349
744.630	0.0152814
744.708	0.0150854
744.786	0.0150287
744.864	0.0146880
744.942	0.0145469
745.021	0.0144446
745.099	0.0147034
745.177	0.0145655
745.255	0.0147120
745.333	0.0148667
745.411	0.0148433
745.489	0.0151259
745.567	0.0155249
745.646	0.0159251
745.724	0.0160694
745.802	0.0164548
745.880	0.0166968
745.958	0.0169435
746.036	0.0171494
746.114	0.0174677
746.192	0.0176217
746.271	0.0178495
746.349	0.0179121
746.427	0.0180893
746.505	0.0183752
746.583	0.0182133
746.661	0.0182518
746.739	0.0182693
746.817	0.0182458
746.896	0.0181397
746.974	0.0181259
747.052	0.0179629
747.130	0.0178550
747.208	0.0178017
747.286	0.0177222
747.364	0.0175683
747.442	0.0172405
747.521	0.0171498
747.599	0.0169161
747.677	0.0165917
747.755	0.0164462
747.833	0.0161062
747.911	0.0159570
747.989	0.0157945
748.067	0.0154475
748.146	0.0151657
748.224	0.0150967
748.302	0.0150345
748.380	0.0149493
748.458	0.0148196
748.536	0.0148663
748.614	0.0148569
748.692	0.0149043
748.771	0.0148340
748.849	0.0150640
748.927	0.0152860
749.005	0.0151390
749.083	0.0153210
749.161	0.0153946
749.239	0.0155284
749.317	0.0154700
749.396	0.0157079
749.474	0.0157673
749.552	0.0157900
749.630	0.0159786
749.708	0.0160687
749.786	0.0163005
749.864	0.0165483
749.942	0.0165594
750.021	0.0169454
750.099	0.0170694
750.177	0.0173700
750.255	0.0176162
750.333	0.0178806
750.411	0.0180884
750.489	0.0181627
750.567	0.0182481
750.646	0.0184632
750.724	0.0183765
750.802	0.0185092
750.880	0.0184917
750.958	0.0184531
751.036	0.0183570
751.114	0.0180508
751.192	0.0179387
751.271	0.0177510
751.349	0.0175952
751.427	0.0172730
751.505	0.0172456
751.583	0.0169874
751.661	0.0167577
751.739	0.0166385
751.817	0.0161620
751.896	0.0161781
751.974	0.0159367
752.052	0.0156508
752.130	0.0154081
752.208	0.0151550
752.286	0.0149326
752.364	0.0147712
752.442	0.0145244
752.521	0.0142670
752.599	0.0141703
752.677	0.0142501
752.755	0.0141097
752.833	0.0140090
752.911	0.0139761
752.989	0.0142038
753.067	0.0143949
753.146	0.0144442
753.224	0.0147837
753.302	0.0148833
753.380	0.0152096
753.458	0.0154082
753.536	0.0156643
753.614	0.0157963
753.692	0.0160145
753.771	0.0164120
753.849	0.0165550
753.927	0.0168648
754.005	0.0170154
754.083	0.0172726
754.161	0.0173476
754.239	0.0174863
754.317	0.0177493
754.396	0.0177979
754.474	0.0178220
754.552	0.0177536
754.630	0.0180965
754.708	0.0180636
754.786	0.0180932
754.864	0.0181020
754.942	0.0180560
755.021	0.0180330
755.099	0.0179892
755.177	0.0179575
755.255	0.0179614
755.333	0.0180190
755.411	0.0177853
755.489	0.0178210
755.567	0.0176216
755.646	0.0174328
755.724	0.0175286
755.802	0.0173713
755.880	0.0171566
755.958	0.0170802
756.036	0.0168391
756.114	0.0168518
756.192	0.0166354
756.271	0.0164590
756.349	0.0162088
756.427	0.0159671
756.505	0.0158606
756.583	0.0154823
756.661	0.0156349
756.739	0.0153100
756.817	0.0152747
756.896	0.0151849
756.974	0.0152388
757.052	0.0150559
757.130	0.0151800
757.208	0.0151310
757.286	0.0151653
757.364	0.0154753
757.442	0.0154006
757.521	0.0155948
757.599	0.0155872
757.677	0.0155611
757.755	0.0156988
757.833	0.0157990
757.911	0.0158324
757.989	0.0158424
758.067	0.0160277
758.146	0.0160106
758.224	0.0159882
758.302	0.0160356
758.380	0.0159869
758.458	0.0161349
758.536	0.0161728
758.614	0.0161848
758.692	0.0164102
758.771	0.0163338
758.849	0.0165534
758.927	0.0166544
759.005	0.0167703
759.083	0.0169452
759.161	0.0171745
759.239	0.0170660
759.317	0.0172751
759.396	0.0173045
759.474	0.0175417
759.552	0.0176562
759.630	0.0175243
759.708	0.0177955
759.786	0.0176609
759.864	0.0177065
759.942	0.0176166
760.021	0.0178496
760.099	0.0176908
760.177	0.0176276
760.255	0.0175877
760.333	0.0172126
760.411	0.0170849
760.489	0.0168992
760.567	0.0167904
760.646	0.0164912
760.724	0.0160848
760.802	0.0160298
760.880	0.0157684
760.958	0.0156934
761.036	0.0153494
761.114	0.0152869
761.192	0.0152642
761.271	0.0152145
761.349	0.0152130
761.427	0.0152189
761.505	0.0154501
761.583	0.0153415
761.661	0.0155819
761.739	0.0156464
761.817	0.0158835
761.896	0.0160023
761.974	0.0159909
762.052	0.0163074
762.130	0.0164207
762.208	0.0164533
762.286	0.0166068
762.364	0.0167944
762.442	0.0167689
762.521	0.0169672
762.599	0.0170378
762.677	0.0171997
762.755	0.0171326
762.833	0.0172437
762.911	0.0173050
762.989	0.0171039
763.067	0.0171578
763.146	0.0171252
763.224	0.0171570
763.302	0.0173052
763.380	0.0171820
763.458	0.0170916
763.536	0.0173106
763.614	0.0172207
763.692	0.0171923
763.771	0.0172980
763.849	0.0172632
763.927	0.0172515
764.005	0.0170503
764.083	0.0170873
764.161	0.0170909
764.239	0.0169912
764.317	0.0167229
764.396	0.0166347
764.474	0.0164818
764.552	0.0163567
764.630	0.0161274
764.708	0.0162321
764.786	0.0157951
764.864	0.0157770
764.942	0.0156002
765.021	0.0156231
765.099	0.0154871
765.177	0.0153562
765.255	0.0153746
765.333	0.0154642
765.411	0.0155149
765.489	0.0155447
765.567	0.0156250
765.646	0.0157084
765.724	0.0157787
765.802	0.0159469
765.880	0.0161688
765.958	0.0162139
766.036	0.0163472
766.114	0.0162910
766.192	0.0165839
766.271	0.0165127
766.349	0.0165958
766.427	0.0166967
766.505	0.0165108
766.583	0.0166528
766.661	0.0165362
766.739	0.0166422
766.817	0.0165375
766.896	0.0166534
766.974	0.0166369
767.052	0.0166763
767.130	0.0165031
767.208	0.0168067
767.286	0.0166227
767.364	0.0166498
767.442	0.0166820
767.521	0.0168472
767.599	0.0167821
767.677	0.0167371
767.755	0.0169547
767.833	0.0169920
767.911	0.0170941
767.989	0.0169511
768.067	0.0168571
768.146	0.0169959
768.224	0.0170048
768.302	0.0169621
768.380	0.0171124
768.458	0.0169878
768.536	0.0170148
768.614	0.0169611
768.692	0.0169356
768.771	0.0166698
768.849	0.0168967
768.927	0.0167705
769.005	0.0165203
769.083	0.0164877
769.161	0.0166583
769.239	0.0164969
769.317	0.0162983
769.396	0.0162441
769.474	0.0163768
769.552	0.0162413
769.630	0.0162613
769.708	0.0160757
769.786	0.0157924
769.864	0.0158327
769.942	0.0158742
770.021	0.0158459
770.099	0.0157350
770.177	0.0158600
770.255	0.0158085
770.333	0.0158556
770.411	0.0160155
770.489	0.0160041
770.567	0.0158833
770.646	0.0161187
770.724	0.0162724
770.802	0.0162849
770.880	0.0162286
770.958	0.0163846
771.036	0.0165589
771.114	0.0163409
771.192	0.0164425
771.271	0.0165202
771.349	0.0166409
771.427	0.0167067
771.505	0.0166076
771.583	0.0166779
771.661	0.0167094
771.739	0.0166125
771.817	0.0166259
771.896	0.0166006
771.974	0.0167278
772.052	0.0167592
772.130	0.0166320
772.208	0.0167088
772.286	0.0167094
772.364	0.0166496
772.442	0.0166748
772.521	0.0166722
772.599	0.0168417
772.677	0.0167043
772.755	0.0166874
772.833	0.0167652
772.911	0.0167401
772.989	0.0166637
773.067	0.0167416
773.146	0.0166067
773.224	0.0165182
773.302	0.0165737
773.380	0.0166017
773.458	0.0164381
773.536	0.0163700
773.614	0.0163227
773.692	0.0164000
773.771	0.0163928
773.849	0.0164037
773.927	0.0162145
774.005	0.0161068
774.083	0.0161202
774.161	0.0162411
774.239	0.0160775
774.317	0.0160965
774.396	0.0160191
774.474	0.0160101
774.552	0.0160758
774.630	0.0158386
774.708	0.0160525
774.786	0.0159668
774.864	0.0158800
774.942	0.0158592
775.021	0.0161202
775.099	0.0161771
775.177	0.0160891
775.255	0.0160372
775.333	0.0162691
775.411	0.0163107
775.489	0.0163218
775.567	0.0163354
775.646	0.0164326
775.724	0.0164103
775.802	0.0164636
775.880	0.0163887
775.958	0.0163358
776.036	0.0164993
776.114	0.0166434
776.192	0.0165070
776.271	0.0165025
776.349	0.0165242
776.427	0.0166623
776.505	0.0166886
776.583	0.0167091
776.661	0.0168063
776.739	0.0167239
776.817	0.0167986
776.896	0.0168557
776.974	0.0169056
777.052	0.0167776
777.130	0.0169470
777.208	0.0167622
777.286	0.0168107
777.364	0.0168133
777.442	0.0168112
777.521	0.0166726
777.599	0.0166837
777.677	0.0165013
777.755	0.0163668
777.833	0.0163534
777.911	0.0162052
777.989	0.0160330
778.067	0.0160529
778.146	0.0159837
778.224	0.0159626
778.302	0.0160332
778.380	0.0160143
778.458	0.0159068
778.536	0.0160498
778.614	0.0159051
778.692	0.0159158
778.771	0.0161079
778.849	0.0162350
778.927	0.0162312
779.005	0.0163303
779.083	0.0164912
779.161	0.0163763
779.239	0.0165071
779.317	0.0167075
779.396	0.0168127
779.474	0.0167188
779.552	0.0168156
779.630	0.0167870
779.708	0.0167782
779.786	0.0167825
779.864	0.0167411
779.942	0.0167122
780.021	0.0167297
780.099	0.0166152
780.177	0.0165903
780.255	0.0165237
780.333	0.0165093
780.411	0.0163754
780.489	0.0164235
780.567	0.0163212
780.646	0.0161944
780.724	0.0161472
780.802	0.0163206
780.880	0.0162694
780.958	0.0161597
781.036	0.0161520
781.114	0.0162758
781.192	0.0161976
781.271	0.0163712
781.349	0.0162151
781.427	0.0162801
781.505	0.0163448
781.583	0.0163262
781.661	0.0163488
781.739	0.0162487
781.817	0.0162269
781.896	0.0162251
781.974	0.0163567
782.052	0.0163519
782.130	0.0162357
782.208	0.0162733
782.286	0.0164589
782.364	0.0164178
782.442	0.0164965
782.521	0.0165902
782.599	0.0165617
782.677	0.0165358
782.755	0.0167055
782.833	0.0166882
782.911	0.0167010
782.989	0.0167913
783.067	0.0167085
783.146	0.0166636
783.224	0.0166475
783.302	0.0167207
783.380	0.0165369
783.458	0.0166126
783.536	0.0166011
783.614	0.0165226
783.692	0.0164045
783.771	0.0163895
783.849	0.0162592
783.927	0.0161227
784.005	0.0161312
784.083	0.0162042
784.161	0.0161289
784.239	0.0160654
784.317	0.0161191
784.396	0.0160973
784.474	0.0160678
784.552	0.0161278
784.630	0.0162244
784.708	0.0161483
784.786	0.0161620
784.864	0.0161407
784.942	0.0163693
785.021	0.0163018
785.099	0.0164955
785.177	0.0164883
785.255	0.0163964
785.333	0.0165653
785.411	0.0165900
785.489	0.0166551
785.567	0.0168351
785.646	0.0167348
785.724	0.0168093
785.802	0.0168655
785.880	0.0169366
785.958	0.0169929
786.036	0.0169629
786.114	0.0170718
786.192	0.0168942
786.271	0.0169780
786.349	0.0169429
786.427	0.0168142
786.505	0.0168163
786.583	0.0167648
786.661	0.0166779
786.739	0.0167299
786.817	0.0166479
786.896	0.0165141
786.974	0.0164074
787.052	0.0165511
787.130	0.0165789
787.208	0.0164036
787.286	0.0164369
787.364	0.0163657
787.442	0.0163810
787.521	0.0163988
787.599	0.0164603
787.677	0.0165259
787.755	0.0164239
787.833	0.0162957
787.911	0.0165402
787.989	0.0165670
788.067	0.0165357
788.146	0.0163901
788.224	0.0164744
788.302	0.0164191
788.380	0.0164069
788.458	0.0164481
788.536	0.0162928
788.614	0.0162053
788.692	0.0161136
788.771	0.0162099
788.849	0.0161415
788.927	0.0161249
789.005	0.0160450
789.083	0.0159857
789.161	0.0161544
789.239	0.0159684
789.317	0.0160301
789.396	0.0160782
789.474	0.0162773
789.552	0.0162452
789.630	0.0162947
789.708	0.0163819
789.786	0.0162130
789.864	0.0163528
789.942	0.0165517
790.021	0.0163857
790.099	0.0164362
790.177	0.0165104
790.255	0.0165840
790.333	0.0166542
790.411	0.0165717
790.489	0.0167686
790.567	0.0167200
790.646	0.0169366
790.724	0.0169234
790.802	0.0168759
790.880	0.0170904
790.958	0.0169694
791.036	0.0170923
791.114	0.0170667
791.192	0.0171795
791.271	0.0170200
791.349	0.0169660
791.427	0.0170853
791.505	0.0169381
791.583	0.0168020
791.661	0.0167281
791.739	0.0165255
791.817	0.0166475
791.896	0.0165594
791.974	0.0165608
792.052	0.0163700
792.130	0.0162290
792.208	0.0163046
792.286	0.0161594
792.364	0.0160510
792.442	0.0161584
792.521	0.0161200
792.599	0.0160601
792.677	0.0160971
792.755	0.0162135
792.833	0.0161379
792.911	0.0160847
792.989	0.0160795
793.067	0.0160832
793.146	0.0162370
793.224	0.0162161
793.302	0.0162123
793.380	0.0162918
793.458	0.0160638
793.536	0.0162993
793.614	0.0162107
793.692	0.0163791
793.771	0.0163484
793.849	0.0164430
793.927	0.0164986
794.005	0.0166205
794.083	0.0167120
794.161	0.0168514
794.239	0.0168085
794.317	0.0168545
794.396	0.0168206
794.474	0.0167903
794.552	0.0168619
794.630	0.0168421
794.708	0.0169334
794.786	0.0167903
794.864	0.0166331
794.942	0.0167439
795.021	0.0168607
795.099	0.0166121
795.177	0.0167498
795.255	0.0166611
795.333	0.0166303
795.411	0.0166933
795.489	0.0165940
795.567	0.0167271
795.646	0.0166035
795.724	0.0166090
795.802	0.0167334
795.880	0.0166740
795.958	0.0165383
796.036	0.0165315
796.114	0.0164433
796.192	0.0165325
796.271	0.0162867
796.349	0.0162431
796.427	0.0161466
796.505	0.0160663
796.583	0.0159944
796.661	0.0158879
796.739	0.0157496
796.817	0.0159416
796.896	0.0157407
796.974	0.0158183
797.052	0.0158575
797.130	0.0158469
797.208	0.0157642
797.286	0.0158469
797.364	0.0159025
797.442	0.0160294
797.521	0.0158314
797.599	0.0157998
797.677	0.0160570
797.755	0.0160338
797.833	0.0161408
797.911	0.0161920
797.989	0.0161513
798.067	0.0161749
798.146	0.0162712
798.224	0.0164423
798.302	0.0165808
798.380	0.0164830
798.458	0.0166482
798.536	0.0166898
798.614	0.0168773
798.692	0.0169813
798.771	0.0168626
798.849	0.0168301
798.927	0.0170321
799.005	0.0169791
799.083	0.0170316
799.161	0.0170895
799.239	0.0170564
799.317	0.0171122
799.396	0.0172176
799.474	0.0170728
799.552	0.0171709
799.630	0.0172301
799.708	0.0171831
799.786	0.0171265
799.864	0.0170311
799.942	0.0170607
800.021	0.0170618
800.099	0.0169310
800.177	0.0168932
800.255	0.0167713
800.333	0.0165164
800.411	0.0164452
800.489	0.0162144
800.567	0.0162509
800.646	0.0161481
800.724	0.0158755
800.802	0.0158692
800.880	0.0157134
800.958	0.0156268
801.036	0.0156619
801.114	0.0156095
801.192	0.0156349
801.271	0.0156260
801.349	0.0156452
801.427	0.0155704
801.505	0.0156103
801.583	0.0157679
801.661	0.0158281
801.739	0.0159057
801.817	0.0159867
801.896	0.0158307
801.974	0.0159354
802.052	0.0161944
802.130	0.0162194
802.208	0.0162595
802.286	0.0162469
802.364	0.0165581
802.442	0.0165523
802.521	0.0165442
802.599	0.0165636
802.677	0.0167269
802.755	0.0167641
802.833	0.0168018
802.911	0.0168350
802.989	0.0168642
803.067	0.0169133
803.146	0.0169172
803.224	0.0169495
803.302	0.0169623
803.380	0.0171559
803.458	0.0172215
803.536	0.0170432
803.614	0.0172930
803.692	0.0171885
803.771	0.0171236
803.849	0.0172748
803.927	0.0171705
804.005	0.0170744
804.083	0.0171131
804.161	0.0168768
804.239	0.0167886
804.317	0.0166820
804.396	0.0167055
804.474	0.0164492
804.552	0.0163018
804.630	0.0163706
804.708	0.0162643
804.786	0.0161397
804.864	0.0161328
804.942	0.0160432
805.021	0.0157979
805.099	0.0157471
805.177	0.0157832
805.255	0.0155877
805.333	0.0156679
805.411	0.0155326
805.489	0.0156022
805.567	0.0158505
805.646	0.0157893
805.724	0.0157544
805.802	0.0158866
805.880	0.0158458
805.958	0.0159615
806.036	0.0160911
806.114	0.0161595
806.192	0.0162234
806.271	0.0163704
806.349	0.0163010
806.427	0.0163935
806.505	0.0164493
806.583	0.0164474
806.661	0.0166876
806.739	0.0166712
806.817	0.0166119
806.896	0.0166276
806.974	0.0168259
807.052	0.0169888
807.130	0.0169367
807.208	0.0169279
807.286	0.0170844
807.364	0.0171168
807.442	0.0172762
807.521	0.0172535
807.599	0.0173278
807.677	0.0172754
807.755	0.0172765
807.833	0.0172444
807.911	0.0172760
807.989	0.0171793
808.067	0.0173465
808.146	0.0171952
808.224	0.0172797
808.302	0.0172361
808.380	0.0170350
808.458	0.0169843
808.536	0.0169036
808.614	0.0166727
808.692	0.0165361
808.771	0.0164091
808.849	0.0161761
808.927	0.0159915
809.005	0.0159158
809.083	0.0156257
809.161	0.0154852
809.239	0.0153858
809.317	0.0152081
809.396	0.0152132
809.474	0.0151746
809.552	0.0151213
809.630	0.0151784
809.708	0.0151746
809.786	0.0152225
809.864	0.0152907
809.942	0.0153430
810.021	0.0154875
810.099	0.0155303
810.177	0.0157806
810.255	0.0159479
810.333	0.0158156
810.411	0.0161082
810.489	0.0163124
810.567	0.0163770
810.646	0.0166739
810.724	0.0168829
810.802	0.0169709
810.880	0.0171515
810.958	0.0172729
811.036	0.0174071
811.114	0.0174859
811.192	0.0174792
811.271	0.0175999
811.349	0.0177049
811.427	0.0177076
811.505	0.0178809
811.583	0.0177697
811.661	0.0177844
811.739	0.0178429
811.817	0.0177269
811.896	0.0177576
811.974	0.0178201
812.052	0.0178861
812.130	0.0178159
812.208	0.0177070
812.286	0.0177093
812.364	0.0176207
812.442	0.0176279
812.521	0.0176409
812.599	0.0173608
812.677	0.0172050
812.755	0.0170693
812.833	0.0169171
812.911	0.0166428
812.989	0.0164047
813.067	0.0162041
813.146	0.0159989
813.224	0.0157873
813.302	0.0155106
813.380	0.0150860
813.458	0.0149153
813.536	0.0147755
813.614	0.0145778
813.692	0.0143747
813.771	0.0144485
813.849	0.0141930
813.927	0.0142641
814.005	0.0142872
814.083	0.0144050
814.161	0.0144965
814.239	0.0145737
814.317	0.0147574
814.396	0.0149753
814.474	0.0151427
814.552	0.0152673
814.630	0.0156831
814.708	0.0159250
814.786	0.0160001
814.864	0.0163163
814.942	0.0164532
815.021	0.0165826
815.099	0.0166850
815.177	0.0170143
815.255	0.0170857
815.333	0.0172408
815.411	0.0174107
815.489	0.0174982
815.567	0.0174713
815.646	0.0175975
815.724	0.0179061
815.802	0.0179644
815.880	0.0180349
815.958	0.0181194
816.036	0.0181787
816.114	0.0181390
816.192	0.0183613
816.271	0.0184861
816.349	0.0183031
816.427	0.0183360
816.505	0.0183083
816.583	0.0182998
816.661	0.0181371
816.739	0.0181625
816.817	0.0179688
816.896	0.0178384
816.974	0.0175412
817.052	0.0172207
817.130	0.0169433
817.208	0.0167671
817.286	0.0165585
817.364	0.0162656
817.442	0.0160950
817.521	0.0159699
817.599	0.0156939
817.677	0.0154222
817.755	0.0152134
817.833	0.0150922
817.911	0.0148096
817.989	0.0148799
818.067	0.0147056
818.146	0.0147104
818.224	0.0146616
818.302	0.0146390
818.380	0.0147634
818.458	0.0147061
818.536	0.0146979
818.614	0.0147846
818.692	0.0150153
818.771	0.0150336
818.849	0.0153365
818.927	0.0154363
819.005	0.0155852
819.083	0.0156329
819.161	0.0158178
819.239	0.0160927
819.317	0.0162258
819.396	0.0163429
819.474	0.0165021
819.552	0.0165591
819.630	0.0166141
819.708	0.0167699
819.786	0.0168294
819.864	0.0169731
819.942	0.0171005
820.021	0.0172173
820.099	0.0172527
820.177	0.0174006
820.255	0.0175319
820.333	0.0175938
820.411	0.0176872
820.489	0.0176974
820.567	0.0176772
820.646	0.0177467
820.724	0.0179222
820.802	0.0177911
820.880	0.0177911
820.958	0.0177278
821.036	0.0176392
821.114	0.0174412
821.192	0.0174908
821.271	0.0173667
821.349	0.0172904
821.427	0.0171889
821.505	0.0169874
821.583	0.0168562
821.661	0.0165493
821.739	0.0164454
821.817	0.0162216
821.896	0.0162218
821.974	0.0160046
822.052	0.0157942
822.130	0.0157349
822.208	0.0157156
822.286	0.0156221
822.364	0.0153976
822.442	0.0154254
822.521	0.0153431
822.599	0.0152751
822.677	0.0153027
822.755	0.0153948
822.833	0.0153454
822.911	0.0153435
822.989	0.0153233
823.067	0.0156396
823.146	0.0156757
823.224	0.0156640
823.302	0.0158860
823.380	0.0160466
823.458	0.0159756
823.536	0.0162276
823.614	0.0164316
823.692	0.0164370
823.771	0.0165038
823.849	0.0167548
823.927	0.0167245
824.005	0.0168051
824.083	0.0167995
824.161	0.0169192
824.239	0.0170509
824.317	0.0170075
824.396	0.0171150
824.474	0.0171552
824.552	0.0170187
824.630	0.0172383
824.708	0.0171949
824.786	0.0171492
824.864	0.0170757
824.942	0.0169878
825.021	0.0171915
825.099	0.0171078
825.177	0.0170927
825.255	0.0170509
825.333	0.0168543
825.411	0.0168140
825.489	0.0167062
825.567	0.0167772
825.646	0.0165636
825.724	0.0164267
825.802	0.0165007
825.880	0.0163737
825.958	0.0164297
826.036	0.0163396
826.114	0.0161527
826.192	0.0161274
826.271	0.0160640
826.349	0.0161580
826.427	0.0159390
826.505	0.0159418
826.583	0.0160651
826.661	0.0159302
826.739	0.0160371
826.817	0.0159029
826.896	0.0158839
826.974	0.0159338
827.052	0.0159400
827.130	0.0159811
827.208	0.0159560
827.286	0.0159727
827.364	0.0159120
827.442	0.0160387
827.521	0.0161057
827.599	0.0161142
827.677	0.0162529
827.755	0.0162296
827.833	0.0163229
827.911	0.0164378
827.989	0.0164253
828.067	0.0164091
828.146	0.0165721
828.224	0.0167110
828.302	0.0165952
828.380	0.0167016
828.458	0.0167125
828.536	0.0166919
828.614	0.0169200
828.692	0.0169197
828.771	0.0168836
828.849	0.0170391
828.927	0.0170477
829.005	0.0170335
829.083	0.0169571
829.161	0.0170932
829.239	0.0171250
829.317	0.0170061
829.396	0.0170519
829.474	0.0170140
829.552	0.0170195
829.630	0.0169218
829.708	0.0169458
829.786	0.0169749
829.864	0.0167525
829.942	0.0167382
830.021	0.0167555
830.099	0.0166187
830.177	0.0164606
830.255	0.0164168
830.333	0.0163049
830.411	0.0161839
830.489	0.0161530
830.567	0.0160841
830.646	0.0161166
830.724	0.0159457
830.802	0.0159014
830.880	0.0160173
830.958	0.0160588
831.036	0.0158772
831.114	0.0158533
831.192	0.0160140
831.271	0.0159915
831.349	0.0159863
831.427	0.0159525
831.505	0.0158601
831.583	0.0161234
831.661	0.0161818
831.739	0.0160284
831.817	0.0161628
831.896	0.0160285
831.974	0.0163573
832.052	0.0162008
832.130	0.0161572
832.208	0.0163696
832.286	0.0163834
832.364	0.0163761
832.442	0.0164890
832.521	0.0164735
832.599	0.0167352
832.677	0.0167623
832.755	0.0166941
832.833	0.0170566
832.911	0.0170827
832.989	0.0170026
833.067	0.0170871
833.146	0.0172105
833.224	0.0170701
833.302	0.0172578
833.380	0.0170701
833.458	0.0172455
833.536	0.0171306
833.614	0.0171619
833.692	0.0170559
833.771	0.0169674
833.849	0.0169274
833.927	0.0170090
834.005	0.0168117
834.083	0.0167870
834.161	0.0167671
834.239	0.0166121
834.317	0.0164620
834.396	0.0164550
834.474	0.0164275
834.552	0.0163646
834.630	0.0161910
834.708	0.0160564
834.786	0.0161465
834.864	0.0161206
834.942	0.0160204
835.021	0.0161207
835.099	0.0161401
835.177	0.0161250
835.255	0.0161046
835.333	0.0160825
835.411	0.0161483
835.489	0.0162678
835.567	0.0162916
835.646	0.0163744
835.724	0.0162355
835.802	0.0161788
835.880	0.0161928
835.958	0.0164369
836.036	0.0165323
836.114	0.0163393
836.192	0.0163111
836.271	0.0164225
836.349	0.0162754
836.427	0.0164565
836.505	0.0163731
836.583	0.0164015
836.661	0.0163854
836.739	0.0164941
836.817	0.0165874
836.896	0.0166347
836.974	0.0166525
837.052	0.0166794
837.130	0.0169341
837.208	0.0169396
837.286	0.0169769
837.364	0.0168457
837.442	0.0169314
837.521	0.0169256
837.599	0.0170550
837.677	0.0171291
837.755	0.0168906
837.833	0.0169786
837.911	0.0170388
837.989	0.0169405
838.067	0.0168340
838.146	0.0168147
838.224	0.0169714
838.302	0.0169110
838.380	0.0166903
838.458	0.0167849
838.536	0.0168870
838.614	0.0166949
838.692	0.0165421
838.771	0.0165237
838.849	0.0164400
838.927	0.0163568
839.005	0.0162215
839.083	0.0161839
839.161	0.0161033
839.239	0.0161200
839.317	0.0159090
839.396	0.0158286
839.474	0.0158277
839.552	0.0158521
839.630	0.0156960
839.708	0.0156413
839.786	0.0155930
839.864	0.0158601
839.942	0.0157402
840.021	0.0156497
840.099	0.0156883
840.177	0.0157464
840.255	0.0158760
840.333	0.0159512
840.411	0.0161100
840.489	0.0161905
840.567	0.0161814
840.646	0.0161964
840.724	0.0164822
840.802	0.0165067
840.880	0.0166148
840.958	0.0166125
841.036	0.0167810
841.114	0.0168508
841.192	0.0169285
841.271	0.0170387
841.349	0.0170103
841.427	0.0169711
841.505	0.0170247
841.583	0.0169139
841.661	0.0170190
841.739	0.0171044
841.817	0.0169878
841.896	0.0168925
841.974	0.0169193
842.052	0.0168884
842.130	0.0168962
842.208	0.0167569
842.286	0.0168446
842.364	0.0167323
842.442	0.0165588
842.521	0.0167554
842.599	0.0167356
842.677	0.0166332
842.755	0.0165733
842.833	0.0164977
842.911	0.0166560
842.989	0.0166389
843.067	0.0165348
843.146	0.0165826
843.224	0.0165663
843.302	0.0163531
843.380	0.0163533
843.458	0.0163223
843.536	0.0163175
843.614	0.0162521
843.692	0.0160152
843.771	0.0161092
843.849	0.0161314
843.927	0.0160464
844.005	0.0157893
844.083	0.0158743
844.161	0.0159377
844.239	0.0159117
844.317	0.0159388
844.396	0.0160748
844.474	0.0158746
844.552	0.0158672
844.630	0.0158953
844.708	0.0160360
844.786	0.0160506
844.864	0.0159382
844.942	0.0161412
845.021	0.0162760
845.099	0.0162361
845.177	0.0162830
845.255	0.0162162
845.333	0.0164753
845.411	0.0163429
845.489	0.0164073
845.567	0.0164793
845.646	0.0166180
845.724	0.0165697
845.802	0.0166218
845.880	0.0166660
845.958	0.0165816
846.036	0.0166553
846.114	0.0167208
846.192	0.0167317
846.271	0.0168006
846.349	0.0167085
846.427	0.0166423
846.505	0.0168343
846.583	0.0167107
846.661	0.0167173
846.739	0.0168658
846.817	0.0168730
846.896	0.0167649
846.974	0.0167377
847.052	0.0167856
847.130	0.0168622
847.208	0.0167012
847.286	0.0166972
847.364	0.0166982
847.442	0.0166261
847.521	0.0166927
847.599	0.0166914
847.677	0.0166276
847.755	0.0165298
847.833	0.0165327
847.911	0.0164818
847.989	0.0163911
848.067	0.0161942
848.146	0.0161795
848.224	0.0161086
848.302	0.0160862
848.380	0.0161745
848.458	0.0159989
848.536	0.0159425
848.614	0.0160322
848.692	0.0161267
848.771	0.0159673
848.849	0.0158839
848.927	0.0159248
849.005	0.0159981
849.083	0.0160568
849.161	0.0159938
849.239	0.0160095
849.317	0.0161408
849.396	0.0162178
849.474	0.0162785
849.552	0.0162182
849.630	0.0162293
849.708	0.0163710
849.786	0.0163944
849.864	0.0165102
849.942	0.0164180
850.021	0.0163689
850.099	0.0165384
850.177	0.0165231
850.255	0.0167407
850.333	0.0165862
850.411	0.0167052
850.489	0.0166393
850.567	0.0166593
850.646	0.0166359
850.724	0.0166544
850.802	0.0165894
850.880	0.0165914
850.958	0.0165108
851.036	0.0165356
851.114	0.0166396
851.192	0.0165237
851.271	0.0165934
851.349	0.0166970
851.427	0.0168828
851.505	0.0166744
851.583	0.0167822
851.661	0.0166826
851.739	0.0166628
851.817	0.0166758
851.896	0.0168095
851.974	0.0167324
852.052	0.0167470
852.130	0.0166223
852.208	0.0166053
852.286	0.0166109
852.364	0.0163290
852.442	0.0162627
852.521	0.0162814
852.599	0.0164205
852.677	0.0162107
852.755	0.0161245
852.833	0.0161752
852.911	0.0161835
852.989	0.0162022
853.067	0.0161897
853.146	0.0161651
853.224	0.0162283
853.302	0.0162357
853.380	0.0162020
853.458	0.0163475
853.536	0.0162746
853.614	0.0162154
853.692	0.0163859
853.771	0.0164691
853.849	0.0163790
853.927	0.0163802
854.005	0.0165544
854.083	0.0166031
854.161	0.0165388
854.239	0.0164852
854.317	0.0166289
854.396	0.0166894
854.474	0.0166149
854.552	0.0165430
854.630	0.0166438
854.708	0.0165530
854.786	0.0165199
854.864	0.0165229
854.942	0.0167033
855.021	0.0166483
855.099	0.0165361
855.177	0.0164029
855.255	0.0164156
855.333	0.0164176
855.411	0.0164259
855.489	0.0163369
855.567	0.0162022
855.646	0.0162881
855.724	0.0163070
855.802	0.0161925
855.880	0.0163988
855.958	0.0163272
856.036	0.0164760
856.114	0.0161905
856.192	0.0163187
856.271	0.0163947
856.349	0.0164140
856.427	0.0165672
856.505	0.0164915
856.583	0.0165228
856.661	0.0166290
856.739	0.0166330
856.817	0.0165622
856.896	0.0166193
856.974	0.0165023
857.052	0.0164549
857.130	0.0165298
857.208	0.0164789
857.286	0.0164516
857.364	0.0164581
857.442	0.0163723
857.521	0.0163297
857.599	0.0162947
857.677	0.0165981
857.755	0.0163823
857.833	0.0163834
857.911	0.0164600
857.989	0.0165865
858.067	0.0165313
858.146	0.0164861
858.224	0.0165949
858.302	0.0164751
858.380	0.0165778
858.458	0.0166183
858.536	0.0165719
858.614	0.0166023
858.692	0.0166750
858.771	0.0167756
858.849	0.0167085
858.927	0.0166739
859.005	0.0167195
859.083	0.0167249
859.161	0.0167079
859.239	0.0166824
859.317	0.0167541
859.396	0.0166914
859.474	0.0166422
859.552	0.0166888
859.630	0.0165964
859.708	0.0164450
859.786	0.0166454
859.864	0.0165224
859.942	0.0164057
860.021	0.0164480
860.099	0.0163326
860.177	0.0163476
860.255	0.0162618
860.333	0.0161400
860.411	0.0161445
860.489	0.0161840
860.567	0.0163012
860.646	0.0161904
860.724	0.0160947
860.802	0.0161843
860.880	0.0161160
860.958	0.0161233
861.036	0.0161383
861.114	0.0160722
861.192	0.0161379
861.271	0.0161251
861.349	0.0161252
861.427	0.0160938
861.505	0.0161570
861.583	0.0161537
861.661	0.0161934
861.739	0.0161699
861.817	0.0161035
861.896	0.0163112
861.974	0.0162092
862.052	0.0163972
862.130	0.0165823
862.208	0.0163749
862.286	0.0163460
862.364	0.0165917
862.442	0.0164473
862.521	0.0165292
862.599	0.0166634
862.677	0.0166208
862.755	0.0166373
862.833	0.0166286
862.911	0.0165341
862.989	0.0164773
863.067	0.0165817
863.146	0.0166657
863.224	0.0166560
863.302	0.0167404
863.380	0.0167155
863.458	0.0167322
863.536	0.0167604
863.614	0.0168645
863.692	0.0168218
863.771	0.0167160
863.849	0.0168367
863.927	0.0167637
864.005	0.0167472
864.083	0.0167833
864.161	0.0168189
864.239	0.0165401
864.317	0.0166881
864.396	0.0167295
864.474	0.0164550
864.552	0.0164841
864.630	0.0165644
864.708	0.0165150
864.786	0.0163033
864.864	0.0164773
864.942	0.0164401
865.021	0.0163247
865.099	0.0163001
865.177	0.0164080
865.255	0.0165263
865.333	0.0163764
865.411	0.0163844
865.489	0.0165053
865.567	0.0163986
865.646	0.0162905
865.724	0.0162055
865.802	0.0163268
865.880	0.0163641
865.958	0.0161807
866.036	0.0162529
866.114	0.0162836
866.192	0.0162759
866.271	0.0161620
866.349	0.0160983
866.427	0.0162456
866.505	0.0161037
866.583	0.0161578
866.661	0.0160880
866.739	0.0161566
866.817	0.0160911
866.896	0.0162053
866.974	0.0161901
867.052	0.0161288
867.130	0.0162038
867.208	0.0162421
867.286	0.0162847
867.364	0.0163824
867.442	0.0164226
867.521	0.0163621
867.599	0.0164823
867.677	0.0163973
867.755	0.0164799
867.833	0.0165623
867.911	0.0166353
867.989	0.0165203
868.067	0.0166725
868.146	0.0166882
868.224	0.0166583
868.302	0.0167094
868.380	0.0165742
868.458	0.0168256
868.536	0.0168170
868.614	0.0167727
868.692	0.0167922
868.771	0.0168091
868.849	0.0167018
868.927	0.0168233
869.005	0.0166817
869.083	0.0166081
869.161	0.0167089
869.239	0.0164890
869.317	0.0165122
869.396	0.0165892
869.474	0.0166348
869.552	0.0164355
869.630	0.0163614
869.708	0.0164129
869.786	0.0164131
869.864	0.0165361
869.942	0.0164365
