06/03/2022	15:37:21	Ver.	4.1	UNKNOWN
Optical Delay	550.020508	Delta X		0.078125	Sweeps	1	Scan Rate	0/0
Coordinates	Axis 1	NaN	Axis 2	NaN	Axis 3	NaN	Axis 4	NaN	Axis 5	NaN	Axis 6	0.000000
TX Power	0.000000	RX Power	0.000000

550.021	0.0160413
550.099	0.0159623
550.177	0.0160461
550.255	0.0159849
550.333	0.0161720
550.411	0.0159918
550.489	0.0159267
550.567	0.0160796
550.646	0.0160549
550.724	0.0161180
550.802	0.0160552
550.880	0.0158451
550.958	0.0160800
551.036	0.0159849
551.114	0.0160479
551.192	0.0159389
551.271	0.0160543
551.349	0.0159301
551.427	0.0159619
551.505	0.0160119
551.583	0.0160938
551.661	0.0161154
551.739	0.0160140
551.817	0.0159177
551.896	0.0161665
551.974	0.0160462
552.052	0.0159423
552.130	0.0160838
552.208	0.0160132
552.286	0.0160738
552.364	0.0161095
552.442	0.0159332
552.521	0.0161836
552.599	0.0159065
552.677	0.0160113
552.755	0.0160702
552.833	0.0161608
552.911	0.0158881
552.989	0.0160649
553.067	0.0159891
553.146	0.0160359
553.224	0.0160018
553.302	0.0160297
553.380	0.0160764
553.458	0.0160426
553.536	0.0158419
553.614	0.0159917
553.692	0.0160703
553.771	0.0159991
553.849	0.0160455
553.927	0.0160186
554.005	0.0160291
554.083	0.0160101
554.161	0.0161179
554.239	0.0160635
554.317	0.0161122
554.396	0.0160451
554.474	0.0158990
554.552	0.0158842
554.630	0.0161700
554.708	0.0160770
554.786	0.0159597
554.864	0.0160826
554.942	0.0158086
555.021	0.0160415
555.099	0.0160093
555.177	0.0159428
555.255	0.0159512
555.333	0.0160703
555.411	0.0161467
555.489	0.0160529
555.567	0.0159294
555.646	0.0161192
555.724	0.0159288
555.802	0.0158681
555.880	0.0160649
555.958	0.0159938
556.036	0.0159667
556.114	0.0160526
556.192	0.0160477
556.271	0.0161456
556.349	0.0160840
556.427	0.0159819
556.505	0.0159463
556.583	0.0160030
556.661	0.0159422
556.739	0.0160162
556.817	0.0159588
556.896	0.0159460
556.974	0.0160819
557.052	0.0160174
557.130	0.0161872
557.208	0.0161253
557.286	0.0160213
557.364	0.0159879
557.442	0.0160445
557.521	0.0160526
557.599	0.0161729
557.677	0.0159631
557.755	0.0158991
557.833	0.0160312
557.911	0.0161279
557.989	0.0159950
558.067	0.0161551
558.146	0.0160764
558.224	0.0160536
558.302	0.0160757
558.380	0.0161421
558.458	0.0160966
558.536	0.0161499
558.614	0.0161446
558.692	0.0160233
558.771	0.0160037
558.849	0.0160587
558.927	0.0160735
559.005	0.0160239
559.083	0.0161266
559.161	0.0159713
559.239	0.0160382
559.317	0.0161397
559.396	0.0160235
559.474	0.0160957
559.552	0.0160455
559.630	0.0159054
559.708	0.0160016
559.786	0.0159985
559.864	0.0161630
559.942	0.0161773
560.021	0.0160739
560.099	0.0158946
560.177	0.0160916
560.255	0.0160347
560.333	0.0160339
560.411	0.0160784
560.489	0.0160944
560.567	0.0160387
560.646	0.0159100
560.724	0.0159319
560.802	0.0161126
560.880	0.0161383
560.958	0.0159037
561.036	0.0159371
561.114	0.0159634
561.192	0.0159190
561.271	0.0160293
561.349	0.0160011
561.427	0.0160542
561.505	0.0161239
561.583	0.0159970
561.661	0.0160017
561.739	0.0161370
561.817	0.0159893
561.896	0.0160653
561.974	0.0161339
562.052	0.0160231
562.130	0.0160287
562.208	0.0160238
562.286	0.0159958
562.364	0.0160814
562.442	0.0159261
562.521	0.0160614
562.599	0.0161439
562.677	0.0160571
562.755	0.0160846
562.833	0.0161656
562.911	0.0161530
562.989	0.0160648
563.067	0.0162025
563.146	0.0161002
563.224	0.0159298
563.302	0.0160559
563.380	0.0160758
563.458	0.0160709
563.536	0.0159862
563.614	0.0160084
563.692	0.0160487
563.771	0.0162237
563.849	0.0161322
563.927	0.0159948
564.005	0.0159599
564.083	0.0161892
564.161	0.0159906
564.239	0.0160722
564.317	0.0161339
564.396	0.0161065
564.474	0.0159668
564.552	0.0160282
564.630	0.0160239
564.708	0.0159638
564.786	0.0161884
564.864	0.0160408
564.942	0.0158430
565.021	0.0159835
565.099	0.0160543
565.177	0.0158691
565.255	0.0160823
565.333	0.0161684
565.411	0.0159681
565.489	0.0160958
565.567	0.0160955
565.646	0.0160215
565.724	0.0159155
565.802	0.0159897
565.880	0.0159974
565.958	0.0159241
566.036	0.0159361
566.114	0.0160461
566.192	0.0159872
566.271	0.0160265
566.349	0.0160557
566.427	0.0160474
566.505	0.0160405
566.583	0.0160533
566.661	0.0160511
566.739	0.0160693
566.817	0.0159672
566.896	0.0159777
566.974	0.0160093
567.052	0.0159491
567.130	0.0161410
567.208	0.0160975
567.286	0.0159055
567.364	0.0159552
567.442	0.0161539
567.521	0.0159970
567.599	0.0160310
567.677	0.0161739
567.755	0.0160725
567.833	0.0160909
567.911	0.0160079
567.989	0.0159799
568.067	0.0160323
568.146	0.0160125
568.224	0.0160018
568.302	0.0161164
568.380	0.0159766
568.458	0.0158456
568.536	0.0160056
568.614	0.0161652
568.692	0.0160491
568.771	0.0158836
568.849	0.0158340
568.927	0.0160103
569.005	0.0160014
569.083	0.0160832
569.161	0.0160705
569.239	0.0160435
569.317	0.0160359
569.396	0.0160606
569.474	0.0158913
569.552	0.0159270
569.630	0.0160086
569.708	0.0161331
569.786	0.0160421
569.864	0.0160635
569.942	0.0161423
570.021	0.0160191
570.099	0.0159844
570.177	0.0160313
570.255	0.0159730
570.333	0.0158894
570.411	0.0159641
570.489	0.0160435
570.567	0.0160960
570.646	0.0159128
570.724	0.0160094
570.802	0.0160442
570.880	0.0159457
570.958	0.0159264
571.036	0.0160448
571.114	0.0159800
571.192	0.0159807
571.271	0.0159824
571.349	0.0159422
571.427	0.0160520
571.505	0.0159734
571.583	0.0160074
571.661	0.0159887
571.739	0.0160036
571.817	0.0160654
571.896	0.0161649
571.974	0.0161792
572.052	0.0159340
572.130	0.0159221
572.208	0.0160003
572.286	0.0160747
572.364	0.0159882
572.442	0.0159927
572.521	0.0160771
572.599	0.0160264
572.677	0.0160360
572.755	0.0159965
572.833	0.0159074
572.911	0.0162309
572.989	0.0160477
573.067	0.0160255
573.146	0.0161237
573.224	0.0160374
573.302	0.0160797
573.380	0.0159683
573.458	0.0160964
573.536	0.0160168
573.614	0.0161292
573.692	0.0160796
573.771	0.0159438
573.849	0.0160184
573.927	0.0159969
574.005	0.0160901
574.083	0.0158855
574.161	0.0160376
574.239	0.0160449
574.317	0.0161357
574.396	0.0159876
574.474	0.0160194
574.552	0.0160235
574.630	0.0159551
574.708	0.0160855
574.786	0.0160844
574.864	0.0160228
574.942	0.0160049
575.021	0.0159966
575.099	0.0161079
575.177	0.0161656
575.255	0.0161497
575.333	0.0159627
575.411	0.0159010
575.489	0.0161198
575.567	0.0160411
575.646	0.0160730
575.724	0.0160347
575.802	0.0160656
575.880	0.0158948
575.958	0.0159892
576.036	0.0160687
576.114	0.0161228
576.192	0.0161690
576.271	0.0159560
576.349	0.0161432
576.427	0.0161019
576.505	0.0160259
576.583	0.0160294
576.661	0.0160787
576.739	0.0161729
576.817	0.0160853
576.896	0.0160448
576.974	0.0160324
577.052	0.0160376
577.130	0.0161182
577.208	0.0161771
577.286	0.0159319
577.364	0.0160511
577.442	0.0161568
577.521	0.0160301
577.599	0.0160519
577.677	0.0161319
577.755	0.0160827
577.833	0.0160509
577.911	0.0160690
577.989	0.0159723
578.067	0.0160100
578.146	0.0161488
578.224	0.0160694
578.302	0.0161507
578.380	0.0159520
578.458	0.0160021
578.536	0.0160432
578.614	0.0160992
578.692	0.0160849
578.771	0.0160676
578.849	0.0160816
578.927	0.0160644
579.005	0.0161629
579.083	0.0159586
579.161	0.0160925
579.239	0.0160526
579.317	0.0160269
579.396	0.0160773
579.474	0.0160502
579.552	0.0160988
579.630	0.0161462
579.708	0.0161246
579.786	0.0160491
579.864	0.0160554
579.942	0.0161050
580.021	0.0160998
580.099	0.0160954
580.177	0.0160354
580.255	0.0160368
580.333	0.0160136
580.411	0.0159864
580.489	0.0160650
580.567	0.0159830
580.646	0.0160325
580.724	0.0160146
580.802	0.0160007
580.880	0.0161457
580.958	0.0161845
581.036	0.0160027
581.114	0.0160554
581.192	0.0159782
581.271	0.0159275
581.349	0.0161373
581.427	0.0160281
581.505	0.0161272
581.583	0.0160258
581.661	0.0160616
581.739	0.0160406
581.817	0.0161404
581.896	0.0161494
581.974	0.0159763
582.052	0.0160653
582.130	0.0160023
582.208	0.0160837
582.286	0.0161305
582.364	0.0160796
582.442	0.0160656
582.521	0.0161094
582.599	0.0160038
582.677	0.0160513
582.755	0.0161707
582.833	0.0159274
582.911	0.0160667
582.989	0.0160407
583.067	0.0159313
583.146	0.0160500
583.224	0.0160374
583.302	0.0160138
583.380	0.0160543
583.458	0.0161928
583.536	0.0161018
583.614	0.0160542
583.692	0.0160264
583.771	0.0160270
583.849	0.0159995
583.927	0.0160722
584.005	0.0161895
584.083	0.0161911
584.161	0.0160697
584.239	0.0160510
584.317	0.0159892
584.396	0.0160291
584.474	0.0160204
584.552	0.0160348
584.630	0.0159737
584.708	0.0159560
584.786	0.0160694
584.864	0.0161216
584.942	0.0160302
585.021	0.0159218
585.099	0.0160493
585.177	0.0160677
585.255	0.0158377
585.333	0.0160416
585.411	0.0161160
585.489	0.0161398
585.567	0.0159772
585.646	0.0159547
585.724	0.0159639
585.802	0.0160869
585.880	0.0159602
585.958	0.0160120
586.036	0.0160248
586.114	0.0160265
586.192	0.0160813
586.271	0.0160013
586.349	0.0159949
586.427	0.0159775
586.505	0.0161000
586.583	0.0160864
586.661	0.0159801
586.739	0.0160210
586.817	0.0160192
586.896	0.0159692
586.974	0.0159631
587.052	0.0160497
587.130	0.0159953
587.208	0.0159721
587.286	0.0160155
587.364	0.0160049
587.442	0.0159772
587.521	0.0159874
587.599	0.0161214
587.677	0.0160560
587.755	0.0159596
587.833	0.0159215
587.911	0.0160139
587.989	0.0161890
588.067	0.0160153
588.146	0.0160439
588.224	0.0160641
588.302	0.0160682
588.380	0.0160835
588.458	0.0160625
588.536	0.0160518
588.614	0.0158530
588.692	0.0160860
588.771	0.0161374
588.849	0.0160601
588.927	0.0160278
589.005	0.0160401
589.083	0.0160087
589.161	0.0161559
589.239	0.0160634
589.317	0.0159074
589.396	0.0160573
589.474	0.0160209
589.552	0.0161281
589.630	0.0159996
589.708	0.0159747
589.786	0.0161044
589.864	0.0161441
589.942	0.0161877
590.021	0.0160375
590.099	0.0159133
590.177	0.0161162
590.255	0.0160136
590.333	0.0159196
590.411	0.0160271
590.489	0.0161153
590.567	0.0160271
590.646	0.0160406
590.724	0.0160696
590.802	0.0160768
590.880	0.0160490
590.958	0.0161365
591.036	0.0160674
591.114	0.0159793
591.192	0.0161029
591.271	0.0160635
591.349	0.0160240
591.427	0.0161204
591.505	0.0160529
591.583	0.0160361
591.661	0.0160242
591.739	0.0159034
591.817	0.0160957
591.896	0.0161053
591.974	0.0160498
592.052	0.0161053
592.130	0.0159444
592.208	0.0160608
592.286	0.0159598
592.364	0.0158888
592.442	0.0161546
592.521	0.0161278
592.599	0.0158920
592.677	0.0159932
592.755	0.0161408
592.833	0.0160604
592.911	0.0159834
592.989	0.0161075
593.067	0.0160558
593.146	0.0160460
593.224	0.0160507
593.302	0.0161198
593.380	0.0160902
593.458	0.0160157
593.536	0.0160609
593.614	0.0159353
593.692	0.0160757
593.771	0.0161106
593.849	0.0160052
593.927	0.0160100
594.005	0.0160165
594.083	0.0160461
594.161	0.0161678
594.239	0.0160562
594.317	0.0160852
594.396	0.0160563
594.474	0.0160855
594.552	0.0161292
594.630	0.0159965
594.708	0.0159845
594.786	0.0160937
594.864	0.0160051
594.942	0.0160005
595.021	0.0161537
595.099	0.0161374
595.177	0.0159904
595.255	0.0159416
595.333	0.0159907
595.411	0.0160937
595.489	0.0161462
595.567	0.0160968
595.646	0.0159335
595.724	0.0160506
595.802	0.0159853
595.880	0.0160574
595.958	0.0161771
596.036	0.0160423
596.114	0.0160149
596.192	0.0159480
596.271	0.0160300
596.349	0.0161090
596.427	0.0162122
596.505	0.0159763
596.583	0.0160529
596.661	0.0160988
596.739	0.0160732
596.817	0.0160927
596.896	0.0160525
596.974	0.0160896
597.052	0.0160054
597.130	0.0159548
597.208	0.0160596
597.286	0.0160889
597.364	0.0160974
597.442	0.0159705
597.521	0.0160611
597.599	0.0159356
597.677	0.0161445
597.755	0.0161773
597.833	0.0160915
597.911	0.0160268
597.989	0.0160455
598.067	0.0161283
598.146	0.0160368
598.224	0.0160815
598.302	0.0161593
598.380	0.0160007
598.458	0.0160496
598.536	0.0161183
598.614	0.0159280
598.692	0.0159235
598.771	0.0159386
598.849	0.0160772
598.927	0.0160220
599.005	0.0160944
599.083	0.0161206
599.161	0.0160740
599.239	0.0160731
599.317	0.0161401
599.396	0.0160044
599.474	0.0159785
599.552	0.0160112
599.630	0.0160095
599.708	0.0160534
599.786	0.0160853
599.864	0.0160392
599.942	0.0160790
600.021	0.0160603
600.099	0.0161306
600.177	0.0160217
600.255	0.0159686
600.333	0.0160196
600.411	0.0161418
600.489	0.0160623
600.567	0.0160532
600.646	0.0159844
600.724	0.0161001
600.802	0.0160999
600.880	0.0163031
600.958	0.0159693
601.036	0.0161234
601.114	0.0161737
601.192	0.0162048
601.271	0.0160947
601.349	0.0160174
601.427	0.0161137
601.505	0.0160889
601.583	0.0160388
601.661	0.0161657
601.739	0.0159757
601.817	0.0159534
601.896	0.0163178
601.974	0.0160982
602.052	0.0159869
602.130	0.0160663
602.208	0.0160521
602.286	0.0160558
602.364	0.0160285
602.442	0.0161030
602.521	0.0160178
602.599	0.0159927
602.677	0.0160461
602.755	0.0160859
602.833	0.0159131
602.911	0.0160586
602.989	0.0160423
603.067	0.0159525
603.146	0.0160807
603.224	0.0160376
603.302	0.0161110
603.380	0.0162349
603.458	0.0160580
603.536	0.0160174
603.614	0.0159871
603.692	0.0161289
603.771	0.0160692
603.849	0.0160459
603.927	0.0159495
604.005	0.0160578
604.083	0.0159596
604.161	0.0160281
604.239	0.0161057
604.317	0.0161034
604.396	0.0161481
604.474	0.0158800
604.552	0.0159538
604.630	0.0159745
604.708	0.0161205
604.786	0.0160051
604.864	0.0160979
604.942	0.0159996
605.021	0.0160676
605.099	0.0160293
605.177	0.0159996
605.255	0.0160880
605.333	0.0159464
605.411	0.0160827
605.489	0.0160979
605.567	0.0161582
605.646	0.0161999
605.724	0.0159050
605.802	0.0160606
605.880	0.0160072
605.958	0.0160738
606.036	0.0161745
606.114	0.0162750
606.192	0.0160480
606.271	0.0159305
606.349	0.0161340
606.427	0.0160578
606.505	0.0159682
606.583	0.0160787
606.661	0.0160223
606.739	0.0161123
606.817	0.0160463
606.896	0.0159986
606.974	0.0161267
607.052	0.0160786
607.130	0.0160550
607.208	0.0159724
607.286	0.0160316
607.364	0.0159653
607.442	0.0160828
607.521	0.0161667
607.599	0.0159972
607.677	0.0159961
607.755	0.0160920
607.833	0.0160422
607.911	0.0160449
607.989	0.0160518
608.067	0.0159706
608.146	0.0160811
608.224	0.0161795
608.302	0.0161272
608.380	0.0160370
608.458	0.0160718
608.536	0.0160315
608.614	0.0160517
608.692	0.0160461
608.771	0.0160653
608.849	0.0160697
608.927	0.0159261
609.005	0.0158905
609.083	0.0158964
609.161	0.0160568
609.239	0.0162360
609.317	0.0160997
609.396	0.0159347
609.474	0.0160750
609.552	0.0160924
609.630	0.0159115
609.708	0.0160070
609.786	0.0160626
609.864	0.0160736
609.942	0.0161632
610.021	0.0160583
610.099	0.0160073
610.177	0.0159560
610.255	0.0159600
610.333	0.0161050
610.411	0.0160979
610.489	0.0160725
610.567	0.0160321
610.646	0.0160502
610.724	0.0161041
610.802	0.0160774
610.880	0.0161287
610.958	0.0161625
611.036	0.0159911
611.114	0.0160384
611.192	0.0161918
611.271	0.0161126
611.349	0.0160165
611.427	0.0160377
611.505	0.0160240
611.583	0.0160146
611.661	0.0160446
611.739	0.0161101
611.817	0.0161709
611.896	0.0161107
611.974	0.0160228
612.052	0.0159519
612.130	0.0160719
612.208	0.0161102
612.286	0.0160503
612.364	0.0161420
612.442	0.0160505
612.521	0.0160351
612.599	0.0161385
612.677	0.0161211
612.755	0.0160491
612.833	0.0160243
612.911	0.0160206
612.989	0.0160865
613.067	0.0160671
613.146	0.0160494
613.224	0.0160126
613.302	0.0160810
613.380	0.0161703
613.458	0.0160188
613.536	0.0160194
613.614	0.0161048
613.692	0.0159026
613.771	0.0159531
613.849	0.0160311
613.927	0.0160615
614.005	0.0160036
614.083	0.0161996
614.161	0.0160383
614.239	0.0160162
614.317	0.0159772
614.396	0.0160397
614.474	0.0160143
614.552	0.0160028
614.630	0.0162052
614.708	0.0160664
614.786	0.0159290
614.864	0.0159281
614.942	0.0161099
615.021	0.0160428
615.099	0.0161288
615.177	0.0160932
615.255	0.0160679
615.333	0.0160574
615.411	0.0160783
615.489	0.0160559
615.567	0.0159901
615.646	0.0161119
615.724	0.0161145
615.802	0.0160699
615.880	0.0159521
615.958	0.0160338
616.036	0.0162585
616.114	0.0159881
616.192	0.0159818
616.271	0.0159782
616.349	0.0161420
616.427	0.0161806
616.505	0.0161269
616.583	0.0159240
616.661	0.0160073
616.739	0.0160919
616.817	0.0159898
616.896	0.0160563
616.974	0.0161396
617.052	0.0160229
617.130	0.0159845
617.208	0.0159591
617.286	0.0159892
617.364	0.0159995
617.442	0.0160347
617.521	0.0160188
617.599	0.0160480
617.677	0.0159072
617.755	0.0159185
617.833	0.0160252
617.911	0.0159599
617.989	0.0158188
618.067	0.0159333
618.146	0.0161904
618.224	0.0161160
618.302	0.0159847
618.380	0.0160818
618.458	0.0159474
618.536	0.0159072
618.614	0.0160960
618.692	0.0161457
618.771	0.0160618
618.849	0.0161965
618.927	0.0159961
619.005	0.0159244
619.083	0.0160445
619.161	0.0161155
619.239	0.0160575
619.317	0.0161246
619.396	0.0159929
619.474	0.0161208
619.552	0.0160941
619.630	0.0160682
619.708	0.0159676
619.786	0.0160799
619.864	0.0160704
619.942	0.0160483
620.021	0.0160709
620.099	0.0160311
620.177	0.0159897
620.255	0.0160432
620.333	0.0159795
620.411	0.0161073
620.489	0.0161079
620.567	0.0161788
620.646	0.0159748
620.724	0.0159332
620.802	0.0161059
620.880	0.0161384
620.958	0.0160197
621.036	0.0159914
621.114	0.0160360
621.192	0.0160925
621.271	0.0159888
621.349	0.0160341
621.427	0.0159957
621.505	0.0159665
621.583	0.0161118
621.661	0.0161387
621.739	0.0160276
621.817	0.0160377
621.896	0.0160481
621.974	0.0160352
622.052	0.0160194
622.130	0.0159665
622.208	0.0160381
622.286	0.0160815
622.364	0.0160680
622.442	0.0160835
622.521	0.0159867
622.599	0.0160872
622.677	0.0161324
622.755	0.0160583
622.833	0.0160918
622.911	0.0160052
622.989	0.0159988
623.067	0.0160538
623.146	0.0161108
623.224	0.0161715
623.302	0.0161923
623.380	0.0160425
623.458	0.0161272
623.536	0.0159967
623.614	0.0160706
623.692	0.0160616
623.771	0.0161189
623.849	0.0160715
623.927	0.0161066
624.005	0.0160806
624.083	0.0159211
624.161	0.0160416
624.239	0.0161609
624.317	0.0159903
624.396	0.0159573
624.474	0.0161080
624.552	0.0161285
624.630	0.0161237
624.708	0.0160728
624.786	0.0160651
624.864	0.0160178
624.942	0.0161301
625.021	0.0160725
625.099	0.0160052
625.177	0.0160689
625.255	0.0161492
625.333	0.0161084
625.411	0.0160652
625.489	0.0161160
625.567	0.0160486
625.646	0.0160886
625.724	0.0161034
625.802	0.0159878
625.880	0.0160421
625.958	0.0161138
626.036	0.0161456
626.114	0.0160094
626.192	0.0159727
626.271	0.0160780
626.349	0.0160990
626.427	0.0162511
626.505	0.0160842
626.583	0.0159911
626.661	0.0160511
626.739	0.0159843
626.817	0.0160851
626.896	0.0161612
626.974	0.0161285
627.052	0.0161025
627.130	0.0159978
627.208	0.0158990
627.286	0.0161117
627.364	0.0161304
627.442	0.0160825
627.521	0.0161552
627.599	0.0160630
627.677	0.0159805
627.755	0.0161549
627.833	0.0161387
627.911	0.0160852
627.989	0.0159137
628.067	0.0160611
628.146	0.0160706
628.224	0.0161057
628.302	0.0160764
628.380	0.0160545
628.458	0.0161017
628.536	0.0160934
628.614	0.0160810
628.692	0.0160780
628.771	0.0159959
628.849	0.0160899
628.927	0.0159959
629.005	0.0159177
629.083	0.0161137
629.161	0.0161237
629.239	0.0158801
629.317	0.0160809
629.396	0.0159898
629.474	0.0160688
629.552	0.0159912
629.630	0.0159247
629.708	0.0159364
629.786	0.0160920
629.864	0.0159454
629.942	0.0160239
630.021	0.0160352
630.099	0.0160226
630.177	0.0160721
630.255	0.0161375
630.333	0.0159857
630.411	0.0161111
630.489	0.0160675
630.567	0.0160258
630.646	0.0160046
630.724	0.0160932
630.802	0.0159908
630.880	0.0159935
630.958	0.0159979
631.036	0.0161024
631.114	0.0160383
631.192	0.0159681
631.271	0.0159897
631.349	0.0159928
631.427	0.0160912
631.505	0.0159786
631.583	0.0160556
631.661	0.0161242
631.739	0.0160673
631.817	0.0160326
631.896	0.0160619
631.974	0.0160667
632.052	0.0161083
632.130	0.0160428
632.208	0.0161276
632.286	0.0160600
632.364	0.0160407
632.442	0.0160728
632.521	0.0160478
632.599	0.0159644
632.677	0.0159563
632.755	0.0161494
632.833	0.0160127
632.911	0.0160684
632.989	0.0161388
633.067	0.0160368
633.146	0.0160571
633.224	0.0161377
633.302	0.0159753
633.380	0.0160445
633.458	0.0160520
633.536	0.0160911
633.614	0.0159132
633.692	0.0160429
633.771	0.0159629
633.849	0.0159503
633.927	0.0159935
634.005	0.0160175
634.083	0.0160664
634.161	0.0160783
634.239	0.0160339
634.317	0.0159724
634.396	0.0160888
634.474	0.0160332
634.552	0.0159076
634.630	0.0161375
634.708	0.0161441
634.786	0.0159641
634.864	0.0161610
634.942	0.0160733
635.021	0.0159346
635.099	0.0160600
635.177	0.0160426
635.255	0.0161374
635.333	0.0162111
635.411	0.0161208
635.489	0.0161004
635.567	0.0161853
635.646	0.0161168
635.724	0.0161096
635.802	0.0160888
635.880	0.0160182
635.958	0.0160158
636.036	0.0160279
636.114	0.0161090
636.192	0.0160960
636.271	0.0160524
636.349	0.0161110
636.427	0.0160320
636.505	0.0158958
636.583	0.0161226
636.661	0.0159654
636.739	0.0160794
636.817	0.0161034
636.896	0.0160106
636.974	0.0160222
637.052	0.0160709
637.130	0.0160368
637.208	0.0160917
637.286	0.0161338
637.364	0.0160437
637.442	0.0160423
637.521	0.0161230
637.599	0.0160201
637.677	0.0159509
637.755	0.0159733
637.833	0.0159785
637.911	0.0159608
637.989	0.0160156
638.067	0.0160567
638.146	0.0161536
638.224	0.0161130
638.302	0.0160188
638.380	0.0160083
638.458	0.0158787
638.536	0.0159061
638.614	0.0161375
638.692	0.0160478
638.771	0.0158858
638.849	0.0157228
638.927	0.0160200
639.005	0.0160102
639.083	0.0160124
639.161	0.0159158
639.239	0.0159263
639.317	0.0161170
639.396	0.0158068
639.474	0.0161227
639.552	0.0161726
639.630	0.0159350
639.708	0.0161229
639.786	0.0160525
639.864	0.0160660
639.942	0.0160288
640.021	0.0161163
640.099	0.0160178
640.177	0.0160647
640.255	0.0160228
640.333	0.0161078
640.411	0.0160867
640.489	0.0161280
640.567	0.0161838
640.646	0.0160181
640.724	0.0160339
640.802	0.0161594
640.880	0.0159574
640.958	0.0160232
641.036	0.0160967
641.114	0.0161338
641.192	0.0159953
641.271	0.0160696
641.349	0.0159479
641.427	0.0160898
641.505	0.0159641
641.583	0.0161686
641.661	0.0161078
641.739	0.0160509
641.817	0.0160459
641.896	0.0159650
641.974	0.0158862
642.052	0.0160213
642.130	0.0160307
642.208	0.0159162
642.286	0.0159929
642.364	0.0160809
642.442	0.0159945
642.521	0.0160187
642.599	0.0160213
642.677	0.0160249
642.755	0.0160670
642.833	0.0158582
642.911	0.0159370
642.989	0.0159860
643.067	0.0160824
643.146	0.0159648
643.224	0.0159481
643.302	0.0160303
643.380	0.0159985
643.458	0.0158844
643.536	0.0159994
643.614	0.0160340
643.692	0.0160704
643.771	0.0160468
643.849	0.0160553
643.927	0.0160632
644.005	0.0161456
644.083	0.0159898
644.161	0.0160915
644.239	0.0160920
644.317	0.0159856
644.396	0.0161475
644.474	0.0161176
644.552	0.0160769
644.630	0.0159463
644.708	0.0160875
644.786	0.0161379
644.864	0.0161411
644.942	0.0159415
645.021	0.0161082
645.099	0.0162093
645.177	0.0162102
645.255	0.0160011
645.333	0.0160239
645.411	0.0160354
645.489	0.0161016
645.567	0.0161074
645.646	0.0160781
645.724	0.0161665
645.802	0.0161468
645.880	0.0160436
645.958	0.0160595
646.036	0.0160592
646.114	0.0160041
646.192	0.0161483
646.271	0.0159950
646.349	0.0160163
646.427	0.0161033
646.505	0.0161591
646.583	0.0159007
646.661	0.0159683
646.739	0.0160631
646.817	0.0160278
646.896	0.0160651
646.974	0.0160663
647.052	0.0160492
647.130	0.0160406
647.208	0.0160992
647.286	0.0159700
647.364	0.0160813
647.442	0.0158734
647.521	0.0159760
647.599	0.0160804
647.677	0.0159283
647.755	0.0159849
647.833	0.0160222
647.911	0.0160454
647.989	0.0159727
648.067	0.0161206
648.146	0.0160848
648.224	0.0160418
648.302	0.0159307
648.380	0.0159539
648.458	0.0160106
648.536	0.0161210
648.614	0.0161345
648.692	0.0161741
648.771	0.0159799
648.849	0.0160593
648.927	0.0161071
649.005	0.0161057
649.083	0.0161903
649.161	0.0160500
649.239	0.0159773
649.317	0.0160133
649.396	0.0162309
649.474	0.0161405
649.552	0.0160811
649.630	0.0159809
649.708	0.0160416
649.786	0.0159935
649.864	0.0160631
649.942	0.0160687
650.021	0.0160407
650.099	0.0160923
650.177	0.0160547
650.255	0.0160070
650.333	0.0159938
650.411	0.0160137
650.489	0.0161218
650.567	0.0161507
650.646	0.0160545
650.724	0.0158704
650.802	0.0160305
650.880	0.0161166
650.958	0.0159984
651.036	0.0159958
651.114	0.0161629
651.192	0.0160489
651.271	0.0159655
651.349	0.0161220
651.427	0.0160460
651.505	0.0158881
651.583	0.0161264
651.661	0.0161051
651.739	0.0159166
651.817	0.0159761
651.896	0.0160271
651.974	0.0160121
652.052	0.0161063
652.130	0.0159489
652.208	0.0159252
652.286	0.0159151
652.364	0.0159164
652.442	0.0160863
652.521	0.0160270
652.599	0.0159666
652.677	0.0160287
652.755	0.0159789
652.833	0.0161578
652.911	0.0161612
652.989	0.0158227
653.067	0.0160294
653.146	0.0161160
653.224	0.0161079
653.302	0.0160818
653.380	0.0160550
653.458	0.0160689
653.536	0.0159896
653.614	0.0160154
653.692	0.0160449
653.771	0.0159947
653.849	0.0160269
653.927	0.0159583
654.005	0.0160203
654.083	0.0159218
654.161	0.0160045
654.239	0.0161462
654.317	0.0159817
654.396	0.0160175
654.474	0.0160641
654.552	0.0160085
654.630	0.0161001
654.708	0.0159227
654.786	0.0160091
654.864	0.0161650
654.942	0.0159428
655.021	0.0158757
655.099	0.0159888
655.177	0.0160173
655.255	0.0159405
655.333	0.0160576
655.411	0.0162354
655.489	0.0160188
655.567	0.0158218
655.646	0.0160845
655.724	0.0161394
655.802	0.0159528
655.880	0.0160017
655.958	0.0159821
656.036	0.0160619
656.114	0.0160338
656.192	0.0160437
656.271	0.0160329
656.349	0.0161213
656.427	0.0158994
656.505	0.0162351
656.583	0.0160080
656.661	0.0160059
656.739	0.0157874
656.817	0.0159837
656.896	0.0160550
656.974	0.0161952
657.052	0.0160602
657.130	0.0159984
657.208	0.0160643
657.286	0.0160044
657.364	0.0159229
657.442	0.0160660
657.521	0.0159768
657.599	0.0160253
657.677	0.0158463
657.755	0.0161846
657.833	0.0160715
657.911	0.0160348
657.989	0.0160016
658.067	0.0159784
658.146	0.0161176
658.224	0.0159857
658.302	0.0160970
658.380	0.0160508
658.458	0.0161200
658.536	0.0160408
658.614	0.0160027
658.692	0.0159599
658.771	0.0161195
658.849	0.0161502
658.927	0.0161181
659.005	0.0159817
659.083	0.0160371
659.161	0.0160847
659.239	0.0161632
659.317	0.0161336
659.396	0.0161269
659.474	0.0160484
659.552	0.0159850
659.630	0.0160006
659.708	0.0160806
659.786	0.0160986
659.864	0.0160516
659.942	0.0160260
660.021	0.0160658
660.099	0.0159735
660.177	0.0160496
660.255	0.0160267
660.333	0.0161968
660.411	0.0162261
660.489	0.0158996
660.567	0.0159655
660.646	0.0160596
660.724	0.0160567
660.802	0.0160126
660.880	0.0160834
660.958	0.0160194
661.036	0.0160471
661.114	0.0159373
661.192	0.0158646
661.271	0.0160867
661.349	0.0160762
661.427	0.0161118
661.505	0.0159797
661.583	0.0160294
661.661	0.0159146
661.739	0.0160184
661.817	0.0159725
661.896	0.0159756
661.974	0.0160529
662.052	0.0161284
662.130	0.0159306
662.208	0.0161124
662.286	0.0160873
662.364	0.0158973
662.442	0.0159937
662.521	0.0160612
662.599	0.0161388
662.677	0.0161276
662.755	0.0161147
662.833	0.0159735
662.911	0.0159871
662.989	0.0160628
663.067	0.0160055
663.146	0.0159016
663.224	0.0160567
663.302	0.0160082
663.380	0.0160429
663.458	0.0160822
663.536	0.0160538
663.614	0.0161024
663.692	0.0159383
663.771	0.0160282
663.849	0.0159968
663.927	0.0160306
664.005	0.0159279
664.083	0.0158971
664.161	0.0159986
664.239	0.0159453
664.317	0.0159269
664.396	0.0161556
664.474	0.0159921
664.552	0.0159827
664.630	0.0160851
664.708	0.0160893
664.786	0.0160287
664.864	0.0159840
664.942	0.0159457
665.021	0.0161634
665.099	0.0159810
665.177	0.0161581
665.255	0.0160062
665.333	0.0160800
665.411	0.0160235
665.489	0.0160823
665.567	0.0160173
665.646	0.0159491
665.724	0.0160619
665.802	0.0160620
665.880	0.0160139
665.958	0.0160950
666.036	0.0160167
666.114	0.0160448
666.192	0.0159408
666.271	0.0158485
666.349	0.0160294
666.427	0.0160759
666.505	0.0160254
666.583	0.0160283
666.661	0.0159238
666.739	0.0160712
666.817	0.0161462
666.896	0.0159695
666.974	0.0159866
667.052	0.0159137
667.130	0.0160435
667.208	0.0160860
667.286	0.0160020
667.364	0.0159095
667.442	0.0159797
667.521	0.0160111
667.599	0.0160317
667.677	0.0160674
667.755	0.0158962
667.833	0.0159884
667.911	0.0160102
667.989	0.0159757
668.067	0.0161068
668.146	0.0161217
668.224	0.0159435
668.302	0.0160242
668.380	0.0159889
668.458	0.0160773
668.536	0.0161060
668.614	0.0161197
668.692	0.0159997
668.771	0.0161104
668.849	0.0160995
668.927	0.0160167
669.005	0.0161075
669.083	0.0160270
669.161	0.0160965
669.239	0.0160176
669.317	0.0160616
669.396	0.0160848
669.474	0.0160258
669.552	0.0159774
669.630	0.0160281
669.708	0.0160284
669.786	0.0160981
669.864	0.0160394
669.942	0.0160880
670.021	0.0159946
670.099	0.0161582
670.177	0.0160722
670.255	0.0160736
670.333	0.0160828
670.411	0.0160575
670.489	0.0158988
670.567	0.0159480
670.646	0.0160503
670.724	0.0160238
670.802	0.0160631
670.880	0.0160523
670.958	0.0161838
671.036	0.0161320
671.114	0.0160313
671.192	0.0160944
671.271	0.0160992
671.349	0.0159029
671.427	0.0160872
671.505	0.0161001
671.583	0.0161089
671.661	0.0161595
671.739	0.0160841
671.817	0.0160844
671.896	0.0161293
671.974	0.0159800
672.052	0.0160903
672.130	0.0160138
672.208	0.0161525
672.286	0.0161062
672.364	0.0160406
672.442	0.0159900
672.521	0.0161335
672.599	0.0161009
672.677	0.0161434
672.755	0.0161311
672.833	0.0160406
672.911	0.0160638
672.989	0.0159828
673.067	0.0160178
673.146	0.0161710
673.224	0.0161720
673.302	0.0160455
673.380	0.0161328
673.458	0.0161155
673.536	0.0160174
673.614	0.0159247
673.692	0.0159972
673.771	0.0160371
673.849	0.0161056
673.927	0.0160302
674.005	0.0160110
674.083	0.0160619
674.161	0.0160884
674.239	0.0160085
674.317	0.0158909
674.396	0.0159058
674.474	0.0161227
674.552	0.0159470
674.630	0.0159937
674.708	0.0159374
674.786	0.0160287
674.864	0.0161226
674.942	0.0162010
675.021	0.0160551
675.099	0.0160521
675.177	0.0160809
675.255	0.0160673
675.333	0.0160177
675.411	0.0160449
675.489	0.0159753
675.567	0.0160332
675.646	0.0161150
675.724	0.0159473
675.802	0.0162037
675.880	0.0161143
675.958	0.0159790
676.036	0.0160297
676.114	0.0159661
676.192	0.0161038
676.271	0.0160564
676.349	0.0161948
676.427	0.0161661
676.505	0.0161567
676.583	0.0161115
676.661	0.0159599
676.739	0.0160831
676.817	0.0159440
676.896	0.0161385
676.974	0.0162164
677.052	0.0159834
677.130	0.0159627
677.208	0.0160836
677.286	0.0160090
677.364	0.0160531
677.442	0.0161102
677.521	0.0160069
677.599	0.0159475
677.677	0.0159626
677.755	0.0159328
677.833	0.0159592
677.911	0.0160837
677.989	0.0160766
678.067	0.0159264
678.146	0.0160014
678.224	0.0160352
678.302	0.0159697
678.380	0.0160822
678.458	0.0160416
678.536	0.0161010
678.614	0.0159567
678.692	0.0158867
678.771	0.0158739
678.849	0.0159199
678.927	0.0160237
679.005	0.0159666
679.083	0.0161122
679.161	0.0160494
679.239	0.0160518
679.317	0.0159816
679.396	0.0160694
679.474	0.0161300
679.552	0.0159941
679.630	0.0159586
679.708	0.0159927
679.786	0.0159727
679.864	0.0160657
679.942	0.0160226
680.021	0.0160667
680.099	0.0159922
680.177	0.0160832
680.255	0.0159657
680.333	0.0159103
680.411	0.0158706
680.489	0.0160246
680.567	0.0160721
680.646	0.0159977
680.724	0.0160629
680.802	0.0159499
680.880	0.0160077
680.958	0.0160275
681.036	0.0161045
681.114	0.0160871
681.192	0.0159164
681.271	0.0159481
681.349	0.0162027
681.427	0.0160635
681.505	0.0159582
681.583	0.0159752
681.661	0.0159899
681.739	0.0161773
681.817	0.0162164
681.896	0.0159685
681.974	0.0160387
682.052	0.0160598
682.130	0.0161612
682.208	0.0159167
682.286	0.0160159
682.364	0.0160162
682.442	0.0159576
682.521	0.0159911
682.599	0.0160506
682.677	0.0159254
682.755	0.0158557
682.833	0.0159652
682.911	0.0160583
682.989	0.0158799
683.067	0.0159634
683.146	0.0159825
683.224	0.0159543
683.302	0.0160082
683.380	0.0160436
683.458	0.0159738
683.536	0.0158389
683.614	0.0159141
683.692	0.0159920
683.771	0.0160054
683.849	0.0159093
683.927	0.0160142
684.005	0.0159646
684.083	0.0159547
684.161	0.0160358
684.239	0.0159782
684.317	0.0158967
684.396	0.0161093
684.474	0.0160049
684.552	0.0160183
684.630	0.0160822
684.708	0.0159798
684.786	0.0159612
684.864	0.0157410
684.942	0.0159190
685.021	0.0160561
685.099	0.0160295
685.177	0.0159323
685.255	0.0158995
685.333	0.0161276
685.411	0.0159871
685.489	0.0161294
685.567	0.0161498
685.646	0.0161868
685.724	0.0161676
685.802	0.0161479
685.880	0.0161462
685.958	0.0162017
686.036	0.0159228
686.114	0.0160095
686.192	0.0160464
686.271	0.0159534
686.349	0.0158379
686.427	0.0158630
686.505	0.0158712
686.583	0.0157641
686.661	0.0158306
686.739	0.0159772
686.817	0.0160787
686.896	0.0162063
686.974	0.0161678
687.052	0.0162200
687.130	0.0163705
687.208	0.0164332
687.286	0.0163514
687.364	0.0162173
687.442	0.0162744
687.521	0.0162070
687.599	0.0158763
687.677	0.0158850
687.755	0.0156779
687.833	0.0155395
687.911	0.0154993
687.989	0.0154998
688.067	0.0155157
688.146	0.0155094
688.224	0.0156631
688.302	0.0159238
688.380	0.0161584
688.458	0.0161774
688.536	0.0165820
688.614	0.0167844
688.692	0.0169480
688.771	0.0169637
688.849	0.0167229
688.927	0.0166635
689.005	0.0165302
689.083	0.0160824
689.161	0.0158369
689.239	0.0154304
689.317	0.0151903
689.396	0.0151536
689.474	0.0151051
689.552	0.0151466
689.630	0.0152823
689.708	0.0153545
689.786	0.0157019
689.864	0.0160069
689.942	0.0162724
690.021	0.0166949
690.099	0.0168071
690.177	0.0169131
690.255	0.0171553
690.333	0.0170225
690.411	0.0167677
690.489	0.0165710
690.567	0.0161504
690.646	0.0157054
690.724	0.0154244
690.802	0.0150401
690.880	0.0151057
690.958	0.0150058
691.036	0.0150106
691.114	0.0151889
691.192	0.0153774
691.271	0.0155685
691.349	0.0158582
691.427	0.0160030
691.505	0.0163560
691.583	0.0164005
691.661	0.0166395
691.739	0.0168140
691.817	0.0168748
691.896	0.0168211
691.974	0.0167446
692.052	0.0165796
692.130	0.0163420
692.208	0.0161310
692.286	0.0159493
692.364	0.0156213
692.442	0.0155348
692.521	0.0152505
692.599	0.0151694
692.677	0.0151965
692.755	0.0152617
692.833	0.0154325
692.911	0.0157779
692.989	0.0159553
693.067	0.0161897
693.146	0.0163525
693.224	0.0165439
693.302	0.0166792
693.380	0.0166673
693.458	0.0167696
693.536	0.0166099
693.614	0.0165509
693.692	0.0162920
693.771	0.0160120
693.849	0.0158422
693.927	0.0156890
694.005	0.0156933
694.083	0.0157647
694.161	0.0157426
694.239	0.0158633
694.317	0.0159725
694.396	0.0161459
694.474	0.0161961
694.552	0.0160975
694.630	0.0161240
694.708	0.0160654
694.786	0.0162174
694.864	0.0162121
694.942	0.0159129
695.021	0.0158718
695.099	0.0157898
695.177	0.0156409
695.255	0.0157905
695.333	0.0157243
695.411	0.0157527
695.489	0.0160486
695.567	0.0160052
695.646	0.0160155
695.724	0.0162496
695.802	0.0161897
695.880	0.0162735
695.958	0.0161414
696.036	0.0160567
696.114	0.0158267
696.192	0.0159467
696.271	0.0158544
696.349	0.0155832
696.427	0.0157137
696.505	0.0158454
696.583	0.0158655
696.661	0.0160253
696.739	0.0162112
696.817	0.0164608
696.896	0.0164851
696.974	0.0166212
697.052	0.0166517
697.130	0.0168105
697.208	0.0166676
697.286	0.0167045
697.364	0.0166584
697.442	0.0164275
697.521	0.0162278
697.599	0.0160811
697.677	0.0160482
697.755	0.0157207
697.833	0.0157379
697.911	0.0155820
697.989	0.0156786
698.067	0.0154567
698.146	0.0155669
698.224	0.0156091
698.302	0.0159333
698.380	0.0158767
698.458	0.0159043
698.536	0.0160141
698.614	0.0159086
698.692	0.0157303
698.771	0.0158012
698.849	0.0156478
698.927	0.0156988
699.005	0.0155864
699.083	0.0154948
699.161	0.0154035
699.239	0.0154927
699.317	0.0156950
699.396	0.0156519
699.474	0.0158446
699.552	0.0160225
699.630	0.0163654
699.708	0.0164046
699.786	0.0163660
699.864	0.0163924
699.942	0.0166319
700.021	0.0165013
700.099	0.0165843
700.177	0.0163689
700.255	0.0163642
700.333	0.0164160
700.411	0.0163351
700.489	0.0162109
700.567	0.0161902
700.646	0.0162616
700.724	0.0160786
700.802	0.0162217
700.880	0.0162746
700.958	0.0162548
701.036	0.0162759
701.114	0.0162972
701.192	0.0163609
701.271	0.0163799
701.349	0.0162826
701.427	0.0163843
701.505	0.0163469
701.583	0.0163523
701.661	0.0163879
701.739	0.0163448
701.817	0.0164745
701.896	0.0167783
701.974	0.0165914
702.052	0.0166257
702.130	0.0168201
702.208	0.0168272
702.286	0.0168372
702.364	0.0167998
702.442	0.0166261
702.521	0.0166485
702.599	0.0162666
702.677	0.0159136
702.755	0.0156791
702.833	0.0153085
702.911	0.0149500
702.989	0.0145339
703.067	0.0141517
703.146	0.0136979
703.224	0.0135294
703.302	0.0134401
703.380	0.0134868
703.458	0.0134594
703.536	0.0137675
703.614	0.0139091
703.692	0.0142581
703.771	0.0146146
703.849	0.0151092
703.927	0.0154743
704.005	0.0157979
704.083	0.0160830
704.161	0.0162929
704.239	0.0167033
704.317	0.0168795
704.396	0.0170839
704.474	0.0172963
704.552	0.0175114
704.630	0.0175749
704.708	0.0178064
704.786	0.0179245
704.864	0.0180429
704.942	0.0181561
705.021	0.0182208
705.099	0.0184193
705.177	0.0183462
705.255	0.0183994
705.333	0.0183010
705.411	0.0179583
705.489	0.0177680
705.567	0.0172999
705.646	0.0170364
705.724	0.0166056
705.802	0.0161742
705.880	0.0157845
705.958	0.0153735
706.036	0.0151237
706.114	0.0150053
706.192	0.0148734
706.271	0.0147187
706.349	0.0148159
706.427	0.0150390
706.505	0.0151691
706.583	0.0153289
706.661	0.0153736
706.739	0.0156243
706.817	0.0157014
706.896	0.0158195
706.974	0.0160189
707.052	0.0161237
707.130	0.0162763
707.208	0.0161792
707.286	0.0165003
707.364	0.0166678
707.442	0.0166000
707.521	0.0164413
707.599	0.0164690
707.677	0.0161710
707.755	0.0157546
707.833	0.0154884
707.911	0.0149206
707.989	0.0143491
708.067	0.0137498
708.146	0.0131587
708.224	0.0126189
708.302	0.0121265
708.380	0.0118179
708.458	0.0117735
708.536	0.0117774
708.614	0.0119537
708.692	0.0123584
708.771	0.0130123
708.849	0.0135004
708.927	0.0142821
709.005	0.0151103
709.083	0.0158186
709.161	0.0166914
709.239	0.0174992
709.317	0.0179744
709.396	0.0185617
709.474	0.0189874
709.552	0.0194455
709.630	0.0197135
709.708	0.0200022
709.786	0.0204005
709.864	0.0205009
709.942	0.0204885
710.021	0.0206817
710.099	0.0206055
710.177	0.0204724
710.255	0.0205128
710.333	0.0202897
710.411	0.0201840
710.489	0.0198353
710.567	0.0194975
710.646	0.0189211
710.724	0.0183275
710.802	0.0177596
710.880	0.0169668
710.958	0.0163302
711.036	0.0156384
711.114	0.0147165
711.192	0.0143275
711.271	0.0137514
711.349	0.0134258
711.427	0.0130910
711.505	0.0129202
711.583	0.0130128
711.661	0.0130636
711.739	0.0133131
711.817	0.0136176
711.896	0.0141366
711.974	0.0146736
712.052	0.0151308
712.130	0.0157985
712.208	0.0163865
712.286	0.0169022
712.364	0.0173080
712.442	0.0175202
712.521	0.0175409
712.599	0.0173557
712.677	0.0167625
712.755	0.0160867
712.833	0.0152374
712.911	0.0142137
712.989	0.0129562
713.067	0.0117663
713.146	0.0104713
713.224	0.00951698
713.302	0.00855614
713.380	0.00776497
713.458	0.00726799
713.536	0.00727425
713.614	0.00736557
713.692	0.00775146
713.771	0.00856354
713.849	0.00945755
713.927	0.0107893
714.005	0.0121897
714.083	0.0135318
714.161	0.0151427
714.239	0.0168159
714.317	0.0183149
714.396	0.0198962
714.474	0.0213251
714.552	0.0226667
714.630	0.0238699
714.708	0.0248907
714.786	0.0256136
714.864	0.0263493
714.942	0.0267812
715.021	0.0269234
715.099	0.0270530
715.177	0.0269248
715.255	0.0265717
715.333	0.0260196
715.411	0.0251358
715.489	0.0242132
715.567	0.0232202
715.646	0.0219009
715.724	0.0207947
715.802	0.0195673
715.880	0.0184254
715.958	0.0174303
716.036	0.0164488
716.114	0.0156812
716.192	0.0150292
716.271	0.0146306
716.349	0.0144003
716.427	0.0144352
716.505	0.0141223
716.583	0.0141699
716.661	0.0141959
716.739	0.0141093
716.817	0.0139854
716.896	0.0137794
716.974	0.0133983
717.052	0.0128414
717.130	0.0121839
717.208	0.0114202
717.286	0.0103954
717.364	0.00931465
717.442	0.00828911
717.521	0.00703781
717.599	0.00572098
717.677	0.00466667
717.755	0.00350662
717.833	0.00276695
717.911	0.00225342
717.989	0.00201424
718.067	0.00216103
718.146	0.00267792
718.224	0.00349716
718.302	0.00486984
718.380	0.00654564
718.458	0.00825546
718.536	0.0105637
718.614	0.0129050
718.692	0.0154625
718.771	0.0179311
718.849	0.0201456
718.927	0.0223319
719.005	0.0244934
719.083	0.0261223
719.161	0.0276845
719.239	0.0289872
719.317	0.0297757
719.396	0.0303376
719.474	0.0305456
719.552	0.0308141
719.630	0.0305865
719.708	0.0301826
719.786	0.0294926
719.864	0.0286562
719.942	0.0277995
720.021	0.0267024
720.099	0.0254961
720.177	0.0241525
720.255	0.0229464
720.333	0.0214765
720.411	0.0203311
720.489	0.0189612
720.567	0.0177887
720.646	0.0168905
720.724	0.0158489
720.802	0.0149742
720.880	0.0142883
720.958	0.0137400
721.036	0.0132821
721.114	0.0130669
721.192	0.0125505
721.271	0.0122926
721.349	0.0118323
721.427	0.0113975
721.505	0.0108386
721.583	0.0101919
721.661	0.00947548
721.739	0.00867363
721.817	0.00780678
721.896	0.00677063
721.974	0.00611786
722.052	0.00531769
722.130	0.00476753
722.208	0.00429733
722.286	0.00418388
722.364	0.00440491
722.442	0.00488548
722.521	0.00561310
722.599	0.00662155
722.677	0.00803848
722.755	0.00959877
722.833	0.0111540
722.911	0.0130909
722.989	0.0147615
723.067	0.0165469
723.146	0.0182391
723.224	0.0198810
723.302	0.0210332
723.380	0.0221335
723.458	0.0229590
723.536	0.0235776
723.614	0.0239191
723.692	0.0241199
723.771	0.0241235
723.849	0.0240951
723.927	0.0237849
724.005	0.0236210
724.083	0.0232320
724.161	0.0229049
724.239	0.0222398
724.317	0.0217436
724.396	0.0213627
724.474	0.0208801
724.552	0.0203024
724.630	0.0197260
724.708	0.0193208
724.786	0.0189081
724.864	0.0185635
724.942	0.0182463
725.021	0.0179191
725.099	0.0179005
725.177	0.0175851
725.255	0.0172827
725.333	0.0171424
725.411	0.0168890
725.489	0.0164766
725.567	0.0161573
725.646	0.0155428
725.724	0.0151172
725.802	0.0145261
725.880	0.0139208
725.958	0.0133028
726.036	0.0126337
726.114	0.0120219
726.192	0.0114411
726.271	0.0109846
726.349	0.0103625
726.427	0.0100024
726.505	0.00984825
726.583	0.00960533
726.661	0.00945412
726.739	0.00941597
726.817	0.00973053
726.896	0.00998116
726.974	0.0105824
727.052	0.0111080
727.130	0.0119015
727.208	0.0125563
727.286	0.0135546
727.364	0.0146041
727.442	0.0154623
727.521	0.0164758
727.599	0.0173853
727.677	0.0181794
727.755	0.0187929
727.833	0.0194196
727.911	0.0199094
727.989	0.0201942
728.067	0.0204211
728.146	0.0205947
728.224	0.0204307
728.302	0.0201216
728.380	0.0201348
728.458	0.0199603
728.536	0.0196221
728.614	0.0193726
728.692	0.0189199
728.771	0.0184348
728.849	0.0183486
728.927	0.0180165
729.005	0.0177685
729.083	0.0174435
729.161	0.0172581
729.239	0.0171689
729.317	0.0172543
729.396	0.0171167
729.474	0.0172096
729.552	0.0173056
729.630	0.0173769
729.708	0.0171808
729.786	0.0170195
729.864	0.0170627
729.942	0.0169139
730.021	0.0167328
730.099	0.0164778
730.177	0.0160309
730.255	0.0157244
730.333	0.0152296
730.411	0.0149293
730.489	0.0142712
730.567	0.0137936
730.646	0.0135201
730.724	0.0131927
730.802	0.0126492
730.880	0.0123669
730.958	0.0122531
731.036	0.0120197
731.114	0.0121046
731.192	0.0121661
731.271	0.0123180
731.349	0.0124979
731.427	0.0127270
731.505	0.0130894
731.583	0.0135097
731.661	0.0138031
731.739	0.0141204
731.817	0.0145220
731.896	0.0149197
731.974	0.0152773
732.052	0.0156583
732.130	0.0160094
732.208	0.0161475
732.286	0.0163979
732.364	0.0165916
732.442	0.0165898
732.521	0.0167067
732.599	0.0168898
732.677	0.0167788
732.755	0.0170444
732.833	0.0172133
732.911	0.0172619
732.989	0.0176190
733.067	0.0177409
733.146	0.0179480
733.224	0.0179932
733.302	0.0182738
733.380	0.0184040
733.458	0.0185477
733.536	0.0187476
733.614	0.0187644
733.692	0.0189321
733.771	0.0188692
733.849	0.0189590
733.927	0.0190326
734.005	0.0188629
734.083	0.0188186
734.161	0.0188226
734.239	0.0186700
734.317	0.0185472
734.396	0.0184354
734.474	0.0181132
734.552	0.0179071
734.630	0.0175850
734.708	0.0172543
734.786	0.0168495
734.864	0.0164597
734.942	0.0161474
735.021	0.0155487
735.099	0.0150697
735.177	0.0146179
735.255	0.0142973
735.333	0.0139188
735.411	0.0137299
735.489	0.0136778
735.567	0.0135374
735.646	0.0134837
735.724	0.0136371
735.802	0.0134334
735.880	0.0136594
735.958	0.0139088
736.036	0.0138890
736.114	0.0138382
736.192	0.0139553
736.271	0.0139405
736.349	0.0139629
736.427	0.0141572
736.505	0.0140144
736.583	0.0140447
736.661	0.0139178
736.739	0.0140147
736.817	0.0142607
736.896	0.0144833
736.974	0.0144897
737.052	0.0145326
737.130	0.0147594
737.208	0.0149623
737.286	0.0152582
737.364	0.0154193
737.442	0.0156369
737.521	0.0158984
737.599	0.0162292
737.677	0.0165311
737.755	0.0166962
737.833	0.0169763
737.911	0.0172620
737.989	0.0174181
738.067	0.0177695
738.146	0.0181134
738.224	0.0183048
738.302	0.0184475
738.380	0.0186032
738.458	0.0187170
738.536	0.0187882
738.614	0.0189530
738.692	0.0190663
738.771	0.0188257
738.849	0.0188539
738.927	0.0186848
739.005	0.0186269
739.083	0.0182189
739.161	0.0181689
739.239	0.0178710
739.317	0.0174880
739.396	0.0171579
739.474	0.0168568
739.552	0.0165078
739.630	0.0161518
739.708	0.0158547
739.786	0.0156287
739.864	0.0153836
739.942	0.0152760
740.021	0.0150327
740.099	0.0150673
740.177	0.0149562
740.255	0.0151114
740.333	0.0151837
740.411	0.0150814
740.489	0.0151017
740.567	0.0149619
740.646	0.0149593
740.724	0.0149448
740.802	0.0146520
740.880	0.0144160
740.958	0.0142921
741.036	0.0143942
741.114	0.0139085
741.192	0.0137782
741.271	0.0136752
741.349	0.0137740
741.427	0.0140488
741.505	0.0141753
741.583	0.0143999
741.661	0.0145493
741.739	0.0150537
741.817	0.0152540
741.896	0.0156139
741.974	0.0159928
742.052	0.0162982
742.130	0.0165300
742.208	0.0168534
742.286	0.0169544
742.364	0.0172262
742.442	0.0171214
742.521	0.0174367
742.599	0.0174389
742.677	0.0174302
742.755	0.0174280
742.833	0.0175356
742.911	0.0173734
742.989	0.0172003
743.067	0.0170818
743.146	0.0170084
743.224	0.0170989
743.302	0.0170136
743.380	0.0170466
743.458	0.0170052
743.536	0.0169501
743.614	0.0169759
743.692	0.0169547
743.771	0.0168504
743.849	0.0168189
743.927	0.0166598
744.005	0.0165096
744.083	0.0166628
744.161	0.0163443
744.239	0.0162148
744.317	0.0162105
744.396	0.0159892
744.474	0.0157377
744.552	0.0157513
744.630	0.0155184
744.708	0.0154279
744.786	0.0153864
744.864	0.0153339
744.942	0.0152482
745.021	0.0151775
745.099	0.0150322
745.177	0.0149177
745.255	0.0147965
745.333	0.0148163
745.411	0.0145274
745.489	0.0144930
745.567	0.0143854
745.646	0.0143729
745.724	0.0142960
745.802	0.0141985
745.880	0.0142519
745.958	0.0144055
746.036	0.0146859
746.114	0.0149689
746.192	0.0151353
746.271	0.0154449
746.349	0.0158887
746.427	0.0161773
746.505	0.0165550
746.583	0.0168111
746.661	0.0171451
746.739	0.0173890
746.817	0.0175906
746.896	0.0177203
746.974	0.0178696
747.052	0.0178077
747.130	0.0179286
747.208	0.0178686
747.286	0.0177641
747.364	0.0177238
747.442	0.0175117
747.521	0.0174885
747.599	0.0173986
747.677	0.0172900
747.755	0.0171103
747.833	0.0169427
747.911	0.0167531
747.989	0.0165340
748.067	0.0165491
748.146	0.0163052
748.224	0.0159895
748.302	0.0159721
748.380	0.0157932
748.458	0.0156055
748.536	0.0155396
748.614	0.0154718
748.692	0.0151579
748.771	0.0150135
748.849	0.0148093
748.927	0.0146717
749.005	0.0146677
749.083	0.0146503
749.161	0.0145839
749.239	0.0146043
749.317	0.0145474
749.396	0.0146169
749.474	0.0145780
749.552	0.0146564
749.630	0.0147954
749.708	0.0149126
749.786	0.0149929
749.864	0.0150747
749.942	0.0152667
750.021	0.0151973
750.099	0.0154133
750.177	0.0155336
750.255	0.0154436
750.333	0.0156921
750.411	0.0158827
750.489	0.0161168
750.567	0.0162137
750.646	0.0163992
750.724	0.0165750
750.802	0.0169031
750.880	0.0169818
750.958	0.0172337
751.036	0.0173956
751.114	0.0175778
751.192	0.0177774
751.271	0.0177853
751.349	0.0178880
751.427	0.0178877
751.505	0.0176579
751.583	0.0176701
751.661	0.0176469
751.739	0.0174598
751.817	0.0171622
751.896	0.0169963
751.974	0.0168488
752.052	0.0166950
752.130	0.0164662
752.208	0.0161688
752.286	0.0159419
752.364	0.0157865
752.442	0.0156711
752.521	0.0154965
752.599	0.0152496
752.677	0.0151775
752.755	0.0148814
752.833	0.0145939
752.911	0.0145928
752.989	0.0143277
753.067	0.0143121
753.146	0.0141473
753.224	0.0141567
753.302	0.0143018
753.380	0.0142249
753.458	0.0143178
753.536	0.0142937
753.614	0.0143819
753.692	0.0145226
753.771	0.0147702
753.849	0.0148459
753.927	0.0150494
754.005	0.0152128
754.083	0.0153984
754.161	0.0155573
754.239	0.0156367
754.317	0.0160535
754.396	0.0161649
754.474	0.0163910
754.552	0.0165201
754.630	0.0167426
754.708	0.0168259
754.786	0.0170701
754.864	0.0171463
754.942	0.0171621
755.021	0.0172853
755.099	0.0172646
755.177	0.0172052
755.255	0.0173870
755.333	0.0174171
755.411	0.0173132
755.489	0.0173396
755.567	0.0171601
755.646	0.0169936
755.724	0.0172387
755.802	0.0171324
755.880	0.0171465
755.958	0.0170596
756.036	0.0172414
756.114	0.0171992
756.192	0.0170280
756.271	0.0170226
756.349	0.0169334
756.427	0.0167637
756.505	0.0166100
756.583	0.0165153
756.661	0.0164599
756.739	0.0162829
756.817	0.0160408
756.896	0.0158595
756.974	0.0158978
757.052	0.0156064
757.130	0.0154417
757.208	0.0153165
757.286	0.0153746
757.364	0.0152374
757.442	0.0149685
757.521	0.0151084
757.599	0.0150661
757.677	0.0150358
757.755	0.0150275
757.833	0.0149765
757.911	0.0149922
757.989	0.0149904
758.067	0.0149015
758.146	0.0150288
758.224	0.0150995
758.302	0.0152525
758.380	0.0152151
758.458	0.0151451
758.536	0.0152114
758.614	0.0153001
758.692	0.0154329
758.771	0.0154514
758.849	0.0154848
758.927	0.0155399
759.005	0.0157836
759.083	0.0157323
759.161	0.0159041
759.239	0.0157856
759.317	0.0158612
759.396	0.0160517
759.474	0.0161463
759.552	0.0162774
759.630	0.0162899
759.708	0.0165272
759.786	0.0167379
759.864	0.0168538
759.942	0.0169553
760.021	0.0171523
760.099	0.0171581
760.177	0.0173172
760.255	0.0172669
760.333	0.0174809
760.411	0.0174150
760.489	0.0173674
760.567	0.0172707
760.646	0.0172695
760.724	0.0170496
760.802	0.0169203
760.880	0.0166888
760.958	0.0166760
761.036	0.0164285
761.114	0.0161743
761.192	0.0159504
761.271	0.0158101
761.349	0.0154297
761.427	0.0153194
761.505	0.0153360
761.583	0.0152419
761.661	0.0149651
761.739	0.0149622
761.817	0.0150858
761.896	0.0151363
761.974	0.0150958
762.052	0.0152157
762.130	0.0153153
762.208	0.0153880
762.286	0.0155584
762.364	0.0156966
762.442	0.0156802
762.521	0.0157549
762.599	0.0159250
762.677	0.0160298
762.755	0.0160231
762.833	0.0162094
762.911	0.0163030
762.989	0.0163742
763.067	0.0164658
763.146	0.0164290
763.224	0.0164633
763.302	0.0164983
763.380	0.0164847
763.458	0.0165702
763.536	0.0167636
763.614	0.0166144
763.692	0.0166901
763.771	0.0167075
763.849	0.0168402
763.927	0.0165904
764.005	0.0167730
764.083	0.0166161
764.161	0.0166351
764.239	0.0166405
764.317	0.0166245
764.396	0.0165273
764.474	0.0165619
764.552	0.0165461
764.630	0.0165136
764.708	0.0162469
764.786	0.0161870
764.864	0.0161226
764.942	0.0160573
765.021	0.0160662
765.099	0.0157923
765.177	0.0157227
765.255	0.0156389
765.333	0.0155943
765.411	0.0155083
765.489	0.0153557
765.567	0.0152849
765.646	0.0152403
765.724	0.0151240
765.802	0.0151113
765.880	0.0154129
765.958	0.0153269
766.036	0.0153368
766.114	0.0154969
766.192	0.0154005
766.271	0.0154371
766.349	0.0155086
766.427	0.0158078
766.505	0.0156849
766.583	0.0158482
766.661	0.0158628
766.739	0.0159006
766.817	0.0159611
766.896	0.0160897
766.974	0.0160023
767.052	0.0160107
767.130	0.0162638
767.208	0.0161299
767.286	0.0160339
767.364	0.0159396
767.442	0.0162493
767.521	0.0161786
767.599	0.0162112
767.677	0.0162087
767.755	0.0163803
767.833	0.0162912
767.911	0.0162793
767.989	0.0162885
768.067	0.0163937
768.146	0.0163041
768.224	0.0164203
768.302	0.0165198
768.380	0.0164442
768.458	0.0164056
768.536	0.0165299
768.614	0.0165076
768.692	0.0164877
768.771	0.0165532
768.849	0.0166244
768.927	0.0165637
769.005	0.0164799
769.083	0.0164914
769.161	0.0164488
769.239	0.0164623
769.317	0.0163341
769.396	0.0164223
769.474	0.0162827
769.552	0.0162032
769.630	0.0162099
769.708	0.0161984
769.786	0.0159480
769.864	0.0158795
769.942	0.0158129
770.021	0.0157565
770.099	0.0156371
770.177	0.0156809
770.255	0.0155199
770.333	0.0155830
770.411	0.0154472
770.489	0.0153813
770.567	0.0153579
770.646	0.0154205
770.724	0.0154221
770.802	0.0154037
770.880	0.0153832
770.958	0.0154880
771.036	0.0155566
771.114	0.0155827
771.192	0.0155662
771.271	0.0156819
771.349	0.0157330
771.427	0.0158547
771.505	0.0159575
771.583	0.0159660
771.661	0.0158937
771.739	0.0160695
771.817	0.0160799
771.896	0.0161261
771.974	0.0161549
772.052	0.0162465
772.130	0.0161543
772.208	0.0161278
772.286	0.0162233
772.364	0.0161681
772.442	0.0162340
772.521	0.0161050
772.599	0.0160059
772.677	0.0161778
772.755	0.0161821
772.833	0.0161520
772.911	0.0161468
772.989	0.0162417
773.067	0.0161871
773.146	0.0162905
773.224	0.0161076
773.302	0.0162622
773.380	0.0163189
773.458	0.0163427
773.536	0.0163354
773.614	0.0163045
773.692	0.0162180
773.771	0.0163265
773.849	0.0163092
773.927	0.0163176
774.005	0.0161861
774.083	0.0161168
774.161	0.0162416
774.239	0.0162069
774.317	0.0161492
774.396	0.0159901
774.474	0.0160519
774.552	0.0159881
774.630	0.0157490
774.708	0.0156406
774.786	0.0157145
774.864	0.0156215
774.942	0.0154877
775.021	0.0153650
775.099	0.0153346
775.177	0.0154189
775.255	0.0153220
775.333	0.0155076
775.411	0.0155400
775.489	0.0154953
775.567	0.0155840
775.646	0.0155696
775.724	0.0157257
775.802	0.0157371
775.880	0.0157874
775.958	0.0159457
776.036	0.0159512
776.114	0.0160464
776.192	0.0160380
776.271	0.0159091
776.349	0.0159664
776.427	0.0160645
776.505	0.0160896
776.583	0.0161706
776.661	0.0160863
776.739	0.0161996
776.817	0.0160995
776.896	0.0159850
776.974	0.0161631
777.052	0.0162880
777.130	0.0163802
777.208	0.0163893
777.286	0.0162988
777.364	0.0163963
777.442	0.0165469
777.521	0.0164745
777.599	0.0164397
777.677	0.0166798
777.755	0.0166218
777.833	0.0163310
777.911	0.0164616
777.989	0.0165582
778.067	0.0163562
778.146	0.0162314
778.224	0.0160934
778.302	0.0159746
778.380	0.0160561
778.458	0.0158890
778.536	0.0158064
778.614	0.0157294
778.692	0.0156620
778.771	0.0155209
778.849	0.0154959
778.927	0.0154426
779.005	0.0156187
779.083	0.0155247
779.161	0.0157172
779.239	0.0157214
779.317	0.0158117
779.396	0.0158055
779.474	0.0158614
779.552	0.0159534
779.630	0.0161835
779.708	0.0161385
779.786	0.0163022
779.864	0.0162315
779.942	0.0163124
780.021	0.0164127
780.099	0.0163586
780.177	0.0163187
780.255	0.0162486
780.333	0.0163831
780.411	0.0164695
780.489	0.0162470
780.567	0.0162058
780.646	0.0162475
780.724	0.0161987
780.802	0.0161831
780.880	0.0161104
780.958	0.0160787
781.036	0.0160486
781.114	0.0159515
781.192	0.0160412
781.271	0.0158421
781.349	0.0156100
781.427	0.0157276
781.505	0.0157624
781.583	0.0157171
781.661	0.0156841
781.739	0.0158570
781.817	0.0157528
781.896	0.0156281
781.974	0.0157111
782.052	0.0157128
782.130	0.0156422
782.208	0.0158316
782.286	0.0159531
782.364	0.0158584
782.442	0.0159280
782.521	0.0160854
782.599	0.0161040
782.677	0.0162105
782.755	0.0160985
782.833	0.0162659
782.911	0.0163419
782.989	0.0163019
783.067	0.0163823
783.146	0.0164092
783.224	0.0161674
783.302	0.0162782
783.380	0.0163251
783.458	0.0161177
783.536	0.0162426
783.614	0.0162808
783.692	0.0161517
783.771	0.0162344
783.849	0.0161532
783.927	0.0160964
784.005	0.0160950
784.083	0.0160667
784.161	0.0159939
784.239	0.0159708
784.317	0.0160956
784.396	0.0160153
784.474	0.0158256
784.552	0.0158361
784.630	0.0158841
784.708	0.0157558
784.786	0.0156247
784.864	0.0157050
784.942	0.0157530
785.021	0.0156780
785.099	0.0157859
785.177	0.0154674
785.255	0.0155268
785.333	0.0159138
785.411	0.0159895
785.489	0.0159911
785.567	0.0158910
785.646	0.0160742
785.724	0.0160413
785.802	0.0163516
785.880	0.0164270
785.958	0.0163873
786.036	0.0163598
786.114	0.0164798
786.192	0.0165413
786.271	0.0164851
786.349	0.0164388
786.427	0.0162917
786.505	0.0164442
786.583	0.0164005
786.661	0.0163770
786.739	0.0164303
786.817	0.0163448
786.896	0.0163661
786.974	0.0163090
787.052	0.0163215
787.130	0.0163693
787.208	0.0161811
787.286	0.0161609
787.364	0.0161037
787.442	0.0161102
787.521	0.0160947
787.599	0.0160810
787.677	0.0160089
787.755	0.0160279
787.833	0.0160678
787.911	0.0159740
787.989	0.0160266
788.067	0.0160116
788.146	0.0158263
788.224	0.0159471
788.302	0.0160089
788.380	0.0161020
788.458	0.0160789
788.536	0.0159610
788.614	0.0160705
788.692	0.0160222
788.771	0.0160397
788.849	0.0160144
788.927	0.0159324
789.005	0.0159541
789.083	0.0159187
789.161	0.0157693
789.239	0.0158114
789.317	0.0158556
789.396	0.0157137
789.474	0.0157841
789.552	0.0157846
789.630	0.0156988
789.708	0.0157436
789.786	0.0157966
789.864	0.0157081
789.942	0.0157238
790.021	0.0157814
790.099	0.0159718
790.177	0.0158245
790.255	0.0158795
790.333	0.0159623
790.411	0.0159201
790.489	0.0160277
790.567	0.0159866
790.646	0.0160709
790.724	0.0159745
790.802	0.0160635
790.880	0.0162398
790.958	0.0164172
791.036	0.0162670
791.114	0.0163511
791.192	0.0163884
791.271	0.0163559
791.349	0.0163980
791.427	0.0165338
791.505	0.0163444
791.583	0.0165356
791.661	0.0163862
791.739	0.0164876
791.817	0.0164418
791.896	0.0163308
791.974	0.0163371
792.052	0.0162582
792.130	0.0161637
792.208	0.0160750
792.286	0.0160194
792.364	0.0159901
792.442	0.0159061
792.521	0.0159124
792.599	0.0159181
792.677	0.0158144
792.755	0.0158586
792.833	0.0158566
792.911	0.0158430
792.989	0.0157569
793.067	0.0157589
793.146	0.0158456
793.224	0.0158868
793.302	0.0157558
793.380	0.0157537
793.458	0.0158511
793.536	0.0158016
793.614	0.0156886
793.692	0.0158790
793.771	0.0158260
793.849	0.0158115
793.927	0.0159824
794.005	0.0160029
794.083	0.0159958
794.161	0.0159685
794.239	0.0160809
794.317	0.0160603
794.396	0.0160760
794.474	0.0160503
794.552	0.0161007
794.630	0.0161787
794.708	0.0162474
794.786	0.0163080
794.864	0.0161859
794.942	0.0161255
795.021	0.0163031
795.099	0.0162508
795.177	0.0161911
795.255	0.0161106
795.333	0.0162644
795.411	0.0162378
795.489	0.0162433
795.567	0.0162380
795.646	0.0161900
795.724	0.0162444
795.802	0.0162988
795.880	0.0161911
795.958	0.0161118
796.036	0.0162389
796.114	0.0163185
796.192	0.0162877
796.271	0.0162534
796.349	0.0161447
796.427	0.0160091
796.505	0.0159229
796.583	0.0159839
796.661	0.0159328
796.739	0.0158729
796.817	0.0158553
796.896	0.0156790
796.974	0.0157887
797.052	0.0157276
797.130	0.0156309
797.208	0.0155968
797.286	0.0154415
797.364	0.0154937
797.442	0.0155118
797.521	0.0155199
797.599	0.0153679
797.677	0.0154152
797.755	0.0155510
797.833	0.0153412
797.911	0.0153523
797.989	0.0155081
798.067	0.0156081
798.146	0.0155420
798.224	0.0156940
798.302	0.0156697
798.380	0.0157851
798.458	0.0156828
798.536	0.0158110
798.614	0.0157417
798.692	0.0159729
798.771	0.0159787
798.849	0.0160572
798.927	0.0161015
799.005	0.0161979
799.083	0.0161839
799.161	0.0162576
799.239	0.0163130
799.317	0.0164024
799.396	0.0162737
799.474	0.0164274
799.552	0.0166174
799.630	0.0165408
799.708	0.0164717
799.786	0.0167265
799.864	0.0166124
799.942	0.0166580
800.021	0.0168033
800.099	0.0168033
800.177	0.0167557
800.255	0.0165889
800.333	0.0166517
800.411	0.0167179
800.489	0.0165737
800.567	0.0164915
800.646	0.0164889
800.724	0.0164052
800.802	0.0162913
800.880	0.0161018
800.958	0.0160244
801.036	0.0159254
801.114	0.0159605
801.192	0.0157165
801.271	0.0156886
801.349	0.0155320
801.427	0.0154803
801.505	0.0155497
801.583	0.0153084
801.661	0.0151859
801.739	0.0151635
801.817	0.0152108
801.896	0.0153020
801.974	0.0152645
802.052	0.0153073
802.130	0.0153128
802.208	0.0155776
802.286	0.0155595
802.364	0.0156763
802.442	0.0157267
802.521	0.0157152
802.599	0.0158677
802.677	0.0158775
802.755	0.0158446
802.833	0.0158969
802.911	0.0161335
802.989	0.0161417
803.067	0.0160252
803.146	0.0159897
803.224	0.0160166
803.302	0.0160110
803.380	0.0161250
803.458	0.0162514
803.536	0.0162441
803.614	0.0163601
803.692	0.0162762
803.771	0.0165511
803.849	0.0165115
803.927	0.0165312
804.005	0.0167227
804.083	0.0166010
804.161	0.0165697
804.239	0.0167524
804.317	0.0166661
804.396	0.0167068
804.474	0.0166669
804.552	0.0166550
804.630	0.0165984
804.708	0.0165141
804.786	0.0163264
804.864	0.0162001
804.942	0.0161420
805.021	0.0161466
805.099	0.0162514
805.177	0.0159375
805.255	0.0158283
805.333	0.0157401
805.411	0.0157146
805.489	0.0156834
805.567	0.0155801
805.646	0.0156184
805.724	0.0155135
805.802	0.0153425
805.880	0.0154076
805.958	0.0154369
806.036	0.0154666
806.114	0.0154045
806.192	0.0154510
806.271	0.0153117
806.349	0.0155660
806.427	0.0156601
806.505	0.0156525
806.583	0.0157182
806.661	0.0158050
806.739	0.0158102
806.817	0.0158318
806.896	0.0158440
806.974	0.0160795
807.052	0.0160122
807.130	0.0161450
807.208	0.0161038
807.286	0.0162716
807.364	0.0162576
807.442	0.0161947
807.521	0.0163799
807.599	0.0164030
807.677	0.0163607
807.755	0.0164953
807.833	0.0164622
807.911	0.0165941
807.989	0.0166797
808.067	0.0167145
808.146	0.0165508
808.224	0.0166965
808.302	0.0167384
808.380	0.0166896
808.458	0.0165852
808.536	0.0167622
808.614	0.0166595
808.692	0.0165672
808.771	0.0164781
808.849	0.0164529
808.927	0.0164159
809.005	0.0163121
809.083	0.0163395
809.161	0.0160605
809.239	0.0160629
809.317	0.0159883
809.396	0.0158470
809.474	0.0156084
809.552	0.0154346
809.630	0.0153237
809.708	0.0153671
809.786	0.0153301
809.864	0.0150253
809.942	0.0150031
810.021	0.0149234
810.099	0.0149798
810.177	0.0148313
810.255	0.0149813
810.333	0.0150907
810.411	0.0151691
810.489	0.0152773
810.567	0.0153236
810.646	0.0155228
810.724	0.0156363
810.802	0.0157287
810.880	0.0158405
810.958	0.0160107
811.036	0.0162006
811.114	0.0162203
811.192	0.0164769
811.271	0.0164137
811.349	0.0164331
811.427	0.0165469
811.505	0.0167197
811.583	0.0166991
811.661	0.0167052
811.739	0.0167467
811.817	0.0169043
811.896	0.0168959
811.974	0.0171303
812.052	0.0169828
812.130	0.0172181
812.208	0.0170181
812.286	0.0170436
812.364	0.0170140
812.442	0.0170951
812.521	0.0171260
812.599	0.0170749
812.677	0.0171437
812.755	0.0171059
812.833	0.0169863
812.911	0.0170203
812.989	0.0169138
813.067	0.0168885
813.146	0.0167882
813.224	0.0165536
813.302	0.0163448
813.380	0.0163046
813.458	0.0161429
813.536	0.0159811
813.614	0.0155587
813.692	0.0154278
813.771	0.0151959
813.849	0.0149396
813.927	0.0147353
814.005	0.0145753
814.083	0.0144695
814.161	0.0143388
814.239	0.0141463
814.317	0.0140940
814.396	0.0139731
814.474	0.0141344
814.552	0.0141410
814.630	0.0141308
814.708	0.0143378
814.786	0.0142888
814.864	0.0146127
814.942	0.0146350
815.021	0.0148356
815.099	0.0150273
815.177	0.0152868
815.255	0.0155825
815.333	0.0158763
815.411	0.0158945
815.489	0.0160484
815.567	0.0161922
815.646	0.0164028
815.724	0.0166707
815.802	0.0167565
815.880	0.0168594
815.958	0.0170671
816.036	0.0171053
816.114	0.0173901
816.192	0.0174422
816.271	0.0176853
816.349	0.0175235
816.427	0.0176482
816.505	0.0176746
816.583	0.0178111
816.661	0.0178851
816.739	0.0178663
816.817	0.0178779
816.896	0.0178184
816.974	0.0177192
817.052	0.0178403
817.130	0.0175716
817.208	0.0174739
817.286	0.0173614
817.364	0.0173821
817.442	0.0170269
817.521	0.0169740
817.599	0.0167677
817.677	0.0164829
817.755	0.0163453
817.833	0.0160936
817.911	0.0158368
817.989	0.0157459
818.067	0.0155209
818.146	0.0152087
818.224	0.0149233
818.302	0.0147636
818.380	0.0145984
818.458	0.0143420
818.536	0.0141644
818.614	0.0141061
818.692	0.0140861
818.771	0.0140182
818.849	0.0141345
818.927	0.0140575
819.005	0.0141105
819.083	0.0141951
819.161	0.0142616
819.239	0.0145689
819.317	0.0146326
819.396	0.0148393
819.474	0.0150479
819.552	0.0151479
819.630	0.0152123
819.708	0.0153448
819.786	0.0156591
819.864	0.0157828
819.942	0.0158879
820.021	0.0162041
820.099	0.0161782
820.177	0.0160815
820.255	0.0163031
820.333	0.0165678
820.411	0.0165016
820.489	0.0164663
820.567	0.0167129
820.646	0.0167126
820.724	0.0168726
820.802	0.0170934
820.880	0.0170628
820.958	0.0172094
821.036	0.0173003
821.114	0.0173397
821.192	0.0173866
821.271	0.0174847
821.349	0.0174956
821.427	0.0175278
821.505	0.0174164
821.583	0.0173057
821.661	0.0172542
821.739	0.0171945
821.817	0.0171500
821.896	0.0168968
821.974	0.0168466
822.052	0.0166895
822.130	0.0165511
822.208	0.0162612
822.286	0.0162177
822.364	0.0160806
822.442	0.0156895
822.521	0.0157963
822.599	0.0155862
822.677	0.0154046
822.755	0.0153448
822.833	0.0150828
822.911	0.0148785
822.989	0.0148190
823.067	0.0146426
823.146	0.0147070
823.224	0.0147247
823.302	0.0147079
823.380	0.0146919
823.458	0.0147256
823.536	0.0148599
823.614	0.0149632
823.692	0.0150117
823.771	0.0150452
823.849	0.0153537
823.927	0.0155613
824.005	0.0155161
824.083	0.0157632
824.161	0.0158447
824.239	0.0160789
824.317	0.0162579
824.396	0.0162299
824.474	0.0162446
824.552	0.0164005
824.630	0.0163943
824.708	0.0164597
824.786	0.0165391
824.864	0.0165874
824.942	0.0166387
825.021	0.0165496
825.099	0.0165500
825.177	0.0165540
825.255	0.0163950
825.333	0.0165108
825.411	0.0165995
825.489	0.0165446
825.567	0.0166309
825.646	0.0165178
825.724	0.0165482
825.802	0.0165599
825.880	0.0165971
825.958	0.0166422
826.036	0.0164169
826.114	0.0164337
826.192	0.0163713
826.271	0.0164297
826.349	0.0163427
826.427	0.0163831
826.505	0.0161633
826.583	0.0160797
826.661	0.0160709
826.739	0.0158901
826.817	0.0160477
826.896	0.0158903
826.974	0.0156268
827.052	0.0158497
827.130	0.0157565
827.208	0.0155352
827.286	0.0154510
827.364	0.0154486
827.442	0.0153111
827.521	0.0153799
827.599	0.0154523
827.677	0.0154298
827.755	0.0154106
827.833	0.0154697
827.911	0.0154100
827.989	0.0155698
828.067	0.0155977
828.146	0.0155839
828.224	0.0156271
828.302	0.0159056
828.380	0.0158028
828.458	0.0158840
828.536	0.0158901
828.614	0.0160719
828.692	0.0159999
828.771	0.0162743
828.849	0.0162879
828.927	0.0162399
829.005	0.0163831
829.083	0.0164265
829.161	0.0164888
829.239	0.0166045
829.317	0.0164259
829.396	0.0164166
829.474	0.0165100
829.552	0.0166600
829.630	0.0167114
829.708	0.0165955
829.786	0.0166064
829.864	0.0165992
829.942	0.0167947
830.021	0.0166895
830.099	0.0165649
830.177	0.0164883
830.255	0.0165661
830.333	0.0165886
830.411	0.0165350
830.489	0.0163654
830.567	0.0162824
830.646	0.0162851
830.724	0.0162108
830.802	0.0160880
830.880	0.0161560
830.958	0.0161230
831.036	0.0159900
831.114	0.0159406
831.192	0.0156144
831.271	0.0156711
831.349	0.0158857
831.427	0.0156849
831.505	0.0156470
831.583	0.0155474
831.661	0.0156799
831.739	0.0155156
831.817	0.0154840
831.896	0.0156633
831.974	0.0156675
832.052	0.0156818
832.130	0.0156842
832.208	0.0155643
832.286	0.0157553
832.364	0.0156911
832.442	0.0156979
832.521	0.0157040
832.599	0.0159561
832.677	0.0159213
832.755	0.0157265
832.833	0.0159427
832.911	0.0159911
832.989	0.0160709
833.067	0.0162799
833.146	0.0162701
833.224	0.0163474
833.302	0.0164270
833.380	0.0164036
833.458	0.0166615
833.536	0.0165250
833.614	0.0166603
833.692	0.0165916
833.771	0.0165665
833.849	0.0166085
833.927	0.0167802
834.005	0.0166710
834.083	0.0166506
834.161	0.0166579
834.239	0.0165823
834.317	0.0165910
834.396	0.0164384
834.474	0.0164024
834.552	0.0162602
834.630	0.0162979
834.708	0.0161736
834.786	0.0161008
834.864	0.0161214
834.942	0.0162476
835.021	0.0159648
835.099	0.0159209
835.177	0.0158538
835.255	0.0157084
835.333	0.0157473
835.411	0.0157958
835.489	0.0157185
835.567	0.0159299
835.646	0.0158818
835.724	0.0157739
835.802	0.0158289
835.880	0.0157495
835.958	0.0158775
836.036	0.0157851
836.114	0.0158296
836.192	0.0157835
836.271	0.0157874
836.349	0.0158964
836.427	0.0160355
836.505	0.0157432
836.583	0.0157594
836.661	0.0158569
836.739	0.0157693
836.817	0.0157718
836.896	0.0158879
836.974	0.0158953
837.052	0.0158170
837.130	0.0159497
837.208	0.0158436
837.286	0.0159036
837.364	0.0161816
837.442	0.0160714
837.521	0.0160666
837.599	0.0162962
837.677	0.0162814
837.755	0.0163601
837.833	0.0164249
837.911	0.0165762
837.989	0.0164452
838.067	0.0165468
838.146	0.0164669
838.224	0.0163780
838.302	0.0164374
838.380	0.0165285
838.458	0.0165784
838.536	0.0164288
838.614	0.0165290
838.692	0.0164574
838.771	0.0163528
838.849	0.0163702
838.927	0.0164902
839.005	0.0163039
839.083	0.0162672
839.161	0.0162065
839.239	0.0162714
839.317	0.0159232
839.396	0.0160422
839.474	0.0159226
839.552	0.0158649
839.630	0.0157618
839.708	0.0157684
839.786	0.0155050
839.864	0.0154557
839.942	0.0153466
840.021	0.0152606
840.099	0.0153336
840.177	0.0153903
840.255	0.0153201
840.333	0.0152641
840.411	0.0154354
840.489	0.0154533
840.567	0.0153651
840.646	0.0154920
840.724	0.0156160
840.802	0.0156634
840.880	0.0156726
840.958	0.0156832
841.036	0.0158698
841.114	0.0159499
841.192	0.0161049
841.271	0.0160233
841.349	0.0160051
841.427	0.0161015
841.505	0.0161749
841.583	0.0163659
841.661	0.0162617
841.739	0.0163662
841.817	0.0164062
841.896	0.0164578
841.974	0.0164448
842.052	0.0165433
842.130	0.0166031
842.208	0.0164822
842.286	0.0166264
842.364	0.0165811
842.442	0.0165613
842.521	0.0165250
842.599	0.0165348
842.677	0.0164657
842.755	0.0164424
842.833	0.0163486
842.911	0.0164629
842.989	0.0162765
843.067	0.0162355
843.146	0.0162209
843.224	0.0161967
843.302	0.0162927
843.380	0.0161735
843.458	0.0161148
843.536	0.0160715
843.614	0.0160752
843.692	0.0160730
843.771	0.0160500
843.849	0.0160820
843.927	0.0160499
844.005	0.0159741
844.083	0.0158036
844.161	0.0157376
844.239	0.0157785
844.317	0.0156491
844.396	0.0157028
844.474	0.0156626
844.552	0.0155527
844.630	0.0155941
844.708	0.0154869
844.786	0.0154688
844.864	0.0155471
844.942	0.0154092
845.021	0.0156042
845.099	0.0154330
845.177	0.0156439
845.255	0.0154679
845.333	0.0156380
845.411	0.0156027
845.489	0.0156672
845.567	0.0158057
845.646	0.0157394
845.724	0.0158029
845.802	0.0157820
845.880	0.0158826
845.958	0.0159935
846.036	0.0160555
846.114	0.0160637
846.192	0.0160799
846.271	0.0162531
846.349	0.0161787
846.427	0.0163004
846.505	0.0163392
846.583	0.0163719
846.661	0.0163870
846.739	0.0164715
846.817	0.0164686
846.896	0.0164864
846.974	0.0163766
847.052	0.0164007
847.130	0.0163993
847.208	0.0162502
847.286	0.0163834
847.364	0.0162585
847.442	0.0163377
847.521	0.0163489
847.599	0.0163092
847.677	0.0162392
847.755	0.0163229
847.833	0.0164140
847.911	0.0163747
847.989	0.0162895
848.067	0.0160941
848.146	0.0160894
848.224	0.0159949
848.302	0.0161610
848.380	0.0161031
848.458	0.0160718
848.536	0.0157656
848.614	0.0158846
848.692	0.0156258
848.771	0.0156058
848.849	0.0156760
848.927	0.0155465
849.005	0.0155415
849.083	0.0154736
849.161	0.0154060
849.239	0.0155862
849.317	0.0155650
849.396	0.0155191
849.474	0.0155645
849.552	0.0157783
849.630	0.0157656
849.708	0.0158802
849.786	0.0159061
849.864	0.0158609
849.942	0.0159972
850.021	0.0159760
850.099	0.0159718
850.177	0.0159988
850.255	0.0160005
850.333	0.0161279
850.411	0.0161938
850.489	0.0161429
850.567	0.0161658
850.646	0.0161410
850.724	0.0163238
850.802	0.0161308
850.880	0.0161390
850.958	0.0160856
851.036	0.0161993
851.114	0.0161990
851.192	0.0161367
851.271	0.0161469
851.349	0.0161523
851.427	0.0162584
851.505	0.0160877
851.583	0.0162183
851.661	0.0162662
851.739	0.0161002
851.817	0.0162719
851.896	0.0163699
851.974	0.0163174
852.052	0.0162096
852.130	0.0162237
852.208	0.0163572
852.286	0.0161885
852.364	0.0163098
852.442	0.0162878
852.521	0.0162915
852.599	0.0161688
852.677	0.0161665
852.755	0.0161170
852.833	0.0161244
852.911	0.0159834
852.989	0.0159805
853.067	0.0159904
853.146	0.0159424
853.224	0.0159710
853.302	0.0159136
853.380	0.0159945
853.458	0.0157808
853.536	0.0158645
853.614	0.0158374
853.692	0.0158916
853.771	0.0156830
853.849	0.0157547
853.927	0.0158106
854.005	0.0158762
854.083	0.0158872
854.161	0.0159019
854.239	0.0160114
854.317	0.0159406
854.396	0.0159274
854.474	0.0160461
854.552	0.0160307
854.630	0.0160102
854.708	0.0161318
854.786	0.0160957
854.864	0.0161187
854.942	0.0161021
855.021	0.0161828
855.099	0.0161187
855.177	0.0161593
855.255	0.0161576
855.333	0.0161024
855.411	0.0160323
855.489	0.0161187
855.567	0.0159242
855.646	0.0159415
855.724	0.0159190
855.802	0.0159903
855.880	0.0159336
855.958	0.0158724
856.036	0.0158522
856.114	0.0159176
856.192	0.0159138
856.271	0.0158542
856.349	0.0159789
856.427	0.0158700
856.505	0.0158787
856.583	0.0160175
856.661	0.0160447
856.739	0.0161749
856.817	0.0161903
856.896	0.0162411
856.974	0.0162858
857.052	0.0162798
857.130	0.0162617
857.208	0.0163439
857.286	0.0161607
857.364	0.0161193
857.442	0.0163607
857.521	0.0161956
857.599	0.0162118
857.677	0.0159364
857.755	0.0160011
857.833	0.0159965
857.911	0.0161503
857.989	0.0160957
858.067	0.0161664
858.146	0.0160242
858.224	0.0160916
858.302	0.0160573
858.380	0.0160920
858.458	0.0160564
858.536	0.0159052
858.614	0.0161449
858.692	0.0162641
858.771	0.0161549
858.849	0.0160532
858.927	0.0161989
859.005	0.0161951
859.083	0.0161847
859.161	0.0162006
859.239	0.0161546
859.317	0.0160556
859.396	0.0161762
859.474	0.0161652
859.552	0.0162752
859.630	0.0161424
859.708	0.0161939
859.786	0.0163039
859.864	0.0161559
859.942	0.0161920
860.021	0.0160786
860.099	0.0162176
860.177	0.0161719
860.255	0.0161582
860.333	0.0160810
860.411	0.0159833
860.489	0.0159736
860.567	0.0159261
860.646	0.0159112
860.724	0.0159005
860.802	0.0159380
860.880	0.0158692
860.958	0.0157661
861.036	0.0157880
861.114	0.0158263
861.192	0.0158854
861.271	0.0157842
861.349	0.0157725
861.427	0.0158829
861.505	0.0159246
861.583	0.0159133
861.661	0.0158772
861.739	0.0158757
861.817	0.0158518
861.896	0.0157114
861.974	0.0159978
862.052	0.0159472
862.130	0.0158733
862.208	0.0158678
862.286	0.0158165
862.364	0.0157796
862.442	0.0159029
862.521	0.0158340
862.599	0.0158858
862.677	0.0160096
862.755	0.0160136
862.833	0.0159388
862.911	0.0159930
862.989	0.0160788
863.067	0.0160455
863.146	0.0159630
863.224	0.0159325
863.302	0.0162431
863.380	0.0161678
863.458	0.0161664
863.536	0.0162574
863.614	0.0162601
863.692	0.0161823
863.771	0.0162350
863.849	0.0161526
863.927	0.0164011
864.005	0.0163600
864.083	0.0163502
864.161	0.0163222
864.239	0.0163683
864.317	0.0163521
864.396	0.0163095
864.474	0.0162728
864.552	0.0162288
864.630	0.0162646
864.708	0.0163335
864.786	0.0160343
864.864	0.0161320
864.942	0.0161899
865.021	0.0161707
865.099	0.0160989
865.177	0.0160719
865.255	0.0161168
865.333	0.0161575
865.411	0.0162247
865.489	0.0160715
865.567	0.0161996
865.646	0.0160629
865.724	0.0160762
865.802	0.0160419
865.880	0.0160754
865.958	0.0161544
866.036	0.0160005
866.114	0.0158071
866.192	0.0160259
866.271	0.0159546
866.349	0.0159095
866.427	0.0159207
866.505	0.0157974
866.583	0.0158109
866.661	0.0157243
866.739	0.0157460
866.817	0.0158848
866.896	0.0158100
866.974	0.0157452
867.052	0.0158096
867.130	0.0157324
867.208	0.0156986
867.286	0.0156367
867.364	0.0156770
867.442	0.0158125
867.521	0.0157001
867.599	0.0156982
867.677	0.0158529
867.755	0.0158091
867.833	0.0158643
867.911	0.0159592
867.989	0.0158167
868.067	0.0159795
868.146	0.0160097
868.224	0.0160336
868.302	0.0160956
868.380	0.0159774
868.458	0.0162661
868.536	0.0160936
868.614	0.0163089
868.692	0.0162917
868.771	0.0163229
868.849	0.0164533
868.927	0.0162001
869.005	0.0162665
869.083	0.0162812
869.161	0.0162712
869.239	0.0163046
869.317	0.0164673
869.396	0.0161438
869.474	0.0163060
869.552	0.0162843
869.630	0.0163136
869.708	0.0162913
869.786	0.0161144
869.864	0.0161868
869.942	0.0161095
