06/03/2022	15:37:46	Ver.	4.1	UNKNOWN
Optical Delay	550.020508	Delta X		0.078125	Sweeps	1	Scan Rate	0/0
Coordinates	Axis 1	NaN	Axis 2	NaN	Axis 3	NaN	Axis 4	NaN	Axis 5	NaN	Axis 6	0.000000
TX Power	0.000000	RX Power	0.000000

550.021	0.0165459
550.099	0.0166279
550.177	0.0165675
550.255	0.0166078
550.333	0.0165215
550.411	0.0165284
550.489	0.0164223
550.567	0.0165429
550.646	0.0165696
550.724	0.0165573
550.802	0.0165446
550.880	0.0166746
550.958	0.0164873
551.036	0.0165277
551.114	0.0165162
551.192	0.0165994
551.271	0.0164957
551.349	0.0163729
551.427	0.0165903
551.505	0.0165044
551.583	0.0164838
551.661	0.0165890
551.739	0.0165677
551.817	0.0165421
551.896	0.0165183
551.974	0.0165584
552.052	0.0165926
552.130	0.0165113
552.208	0.0165231
552.286	0.0164363
552.364	0.0165084
552.442	0.0165707
552.521	0.0165569
552.599	0.0166071
552.677	0.0164960
552.755	0.0165661
552.833	0.0164548
552.911	0.0165067
552.989	0.0166410
553.067	0.0165436
553.146	0.0165419
553.224	0.0165678
553.302	0.0165645
553.380	0.0166435
553.458	0.0166035
553.536	0.0165739
553.614	0.0165862
553.692	0.0165361
553.771	0.0164858
553.849	0.0165048
553.927	0.0166782
554.005	0.0165937
554.083	0.0166090
554.161	0.0166429
554.239	0.0164671
554.317	0.0164602
554.396	0.0165388
554.474	0.0164920
554.552	0.0165017
554.630	0.0166672
554.708	0.0165737
554.786	0.0164252
554.864	0.0165602
554.942	0.0165588
555.021	0.0167248
555.099	0.0164622
555.177	0.0165599
555.255	0.0165559
555.333	0.0165844
555.411	0.0166759
555.489	0.0165945
555.567	0.0164798
555.646	0.0166164
555.724	0.0166174
555.802	0.0166073
555.880	0.0166378
555.958	0.0165546
556.036	0.0165686
556.114	0.0165441
556.192	0.0166307
556.271	0.0165726
556.349	0.0163621
556.427	0.0165643
556.505	0.0165105
556.583	0.0164914
556.661	0.0165900
556.739	0.0165442
556.817	0.0166647
556.896	0.0165709
556.974	0.0165681
557.052	0.0164546
557.130	0.0164719
557.208	0.0165111
557.286	0.0166762
557.364	0.0164942
557.442	0.0166119
557.521	0.0166260
557.599	0.0166196
557.677	0.0165343
557.755	0.0165425
557.833	0.0166166
557.911	0.0167165
557.989	0.0165378
558.067	0.0165752
558.146	0.0165928
558.224	0.0166109
558.302	0.0166130
558.380	0.0165617
558.458	0.0165695
558.536	0.0167300
558.614	0.0165348
558.692	0.0165462
558.771	0.0165125
558.849	0.0165483
558.927	0.0165294
559.005	0.0166255
559.083	0.0166332
559.161	0.0165900
559.239	0.0166263
559.317	0.0165096
559.396	0.0165199
559.474	0.0165228
559.552	0.0164462
559.630	0.0164597
559.708	0.0167338
559.786	0.0164169
559.864	0.0164503
559.942	0.0166874
560.021	0.0164128
560.099	0.0164922
560.177	0.0165794
560.255	0.0165665
560.333	0.0164575
560.411	0.0165615
560.489	0.0166615
560.567	0.0165089
560.646	0.0163828
560.724	0.0164742
560.802	0.0165170
560.880	0.0164626
560.958	0.0165747
561.036	0.0165865
561.114	0.0165544
561.192	0.0165491
561.271	0.0164951
561.349	0.0163609
561.427	0.0165297
561.505	0.0165839
561.583	0.0164587
561.661	0.0165125
561.739	0.0166502
561.817	0.0164679
561.896	0.0164145
561.974	0.0165968
562.052	0.0166800
562.130	0.0164873
562.208	0.0165431
562.286	0.0165073
562.364	0.0166144
562.442	0.0165005
562.521	0.0165402
562.599	0.0165450
562.677	0.0164839
562.755	0.0165807
562.833	0.0164809
562.911	0.0165302
562.989	0.0164895
563.067	0.0165137
563.146	0.0165549
563.224	0.0165682
563.302	0.0165779
563.380	0.0166013
563.458	0.0165778
563.536	0.0165081
563.614	0.0163560
563.692	0.0167553
563.771	0.0164999
563.849	0.0165511
563.927	0.0167075
564.005	0.0164946
564.083	0.0165298
564.161	0.0166245
564.239	0.0165658
564.317	0.0165707
564.396	0.0165302
564.474	0.0165448
564.552	0.0165158
564.630	0.0165736
564.708	0.0165313
564.786	0.0166409
564.864	0.0163772
564.942	0.0164511
565.021	0.0166653
565.099	0.0165450
565.177	0.0165094
565.255	0.0165277
565.333	0.0165036
565.411	0.0164224
565.489	0.0164397
565.567	0.0166436
565.646	0.0165663
565.724	0.0164246
565.802	0.0163683
565.880	0.0164616
565.958	0.0163789
566.036	0.0167333
566.114	0.0164762
566.192	0.0166090
566.271	0.0165116
566.349	0.0164449
566.427	0.0166320
566.505	0.0167023
566.583	0.0165727
566.661	0.0165356
566.739	0.0165845
566.817	0.0164987
566.896	0.0166291
566.974	0.0165371
567.052	0.0165917
567.130	0.0165469
567.208	0.0165260
567.286	0.0165598
567.364	0.0165400
567.442	0.0165332
567.521	0.0165532
567.599	0.0164602
567.677	0.0166240
567.755	0.0165105
567.833	0.0164056
567.911	0.0166254
567.989	0.0166518
568.067	0.0164453
568.146	0.0164767
568.224	0.0163776
568.302	0.0165998
568.380	0.0164578
568.458	0.0165947
568.536	0.0165552
568.614	0.0164765
568.692	0.0165181
568.771	0.0165698
568.849	0.0163421
568.927	0.0164862
569.005	0.0166337
569.083	0.0165388
569.161	0.0164590
569.239	0.0166111
569.317	0.0166257
569.396	0.0165137
569.474	0.0165693
569.552	0.0165080
569.630	0.0164071
569.708	0.0164475
569.786	0.0165652
569.864	0.0165574
569.942	0.0165602
570.021	0.0165069
570.099	0.0165945
570.177	0.0166685
570.255	0.0165684
570.333	0.0165000
570.411	0.0165392
570.489	0.0165535
570.567	0.0164130
570.646	0.0164711
570.724	0.0165284
570.802	0.0165568
570.880	0.0166134
570.958	0.0164835
571.036	0.0164057
571.114	0.0165093
571.192	0.0164400
571.271	0.0165044
571.349	0.0165731
571.427	0.0164149
571.505	0.0164220
571.583	0.0165422
571.661	0.0165800
571.739	0.0163810
571.817	0.0166037
571.896	0.0165511
571.974	0.0165943
572.052	0.0165705
572.130	0.0164332
572.208	0.0164324
572.286	0.0165319
572.364	0.0164843
572.442	0.0164863
572.521	0.0165859
572.599	0.0164724
572.677	0.0165288
572.755	0.0164912
572.833	0.0165211
572.911	0.0165603
572.989	0.0165234
573.067	0.0165066
573.146	0.0166254
573.224	0.0164371
573.302	0.0165293
573.380	0.0165202
573.458	0.0165284
573.536	0.0165559
573.614	0.0163449
573.692	0.0165831
573.771	0.0166974
573.849	0.0164693
573.927	0.0164969
574.005	0.0166440
574.083	0.0165718
574.161	0.0164779
574.239	0.0165054
574.317	0.0166222
574.396	0.0165038
574.474	0.0165837
574.552	0.0166122
574.630	0.0165133
574.708	0.0164013
574.786	0.0164848
574.864	0.0166021
574.942	0.0166564
575.021	0.0164215
575.099	0.0164742
575.177	0.0164989
575.255	0.0165497
575.333	0.0165076
575.411	0.0164687
575.489	0.0165762
575.567	0.0165752
575.646	0.0163593
575.724	0.0165350
575.802	0.0165102
575.880	0.0165495
575.958	0.0165894
576.036	0.0166771
576.114	0.0165124
576.192	0.0167240
576.271	0.0165292
576.349	0.0165279
576.427	0.0165567
576.505	0.0166051
576.583	0.0165856
576.661	0.0165035
576.739	0.0164935
576.817	0.0164275
576.896	0.0165759
576.974	0.0166659
577.052	0.0165434
577.130	0.0166582
577.208	0.0165806
577.286	0.0165370
577.364	0.0165164
577.442	0.0165502
577.521	0.0165847
577.599	0.0166869
577.677	0.0165835
577.755	0.0165392
577.833	0.0165816
577.911	0.0165742
577.989	0.0166660
578.067	0.0164890
578.146	0.0164040
578.224	0.0164975
578.302	0.0163408
578.380	0.0165659
578.458	0.0165560
578.536	0.0165326
578.614	0.0165543
578.692	0.0163985
578.771	0.0164201
578.849	0.0164552
578.927	0.0165041
579.005	0.0165714
579.083	0.0165505
579.161	0.0164626
579.239	0.0164972
579.317	0.0165311
579.396	0.0165920
579.474	0.0165711
579.552	0.0165363
579.630	0.0165344
579.708	0.0164722
579.786	0.0166229
579.864	0.0166134
579.942	0.0165639
580.021	0.0165916
580.099	0.0164769
580.177	0.0165316
580.255	0.0164129
580.333	0.0165144
580.411	0.0166141
580.489	0.0165376
580.567	0.0164317
580.646	0.0164284
580.724	0.0166074
580.802	0.0165448
580.880	0.0164207
580.958	0.0165067
581.036	0.0166273
581.114	0.0163907
581.192	0.0165054
581.271	0.0164825
581.349	0.0164814
581.427	0.0164450
581.505	0.0164704
581.583	0.0165057
581.661	0.0164999
581.739	0.0164989
581.817	0.0164084
581.896	0.0165695
581.974	0.0166914
582.052	0.0164325
582.130	0.0164677
582.208	0.0163658
582.286	0.0165276
582.364	0.0165762
582.442	0.0164599
582.521	0.0166053
582.599	0.0165398
582.677	0.0165234
582.755	0.0166049
582.833	0.0165961
582.911	0.0165356
582.989	0.0166125
583.067	0.0165409
583.146	0.0165276
583.224	0.0165729
583.302	0.0164404
583.380	0.0164588
583.458	0.0165804
583.536	0.0165868
583.614	0.0165006
583.692	0.0165331
583.771	0.0164576
583.849	0.0164697
583.927	0.0165380
584.005	0.0164516
584.083	0.0165120
584.161	0.0165057
584.239	0.0165408
584.317	0.0165426
584.396	0.0164369
584.474	0.0164250
584.552	0.0164773
584.630	0.0165455
584.708	0.0164789
584.786	0.0164034
584.864	0.0165323
584.942	0.0164052
585.021	0.0163889
585.099	0.0166089
585.177	0.0164774
585.255	0.0166105
585.333	0.0164701
585.411	0.0166414
585.489	0.0165161
585.567	0.0165191
585.646	0.0164445
585.724	0.0166480
585.802	0.0165660
585.880	0.0165684
585.958	0.0164317
586.036	0.0164505
586.114	0.0165240
586.192	0.0164958
586.271	0.0165504
586.349	0.0165669
586.427	0.0166491
586.505	0.0165501
586.583	0.0165438
586.661	0.0165779
586.739	0.0165063
586.817	0.0165632
586.896	0.0165424
586.974	0.0165334
587.052	0.0164974
587.130	0.0164679
587.208	0.0164508
587.286	0.0166055
587.364	0.0165172
587.442	0.0164640
587.521	0.0165150
587.599	0.0165536
587.677	0.0165322
587.755	0.0165250
587.833	0.0165851
587.911	0.0165037
587.989	0.0165370
588.067	0.0164321
588.146	0.0165359
588.224	0.0165580
588.302	0.0164784
588.380	0.0164874
588.458	0.0165691
588.536	0.0165311
588.614	0.0166284
588.692	0.0166216
588.771	0.0164720
588.849	0.0164890
588.927	0.0164896
589.005	0.0164841
589.083	0.0167594
589.161	0.0165228
589.239	0.0164591
589.317	0.0164281
589.396	0.0166098
589.474	0.0165624
589.552	0.0166125
589.630	0.0164625
589.708	0.0164905
589.786	0.0165462
589.864	0.0164757
589.942	0.0164482
590.021	0.0166029
590.099	0.0165038
590.177	0.0164642
590.255	0.0165392
590.333	0.0164706
590.411	0.0164870
590.489	0.0164864
590.567	0.0164929
590.646	0.0165273
590.724	0.0165629
590.802	0.0165395
590.880	0.0165594
590.958	0.0164495
591.036	0.0164656
591.114	0.0164777
591.192	0.0165995
591.271	0.0164928
591.349	0.0165651
591.427	0.0164400
591.505	0.0164967
591.583	0.0165169
591.661	0.0164205
591.739	0.0164897
591.817	0.0165668
591.896	0.0165977
591.974	0.0165283
592.052	0.0165330
592.130	0.0165620
592.208	0.0166455
592.286	0.0165265
592.364	0.0165797
592.442	0.0165515
592.521	0.0165173
592.599	0.0166558
592.677	0.0165625
592.755	0.0165826
592.833	0.0165396
592.911	0.0165883
592.989	0.0164942
593.067	0.0166493
593.146	0.0165002
593.224	0.0165800
593.302	0.0165349
593.380	0.0164417
593.458	0.0164201
593.536	0.0165726
593.614	0.0165601
593.692	0.0165237
593.771	0.0165708
593.849	0.0164884
593.927	0.0164951
594.005	0.0164734
594.083	0.0164900
594.161	0.0164878
594.239	0.0165547
594.317	0.0166699
594.396	0.0164742
594.474	0.0165491
594.552	0.0165635
594.630	0.0164233
594.708	0.0164997
594.786	0.0165791
594.864	0.0166577
594.942	0.0166084
595.021	0.0164426
595.099	0.0165972
595.177	0.0166525
595.255	0.0165635
595.333	0.0165649
595.411	0.0165778
595.489	0.0166148
595.567	0.0166096
595.646	0.0165604
595.724	0.0165184
595.802	0.0164494
595.880	0.0166508
595.958	0.0166061
596.036	0.0165400
596.114	0.0165730
596.192	0.0164933
596.271	0.0165126
596.349	0.0165452
596.427	0.0165888
596.505	0.0165804
596.583	0.0164539
596.661	0.0164915
596.739	0.0165783
596.817	0.0165005
596.896	0.0165649
596.974	0.0166737
597.052	0.0165134
597.130	0.0165039
597.208	0.0165394
597.286	0.0164861
597.364	0.0164510
597.442	0.0164591
597.521	0.0166123
597.599	0.0165513
597.677	0.0165684
597.755	0.0167141
597.833	0.0164513
597.911	0.0165009
597.989	0.0167390
598.067	0.0165353
598.146	0.0166010
598.224	0.0165031
598.302	0.0164613
598.380	0.0166096
598.458	0.0165844
598.536	0.0166336
598.614	0.0164449
598.692	0.0165556
598.771	0.0165594
598.849	0.0165029
598.927	0.0165212
599.005	0.0164754
599.083	0.0164105
599.161	0.0165713
599.239	0.0165169
599.317	0.0166214
599.396	0.0164114
599.474	0.0166207
599.552	0.0165026
599.630	0.0165415
599.708	0.0165295
599.786	0.0165565
599.864	0.0166451
599.942	0.0165745
600.021	0.0164696
600.099	0.0164971
600.177	0.0165602
600.255	0.0164835
600.333	0.0164692
600.411	0.0164627
600.489	0.0166019
600.567	0.0165519
600.646	0.0165041
600.724	0.0165374
600.802	0.0166343
600.880	0.0165210
600.958	0.0166199
601.036	0.0165837
601.114	0.0164681
601.192	0.0166348
601.271	0.0165401
601.349	0.0165778
601.427	0.0166029
601.505	0.0165163
601.583	0.0164238
601.661	0.0165115
601.739	0.0164609
601.817	0.0165524
601.896	0.0165310
601.974	0.0166518
602.052	0.0165228
602.130	0.0166247
602.208	0.0166128
602.286	0.0163714
602.364	0.0165711
602.442	0.0165188
602.521	0.0165820
602.599	0.0165194
602.677	0.0164152
602.755	0.0165754
602.833	0.0165180
602.911	0.0166312
602.989	0.0165089
603.067	0.0165537
603.146	0.0165554
603.224	0.0164637
603.302	0.0164744
603.380	0.0166206
603.458	0.0167651
603.536	0.0164977
603.614	0.0164961
603.692	0.0165479
603.771	0.0166835
603.849	0.0164552
603.927	0.0163928
604.005	0.0166785
604.083	0.0165759
604.161	0.0163262
604.239	0.0165504
604.317	0.0166179
604.396	0.0165076
604.474	0.0164040
604.552	0.0165290
604.630	0.0167186
604.708	0.0166122
604.786	0.0165836
604.864	0.0165411
604.942	0.0166057
605.021	0.0166225
605.099	0.0166383
605.177	0.0165189
605.255	0.0165407
605.333	0.0165000
605.411	0.0166489
605.489	0.0164977
605.567	0.0166637
605.646	0.0166158
605.724	0.0165190
605.802	0.0165098
605.880	0.0165295
605.958	0.0166634
606.036	0.0165832
606.114	0.0165724
606.192	0.0166457
606.271	0.0166146
606.349	0.0166268
606.427	0.0166695
606.505	0.0165876
606.583	0.0166417
606.661	0.0165162
606.739	0.0165182
606.817	0.0164275
606.896	0.0165527
606.974	0.0165823
607.052	0.0165706
607.130	0.0165281
607.208	0.0164888
607.286	0.0165480
607.364	0.0164785
607.442	0.0165349
607.521	0.0164900
607.599	0.0165363
607.677	0.0164787
607.755	0.0165547
607.833	0.0165650
607.911	0.0164919
607.989	0.0165073
608.067	0.0165697
608.146	0.0166142
608.224	0.0165617
608.302	0.0164973
608.380	0.0165329
608.458	0.0164149
608.536	0.0167036
608.614	0.0166827
608.692	0.0164900
608.771	0.0165310
608.849	0.0165855
608.927	0.0165024
609.005	0.0165296
609.083	0.0165266
609.161	0.0165955
609.239	0.0165249
609.317	0.0164348
609.396	0.0165048
609.474	0.0164398
609.552	0.0164101
609.630	0.0165752
609.708	0.0164683
609.786	0.0166480
609.864	0.0165478
609.942	0.0165185
610.021	0.0166231
610.099	0.0166883
610.177	0.0163860
610.255	0.0164860
610.333	0.0164162
610.411	0.0165096
610.489	0.0165149
610.567	0.0164988
610.646	0.0164639
610.724	0.0165866
610.802	0.0165548
610.880	0.0165296
610.958	0.0166452
611.036	0.0165716
611.114	0.0165041
611.192	0.0166063
611.271	0.0166349
611.349	0.0165088
611.427	0.0165590
611.505	0.0165179
611.583	0.0165308
611.661	0.0165866
611.739	0.0165855
611.817	0.0165660
611.896	0.0165130
611.974	0.0165292
612.052	0.0166143
612.130	0.0164576
612.208	0.0165141
612.286	0.0166018
612.364	0.0165427
612.442	0.0166238
612.521	0.0166311
612.599	0.0166146
612.677	0.0165617
612.755	0.0165502
612.833	0.0165851
612.911	0.0166252
612.989	0.0164941
613.067	0.0164990
613.146	0.0166142
613.224	0.0164862
613.302	0.0164776
613.380	0.0164984
613.458	0.0165193
613.536	0.0165525
613.614	0.0165456
613.692	0.0165243
613.771	0.0165373
613.849	0.0165125
613.927	0.0165186
614.005	0.0165387
614.083	0.0165628
614.161	0.0165580
614.239	0.0166203
614.317	0.0165027
614.396	0.0165490
614.474	0.0164278
614.552	0.0164896
614.630	0.0165181
614.708	0.0165360
614.786	0.0166376
614.864	0.0165600
614.942	0.0164785
615.021	0.0164928
615.099	0.0165700
615.177	0.0165421
615.255	0.0165569
615.333	0.0164584
615.411	0.0164331
615.489	0.0165499
615.567	0.0165173
615.646	0.0164940
615.724	0.0164676
615.802	0.0165987
615.880	0.0165224
615.958	0.0165223
616.036	0.0166619
616.114	0.0165631
616.192	0.0165209
616.271	0.0165155
616.349	0.0165527
616.427	0.0165447
616.505	0.0165316
616.583	0.0165974
616.661	0.0164548
616.739	0.0164747
616.817	0.0167102
616.896	0.0166376
616.974	0.0166296
617.052	0.0166343
617.130	0.0164812
617.208	0.0165469
617.286	0.0166350
617.364	0.0165344
617.442	0.0165662
617.521	0.0165498
617.599	0.0166642
617.677	0.0165112
617.755	0.0165298
617.833	0.0165311
617.911	0.0166501
617.989	0.0163692
618.067	0.0165234
618.146	0.0165112
618.224	0.0164957
618.302	0.0165361
618.380	0.0166499
618.458	0.0165820
618.536	0.0164738
618.614	0.0166148
618.692	0.0164922
618.771	0.0165546
618.849	0.0164953
618.927	0.0164533
619.005	0.0166438
619.083	0.0163330
619.161	0.0165194
619.239	0.0167047
619.317	0.0165693
619.396	0.0165311
619.474	0.0166322
619.552	0.0165943
619.630	0.0164957
619.708	0.0165498
619.786	0.0166336
619.864	0.0164886
619.942	0.0165449
620.021	0.0166212
620.099	0.0165743
620.177	0.0164724
620.255	0.0164497
620.333	0.0164391
620.411	0.0165728
620.489	0.0166481
620.567	0.0164893
620.646	0.0164963
620.724	0.0165891
620.802	0.0165241
620.880	0.0164979
620.958	0.0165257
621.036	0.0165950
621.114	0.0166007
621.192	0.0164512
621.271	0.0164726
621.349	0.0164040
621.427	0.0165873
621.505	0.0166060
621.583	0.0164516
621.661	0.0165343
621.739	0.0164882
621.817	0.0165608
621.896	0.0166566
621.974	0.0165114
622.052	0.0165807
622.130	0.0165904
622.208	0.0165872
622.286	0.0165330
622.364	0.0164106
622.442	0.0164321
622.521	0.0164594
622.599	0.0165300
622.677	0.0165273
622.755	0.0165178
622.833	0.0165955
622.911	0.0166399
622.989	0.0163763
623.067	0.0165990
623.146	0.0165575
623.224	0.0163802
623.302	0.0165176
623.380	0.0166007
623.458	0.0164959
623.536	0.0164291
623.614	0.0165331
623.692	0.0164743
623.771	0.0165543
623.849	0.0165722
623.927	0.0165735
624.005	0.0165924
624.083	0.0165745
624.161	0.0165624
624.239	0.0165710
624.317	0.0164948
624.396	0.0165401
624.474	0.0165993
624.552	0.0165123
624.630	0.0166216
624.708	0.0165440
624.786	0.0166136
624.864	0.0165998
624.942	0.0165329
625.021	0.0167162
625.099	0.0163619
625.177	0.0165402
625.255	0.0166340
625.333	0.0166076
625.411	0.0165987
625.489	0.0165894
625.567	0.0164988
625.646	0.0166627
625.724	0.0165745
625.802	0.0165918
625.880	0.0164742
625.958	0.0166290
626.036	0.0165870
626.114	0.0166705
626.192	0.0166013
626.271	0.0165585
626.349	0.0166174
626.427	0.0165011
626.505	0.0166325
626.583	0.0165713
626.661	0.0165274
626.739	0.0165864
626.817	0.0165690
626.896	0.0165973
626.974	0.0165459
627.052	0.0164899
627.130	0.0164822
627.208	0.0165802
627.286	0.0166625
627.364	0.0165227
627.442	0.0165858
627.521	0.0163772
627.599	0.0165089
627.677	0.0164513
627.755	0.0165666
627.833	0.0166506
627.911	0.0165550
627.989	0.0164954
628.067	0.0164671
628.146	0.0166044
628.224	0.0165854
628.302	0.0165368
628.380	0.0165094
628.458	0.0166489
628.536	0.0165141
628.614	0.0165508
628.692	0.0165728
628.771	0.0163985
628.849	0.0164262
628.927	0.0165544
629.005	0.0166702
629.083	0.0165565
629.161	0.0164954
629.239	0.0165135
629.317	0.0165945
629.396	0.0165366
629.474	0.0164507
629.552	0.0164584
629.630	0.0163954
629.708	0.0164931
629.786	0.0165368
629.864	0.0165569
629.942	0.0165118
630.021	0.0165025
630.099	0.0164938
630.177	0.0165184
630.255	0.0165763
630.333	0.0166027
630.411	0.0165012
630.489	0.0167110
630.567	0.0166659
630.646	0.0164253
630.724	0.0166033
630.802	0.0164743
630.880	0.0166335
630.958	0.0165594
631.036	0.0164717
631.114	0.0165472
631.192	0.0165876
631.271	0.0165395
631.349	0.0164600
631.427	0.0163636
631.505	0.0165139
631.583	0.0165076
631.661	0.0165376
631.739	0.0165945
631.817	0.0164745
631.896	0.0164249
631.974	0.0166131
632.052	0.0167322
632.130	0.0164671
632.208	0.0165722
632.286	0.0164043
632.364	0.0164741
632.442	0.0166584
632.521	0.0165719
632.599	0.0166187
632.677	0.0166676
632.755	0.0165645
632.833	0.0165172
632.911	0.0167219
632.989	0.0165425
633.067	0.0166074
633.146	0.0166201
633.224	0.0165936
633.302	0.0165695
633.380	0.0165855
633.458	0.0165497
633.536	0.0165179
633.614	0.0165216
633.692	0.0165871
633.771	0.0164584
633.849	0.0167009
633.927	0.0164783
634.005	0.0163808
634.083	0.0166409
634.161	0.0166299
634.239	0.0164875
634.317	0.0163450
634.396	0.0166290
634.474	0.0165535
634.552	0.0164043
634.630	0.0165009
634.708	0.0165453
634.786	0.0164999
634.864	0.0165530
634.942	0.0165360
635.021	0.0164795
635.099	0.0165137
635.177	0.0166484
635.255	0.0167031
635.333	0.0165926
635.411	0.0164589
635.489	0.0167076
635.567	0.0165765
635.646	0.0165036
635.724	0.0166165
635.802	0.0166673
635.880	0.0164719
635.958	0.0165290
636.036	0.0166068
636.114	0.0164922
636.192	0.0165336
636.271	0.0166244
636.349	0.0165286
636.427	0.0164603
636.505	0.0165882
636.583	0.0164567
636.661	0.0164990
636.739	0.0165254
636.817	0.0163773
636.896	0.0165121
636.974	0.0164924
637.052	0.0165625
637.130	0.0165925
637.208	0.0165816
637.286	0.0166783
637.364	0.0164732
637.442	0.0165029
637.521	0.0165497
637.599	0.0164251
637.677	0.0165973
637.755	0.0164379
637.833	0.0164583
637.911	0.0166792
637.989	0.0164751
638.067	0.0166140
638.146	0.0165462
638.224	0.0166232
638.302	0.0165099
638.380	0.0164266
638.458	0.0164175
638.536	0.0165305
638.614	0.0165088
638.692	0.0165215
638.771	0.0165289
638.849	0.0164101
638.927	0.0165128
639.005	0.0165900
639.083	0.0164758
639.161	0.0163967
639.239	0.0164497
639.317	0.0165629
639.396	0.0165256
639.474	0.0165269
639.552	0.0166238
639.630	0.0164706
639.708	0.0165821
639.786	0.0166758
639.864	0.0165264
639.942	0.0165057
640.021	0.0166846
640.099	0.0165691
640.177	0.0164841
640.255	0.0165727
640.333	0.0165041
640.411	0.0165368
640.489	0.0165735
640.567	0.0165386
640.646	0.0166065
640.724	0.0165820
640.802	0.0165303
640.880	0.0165458
640.958	0.0163911
641.036	0.0166314
641.114	0.0167023
641.192	0.0164973
641.271	0.0166223
641.349	0.0166275
641.427	0.0164353
641.505	0.0164826
641.583	0.0165070
641.661	0.0164672
641.739	0.0163889
641.817	0.0164992
641.896	0.0167371
641.974	0.0164422
642.052	0.0162780
642.130	0.0165430
642.208	0.0165852
642.286	0.0165912
642.364	0.0165083
642.442	0.0164786
642.521	0.0165898
642.599	0.0163753
642.677	0.0165692
642.755	0.0164505
642.833	0.0166386
642.911	0.0164256
642.989	0.0164130
643.067	0.0165784
643.146	0.0165392
643.224	0.0165289
643.302	0.0164434
643.380	0.0164909
643.458	0.0164320
643.536	0.0165321
643.614	0.0165037
643.692	0.0165173
643.771	0.0165539
643.849	0.0165275
643.927	0.0165566
644.005	0.0165712
644.083	0.0165208
644.161	0.0166606
644.239	0.0167351
644.317	0.0164966
644.396	0.0165720
644.474	0.0165633
644.552	0.0166956
644.630	0.0166020
644.708	0.0166732
644.786	0.0166054
644.864	0.0165919
644.942	0.0166253
645.021	0.0167483
645.099	0.0165108
645.177	0.0165311
645.255	0.0165900
645.333	0.0167726
645.411	0.0165391
645.489	0.0164981
645.567	0.0165381
645.646	0.0165728
645.724	0.0166407
645.802	0.0167163
645.880	0.0164217
645.958	0.0166727
646.036	0.0164945
646.114	0.0166201
646.192	0.0165360
646.271	0.0164832
646.349	0.0164288
646.427	0.0164895
646.505	0.0165995
646.583	0.0165810
646.661	0.0164661
646.739	0.0164783
646.817	0.0165054
646.896	0.0165887
646.974	0.0165720
647.052	0.0165121
647.130	0.0164567
647.208	0.0165437
647.286	0.0163718
647.364	0.0165014
647.442	0.0165881
647.521	0.0164397
647.599	0.0166241
647.677	0.0165486
647.755	0.0164336
647.833	0.0164776
647.911	0.0165794
647.989	0.0165063
648.067	0.0165694
648.146	0.0165073
648.224	0.0165678
648.302	0.0166035
648.380	0.0165327
648.458	0.0165025
648.536	0.0166119
648.614	0.0165345
648.692	0.0164999
648.771	0.0163794
648.849	0.0164333
648.927	0.0165465
649.005	0.0165516
649.083	0.0166097
649.161	0.0165392
649.239	0.0165802
649.317	0.0166540
649.396	0.0164671
649.474	0.0165116
649.552	0.0165541
649.630	0.0165622
649.708	0.0164298
649.786	0.0165483
649.864	0.0165749
649.942	0.0164811
650.021	0.0164109
650.099	0.0165832
650.177	0.0166702
650.255	0.0165579
650.333	0.0165243
650.411	0.0165668
650.489	0.0165337
650.567	0.0165737
650.646	0.0166197
650.724	0.0165837
650.802	0.0165459
650.880	0.0165620
650.958	0.0164347
651.036	0.0166235
651.114	0.0165723
651.192	0.0166235
651.271	0.0165632
651.349	0.0164945
651.427	0.0164524
651.505	0.0164716
651.583	0.0165379
651.661	0.0165489
651.739	0.0165649
651.817	0.0166263
651.896	0.0164258
651.974	0.0164034
652.052	0.0165098
652.130	0.0166154
652.208	0.0163932
652.286	0.0164430
652.364	0.0165298
652.442	0.0166493
652.521	0.0164183
652.599	0.0164323
652.677	0.0166952
652.755	0.0164806
652.833	0.0165540
652.911	0.0165629
652.989	0.0164341
653.067	0.0165359
653.146	0.0165202
653.224	0.0165771
653.302	0.0164310
653.380	0.0164941
653.458	0.0165500
653.536	0.0165707
653.614	0.0165812
653.692	0.0165548
653.771	0.0164999
653.849	0.0164461
653.927	0.0165563
654.005	0.0165083
654.083	0.0166908
654.161	0.0164561
654.239	0.0166669
654.317	0.0165090
654.396	0.0164531
654.474	0.0166219
654.552	0.0165195
654.630	0.0165034
654.708	0.0167083
654.786	0.0165533
654.864	0.0165385
654.942	0.0165463
655.021	0.0165553
655.099	0.0166358
655.177	0.0165751
655.255	0.0166999
655.333	0.0166016
655.411	0.0166852
655.489	0.0166256
655.567	0.0165123
655.646	0.0164720
655.724	0.0164721
655.802	0.0165840
655.880	0.0164987
655.958	0.0164812
656.036	0.0165865
656.114	0.0164810
656.192	0.0165619
656.271	0.0166451
656.349	0.0163559
656.427	0.0164871
656.505	0.0166624
656.583	0.0164690
656.661	0.0165453
656.739	0.0165517
656.817	0.0164773
656.896	0.0165948
656.974	0.0165606
657.052	0.0164043
657.130	0.0165692
657.208	0.0166028
657.286	0.0166119
657.364	0.0164987
657.442	0.0165430
657.521	0.0164072
657.599	0.0164242
657.677	0.0164839
657.755	0.0165195
657.833	0.0163657
657.911	0.0164610
657.989	0.0165728
658.067	0.0163707
658.146	0.0163928
658.224	0.0165322
658.302	0.0163190
658.380	0.0164719
658.458	0.0166210
658.536	0.0164834
658.614	0.0165257
658.692	0.0164870
658.771	0.0165652
658.849	0.0165332
658.927	0.0164943
659.005	0.0164381
659.083	0.0165840
659.161	0.0165656
659.239	0.0166347
659.317	0.0166002
659.396	0.0165047
659.474	0.0166009
659.552	0.0165147
659.630	0.0166326
659.708	0.0165643
659.786	0.0165609
659.864	0.0162977
659.942	0.0165495
660.021	0.0164964
660.099	0.0164555
660.177	0.0165087
660.255	0.0165677
660.333	0.0165262
660.411	0.0163999
660.489	0.0165135
660.567	0.0165064
660.646	0.0164677
660.724	0.0164973
660.802	0.0164114
660.880	0.0164765
660.958	0.0166086
661.036	0.0164259
661.114	0.0165166
661.192	0.0163890
661.271	0.0164298
661.349	0.0164321
661.427	0.0164080
661.505	0.0166511
661.583	0.0166045
661.661	0.0164526
661.739	0.0164334
661.817	0.0164285
661.896	0.0165210
661.974	0.0164757
662.052	0.0165079
662.130	0.0165042
662.208	0.0165420
662.286	0.0164175
662.364	0.0164680
662.442	0.0164651
662.521	0.0164685
662.599	0.0164417
662.677	0.0165159
662.755	0.0165678
662.833	0.0164689
662.911	0.0163257
662.989	0.0164444
663.067	0.0165936
663.146	0.0164893
663.224	0.0165486
663.302	0.0164226
663.380	0.0165229
663.458	0.0165536
663.536	0.0164855
663.614	0.0165214
663.692	0.0166146
663.771	0.0163914
663.849	0.0165283
663.927	0.0165913
664.005	0.0164591
664.083	0.0164830
664.161	0.0164144
664.239	0.0164645
664.317	0.0163314
664.396	0.0165898
664.474	0.0165431
664.552	0.0164857
664.630	0.0166027
664.708	0.0166441
664.786	0.0165079
664.864	0.0164449
664.942	0.0165025
665.021	0.0165361
665.099	0.0165506
665.177	0.0164624
665.255	0.0164993
665.333	0.0164529
665.411	0.0164106
665.489	0.0164844
665.567	0.0165266
665.646	0.0165731
665.724	0.0165416
665.802	0.0164682
665.880	0.0164797
665.958	0.0164871
666.036	0.0164597
666.114	0.0163325
666.192	0.0166402
666.271	0.0164902
666.349	0.0164806
666.427	0.0165358
666.505	0.0165829
666.583	0.0165096
666.661	0.0165105
666.739	0.0165520
666.817	0.0165891
666.896	0.0163423
666.974	0.0164980
667.052	0.0165170
667.130	0.0165308
667.208	0.0167361
667.286	0.0165649
667.364	0.0165126
667.442	0.0164068
667.521	0.0165927
667.599	0.0166504
667.677	0.0165874
667.755	0.0165150
667.833	0.0165723
667.911	0.0166862
667.989	0.0164529
668.067	0.0165067
668.146	0.0165533
668.224	0.0165606
668.302	0.0165189
668.380	0.0165358
668.458	0.0166682
668.536	0.0165183
668.614	0.0165028
668.692	0.0166791
668.771	0.0166227
668.849	0.0165971
668.927	0.0165884
669.005	0.0165533
669.083	0.0164363
669.161	0.0165855
669.239	0.0164893
669.317	0.0165145
669.396	0.0165253
669.474	0.0164520
669.552	0.0165844
669.630	0.0165356
669.708	0.0164444
669.786	0.0164737
669.864	0.0166328
669.942	0.0165393
670.021	0.0164606
670.099	0.0164872
670.177	0.0166231
670.255	0.0166270
670.333	0.0164821
670.411	0.0165977
670.489	0.0166131
670.567	0.0165195
670.646	0.0165099
670.724	0.0165894
670.802	0.0164527
670.880	0.0164517
670.958	0.0165868
671.036	0.0165524
671.114	0.0166074
671.192	0.0165862
671.271	0.0165742
671.349	0.0165215
671.427	0.0165672
671.505	0.0164986
671.583	0.0165160
671.661	0.0166885
671.739	0.0166608
671.817	0.0166444
671.896	0.0165823
671.974	0.0166768
672.052	0.0165865
672.130	0.0166167
672.208	0.0165527
672.286	0.0166545
672.364	0.0165997
672.442	0.0165967
672.521	0.0166220
672.599	0.0165237
672.677	0.0166764
672.755	0.0165671
672.833	0.0165672
672.911	0.0165987
672.989	0.0166002
673.067	0.0165259
673.146	0.0166202
673.224	0.0166947
673.302	0.0166889
673.380	0.0166133
673.458	0.0165399
673.536	0.0165132
673.614	0.0164745
673.692	0.0166441
673.771	0.0166808
673.849	0.0165681
673.927	0.0165709
674.005	0.0166618
674.083	0.0165726
674.161	0.0165662
674.239	0.0166892
674.317	0.0164860
674.396	0.0163998
674.474	0.0165972
674.552	0.0165726
674.630	0.0166060
674.708	0.0165891
674.786	0.0166074
674.864	0.0166595
674.942	0.0166432
675.021	0.0166302
675.099	0.0166143
675.177	0.0168070
675.255	0.0166450
675.333	0.0166223
675.411	0.0165774
675.489	0.0166164
675.567	0.0166972
675.646	0.0165881
675.724	0.0166261
675.802	0.0165483
675.880	0.0167240
675.958	0.0166295
676.036	0.0165681
676.114	0.0165952
676.192	0.0166118
676.271	0.0166517
676.349	0.0166718
676.427	0.0166134
676.505	0.0166351
676.583	0.0166217
676.661	0.0165113
676.739	0.0164649
676.817	0.0166509
676.896	0.0164506
676.974	0.0164790
677.052	0.0165818
677.130	0.0165486
677.208	0.0165005
677.286	0.0165927
677.364	0.0164866
677.442	0.0164720
677.521	0.0166023
677.599	0.0165773
677.677	0.0165838
677.755	0.0165419
677.833	0.0165846
677.911	0.0166044
677.989	0.0165110
678.067	0.0165351
678.146	0.0165315
678.224	0.0166589
678.302	0.0164429
678.380	0.0166688
678.458	0.0165811
678.536	0.0166302
678.614	0.0166773
678.692	0.0165313
678.771	0.0165450
678.849	0.0166151
678.927	0.0164652
679.005	0.0165326
679.083	0.0165608
679.161	0.0164674
679.239	0.0164480
679.317	0.0164925
679.396	0.0165562
679.474	0.0164793
679.552	0.0164753
679.630	0.0165994
679.708	0.0165398
679.786	0.0164839
679.864	0.0165527
679.942	0.0165471
680.021	0.0165326
680.099	0.0165903
680.177	0.0166270
680.255	0.0164671
680.333	0.0164630
680.411	0.0164034
680.489	0.0165429
680.567	0.0165318
680.646	0.0166179
680.724	0.0165840
680.802	0.0166348
680.880	0.0166112
680.958	0.0165022
681.036	0.0165045
681.114	0.0164695
681.192	0.0164492
681.271	0.0165591
681.349	0.0165095
681.427	0.0165506
681.505	0.0165661
681.583	0.0164484
681.661	0.0164513
681.739	0.0163845
681.817	0.0166564
681.896	0.0165179
681.974	0.0164004
682.052	0.0164473
682.130	0.0166496
682.208	0.0165398
682.286	0.0163856
682.364	0.0165662
682.442	0.0165314
682.521	0.0165624
682.599	0.0166598
682.677	0.0164832
682.755	0.0164955
682.833	0.0165155
682.911	0.0164584
682.989	0.0165244
683.067	0.0166216
683.146	0.0167184
683.224	0.0165412
683.302	0.0164761
683.380	0.0165337
683.458	0.0164887
683.536	0.0166125
683.614	0.0165960
683.692	0.0164539
683.771	0.0165440
683.849	0.0165959
683.927	0.0164324
684.005	0.0165130
684.083	0.0166243
684.161	0.0165795
684.239	0.0163351
684.317	0.0164763
684.396	0.0165668
684.474	0.0166738
684.552	0.0166948
684.630	0.0167188
684.708	0.0167615
684.786	0.0167166
684.864	0.0167228
684.942	0.0166746
685.021	0.0166681
685.099	0.0167443
685.177	0.0166064
685.255	0.0164294
685.333	0.0163963
685.411	0.0164264
685.489	0.0164064
685.567	0.0163351
685.646	0.0162682
685.724	0.0163174
685.802	0.0165668
685.880	0.0166613
685.958	0.0168863
686.036	0.0167559
686.114	0.0167406
686.192	0.0168674
686.271	0.0169909
686.349	0.0167994
686.427	0.0168702
686.505	0.0168389
686.583	0.0167679
686.661	0.0164420
686.739	0.0163844
686.817	0.0161896
686.896	0.0160934
686.974	0.0159181
687.052	0.0159320
687.130	0.0158830
687.208	0.0160469
687.286	0.0161729
687.364	0.0164191
687.442	0.0166273
687.521	0.0168858
687.599	0.0170335
687.677	0.0173207
687.755	0.0174098
687.833	0.0173064
687.911	0.0172511
687.989	0.0171333
688.067	0.0168533
688.146	0.0165906
688.224	0.0162300
688.302	0.0160244
688.380	0.0156683
688.458	0.0155762
688.536	0.0154803
688.614	0.0157001
688.692	0.0157724
688.771	0.0159321
688.849	0.0162553
688.927	0.0165726
689.005	0.0168919
689.083	0.0172790
689.161	0.0174035
689.239	0.0175823
689.317	0.0176276
689.396	0.0175986
689.474	0.0173052
689.552	0.0170121
689.630	0.0165694
689.708	0.0163615
689.786	0.0159418
689.864	0.0158031
689.942	0.0155341
690.021	0.0155241
690.099	0.0155383
690.177	0.0157362
690.255	0.0159401
690.333	0.0162184
690.411	0.0163979
690.489	0.0165266
690.567	0.0167858
690.646	0.0170676
690.724	0.0172001
690.802	0.0172026
690.880	0.0173900
690.958	0.0173069
691.036	0.0169940
691.114	0.0169396
691.192	0.0169122
691.271	0.0166283
691.349	0.0163187
691.427	0.0161751
691.505	0.0160259
691.583	0.0156142
691.661	0.0158295
691.739	0.0158321
691.817	0.0159580
691.896	0.0161017
691.974	0.0161892
692.052	0.0166447
692.130	0.0168192
692.208	0.0168420
692.286	0.0169864
692.364	0.0171837
692.442	0.0171557
692.521	0.0172814
692.599	0.0169595
692.677	0.0168282
692.755	0.0166469
692.833	0.0163100
692.911	0.0162191
692.989	0.0159403
693.067	0.0160999
693.146	0.0160233
693.224	0.0161639
693.302	0.0163430
693.380	0.0164313
693.458	0.0165128
693.536	0.0165765
693.614	0.0167179
693.692	0.0167621
693.771	0.0166665
693.849	0.0166134
693.927	0.0166646
694.005	0.0165702
694.083	0.0164856
694.161	0.0164740
694.239	0.0164921
694.317	0.0164508
694.396	0.0164971
694.474	0.0164928
694.552	0.0164652
694.630	0.0165754
694.708	0.0166227
694.786	0.0165997
694.864	0.0166203
694.942	0.0166138
695.021	0.0165436
695.099	0.0164914
695.177	0.0163976
695.255	0.0162180
695.333	0.0161607
695.411	0.0161313
695.489	0.0161935
695.567	0.0162230
695.646	0.0162116
695.724	0.0163754
695.802	0.0166451
695.880	0.0168980
695.958	0.0167597
696.036	0.0169092
696.114	0.0169236
696.192	0.0170197
696.271	0.0171116
696.349	0.0171009
696.427	0.0170208
696.505	0.0169151
696.583	0.0167998
696.661	0.0168385
696.739	0.0166331
696.817	0.0165202
696.896	0.0164213
696.974	0.0164482
697.052	0.0164075
697.130	0.0164264
697.208	0.0165324
697.286	0.0167165
697.364	0.0167279
697.442	0.0167018
697.521	0.0169064
697.599	0.0167699
697.677	0.0167448
697.755	0.0164098
697.833	0.0164532
697.911	0.0164006
697.989	0.0161899
698.067	0.0159213
698.146	0.0158315
698.224	0.0158435
698.302	0.0157697
698.380	0.0157018
698.458	0.0158174
698.536	0.0158267
698.614	0.0160741
698.692	0.0160660
698.771	0.0162635
698.849	0.0161912
698.927	0.0165137
699.005	0.0165555
699.083	0.0165954
699.161	0.0166194
699.239	0.0166709
699.317	0.0167453
699.396	0.0168688
699.474	0.0168655
699.552	0.0168412
699.630	0.0169305
699.708	0.0168586
699.786	0.0168629
699.864	0.0168054
699.942	0.0170628
700.021	0.0169930
700.099	0.0170593
700.177	0.0169712
700.255	0.0168190
700.333	0.0167749
700.411	0.0167809
700.489	0.0167049
700.567	0.0166180
700.646	0.0165761
700.724	0.0164489
700.802	0.0165093
700.880	0.0162843
700.958	0.0166019
701.036	0.0166780
701.114	0.0166536
701.192	0.0169656
701.271	0.0171957
701.349	0.0172419
701.427	0.0174159
701.505	0.0175655
701.583	0.0176505
701.661	0.0177960
701.739	0.0175951
701.817	0.0173482
701.896	0.0173133
701.974	0.0170704
702.052	0.0167619
702.130	0.0162823
702.208	0.0160195
702.286	0.0158659
702.364	0.0154980
702.442	0.0152840
702.521	0.0152472
702.599	0.0150587
702.677	0.0151513
702.755	0.0151206
702.833	0.0150824
702.911	0.0150062
702.989	0.0150565
703.067	0.0149297
703.146	0.0151476
703.224	0.0150886
703.302	0.0152058
703.380	0.0152978
703.458	0.0153808
703.536	0.0155051
703.614	0.0157130
703.692	0.0159424
703.771	0.0161568
703.849	0.0164624
703.927	0.0167323
704.005	0.0170152
704.083	0.0174593
704.161	0.0178722
704.239	0.0181368
704.317	0.0184935
704.396	0.0186988
704.474	0.0188556
704.552	0.0189545
704.630	0.0189773
704.708	0.0190498
704.786	0.0186888
704.864	0.0185923
704.942	0.0184470
705.021	0.0182182
705.099	0.0179415
705.177	0.0175517
705.255	0.0173282
705.333	0.0171414
705.411	0.0170157
705.489	0.0166988
705.567	0.0165378
705.646	0.0162716
705.724	0.0159541
705.802	0.0156801
705.880	0.0156264
705.958	0.0154337
706.036	0.0152785
706.114	0.0152779
706.192	0.0151949
706.271	0.0152293
706.349	0.0154671
706.427	0.0157302
706.505	0.0159038
706.583	0.0161717
706.661	0.0164764
706.739	0.0166500
706.817	0.0170441
706.896	0.0173881
706.974	0.0176130
707.052	0.0176626
707.130	0.0179279
707.208	0.0177962
707.286	0.0176437
707.364	0.0173267
707.442	0.0170095
707.521	0.0163972
707.599	0.0158564
707.677	0.0153812
707.755	0.0146523
707.833	0.0139525
707.911	0.0133137
707.989	0.0128725
708.067	0.0122855
708.146	0.0119362
708.224	0.0118569
708.302	0.0119270
708.380	0.0121277
708.458	0.0126125
708.536	0.0131284
708.614	0.0138515
708.692	0.0146199
708.771	0.0156801
708.849	0.0164648
708.927	0.0172771
709.005	0.0182616
709.083	0.0189375
709.161	0.0196426
709.239	0.0201881
709.317	0.0206480
709.396	0.0211961
709.474	0.0215070
709.552	0.0215583
709.630	0.0217165
709.708	0.0217096
709.786	0.0215649
709.864	0.0214216
709.942	0.0211726
710.021	0.0208834
710.099	0.0203484
710.177	0.0199564
710.255	0.0195332
710.333	0.0190741
710.411	0.0186283
710.489	0.0181155
710.567	0.0176818
710.646	0.0170187
710.724	0.0164362
710.802	0.0159032
710.880	0.0152675
710.958	0.0146584
711.036	0.0140894
711.114	0.0135658
711.192	0.0132700
711.271	0.0127897
711.349	0.0126090
711.427	0.0125629
711.505	0.0124861
711.583	0.0126874
711.661	0.0131062
711.739	0.0133740
711.817	0.0138996
711.896	0.0146738
711.974	0.0152520
712.052	0.0161993
712.130	0.0168301
712.208	0.0173810
712.286	0.0179346
712.364	0.0184401
712.442	0.0186089
712.521	0.0185515
712.599	0.0183115
712.677	0.0181069
712.755	0.0174136
712.833	0.0161968
712.911	0.0152116
712.989	0.0140226
713.067	0.0128041
713.146	0.0115330
713.224	0.0105051
713.302	0.00960922
713.380	0.00926163
713.458	0.00890015
713.536	0.00886322
713.614	0.00919273
713.692	0.00977921
713.771	0.0109161
713.849	0.0120487
713.927	0.0134629
714.005	0.0147406
714.083	0.0163235
714.161	0.0178579
714.239	0.0192757
714.317	0.0206287
714.396	0.0219995
714.474	0.0229831
714.552	0.0238590
714.630	0.0245384
714.708	0.0251070
714.786	0.0255864
714.864	0.0256031
714.942	0.0256642
715.021	0.0256583
715.099	0.0253920
715.177	0.0250099
715.255	0.0245962
715.333	0.0239066
715.411	0.0231232
715.489	0.0224957
715.567	0.0215448
715.646	0.0204614
715.724	0.0195869
715.802	0.0187005
715.880	0.0178705
715.958	0.0169209
716.036	0.0161303
716.114	0.0154722
716.192	0.0149295
716.271	0.0144959
716.349	0.0140826
716.427	0.0139230
716.505	0.0136786
716.583	0.0137525
716.661	0.0138007
716.739	0.0139387
716.817	0.0140173
716.896	0.0137994
716.974	0.0135590
717.052	0.0135610
717.130	0.0132220
717.208	0.0125878
717.286	0.0119418
717.364	0.0112403
717.442	0.0102665
717.521	0.00933189
717.599	0.00829750
717.677	0.00709381
717.755	0.00616318
717.833	0.00536423
717.911	0.00451080
717.989	0.00390289
718.067	0.00370262
718.146	0.00372459
718.224	0.00424751
718.302	0.00523209
718.380	0.00637726
718.458	0.00786995
718.536	0.00965134
718.614	0.0117957
718.692	0.0142574
718.771	0.0166321
718.849	0.0193992
718.927	0.0218664
719.005	0.0242824
719.083	0.0264428
719.161	0.0284138
719.239	0.0300706
719.317	0.0312070
719.396	0.0322556
719.474	0.0327630
719.552	0.0330897
719.630	0.0328197
719.708	0.0323203
719.786	0.0314703
719.864	0.0304890
719.942	0.0293449
720.021	0.0278985
720.099	0.0264552
720.177	0.0249558
720.255	0.0233804
720.333	0.0219973
720.411	0.0204798
720.489	0.0190405
720.567	0.0177042
720.646	0.0164899
720.724	0.0154875
720.802	0.0145760
720.880	0.0138422
720.958	0.0132054
721.036	0.0128448
721.114	0.0125350
721.192	0.0120340
721.271	0.0119123
721.349	0.0115974
721.427	0.0111276
721.505	0.0109818
721.583	0.0104199
721.661	0.00996674
721.739	0.00961945
721.817	0.00899918
721.896	0.00830093
721.974	0.00776398
722.052	0.00711700
722.130	0.00660355
722.208	0.00599815
722.286	0.00575356
722.364	0.00557060
722.442	0.00556343
722.521	0.00585930
722.599	0.00619278
722.677	0.00706314
722.755	0.00800056
722.833	0.00929276
722.911	0.0107183
722.989	0.0121699
723.067	0.0137521
723.146	0.0154991
723.224	0.0173375
723.302	0.0191495
723.380	0.0205365
723.458	0.0220605
723.536	0.0234857
723.614	0.0244736
723.692	0.0253548
723.771	0.0260207
723.849	0.0263449
723.927	0.0266963
724.005	0.0266914
724.083	0.0265285
724.161	0.0262791
724.239	0.0256765
724.317	0.0250483
724.396	0.0244017
724.474	0.0236555
724.552	0.0229089
724.630	0.0220704
724.708	0.0214219
724.786	0.0207485
724.864	0.0202224
724.942	0.0196078
725.021	0.0191247
725.099	0.0185196
725.177	0.0177750
725.255	0.0176240
725.333	0.0170924
725.411	0.0165501
725.489	0.0161637
725.567	0.0157748
725.646	0.0154180
725.724	0.0150522
725.802	0.0146442
725.880	0.0143452
725.958	0.0139393
726.036	0.0135818
726.114	0.0132011
726.192	0.0126801
726.271	0.0123139
726.349	0.0119175
726.427	0.0113088
726.505	0.0109254
726.583	0.0104870
726.661	0.0101584
726.739	0.00987938
726.817	0.00953369
726.896	0.00954025
726.974	0.00983673
727.052	0.0101741
727.130	0.0106653
727.208	0.0112051
727.286	0.0121375
727.364	0.0131396
727.442	0.0139002
727.521	0.0149696
727.599	0.0160380
727.677	0.0169030
727.755	0.0178121
727.833	0.0185017
727.911	0.0193092
727.989	0.0198535
728.067	0.0202966
728.146	0.0204479
728.224	0.0206244
728.302	0.0206796
728.380	0.0206476
728.458	0.0205221
728.536	0.0203855
728.614	0.0201279
728.692	0.0198978
728.771	0.0194393
728.849	0.0192630
728.927	0.0190303
729.005	0.0189021
729.083	0.0186018
729.161	0.0185815
729.239	0.0185420
729.317	0.0185744
729.396	0.0185070
729.474	0.0184545
729.552	0.0186024
729.630	0.0185255
729.708	0.0184393
729.786	0.0184992
729.864	0.0185342
729.942	0.0182292
730.021	0.0179556
730.099	0.0176677
730.177	0.0174380
730.255	0.0170335
730.333	0.0167574
730.411	0.0163458
730.489	0.0159489
730.567	0.0154634
730.646	0.0149513
730.724	0.0145780
730.802	0.0141772
730.880	0.0136887
730.958	0.0133344
731.036	0.0131902
731.114	0.0130141
731.192	0.0127438
731.271	0.0126981
731.349	0.0125356
731.427	0.0124638
731.505	0.0126204
731.583	0.0126534
731.661	0.0126921
731.739	0.0130215
731.817	0.0131947
731.896	0.0135573
731.974	0.0138763
732.052	0.0141754
732.130	0.0146228
732.208	0.0148987
732.286	0.0155807
732.364	0.0159264
732.442	0.0163921
732.521	0.0169127
732.599	0.0172836
732.677	0.0178233
732.755	0.0181777
732.833	0.0183276
732.911	0.0187316
732.989	0.0190591
733.067	0.0194425
733.146	0.0196021
733.224	0.0197253
733.302	0.0197683
733.380	0.0197190
733.458	0.0198350
733.536	0.0198147
733.614	0.0196420
733.692	0.0192833
733.771	0.0192150
733.849	0.0191962
733.927	0.0189559
734.005	0.0188074
734.083	0.0189635
734.161	0.0189949
734.239	0.0190836
734.317	0.0190916
734.396	0.0191556
734.474	0.0191620
734.552	0.0190952
734.630	0.0191124
734.708	0.0188900
734.786	0.0185081
734.864	0.0180602
734.942	0.0175201
735.021	0.0170720
735.099	0.0167336
735.177	0.0162311
735.255	0.0155966
735.333	0.0150656
735.411	0.0145777
735.489	0.0145090
735.567	0.0139133
735.646	0.0137196
735.724	0.0134604
735.802	0.0131350
735.880	0.0131808
735.958	0.0130624
736.036	0.0131418
736.114	0.0131136
736.192	0.0132096
736.271	0.0132447
736.349	0.0132218
736.427	0.0133651
736.505	0.0136556
736.583	0.0140117
736.661	0.0141952
736.739	0.0143065
736.817	0.0144537
736.896	0.0147544
736.974	0.0151189
737.052	0.0151806
737.130	0.0154022
737.208	0.0157510
737.286	0.0157360
737.364	0.0158564
737.442	0.0162949
737.521	0.0162713
737.599	0.0166389
737.677	0.0168365
737.755	0.0170556
737.833	0.0174603
737.911	0.0176237
737.989	0.0179134
738.067	0.0182774
738.146	0.0186923
738.224	0.0189892
738.302	0.0192724
738.380	0.0194872
738.458	0.0195163
738.536	0.0198893
738.614	0.0199369
738.692	0.0200091
738.771	0.0197279
738.849	0.0196686
738.927	0.0196178
739.005	0.0193933
739.083	0.0191714
739.161	0.0189200
739.239	0.0186171
739.317	0.0184733
739.396	0.0181647
739.474	0.0177596
739.552	0.0174377
739.630	0.0171903
739.708	0.0167765
739.786	0.0165166
739.864	0.0162379
739.942	0.0158315
740.021	0.0157305
740.099	0.0156401
740.177	0.0151958
740.255	0.0150092
740.333	0.0148466
740.411	0.0146372
740.489	0.0146976
740.567	0.0146846
740.646	0.0145500
740.724	0.0145324
740.802	0.0146410
740.880	0.0146632
740.958	0.0145250
741.036	0.0146449
741.114	0.0147955
741.192	0.0148708
741.271	0.0148810
741.349	0.0149313
741.427	0.0150548
741.505	0.0153165
741.583	0.0153319
741.661	0.0155325
741.739	0.0157079
741.817	0.0157078
741.896	0.0160870
741.974	0.0163360
742.052	0.0164149
742.130	0.0164414
742.208	0.0165236
742.286	0.0166011
742.364	0.0166228
742.442	0.0167163
742.521	0.0168042
742.599	0.0167899
742.677	0.0169939
742.755	0.0171016
742.833	0.0170550
742.911	0.0173312
742.989	0.0173143
743.067	0.0174641
743.146	0.0174620
743.224	0.0177528
743.302	0.0178243
743.380	0.0177586
743.458	0.0178692
743.536	0.0180364
743.614	0.0180602
743.692	0.0181581
743.771	0.0182184
743.849	0.0181307
743.927	0.0182082
744.005	0.0179996
744.083	0.0179286
744.161	0.0177132
744.239	0.0175494
744.317	0.0173122
744.396	0.0170766
744.474	0.0168356
744.552	0.0165688
744.630	0.0163438
744.708	0.0160262
744.786	0.0156519
744.864	0.0155596
744.942	0.0154623
745.021	0.0151859
745.099	0.0150911
745.177	0.0148542
745.255	0.0148321
745.333	0.0149004
745.411	0.0148081
745.489	0.0147182
745.567	0.0147422
745.646	0.0148106
745.724	0.0148245
745.802	0.0147842
745.880	0.0147847
745.958	0.0151365
746.036	0.0152551
746.114	0.0154539
746.192	0.0155827
746.271	0.0158930
746.349	0.0161459
746.427	0.0164067
746.505	0.0168062
746.583	0.0170060
746.661	0.0171620
746.739	0.0174080
746.817	0.0175256
746.896	0.0178674
746.974	0.0178993
747.052	0.0179778
747.130	0.0180178
747.208	0.0179713
747.286	0.0179398
747.364	0.0179322
747.442	0.0177759
747.521	0.0178123
747.599	0.0176175
747.677	0.0177397
747.755	0.0174734
747.833	0.0173959
747.911	0.0172892
747.989	0.0171851
748.067	0.0168477
748.146	0.0169788
748.224	0.0167796
748.302	0.0166592
748.380	0.0164721
748.458	0.0163588
748.536	0.0162704
748.614	0.0163312
748.692	0.0162958
748.771	0.0160863
748.849	0.0160214
748.927	0.0160382
749.005	0.0160108
749.083	0.0159566
749.161	0.0156971
749.239	0.0157800
749.317	0.0157511
749.396	0.0156952
749.474	0.0156380
749.552	0.0154155
749.630	0.0154424
749.708	0.0155219
749.786	0.0154128
749.864	0.0153768
749.942	0.0154311
750.021	0.0153836
750.099	0.0154207
750.177	0.0155661
750.255	0.0156116
750.333	0.0156398
750.411	0.0157789
750.489	0.0160202
750.567	0.0163326
750.646	0.0165076
750.724	0.0166343
750.802	0.0170848
750.880	0.0171224
750.958	0.0174606
751.036	0.0177053
751.114	0.0177327
751.192	0.0178364
751.271	0.0179504
751.349	0.0178915
751.427	0.0180605
751.505	0.0181820
751.583	0.0178731
751.661	0.0177096
751.739	0.0175805
751.817	0.0174628
751.896	0.0174004
751.974	0.0171034
752.052	0.0170638
752.130	0.0170447
752.208	0.0168904
752.286	0.0168206
752.364	0.0166512
752.442	0.0165842
752.521	0.0164526
752.599	0.0164772
752.677	0.0162674
752.755	0.0160477
752.833	0.0159370
752.911	0.0159354
752.989	0.0156582
753.067	0.0153993
753.146	0.0154209
753.224	0.0152567
753.302	0.0153092
753.380	0.0152761
753.458	0.0154651
753.536	0.0153242
753.614	0.0154601
753.692	0.0155730
753.771	0.0156129
753.849	0.0158836
753.927	0.0158941
754.005	0.0160688
754.083	0.0161449
754.161	0.0162462
754.239	0.0163958
754.317	0.0165498
754.396	0.0165494
754.474	0.0166132
754.552	0.0167842
754.630	0.0167794
754.708	0.0167144
754.786	0.0168853
754.864	0.0168795
754.942	0.0170427
755.021	0.0171555
755.099	0.0171375
755.177	0.0170132
755.255	0.0172474
755.333	0.0172050
755.411	0.0171978
755.489	0.0171783
755.567	0.0172719
755.646	0.0173205
755.724	0.0173722
755.802	0.0172337
755.880	0.0174258
755.958	0.0174301
756.036	0.0175877
756.114	0.0174458
756.192	0.0176248
756.271	0.0175171
756.349	0.0176627
756.427	0.0175197
756.505	0.0176916
756.583	0.0174822
756.661	0.0174357
756.739	0.0171916
756.817	0.0172906
756.896	0.0169921
756.974	0.0168720
757.052	0.0167757
757.130	0.0165559
757.208	0.0162997
757.286	0.0162023
757.364	0.0160022
757.442	0.0159328
757.521	0.0158038
757.599	0.0156898
757.677	0.0156932
757.755	0.0156295
757.833	0.0156153
757.911	0.0157870
757.989	0.0154928
758.067	0.0157262
758.146	0.0157075
758.224	0.0156539
758.302	0.0157104
758.380	0.0156158
758.458	0.0157367
758.536	0.0157209
758.614	0.0156526
758.692	0.0156839
758.771	0.0157799
758.849	0.0158167
758.927	0.0158153
759.005	0.0158489
759.083	0.0161543
759.161	0.0160636
759.239	0.0162453
759.317	0.0163525
759.396	0.0165610
759.474	0.0167189
759.552	0.0169314
759.630	0.0168553
759.708	0.0171679
759.786	0.0172960
759.864	0.0172406
759.942	0.0174541
760.021	0.0175778
760.099	0.0173887
760.177	0.0176023
760.255	0.0174918
760.333	0.0175795
760.411	0.0177944
760.489	0.0176385
760.567	0.0175455
760.646	0.0173488
760.724	0.0172904
760.802	0.0172465
760.880	0.0171136
760.958	0.0170593
761.036	0.0170577
761.114	0.0168923
761.192	0.0166950
761.271	0.0166123
761.349	0.0165270
761.427	0.0164331
761.505	0.0164465
761.583	0.0163075
761.661	0.0161965
761.739	0.0162704
761.817	0.0163229
761.896	0.0161653
761.974	0.0159295
762.052	0.0160793
762.130	0.0158875
762.208	0.0158568
762.286	0.0160612
762.364	0.0160872
762.442	0.0160542
762.521	0.0162608
762.599	0.0163010
762.677	0.0164463
762.755	0.0166470
762.833	0.0164706
762.911	0.0167091
762.989	0.0167529
763.067	0.0168637
763.146	0.0168343
763.224	0.0169966
763.302	0.0168620
763.380	0.0168764
763.458	0.0170502
763.536	0.0169212
763.614	0.0168924
763.692	0.0168919
763.771	0.0169926
763.849	0.0170173
763.927	0.0169843
764.005	0.0168881
764.083	0.0169352
764.161	0.0169716
764.239	0.0168978
764.317	0.0169453
764.396	0.0170365
764.474	0.0168793
764.552	0.0168349
764.630	0.0170237
764.708	0.0167661
764.786	0.0167039
764.864	0.0166708
764.942	0.0166037
765.021	0.0166261
765.099	0.0166177
765.177	0.0165462
765.255	0.0163479
765.333	0.0162947
765.411	0.0162080
765.489	0.0161806
765.567	0.0161244
765.646	0.0159817
765.724	0.0157567
765.802	0.0156818
765.880	0.0157118
765.958	0.0156649
766.036	0.0155696
766.114	0.0158089
766.192	0.0157219
766.271	0.0156618
766.349	0.0158687
766.427	0.0159955
766.505	0.0160768
766.583	0.0163006
766.661	0.0164123
766.739	0.0163530
766.817	0.0165791
766.896	0.0167077
766.974	0.0165182
767.052	0.0168346
767.130	0.0167564
767.208	0.0166966
767.286	0.0168194
767.364	0.0166635
767.442	0.0167777
767.521	0.0168223
767.599	0.0168064
767.677	0.0168436
767.755	0.0168296
767.833	0.0169221
767.911	0.0168000
767.989	0.0167695
768.067	0.0167712
768.146	0.0169518
768.224	0.0168353
768.302	0.0167837
768.380	0.0169860
768.458	0.0169653
768.536	0.0169276
768.614	0.0166715
768.692	0.0170612
768.771	0.0168972
768.849	0.0170470
768.927	0.0171906
769.005	0.0170997
769.083	0.0170350
769.161	0.0170470
769.239	0.0170478
769.317	0.0169680
769.396	0.0169415
769.474	0.0169461
769.552	0.0167915
769.630	0.0167325
769.708	0.0166097
769.786	0.0167938
769.864	0.0165391
769.942	0.0164352
770.021	0.0164040
770.099	0.0162679
770.177	0.0161931
770.255	0.0159850
770.333	0.0159808
770.411	0.0160072
770.489	0.0159545
770.567	0.0159744
770.646	0.0157748
770.724	0.0159480
770.802	0.0158328
770.880	0.0158630
770.958	0.0159395
771.036	0.0159649
771.114	0.0160334
771.192	0.0159866
771.271	0.0161972
771.349	0.0161839
771.427	0.0162130
771.505	0.0164051
771.583	0.0163356
771.661	0.0163991
771.739	0.0165096
771.817	0.0163728
771.896	0.0164838
771.974	0.0164706
772.052	0.0165159
772.130	0.0165895
772.208	0.0166439
772.286	0.0167036
772.364	0.0165455
772.442	0.0165834
772.521	0.0165916
772.599	0.0166305
772.677	0.0167550
772.755	0.0166503
772.833	0.0166640
772.911	0.0167461
772.989	0.0167471
773.067	0.0166256
773.146	0.0166810
773.224	0.0169055
773.302	0.0168824
773.380	0.0169695
773.458	0.0169917
773.536	0.0169563
773.614	0.0169019
773.692	0.0171275
773.771	0.0171416
773.849	0.0170882
773.927	0.0171563
774.005	0.0170837
774.083	0.0170162
774.161	0.0169106
774.239	0.0167999
774.317	0.0169201
774.396	0.0167509
774.474	0.0167348
774.552	0.0165863
774.630	0.0165705
774.708	0.0164468
774.786	0.0161633
774.864	0.0160912
774.942	0.0161320
775.021	0.0161100
775.099	0.0159277
775.177	0.0157754
775.255	0.0158134
775.333	0.0158670
775.411	0.0158055
775.489	0.0159053
775.567	0.0156559
775.646	0.0159035
775.724	0.0159832
775.802	0.0161571
775.880	0.0162112
775.958	0.0162982
776.036	0.0164921
776.114	0.0166515
776.192	0.0167092
776.271	0.0166969
776.349	0.0165860
776.427	0.0167288
776.505	0.0168151
776.583	0.0168724
776.661	0.0168124
776.739	0.0168357
776.817	0.0166888
776.896	0.0167707
776.974	0.0167303
777.052	0.0168159
777.130	0.0168133
777.208	0.0169121
777.286	0.0169028
777.364	0.0168197
777.442	0.0169670
777.521	0.0169868
777.599	0.0169202
777.677	0.0170068
777.755	0.0170541
777.833	0.0170467
777.911	0.0168989
777.989	0.0168839
778.067	0.0168729
778.146	0.0167865
778.224	0.0167908
778.302	0.0167307
778.380	0.0167568
778.458	0.0166440
778.536	0.0164259
778.614	0.0164930
778.692	0.0163373
778.771	0.0162335
778.849	0.0160857
778.927	0.0162719
779.005	0.0162773
779.083	0.0160813
779.161	0.0159789
779.239	0.0161249
779.317	0.0162095
779.396	0.0163384
779.474	0.0160789
779.552	0.0161273
779.630	0.0164500
779.708	0.0162647
779.786	0.0163572
779.864	0.0166038
779.942	0.0166289
780.021	0.0167210
780.099	0.0167706
780.177	0.0167863
780.255	0.0170155
780.333	0.0169740
780.411	0.0169341
780.489	0.0168505
780.567	0.0168649
780.646	0.0170252
780.724	0.0169475
780.802	0.0168172
780.880	0.0168719
780.958	0.0166046
781.036	0.0166119
781.114	0.0166216
781.192	0.0164825
781.271	0.0163340
781.349	0.0161745
781.427	0.0163741
781.505	0.0162537
781.583	0.0161021
781.661	0.0160888
781.739	0.0161323
781.817	0.0161402
781.896	0.0162686
781.974	0.0162964
782.052	0.0163503
782.130	0.0163960
782.208	0.0162273
782.286	0.0164828
782.364	0.0166351
782.442	0.0165190
782.521	0.0165171
782.599	0.0167410
782.677	0.0167474
782.755	0.0167975
782.833	0.0168903
782.911	0.0168839
782.989	0.0169538
783.067	0.0170609
783.146	0.0169504
783.224	0.0170338
783.302	0.0170875
783.380	0.0168429
783.458	0.0168474
783.536	0.0168153
783.614	0.0167820
783.692	0.0167430
783.771	0.0166444
783.849	0.0166233
783.927	0.0164819
784.005	0.0163345
784.083	0.0164194
784.161	0.0163455
784.239	0.0163849
784.317	0.0163454
784.396	0.0162746
784.474	0.0163334
784.552	0.0163550
784.630	0.0163450
784.708	0.0164516
784.786	0.0164749
784.864	0.0165837
784.942	0.0165809
785.021	0.0167139
785.099	0.0166036
785.177	0.0166949
785.255	0.0165036
785.333	0.0164365
785.411	0.0165871
785.489	0.0166780
785.567	0.0165111
785.646	0.0164833
785.724	0.0165448
785.802	0.0166621
785.880	0.0165179
785.958	0.0166733
786.036	0.0167724
786.114	0.0166964
786.192	0.0167378
786.271	0.0168157
786.349	0.0169674
786.427	0.0170901
786.505	0.0168073
786.583	0.0167264
786.661	0.0168350
786.739	0.0167667
786.817	0.0167937
786.896	0.0169376
786.974	0.0167859
787.052	0.0166581
787.130	0.0166751
787.208	0.0165976
787.286	0.0166617
787.364	0.0165614
787.442	0.0165842
787.521	0.0164872
787.599	0.0165790
787.677	0.0164787
787.755	0.0163796
787.833	0.0165010
787.911	0.0163973
787.989	0.0163432
788.067	0.0164697
788.146	0.0164153
788.224	0.0165114
788.302	0.0165134
788.380	0.0165687
788.458	0.0164885
788.536	0.0165563
788.614	0.0165281
788.692	0.0163756
788.771	0.0165503
788.849	0.0166106
788.927	0.0165068
789.005	0.0164542
789.083	0.0163773
789.161	0.0164542
789.239	0.0164487
789.317	0.0163261
789.396	0.0163450
789.474	0.0161861
789.552	0.0162732
789.630	0.0162099
789.708	0.0161183
789.786	0.0161001
789.864	0.0162705
789.942	0.0163383
790.021	0.0162922
790.099	0.0162202
790.177	0.0162939
790.255	0.0163778
790.333	0.0164060
790.411	0.0164474
790.489	0.0165699
790.567	0.0166437
790.646	0.0166125
790.724	0.0165764
790.802	0.0165618
790.880	0.0166152
790.958	0.0166247
791.036	0.0165390
791.114	0.0166521
791.192	0.0165829
791.271	0.0166588
791.349	0.0165148
791.427	0.0166454
791.505	0.0168184
791.583	0.0167559
791.661	0.0166343
791.739	0.0167413
791.817	0.0167873
791.896	0.0165163
791.974	0.0166945
792.052	0.0166991
792.130	0.0166665
792.208	0.0167340
792.286	0.0166322
792.364	0.0164525
792.442	0.0164862
792.521	0.0165504
792.599	0.0163717
792.677	0.0164899
792.755	0.0164137
792.833	0.0163438
792.911	0.0164814
792.989	0.0164642
793.067	0.0164497
793.146	0.0165763
793.224	0.0164938
793.302	0.0164479
793.380	0.0163808
793.458	0.0164949
793.536	0.0163963
793.614	0.0165595
793.692	0.0165244
793.771	0.0163734
793.849	0.0165278
793.927	0.0165359
794.005	0.0164425
794.083	0.0164584
794.161	0.0165672
794.239	0.0164583
794.317	0.0163191
794.396	0.0165185
794.474	0.0165873
794.552	0.0166038
794.630	0.0166431
794.708	0.0165402
794.786	0.0165235
794.864	0.0166053
794.942	0.0166677
795.021	0.0165019
795.099	0.0165401
795.177	0.0164819
795.255	0.0165359
795.333	0.0165163
795.411	0.0165530
795.489	0.0165997
795.567	0.0164569
795.646	0.0164063
795.724	0.0168235
795.802	0.0167966
795.880	0.0167804
795.958	0.0168695
796.036	0.0168102
796.114	0.0169239
796.192	0.0171651
796.271	0.0168027
796.349	0.0167493
796.427	0.0168899
796.505	0.0168567
796.583	0.0167464
796.661	0.0166409
796.739	0.0165855
796.817	0.0164716
796.896	0.0164051
796.974	0.0162440
797.052	0.0161053
797.130	0.0160645
797.208	0.0160389
797.286	0.0160461
797.364	0.0160100
797.442	0.0160276
797.521	0.0159060
797.599	0.0160484
797.677	0.0161194
797.755	0.0160384
797.833	0.0161104
797.911	0.0161139
797.989	0.0160447
798.067	0.0160494
798.146	0.0163477
798.224	0.0162178
798.302	0.0161797
798.380	0.0164647
798.458	0.0162852
798.536	0.0162637
798.614	0.0164726
798.692	0.0164735
798.771	0.0165366
798.849	0.0167051
798.927	0.0165252
799.005	0.0167230
799.083	0.0165889
799.161	0.0167561
799.239	0.0168346
799.317	0.0167752
799.396	0.0168854
799.474	0.0169277
799.552	0.0169228
799.630	0.0169017
799.708	0.0169581
799.786	0.0170038
799.864	0.0170490
799.942	0.0170908
800.021	0.0171558
800.099	0.0171333
800.177	0.0171516
800.255	0.0169932
800.333	0.0170424
800.411	0.0170573
800.489	0.0170057
800.567	0.0169257
800.646	0.0169073
800.724	0.0168483
800.802	0.0167083
800.880	0.0167181
800.958	0.0166113
801.036	0.0164494
801.114	0.0164742
801.192	0.0163458
801.271	0.0161702
801.349	0.0164153
801.427	0.0163136
801.505	0.0162259
801.583	0.0161662
801.661	0.0161987
801.739	0.0161240
801.817	0.0161177
801.896	0.0160232
801.974	0.0160048
802.052	0.0160069
802.130	0.0159629
802.208	0.0160437
802.286	0.0160405
802.364	0.0161884
802.442	0.0160375
802.521	0.0162216
802.599	0.0162459
802.677	0.0162360
802.755	0.0162749
802.833	0.0163383
802.911	0.0163242
802.989	0.0163396
803.067	0.0164475
803.146	0.0165084
803.224	0.0164925
803.302	0.0165658
803.380	0.0167494
803.458	0.0165627
803.536	0.0165723
803.614	0.0166888
803.692	0.0165495
803.771	0.0166284
803.849	0.0169102
803.927	0.0169433
804.005	0.0169473
804.083	0.0169421
804.161	0.0169782
804.239	0.0170385
804.317	0.0171193
804.396	0.0169087
804.474	0.0170752
804.552	0.0169268
804.630	0.0169729
804.708	0.0170099
804.786	0.0169395
804.864	0.0169482
804.942	0.0170702
805.021	0.0168306
805.099	0.0167635
805.177	0.0167099
805.255	0.0166737
805.333	0.0167792
805.411	0.0165990
805.489	0.0165379
805.567	0.0163213
805.646	0.0163115
805.724	0.0162761
805.802	0.0162726
805.880	0.0162386
805.958	0.0159958
806.036	0.0160928
806.114	0.0160033
806.192	0.0159679
806.271	0.0160947
806.349	0.0159906
806.427	0.0159602
806.505	0.0161995
806.583	0.0160584
806.661	0.0162893
806.739	0.0163518
806.817	0.0162940
806.896	0.0163178
806.974	0.0163938
807.052	0.0165026
807.130	0.0164866
807.208	0.0165412
807.286	0.0167888
807.364	0.0166515
807.442	0.0165871
807.521	0.0166365
807.599	0.0165792
807.677	0.0167384
807.755	0.0168256
807.833	0.0168282
807.911	0.0168262
807.989	0.0169524
808.067	0.0169278
808.146	0.0169631
808.224	0.0170369
808.302	0.0170096
808.380	0.0170913
808.458	0.0170848
808.536	0.0170495
808.614	0.0170495
808.692	0.0170958
808.771	0.0171771
808.849	0.0170695
808.927	0.0169733
809.005	0.0167837
809.083	0.0167842
809.161	0.0166476
809.239	0.0165410
809.317	0.0164770
809.396	0.0164922
809.474	0.0164430
809.552	0.0163884
809.630	0.0162288
809.708	0.0161463
809.786	0.0161051
809.864	0.0161637
809.942	0.0160955
810.021	0.0160726
810.099	0.0160293
810.177	0.0162251
810.255	0.0161389
810.333	0.0162469
810.411	0.0161668
810.489	0.0160793
810.567	0.0161971
810.646	0.0162756
810.724	0.0163313
810.802	0.0163121
810.880	0.0163824
810.958	0.0163765
811.036	0.0164745
811.114	0.0164989
811.192	0.0167162
811.271	0.0167493
811.349	0.0167007
811.427	0.0167848
811.505	0.0169152
811.583	0.0168328
811.661	0.0168362
811.739	0.0172216
811.817	0.0171583
811.896	0.0170188
811.974	0.0171886
812.052	0.0172109
812.130	0.0173138
812.208	0.0171959
812.286	0.0172971
812.364	0.0172792
812.442	0.0175117
812.521	0.0173701
812.599	0.0172343
812.677	0.0172322
812.755	0.0172174
812.833	0.0172571
812.911	0.0172372
812.989	0.0172780
813.067	0.0171024
813.146	0.0169138
813.224	0.0170645
813.302	0.0168054
813.380	0.0167052
813.458	0.0166008
813.536	0.0164494
813.614	0.0162357
813.692	0.0161382
813.771	0.0160326
813.849	0.0157418
813.927	0.0154150
814.005	0.0153703
814.083	0.0152586
814.161	0.0153250
814.239	0.0151936
814.317	0.0149319
814.396	0.0146395
814.474	0.0147728
814.552	0.0149123
814.630	0.0147743
814.708	0.0148636
814.786	0.0149954
814.864	0.0150491
814.942	0.0153144
815.021	0.0154247
815.099	0.0155593
815.177	0.0159740
815.255	0.0161641
815.333	0.0161946
815.411	0.0163466
815.489	0.0166209
815.567	0.0167249
815.646	0.0169976
815.724	0.0171318
815.802	0.0173397
815.880	0.0174304
815.958	0.0176746
816.036	0.0177340
816.114	0.0177844
816.192	0.0177760
816.271	0.0180898
816.349	0.0180650
816.427	0.0180803
816.505	0.0181075
816.583	0.0182520
816.661	0.0183797
816.739	0.0182768
816.817	0.0182420
816.896	0.0181278
816.974	0.0181174
817.052	0.0180864
817.130	0.0181104
817.208	0.0180299
817.286	0.0177922
817.364	0.0175700
817.442	0.0174760
817.521	0.0173246
817.599	0.0172083
817.677	0.0168711
817.755	0.0167493
817.833	0.0165150
817.911	0.0162592
817.989	0.0161653
818.067	0.0158566
818.146	0.0157184
818.224	0.0155446
818.302	0.0152142
818.380	0.0150787
818.458	0.0150140
818.536	0.0149494
818.614	0.0145633
818.692	0.0145483
818.771	0.0146432
818.849	0.0146090
818.927	0.0145187
819.005	0.0144965
819.083	0.0147427
819.161	0.0147331
819.239	0.0149049
819.317	0.0149360
819.396	0.0152933
819.474	0.0154137
819.552	0.0153853
819.630	0.0156749
819.708	0.0158240
819.786	0.0161023
819.864	0.0161479
819.942	0.0162009
820.021	0.0164677
820.099	0.0166200
820.177	0.0166093
820.255	0.0167002
820.333	0.0169577
820.411	0.0169433
820.489	0.0170702
820.567	0.0170946
820.646	0.0171650
820.724	0.0173158
820.802	0.0175148
820.880	0.0175829
820.958	0.0177306
821.036	0.0178440
821.114	0.0178432
821.192	0.0179340
821.271	0.0179514
821.349	0.0179516
821.427	0.0181857
821.505	0.0181251
821.583	0.0181171
821.661	0.0179890
821.739	0.0180500
821.817	0.0178727
821.896	0.0178618
821.974	0.0176595
822.052	0.0174657
822.130	0.0172640
822.208	0.0169977
822.286	0.0171006
822.364	0.0167677
822.442	0.0166373
822.521	0.0163152
822.599	0.0161848
822.677	0.0160335
822.755	0.0156795
822.833	0.0156224
822.911	0.0155006
822.989	0.0154692
823.067	0.0150627
823.146	0.0150038
823.224	0.0151431
823.302	0.0150751
823.380	0.0149885
823.458	0.0148928
823.536	0.0150600
823.614	0.0151722
823.692	0.0153828
823.771	0.0155556
823.849	0.0154742
823.927	0.0156715
824.005	0.0158587
824.083	0.0159615
824.161	0.0161716
824.239	0.0162453
824.317	0.0162726
824.396	0.0164207
824.474	0.0166333
824.552	0.0165507
824.630	0.0165952
824.708	0.0166933
824.786	0.0166620
824.864	0.0167318
824.942	0.0167387
825.021	0.0167794
825.099	0.0166814
825.177	0.0167881
825.255	0.0168406
825.333	0.0168962
825.411	0.0169428
825.489	0.0169913
825.567	0.0170377
825.646	0.0170786
825.724	0.0171484
825.802	0.0171861
825.880	0.0172055
825.958	0.0173802
826.036	0.0172027
826.114	0.0173421
826.192	0.0171873
826.271	0.0172147
826.349	0.0172731
826.427	0.0170816
826.505	0.0171395
826.583	0.0169911
826.661	0.0168107
826.739	0.0169565
826.817	0.0169084
826.896	0.0166888
826.974	0.0165871
827.052	0.0162764
827.130	0.0162044
827.208	0.0161755
827.286	0.0162889
827.364	0.0161474
827.442	0.0159628
827.521	0.0161079
827.599	0.0160148
827.677	0.0158788
827.755	0.0158403
827.833	0.0157276
827.911	0.0159310
827.989	0.0159112
828.067	0.0159035
828.146	0.0160274
828.224	0.0159722
828.302	0.0159686
828.380	0.0159985
828.458	0.0162962
828.536	0.0162517
828.614	0.0163064
828.692	0.0162730
828.771	0.0163177
828.849	0.0166608
828.927	0.0164805
829.005	0.0166356
829.083	0.0167210
829.161	0.0165694
829.239	0.0167587
829.317	0.0168365
829.396	0.0168227
829.474	0.0170013
829.552	0.0169576
829.630	0.0169616
829.708	0.0169836
829.786	0.0170904
829.864	0.0170270
829.942	0.0169749
830.021	0.0170594
830.099	0.0170996
830.177	0.0171500
830.255	0.0171347
830.333	0.0171065
830.411	0.0169760
830.489	0.0169924
830.567	0.0170383
830.646	0.0168442
830.724	0.0168430
830.802	0.0169163
830.880	0.0167403
830.958	0.0166513
831.036	0.0165450
831.114	0.0165476
831.192	0.0165765
831.271	0.0165324
831.349	0.0164412
831.427	0.0162707
831.505	0.0162802
831.583	0.0163124
831.661	0.0161540
831.739	0.0162617
831.817	0.0161684
831.896	0.0162550
831.974	0.0161131
832.052	0.0161819
832.130	0.0160598
832.208	0.0162205
832.286	0.0161560
832.364	0.0162298
832.442	0.0162456
832.521	0.0161771
832.599	0.0159877
832.677	0.0161031
832.755	0.0162108
832.833	0.0162495
832.911	0.0164729
832.989	0.0164583
833.067	0.0165161
833.146	0.0164504
833.224	0.0165862
833.302	0.0167134
833.380	0.0169890
833.458	0.0169494
833.536	0.0169610
833.614	0.0169249
833.692	0.0169334
833.771	0.0171146
833.849	0.0169862
833.927	0.0168889
834.005	0.0169640
834.083	0.0169081
834.161	0.0168902
834.239	0.0170261
834.317	0.0168497
834.396	0.0168381
834.474	0.0166943
834.552	0.0167220
834.630	0.0168015
834.708	0.0167278
834.786	0.0165766
834.864	0.0164914
834.942	0.0166743
835.021	0.0165060
835.099	0.0164816
835.177	0.0164723
835.255	0.0164854
835.333	0.0164246
835.411	0.0164466
835.489	0.0165042
835.567	0.0163913
835.646	0.0164643
835.724	0.0165776
835.802	0.0165350
835.880	0.0165417
835.958	0.0165131
836.036	0.0164606
836.114	0.0164254
836.192	0.0165248
836.271	0.0164491
836.349	0.0163425
836.427	0.0162989
836.505	0.0161641
836.583	0.0163065
836.661	0.0162547
836.739	0.0162303
836.817	0.0161504
836.896	0.0161197
836.974	0.0162770
837.052	0.0162922
837.130	0.0162016
837.208	0.0163923
837.286	0.0162265
837.364	0.0161871
837.442	0.0164284
837.521	0.0163819
837.599	0.0164746
837.677	0.0166457
837.755	0.0166853
837.833	0.0166962
837.911	0.0167509
837.989	0.0167179
838.067	0.0168569
838.146	0.0168135
838.224	0.0169193
838.302	0.0170212
838.380	0.0170558
838.458	0.0169959
838.536	0.0169596
838.614	0.0168831
838.692	0.0169382
838.771	0.0169677
838.849	0.0169073
838.927	0.0169028
839.005	0.0169464
839.083	0.0167968
839.161	0.0165773
839.239	0.0165989
839.317	0.0166696
839.396	0.0164397
839.474	0.0163207
839.552	0.0162658
839.630	0.0163145
839.708	0.0161772
839.786	0.0160616
839.864	0.0160227
839.942	0.0159230
840.021	0.0158762
840.099	0.0158669
840.177	0.0158528
840.255	0.0159960
840.333	0.0159054
840.411	0.0159102
840.489	0.0159627
840.567	0.0159188
840.646	0.0160626
840.724	0.0160261
840.802	0.0162521
840.880	0.0161934
840.958	0.0163664
841.036	0.0164050
841.114	0.0164301
841.192	0.0164754
841.271	0.0165783
841.349	0.0166261
841.427	0.0166145
841.505	0.0166753
841.583	0.0167815
841.661	0.0167284
841.739	0.0168365
841.817	0.0167669
841.896	0.0169546
841.974	0.0169458
842.052	0.0168574
842.130	0.0169135
842.208	0.0169754
842.286	0.0168641
842.364	0.0170096
842.442	0.0170592
842.521	0.0169339
842.599	0.0170654
842.677	0.0169215
842.755	0.0169225
842.833	0.0169931
842.911	0.0168256
842.989	0.0167889
843.067	0.0166618
843.146	0.0167249
843.224	0.0166861
843.302	0.0165732
843.380	0.0166241
843.458	0.0164133
843.536	0.0164784
843.614	0.0164259
843.692	0.0164319
843.771	0.0165144
843.849	0.0162791
843.927	0.0164103
844.005	0.0165146
844.083	0.0163277
844.161	0.0162008
844.239	0.0163239
844.317	0.0161488
844.396	0.0161227
844.474	0.0160898
844.552	0.0160208
844.630	0.0160510
844.708	0.0160824
844.786	0.0160726
844.864	0.0160946
844.942	0.0158845
845.021	0.0159837
845.099	0.0161266
845.177	0.0159812
845.255	0.0160503
845.333	0.0161833
845.411	0.0160603
845.489	0.0162486
845.567	0.0161767
845.646	0.0162201
845.724	0.0163271
845.802	0.0162013
845.880	0.0163402
845.958	0.0165887
846.036	0.0166461
846.114	0.0165892
846.192	0.0167789
846.271	0.0167963
846.349	0.0167120
846.427	0.0168577
846.505	0.0169646
846.583	0.0169511
846.661	0.0169589
846.739	0.0169832
846.817	0.0168768
846.896	0.0169523
846.974	0.0169537
847.052	0.0170350
847.130	0.0169238
847.208	0.0167363
847.286	0.0167693
847.364	0.0168429
847.442	0.0169946
847.521	0.0167822
847.599	0.0169013
847.677	0.0169015
847.755	0.0168145
847.833	0.0166214
847.911	0.0165044
847.989	0.0166466
848.067	0.0166719
848.146	0.0165286
848.224	0.0166119
848.302	0.0164625
848.380	0.0165303
848.458	0.0163746
848.536	0.0163263
848.614	0.0162453
848.692	0.0161143
848.771	0.0161145
848.849	0.0161171
848.927	0.0161623
849.005	0.0160109
849.083	0.0161198
849.161	0.0161519
849.239	0.0161359
849.317	0.0160960
849.396	0.0161816
849.474	0.0161318
849.552	0.0163160
849.630	0.0163211
849.708	0.0162434
849.786	0.0164350
849.864	0.0163909
849.942	0.0164340
850.021	0.0164843
850.099	0.0164808
850.177	0.0164159
850.255	0.0163349
850.333	0.0166691
850.411	0.0166515
850.489	0.0165886
850.567	0.0165791
850.646	0.0165644
850.724	0.0166397
850.802	0.0165891
850.880	0.0165661
850.958	0.0167052
851.036	0.0168124
851.114	0.0166969
851.192	0.0167920
851.271	0.0166477
851.349	0.0166693
851.427	0.0167262
851.505	0.0168998
851.583	0.0167601
851.661	0.0167443
851.739	0.0166337
851.817	0.0166003
851.896	0.0167472
851.974	0.0168226
852.052	0.0167071
852.130	0.0167766
852.208	0.0167635
852.286	0.0168106
852.364	0.0169687
852.442	0.0168313
852.521	0.0167945
852.599	0.0168153
852.677	0.0165665
852.755	0.0167007
852.833	0.0164855
852.911	0.0165818
852.989	0.0165577
853.067	0.0165809
853.146	0.0165693
853.224	0.0165031
853.302	0.0164694
853.380	0.0164989
853.458	0.0165273
853.536	0.0163705
853.614	0.0164128
853.692	0.0164213
853.771	0.0164449
853.849	0.0162930
853.927	0.0164112
854.005	0.0163598
854.083	0.0165585
854.161	0.0162881
854.239	0.0163418
854.317	0.0163166
854.396	0.0164048
854.474	0.0163844
854.552	0.0163630
854.630	0.0164019
854.708	0.0163361
854.786	0.0165387
854.864	0.0163525
854.942	0.0162867
855.021	0.0162994
855.099	0.0163238
855.177	0.0163403
855.255	0.0164676
855.333	0.0163841
855.411	0.0165839
855.489	0.0165118
855.567	0.0164439
855.646	0.0164891
855.724	0.0165765
855.802	0.0163472
855.880	0.0164946
855.958	0.0165262
856.036	0.0166982
856.114	0.0164900
856.192	0.0165444
856.271	0.0165705
856.349	0.0166035
856.427	0.0166060
856.505	0.0166714
856.583	0.0167432
856.661	0.0167812
856.739	0.0167181
856.817	0.0166428
856.896	0.0166180
856.974	0.0167018
857.052	0.0167833
857.130	0.0168131
857.208	0.0168459
857.286	0.0168378
857.364	0.0168363
857.442	0.0168504
857.521	0.0167592
857.599	0.0166939
857.677	0.0166827
857.755	0.0166570
857.833	0.0165307
857.911	0.0165557
857.989	0.0165174
858.067	0.0165021
858.146	0.0164803
858.224	0.0164832
858.302	0.0165230
858.380	0.0164181
858.458	0.0164730
858.536	0.0165823
858.614	0.0165453
858.692	0.0166345
858.771	0.0167280
858.849	0.0165177
858.927	0.0164098
859.005	0.0165942
859.083	0.0165544
859.161	0.0166380
859.239	0.0165617
859.317	0.0165300
859.396	0.0165619
859.474	0.0166281
859.552	0.0165080
859.630	0.0165499
859.708	0.0165549
859.786	0.0166248
859.864	0.0165675
859.942	0.0166003
860.021	0.0165890
860.099	0.0166567
860.177	0.0165141
860.255	0.0165050
860.333	0.0165293
860.411	0.0164361
860.489	0.0164212
860.567	0.0164879
860.646	0.0163351
860.724	0.0164563
860.802	0.0164472
860.880	0.0163810
860.958	0.0163196
861.036	0.0163645
861.114	0.0163439
861.192	0.0163406
861.271	0.0164157
861.349	0.0162611
861.427	0.0163008
861.505	0.0163853
861.583	0.0163799
861.661	0.0165338
861.739	0.0165699
861.817	0.0164400
861.896	0.0163695
861.974	0.0165504
862.052	0.0165736
862.130	0.0165341
862.208	0.0164706
862.286	0.0164573
862.364	0.0164087
862.442	0.0163846
862.521	0.0163599
862.599	0.0165532
862.677	0.0166277
862.755	0.0164945
862.833	0.0164110
862.911	0.0164945
862.989	0.0165318
863.067	0.0165430
863.146	0.0166492
863.224	0.0166137
863.302	0.0166514
863.380	0.0166394
863.458	0.0166061
863.536	0.0165794
863.614	0.0165814
863.692	0.0167693
863.771	0.0166625
863.849	0.0168411
863.927	0.0167677
864.005	0.0167304
864.083	0.0168296
864.161	0.0167910
864.239	0.0167617
864.317	0.0168002
864.396	0.0167933
864.474	0.0166939
864.552	0.0167790
864.630	0.0168142
864.708	0.0166353
864.786	0.0166160
864.864	0.0167341
864.942	0.0165762
865.021	0.0165893
865.099	0.0165565
865.177	0.0164596
865.255	0.0165532
865.333	0.0165354
865.411	0.0164265
865.489	0.0165274
865.567	0.0165359
865.646	0.0167094
865.724	0.0164510
865.802	0.0164553
865.880	0.0165053
865.958	0.0165855
866.036	0.0165325
866.114	0.0164844
866.192	0.0164966
866.271	0.0165064
866.349	0.0164550
866.427	0.0163956
866.505	0.0162905
866.583	0.0163194
866.661	0.0163442
866.739	0.0162589
866.817	0.0162813
866.896	0.0161806
866.974	0.0161468
867.052	0.0161993
867.130	0.0160938
867.208	0.0162465
867.286	0.0161467
867.364	0.0161201
867.442	0.0161929
867.521	0.0161279
867.599	0.0162197
867.677	0.0162303
867.755	0.0162391
867.833	0.0163357
867.911	0.0161882
867.989	0.0164261
868.067	0.0165232
868.146	0.0164787
868.224	0.0165309
868.302	0.0165331
868.380	0.0165046
868.458	0.0167184
868.536	0.0166631
868.614	0.0167174
868.692	0.0166885
868.771	0.0166841
868.849	0.0165711
868.927	0.0167966
869.005	0.0168337
869.083	0.0166745
869.161	0.0167178
869.239	0.0167165
869.317	0.0168321
869.396	0.0167928
869.474	0.0168301
869.552	0.0167938
869.630	0.0166593
869.708	0.0166026
869.786	0.0166721
869.864	0.0166418
869.942	0.0166214
