06/03/2022	15:39:16	Ver.	4.1	UNKNOWN
Optical Delay	550.020508	Delta X		0.078125	Sweeps	1	Scan Rate	0/0
Coordinates	Axis 1	NaN	Axis 2	NaN	Axis 3	NaN	Axis 4	NaN	Axis 5	NaN	Axis 6	0.000000
TX Power	0.000000	RX Power	0.000000

550.021	0.0160963
550.099	0.0160852
550.177	0.0159380
550.255	0.0160751
550.333	0.0162084
550.411	0.0161452
550.489	0.0161398
550.567	0.0159940
550.646	0.0161767
550.724	0.0160092
550.802	0.0160643
550.880	0.0161615
550.958	0.0160935
551.036	0.0161319
551.114	0.0160706
551.192	0.0161382
551.271	0.0161246
551.349	0.0160768
551.427	0.0160457
551.505	0.0161073
551.583	0.0161560
551.661	0.0160370
551.739	0.0161161
551.817	0.0161443
551.896	0.0162206
551.974	0.0161173
552.052	0.0160288
552.130	0.0161123
552.208	0.0160169
552.286	0.0161357
552.364	0.0160914
552.442	0.0161332
552.521	0.0161777
552.599	0.0162251
552.677	0.0161196
552.755	0.0161096
552.833	0.0161330
552.911	0.0161652
552.989	0.0161293
553.067	0.0160835
553.146	0.0162293
553.224	0.0161582
553.302	0.0160528
553.380	0.0160545
553.458	0.0160535
553.536	0.0160320
553.614	0.0162855
553.692	0.0161773
553.771	0.0159637
553.849	0.0160833
553.927	0.0161422
554.005	0.0161018
554.083	0.0159818
554.161	0.0160931
554.239	0.0161053
554.317	0.0160841
554.396	0.0159975
554.474	0.0159186
554.552	0.0162270
554.630	0.0162442
554.708	0.0160938
554.786	0.0159985
554.864	0.0160968
554.942	0.0160651
555.021	0.0161726
555.099	0.0160986
555.177	0.0161973
555.255	0.0160236
555.333	0.0160549
555.411	0.0160525
555.489	0.0160744
555.567	0.0161750
555.646	0.0160413
555.724	0.0161452
555.802	0.0161134
555.880	0.0161915
555.958	0.0161491
556.036	0.0161158
556.114	0.0160064
556.192	0.0159813
556.271	0.0161310
556.349	0.0160609
556.427	0.0160724
556.505	0.0161172
556.583	0.0161027
556.661	0.0160223
556.739	0.0160537
556.817	0.0159731
556.896	0.0161285
556.974	0.0161023
557.052	0.0159935
557.130	0.0160588
557.208	0.0160499
557.286	0.0160583
557.364	0.0160242
557.442	0.0159534
557.521	0.0161442
557.599	0.0160754
557.677	0.0161494
557.755	0.0161076
557.833	0.0161263
557.911	0.0161503
557.989	0.0161368
558.067	0.0158813
558.146	0.0160820
558.224	0.0160297
558.302	0.0159998
558.380	0.0160078
558.458	0.0160758
558.536	0.0159391
558.614	0.0158977
558.692	0.0160491
558.771	0.0162122
558.849	0.0160933
558.927	0.0160336
559.005	0.0160577
559.083	0.0159841
559.161	0.0160444
559.239	0.0160747
559.317	0.0161303
559.396	0.0160580
559.474	0.0161029
559.552	0.0161263
559.630	0.0160197
559.708	0.0161245
559.786	0.0162157
559.864	0.0161067
559.942	0.0160561
560.021	0.0160370
560.099	0.0161217
560.177	0.0161326
560.255	0.0160362
560.333	0.0160950
560.411	0.0161092
560.489	0.0161188
560.567	0.0161096
560.646	0.0160358
560.724	0.0161462
560.802	0.0160446
560.880	0.0161066
560.958	0.0160181
561.036	0.0160361
561.114	0.0162434
561.192	0.0160583
561.271	0.0160687
561.349	0.0160683
561.427	0.0160440
561.505	0.0160757
561.583	0.0160850
561.661	0.0159592
561.739	0.0160851
561.817	0.0160600
561.896	0.0160008
561.974	0.0160085
562.052	0.0160636
562.130	0.0161457
562.208	0.0160274
562.286	0.0160159
562.364	0.0160026
562.442	0.0161929
562.521	0.0160031
562.599	0.0160630
562.677	0.0161037
562.755	0.0162416
562.833	0.0159995
562.911	0.0159410
562.989	0.0162173
563.067	0.0161133
563.146	0.0159785
563.224	0.0161800
563.302	0.0161891
563.380	0.0160444
563.458	0.0159993
563.536	0.0160520
563.614	0.0160638
563.692	0.0160720
563.771	0.0162036
563.849	0.0160827
563.927	0.0160940
564.005	0.0159294
564.083	0.0161404
564.161	0.0160072
564.239	0.0161566
564.317	0.0160442
564.396	0.0162155
564.474	0.0162097
564.552	0.0160424
564.630	0.0160976
564.708	0.0162097
564.786	0.0160151
564.864	0.0161897
564.942	0.0161060
565.021	0.0160060
565.099	0.0160427
565.177	0.0162579
565.255	0.0161179
565.333	0.0161227
565.411	0.0160684
565.489	0.0160497
565.567	0.0161792
565.646	0.0159982
565.724	0.0160075
565.802	0.0162309
565.880	0.0160943
565.958	0.0159509
566.036	0.0160493
566.114	0.0159995
566.192	0.0160542
566.271	0.0159461
566.349	0.0160883
566.427	0.0160535
566.505	0.0159726
566.583	0.0161951
566.661	0.0161189
566.739	0.0162063
566.817	0.0162265
566.896	0.0161046
566.974	0.0160330
567.052	0.0161123
567.130	0.0162097
567.208	0.0161627
567.286	0.0160854
567.364	0.0160672
567.442	0.0160513
567.521	0.0161548
567.599	0.0160654
567.677	0.0160783
567.755	0.0160725
567.833	0.0160652
567.911	0.0161395
567.989	0.0161301
568.067	0.0161156
568.146	0.0161114
568.224	0.0160366
568.302	0.0160626
568.380	0.0161930
568.458	0.0161143
568.536	0.0160454
568.614	0.0162576
568.692	0.0160593
568.771	0.0160500
568.849	0.0161570
568.927	0.0160831
569.005	0.0161269
569.083	0.0161008
569.161	0.0160586
569.239	0.0161050
569.317	0.0161678
569.396	0.0161124
569.474	0.0161663
569.552	0.0160167
569.630	0.0160080
569.708	0.0161740
569.786	0.0161195
569.864	0.0162222
569.942	0.0160315
570.021	0.0161173
570.099	0.0159950
570.177	0.0161855
570.255	0.0160872
570.333	0.0162222
570.411	0.0161208
570.489	0.0161638
570.567	0.0161093
570.646	0.0160672
570.724	0.0160268
570.802	0.0161121
570.880	0.0161443
570.958	0.0161164
571.036	0.0160918
571.114	0.0160876
571.192	0.0161317
571.271	0.0161533
571.349	0.0161161
571.427	0.0160680
571.505	0.0162189
571.583	0.0160844
571.661	0.0159547
571.739	0.0160550
571.817	0.0163002
571.896	0.0160608
571.974	0.0160846
572.052	0.0161670
572.130	0.0161811
572.208	0.0161418
572.286	0.0160622
572.364	0.0160877
572.442	0.0160619
572.521	0.0160907
572.599	0.0160629
572.677	0.0160519
572.755	0.0160754
572.833	0.0161728
572.911	0.0160781
572.989	0.0161384
573.067	0.0160439
573.146	0.0162570
573.224	0.0162045
573.302	0.0161754
573.380	0.0161002
573.458	0.0160662
573.536	0.0160814
573.614	0.0160077
573.692	0.0160728
573.771	0.0160899
573.849	0.0160744
573.927	0.0162706
574.005	0.0161070
574.083	0.0161044
574.161	0.0161816
574.239	0.0160267
574.317	0.0160373
574.396	0.0161047
574.474	0.0160595
574.552	0.0161041
574.630	0.0162297
574.708	0.0160808
574.786	0.0159208
574.864	0.0160742
574.942	0.0162169
575.021	0.0160361
575.099	0.0161942
575.177	0.0160406
575.255	0.0160736
575.333	0.0159368
575.411	0.0160321
575.489	0.0162024
575.567	0.0159711
575.646	0.0159868
575.724	0.0160793
575.802	0.0161720
575.880	0.0160691
575.958	0.0160389
576.036	0.0159869
576.114	0.0161263
576.192	0.0162003
576.271	0.0162002
576.349	0.0161276
576.427	0.0159946
576.505	0.0161269
576.583	0.0161528
576.661	0.0160706
576.739	0.0160996
576.817	0.0161234
576.896	0.0160499
576.974	0.0160434
577.052	0.0159906
577.130	0.0160107
577.208	0.0159908
577.286	0.0161388
577.364	0.0161195
577.442	0.0160879
577.521	0.0161127
577.599	0.0161313
577.677	0.0160747
577.755	0.0160275
577.833	0.0159627
577.911	0.0159978
577.989	0.0161026
578.067	0.0161074
578.146	0.0161122
578.224	0.0160088
578.302	0.0160238
578.380	0.0159806
578.458	0.0160146
578.536	0.0160965
578.614	0.0161278
578.692	0.0161549
578.771	0.0159898
578.849	0.0160880
578.927	0.0161870
579.005	0.0160738
579.083	0.0159750
579.161	0.0160747
579.239	0.0160342
579.317	0.0159960
579.396	0.0161210
579.474	0.0160986
579.552	0.0159956
579.630	0.0161768
579.708	0.0159599
579.786	0.0158942
579.864	0.0160304
579.942	0.0161759
580.021	0.0160238
580.099	0.0159504
580.177	0.0161527
580.255	0.0161629
580.333	0.0160541
580.411	0.0161689
580.489	0.0160116
580.567	0.0160884
580.646	0.0162257
580.724	0.0161775
580.802	0.0160999
580.880	0.0161871
580.958	0.0161259
581.036	0.0161798
581.114	0.0161535
581.192	0.0161304
581.271	0.0160425
581.349	0.0161784
581.427	0.0159783
581.505	0.0160320
581.583	0.0159535
581.661	0.0160488
581.739	0.0162127
581.817	0.0160785
581.896	0.0160507
581.974	0.0161031
582.052	0.0159359
582.130	0.0162576
582.208	0.0161314
582.286	0.0161939
582.364	0.0160460
582.442	0.0161517
582.521	0.0160762
582.599	0.0160268
582.677	0.0160103
582.755	0.0160175
582.833	0.0159990
582.911	0.0160368
582.989	0.0160321
583.067	0.0160195
583.146	0.0160612
583.224	0.0160728
583.302	0.0160353
583.380	0.0161559
583.458	0.0161137
583.536	0.0160875
583.614	0.0160172
583.692	0.0160986
583.771	0.0160553
583.849	0.0160818
583.927	0.0160752
584.005	0.0160767
584.083	0.0160410
584.161	0.0160410
584.239	0.0159753
584.317	0.0161664
584.396	0.0160459
584.474	0.0160989
584.552	0.0161545
584.630	0.0160245
584.708	0.0160384
584.786	0.0161951
584.864	0.0161731
584.942	0.0160687
585.021	0.0160722
585.099	0.0160917
585.177	0.0161507
585.255	0.0161280
585.333	0.0160838
585.411	0.0160721
585.489	0.0161893
585.567	0.0160242
585.646	0.0160476
585.724	0.0162737
585.802	0.0160979
585.880	0.0160286
585.958	0.0160536
586.036	0.0161263
586.114	0.0160919
586.192	0.0162552
586.271	0.0160396
586.349	0.0160405
586.427	0.0160203
586.505	0.0159133
586.583	0.0161156
586.661	0.0160654
586.739	0.0161306
586.817	0.0161520
586.896	0.0162689
586.974	0.0160742
587.052	0.0160651
587.130	0.0160377
587.208	0.0162095
587.286	0.0160300
587.364	0.0160580
587.442	0.0160715
587.521	0.0161550
587.599	0.0161609
587.677	0.0160371
587.755	0.0160176
587.833	0.0160030
587.911	0.0160343
587.989	0.0160189
588.067	0.0161351
588.146	0.0160797
588.224	0.0160452
588.302	0.0161623
588.380	0.0161555
588.458	0.0159426
588.536	0.0160696
588.614	0.0160742
588.692	0.0161150
588.771	0.0159695
588.849	0.0160709
588.927	0.0159928
589.005	0.0159795
589.083	0.0160629
589.161	0.0160033
589.239	0.0160964
589.317	0.0161320
589.396	0.0161666
589.474	0.0160406
589.552	0.0159843
589.630	0.0161173
589.708	0.0161282
589.786	0.0161111
589.864	0.0160758
589.942	0.0161615
590.021	0.0161173
590.099	0.0160172
590.177	0.0159786
590.255	0.0161168
590.333	0.0159637
590.411	0.0161408
590.489	0.0161410
590.567	0.0159940
590.646	0.0161330
590.724	0.0161204
590.802	0.0160951
590.880	0.0161454
590.958	0.0161340
591.036	0.0161088
591.114	0.0160628
591.192	0.0160234
591.271	0.0160558
591.349	0.0161500
591.427	0.0160724
591.505	0.0160175
591.583	0.0163020
591.661	0.0161308
591.739	0.0160555
591.817	0.0161790
591.896	0.0160278
591.974	0.0161256
592.052	0.0160896
592.130	0.0160252
592.208	0.0161221
592.286	0.0162591
592.364	0.0159737
592.442	0.0160899
592.521	0.0161070
592.599	0.0160808
592.677	0.0160872
592.755	0.0160719
592.833	0.0160263
592.911	0.0162016
592.989	0.0161631
593.067	0.0162284
593.146	0.0160709
593.224	0.0160715
593.302	0.0161256
593.380	0.0161756
593.458	0.0160665
593.536	0.0161947
593.614	0.0161569
593.692	0.0162029
593.771	0.0161225
593.849	0.0162498
593.927	0.0161018
594.005	0.0160624
594.083	0.0161394
594.161	0.0160922
594.239	0.0161258
594.317	0.0162815
594.396	0.0162180
594.474	0.0162166
594.552	0.0160264
594.630	0.0160834
594.708	0.0160641
594.786	0.0160934
594.864	0.0161588
594.942	0.0160714
595.021	0.0160234
595.099	0.0161112
595.177	0.0161522
595.255	0.0161620
595.333	0.0160883
595.411	0.0161023
595.489	0.0161163
595.567	0.0160989
595.646	0.0161138
595.724	0.0161084
595.802	0.0161120
595.880	0.0160709
595.958	0.0161548
596.036	0.0161691
596.114	0.0161413
596.192	0.0160759
596.271	0.0161791
596.349	0.0161730
596.427	0.0161077
596.505	0.0160649
596.583	0.0161490
596.661	0.0161072
596.739	0.0161436
596.817	0.0161408
596.896	0.0159409
596.974	0.0160936
597.052	0.0161565
597.130	0.0161870
597.208	0.0160773
597.286	0.0159648
597.364	0.0161015
597.442	0.0160198
597.521	0.0161650
597.599	0.0159589
597.677	0.0160950
597.755	0.0161549
597.833	0.0160286
597.911	0.0161349
597.989	0.0161130
598.067	0.0162157
598.146	0.0161031
598.224	0.0160590
598.302	0.0160984
598.380	0.0160798
598.458	0.0160532
598.536	0.0161066
598.614	0.0161134
598.692	0.0161938
598.771	0.0159290
598.849	0.0161125
598.927	0.0160950
599.005	0.0160277
599.083	0.0160874
599.161	0.0161368
599.239	0.0160863
599.317	0.0161182
599.396	0.0160198
599.474	0.0161909
599.552	0.0161453
599.630	0.0161649
599.708	0.0162582
599.786	0.0161133
599.864	0.0161480
599.942	0.0161268
600.021	0.0160730
600.099	0.0160387
600.177	0.0161093
600.255	0.0162657
600.333	0.0160839
600.411	0.0162074
600.489	0.0161532
600.567	0.0161891
600.646	0.0162003
600.724	0.0161163
600.802	0.0160145
600.880	0.0160260
600.958	0.0159896
601.036	0.0161253
601.114	0.0161806
601.192	0.0160802
601.271	0.0160180
601.349	0.0161482
601.427	0.0161767
601.505	0.0162144
601.583	0.0161860
601.661	0.0161674
601.739	0.0161769
601.817	0.0162555
601.896	0.0162065
601.974	0.0161329
602.052	0.0161803
602.130	0.0161864
602.208	0.0160551
602.286	0.0160548
602.364	0.0162472
602.442	0.0161639
602.521	0.0162354
602.599	0.0160937
602.677	0.0161501
602.755	0.0161065
602.833	0.0160953
602.911	0.0161965
602.989	0.0159760
603.067	0.0160983
603.146	0.0162365
603.224	0.0162315
603.302	0.0162202
603.380	0.0161761
603.458	0.0161239
603.536	0.0160271
603.614	0.0161298
603.692	0.0162149
603.771	0.0160987
603.849	0.0160929
603.927	0.0161130
604.005	0.0162080
604.083	0.0160947
604.161	0.0161391
604.239	0.0160336
604.317	0.0161269
604.396	0.0161273
604.474	0.0161541
604.552	0.0160203
604.630	0.0160947
604.708	0.0161452
604.786	0.0161305
604.864	0.0160395
604.942	0.0160695
605.021	0.0161134
605.099	0.0160946
605.177	0.0161831
605.255	0.0161851
605.333	0.0161397
605.411	0.0161427
605.489	0.0161014
605.567	0.0161375
605.646	0.0161094
605.724	0.0161423
605.802	0.0162509
605.880	0.0162390
605.958	0.0160704
606.036	0.0161149
606.114	0.0161716
606.192	0.0161851
606.271	0.0161340
606.349	0.0160909
606.427	0.0160633
606.505	0.0160998
606.583	0.0160984
606.661	0.0161230
606.739	0.0160746
606.817	0.0161183
606.896	0.0160883
606.974	0.0160892
607.052	0.0160011
607.130	0.0160802
607.208	0.0160761
607.286	0.0161793
607.364	0.0160529
607.442	0.0160916
607.521	0.0161075
607.599	0.0162283
607.677	0.0160962
607.755	0.0161209
607.833	0.0161809
607.911	0.0161140
607.989	0.0161752
608.067	0.0161812
608.146	0.0161017
608.224	0.0161125
608.302	0.0161735
608.380	0.0159235
608.458	0.0161216
608.536	0.0159068
608.614	0.0161418
608.692	0.0161639
608.771	0.0162257
608.849	0.0160751
608.927	0.0160743
609.005	0.0160851
609.083	0.0161012
609.161	0.0161793
609.239	0.0161681
609.317	0.0161418
609.396	0.0161169
609.474	0.0161055
609.552	0.0159960
609.630	0.0161650
609.708	0.0162098
609.786	0.0159998
609.864	0.0160782
609.942	0.0161081
610.021	0.0162154
610.099	0.0161639
610.177	0.0160930
610.255	0.0161134
610.333	0.0161444
610.411	0.0160099
610.489	0.0160925
610.567	0.0160604
610.646	0.0161439
610.724	0.0161482
610.802	0.0160376
610.880	0.0161087
610.958	0.0161536
611.036	0.0161175
611.114	0.0160420
611.192	0.0160296
611.271	0.0161128
611.349	0.0161382
611.427	0.0161102
611.505	0.0161739
611.583	0.0161237
611.661	0.0161081
611.739	0.0161078
611.817	0.0160107
611.896	0.0161038
611.974	0.0162723
612.052	0.0161421
612.130	0.0160775
612.208	0.0160454
612.286	0.0161845
612.364	0.0160954
612.442	0.0161362
612.521	0.0161221
612.599	0.0161685
612.677	0.0161068
612.755	0.0161640
612.833	0.0159856
612.911	0.0160208
612.989	0.0161797
613.067	0.0161322
613.146	0.0161983
613.224	0.0160455
613.302	0.0160796
613.380	0.0161362
613.458	0.0161782
613.536	0.0160421
613.614	0.0160587
613.692	0.0160276
613.771	0.0161229
613.849	0.0161893
613.927	0.0161633
614.005	0.0159895
614.083	0.0162521
614.161	0.0161996
614.239	0.0160622
614.317	0.0162246
614.396	0.0162265
614.474	0.0160028
614.552	0.0161530
614.630	0.0162421
614.708	0.0160649
614.786	0.0161453
614.864	0.0161645
614.942	0.0159953
615.021	0.0161409
615.099	0.0161235
615.177	0.0160840
615.255	0.0161192
615.333	0.0161897
615.411	0.0161340
615.489	0.0161001
615.567	0.0160266
615.646	0.0161156
615.724	0.0160613
615.802	0.0160217
615.880	0.0161326
615.958	0.0162611
616.036	0.0161965
616.114	0.0161352
616.192	0.0161479
616.271	0.0161175
616.349	0.0160639
616.427	0.0160784
616.505	0.0162447
616.583	0.0161875
616.661	0.0160080
616.739	0.0161752
616.817	0.0161008
616.896	0.0162020
616.974	0.0161433
617.052	0.0160921
617.130	0.0161188
617.208	0.0161286
617.286	0.0160754
617.364	0.0161242
617.442	0.0161602
617.521	0.0161412
617.599	0.0160639
617.677	0.0161200
617.755	0.0161576
617.833	0.0161450
617.911	0.0161465
617.989	0.0161884
618.067	0.0161163
618.146	0.0161637
618.224	0.0161348
618.302	0.0159746
618.380	0.0162648
618.458	0.0162682
618.536	0.0161131
618.614	0.0161852
618.692	0.0160994
618.771	0.0160581
618.849	0.0160174
618.927	0.0162200
619.005	0.0161183
619.083	0.0160337
619.161	0.0161167
619.239	0.0161855
619.317	0.0160993
619.396	0.0162394
619.474	0.0161030
619.552	0.0160851
619.630	0.0161156
619.708	0.0161168
619.786	0.0160571
619.864	0.0162239
619.942	0.0160568
620.021	0.0160867
620.099	0.0162666
620.177	0.0159662
620.255	0.0161023
620.333	0.0161019
620.411	0.0160418
620.489	0.0161817
620.567	0.0161008
620.646	0.0160802
620.724	0.0161758
620.802	0.0161594
620.880	0.0160282
620.958	0.0161122
621.036	0.0160526
621.114	0.0161919
621.192	0.0161986
621.271	0.0161396
621.349	0.0162034
621.427	0.0160601
621.505	0.0162194
621.583	0.0162148
621.661	0.0160649
621.739	0.0162389
621.817	0.0161618
621.896	0.0161350
621.974	0.0160771
622.052	0.0161111
622.130	0.0161768
622.208	0.0161234
622.286	0.0159534
622.364	0.0160287
622.442	0.0160669
622.521	0.0159845
622.599	0.0160795
622.677	0.0160909
622.755	0.0161517
622.833	0.0160767
622.911	0.0161593
622.989	0.0160289
623.067	0.0161663
623.146	0.0160610
623.224	0.0158157
623.302	0.0160569
623.380	0.0161060
623.458	0.0161084
623.536	0.0160984
623.614	0.0161103
623.692	0.0160243
623.771	0.0162000
623.849	0.0160683
623.927	0.0159939
624.005	0.0161506
624.083	0.0161679
624.161	0.0161518
624.239	0.0160130
624.317	0.0161906
624.396	0.0161044
624.474	0.0160596
624.552	0.0161903
624.630	0.0160757
624.708	0.0159494
624.786	0.0161514
624.864	0.0160229
624.942	0.0160838
625.021	0.0160570
625.099	0.0161047
625.177	0.0161073
625.255	0.0160146
625.333	0.0161407
625.411	0.0161073
625.489	0.0160235
625.567	0.0160867
625.646	0.0161489
625.724	0.0162031
625.802	0.0161800
625.880	0.0160266
625.958	0.0161795
626.036	0.0161559
626.114	0.0159801
626.192	0.0160859
626.271	0.0161823
626.349	0.0159539
626.427	0.0159494
626.505	0.0162036
626.583	0.0161810
626.661	0.0159878
626.739	0.0161046
626.817	0.0161803
626.896	0.0159143
626.974	0.0160063
627.052	0.0161437
627.130	0.0160288
627.208	0.0159341
627.286	0.0161379
627.364	0.0160254
627.442	0.0161369
627.521	0.0161297
627.599	0.0160966
627.677	0.0161263
627.755	0.0159241
627.833	0.0160480
627.911	0.0160473
627.989	0.0161108
628.067	0.0161243
628.146	0.0160757
628.224	0.0161334
628.302	0.0160944
628.380	0.0161908
628.458	0.0160213
628.536	0.0161317
628.614	0.0162122
628.692	0.0162005
628.771	0.0161833
628.849	0.0160369
628.927	0.0160336
629.005	0.0160439
629.083	0.0160695
629.161	0.0160575
629.239	0.0161573
629.317	0.0161320
629.396	0.0161943
629.474	0.0162588
629.552	0.0161780
629.630	0.0161652
629.708	0.0160952
629.786	0.0159840
629.864	0.0162318
629.942	0.0161430
630.021	0.0162173
630.099	0.0161612
630.177	0.0161463
630.255	0.0162067
630.333	0.0160782
630.411	0.0161980
630.489	0.0160798
630.567	0.0161513
630.646	0.0160894
630.724	0.0160742
630.802	0.0160400
630.880	0.0161989
630.958	0.0160841
631.036	0.0160655
631.114	0.0161548
631.192	0.0160902
631.271	0.0161385
631.349	0.0160504
631.427	0.0159736
631.505	0.0161025
631.583	0.0160449
631.661	0.0161374
631.739	0.0162143
631.817	0.0160770
631.896	0.0159618
631.974	0.0160220
632.052	0.0160938
632.130	0.0161652
632.208	0.0160023
632.286	0.0162041
632.364	0.0161832
632.442	0.0160844
632.521	0.0161060
632.599	0.0160638
632.677	0.0161130
632.755	0.0160071
632.833	0.0162064
632.911	0.0160985
632.989	0.0161985
633.067	0.0162044
633.146	0.0161483
633.224	0.0162172
633.302	0.0160723
633.380	0.0161526
633.458	0.0160386
633.536	0.0160202
633.614	0.0161692
633.692	0.0160638
633.771	0.0161312
633.849	0.0161353
633.927	0.0161186
634.005	0.0161283
634.083	0.0160864
634.161	0.0159557
634.239	0.0160543
634.317	0.0159914
634.396	0.0163414
634.474	0.0161143
634.552	0.0160484
634.630	0.0160818
634.708	0.0160841
634.786	0.0160877
634.864	0.0161488
634.942	0.0161260
635.021	0.0160905
635.099	0.0161692
635.177	0.0160545
635.255	0.0162648
635.333	0.0161948
635.411	0.0162025
635.489	0.0161343
635.567	0.0160551
635.646	0.0160809
635.724	0.0160789
635.802	0.0162469
635.880	0.0162433
635.958	0.0161626
636.036	0.0161119
636.114	0.0160444
636.192	0.0159937
636.271	0.0162450
636.349	0.0161710
636.427	0.0162001
636.505	0.0162132
636.583	0.0162268
636.661	0.0162277
636.739	0.0161320
636.817	0.0161051
636.896	0.0160674
636.974	0.0161034
637.052	0.0160441
637.130	0.0160627
637.208	0.0160798
637.286	0.0162139
637.364	0.0161428
637.442	0.0160989
637.521	0.0160788
637.599	0.0161163
637.677	0.0161271
637.755	0.0160434
637.833	0.0161137
637.911	0.0161991
637.989	0.0160329
638.067	0.0160637
638.146	0.0162391
638.224	0.0161173
638.302	0.0161458
638.380	0.0159991
638.458	0.0160305
638.536	0.0160194
638.614	0.0161746
638.692	0.0160588
638.771	0.0161477
638.849	0.0161163
638.927	0.0160253
639.005	0.0159986
639.083	0.0161038
639.161	0.0161092
639.239	0.0161423
639.317	0.0160814
639.396	0.0160789
639.474	0.0160315
639.552	0.0160440
639.630	0.0161443
639.708	0.0160698
639.786	0.0161213
639.864	0.0162203
639.942	0.0161217
640.021	0.0162041
640.099	0.0161828
640.177	0.0161859
640.255	0.0161095
640.333	0.0160869
640.411	0.0161440
640.489	0.0162584
640.567	0.0162776
640.646	0.0161732
640.724	0.0160951
640.802	0.0162100
640.880	0.0160880
640.958	0.0162538
641.036	0.0161529
641.114	0.0163019
641.192	0.0161210
641.271	0.0161464
641.349	0.0160038
641.427	0.0161732
641.505	0.0159881
641.583	0.0160785
641.661	0.0160120
641.739	0.0160110
641.817	0.0160643
641.896	0.0160037
641.974	0.0160284
642.052	0.0160429
642.130	0.0160732
642.208	0.0160281
642.286	0.0160645
642.364	0.0159966
642.442	0.0161446
642.521	0.0161784
642.599	0.0160318
642.677	0.0160968
642.755	0.0160919
642.833	0.0160923
642.911	0.0161819
642.989	0.0159380
643.067	0.0161017
643.146	0.0162586
643.224	0.0160530
643.302	0.0161359
643.380	0.0160190
643.458	0.0158776
643.536	0.0159717
643.614	0.0161143
643.692	0.0161185
643.771	0.0160294
643.849	0.0160283
643.927	0.0161326
644.005	0.0160557
644.083	0.0160330
644.161	0.0161702
644.239	0.0159521
644.317	0.0160673
644.396	0.0160960
644.474	0.0162025
644.552	0.0162106
644.630	0.0162363
644.708	0.0163051
644.786	0.0161543
644.864	0.0161538
644.942	0.0161153
645.021	0.0160562
645.099	0.0160709
645.177	0.0162554
645.255	0.0161644
645.333	0.0160065
645.411	0.0160838
645.489	0.0161947
645.567	0.0162216
645.646	0.0162316
645.724	0.0161687
645.802	0.0161681
645.880	0.0160735
645.958	0.0162480
646.036	0.0161110
646.114	0.0161291
646.192	0.0160581
646.271	0.0162334
646.349	0.0160667
646.427	0.0161781
646.505	0.0160677
646.583	0.0161230
646.661	0.0161934
646.739	0.0159547
646.817	0.0159975
646.896	0.0162409
646.974	0.0161321
647.052	0.0160303
647.130	0.0159998
647.208	0.0161404
647.286	0.0161540
647.364	0.0161064
647.442	0.0161309
647.521	0.0161652
647.599	0.0160291
647.677	0.0161020
647.755	0.0161263
647.833	0.0160413
647.911	0.0161335
647.989	0.0160420
648.067	0.0161362
648.146	0.0161404
648.224	0.0160606
648.302	0.0160144
648.380	0.0161639
648.458	0.0161191
648.536	0.0160805
648.614	0.0160613
648.692	0.0161495
648.771	0.0161205
648.849	0.0160098
648.927	0.0159917
649.005	0.0160245
649.083	0.0161373
649.161	0.0160480
649.239	0.0160818
649.317	0.0160977
649.396	0.0162663
649.474	0.0161768
649.552	0.0161440
649.630	0.0161115
649.708	0.0161279
649.786	0.0160500
649.864	0.0160571
649.942	0.0161017
650.021	0.0161549
650.099	0.0161134
650.177	0.0160979
650.255	0.0160678
650.333	0.0161695
650.411	0.0160851
650.489	0.0160353
650.567	0.0161765
650.646	0.0161958
650.724	0.0162023
650.802	0.0160690
650.880	0.0162067
650.958	0.0162159
651.036	0.0160522
651.114	0.0160271
651.192	0.0162664
651.271	0.0162613
651.349	0.0161826
651.427	0.0160413
651.505	0.0161820
651.583	0.0160415
651.661	0.0160811
651.739	0.0161130
651.817	0.0161125
651.896	0.0161028
651.974	0.0160832
652.052	0.0161876
652.130	0.0162115
652.208	0.0160199
652.286	0.0160331
652.364	0.0160614
652.442	0.0160044
652.521	0.0159372
652.599	0.0161418
652.677	0.0160651
652.755	0.0160738
652.833	0.0159948
652.911	0.0161398
652.989	0.0161227
653.067	0.0160542
653.146	0.0160649
653.224	0.0160962
653.302	0.0161211
653.380	0.0161366
653.458	0.0160571
653.536	0.0160981
653.614	0.0161135
653.692	0.0160044
653.771	0.0160303
653.849	0.0161282
653.927	0.0160788
654.005	0.0160766
654.083	0.0161160
654.161	0.0161673
654.239	0.0160722
654.317	0.0160796
654.396	0.0161791
654.474	0.0160894
654.552	0.0162560
654.630	0.0160851
654.708	0.0160715
654.786	0.0161135
654.864	0.0162032
654.942	0.0161055
655.021	0.0162802
655.099	0.0160357
655.177	0.0162001
655.255	0.0160597
655.333	0.0161578
655.411	0.0162657
655.489	0.0161579
655.567	0.0162646
655.646	0.0160305
655.724	0.0161392
655.802	0.0161973
655.880	0.0160879
655.958	0.0159668
656.036	0.0161594
656.114	0.0162134
656.192	0.0161914
656.271	0.0160609
656.349	0.0160298
656.427	0.0161908
656.505	0.0161990
656.583	0.0161538
656.661	0.0162768
656.739	0.0161001
656.817	0.0160519
656.896	0.0160298
656.974	0.0161184
657.052	0.0161118
657.130	0.0161293
657.208	0.0161502
657.286	0.0159464
657.364	0.0160679
657.442	0.0161047
657.521	0.0160844
657.599	0.0162926
657.677	0.0160638
657.755	0.0160625
657.833	0.0161915
657.911	0.0162020
657.989	0.0160792
658.067	0.0161466
658.146	0.0160755
658.224	0.0161166
658.302	0.0160806
658.380	0.0161673
658.458	0.0161402
658.536	0.0161237
658.614	0.0161823
658.692	0.0162270
658.771	0.0161387
658.849	0.0160973
658.927	0.0161834
659.005	0.0162366
659.083	0.0162214
659.161	0.0160828
659.239	0.0162156
659.317	0.0161735
659.396	0.0161490
659.474	0.0163665
659.552	0.0161172
659.630	0.0161641
659.708	0.0161694
659.786	0.0161047
659.864	0.0161654
659.942	0.0159852
660.021	0.0161536
660.099	0.0162772
660.177	0.0162727
660.255	0.0160947
660.333	0.0160545
660.411	0.0162273
660.489	0.0163098
660.567	0.0160586
660.646	0.0160520
660.724	0.0161608
660.802	0.0160624
660.880	0.0161108
660.958	0.0161947
661.036	0.0162393
661.114	0.0162164
661.192	0.0160693
661.271	0.0160521
661.349	0.0162282
661.427	0.0163046
661.505	0.0161540
661.583	0.0161820
661.661	0.0161621
661.739	0.0159237
661.817	0.0160647
661.896	0.0161823
661.974	0.0161279
662.052	0.0161015
662.130	0.0160635
662.208	0.0160617
662.286	0.0160313
662.364	0.0161636
662.442	0.0161375
662.521	0.0160406
662.599	0.0160586
662.677	0.0161938
662.755	0.0162089
662.833	0.0160629
662.911	0.0160354
662.989	0.0160705
663.067	0.0162302
663.146	0.0161613
663.224	0.0161229
663.302	0.0160752
663.380	0.0160488
663.458	0.0160368
663.536	0.0161935
663.614	0.0162002
663.692	0.0160524
663.771	0.0160458
663.849	0.0161044
663.927	0.0161374
664.005	0.0160678
664.083	0.0161970
664.161	0.0161759
664.239	0.0161674
664.317	0.0161123
664.396	0.0161066
664.474	0.0160540
664.552	0.0163279
664.630	0.0162498
664.708	0.0161221
664.786	0.0161150
664.864	0.0161595
664.942	0.0162126
665.021	0.0162087
665.099	0.0161537
665.177	0.0161311
665.255	0.0162209
665.333	0.0160919
665.411	0.0162540
665.489	0.0161375
665.567	0.0161159
665.646	0.0161738
665.724	0.0161940
665.802	0.0161591
665.880	0.0161137
665.958	0.0161286
666.036	0.0160564
666.114	0.0162512
666.192	0.0161119
666.271	0.0160572
666.349	0.0161701
666.427	0.0162402
666.505	0.0161520
666.583	0.0161872
666.661	0.0161835
666.739	0.0160741
666.817	0.0162182
666.896	0.0160641
666.974	0.0161706
667.052	0.0162839
667.130	0.0161768
667.208	0.0161929
667.286	0.0160811
667.364	0.0161994
667.442	0.0160378
667.521	0.0160817
667.599	0.0162326
667.677	0.0161844
667.755	0.0161408
667.833	0.0161993
667.911	0.0161001
667.989	0.0160614
668.067	0.0160384
668.146	0.0161760
668.224	0.0162312
668.302	0.0162064
668.380	0.0160300
668.458	0.0161829
668.536	0.0162705
668.614	0.0161648
668.692	0.0162738
668.771	0.0161662
668.849	0.0161700
668.927	0.0162704
669.005	0.0162093
669.083	0.0159347
669.161	0.0161581
669.239	0.0161962
669.317	0.0161460
669.396	0.0162281
669.474	0.0161576
669.552	0.0161352
669.630	0.0162214
669.708	0.0161562
669.786	0.0161636
669.864	0.0160316
669.942	0.0161221
670.021	0.0163457
670.099	0.0159975
670.177	0.0160918
670.255	0.0162749
670.333	0.0161915
670.411	0.0161562
670.489	0.0161697
670.567	0.0161521
670.646	0.0161858
670.724	0.0161958
670.802	0.0162170
670.880	0.0160781
670.958	0.0160752
671.036	0.0160840
671.114	0.0161552
671.192	0.0160109
671.271	0.0160616
671.349	0.0161753
671.427	0.0161395
671.505	0.0161086
671.583	0.0161501
671.661	0.0160632
671.739	0.0161026
671.817	0.0161275
671.896	0.0160439
671.974	0.0160915
672.052	0.0161875
672.130	0.0161632
672.208	0.0161768
672.286	0.0162160
672.364	0.0160744
672.442	0.0161447
672.521	0.0162585
672.599	0.0161889
672.677	0.0161176
672.755	0.0160487
672.833	0.0160291
672.911	0.0162358
672.989	0.0161089
673.067	0.0161960
673.146	0.0162369
673.224	0.0160724
673.302	0.0160829
673.380	0.0161913
673.458	0.0161352
673.536	0.0161193
673.614	0.0162950
673.692	0.0162143
673.771	0.0162077
673.849	0.0161810
673.927	0.0162239
674.005	0.0161330
674.083	0.0161296
674.161	0.0160139
674.239	0.0161082
674.317	0.0161843
674.396	0.0160854
674.474	0.0160985
674.552	0.0160519
674.630	0.0161980
674.708	0.0162240
674.786	0.0162534
674.864	0.0160384
674.942	0.0161149
675.021	0.0161517
675.099	0.0162018
675.177	0.0162529
675.255	0.0159780
675.333	0.0160360
675.411	0.0161411
675.489	0.0161805
675.567	0.0161786
675.646	0.0163305
675.724	0.0161114
675.802	0.0159888
675.880	0.0161272
675.958	0.0162991
676.036	0.0160479
676.114	0.0160833
676.192	0.0161256
676.271	0.0161620
676.349	0.0161761
676.427	0.0161951
676.505	0.0161532
676.583	0.0162910
676.661	0.0162395
676.739	0.0161020
676.817	0.0160796
676.896	0.0160454
676.974	0.0161721
677.052	0.0160960
677.130	0.0161507
677.208	0.0161092
677.286	0.0160291
677.364	0.0161852
677.442	0.0162084
677.521	0.0162477
677.599	0.0162532
677.677	0.0160232
677.755	0.0161290
677.833	0.0161688
677.911	0.0162109
677.989	0.0161136
678.067	0.0161803
678.146	0.0161868
678.224	0.0162097
678.302	0.0163302
678.380	0.0162440
678.458	0.0160372
678.536	0.0160387
678.614	0.0160686
678.692	0.0160885
678.771	0.0160664
678.849	0.0162596
678.927	0.0160813
679.005	0.0160962
679.083	0.0161179
679.161	0.0160306
679.239	0.0160359
679.317	0.0161405
679.396	0.0160139
679.474	0.0161469
679.552	0.0161330
679.630	0.0161693
679.708	0.0160642
679.786	0.0161910
679.864	0.0161053
679.942	0.0161278
680.021	0.0161522
680.099	0.0160291
680.177	0.0160758
680.255	0.0160220
680.333	0.0160336
680.411	0.0162081
680.489	0.0160537
680.567	0.0159307
680.646	0.0160600
680.724	0.0160754
680.802	0.0160310
680.880	0.0160771
680.958	0.0160738
681.036	0.0160575
681.114	0.0159941
681.192	0.0161173
681.271	0.0161130
681.349	0.0160502
681.427	0.0161043
681.505	0.0161543
681.583	0.0161317
681.661	0.0160548
681.739	0.0161021
681.817	0.0159567
681.896	0.0159967
681.974	0.0161197
682.052	0.0162439
682.130	0.0162112
682.208	0.0161407
682.286	0.0161323
682.364	0.0162071
682.442	0.0162762
682.521	0.0161524
682.599	0.0162906
682.677	0.0162112
682.755	0.0162411
682.833	0.0160558
682.911	0.0161787
682.989	0.0161382
683.067	0.0160481
683.146	0.0160361
683.224	0.0159504
683.302	0.0160533
683.380	0.0159684
683.458	0.0158472
683.536	0.0161106
683.614	0.0161920
683.692	0.0162373
683.771	0.0162342
683.849	0.0163511
683.927	0.0164926
684.005	0.0165543
684.083	0.0164449
684.161	0.0164635
684.239	0.0163152
684.317	0.0161134
684.396	0.0161726
684.474	0.0160009
684.552	0.0157346
684.630	0.0156771
684.708	0.0155890
684.786	0.0156002
684.864	0.0155932
684.942	0.0156176
685.021	0.0158412
685.099	0.0160313
685.177	0.0162746
685.255	0.0164804
685.333	0.0166229
685.411	0.0167790
685.489	0.0168362
685.567	0.0170351
685.646	0.0169984
685.724	0.0166098
685.802	0.0161755
685.880	0.0159943
685.958	0.0156935
686.036	0.0154748
686.114	0.0153354
686.192	0.0152111
686.271	0.0151936
686.349	0.0152145
686.427	0.0153386
686.505	0.0156136
686.583	0.0158753
686.661	0.0162407
686.739	0.0164326
686.817	0.0167130
686.896	0.0171375
686.974	0.0170761
687.052	0.0170025
687.130	0.0167985
687.208	0.0167638
687.286	0.0163855
687.364	0.0160004
687.442	0.0156548
687.521	0.0153515
687.599	0.0152538
687.677	0.0151379
687.755	0.0151768
687.833	0.0151771
687.911	0.0153107
687.989	0.0157121
688.067	0.0157751
688.146	0.0159200
688.224	0.0160440
688.302	0.0164700
688.380	0.0166113
688.458	0.0167351
688.536	0.0167691
688.614	0.0167616
688.692	0.0167401
688.771	0.0168768
688.849	0.0167286
688.927	0.0164162
689.005	0.0161430
689.083	0.0159410
689.161	0.0157408
689.239	0.0155084
689.317	0.0153806
689.396	0.0153407
689.474	0.0154532
689.552	0.0154967
689.630	0.0157410
689.708	0.0159320
689.786	0.0160812
689.864	0.0162197
689.942	0.0165032
690.021	0.0167245
690.099	0.0167319
690.177	0.0167840
690.255	0.0167886
690.333	0.0167146
690.411	0.0164359
690.489	0.0162798
690.567	0.0160587
690.646	0.0158817
690.724	0.0158524
690.802	0.0158430
690.880	0.0157439
690.958	0.0157999
691.036	0.0158319
691.114	0.0160235
691.192	0.0160521
691.271	0.0161343
691.349	0.0162253
691.427	0.0161920
691.505	0.0161668
691.583	0.0163196
691.661	0.0161658
691.739	0.0159852
691.817	0.0159407
691.896	0.0160561
691.974	0.0160104
692.052	0.0159476
692.130	0.0160510
692.208	0.0161705
692.286	0.0163655
692.364	0.0162666
692.442	0.0163907
692.521	0.0163336
692.599	0.0162767
692.677	0.0163237
692.755	0.0163271
692.833	0.0163813
692.911	0.0160799
692.989	0.0158701
693.067	0.0159574
693.146	0.0158952
693.224	0.0159147
693.302	0.0158792
693.380	0.0160226
693.458	0.0160721
693.536	0.0162218
693.614	0.0163452
693.692	0.0164700
693.771	0.0163921
693.849	0.0164159
693.927	0.0164692
694.005	0.0163952
694.083	0.0163845
694.161	0.0160731
694.239	0.0160892
694.317	0.0158578
694.396	0.0159710
694.474	0.0157346
694.552	0.0157796
694.630	0.0158156
694.708	0.0160262
694.786	0.0160437
694.864	0.0161412
694.942	0.0162082
695.021	0.0162705
695.099	0.0164503
695.177	0.0165044
695.255	0.0164832
695.333	0.0165181
695.411	0.0164641
695.489	0.0165182
695.567	0.0164519
695.646	0.0163366
695.724	0.0163503
695.802	0.0162685
695.880	0.0160152
695.958	0.0161508
696.036	0.0162966
696.114	0.0161644
696.192	0.0162213
696.271	0.0164077
696.349	0.0164220
696.427	0.0164971
696.505	0.0162861
696.583	0.0163223
696.661	0.0162706
696.739	0.0161448
696.817	0.0161694
696.896	0.0160507
696.974	0.0158854
697.052	0.0159296
697.130	0.0157668
697.208	0.0155928
697.286	0.0157689
697.364	0.0157221
697.442	0.0156913
697.521	0.0158405
697.599	0.0159091
697.677	0.0159409
697.755	0.0160838
697.833	0.0161076
697.911	0.0160239
697.989	0.0161824
698.067	0.0160877
698.146	0.0162064
698.224	0.0160077
698.302	0.0160131
698.380	0.0160927
698.458	0.0160121
698.536	0.0160342
698.614	0.0161383
698.692	0.0162453
698.771	0.0163871
698.849	0.0163411
698.927	0.0164259
699.005	0.0165836
699.083	0.0168365
699.161	0.0167668
699.239	0.0169345
699.317	0.0168440
699.396	0.0169930
699.474	0.0168606
699.552	0.0167088
699.630	0.0165720
699.708	0.0162527
699.786	0.0162836
699.864	0.0160315
699.942	0.0159232
700.021	0.0157327
700.099	0.0157383
700.177	0.0159187
700.255	0.0159359
700.333	0.0160319
700.411	0.0159755
700.489	0.0163567
700.567	0.0164545
700.646	0.0165030
700.724	0.0167958
700.802	0.0167977
700.880	0.0168248
700.958	0.0167210
701.036	0.0168582
701.114	0.0167188
701.192	0.0165152
701.271	0.0163218
701.349	0.0161813
701.427	0.0160894
701.505	0.0158824
701.583	0.0157834
701.661	0.0154339
701.739	0.0154253
701.817	0.0152665
701.896	0.0151919
701.974	0.0149483
702.052	0.0149905
702.130	0.0149101
702.208	0.0149343
702.286	0.0149529
702.364	0.0147902
702.442	0.0149653
702.521	0.0147604
702.599	0.0148406
702.677	0.0150348
702.755	0.0151351
702.833	0.0153671
702.911	0.0155833
702.989	0.0157755
703.067	0.0161138
703.146	0.0165782
703.224	0.0168269
703.302	0.0171730
703.380	0.0174405
703.458	0.0176505
703.536	0.0177059
703.614	0.0177660
703.692	0.0177887
703.771	0.0177348
703.849	0.0176964
703.927	0.0174889
704.005	0.0171960
704.083	0.0171332
704.161	0.0169205
704.239	0.0166659
704.317	0.0165148
704.396	0.0166509
704.474	0.0163938
704.552	0.0163802
704.630	0.0164650
704.708	0.0164521
704.786	0.0161771
704.864	0.0160728
704.942	0.0161150
705.021	0.0160383
705.099	0.0158188
705.177	0.0157561
705.255	0.0156467
705.333	0.0157494
705.411	0.0156410
705.489	0.0157354
705.567	0.0157552
705.646	0.0157208
705.724	0.0156169
705.802	0.0157175
705.880	0.0155801
705.958	0.0153849
706.036	0.0153294
706.114	0.0153719
706.192	0.0153987
706.271	0.0156081
706.349	0.0157237
706.427	0.0159785
706.505	0.0159842
706.583	0.0161073
706.661	0.0164799
706.739	0.0166912
706.817	0.0166555
706.896	0.0168281
706.974	0.0167523
707.052	0.0167010
707.130	0.0164639
707.208	0.0162392
707.286	0.0159072
707.364	0.0155560
707.442	0.0151567
707.521	0.0148073
707.599	0.0144246
707.677	0.0138610
707.755	0.0136015
707.833	0.0132758
707.911	0.0130486
707.989	0.0128423
708.067	0.0128697
708.146	0.0130148
708.224	0.0132287
708.302	0.0135453
708.380	0.0140162
708.458	0.0145919
708.536	0.0152312
708.614	0.0160976
708.692	0.0167066
708.771	0.0176088
708.849	0.0181525
708.927	0.0189566
709.005	0.0196346
709.083	0.0200342
709.161	0.0204414
709.239	0.0210406
709.317	0.0209975
709.396	0.0210983
709.474	0.0212273
709.552	0.0211192
709.630	0.0209792
709.708	0.0208826
709.786	0.0203065
709.864	0.0198212
709.942	0.0193887
710.021	0.0188575
710.099	0.0182099
710.177	0.0173096
710.255	0.0165896
710.333	0.0158950
710.411	0.0151715
710.489	0.0142862
710.567	0.0138284
710.646	0.0130397
710.724	0.0125932
710.802	0.0123954
710.880	0.0118794
710.958	0.0116815
711.036	0.0117162
711.114	0.0115452
711.192	0.0118272
711.271	0.0118327
711.349	0.0120630
711.427	0.0123471
711.505	0.0128323
711.583	0.0132999
711.661	0.0135920
711.739	0.0141815
711.817	0.0147644
711.896	0.0153928
711.974	0.0160921
712.052	0.0168079
712.130	0.0172060
712.208	0.0178300
712.286	0.0179855
712.364	0.0182722
712.442	0.0184012
712.521	0.0179011
712.599	0.0174954
712.677	0.0173119
712.755	0.0164820
712.833	0.0158085
712.911	0.0150491
712.989	0.0142889
713.067	0.0138121
713.146	0.0132436
713.224	0.0130099
713.302	0.0128789
713.380	0.0128701
713.458	0.0132976
713.536	0.0135117
713.614	0.0143150
713.692	0.0148373
713.771	0.0154343
713.849	0.0162522
713.927	0.0170281
714.005	0.0177497
714.083	0.0183553
714.161	0.0189339
714.239	0.0192963
714.317	0.0196976
714.396	0.0200722
714.474	0.0200975
714.552	0.0203107
714.630	0.0204783
714.708	0.0205487
714.786	0.0206108
714.864	0.0206341
714.942	0.0207185
715.021	0.0204479
715.099	0.0203539
715.177	0.0203869
715.255	0.0201110
715.333	0.0198367
715.411	0.0195469
715.489	0.0189600
715.567	0.0185957
715.646	0.0179472
715.724	0.0173212
715.802	0.0166917
715.880	0.0159514
715.958	0.0152006
716.036	0.0145658
716.114	0.0141994
716.192	0.0137457
716.271	0.0129147
716.349	0.0126476
716.427	0.0123788
716.505	0.0123151
716.583	0.0121928
716.661	0.0120449
716.739	0.0123400
716.817	0.0125661
716.896	0.0129518
716.974	0.0133979
717.052	0.0139050
717.130	0.0142560
717.208	0.0148302
717.286	0.0151973
717.364	0.0155552
717.442	0.0155930
717.521	0.0154826
717.599	0.0152486
717.677	0.0149406
717.755	0.0141182
717.833	0.0133226
717.911	0.0123661
717.989	0.0111721
718.067	0.0102324
718.146	0.00911316
718.224	0.00836716
718.302	0.00778404
718.380	0.00745918
718.458	0.00732651
718.536	0.00748413
718.614	0.00817696
718.692	0.00884712
718.771	0.0100858
718.849	0.0116122
718.927	0.0131743
719.005	0.0149494
719.083	0.0168815
719.161	0.0187982
719.239	0.0207651
719.317	0.0225804
719.396	0.0243547
719.474	0.0258966
719.552	0.0271924
719.630	0.0284136
719.708	0.0292673
719.786	0.0299870
719.864	0.0303593
719.942	0.0303302
720.021	0.0301937
720.099	0.0295662
720.177	0.0288573
720.255	0.0279559
720.333	0.0266585
720.411	0.0252843
720.489	0.0237506
720.567	0.0222200
720.646	0.0206459
720.724	0.0190585
720.802	0.0173563
720.880	0.0160419
720.958	0.0145161
721.036	0.0133463
721.114	0.0122507
721.192	0.0113767
721.271	0.0107146
721.349	0.0101674
721.427	0.00972466
721.505	0.00955009
721.583	0.00954025
721.661	0.00933228
721.739	0.00947701
721.817	0.00962852
721.896	0.00986572
721.974	0.0100407
722.052	0.0103213
722.130	0.0104169
722.208	0.0104830
722.286	0.0107298
722.364	0.0106567
722.442	0.0104571
722.521	0.0100853
722.599	0.00979439
722.677	0.00922920
722.755	0.00880791
722.833	0.00828079
722.911	0.00768379
722.989	0.00734413
723.067	0.00711578
723.146	0.00701302
723.224	0.00723770
723.302	0.00776375
723.380	0.00858856
723.458	0.00973366
723.536	0.0109272
723.614	0.0124596
723.692	0.0141458
723.771	0.0161284
723.849	0.0179087
723.927	0.0199406
724.005	0.0217705
724.083	0.0234728
724.161	0.0249140
724.239	0.0263347
724.317	0.0274283
724.396	0.0282592
724.474	0.0288808
724.552	0.0290637
724.630	0.0292599
724.708	0.0290416
724.786	0.0286668
724.864	0.0280675
724.942	0.0273421
725.021	0.0263418
725.099	0.0253051
725.177	0.0243138
725.255	0.0229642
725.333	0.0217466
725.411	0.0206271
725.489	0.0191473
725.567	0.0181195
725.646	0.0170985
725.724	0.0160772
725.802	0.0151670
725.880	0.0143218
725.958	0.0136614
726.036	0.0131126
726.114	0.0129922
726.192	0.0127010
726.271	0.0123672
726.349	0.0123820
726.427	0.0125186
726.505	0.0125932
726.583	0.0125340
726.661	0.0127101
726.739	0.0127085
726.817	0.0127678
726.896	0.0126846
726.974	0.0125790
727.052	0.0123679
727.130	0.0121372
727.208	0.0118550
727.286	0.0113388
727.364	0.0109791
727.442	0.0105679
727.521	0.0100821
727.599	0.00961548
727.677	0.00933456
727.755	0.00903877
727.833	0.00878654
727.911	0.00882637
727.989	0.00888054
728.067	0.00923958
728.146	0.00952690
728.224	0.00994362
728.302	0.0107685
728.380	0.0116566
728.458	0.0126205
728.536	0.0136958
728.614	0.0147810
728.692	0.0157439
728.771	0.0173183
728.849	0.0184187
728.927	0.0196478
729.005	0.0207594
729.083	0.0218434
729.161	0.0225652
729.239	0.0232617
729.317	0.0239310
729.396	0.0241011
729.474	0.0243468
729.552	0.0243338
729.630	0.0243102
729.708	0.0240250
729.786	0.0237797
729.864	0.0234196
729.942	0.0229417
730.021	0.0224068
730.099	0.0218404
730.177	0.0212527
730.255	0.0204124
730.333	0.0199310
730.411	0.0191676
730.489	0.0185128
730.567	0.0176646
730.646	0.0170693
730.724	0.0162498
730.802	0.0156638
730.880	0.0149966
730.958	0.0146252
731.036	0.0143598
731.114	0.0138713
731.192	0.0136819
731.271	0.0134228
731.349	0.0132946
731.427	0.0133266
731.505	0.0131892
731.583	0.0130561
731.661	0.0127557
731.739	0.0127309
731.817	0.0127235
731.896	0.0123587
731.974	0.0122968
732.052	0.0121851
732.130	0.0121266
732.208	0.0117929
732.286	0.0118205
732.364	0.0116902
732.442	0.0118221
732.521	0.0120184
732.599	0.0118958
732.677	0.0121322
732.755	0.0124289
732.833	0.0128265
732.911	0.0130978
732.989	0.0135555
733.067	0.0140019
733.146	0.0145219
733.224	0.0150761
733.302	0.0155637
733.380	0.0159464
733.458	0.0164369
733.536	0.0171732
733.614	0.0176700
733.692	0.0183096
733.771	0.0187802
733.849	0.0193304
733.927	0.0197429
734.005	0.0200427
734.083	0.0203983
734.161	0.0205108
734.239	0.0204324
734.317	0.0206142
734.396	0.0205374
734.474	0.0204105
734.552	0.0201426
734.630	0.0200410
734.708	0.0196999
734.786	0.0196444
734.864	0.0195217
734.942	0.0192409
735.021	0.0189911
735.099	0.0188530
735.177	0.0183736
735.255	0.0182981
735.333	0.0179099
735.411	0.0175244
735.489	0.0168697
735.567	0.0165801
735.646	0.0161749
735.724	0.0156977
735.802	0.0152347
735.880	0.0147214
735.958	0.0143525
736.036	0.0141913
736.114	0.0138901
736.192	0.0135558
736.271	0.0133418
736.349	0.0131554
736.427	0.0130501
736.505	0.0130679
736.583	0.0127398
736.661	0.0125478
736.739	0.0125725
736.817	0.0124483
736.896	0.0124205
736.974	0.0123833
737.052	0.0122156
737.130	0.0123803
737.208	0.0125376
737.286	0.0126135
737.364	0.0128152
737.442	0.0130299
737.521	0.0134277
737.599	0.0139447
737.677	0.0142610
737.755	0.0146414
737.833	0.0152378
737.911	0.0156963
737.989	0.0163860
738.067	0.0166396
738.146	0.0170943
738.224	0.0175121
738.302	0.0178764
738.380	0.0180697
738.458	0.0182313
738.536	0.0183851
738.614	0.0185872
738.692	0.0186841
738.771	0.0185844
738.849	0.0185510
738.927	0.0184655
739.005	0.0182881
739.083	0.0181793
739.161	0.0181925
739.239	0.0179726
739.317	0.0178773
739.396	0.0179659
739.474	0.0178857
739.552	0.0180636
739.630	0.0181007
739.708	0.0180314
739.786	0.0180502
739.864	0.0180544
739.942	0.0180498
740.021	0.0180476
740.099	0.0178786
740.177	0.0177026
740.255	0.0176280
740.333	0.0176921
740.411	0.0174352
740.489	0.0172842
740.567	0.0173160
740.646	0.0171889
740.724	0.0167860
740.802	0.0167206
740.880	0.0163904
740.958	0.0161937
741.036	0.0160219
741.114	0.0155974
741.192	0.0152452
741.271	0.0150749
741.349	0.0147192
741.427	0.0143601
741.505	0.0141887
741.583	0.0139854
741.661	0.0137110
741.739	0.0134563
741.817	0.0131832
741.896	0.0131174
741.974	0.0130716
742.052	0.0131204
742.130	0.0129269
742.208	0.0129025
742.286	0.0130814
742.364	0.0131350
742.442	0.0132895
742.521	0.0133357
742.599	0.0134217
742.677	0.0136477
742.755	0.0138116
742.833	0.0141419
742.911	0.0142467
742.989	0.0145252
743.067	0.0149456
743.146	0.0155898
743.224	0.0158217
743.302	0.0163097
743.380	0.0168899
743.458	0.0170564
743.536	0.0175020
743.614	0.0179938
743.692	0.0184023
743.771	0.0185101
743.849	0.0186845
743.927	0.0187920
744.005	0.0189262
744.083	0.0190723
744.161	0.0190391
744.239	0.0189082
744.317	0.0188601
744.396	0.0188457
744.474	0.0186680
744.552	0.0184486
744.630	0.0183410
744.708	0.0180109
744.786	0.0178256
744.864	0.0175626
744.942	0.0173522
745.021	0.0171188
745.099	0.0167826
745.177	0.0166289
745.255	0.0165057
745.333	0.0162678
745.411	0.0159733
745.489	0.0158384
745.567	0.0156515
745.646	0.0154198
745.724	0.0151112
745.802	0.0150333
745.880	0.0149316
745.958	0.0148048
746.036	0.0147407
746.114	0.0146569
746.192	0.0147649
746.271	0.0146666
746.349	0.0146292
746.427	0.0146741
746.505	0.0147423
746.583	0.0148476
746.661	0.0149149
746.739	0.0148059
746.817	0.0150446
746.896	0.0150666
746.974	0.0151458
747.052	0.0153960
747.130	0.0155919
747.208	0.0157375
747.286	0.0158377
747.364	0.0159235
747.442	0.0160303
747.521	0.0161240
747.599	0.0160777
747.677	0.0161892
747.755	0.0162431
747.833	0.0164503
747.911	0.0164588
747.989	0.0163304
748.067	0.0164214
748.146	0.0162232
748.224	0.0162431
748.302	0.0163500
748.380	0.0163390
748.458	0.0164204
748.536	0.0166154
748.614	0.0167081
748.692	0.0167992
748.771	0.0171895
748.849	0.0172583
748.927	0.0174907
749.005	0.0174983
749.083	0.0175471
749.161	0.0174360
749.239	0.0173821
749.317	0.0173787
749.396	0.0171078
749.474	0.0171004
749.552	0.0169369
749.630	0.0165899
749.708	0.0162585
749.786	0.0160023
749.864	0.0158657
749.942	0.0156228
750.021	0.0153769
750.099	0.0153918
750.177	0.0151992
750.255	0.0150446
750.333	0.0151480
750.411	0.0150012
750.489	0.0149683
750.567	0.0148151
750.646	0.0147652
750.724	0.0148389
750.802	0.0147950
750.880	0.0147283
750.958	0.0147113
751.036	0.0149526
751.114	0.0150671
751.192	0.0150391
751.271	0.0151276
751.349	0.0154035
751.427	0.0155028
751.505	0.0157809
751.583	0.0158279
751.661	0.0161266
751.739	0.0163121
751.817	0.0166226
751.896	0.0168279
751.974	0.0168765
752.052	0.0168561
752.130	0.0170899
752.208	0.0172231
752.286	0.0171571
752.364	0.0172031
752.442	0.0170472
752.521	0.0171706
752.599	0.0170116
752.677	0.0169987
752.755	0.0170734
752.833	0.0166885
752.911	0.0165629
752.989	0.0165739
753.067	0.0165125
753.146	0.0163197
753.224	0.0162652
753.302	0.0163209
753.380	0.0162521
753.458	0.0161080
753.536	0.0161581
753.614	0.0160544
753.692	0.0160924
753.771	0.0161077
753.849	0.0160796
753.927	0.0161710
754.005	0.0161339
754.083	0.0161329
754.161	0.0160899
754.239	0.0161707
754.317	0.0162126
754.396	0.0162331
754.474	0.0159287
754.552	0.0159563
754.630	0.0158641
754.708	0.0158105
754.786	0.0156932
754.864	0.0154910
754.942	0.0154379
755.021	0.0154762
755.099	0.0151897
755.177	0.0153034
755.255	0.0153892
755.333	0.0152722
755.411	0.0153541
755.489	0.0153796
755.567	0.0156818
755.646	0.0157095
755.724	0.0158014
755.802	0.0158936
755.880	0.0161099
755.958	0.0162146
756.036	0.0162468
756.114	0.0163806
756.192	0.0165039
756.271	0.0165881
756.349	0.0168003
756.427	0.0167325
756.505	0.0167645
756.583	0.0168943
756.661	0.0168230
756.739	0.0167928
756.817	0.0168085
756.896	0.0169957
756.974	0.0168357
757.052	0.0169366
757.130	0.0166946
757.208	0.0167048
757.286	0.0165823
757.364	0.0164514
757.442	0.0162605
757.521	0.0163342
757.599	0.0162415
757.677	0.0160348
757.755	0.0159068
757.833	0.0157327
757.911	0.0156941
757.989	0.0155083
758.067	0.0154002
758.146	0.0153027
758.224	0.0153918
758.302	0.0153004
758.380	0.0152638
758.458	0.0152808
758.536	0.0153902
758.614	0.0152997
758.692	0.0154701
758.771	0.0153291
758.849	0.0152218
758.927	0.0154044
759.005	0.0155361
759.083	0.0156396
759.161	0.0157086
759.239	0.0158509
759.317	0.0159792
759.396	0.0160752
759.474	0.0160205
759.552	0.0161147
759.630	0.0162691
759.708	0.0163467
759.786	0.0164937
759.864	0.0164033
759.942	0.0164199
760.021	0.0164029
760.099	0.0164005
760.177	0.0163481
760.255	0.0163750
760.333	0.0163753
760.411	0.0161835
760.489	0.0161650
760.567	0.0161794
760.646	0.0162695
760.724	0.0161997
760.802	0.0163052
760.880	0.0163404
760.958	0.0164741
761.036	0.0165398
761.114	0.0166428
761.192	0.0167716
761.271	0.0166763
761.349	0.0167071
761.427	0.0167702
761.505	0.0167279
761.583	0.0166904
761.661	0.0166782
761.739	0.0165125
761.817	0.0164644
761.896	0.0162528
761.974	0.0162965
762.052	0.0161533
762.130	0.0161092
762.208	0.0158250
762.286	0.0159530
762.364	0.0158446
762.442	0.0157731
762.521	0.0157125
762.599	0.0155323
762.677	0.0156139
762.755	0.0155844
762.833	0.0155228
762.911	0.0155305
762.989	0.0155167
763.067	0.0155208
763.146	0.0155080
763.224	0.0154680
763.302	0.0156993
763.380	0.0158249
763.458	0.0158070
763.536	0.0158486
763.614	0.0160483
763.692	0.0159742
763.771	0.0162405
763.849	0.0162865
763.927	0.0163287
764.005	0.0164076
764.083	0.0165701
764.161	0.0166741
764.239	0.0166132
764.317	0.0166755
764.396	0.0167175
764.474	0.0169008
764.552	0.0167673
764.630	0.0168642
764.708	0.0168117
764.786	0.0166852
764.864	0.0167439
764.942	0.0167643
765.021	0.0166195
765.099	0.0165337
765.177	0.0163317
765.255	0.0163110
765.333	0.0162015
765.411	0.0160230
765.489	0.0159216
765.567	0.0158328
765.646	0.0156837
765.724	0.0156904
765.802	0.0156893
765.880	0.0154922
765.958	0.0154912
766.036	0.0153870
766.114	0.0152422
766.192	0.0152714
766.271	0.0152412
766.349	0.0151646
766.427	0.0151692
766.505	0.0150648
766.583	0.0151292
766.661	0.0151217
766.739	0.0152701
766.817	0.0152171
766.896	0.0153297
766.974	0.0154327
767.052	0.0156057
767.130	0.0158367
767.208	0.0160530
767.286	0.0160514
767.364	0.0162405
767.442	0.0165269
767.521	0.0165246
767.599	0.0165588
767.677	0.0166068
767.755	0.0166406
767.833	0.0168707
767.911	0.0167580
767.989	0.0167928
768.067	0.0167788
768.146	0.0165997
768.224	0.0165024
768.302	0.0165176
768.380	0.0165427
768.458	0.0163309
768.536	0.0163525
768.614	0.0163635
768.692	0.0163004
768.771	0.0161490
768.849	0.0161453
768.927	0.0161971
769.005	0.0161349
769.083	0.0161195
769.161	0.0162074
769.239	0.0161762
769.317	0.0162951
769.396	0.0164602
769.474	0.0164249
769.552	0.0163285
769.630	0.0164030
769.708	0.0164645
769.786	0.0166444
769.864	0.0164578
769.942	0.0165313
770.021	0.0166186
770.099	0.0165919
770.177	0.0166135
770.255	0.0167214
770.333	0.0166375
770.411	0.0165401
770.489	0.0165856
770.567	0.0165089
770.646	0.0163731
770.724	0.0163990
770.802	0.0160759
770.880	0.0160468
770.958	0.0158997
771.036	0.0158277
771.114	0.0156985
771.192	0.0155818
771.271	0.0153747
771.349	0.0152863
771.427	0.0153362
771.505	0.0152251
771.583	0.0151087
771.661	0.0149906
771.739	0.0152184
771.817	0.0151591
771.896	0.0152164
771.974	0.0152187
772.052	0.0152479
772.130	0.0154578
772.208	0.0155517
772.286	0.0155305
772.364	0.0157516
772.442	0.0158410
772.521	0.0159881
772.599	0.0160354
772.677	0.0160608
772.755	0.0160979
772.833	0.0160648
772.911	0.0162218
772.989	0.0161098
773.067	0.0161761
773.146	0.0160969
773.224	0.0161427
773.302	0.0159837
773.380	0.0162920
773.458	0.0163299
773.536	0.0163606
773.614	0.0163347
773.692	0.0164840
773.771	0.0165898
773.849	0.0165726
773.927	0.0166360
774.005	0.0166551
774.083	0.0168789
774.161	0.0166999
774.239	0.0167533
774.317	0.0168206
774.396	0.0165181
774.474	0.0166595
774.552	0.0165972
774.630	0.0163018
774.708	0.0162020
774.786	0.0161856
774.864	0.0161315
774.942	0.0161556
775.021	0.0160579
775.099	0.0160310
775.177	0.0158919
775.255	0.0157900
775.333	0.0158479
775.411	0.0159644
775.489	0.0159312
775.567	0.0158924
775.646	0.0156907
775.724	0.0157220
775.802	0.0157487
775.880	0.0157644
775.958	0.0158408
776.036	0.0156786
776.114	0.0156368
776.192	0.0158523
776.271	0.0158941
776.349	0.0158318
776.427	0.0157817
776.505	0.0160932
776.583	0.0160686
776.661	0.0161172
776.739	0.0163282
776.817	0.0162754
776.896	0.0163353
776.974	0.0164872
777.052	0.0164198
777.130	0.0165434
777.208	0.0165023
777.286	0.0165430
777.364	0.0166016
777.442	0.0164614
777.521	0.0163393
777.599	0.0164250
777.677	0.0163332
777.755	0.0162642
777.833	0.0162970
777.911	0.0162278
777.989	0.0161086
778.067	0.0160308
778.146	0.0160104
778.224	0.0159251
778.302	0.0158526
778.380	0.0158118
778.458	0.0157835
778.536	0.0157468
778.614	0.0157299
778.692	0.0158660
778.771	0.0158022
778.849	0.0157723
778.927	0.0157320
779.005	0.0157892
779.083	0.0158637
779.161	0.0158998
779.239	0.0158092
779.317	0.0160447
779.396	0.0158997
779.474	0.0160003
779.552	0.0159267
779.630	0.0159095
779.708	0.0161202
779.786	0.0160678
779.864	0.0159348
779.942	0.0160795
780.021	0.0159129
780.099	0.0159978
780.177	0.0159960
780.255	0.0159543
780.333	0.0159693
780.411	0.0161032
780.489	0.0159718
780.567	0.0161986
780.646	0.0161808
780.724	0.0161066
780.802	0.0162828
780.880	0.0162917
780.958	0.0164056
781.036	0.0164955
781.114	0.0163843
781.192	0.0162904
781.271	0.0162856
781.349	0.0163331
781.427	0.0163488
781.505	0.0162859
781.583	0.0161004
781.661	0.0160651
781.739	0.0160783
781.817	0.0159936
781.896	0.0160171
781.974	0.0160030
782.052	0.0160215
782.130	0.0161915
782.208	0.0161230
782.286	0.0162024
782.364	0.0164607
782.442	0.0162197
782.521	0.0163741
782.599	0.0163959
782.677	0.0162977
782.755	0.0162199
782.833	0.0162791
782.911	0.0160273
782.989	0.0159776
783.067	0.0159484
783.146	0.0158991
783.224	0.0159404
783.302	0.0158568
783.380	0.0159207
783.458	0.0158065
783.536	0.0156997
783.614	0.0157676
783.692	0.0158826
783.771	0.0157908
783.849	0.0159148
783.927	0.0159502
784.005	0.0159210
784.083	0.0159122
784.161	0.0160088
784.239	0.0158813
784.317	0.0161873
784.396	0.0161218
784.474	0.0160931
784.552	0.0162149
784.630	0.0162275
784.708	0.0162986
784.786	0.0164144
784.864	0.0164368
784.942	0.0163781
785.021	0.0163787
785.099	0.0163944
785.177	0.0164175
785.255	0.0163330
785.333	0.0164740
785.411	0.0162224
785.489	0.0162110
785.567	0.0162442
785.646	0.0160018
785.724	0.0161739
785.802	0.0162220
785.880	0.0161242
785.958	0.0160709
786.036	0.0161190
786.114	0.0159692
786.192	0.0159912
786.271	0.0159488
786.349	0.0159227
786.427	0.0158820
786.505	0.0159038
786.583	0.0159031
786.661	0.0157170
786.739	0.0157581
786.817	0.0159379
786.896	0.0158974
786.974	0.0158851
787.052	0.0159574
787.130	0.0160759
787.208	0.0160554
787.286	0.0160164
787.364	0.0162136
787.442	0.0161639
787.521	0.0162074
787.599	0.0164363
787.677	0.0163911
787.755	0.0163873
787.833	0.0165129
787.911	0.0163468
787.989	0.0164670
788.067	0.0165454
788.146	0.0164994
788.224	0.0164159
788.302	0.0163506
788.380	0.0165085
788.458	0.0164503
788.536	0.0163866
788.614	0.0162267
788.692	0.0162051
788.771	0.0161689
788.849	0.0159846
788.927	0.0159129
789.005	0.0159678
789.083	0.0159785
789.161	0.0159230
789.239	0.0158117
789.317	0.0158599
789.396	0.0159013
789.474	0.0158498
789.552	0.0157531
789.630	0.0158091
789.708	0.0157461
789.786	0.0159526
789.864	0.0158274
789.942	0.0160201
790.021	0.0159317
790.099	0.0159684
790.177	0.0161750
790.255	0.0161771
790.333	0.0161445
790.411	0.0161930
790.489	0.0162949
790.567	0.0162136
790.646	0.0161310
790.724	0.0163322
790.802	0.0163238
790.880	0.0162543
790.958	0.0160542
791.036	0.0161163
791.114	0.0161895
791.192	0.0160712
791.271	0.0162122
791.349	0.0160127
791.427	0.0160532
791.505	0.0161416
791.583	0.0157995
791.661	0.0157735
791.739	0.0160434
791.817	0.0159365
791.896	0.0160099
791.974	0.0160107
792.052	0.0158556
792.130	0.0158933
792.208	0.0159798
792.286	0.0160191
792.364	0.0160213
792.442	0.0161869
792.521	0.0160947
792.599	0.0162988
792.677	0.0163421
792.755	0.0162469
792.833	0.0163879
792.911	0.0163527
792.989	0.0164636
793.067	0.0164885
793.146	0.0166256
793.224	0.0165579
793.302	0.0167101
793.380	0.0166160
793.458	0.0166273
793.536	0.0166948
793.614	0.0167674
793.692	0.0166116
793.771	0.0166438
793.849	0.0165352
793.927	0.0164544
794.005	0.0163992
794.083	0.0162868
794.161	0.0160835
794.239	0.0160286
794.317	0.0160001
794.396	0.0159240
794.474	0.0157148
794.552	0.0156586
794.630	0.0155328
794.708	0.0154710
794.786	0.0153809
794.864	0.0154993
794.942	0.0155805
795.021	0.0156895
795.099	0.0155849
795.177	0.0156146
795.255	0.0158417
795.333	0.0158138
795.411	0.0159214
795.489	0.0159476
795.567	0.0160239
795.646	0.0160474
795.724	0.0161488
795.802	0.0162447
795.880	0.0162180
795.958	0.0163748
796.036	0.0163952
796.114	0.0165805
796.192	0.0165773
796.271	0.0166094
796.349	0.0165245
796.427	0.0165237
796.505	0.0164758
796.583	0.0165652
796.661	0.0164618
796.739	0.0163934
796.817	0.0164938
796.896	0.0163348
796.974	0.0162086
797.052	0.0162696
797.130	0.0163184
797.208	0.0160958
797.286	0.0159446
797.364	0.0159740
797.442	0.0157973
797.521	0.0158153
797.599	0.0158369
797.677	0.0158228
797.755	0.0157816
797.833	0.0157121
797.911	0.0157761
797.989	0.0156075
798.067	0.0157034
798.146	0.0158807
798.224	0.0158002
798.302	0.0158633
798.380	0.0158482
798.458	0.0159692
798.536	0.0160300
798.614	0.0159964
798.692	0.0161920
798.771	0.0163600
798.849	0.0164062
798.927	0.0163601
799.005	0.0164149
799.083	0.0163654
799.161	0.0164904
799.239	0.0164080
799.317	0.0163745
799.396	0.0163458
799.474	0.0162468
799.552	0.0163654
799.630	0.0162299
799.708	0.0161925
799.786	0.0161891
799.864	0.0161573
799.942	0.0160368
800.021	0.0160932
800.099	0.0160030
800.177	0.0161208
800.255	0.0159884
800.333	0.0160784
800.411	0.0160445
800.489	0.0161010
800.567	0.0160950
800.646	0.0161446
800.724	0.0163316
800.802	0.0163454
800.880	0.0163855
800.958	0.0163589
801.036	0.0164090
801.114	0.0165822
801.192	0.0163624
801.271	0.0164199
801.349	0.0166340
801.427	0.0164917
801.505	0.0163219
801.583	0.0161960
801.661	0.0162724
801.739	0.0162557
801.817	0.0161563
801.896	0.0160583
801.974	0.0160835
802.052	0.0159668
802.130	0.0159332
802.208	0.0157484
802.286	0.0156081
802.364	0.0157243
802.442	0.0156528
802.521	0.0156293
802.599	0.0154445
802.677	0.0155868
802.755	0.0156162
802.833	0.0155332
802.911	0.0154665
802.989	0.0155630
803.067	0.0155936
803.146	0.0157186
803.224	0.0157137
803.302	0.0159428
803.380	0.0158207
803.458	0.0157726
803.536	0.0157816
803.614	0.0158369
803.692	0.0160222
803.771	0.0158891
803.849	0.0161344
803.927	0.0161224
804.005	0.0162535
804.083	0.0163465
804.161	0.0161657
804.239	0.0162702
804.317	0.0163560
804.396	0.0163610
804.474	0.0163330
804.552	0.0164429
804.630	0.0164571
804.708	0.0165374
804.786	0.0166395
804.864	0.0166325
804.942	0.0168136
805.021	0.0168143
805.099	0.0166441
805.177	0.0166676
805.255	0.0166396
805.333	0.0165889
805.411	0.0166113
805.489	0.0166528
805.567	0.0165833
805.646	0.0167088
805.724	0.0165693
805.802	0.0163936
805.880	0.0161336
805.958	0.0162286
806.036	0.0162666
806.114	0.0161578
806.192	0.0159552
806.271	0.0160777
806.349	0.0159629
806.427	0.0159279
806.505	0.0157603
806.583	0.0156584
806.661	0.0156474
806.739	0.0156568
806.817	0.0156480
806.896	0.0156077
806.974	0.0155394
807.052	0.0154710
807.130	0.0158124
807.208	0.0155496
807.286	0.0155193
807.364	0.0156576
807.442	0.0156904
807.521	0.0159191
807.599	0.0159357
807.677	0.0157569
807.755	0.0158046
807.833	0.0159087
807.911	0.0158901
807.989	0.0159761
808.067	0.0158565
808.146	0.0158112
808.224	0.0158435
808.302	0.0159287
808.380	0.0158385
808.458	0.0158390
808.536	0.0158203
808.614	0.0158887
808.692	0.0158956
808.771	0.0159972
808.849	0.0159408
808.927	0.0159708
809.005	0.0161092
809.083	0.0161160
809.161	0.0162283
809.239	0.0162705
809.317	0.0161743
809.396	0.0164401
809.474	0.0164837
809.552	0.0165250
809.630	0.0166103
809.708	0.0167361
809.786	0.0167411
809.864	0.0167061
809.942	0.0167922
810.021	0.0166644
810.099	0.0167719
810.177	0.0166801
810.255	0.0164931
810.333	0.0165544
810.411	0.0165642
810.489	0.0164832
810.567	0.0164281
810.646	0.0162727
810.724	0.0162192
810.802	0.0161732
810.880	0.0161555
810.958	0.0159412
811.036	0.0160144
811.114	0.0159796
811.192	0.0159264
811.271	0.0161308
811.349	0.0159229
811.427	0.0159520
811.505	0.0159993
811.583	0.0158684
811.661	0.0159097
811.739	0.0159578
811.817	0.0159035
811.896	0.0159843
811.974	0.0159242
812.052	0.0157495
812.130	0.0159734
812.208	0.0159568
812.286	0.0159365
812.364	0.0160519
812.442	0.0159499
812.521	0.0160081
812.599	0.0161660
812.677	0.0161088
812.755	0.0161428
812.833	0.0161720
812.911	0.0161418
812.989	0.0161795
813.067	0.0162460
813.146	0.0161663
813.224	0.0161635
813.302	0.0162503
813.380	0.0160389
813.458	0.0160423
813.536	0.0161144
813.614	0.0160960
813.692	0.0160754
813.771	0.0159980
813.849	0.0159557
813.927	0.0158784
814.005	0.0157630
814.083	0.0157765
814.161	0.0157285
814.239	0.0155180
814.317	0.0155598
814.396	0.0155793
814.474	0.0155175
814.552	0.0154623
814.630	0.0155261
814.708	0.0154460
814.786	0.0153256
814.864	0.0154036
814.942	0.0155914
815.021	0.0156951
815.099	0.0155508
815.177	0.0157130
815.255	0.0157263
815.333	0.0157957
815.411	0.0160506
815.489	0.0161554
815.567	0.0161869
815.646	0.0162199
815.724	0.0164034
815.802	0.0164314
815.880	0.0167487
815.958	0.0167731
816.036	0.0168145
816.114	0.0168966
816.192	0.0170091
816.271	0.0170397
816.349	0.0171222
816.427	0.0170602
816.505	0.0170419
816.583	0.0171480
816.661	0.0170923
816.739	0.0170503
816.817	0.0171104
816.896	0.0169433
816.974	0.0169748
817.052	0.0169292
817.130	0.0169922
817.208	0.0169112
817.286	0.0169021
817.364	0.0166813
817.442	0.0168497
817.521	0.0168095
817.599	0.0167212
817.677	0.0167125
817.755	0.0165592
817.833	0.0165519
817.911	0.0164922
817.989	0.0162139
818.067	0.0161131
818.146	0.0160801
818.224	0.0159315
818.302	0.0158701
818.380	0.0156168
818.458	0.0154086
818.536	0.0152264
818.614	0.0151782
818.692	0.0148573
818.771	0.0147366
818.849	0.0147844
818.927	0.0146985
819.005	0.0144845
819.083	0.0144189
819.161	0.0143993
819.239	0.0142795
819.317	0.0143317
819.396	0.0144627
819.474	0.0145013
819.552	0.0144350
819.630	0.0146432
819.708	0.0148621
819.786	0.0149465
819.864	0.0152163
819.942	0.0154812
820.021	0.0155924
820.099	0.0157355
820.177	0.0158228
820.255	0.0159781
820.333	0.0163277
820.411	0.0164199
820.489	0.0165466
820.567	0.0168123
820.646	0.0166277
820.724	0.0168652
820.802	0.0168778
820.880	0.0170417
820.958	0.0170982
821.036	0.0171620
821.114	0.0172009
821.192	0.0173945
821.271	0.0175258
821.349	0.0175883
821.427	0.0175342
821.505	0.0176918
821.583	0.0177707
821.661	0.0177604
821.739	0.0177787
821.817	0.0176745
821.896	0.0177749
821.974	0.0177424
822.052	0.0176490
822.130	0.0174645
822.208	0.0173328
822.286	0.0171741
822.364	0.0170900
822.442	0.0169292
822.521	0.0166377
822.599	0.0165254
822.677	0.0164709
822.755	0.0162955
822.833	0.0160473
822.911	0.0158958
822.989	0.0159664
823.067	0.0157056
823.146	0.0156133
823.224	0.0154665
823.302	0.0154121
823.380	0.0150724
823.458	0.0151498
823.536	0.0150468
823.614	0.0148283
823.692	0.0149435
823.771	0.0149792
823.849	0.0148122
823.927	0.0146031
824.005	0.0144949
824.083	0.0144457
824.161	0.0146053
824.239	0.0145852
824.317	0.0144006
824.396	0.0144463
824.474	0.0145592
824.552	0.0147548
824.630	0.0147378
824.708	0.0148272
824.786	0.0151067
824.864	0.0152531
824.942	0.0152215
825.021	0.0153593
825.099	0.0155659
825.177	0.0158314
825.255	0.0159258
825.333	0.0160875
825.411	0.0163495
825.489	0.0164236
825.567	0.0164174
825.646	0.0166898
825.724	0.0169093
825.802	0.0170105
825.880	0.0170838
825.958	0.0172347
826.036	0.0173270
826.114	0.0172818
826.192	0.0174137
826.271	0.0175488
826.349	0.0175386
826.427	0.0175253
826.505	0.0175371
826.583	0.0175568
826.661	0.0173901
826.739	0.0174459
826.817	0.0174322
826.896	0.0172293
826.974	0.0173428
827.052	0.0171333
827.130	0.0168489
827.208	0.0169553
827.286	0.0168778
827.364	0.0167012
827.442	0.0167068
827.521	0.0164622
827.599	0.0162617
827.677	0.0161256
827.755	0.0161654
827.833	0.0159874
827.911	0.0158611
827.989	0.0156007
828.067	0.0155225
828.146	0.0154668
828.224	0.0154034
828.302	0.0151863
828.380	0.0150693
828.458	0.0150977
828.536	0.0150395
828.614	0.0149093
828.692	0.0149962
828.771	0.0149371
828.849	0.0148642
828.927	0.0149991
829.005	0.0149232
829.083	0.0150592
829.161	0.0151798
829.239	0.0152814
829.317	0.0154291
829.396	0.0155221
829.474	0.0158384
829.552	0.0158038
829.630	0.0159044
829.708	0.0160394
829.786	0.0160893
829.864	0.0161968
829.942	0.0162292
830.021	0.0163000
830.099	0.0163307
830.177	0.0163488
830.255	0.0163237
830.333	0.0163040
830.411	0.0164240
830.489	0.0163986
830.567	0.0164464
830.646	0.0165347
830.724	0.0161579
830.802	0.0165050
830.880	0.0164894
830.958	0.0164715
831.036	0.0164351
831.114	0.0164668
831.192	0.0167290
831.271	0.0166633
831.349	0.0166896
831.427	0.0166133
831.505	0.0167542
831.583	0.0168536
831.661	0.0167889
831.739	0.0167391
831.817	0.0167645
831.896	0.0167702
831.974	0.0165720
832.052	0.0164256
832.130	0.0163926
832.208	0.0162865
832.286	0.0161816
832.364	0.0161747
832.442	0.0161553
832.521	0.0161160
832.599	0.0159841
832.677	0.0159106
832.755	0.0159663
832.833	0.0158981
832.911	0.0158138
832.989	0.0157151
833.067	0.0156846
833.146	0.0156875
833.224	0.0156461
833.302	0.0156293
833.380	0.0155659
833.458	0.0156255
833.536	0.0155598
833.614	0.0155348
833.692	0.0156810
833.771	0.0156337
833.849	0.0157716
833.927	0.0157533
834.005	0.0159577
834.083	0.0159435
834.161	0.0159866
834.239	0.0159841
834.317	0.0161269
834.396	0.0161490
834.474	0.0162345
834.552	0.0163299
834.630	0.0163908
834.708	0.0163094
834.786	0.0164350
834.864	0.0161731
834.942	0.0164326
835.021	0.0162872
835.099	0.0162865
835.177	0.0162904
835.255	0.0161596
835.333	0.0162468
835.411	0.0162309
835.489	0.0162957
835.567	0.0162106
835.646	0.0162171
835.724	0.0161435
835.802	0.0162658
835.880	0.0162368
835.958	0.0162306
836.036	0.0162128
836.114	0.0162508
836.192	0.0163687
836.271	0.0162797
836.349	0.0163078
836.427	0.0162054
836.505	0.0161359
836.583	0.0162575
836.661	0.0163119
836.739	0.0161596
836.817	0.0161962
836.896	0.0162058
836.974	0.0160099
837.052	0.0161083
837.130	0.0161384
837.208	0.0162154
837.286	0.0160847
837.364	0.0160789
837.442	0.0162268
837.521	0.0161012
837.599	0.0161211
837.677	0.0160437
837.755	0.0160979
837.833	0.0159528
837.911	0.0161840
837.989	0.0159081
838.067	0.0159743
838.146	0.0161362
838.224	0.0161629
838.302	0.0159815
838.380	0.0161942
838.458	0.0162914
838.536	0.0160863
838.614	0.0161561
838.692	0.0161297
838.771	0.0162210
838.849	0.0161691
838.927	0.0161153
839.005	0.0161652
839.083	0.0160908
839.161	0.0161938
839.239	0.0161613
839.317	0.0161096
839.396	0.0160132
839.474	0.0160200
839.552	0.0159111
839.630	0.0159873
839.708	0.0158703
839.786	0.0158554
839.864	0.0158153
839.942	0.0158439
840.021	0.0159947
840.099	0.0158798
840.177	0.0159154
840.255	0.0159719
840.333	0.0159322
840.411	0.0159393
840.489	0.0160203
840.567	0.0161393
840.646	0.0161838
840.724	0.0160997
840.802	0.0160740
840.880	0.0161330
840.958	0.0162406
841.036	0.0163013
841.114	0.0163683
841.192	0.0164606
841.271	0.0163334
841.349	0.0164339
841.427	0.0163769
841.505	0.0162320
841.583	0.0163438
841.661	0.0162217
841.739	0.0164018
841.817	0.0161813
841.896	0.0163556
841.974	0.0162669
842.052	0.0160676
842.130	0.0161602
842.208	0.0161472
842.286	0.0163303
842.364	0.0162345
842.442	0.0163421
842.521	0.0161156
842.599	0.0162172
842.677	0.0162264
842.755	0.0163336
842.833	0.0161757
842.911	0.0162061
842.989	0.0161006
843.067	0.0162000
843.146	0.0162389
843.224	0.0161604
843.302	0.0162114
843.380	0.0161921
843.458	0.0159807
843.536	0.0160902
843.614	0.0160428
843.692	0.0161491
843.771	0.0160670
843.849	0.0159921
843.927	0.0161221
844.005	0.0159982
844.083	0.0159702
844.161	0.0160268
844.239	0.0158717
844.317	0.0160947
844.396	0.0160242
844.474	0.0159065
844.552	0.0159502
844.630	0.0158559
844.708	0.0158775
844.786	0.0158281
844.864	0.0158454
844.942	0.0156956
845.021	0.0158143
845.099	0.0159071
845.177	0.0157148
845.255	0.0158173
845.333	0.0158501
845.411	0.0158604
845.489	0.0158835
845.567	0.0158935
845.646	0.0158561
845.724	0.0159307
845.802	0.0159348
845.880	0.0159743
845.958	0.0160964
846.036	0.0159793
846.114	0.0160109
846.192	0.0159764
846.271	0.0160965
846.349	0.0162685
846.427	0.0162405
846.505	0.0161308
846.583	0.0162121
846.661	0.0162540
846.739	0.0163335
846.817	0.0163557
846.896	0.0162984
846.974	0.0162161
847.052	0.0164288
847.130	0.0163745
847.208	0.0162811
847.286	0.0163192
847.364	0.0162862
847.442	0.0163969
847.521	0.0165278
847.599	0.0162679
847.677	0.0163783
847.755	0.0163002
847.833	0.0163481
847.911	0.0162886
847.989	0.0164153
848.067	0.0162444
848.146	0.0160950
848.224	0.0161829
848.302	0.0162292
848.380	0.0161700
848.458	0.0159801
848.536	0.0159977
848.614	0.0161398
848.692	0.0161198
848.771	0.0159270
848.849	0.0159655
848.927	0.0159339
849.005	0.0159330
849.083	0.0160109
849.161	0.0160223
849.239	0.0159199
849.317	0.0158854
849.396	0.0158400
849.474	0.0158083
849.552	0.0159270
849.630	0.0159496
849.708	0.0158122
849.786	0.0159490
849.864	0.0158809
849.942	0.0160178
850.021	0.0159227
850.099	0.0159164
850.177	0.0158093
850.255	0.0160031
850.333	0.0159402
850.411	0.0158412
850.489	0.0159705
850.567	0.0158716
850.646	0.0158733
850.724	0.0161211
850.802	0.0159527
850.880	0.0161155
850.958	0.0160431
851.036	0.0161420
851.114	0.0160471
851.192	0.0161882
851.271	0.0163002
851.349	0.0163737
851.427	0.0163436
851.505	0.0162861
851.583	0.0162567
851.661	0.0164394
851.739	0.0164603
851.817	0.0163366
851.896	0.0164213
851.974	0.0164168
852.052	0.0163889
852.130	0.0164301
852.208	0.0164330
852.286	0.0164912
852.364	0.0164418
852.442	0.0163746
852.521	0.0163315
852.599	0.0164898
852.677	0.0164081
852.755	0.0164317
852.833	0.0165418
852.911	0.0163295
852.989	0.0163479
853.067	0.0162750
853.146	0.0164009
853.224	0.0162615
853.302	0.0162376
853.380	0.0162814
853.458	0.0162550
853.536	0.0162038
853.614	0.0161784
853.692	0.0161679
853.771	0.0160073
853.849	0.0159234
853.927	0.0160004
854.005	0.0158144
854.083	0.0158195
854.161	0.0159325
854.239	0.0157986
854.317	0.0157014
854.396	0.0156548
854.474	0.0156212
854.552	0.0156364
854.630	0.0157164
854.708	0.0155879
854.786	0.0156087
854.864	0.0157437
854.942	0.0157195
855.021	0.0156017
855.099	0.0155824
855.177	0.0156701
855.255	0.0157746
855.333	0.0159738
855.411	0.0159410
855.489	0.0159214
855.567	0.0159167
855.646	0.0160549
855.724	0.0161118
855.802	0.0161089
855.880	0.0160132
855.958	0.0162585
856.036	0.0162239
856.114	0.0163499
856.192	0.0163580
856.271	0.0163506
856.349	0.0163610
856.427	0.0164403
856.505	0.0163500
856.583	0.0165040
856.661	0.0165079
856.739	0.0165079
856.817	0.0165278
856.896	0.0164178
856.974	0.0164523
857.052	0.0164779
857.130	0.0163709
857.208	0.0162502
857.286	0.0164268
857.364	0.0164227
857.442	0.0163000
857.521	0.0162691
857.599	0.0164005
857.677	0.0163177
857.755	0.0163153
857.833	0.0162555
857.911	0.0164021
857.989	0.0163020
858.067	0.0161715
858.146	0.0162320
858.224	0.0164646
858.302	0.0163782
858.380	0.0161732
858.458	0.0162440
858.536	0.0162052
858.614	0.0163457
858.692	0.0161436
858.771	0.0161417
858.849	0.0161694
858.927	0.0162086
859.005	0.0161528
859.083	0.0160014
859.161	0.0159576
859.239	0.0160312
859.317	0.0160262
859.396	0.0158714
859.474	0.0158300
859.552	0.0159068
859.630	0.0157780
859.708	0.0158572
859.786	0.0158344
859.864	0.0157196
859.942	0.0158296
860.021	0.0158527
860.099	0.0158746
860.177	0.0158126
860.255	0.0159885
860.333	0.0159350
860.411	0.0159495
860.489	0.0158940
860.567	0.0160715
860.646	0.0159698
860.724	0.0160360
860.802	0.0160473
860.880	0.0160306
860.958	0.0159039
861.036	0.0160600
861.114	0.0161937
861.192	0.0161416
861.271	0.0161446
861.349	0.0161968
861.427	0.0161311
861.505	0.0161217
861.583	0.0160998
861.661	0.0161082
861.739	0.0162222
861.817	0.0162334
861.896	0.0162109
861.974	0.0162458
862.052	0.0163615
862.130	0.0163172
862.208	0.0164056
862.286	0.0163819
862.364	0.0164023
862.442	0.0163496
862.521	0.0163277
862.599	0.0162817
862.677	0.0162466
862.755	0.0162433
862.833	0.0163182
862.911	0.0160914
862.989	0.0162251
863.067	0.0162366
863.146	0.0162071
863.224	0.0161276
863.302	0.0161102
863.380	0.0161987
863.458	0.0160929
863.536	0.0160654
863.614	0.0161552
863.692	0.0160960
863.771	0.0161270
863.849	0.0161817
863.927	0.0159959
864.005	0.0161115
864.083	0.0161458
864.161	0.0160430
864.239	0.0160303
864.317	0.0162083
864.396	0.0160257
864.474	0.0160330
864.552	0.0160980
864.630	0.0160293
864.708	0.0160735
864.786	0.0161977
864.864	0.0160860
864.942	0.0160060
865.021	0.0160844
865.099	0.0161510
865.177	0.0159855
865.255	0.0161564
865.333	0.0162266
865.411	0.0161172
865.489	0.0160761
865.567	0.0161530
865.646	0.0161885
865.724	0.0160754
865.802	0.0161296
865.880	0.0159445
865.958	0.0159348
866.036	0.0159203
866.114	0.0160361
866.192	0.0160422
866.271	0.0159715
866.349	0.0159647
866.427	0.0158935
866.505	0.0160984
866.583	0.0160854
866.661	0.0159942
866.739	0.0160696
866.817	0.0160758
866.896	0.0159829
866.974	0.0160307
867.052	0.0160584
867.130	0.0159967
867.208	0.0159967
867.286	0.0161339
867.364	0.0161024
867.442	0.0160288
867.521	0.0160397
867.599	0.0159511
867.677	0.0160593
867.755	0.0160001
867.833	0.0159888
867.911	0.0160058
867.989	0.0161308
868.067	0.0160017
868.146	0.0160545
868.224	0.0160916
868.302	0.0160847
868.380	0.0161887
868.458	0.0160703
868.536	0.0160323
868.614	0.0160316
868.692	0.0160226
868.771	0.0160178
868.849	0.0159980
868.927	0.0159921
869.005	0.0160754
869.083	0.0160606
869.161	0.0160920
869.239	0.0160934
869.317	0.0160960
869.396	0.0162273
869.474	0.0162682
869.552	0.0161105
869.630	0.0163011
869.708	0.0162290
869.786	0.0163498
869.864	0.0163773
869.942	0.0163980
