06/03/2022	15:40:51	Ver.	4.1	UNKNOWN
Optical Delay	550.020508	Delta X		0.078125	Sweeps	1	Scan Rate	0/0
Coordinates	Axis 1	NaN	Axis 2	NaN	Axis 3	NaN	Axis 4	NaN	Axis 5	NaN	Axis 6	0.000000
TX Power	0.000000	RX Power	0.000000

550.021	0.0158958
550.099	0.0158897
550.177	0.0158818
550.255	0.0159024
550.333	0.0159492
550.411	0.0158444
550.489	0.0158937
550.567	0.0158369
550.646	0.0158537
550.724	0.0159533
550.802	0.0159366
550.880	0.0159635
550.958	0.0159502
551.036	0.0158047
551.114	0.0159219
551.192	0.0160394
551.271	0.0159103
551.349	0.0158755
551.427	0.0158852
551.505	0.0158327
551.583	0.0159084
551.661	0.0160535
551.739	0.0157818
551.817	0.0158708
551.896	0.0159063
551.974	0.0157533
552.052	0.0158176
552.130	0.0160241
552.208	0.0158736
552.286	0.0158363
552.364	0.0159159
552.442	0.0157616
552.521	0.0158441
552.599	0.0158735
552.677	0.0159473
552.755	0.0158779
552.833	0.0159515
552.911	0.0159229
552.989	0.0159245
553.067	0.0159958
553.146	0.0159538
553.224	0.0157791
553.302	0.0158897
553.380	0.0159310
553.458	0.0159904
553.536	0.0159972
553.614	0.0158820
553.692	0.0158728
553.771	0.0159013
553.849	0.0157848
553.927	0.0158705
554.005	0.0158784
554.083	0.0159209
554.161	0.0157680
554.239	0.0159190
554.317	0.0159238
554.396	0.0158628
554.474	0.0158283
554.552	0.0159334
554.630	0.0159520
554.708	0.0158298
554.786	0.0159658
554.864	0.0158879
554.942	0.0159627
555.021	0.0159166
555.099	0.0158243
555.177	0.0159961
555.255	0.0159285
555.333	0.0159866
555.411	0.0159116
555.489	0.0159673
555.567	0.0159504
555.646	0.0158900
555.724	0.0160293
555.802	0.0159454
555.880	0.0159035
555.958	0.0159755
556.036	0.0158334
556.114	0.0157694
556.192	0.0159235
556.271	0.0158743
556.349	0.0159332
556.427	0.0159537
556.505	0.0159191
556.583	0.0158267
556.661	0.0158031
556.739	0.0159220
556.817	0.0159157
556.896	0.0159266
556.974	0.0160071
557.052	0.0160632
557.130	0.0159637
557.208	0.0158105
557.286	0.0159158
557.364	0.0158565
557.442	0.0158183
557.521	0.0158641
557.599	0.0158738
557.677	0.0159855
557.755	0.0159800
557.833	0.0159460
557.911	0.0159171
557.989	0.0158979
558.067	0.0157906
558.146	0.0158681
558.224	0.0159071
558.302	0.0159328
558.380	0.0158521
558.458	0.0159550
558.536	0.0158211
558.614	0.0157742
558.692	0.0158287
558.771	0.0159608
558.849	0.0158241
558.927	0.0159142
559.005	0.0157559
559.083	0.0158921
559.161	0.0158424
559.239	0.0158914
559.317	0.0160184
559.396	0.0159342
559.474	0.0159148
559.552	0.0159244
559.630	0.0158871
559.708	0.0159290
559.786	0.0158899
559.864	0.0158340
559.942	0.0159407
560.021	0.0158656
560.099	0.0159409
560.177	0.0159176
560.255	0.0159006
560.333	0.0159512
560.411	0.0158955
560.489	0.0158505
560.567	0.0157809
560.646	0.0158412
560.724	0.0159162
560.802	0.0159003
560.880	0.0158158
560.958	0.0158207
561.036	0.0159164
561.114	0.0159197
561.192	0.0159702
561.271	0.0158562
561.349	0.0158234
561.427	0.0157994
561.505	0.0158768
561.583	0.0159045
561.661	0.0158916
561.739	0.0158861
561.817	0.0158324
561.896	0.0158016
561.974	0.0156760
562.052	0.0158673
562.130	0.0159563
562.208	0.0159067
562.286	0.0158186
562.364	0.0158340
562.442	0.0159421
562.521	0.0158441
562.599	0.0158250
562.677	0.0159521
562.755	0.0159571
562.833	0.0158003
562.911	0.0157841
562.989	0.0158526
563.067	0.0156871
563.146	0.0158127
563.224	0.0158843
563.302	0.0156944
563.380	0.0157214
563.458	0.0159160
563.536	0.0159013
563.614	0.0159220
563.692	0.0158955
563.771	0.0158122
563.849	0.0158451
563.927	0.0158988
564.005	0.0157568
564.083	0.0158697
564.161	0.0159369
564.239	0.0158640
564.317	0.0159074
564.396	0.0158953
564.474	0.0160063
564.552	0.0159208
564.630	0.0158447
564.708	0.0158360
564.786	0.0158719
564.864	0.0159211
564.942	0.0158820
565.021	0.0158996
565.099	0.0158852
565.177	0.0157894
565.255	0.0158601
565.333	0.0158999
565.411	0.0158684
565.489	0.0157685
565.567	0.0158591
565.646	0.0158211
565.724	0.0158926
565.802	0.0158749
565.880	0.0158989
565.958	0.0158292
566.036	0.0158353
566.114	0.0158032
566.192	0.0158789
566.271	0.0158673
566.349	0.0160089
566.427	0.0158158
566.505	0.0158425
566.583	0.0159361
566.661	0.0158838
566.739	0.0159473
566.817	0.0158574
566.896	0.0159438
566.974	0.0158729
567.052	0.0158740
567.130	0.0158224
567.208	0.0158630
567.286	0.0159789
567.364	0.0158448
567.442	0.0156982
567.521	0.0159312
567.599	0.0159727
567.677	0.0159722
567.755	0.0159650
567.833	0.0158467
567.911	0.0157444
567.989	0.0158958
568.067	0.0158669
568.146	0.0159033
568.224	0.0160739
568.302	0.0158601
568.380	0.0158197
568.458	0.0159041
568.536	0.0159131
568.614	0.0159198
568.692	0.0159566
568.771	0.0159937
568.849	0.0159349
568.927	0.0159737
569.005	0.0158600
569.083	0.0159298
569.161	0.0158763
569.239	0.0157925
569.317	0.0159324
569.396	0.0160143
569.474	0.0158485
569.552	0.0158041
569.630	0.0157411
569.708	0.0159769
569.786	0.0159048
569.864	0.0158315
569.942	0.0159007
570.021	0.0159377
570.099	0.0158893
570.177	0.0159010
570.255	0.0158323
570.333	0.0158025
570.411	0.0159375
570.489	0.0158341
570.567	0.0159534
570.646	0.0159677
570.724	0.0158701
570.802	0.0157276
570.880	0.0158669
570.958	0.0158055
571.036	0.0158088
571.114	0.0160039
571.192	0.0157767
571.271	0.0159537
571.349	0.0158702
571.427	0.0159421
571.505	0.0158598
571.583	0.0158098
571.661	0.0157761
571.739	0.0158559
571.817	0.0159860
571.896	0.0159902
571.974	0.0158251
572.052	0.0157712
572.130	0.0159103
572.208	0.0159284
572.286	0.0159169
572.364	0.0160196
572.442	0.0160027
572.521	0.0157953
572.599	0.0157420
572.677	0.0157395
572.755	0.0158042
572.833	0.0158557
572.911	0.0157953
572.989	0.0159386
573.067	0.0159073
573.146	0.0158665
573.224	0.0157835
573.302	0.0157793
573.380	0.0157465
573.458	0.0159023
573.536	0.0158660
573.614	0.0158754
573.692	0.0159177
573.771	0.0159190
573.849	0.0160372
573.927	0.0158210
574.005	0.0159260
574.083	0.0158212
574.161	0.0159384
574.239	0.0157629
574.317	0.0158095
574.396	0.0158514
574.474	0.0158466
574.552	0.0158638
574.630	0.0158759
574.708	0.0158469
574.786	0.0157766
574.864	0.0158579
574.942	0.0158314
575.021	0.0158418
575.099	0.0159161
575.177	0.0158091
575.255	0.0158920
575.333	0.0158788
575.411	0.0157251
575.489	0.0159204
575.567	0.0157374
575.646	0.0159476
575.724	0.0158356
575.802	0.0158587
575.880	0.0157465
575.958	0.0157995
576.036	0.0158842
576.114	0.0160272
576.192	0.0158484
576.271	0.0158928
576.349	0.0158249
576.427	0.0158051
576.505	0.0159229
576.583	0.0157654
576.661	0.0158788
576.739	0.0158580
576.817	0.0158923
576.896	0.0157555
576.974	0.0157904
577.052	0.0158173
577.130	0.0158483
577.208	0.0158624
577.286	0.0159370
577.364	0.0159075
577.442	0.0156848
577.521	0.0158258
577.599	0.0157700
577.677	0.0158465
577.755	0.0159423
577.833	0.0157469
577.911	0.0158775
577.989	0.0157533
578.067	0.0160039
578.146	0.0160093
578.224	0.0159602
578.302	0.0158598
578.380	0.0159319
578.458	0.0157509
578.536	0.0159647
578.614	0.0158839
578.692	0.0158379
578.771	0.0159420
578.849	0.0157474
578.927	0.0158916
579.005	0.0158190
579.083	0.0157341
579.161	0.0158624
579.239	0.0159750
579.317	0.0158822
579.396	0.0158301
579.474	0.0159235
579.552	0.0160307
579.630	0.0159277
579.708	0.0158246
579.786	0.0158084
579.864	0.0158650
579.942	0.0157883
580.021	0.0158885
580.099	0.0158885
580.177	0.0159547
580.255	0.0157986
580.333	0.0158315
580.411	0.0159090
580.489	0.0157581
580.567	0.0158064
580.646	0.0157921
580.724	0.0158053
580.802	0.0159697
580.880	0.0159376
580.958	0.0160354
581.036	0.0158639
581.114	0.0158480
581.192	0.0158932
581.271	0.0160001
581.349	0.0157725
581.427	0.0159332
581.505	0.0158870
581.583	0.0157960
581.661	0.0159248
581.739	0.0159003
581.817	0.0158344
581.896	0.0158595
581.974	0.0159605
582.052	0.0159502
582.130	0.0159853
582.208	0.0158881
582.286	0.0159380
582.364	0.0159450
582.442	0.0159441
582.521	0.0158791
582.599	0.0159949
582.677	0.0159577
582.755	0.0159203
582.833	0.0158531
582.911	0.0158669
582.989	0.0158845
583.067	0.0158563
583.146	0.0159216
583.224	0.0159587
583.302	0.0157922
583.380	0.0160479
583.458	0.0159194
583.536	0.0158966
583.614	0.0159400
583.692	0.0158780
583.771	0.0159125
583.849	0.0159537
583.927	0.0159775
584.005	0.0159757
584.083	0.0159529
584.161	0.0159989
584.239	0.0159069
584.317	0.0159477
584.396	0.0158117
584.474	0.0158622
584.552	0.0159148
584.630	0.0159787
584.708	0.0159824
584.786	0.0158407
584.864	0.0158897
584.942	0.0159383
585.021	0.0158491
585.099	0.0158362
585.177	0.0158678
585.255	0.0158598
585.333	0.0160063
585.411	0.0158720
585.489	0.0158925
585.567	0.0158401
585.646	0.0158150
585.724	0.0158891
585.802	0.0160011
585.880	0.0158724
585.958	0.0159491
586.036	0.0159155
586.114	0.0159780
586.192	0.0158864
586.271	0.0159601
586.349	0.0159476
586.427	0.0158303
586.505	0.0160394
586.583	0.0160139
586.661	0.0158834
586.739	0.0158447
586.817	0.0158144
586.896	0.0159400
586.974	0.0160027
587.052	0.0158884
587.130	0.0159142
587.208	0.0158950
587.286	0.0158282
587.364	0.0158862
587.442	0.0158967
587.521	0.0159190
587.599	0.0158256
587.677	0.0158085
587.755	0.0158485
587.833	0.0159009
587.911	0.0158463
587.989	0.0158434
588.067	0.0159247
588.146	0.0158101
588.224	0.0158264
588.302	0.0158830
588.380	0.0158443
588.458	0.0159434
588.536	0.0159641
588.614	0.0158122
588.692	0.0158485
588.771	0.0158752
588.849	0.0159277
588.927	0.0157175
589.005	0.0160097
589.083	0.0159726
589.161	0.0158963
589.239	0.0158353
589.317	0.0159370
589.396	0.0158493
589.474	0.0158671
589.552	0.0158451
589.630	0.0158841
589.708	0.0158931
589.786	0.0159872
589.864	0.0159682
589.942	0.0158007
590.021	0.0159957
590.099	0.0160318
590.177	0.0159975
590.255	0.0159089
590.333	0.0159190
590.411	0.0159768
590.489	0.0158186
590.567	0.0159164
590.646	0.0158465
590.724	0.0158880
590.802	0.0157402
590.880	0.0159338
590.958	0.0159962
591.036	0.0159019
591.114	0.0159256
591.192	0.0158089
591.271	0.0158241
591.349	0.0158265
591.427	0.0160062
591.505	0.0159142
591.583	0.0158376
591.661	0.0158994
591.739	0.0159251
591.817	0.0158749
591.896	0.0158186
591.974	0.0158422
592.052	0.0158203
592.130	0.0158923
592.208	0.0160252
592.286	0.0159216
592.364	0.0159045
592.442	0.0158897
592.521	0.0157695
592.599	0.0158237
592.677	0.0159689
592.755	0.0159564
592.833	0.0158640
592.911	0.0158688
592.989	0.0160389
593.067	0.0159251
593.146	0.0158405
593.224	0.0159352
593.302	0.0158365
593.380	0.0158547
593.458	0.0159434
593.536	0.0159294
593.614	0.0158693
593.692	0.0159277
593.771	0.0159682
593.849	0.0157395
593.927	0.0159860
594.005	0.0159345
594.083	0.0158739
594.161	0.0158581
594.239	0.0158894
594.317	0.0158286
594.396	0.0159561
594.474	0.0158541
594.552	0.0158143
594.630	0.0158438
594.708	0.0159495
594.786	0.0157873
594.864	0.0159558
594.942	0.0158873
595.021	0.0159745
595.099	0.0159486
595.177	0.0160945
595.255	0.0159947
595.333	0.0158588
595.411	0.0158102
595.489	0.0157169
595.567	0.0159531
595.646	0.0159490
595.724	0.0159572
595.802	0.0159269
595.880	0.0157961
595.958	0.0157384
596.036	0.0158962
596.114	0.0159300
596.192	0.0157742
596.271	0.0158323
596.349	0.0160130
596.427	0.0160194
596.505	0.0158727
596.583	0.0157998
596.661	0.0158392
596.739	0.0158934
596.817	0.0159904
596.896	0.0158714
596.974	0.0159122
597.052	0.0160390
597.130	0.0158978
597.208	0.0158512
597.286	0.0158820
597.364	0.0157599
597.442	0.0159501
597.521	0.0159425
597.599	0.0159071
597.677	0.0158981
597.755	0.0159039
597.833	0.0157887
597.911	0.0158970
597.989	0.0158850
598.067	0.0158965
598.146	0.0159734
598.224	0.0158356
598.302	0.0158202
598.380	0.0159853
598.458	0.0158365
598.536	0.0158492
598.614	0.0158012
598.692	0.0158568
598.771	0.0159387
598.849	0.0160238
598.927	0.0158504
599.005	0.0159580
599.083	0.0159348
599.161	0.0158505
599.239	0.0158006
599.317	0.0159842
599.396	0.0159444
599.474	0.0158249
599.552	0.0158671
599.630	0.0158398
599.708	0.0157278
599.786	0.0158954
599.864	0.0159164
599.942	0.0158995
600.021	0.0159433
600.099	0.0158269
600.177	0.0159310
600.255	0.0159142
600.333	0.0157769
600.411	0.0158801
600.489	0.0159986
600.567	0.0157930
600.646	0.0158669
600.724	0.0158992
600.802	0.0159422
600.880	0.0158071
600.958	0.0158517
601.036	0.0158740
601.114	0.0159876
601.192	0.0159271
601.271	0.0159196
601.349	0.0159917
601.427	0.0160207
601.505	0.0159754
601.583	0.0158874
601.661	0.0159427
601.739	0.0158360
601.817	0.0159977
601.896	0.0159734
601.974	0.0159109
602.052	0.0158561
602.130	0.0157611
602.208	0.0158714
602.286	0.0160366
602.364	0.0158972
602.442	0.0158797
602.521	0.0158555
602.599	0.0158731
602.677	0.0158591
602.755	0.0159478
602.833	0.0157607
602.911	0.0158553
602.989	0.0158685
603.067	0.0159510
603.146	0.0158494
603.224	0.0158976
603.302	0.0157828
603.380	0.0160161
603.458	0.0157816
603.536	0.0159129
603.614	0.0159785
603.692	0.0158382
603.771	0.0158309
603.849	0.0158205
603.927	0.0158609
604.005	0.0158665
604.083	0.0157491
604.161	0.0158586
604.239	0.0158958
604.317	0.0158369
604.396	0.0156285
604.474	0.0158678
604.552	0.0158459
604.630	0.0158321
604.708	0.0158096
604.786	0.0157259
604.864	0.0158762
604.942	0.0159673
605.021	0.0158810
605.099	0.0159096
605.177	0.0159602
605.255	0.0157891
605.333	0.0158196
605.411	0.0158846
605.489	0.0158442
605.567	0.0156829
605.646	0.0158987
605.724	0.0159657
605.802	0.0158909
605.880	0.0159004
605.958	0.0159343
606.036	0.0158626
606.114	0.0160036
606.192	0.0159637
606.271	0.0160279
606.349	0.0158984
606.427	0.0158840
606.505	0.0159231
606.583	0.0159166
606.661	0.0158534
606.739	0.0158579
606.817	0.0158916
606.896	0.0158543
606.974	0.0158772
607.052	0.0158810
607.130	0.0158873
607.208	0.0159876
607.286	0.0160061
607.364	0.0160088
607.442	0.0158858
607.521	0.0157555
607.599	0.0158759
607.677	0.0159814
607.755	0.0158672
607.833	0.0160114
607.911	0.0159679
607.989	0.0157981
608.067	0.0159373
608.146	0.0159451
608.224	0.0159229
608.302	0.0159660
608.380	0.0159698
608.458	0.0159042
608.536	0.0159717
608.614	0.0158232
608.692	0.0159286
608.771	0.0157403
608.849	0.0160242
608.927	0.0159136
609.005	0.0158812
609.083	0.0158585
609.161	0.0160460
609.239	0.0158546
609.317	0.0158152
609.396	0.0158741
609.474	0.0159900
609.552	0.0158505
609.630	0.0158544
609.708	0.0159353
609.786	0.0158524
609.864	0.0158690
609.942	0.0159176
610.021	0.0159426
610.099	0.0159432
610.177	0.0159406
610.255	0.0159664
610.333	0.0158073
610.411	0.0159843
610.489	0.0159682
610.567	0.0159464
610.646	0.0158677
610.724	0.0158833
610.802	0.0158455
610.880	0.0158647
610.958	0.0159066
611.036	0.0159073
611.114	0.0159387
611.192	0.0158376
611.271	0.0158813
611.349	0.0158543
611.427	0.0158174
611.505	0.0159731
611.583	0.0158936
611.661	0.0159842
611.739	0.0159535
611.817	0.0159441
611.896	0.0159230
611.974	0.0157742
612.052	0.0157716
612.130	0.0159888
612.208	0.0159293
612.286	0.0158340
612.364	0.0158314
612.442	0.0158817
612.521	0.0158634
612.599	0.0158649
612.677	0.0160510
612.755	0.0159869
612.833	0.0158736
612.911	0.0158203
612.989	0.0159429
613.067	0.0158925
613.146	0.0159084
613.224	0.0158165
613.302	0.0159124
613.380	0.0159088
613.458	0.0158942
613.536	0.0159000
613.614	0.0158854
613.692	0.0159615
613.771	0.0158803
613.849	0.0158739
613.927	0.0158859
614.005	0.0159523
614.083	0.0160283
614.161	0.0159284
614.239	0.0159281
614.317	0.0158500
614.396	0.0158386
614.474	0.0159892
614.552	0.0159507
614.630	0.0158173
614.708	0.0158687
614.786	0.0158849
614.864	0.0159357
614.942	0.0159274
615.021	0.0157999
615.099	0.0158838
615.177	0.0158820
615.255	0.0159319
615.333	0.0159492
615.411	0.0159237
615.489	0.0158969
615.567	0.0160050
615.646	0.0158938
615.724	0.0158629
615.802	0.0159479
615.880	0.0159711
615.958	0.0158517
616.036	0.0159484
616.114	0.0159106
616.192	0.0158318
616.271	0.0159464
616.349	0.0158644
616.427	0.0158639
616.505	0.0160180
616.583	0.0159446
616.661	0.0159353
616.739	0.0159460
616.817	0.0158982
616.896	0.0158702
616.974	0.0159387
617.052	0.0159419
617.130	0.0159879
617.208	0.0157349
617.286	0.0157433
617.364	0.0159873
617.442	0.0158909
617.521	0.0157652
617.599	0.0158788
617.677	0.0158971
617.755	0.0157746
617.833	0.0159201
617.911	0.0157850
617.989	0.0158767
618.067	0.0159317
618.146	0.0158205
618.224	0.0158350
618.302	0.0157803
618.380	0.0158277
618.458	0.0158644
618.536	0.0158293
618.614	0.0159312
618.692	0.0159911
618.771	0.0158406
618.849	0.0158775
618.927	0.0159488
619.005	0.0159624
619.083	0.0159132
619.161	0.0158621
619.239	0.0158760
619.317	0.0158376
619.396	0.0158730
619.474	0.0158786
619.552	0.0156606
619.630	0.0159162
619.708	0.0158477
619.786	0.0159359
619.864	0.0157578
619.942	0.0158002
620.021	0.0158878
620.099	0.0159806
620.177	0.0158601
620.255	0.0158196
620.333	0.0157579
620.411	0.0159024
620.489	0.0158951
620.567	0.0157494
620.646	0.0159031
620.724	0.0158862
620.802	0.0159102
620.880	0.0158759
620.958	0.0156519
621.036	0.0158964
621.114	0.0158066
621.192	0.0158460
621.271	0.0157804
621.349	0.0158418
621.427	0.0157880
621.505	0.0159587
621.583	0.0158002
621.661	0.0158937
621.739	0.0159198
621.817	0.0159030
621.896	0.0157260
621.974	0.0158187
622.052	0.0158961
622.130	0.0159055
622.208	0.0158708
622.286	0.0158644
622.364	0.0158958
622.442	0.0157497
622.521	0.0157929
622.599	0.0158038
622.677	0.0158472
622.755	0.0159950
622.833	0.0158385
622.911	0.0159696
622.989	0.0159277
623.067	0.0158444
623.146	0.0158369
623.224	0.0157697
623.302	0.0159042
623.380	0.0159812
623.458	0.0158266
623.536	0.0158306
623.614	0.0158161
623.692	0.0158096
623.771	0.0158992
623.849	0.0158546
623.927	0.0159819
624.005	0.0159003
624.083	0.0158258
624.161	0.0159447
624.239	0.0158937
624.317	0.0159164
624.396	0.0159039
624.474	0.0159013
624.552	0.0159546
624.630	0.0159145
624.708	0.0157323
624.786	0.0157991
624.864	0.0160359
624.942	0.0158482
625.021	0.0159389
625.099	0.0158742
625.177	0.0157816
625.255	0.0159913
625.333	0.0158418
625.411	0.0159219
625.489	0.0158361
625.567	0.0158576
625.646	0.0158600
625.724	0.0160004
625.802	0.0159209
625.880	0.0156749
625.958	0.0160090
626.036	0.0159410
626.114	0.0158311
626.192	0.0159276
626.271	0.0159698
626.349	0.0158769
626.427	0.0159187
626.505	0.0159296
626.583	0.0158068
626.661	0.0159048
626.739	0.0158387
626.817	0.0159698
626.896	0.0159382
626.974	0.0159678
627.052	0.0159129
627.130	0.0159211
627.208	0.0157390
627.286	0.0157112
627.364	0.0159315
627.442	0.0158606
627.521	0.0158665
627.599	0.0159068
627.677	0.0160001
627.755	0.0159923
627.833	0.0158337
627.911	0.0157976
627.989	0.0158060
628.067	0.0158862
628.146	0.0160366
628.224	0.0159959
628.302	0.0160690
628.380	0.0158846
628.458	0.0159072
628.536	0.0158909
628.614	0.0159866
628.692	0.0159191
628.771	0.0159407
628.849	0.0160168
628.927	0.0158173
629.005	0.0159112
629.083	0.0159888
629.161	0.0159731
629.239	0.0159980
629.317	0.0161559
629.396	0.0159522
629.474	0.0160693
629.552	0.0159537
629.630	0.0158218
629.708	0.0158547
629.786	0.0160013
629.864	0.0159540
629.942	0.0158170
630.021	0.0157607
630.099	0.0158317
630.177	0.0159286
630.255	0.0159231
630.333	0.0159204
630.411	0.0158530
630.489	0.0159541
630.567	0.0160577
630.646	0.0158627
630.724	0.0158575
630.802	0.0158359
630.880	0.0158666
630.958	0.0159190
631.036	0.0158463
631.114	0.0159238
631.192	0.0159930
631.271	0.0159413
631.349	0.0157938
631.427	0.0159675
631.505	0.0158932
631.583	0.0157989
631.661	0.0158990
631.739	0.0159743
631.817	0.0159090
631.896	0.0159475
631.974	0.0157814
632.052	0.0158469
632.130	0.0158647
632.208	0.0159259
632.286	0.0159979
632.364	0.0160352
632.442	0.0158537
632.521	0.0159217
632.599	0.0159794
632.677	0.0159304
632.755	0.0158361
632.833	0.0158991
632.911	0.0159282
632.989	0.0158347
633.067	0.0158340
633.146	0.0159147
633.224	0.0159833
633.302	0.0159830
633.380	0.0160619
633.458	0.0158389
633.536	0.0158012
633.614	0.0159329
633.692	0.0160398
633.771	0.0159019
633.849	0.0159056
633.927	0.0158432
634.005	0.0159711
634.083	0.0158709
634.161	0.0158830
634.239	0.0158566
634.317	0.0159442
634.396	0.0159355
634.474	0.0160019
634.552	0.0159292
634.630	0.0158376
634.708	0.0158730
634.786	0.0158458
634.864	0.0159284
634.942	0.0158279
635.021	0.0159608
635.099	0.0158942
635.177	0.0160674
635.255	0.0158532
635.333	0.0157729
635.411	0.0158954
635.489	0.0160078
635.567	0.0159129
635.646	0.0158788
635.724	0.0158395
635.802	0.0158532
635.880	0.0158362
635.958	0.0160075
636.036	0.0158887
636.114	0.0158372
636.192	0.0157951
636.271	0.0157872
636.349	0.0157815
636.427	0.0159145
636.505	0.0159687
636.583	0.0158130
636.661	0.0157666
636.739	0.0158315
636.817	0.0158590
636.896	0.0157691
636.974	0.0159471
637.052	0.0160075
637.130	0.0157889
637.208	0.0159379
637.286	0.0159083
637.364	0.0158531
637.442	0.0158162
637.521	0.0159061
637.599	0.0158749
637.677	0.0158838
637.755	0.0158825
637.833	0.0159278
637.911	0.0158337
637.989	0.0158153
638.067	0.0159004
638.146	0.0158866
638.224	0.0158689
638.302	0.0159612
638.380	0.0158727
638.458	0.0159579
638.536	0.0158336
638.614	0.0158586
638.692	0.0160049
638.771	0.0157614
638.849	0.0157338
638.927	0.0158220
639.005	0.0159859
639.083	0.0159612
639.161	0.0158934
639.239	0.0158587
639.317	0.0158536
639.396	0.0159148
639.474	0.0158440
639.552	0.0158842
639.630	0.0158176
639.708	0.0159322
639.786	0.0160088
639.864	0.0159717
639.942	0.0158527
640.021	0.0158952
640.099	0.0158427
640.177	0.0159351
640.255	0.0158593
640.333	0.0157983
640.411	0.0159187
640.489	0.0158966
640.567	0.0159648
640.646	0.0159068
640.724	0.0159722
640.802	0.0159462
640.880	0.0159379
640.958	0.0159261
641.036	0.0158895
641.114	0.0159533
641.192	0.0158335
641.271	0.0160248
641.349	0.0159798
641.427	0.0158096
641.505	0.0158285
641.583	0.0158067
641.661	0.0159733
641.739	0.0159423
641.817	0.0157538
641.896	0.0158421
641.974	0.0159063
642.052	0.0156928
642.130	0.0157912
642.208	0.0157713
642.286	0.0159157
642.364	0.0159074
642.442	0.0158561
642.521	0.0157738
642.599	0.0159132
642.677	0.0159431
642.755	0.0157924
642.833	0.0158946
642.911	0.0158919
642.989	0.0158923
643.067	0.0158004
643.146	0.0157815
643.224	0.0158674
643.302	0.0157453
643.380	0.0158573
643.458	0.0159003
643.536	0.0157151
643.614	0.0158268
643.692	0.0158745
643.771	0.0156953
643.849	0.0159166
643.927	0.0158750
644.005	0.0158970
644.083	0.0157342
644.161	0.0158416
644.239	0.0157593
644.317	0.0157410
644.396	0.0159061
644.474	0.0158774
644.552	0.0157014
644.630	0.0159247
644.708	0.0158688
644.786	0.0159712
644.864	0.0159715
644.942	0.0158893
645.021	0.0158770
645.099	0.0157735
645.177	0.0157210
645.255	0.0157280
645.333	0.0160009
645.411	0.0160383
645.489	0.0158852
645.567	0.0158626
645.646	0.0158985
645.724	0.0160831
645.802	0.0159238
645.880	0.0158259
645.958	0.0159550
646.036	0.0158612
646.114	0.0158776
646.192	0.0159173
646.271	0.0158897
646.349	0.0158270
646.427	0.0158391
646.505	0.0158026
646.583	0.0158398
646.661	0.0156798
646.739	0.0156929
646.817	0.0158966
646.896	0.0158073
646.974	0.0157035
647.052	0.0159031
647.130	0.0157478
647.208	0.0158602
647.286	0.0158675
647.364	0.0158985
647.442	0.0157372
647.521	0.0158601
647.599	0.0158464
647.677	0.0159203
647.755	0.0156701
647.833	0.0158659
647.911	0.0158656
647.989	0.0159790
648.067	0.0158217
648.146	0.0156923
648.224	0.0158582
648.302	0.0157960
648.380	0.0158121
648.458	0.0158285
648.536	0.0159231
648.614	0.0158091
648.692	0.0157850
648.771	0.0158994
648.849	0.0157976
648.927	0.0158862
649.005	0.0157981
649.083	0.0158031
649.161	0.0156451
649.239	0.0157452
649.317	0.0158173
649.396	0.0159360
649.474	0.0158328
649.552	0.0157387
649.630	0.0158176
649.708	0.0157864
649.786	0.0159184
649.864	0.0157795
649.942	0.0158453
650.021	0.0159066
650.099	0.0158778
650.177	0.0159148
650.255	0.0160022
650.333	0.0160345
650.411	0.0159220
650.489	0.0159035
650.567	0.0159559
650.646	0.0159741
650.724	0.0158006
650.802	0.0158745
650.880	0.0158187
650.958	0.0158409
651.036	0.0158922
651.114	0.0158698
651.192	0.0158810
651.271	0.0158858
651.349	0.0157372
651.427	0.0158079
651.505	0.0159151
651.583	0.0156200
651.661	0.0158076
651.739	0.0157401
651.817	0.0158309
651.896	0.0158480
651.974	0.0157170
652.052	0.0159806
652.130	0.0158507
652.208	0.0157278
652.286	0.0157279
652.364	0.0158028
652.442	0.0158494
652.521	0.0158261
652.599	0.0159041
652.677	0.0158430
652.755	0.0157470
652.833	0.0158069
652.911	0.0158345
652.989	0.0157759
653.067	0.0157541
653.146	0.0158340
653.224	0.0158001
653.302	0.0158139
653.380	0.0157740
653.458	0.0157735
653.536	0.0158202
653.614	0.0160374
653.692	0.0158999
653.771	0.0159620
653.849	0.0160075
653.927	0.0158699
654.005	0.0156823
654.083	0.0159541
654.161	0.0157811
654.239	0.0158796
654.317	0.0159435
654.396	0.0159863
654.474	0.0159264
654.552	0.0158957
654.630	0.0159469
654.708	0.0159422
654.786	0.0157925
654.864	0.0159644
654.942	0.0158813
655.021	0.0158875
655.099	0.0159479
655.177	0.0160102
655.255	0.0159074
655.333	0.0160658
655.411	0.0159329
655.489	0.0159504
655.567	0.0159034
655.646	0.0157858
655.724	0.0159857
655.802	0.0158968
655.880	0.0158546
655.958	0.0160211
656.036	0.0159922
656.114	0.0158595
656.192	0.0158614
656.271	0.0158844
656.349	0.0158687
656.427	0.0159014
656.505	0.0159192
656.583	0.0159369
656.661	0.0158311
656.739	0.0157892
656.817	0.0159206
656.896	0.0159566
656.974	0.0159998
657.052	0.0158150
657.130	0.0160275
657.208	0.0158369
657.286	0.0158289
657.364	0.0157394
657.442	0.0157773
657.521	0.0159136
657.599	0.0158230
657.677	0.0158229
657.755	0.0158972
657.833	0.0158398
657.911	0.0157782
657.989	0.0157726
658.067	0.0158557
658.146	0.0158679
658.224	0.0160175
658.302	0.0158816
658.380	0.0157623
658.458	0.0160014
658.536	0.0159095
658.614	0.0158744
658.692	0.0157343
658.771	0.0159091
658.849	0.0159859
658.927	0.0157563
659.005	0.0159171
659.083	0.0158701
659.161	0.0159132
659.239	0.0159713
659.317	0.0159028
659.396	0.0157704
659.474	0.0157949
659.552	0.0158237
659.630	0.0159076
659.708	0.0158334
659.786	0.0157107
659.864	0.0159550
659.942	0.0159212
660.021	0.0157891
660.099	0.0158051
660.177	0.0157790
660.255	0.0158541
660.333	0.0159825
660.411	0.0159299
660.489	0.0159399
660.567	0.0159286
660.646	0.0157995
660.724	0.0159493
660.802	0.0159026
660.880	0.0158801
660.958	0.0159339
661.036	0.0157868
661.114	0.0158260
661.192	0.0160167
661.271	0.0159337
661.349	0.0159629
661.427	0.0157677
661.505	0.0157895
661.583	0.0158504
661.661	0.0160869
661.739	0.0159138
661.817	0.0159495
661.896	0.0159624
661.974	0.0158462
662.052	0.0159480
662.130	0.0159131
662.208	0.0159232
662.286	0.0159089
662.364	0.0160338
662.442	0.0157726
662.521	0.0157379
662.599	0.0159063
662.677	0.0157992
662.755	0.0158404
662.833	0.0159211
662.911	0.0158665
662.989	0.0158073
663.067	0.0159657
663.146	0.0159035
663.224	0.0158433
663.302	0.0158433
663.380	0.0157784
663.458	0.0158832
663.536	0.0158680
663.614	0.0158656
663.692	0.0157777
663.771	0.0157616
663.849	0.0159587
663.927	0.0157419
664.005	0.0159892
664.083	0.0158873
664.161	0.0159132
664.239	0.0159111
664.317	0.0157645
664.396	0.0159473
664.474	0.0159853
664.552	0.0158083
664.630	0.0158163
664.708	0.0158414
664.786	0.0158445
664.864	0.0159306
664.942	0.0158977
665.021	0.0158563
665.099	0.0159234
665.177	0.0159974
665.255	0.0158872
665.333	0.0159602
665.411	0.0158809
665.489	0.0158931
665.567	0.0158127
665.646	0.0159411
665.724	0.0159583
665.802	0.0158969
665.880	0.0158182
665.958	0.0157829
666.036	0.0158830
666.114	0.0158874
666.192	0.0159546
666.271	0.0158783
666.349	0.0159265
666.427	0.0158476
666.505	0.0159911
666.583	0.0159206
666.661	0.0158470
666.739	0.0159214
666.817	0.0158853
666.896	0.0158694
666.974	0.0159303
667.052	0.0159140
667.130	0.0159144
667.208	0.0159043
667.286	0.0158786
667.364	0.0159068
667.442	0.0158192
667.521	0.0158689
667.599	0.0157988
667.677	0.0159563
667.755	0.0157715
667.833	0.0158276
667.911	0.0158616
667.989	0.0159206
668.067	0.0159279
668.146	0.0159931
668.224	0.0158234
668.302	0.0157838
668.380	0.0159147
668.458	0.0157946
668.536	0.0158364
668.614	0.0158772
668.692	0.0158510
668.771	0.0158493
668.849	0.0157923
668.927	0.0158984
669.005	0.0158869
669.083	0.0158781
669.161	0.0158540
669.239	0.0159662
669.317	0.0159753
669.396	0.0157915
669.474	0.0159257
669.552	0.0158736
669.630	0.0159778
669.708	0.0158755
669.786	0.0159119
669.864	0.0159612
669.942	0.0159319
670.021	0.0158529
670.099	0.0158612
670.177	0.0160144
670.255	0.0158978
670.333	0.0157785
670.411	0.0158270
670.489	0.0159969
670.567	0.0159189
670.646	0.0159087
670.724	0.0159736
670.802	0.0157874
670.880	0.0158341
670.958	0.0159401
671.036	0.0160201
671.114	0.0160888
671.192	0.0159557
671.271	0.0159530
671.349	0.0159178
671.427	0.0158046
671.505	0.0158947
671.583	0.0159772
671.661	0.0157138
671.739	0.0159100
671.817	0.0158969
671.896	0.0159220
671.974	0.0158757
672.052	0.0158549
672.130	0.0158496
672.208	0.0158628
672.286	0.0156982
672.364	0.0159007
672.442	0.0160834
672.521	0.0158791
672.599	0.0159598
672.677	0.0157806
672.755	0.0158360
672.833	0.0159514
672.911	0.0158484
672.989	0.0158886
673.067	0.0158722
673.146	0.0160466
673.224	0.0158027
673.302	0.0158435
673.380	0.0157115
673.458	0.0159193
673.536	0.0158832
673.614	0.0159828
673.692	0.0159270
673.771	0.0159495
673.849	0.0158565
673.927	0.0158234
674.005	0.0158462
674.083	0.0158663
674.161	0.0159734
674.239	0.0159144
674.317	0.0159273
674.396	0.0158895
674.474	0.0158561
674.552	0.0158414
674.630	0.0157697
674.708	0.0158551
674.786	0.0159191
674.864	0.0158948
674.942	0.0158640
675.021	0.0158070
675.099	0.0158605
675.177	0.0158755
675.255	0.0157404
675.333	0.0159804
675.411	0.0157531
675.489	0.0159546
675.567	0.0159396
675.646	0.0158316
675.724	0.0158945
675.802	0.0157122
675.880	0.0158622
675.958	0.0159335
676.036	0.0159251
676.114	0.0159196
676.192	0.0158710
676.271	0.0159032
676.349	0.0158403
676.427	0.0157945
676.505	0.0158530
676.583	0.0158744
676.661	0.0159295
676.739	0.0158632
676.817	0.0158717
676.896	0.0159115
676.974	0.0158016
677.052	0.0158764
677.130	0.0159464
677.208	0.0159098
677.286	0.0160030
677.364	0.0158558
677.442	0.0158942
677.521	0.0160030
677.599	0.0158427
677.677	0.0159052
677.755	0.0159148
677.833	0.0158968
677.911	0.0159534
677.989	0.0158089
678.067	0.0157744
678.146	0.0158075
678.224	0.0157928
678.302	0.0158894
678.380	0.0158537
678.458	0.0158118
678.536	0.0157928
678.614	0.0159043
678.692	0.0158890
678.771	0.0158018
678.849	0.0158431
678.927	0.0159007
679.005	0.0158024
679.083	0.0160345
679.161	0.0158524
679.239	0.0158172
679.317	0.0157248
679.396	0.0157274
679.474	0.0159029
679.552	0.0158968
679.630	0.0158457
679.708	0.0158571
679.786	0.0158726
679.864	0.0158100
679.942	0.0158370
680.021	0.0158961
680.099	0.0157642
680.177	0.0157735
680.255	0.0158328
680.333	0.0157657
680.411	0.0158982
680.489	0.0157656
680.567	0.0158580
680.646	0.0158965
680.724	0.0157676
680.802	0.0158647
680.880	0.0159799
680.958	0.0159146
681.036	0.0159015
681.114	0.0159073
681.192	0.0159019
681.271	0.0159690
681.349	0.0159713
681.427	0.0158305
681.505	0.0157803
681.583	0.0157433
681.661	0.0156668
681.739	0.0156273
681.817	0.0156218
681.896	0.0156924
681.974	0.0157284
682.052	0.0157086
682.130	0.0158588
682.208	0.0159850
682.286	0.0159464
682.364	0.0160464
682.442	0.0161507
682.521	0.0161973
682.599	0.0162630
682.677	0.0160637
682.755	0.0161853
682.833	0.0157939
682.911	0.0157795
682.989	0.0158032
683.067	0.0156297
683.146	0.0154018
683.224	0.0154640
683.302	0.0155302
683.380	0.0154270
683.458	0.0154389
683.536	0.0155344
683.614	0.0156467
683.692	0.0157930
683.771	0.0160737
683.849	0.0162735
683.927	0.0165553
684.005	0.0166567
684.083	0.0165965
684.161	0.0165907
684.239	0.0165997
684.317	0.0160839
684.396	0.0159537
684.474	0.0156079
684.552	0.0154845
684.630	0.0152239
684.708	0.0150269
684.786	0.0150419
684.864	0.0151727
684.942	0.0152041
685.021	0.0153821
685.099	0.0155733
685.177	0.0160233
685.255	0.0161115
685.333	0.0162818
685.411	0.0166557
685.489	0.0168639
685.567	0.0168261
685.646	0.0168012
685.724	0.0166557
685.802	0.0162360
685.880	0.0160564
685.958	0.0156261
686.036	0.0154364
686.114	0.0152573
686.192	0.0149450
686.271	0.0150246
686.349	0.0149741
686.427	0.0150684
686.505	0.0152135
686.583	0.0154387
686.661	0.0157678
686.739	0.0158611
686.817	0.0158743
686.896	0.0161506
686.974	0.0162330
687.052	0.0164863
687.130	0.0166690
687.208	0.0166108
687.286	0.0165048
687.364	0.0163573
687.442	0.0163893
687.521	0.0162260
687.599	0.0158583
687.677	0.0157314
687.755	0.0156219
687.833	0.0154073
687.911	0.0152208
687.989	0.0152810
688.067	0.0152832
688.146	0.0153575
688.224	0.0155824
688.302	0.0157162
688.380	0.0159610
688.458	0.0160107
688.536	0.0162733
688.614	0.0164433
688.692	0.0165497
688.771	0.0164722
688.849	0.0164591
688.927	0.0164242
689.005	0.0161391
689.083	0.0158672
689.161	0.0157227
689.239	0.0156079
689.317	0.0155685
689.396	0.0154015
689.474	0.0155650
689.552	0.0155893
689.630	0.0155840
689.708	0.0157484
689.786	0.0158939
689.864	0.0160224
689.942	0.0159356
690.021	0.0159364
690.099	0.0158986
690.177	0.0160056
690.255	0.0159312
690.333	0.0159489
690.411	0.0158365
690.489	0.0159181
690.567	0.0159614
690.646	0.0159113
690.724	0.0160952
690.802	0.0161504
690.880	0.0161266
690.958	0.0160544
691.036	0.0160954
691.114	0.0161444
691.192	0.0160522
691.271	0.0158257
691.349	0.0158302
691.427	0.0157436
691.505	0.0157645
691.583	0.0154520
691.661	0.0154748
691.739	0.0155611
691.817	0.0157298
691.896	0.0158086
691.974	0.0158878
692.052	0.0160062
692.130	0.0161389
692.208	0.0162804
692.286	0.0163565
692.364	0.0163774
692.442	0.0164100
692.521	0.0161784
692.599	0.0161749
692.677	0.0160502
692.755	0.0159933
692.833	0.0158530
692.911	0.0156908
692.989	0.0156486
693.067	0.0155629
693.146	0.0154033
693.224	0.0153754
693.302	0.0154147
693.380	0.0154433
693.458	0.0157024
693.536	0.0159109
693.614	0.0160791
693.692	0.0160874
693.771	0.0162756
693.849	0.0161494
693.927	0.0161728
694.005	0.0161580
694.083	0.0159840
694.161	0.0160983
694.239	0.0159373
694.317	0.0158503
694.396	0.0158150
694.474	0.0155753
694.552	0.0157143
694.630	0.0156799
694.708	0.0158051
694.786	0.0158443
694.864	0.0159789
694.942	0.0161961
695.021	0.0161030
695.099	0.0162364
695.177	0.0163475
695.255	0.0162682
695.333	0.0162605
695.411	0.0161860
695.489	0.0162098
695.567	0.0161314
695.646	0.0160869
695.724	0.0159300
695.802	0.0157197
695.880	0.0158163
695.958	0.0156697
696.036	0.0156845
696.114	0.0157644
696.192	0.0158121
696.271	0.0156795
696.349	0.0157983
696.427	0.0158397
696.505	0.0158340
696.583	0.0158226
696.661	0.0158214
696.739	0.0156317
696.817	0.0156844
696.896	0.0156734
696.974	0.0156652
697.052	0.0156055
697.130	0.0156264
697.208	0.0154617
697.286	0.0155566
697.364	0.0156719
697.442	0.0158039
697.521	0.0157374
697.599	0.0157569
697.677	0.0158189
697.755	0.0160700
697.833	0.0160172
697.911	0.0161622
697.989	0.0162086
698.067	0.0162239
698.146	0.0160743
698.224	0.0160913
698.302	0.0159983
698.380	0.0159608
698.458	0.0159316
698.536	0.0160280
698.614	0.0159494
698.692	0.0159543
698.771	0.0159641
698.849	0.0159755
698.927	0.0160185
699.005	0.0161823
699.083	0.0161973
699.161	0.0163120
699.239	0.0163503
699.317	0.0161910
699.396	0.0162543
699.474	0.0162241
699.552	0.0161938
699.630	0.0159578
699.708	0.0156284
699.786	0.0159392
699.864	0.0157713
699.942	0.0156400
700.021	0.0155759
700.099	0.0156410
700.177	0.0156788
700.255	0.0157593
700.333	0.0159389
700.411	0.0159528
700.489	0.0161642
700.567	0.0161746
700.646	0.0162266
700.724	0.0162773
700.802	0.0162114
700.880	0.0160150
700.958	0.0160441
701.036	0.0158214
701.114	0.0154778
701.192	0.0152969
701.271	0.0149746
701.349	0.0149643
701.427	0.0148811
701.505	0.0146153
701.583	0.0145997
701.661	0.0147053
701.739	0.0146091
701.817	0.0148702
701.896	0.0148167
701.974	0.0151576
702.052	0.0152525
702.130	0.0153191
702.208	0.0155875
702.286	0.0158147
702.364	0.0159544
702.442	0.0158922
702.521	0.0159775
702.599	0.0163651
702.677	0.0163004
702.755	0.0163255
702.833	0.0164879
702.911	0.0166460
702.989	0.0167721
703.067	0.0168809
703.146	0.0170522
703.224	0.0170190
703.302	0.0172308
703.380	0.0172648
703.458	0.0172143
703.536	0.0171423
703.614	0.0171886
703.692	0.0169359
703.771	0.0168022
703.849	0.0166129
703.927	0.0164157
704.005	0.0162816
704.083	0.0161150
704.161	0.0158604
704.239	0.0156697
704.317	0.0156633
704.396	0.0154697
704.474	0.0154095
704.552	0.0152406
704.630	0.0152319
704.708	0.0150976
704.786	0.0152952
704.864	0.0151274
704.942	0.0152068
705.021	0.0152694
705.099	0.0152258
705.177	0.0152551
705.255	0.0152544
705.333	0.0155267
705.411	0.0155573
705.489	0.0156020
705.567	0.0160125
705.646	0.0161109
705.724	0.0164312
705.802	0.0166359
705.880	0.0167165
705.958	0.0167358
706.036	0.0167693
706.114	0.0166747
706.192	0.0164674
706.271	0.0162018
706.349	0.0160336
706.427	0.0158501
706.505	0.0154744
706.583	0.0151793
706.661	0.0150223
706.739	0.0147896
706.817	0.0146342
706.896	0.0143682
706.974	0.0143851
707.052	0.0142323
707.130	0.0141938
707.208	0.0141793
707.286	0.0142255
707.364	0.0141827
707.442	0.0142262
707.521	0.0143159
707.599	0.0145422
707.677	0.0146149
707.755	0.0147112
707.833	0.0150365
707.911	0.0152279
707.989	0.0156065
708.067	0.0158936
708.146	0.0162041
708.224	0.0165382
708.302	0.0168353
708.380	0.0169685
708.458	0.0176139
708.536	0.0179304
708.614	0.0182713
708.692	0.0185037
708.771	0.0187383
708.849	0.0190894
708.927	0.0192622
709.005	0.0195979
709.083	0.0195162
709.161	0.0194504
709.239	0.0193748
709.317	0.0190280
709.396	0.0187630
709.474	0.0184503
709.552	0.0182383
709.630	0.0176669
709.708	0.0173086
709.786	0.0168002
709.864	0.0164394
709.942	0.0161362
710.021	0.0155128
710.099	0.0153973
710.177	0.0149483
710.255	0.0144846
710.333	0.0141343
710.411	0.0136607
710.489	0.0132964
710.567	0.0130399
710.646	0.0127672
710.724	0.0123721
710.802	0.0122187
710.880	0.0122374
710.958	0.0120359
711.036	0.0121381
711.114	0.0123381
711.192	0.0124196
711.271	0.0129764
711.349	0.0134161
711.427	0.0139856
711.505	0.0143863
711.583	0.0150953
711.661	0.0154187
711.739	0.0159602
711.817	0.0166103
711.896	0.0168385
711.974	0.0172295
712.052	0.0174677
712.130	0.0176595
712.208	0.0174393
712.286	0.0172741
712.364	0.0169726
712.442	0.0165428
712.521	0.0160880
712.599	0.0156134
712.677	0.0151302
712.755	0.0145929
712.833	0.0143087
712.911	0.0138281
712.989	0.0136530
713.067	0.0137868
713.146	0.0137574
713.224	0.0138975
713.302	0.0141801
713.380	0.0147653
713.458	0.0151429
713.536	0.0159582
713.614	0.0165673
713.692	0.0172537
713.771	0.0178538
713.849	0.0183875
713.927	0.0189999
714.005	0.0196639
714.083	0.0199030
714.161	0.0202352
714.239	0.0205761
714.317	0.0207005
714.396	0.0206908
714.474	0.0208189
714.552	0.0206535
714.630	0.0203675
714.708	0.0200807
714.786	0.0197443
714.864	0.0193690
714.942	0.0187659
715.021	0.0181230
715.099	0.0176412
715.177	0.0168576
715.255	0.0162685
715.333	0.0156116
715.411	0.0149308
715.489	0.0145120
715.567	0.0141153
715.646	0.0136288
715.724	0.0132785
715.802	0.0131514
715.880	0.0127748
715.958	0.0124937
716.036	0.0122991
716.114	0.0121613
716.192	0.0120255
716.271	0.0120330
716.349	0.0119243
716.427	0.0120144
716.505	0.0121791
716.583	0.0124648
716.661	0.0127055
716.739	0.0131878
716.817	0.0135903
716.896	0.0141678
716.974	0.0146324
717.052	0.0153745
717.130	0.0160020
717.208	0.0165621
717.286	0.0170761
717.364	0.0174401
717.442	0.0174059
717.521	0.0172970
717.599	0.0170945
717.677	0.0165547
717.755	0.0157626
717.833	0.0149635
717.911	0.0139941
717.989	0.0129953
718.067	0.0120974
718.146	0.0110956
718.224	0.0104903
718.302	0.0100461
718.380	0.00991364
718.458	0.00996719
718.536	0.0102009
718.614	0.0108308
718.692	0.0117037
718.771	0.0127245
718.849	0.0138219
718.927	0.0152422
719.005	0.0165405
719.083	0.0177812
719.161	0.0191766
719.239	0.0202449
719.317	0.0214680
719.396	0.0224725
719.474	0.0232888
719.552	0.0240180
719.630	0.0246083
719.708	0.0251189
719.786	0.0253436
719.864	0.0255178
719.942	0.0256932
720.021	0.0255505
720.099	0.0254770
720.177	0.0251477
720.255	0.0246241
720.333	0.0240973
720.411	0.0233638
720.489	0.0225419
720.567	0.0214185
720.646	0.0204995
720.724	0.0193340
720.802	0.0182511
720.880	0.0169093
720.958	0.0157547
721.036	0.0146112
721.114	0.0133168
721.192	0.0122311
721.271	0.0112509
721.349	0.0102229
721.427	0.00934776
721.505	0.00881248
721.583	0.00835114
721.661	0.00819885
721.739	0.00803635
721.817	0.00827866
721.896	0.00863022
721.974	0.00896957
722.052	0.00952133
722.130	0.0102010
722.208	0.0109061
722.286	0.0114548
722.364	0.0120325
722.442	0.0123557
722.521	0.0126468
722.599	0.0127705
722.677	0.0124511
722.755	0.0120099
722.833	0.0116634
722.911	0.0109550
722.989	0.0102747
723.067	0.00957253
723.146	0.00889961
723.224	0.00845856
723.302	0.00817474
723.380	0.00815529
723.458	0.00852539
723.536	0.00894867
723.614	0.00987076
723.692	0.0113231
723.771	0.0127169
723.849	0.0144028
723.927	0.0161922
724.005	0.0182483
724.083	0.0200806
724.161	0.0220177
724.239	0.0237263
724.317	0.0252164
724.396	0.0266389
724.474	0.0277298
724.552	0.0284291
724.630	0.0289377
724.708	0.0294243
724.786	0.0295105
724.864	0.0291371
724.942	0.0286632
725.021	0.0280734
725.099	0.0272710
725.177	0.0263434
725.255	0.0252474
725.333	0.0239983
725.411	0.0228250
725.489	0.0214960
725.567	0.0203493
725.646	0.0190301
725.724	0.0177538
725.802	0.0166474
725.880	0.0156174
725.958	0.0146777
726.036	0.0137102
726.114	0.0128198
726.192	0.0121358
726.271	0.0116148
726.349	0.0112603
726.427	0.0108175
726.505	0.0106416
726.583	0.0105967
726.661	0.0104760
726.739	0.0103958
726.817	0.0105575
726.896	0.0105737
726.974	0.0106080
727.052	0.0106557
727.130	0.0108173
727.208	0.0108749
727.286	0.0108602
727.364	0.0108913
727.442	0.0108250
727.521	0.0105662
727.599	0.0103435
727.677	0.0102494
727.755	0.0100317
727.833	0.00974030
727.911	0.00933075
727.989	0.00896439
728.067	0.00877686
728.146	0.00858345
728.224	0.00846718
728.302	0.00858391
728.380	0.00893707
728.458	0.00950203
728.536	0.0102021
728.614	0.0112413
728.692	0.0124829
728.771	0.0138023
728.849	0.0150959
728.927	0.0168563
729.005	0.0184438
729.083	0.0199238
729.161	0.0215014
729.239	0.0228316
729.317	0.0239840
729.396	0.0248264
729.474	0.0254964
729.552	0.0261464
729.630	0.0264419
729.708	0.0266434
729.786	0.0264717
729.864	0.0262627
729.942	0.0259109
730.021	0.0254321
730.099	0.0245905
730.177	0.0237323
730.255	0.0229131
730.333	0.0219689
730.411	0.0209137
730.489	0.0198860
730.567	0.0188850
730.646	0.0179246
730.724	0.0169023
730.802	0.0159013
730.880	0.0148392
730.958	0.0142407
731.036	0.0138411
731.114	0.0132527
731.192	0.0130044
731.271	0.0126689
731.349	0.0126341
731.427	0.0126390
731.505	0.0126169
731.583	0.0126541
731.661	0.0126029
731.739	0.0128665
731.817	0.0127442
731.896	0.0129705
731.974	0.0129504
732.052	0.0126931
732.130	0.0125455
732.208	0.0126914
732.286	0.0126129
732.364	0.0123968
732.442	0.0122672
732.521	0.0123707
732.599	0.0121298
732.677	0.0121312
732.755	0.0118610
732.833	0.0118062
732.911	0.0116875
732.989	0.0116087
733.067	0.0115816
733.146	0.0116965
733.224	0.0117363
733.302	0.0119570
733.380	0.0121018
733.458	0.0124916
733.536	0.0129862
733.614	0.0135912
733.692	0.0144172
733.771	0.0153007
733.849	0.0161443
733.927	0.0170434
734.005	0.0179272
734.083	0.0187688
734.161	0.0195676
734.239	0.0200964
734.317	0.0206607
734.396	0.0212706
734.474	0.0215439
734.552	0.0216851
734.630	0.0215983
734.708	0.0216425
734.786	0.0215516
734.864	0.0212081
734.942	0.0211097
735.021	0.0208228
735.099	0.0201861
735.177	0.0198480
735.255	0.0193877
735.333	0.0190800
735.411	0.0186909
735.489	0.0181363
735.567	0.0176643
735.646	0.0171973
735.724	0.0166178
735.802	0.0159669
735.880	0.0153829
735.958	0.0147979
736.036	0.0144154
736.114	0.0139108
736.192	0.0134637
736.271	0.0131436
736.349	0.0129823
736.427	0.0127608
736.505	0.0126625
736.583	0.0126738
736.661	0.0127924
736.739	0.0128603
736.817	0.0131178
736.896	0.0133255
736.974	0.0133233
737.052	0.0135204
737.130	0.0137952
737.208	0.0140547
737.286	0.0142285
737.364	0.0142692
737.442	0.0143803
737.521	0.0143729
737.599	0.0146148
737.677	0.0144585
737.755	0.0144734
737.833	0.0146535
737.911	0.0146585
737.989	0.0146886
738.067	0.0145490
738.146	0.0147012
738.224	0.0146147
738.302	0.0146549
738.380	0.0147191
738.458	0.0147592
738.536	0.0148523
738.614	0.0151339
738.692	0.0152095
738.771	0.0154210
738.849	0.0156243
738.927	0.0160203
739.005	0.0163779
739.083	0.0166489
739.161	0.0170454
739.239	0.0173489
739.317	0.0176804
739.396	0.0179865
739.474	0.0184007
739.552	0.0186855
739.630	0.0188903
739.708	0.0189354
739.786	0.0190366
739.864	0.0195641
739.942	0.0195237
740.021	0.0195822
740.099	0.0194095
740.177	0.0194370
740.255	0.0193149
740.333	0.0192217
740.411	0.0191105
740.489	0.0189730
740.567	0.0185129
740.646	0.0181054
740.724	0.0177840
740.802	0.0175390
740.880	0.0170847
740.958	0.0166705
741.036	0.0162773
741.114	0.0159814
741.192	0.0156651
741.271	0.0152351
741.349	0.0148323
741.427	0.0145829
741.505	0.0142237
741.583	0.0139104
741.661	0.0135065
741.739	0.0133310
741.817	0.0131800
741.896	0.0129346
741.974	0.0126781
742.052	0.0125867
742.130	0.0123547
742.208	0.0122534
742.286	0.0123467
742.364	0.0122344
742.442	0.0121727
742.521	0.0121605
742.599	0.0123962
742.677	0.0125381
742.755	0.0128464
742.833	0.0130879
742.911	0.0133604
742.989	0.0137487
743.067	0.0139695
743.146	0.0144331
743.224	0.0149048
743.302	0.0153912
743.380	0.0155998
743.458	0.0161129
743.536	0.0165211
743.614	0.0168857
743.692	0.0173866
743.771	0.0175719
743.849	0.0178564
743.927	0.0180556
744.005	0.0182242
744.083	0.0183331
744.161	0.0183568
744.239	0.0184555
744.317	0.0185509
744.396	0.0185396
744.474	0.0185464
744.552	0.0182722
744.630	0.0184173
744.708	0.0181567
744.786	0.0181102
744.864	0.0179124
744.942	0.0178989
745.021	0.0176380
745.099	0.0175790
745.177	0.0174454
745.255	0.0171710
745.333	0.0170814
745.411	0.0169763
745.489	0.0167191
745.567	0.0164005
745.646	0.0162746
745.724	0.0162254
745.802	0.0160014
745.880	0.0158168
745.958	0.0156430
746.036	0.0153694
746.114	0.0154124
746.192	0.0152277
746.271	0.0151733
746.349	0.0151378
746.427	0.0148808
746.505	0.0148499
746.583	0.0147416
746.661	0.0148811
746.739	0.0148650
746.817	0.0147626
746.896	0.0148003
746.974	0.0146766
747.052	0.0146845
747.130	0.0147435
747.208	0.0144690
747.286	0.0146847
747.364	0.0147199
747.442	0.0147150
747.521	0.0145229
747.599	0.0146658
747.677	0.0146658
747.755	0.0145760
747.833	0.0148143
747.911	0.0149973
747.989	0.0150949
748.067	0.0154268
748.146	0.0155807
748.224	0.0157718
748.302	0.0161348
748.380	0.0164212
748.458	0.0166286
748.536	0.0168502
748.614	0.0171144
748.692	0.0170838
748.771	0.0171581
748.849	0.0171813
748.927	0.0171274
749.005	0.0172942
749.083	0.0171104
749.161	0.0168620
749.239	0.0168344
749.317	0.0166730
749.396	0.0165887
749.474	0.0163702
749.552	0.0162290
749.630	0.0161533
749.708	0.0159047
749.786	0.0160415
749.864	0.0157300
749.942	0.0156538
750.021	0.0155338
750.099	0.0154569
750.177	0.0154890
750.255	0.0153225
750.333	0.0152751
750.411	0.0152842
750.489	0.0151787
750.567	0.0150335
750.646	0.0150066
750.724	0.0150866
750.802	0.0150706
750.880	0.0151816
750.958	0.0151472
751.036	0.0149821
751.114	0.0152318
751.192	0.0152567
751.271	0.0153484
751.349	0.0154674
751.427	0.0154366
751.505	0.0156792
751.583	0.0157722
751.661	0.0158553
751.739	0.0162598
751.817	0.0162904
751.896	0.0164247
751.974	0.0166342
752.052	0.0169216
752.130	0.0168974
752.208	0.0168819
752.286	0.0170557
752.364	0.0170141
752.442	0.0168320
752.521	0.0168842
752.599	0.0166062
752.677	0.0165225
752.755	0.0164179
752.833	0.0161830
752.911	0.0158817
752.989	0.0157113
753.067	0.0155974
753.146	0.0155057
753.224	0.0155950
753.302	0.0156661
753.380	0.0157245
753.458	0.0156274
753.536	0.0156486
753.614	0.0158347
753.692	0.0158433
753.771	0.0160815
753.849	0.0160231
753.927	0.0160258
754.005	0.0160844
754.083	0.0160638
754.161	0.0160658
754.239	0.0162392
754.317	0.0162201
754.396	0.0160575
754.474	0.0160250
754.552	0.0159171
754.630	0.0157254
754.708	0.0156953
754.786	0.0155613
754.864	0.0153621
754.942	0.0153386
755.021	0.0151503
755.099	0.0150992
755.177	0.0152012
755.255	0.0153368
755.333	0.0152628
755.411	0.0152512
755.489	0.0153198
755.567	0.0154841
755.646	0.0156554
755.724	0.0157877
755.802	0.0159135
755.880	0.0158555
755.958	0.0161065
756.036	0.0160056
756.114	0.0159708
756.192	0.0161571
756.271	0.0160421
756.349	0.0160797
756.427	0.0162137
756.505	0.0161029
756.583	0.0162492
756.661	0.0162233
756.739	0.0162300
756.817	0.0162621
756.896	0.0163903
756.974	0.0164303
757.052	0.0162739
757.130	0.0162888
757.208	0.0162392
757.286	0.0164419
757.364	0.0163029
757.442	0.0160903
757.521	0.0161910
757.599	0.0159469
757.677	0.0157318
757.755	0.0156452
757.833	0.0154178
757.911	0.0151910
757.989	0.0152840
758.067	0.0150815
758.146	0.0151305
758.224	0.0149724
758.302	0.0149209
758.380	0.0149149
758.458	0.0149438
758.536	0.0149905
758.614	0.0150332
758.692	0.0152577
758.771	0.0152673
758.849	0.0154066
758.927	0.0156964
759.005	0.0158092
759.083	0.0158432
759.161	0.0161636
759.239	0.0162030
759.317	0.0161852
759.396	0.0162364
759.474	0.0164059
759.552	0.0166754
759.630	0.0165213
759.708	0.0165653
759.786	0.0165007
759.864	0.0164216
759.942	0.0162868
760.021	0.0161560
760.099	0.0161575
760.177	0.0161420
760.255	0.0160207
760.333	0.0159488
760.411	0.0159182
760.489	0.0158228
760.567	0.0158671
760.646	0.0159742
760.724	0.0160082
760.802	0.0160185
760.880	0.0159843
760.958	0.0161211
761.036	0.0163919
761.114	0.0164845
761.192	0.0164873
761.271	0.0165285
761.349	0.0164462
761.427	0.0165659
761.505	0.0163962
761.583	0.0163439
761.661	0.0164839
761.739	0.0161838
761.817	0.0161850
761.896	0.0162923
761.974	0.0159884
762.052	0.0158121
762.130	0.0157304
762.208	0.0156118
762.286	0.0155863
762.364	0.0153200
762.442	0.0152817
762.521	0.0152666
762.599	0.0150833
762.677	0.0150718
762.755	0.0150735
762.833	0.0150565
762.911	0.0151744
762.989	0.0151482
763.067	0.0151732
763.146	0.0152967
763.224	0.0152885
763.302	0.0154686
763.380	0.0154008
763.458	0.0154784
763.536	0.0155003
763.614	0.0155914
763.692	0.0155726
763.771	0.0156868
763.849	0.0158794
763.927	0.0160381
764.005	0.0161310
764.083	0.0163013
764.161	0.0164424
764.239	0.0164915
764.317	0.0166479
764.396	0.0168037
764.474	0.0168828
764.552	0.0170190
764.630	0.0170984
764.708	0.0169893
764.786	0.0169843
764.864	0.0169843
764.942	0.0167796
765.021	0.0166952
765.099	0.0166687
765.177	0.0163556
765.255	0.0161542
765.333	0.0158952
765.411	0.0156763
765.489	0.0156266
765.567	0.0153782
765.646	0.0153866
765.724	0.0151937
765.802	0.0148654
765.880	0.0149924
765.958	0.0150458
766.036	0.0151100
766.114	0.0149138
766.192	0.0150935
766.271	0.0150742
766.349	0.0151885
766.427	0.0153576
766.505	0.0154079
766.583	0.0153315
766.661	0.0154270
766.739	0.0155456
766.817	0.0156049
766.896	0.0156826
766.974	0.0155686
767.052	0.0158259
767.130	0.0158444
767.208	0.0159201
767.286	0.0160641
767.364	0.0161074
767.442	0.0160423
767.521	0.0161513
767.599	0.0162363
767.677	0.0162579
767.755	0.0161936
767.833	0.0161800
767.911	0.0161473
767.989	0.0160969
768.067	0.0161238
768.146	0.0160381
768.224	0.0159518
768.302	0.0160816
768.380	0.0161132
768.458	0.0160279
768.536	0.0159618
768.614	0.0158925
768.692	0.0158461
768.771	0.0157176
768.849	0.0158499
768.927	0.0159029
769.005	0.0156110
769.083	0.0159194
769.161	0.0158827
769.239	0.0159486
769.317	0.0159349
769.396	0.0160447
769.474	0.0162311
769.552	0.0162347
769.630	0.0163542
769.708	0.0165423
769.786	0.0167474
769.864	0.0166742
769.942	0.0166766
770.021	0.0167419
770.099	0.0168348
770.177	0.0167606
770.255	0.0167979
770.333	0.0166968
770.411	0.0166052
770.489	0.0165321
770.567	0.0164957
770.646	0.0163409
770.724	0.0162746
770.802	0.0158607
770.880	0.0158745
770.958	0.0159869
771.036	0.0156496
771.114	0.0155489
771.192	0.0154291
771.271	0.0155171
771.349	0.0154451
771.427	0.0152633
771.505	0.0151755
771.583	0.0149302
771.661	0.0150618
771.739	0.0151411
771.817	0.0150327
771.896	0.0149451
771.974	0.0148166
772.052	0.0151717
772.130	0.0151163
772.208	0.0152193
772.286	0.0153217
772.364	0.0153118
772.442	0.0152988
772.521	0.0154229
772.599	0.0154066
772.677	0.0156301
772.755	0.0157104
772.833	0.0155758
772.911	0.0156802
772.989	0.0157320
773.067	0.0155890
773.146	0.0157870
773.224	0.0157082
773.302	0.0158897
773.380	0.0158189
773.458	0.0159168
773.536	0.0161873
773.614	0.0161466
773.692	0.0160537
773.771	0.0162708
773.849	0.0163177
773.927	0.0162280
774.005	0.0165073
774.083	0.0164224
774.161	0.0164194
774.239	0.0164077
774.317	0.0164972
774.396	0.0163002
774.474	0.0163116
774.552	0.0162069
774.630	0.0162640
774.708	0.0161283
774.786	0.0161034
774.864	0.0160015
774.942	0.0161698
775.021	0.0160370
775.099	0.0160374
775.177	0.0159000
775.255	0.0159283
775.333	0.0159180
775.411	0.0158827
775.489	0.0157959
775.567	0.0159229
775.646	0.0158447
775.724	0.0157866
775.802	0.0158521
775.880	0.0158095
775.958	0.0158373
776.036	0.0159179
776.114	0.0158353
776.192	0.0158693
776.271	0.0158469
776.349	0.0158864
776.427	0.0158430
776.505	0.0159075
776.583	0.0159289
776.661	0.0159976
776.739	0.0160973
776.817	0.0161149
776.896	0.0161313
776.974	0.0162695
777.052	0.0162415
777.130	0.0162223
777.208	0.0163082
777.286	0.0162077
777.364	0.0162570
777.442	0.0161012
777.521	0.0160870
777.599	0.0159968
777.677	0.0158568
777.755	0.0159421
777.833	0.0158978
777.911	0.0156632
777.989	0.0156187
778.067	0.0155847
778.146	0.0154276
778.224	0.0153159
778.302	0.0154041
778.380	0.0152879
778.458	0.0152866
778.536	0.0151124
778.614	0.0153016
778.692	0.0152937
778.771	0.0153339
778.849	0.0154034
778.927	0.0154177
779.005	0.0155775
779.083	0.0155345
779.161	0.0156507
779.239	0.0157860
779.317	0.0157746
779.396	0.0159881
779.474	0.0158843
779.552	0.0158404
779.630	0.0158406
779.708	0.0159088
779.786	0.0158481
779.864	0.0159013
779.942	0.0159528
780.021	0.0158872
780.099	0.0156840
780.177	0.0155722
780.255	0.0157815
780.333	0.0155851
780.411	0.0155389
780.489	0.0157661
780.567	0.0158698
780.646	0.0158297
780.724	0.0159997
780.802	0.0160972
780.880	0.0160095
780.958	0.0161395
781.036	0.0160436
781.114	0.0162740
781.192	0.0162942
781.271	0.0162687
781.349	0.0163260
781.427	0.0163060
781.505	0.0163138
781.583	0.0163020
781.661	0.0162009
781.739	0.0163516
781.817	0.0162605
781.896	0.0160659
781.974	0.0160175
782.052	0.0161213
782.130	0.0160997
782.208	0.0160301
782.286	0.0160038
782.364	0.0161566
782.442	0.0159493
782.521	0.0159684
782.599	0.0159383
782.677	0.0160287
782.755	0.0158535
782.833	0.0160361
782.911	0.0158753
782.989	0.0157472
783.067	0.0158046
783.146	0.0155920
783.224	0.0155489
783.302	0.0154577
783.380	0.0155468
783.458	0.0154572
783.536	0.0155180
783.614	0.0155309
783.692	0.0153749
783.771	0.0155196
783.849	0.0155305
783.927	0.0156421
784.005	0.0155760
784.083	0.0155779
784.161	0.0158083
784.239	0.0159361
784.317	0.0160346
784.396	0.0161818
784.474	0.0160970
784.552	0.0165031
784.630	0.0164479
784.708	0.0163530
784.786	0.0164859
784.864	0.0164095
784.942	0.0164532
785.021	0.0163862
785.099	0.0162445
785.177	0.0162230
785.255	0.0163135
785.333	0.0160709
785.411	0.0160874
785.489	0.0158913
785.567	0.0159441
785.646	0.0158177
785.724	0.0156210
785.802	0.0157275
785.880	0.0156438
785.958	0.0154959
786.036	0.0153038
786.114	0.0154263
786.192	0.0153299
786.271	0.0152937
786.349	0.0153783
786.427	0.0154222
786.505	0.0153683
786.583	0.0154180
786.661	0.0154160
786.739	0.0154652
786.817	0.0155933
786.896	0.0156122
786.974	0.0157777
787.052	0.0157420
787.130	0.0159269
787.208	0.0159695
787.286	0.0160174
787.364	0.0161404
787.442	0.0161394
787.521	0.0163337
787.599	0.0163396
787.677	0.0164600
787.755	0.0164200
787.833	0.0166521
787.911	0.0165012
787.989	0.0164960
788.067	0.0165880
788.146	0.0164008
788.224	0.0165050
788.302	0.0162123
788.380	0.0161584
788.458	0.0163137
788.536	0.0161064
788.614	0.0160360
788.692	0.0160037
788.771	0.0158178
788.849	0.0157124
788.927	0.0156110
789.005	0.0155688
789.083	0.0157268
789.161	0.0156574
789.239	0.0155669
789.317	0.0155202
789.396	0.0156837
789.474	0.0156834
789.552	0.0156689
789.630	0.0155499
789.708	0.0156775
789.786	0.0156348
789.864	0.0156296
789.942	0.0159209
790.021	0.0159299
790.099	0.0160083
790.177	0.0162256
790.255	0.0160351
790.333	0.0161167
790.411	0.0160370
790.489	0.0161520
790.567	0.0160303
790.646	0.0162389
790.724	0.0161488
790.802	0.0161564
790.880	0.0160506
790.958	0.0160062
791.036	0.0159713
791.114	0.0159560
791.192	0.0159576
791.271	0.0158946
791.349	0.0156766
791.427	0.0157229
791.505	0.0155497
791.583	0.0156087
791.661	0.0155494
791.739	0.0154510
791.817	0.0154269
791.896	0.0155408
791.974	0.0154615
792.052	0.0154427
792.130	0.0155447
792.208	0.0156583
792.286	0.0157170
792.364	0.0157994
792.442	0.0158451
792.521	0.0158963
792.599	0.0161615
792.677	0.0161873
792.755	0.0162357
792.833	0.0162429
792.911	0.0164735
792.989	0.0164611
793.067	0.0163824
793.146	0.0165903
793.224	0.0165152
793.302	0.0165762
793.380	0.0165175
793.458	0.0164992
793.536	0.0165823
793.614	0.0165797
793.692	0.0164838
793.771	0.0162766
793.849	0.0161964
793.927	0.0161481
794.005	0.0159856
794.083	0.0159566
794.161	0.0158395
794.239	0.0156717
794.317	0.0155737
794.396	0.0155047
794.474	0.0154128
794.552	0.0152917
794.630	0.0152974
794.708	0.0152929
794.786	0.0151777
794.864	0.0153072
794.942	0.0152482
795.021	0.0154101
795.099	0.0153940
795.177	0.0154894
795.255	0.0156408
795.333	0.0156563
795.411	0.0157182
795.489	0.0158097
795.567	0.0157915
795.646	0.0159453
795.724	0.0159163
795.802	0.0159328
795.880	0.0160229
795.958	0.0161464
796.036	0.0161034
796.114	0.0160276
796.192	0.0162172
796.271	0.0161263
796.349	0.0161059
796.427	0.0160746
796.505	0.0162246
796.583	0.0161217
796.661	0.0160291
796.739	0.0158839
796.817	0.0158280
796.896	0.0158453
796.974	0.0159194
797.052	0.0158344
797.130	0.0157293
797.208	0.0156522
797.286	0.0157716
797.364	0.0157766
797.442	0.0156992
797.521	0.0157905
797.599	0.0157635
797.677	0.0157458
797.755	0.0156711
797.833	0.0157550
797.911	0.0159599
797.989	0.0158464
798.067	0.0158060
798.146	0.0158823
798.224	0.0159606
798.302	0.0160774
798.380	0.0161060
798.458	0.0160735
798.536	0.0159474
798.614	0.0161216
798.692	0.0160777
798.771	0.0161754
798.849	0.0160189
798.927	0.0161549
799.005	0.0160638
799.083	0.0159844
799.161	0.0160235
799.239	0.0160879
799.317	0.0159696
799.396	0.0158517
799.474	0.0158576
799.552	0.0158157
799.630	0.0157142
799.708	0.0155915
799.786	0.0154935
799.864	0.0155852
799.942	0.0154420
800.021	0.0154453
800.099	0.0155119
800.177	0.0155167
800.255	0.0156432
800.333	0.0156002
800.411	0.0157071
800.489	0.0158041
800.567	0.0159657
800.646	0.0161017
800.724	0.0162344
800.802	0.0162899
800.880	0.0162039
800.958	0.0163399
801.036	0.0164565
801.114	0.0163670
801.192	0.0162215
801.271	0.0163320
801.349	0.0161938
801.427	0.0162794
801.505	0.0161713
801.583	0.0161374
801.661	0.0160678
801.739	0.0159489
801.817	0.0157691
801.896	0.0157432
801.974	0.0154803
802.052	0.0156176
802.130	0.0155201
802.208	0.0154920
802.286	0.0153682
802.364	0.0153152
802.442	0.0154845
802.521	0.0153320
802.599	0.0151768
802.677	0.0151762
802.755	0.0153324
802.833	0.0151936
802.911	0.0153927
802.989	0.0154404
803.067	0.0154447
803.146	0.0154967
803.224	0.0155657
803.302	0.0155866
803.380	0.0158621
803.458	0.0157994
803.536	0.0158824
803.614	0.0159683
803.692	0.0160226
803.771	0.0159740
803.849	0.0159898
803.927	0.0161541
804.005	0.0160522
804.083	0.0161001
804.161	0.0161950
804.239	0.0161812
804.317	0.0163529
804.396	0.0163429
804.474	0.0162870
804.552	0.0163332
804.630	0.0163110
804.708	0.0163664
804.786	0.0164565
804.864	0.0164378
804.942	0.0163271
805.021	0.0163763
805.099	0.0163601
805.177	0.0162640
805.255	0.0161697
805.333	0.0161917
805.411	0.0161086
805.489	0.0161399
805.567	0.0161890
805.646	0.0161715
805.724	0.0160609
805.802	0.0161516
805.880	0.0161426
805.958	0.0159673
806.036	0.0160245
806.114	0.0160130
806.192	0.0160336
806.271	0.0159573
806.349	0.0158647
806.427	0.0160797
806.505	0.0157912
806.583	0.0157437
806.661	0.0158513
806.739	0.0157044
806.817	0.0156971
806.896	0.0156355
806.974	0.0155760
807.052	0.0154285
807.130	0.0153485
807.208	0.0154165
807.286	0.0153267
807.364	0.0153586
807.442	0.0151642
807.521	0.0152385
807.599	0.0152895
807.677	0.0151787
807.755	0.0151003
807.833	0.0152245
807.911	0.0153033
807.989	0.0153220
808.067	0.0153539
808.146	0.0154819
808.224	0.0156371
808.302	0.0154143
808.380	0.0155767
808.458	0.0155660
808.536	0.0155888
808.614	0.0156954
808.692	0.0158321
808.771	0.0157438
808.849	0.0158638
808.927	0.0158602
809.005	0.0158867
809.083	0.0161633
809.161	0.0161539
809.239	0.0162472
809.317	0.0163694
809.396	0.0164445
809.474	0.0165717
809.552	0.0166022
809.630	0.0166428
809.708	0.0168275
809.786	0.0167699
809.864	0.0167470
809.942	0.0167968
810.021	0.0168299
810.099	0.0167880
810.177	0.0168176
810.255	0.0167219
810.333	0.0165991
810.411	0.0165543
810.489	0.0165305
810.567	0.0163789
810.646	0.0163210
810.724	0.0162414
810.802	0.0159736
810.880	0.0158594
810.958	0.0158604
811.036	0.0157070
811.114	0.0156217
811.192	0.0155167
811.271	0.0154331
811.349	0.0155832
811.427	0.0154434
811.505	0.0155551
811.583	0.0153404
811.661	0.0154188
811.739	0.0155383
811.817	0.0152879
811.896	0.0153907
811.974	0.0156531
812.052	0.0154043
812.130	0.0156292
812.208	0.0156378
812.286	0.0156324
812.364	0.0155749
812.442	0.0156687
812.521	0.0156341
812.599	0.0156367
812.677	0.0156754
812.755	0.0157275
812.833	0.0156343
812.911	0.0156029
812.989	0.0156453
813.067	0.0155936
813.146	0.0157961
813.224	0.0156108
813.302	0.0154785
813.380	0.0157426
813.458	0.0156974
813.536	0.0156982
813.614	0.0157526
813.692	0.0156224
813.771	0.0156998
813.849	0.0155913
813.927	0.0157430
814.005	0.0157542
814.083	0.0156824
814.161	0.0156905
814.239	0.0157116
814.317	0.0158611
814.396	0.0158626
814.474	0.0157845
814.552	0.0159744
814.630	0.0159827
814.708	0.0161207
814.786	0.0161140
814.864	0.0162360
814.942	0.0162096
815.021	0.0162695
815.099	0.0163229
815.177	0.0163850
815.255	0.0164106
815.333	0.0162835
815.411	0.0162128
815.489	0.0163652
815.567	0.0163288
815.646	0.0163140
815.724	0.0161363
815.802	0.0160870
815.880	0.0162553
815.958	0.0162450
816.036	0.0162726
816.114	0.0163560
816.192	0.0162207
816.271	0.0162492
816.349	0.0163076
816.427	0.0164024
816.505	0.0162611
816.583	0.0163123
816.661	0.0164693
816.739	0.0162993
816.817	0.0163364
816.896	0.0164624
816.974	0.0162993
817.052	0.0163412
817.130	0.0164098
817.208	0.0162730
817.286	0.0161947
817.364	0.0162365
817.442	0.0162120
817.521	0.0162228
817.599	0.0161604
817.677	0.0161580
817.755	0.0161221
817.833	0.0161025
817.911	0.0160620
817.989	0.0160246
818.067	0.0158581
818.146	0.0158398
818.224	0.0157641
818.302	0.0156314
818.380	0.0155480
818.458	0.0154566
818.536	0.0153164
818.614	0.0152789
818.692	0.0151017
818.771	0.0150544
818.849	0.0149325
818.927	0.0146591
819.005	0.0145416
819.083	0.0144174
819.161	0.0145740
819.239	0.0143721
819.317	0.0143018
819.396	0.0143616
819.474	0.0145213
819.552	0.0145463
819.630	0.0145187
819.708	0.0144892
819.786	0.0147900
819.864	0.0149626
819.942	0.0151712
820.021	0.0154369
820.099	0.0155544
820.177	0.0157269
820.255	0.0160324
820.333	0.0161205
820.411	0.0162180
820.489	0.0164581
820.567	0.0166721
820.646	0.0168194
820.724	0.0168014
820.802	0.0168217
820.880	0.0170656
820.958	0.0172163
821.036	0.0171002
821.114	0.0170328
821.192	0.0172251
821.271	0.0172842
821.349	0.0172964
821.427	0.0172475
821.505	0.0171738
821.583	0.0172633
821.661	0.0171600
821.739	0.0171008
821.817	0.0170387
821.896	0.0170030
821.974	0.0170342
822.052	0.0167921
822.130	0.0167551
822.208	0.0167023
822.286	0.0166703
822.364	0.0166246
822.442	0.0164148
822.521	0.0163422
822.599	0.0163529
822.677	0.0162463
822.755	0.0161163
822.833	0.0157948
822.911	0.0158258
822.989	0.0157973
823.067	0.0156923
823.146	0.0157320
823.224	0.0153910
823.302	0.0153708
823.380	0.0153204
823.458	0.0150329
823.536	0.0149310
823.614	0.0147990
823.692	0.0147639
823.771	0.0147052
823.849	0.0145286
823.927	0.0145403
824.005	0.0142631
824.083	0.0141700
824.161	0.0140789
824.239	0.0140680
824.317	0.0140067
824.396	0.0139728
824.474	0.0140381
824.552	0.0141361
824.630	0.0141111
824.708	0.0143596
824.786	0.0143961
824.864	0.0147401
824.942	0.0148631
825.021	0.0149827
825.099	0.0151197
825.177	0.0155487
825.255	0.0157174
825.333	0.0159798
825.411	0.0161805
825.489	0.0163850
825.567	0.0165630
825.646	0.0168250
825.724	0.0168575
825.802	0.0169998
825.880	0.0171952
825.958	0.0171541
826.036	0.0173251
826.114	0.0174926
826.192	0.0175417
826.271	0.0175610
826.349	0.0176001
826.427	0.0175539
826.505	0.0174200
826.583	0.0174416
826.661	0.0175359
826.739	0.0173679
826.817	0.0173605
826.896	0.0171900
826.974	0.0170968
827.052	0.0170390
827.130	0.0169804
827.208	0.0168200
827.286	0.0167185
827.364	0.0165796
827.442	0.0164019
827.521	0.0163662
827.599	0.0161129
827.677	0.0161112
827.755	0.0159570
827.833	0.0157095
827.911	0.0157222
827.989	0.0155650
828.067	0.0153442
828.146	0.0153257
828.224	0.0152200
828.302	0.0150437
828.380	0.0151494
828.458	0.0149173
828.536	0.0146737
828.614	0.0147110
828.692	0.0147823
828.771	0.0147774
828.849	0.0145927
828.927	0.0146345
829.005	0.0145747
829.083	0.0148247
829.161	0.0146568
829.239	0.0147985
829.317	0.0148677
829.396	0.0150788
829.474	0.0150809
829.552	0.0150588
829.630	0.0151017
829.708	0.0153043
829.786	0.0154210
829.864	0.0154720
829.942	0.0155567
830.021	0.0157366
830.099	0.0156971
830.177	0.0159100
830.255	0.0160728
830.333	0.0159162
830.411	0.0161000
830.489	0.0161853
830.567	0.0162717
830.646	0.0161999
830.724	0.0162498
830.802	0.0163638
830.880	0.0164864
830.958	0.0162865
831.036	0.0163308
831.114	0.0165505
831.192	0.0165552
831.271	0.0166595
831.349	0.0166213
831.427	0.0167018
831.505	0.0167258
831.583	0.0168132
831.661	0.0168057
831.739	0.0167819
831.817	0.0166839
831.896	0.0167990
831.974	0.0168484
832.052	0.0166699
832.130	0.0165916
832.208	0.0165472
832.286	0.0164686
832.364	0.0163329
832.442	0.0162550
832.521	0.0162377
832.599	0.0159409
832.677	0.0160592
832.755	0.0158205
832.833	0.0156213
832.911	0.0156579
832.989	0.0155592
833.067	0.0154907
833.146	0.0153326
833.224	0.0152952
833.302	0.0152893
833.380	0.0152330
833.458	0.0150203
833.536	0.0151501
833.614	0.0152006
833.692	0.0151021
833.771	0.0150653
833.849	0.0152972
833.927	0.0152876
834.005	0.0154631
834.083	0.0154592
834.161	0.0154245
834.239	0.0156914
834.317	0.0157538
834.396	0.0159328
834.474	0.0158052
834.552	0.0158946
834.630	0.0160454
834.708	0.0159631
834.786	0.0159356
834.864	0.0159075
834.942	0.0160400
835.021	0.0160463
835.099	0.0159279
835.177	0.0159397
835.255	0.0157666
835.333	0.0159192
835.411	0.0157689
835.489	0.0158395
835.567	0.0158546
835.646	0.0159438
835.724	0.0159068
835.802	0.0159910
835.880	0.0159492
835.958	0.0160461
836.036	0.0160074
836.114	0.0160805
836.192	0.0161646
836.271	0.0162620
836.349	0.0162260
836.427	0.0163348
836.505	0.0163656
836.583	0.0161919
836.661	0.0164706
836.739	0.0163210
836.817	0.0165407
836.896	0.0163223
836.974	0.0163332
837.052	0.0162389
837.130	0.0164518
837.208	0.0163258
837.286	0.0160038
837.364	0.0161477
837.442	0.0160401
837.521	0.0159721
837.599	0.0159586
837.677	0.0160097
837.755	0.0161285
837.833	0.0157723
837.911	0.0158514
837.989	0.0157404
838.067	0.0159977
838.146	0.0156627
838.224	0.0156671
838.302	0.0156858
838.380	0.0157172
838.458	0.0156623
838.536	0.0154046
838.614	0.0156740
838.692	0.0154969
838.771	0.0154943
838.849	0.0156462
838.927	0.0155412
839.005	0.0155679
839.083	0.0155781
839.161	0.0155868
839.239	0.0155128
839.317	0.0156644
839.396	0.0156311
839.474	0.0155891
839.552	0.0156641
839.630	0.0156448
839.708	0.0156636
839.786	0.0156328
839.864	0.0157281
839.942	0.0157963
840.021	0.0158683
840.099	0.0159650
840.177	0.0160284
840.255	0.0160148
840.333	0.0158523
840.411	0.0159986
840.489	0.0160894
840.567	0.0159855
840.646	0.0161777
840.724	0.0160278
840.802	0.0161205
840.880	0.0162664
840.958	0.0161028
841.036	0.0162411
841.114	0.0161325
841.192	0.0160236
841.271	0.0160938
841.349	0.0160727
841.427	0.0159161
841.505	0.0160256
841.583	0.0160049
841.661	0.0159464
841.739	0.0160015
841.817	0.0159017
841.896	0.0157654
841.974	0.0157960
842.052	0.0158119
842.130	0.0159041
842.208	0.0159971
842.286	0.0160675
842.364	0.0158291
842.442	0.0159216
842.521	0.0158966
842.599	0.0158240
842.677	0.0160204
842.755	0.0159418
842.833	0.0159747
842.911	0.0158328
842.989	0.0159563
843.067	0.0159176
843.146	0.0159817
843.224	0.0158977
843.302	0.0158899
843.380	0.0158370
843.458	0.0159623
843.536	0.0160091
843.614	0.0157260
843.692	0.0158656
843.771	0.0157507
843.849	0.0158125
843.927	0.0157648
844.005	0.0158208
844.083	0.0157758
844.161	0.0158620
844.239	0.0157433
844.317	0.0155466
844.396	0.0155903
844.474	0.0157121
844.552	0.0155998
844.630	0.0155991
844.708	0.0154157
844.786	0.0156112
844.864	0.0156419
844.942	0.0155054
845.021	0.0156754
845.099	0.0155236
845.177	0.0155280
845.255	0.0155947
845.333	0.0155854
845.411	0.0155286
845.489	0.0157342
845.567	0.0156434
845.646	0.0156297
845.724	0.0159280
845.802	0.0157977
845.880	0.0157040
845.958	0.0157793
846.036	0.0158503
846.114	0.0158871
846.192	0.0159361
846.271	0.0159478
846.349	0.0160027
846.427	0.0159380
846.505	0.0160625
846.583	0.0160878
846.661	0.0160053
846.739	0.0160736
846.817	0.0161884
846.896	0.0161357
846.974	0.0161057
847.052	0.0161903
847.130	0.0159751
847.208	0.0161680
847.286	0.0162184
847.364	0.0162411
847.442	0.0161617
847.521	0.0159893
847.599	0.0160806
847.677	0.0162151
847.755	0.0162601
847.833	0.0161180
847.911	0.0161034
847.989	0.0161135
848.067	0.0162225
848.146	0.0161167
848.224	0.0160137
848.302	0.0160851
848.380	0.0160210
848.458	0.0158602
848.536	0.0160373
848.614	0.0159988
848.692	0.0158884
848.771	0.0159026
848.849	0.0158189
848.927	0.0157583
849.005	0.0159308
849.083	0.0156934
849.161	0.0157635
849.239	0.0156750
849.317	0.0154137
849.396	0.0156718
849.474	0.0156760
849.552	0.0155891
849.630	0.0156153
849.708	0.0156130
849.786	0.0156721
849.864	0.0156915
849.942	0.0155367
850.021	0.0155805
850.099	0.0156123
850.177	0.0156573
850.255	0.0156093
850.333	0.0156375
850.411	0.0157001
850.489	0.0156485
850.567	0.0156952
850.646	0.0157426
850.724	0.0157683
850.802	0.0157406
850.880	0.0156944
850.958	0.0158400
851.036	0.0160181
851.114	0.0159678
851.192	0.0160239
851.271	0.0159783
851.349	0.0159734
851.427	0.0161914
851.505	0.0162152
851.583	0.0160575
851.661	0.0161137
851.739	0.0162086
851.817	0.0162499
851.896	0.0161194
851.974	0.0160471
852.052	0.0160157
852.130	0.0162682
852.208	0.0162443
852.286	0.0161118
852.364	0.0161511
852.442	0.0162717
852.521	0.0161776
852.599	0.0161570
852.677	0.0162099
852.755	0.0161354
852.833	0.0161313
852.911	0.0160101
852.989	0.0160030
853.067	0.0160909
853.146	0.0160323
853.224	0.0159207
853.302	0.0160196
853.380	0.0159721
853.458	0.0157426
853.536	0.0160377
853.614	0.0159142
853.692	0.0157563
853.771	0.0158874
853.849	0.0157222
853.927	0.0155964
854.005	0.0156629
854.083	0.0154978
854.161	0.0156202
854.239	0.0156977
854.317	0.0155688
854.396	0.0154695
854.474	0.0155204
854.552	0.0153975
854.630	0.0153943
854.708	0.0153513
854.786	0.0153967
854.864	0.0153503
854.942	0.0154775
855.021	0.0153844
855.099	0.0152871
855.177	0.0155341
855.255	0.0155420
855.333	0.0156107
855.411	0.0155947
855.489	0.0156230
855.567	0.0157259
855.646	0.0158218
855.724	0.0157740
855.802	0.0159614
855.880	0.0158171
855.958	0.0160065
856.036	0.0161187
856.114	0.0161224
856.192	0.0159988
856.271	0.0159246
856.349	0.0161936
856.427	0.0161660
856.505	0.0162425
856.583	0.0163176
856.661	0.0161226
856.739	0.0159897
856.817	0.0162080
856.896	0.0162369
856.974	0.0162556
857.052	0.0162251
857.130	0.0161290
857.208	0.0161798
857.286	0.0162245
857.364	0.0161943
857.442	0.0162247
857.521	0.0162131
857.599	0.0160841
857.677	0.0160703
857.755	0.0159174
857.833	0.0160014
857.911	0.0160888
857.989	0.0160274
858.067	0.0159945
858.146	0.0158730
858.224	0.0160782
858.302	0.0161020
858.380	0.0160590
858.458	0.0160852
858.536	0.0159850
858.614	0.0158862
858.692	0.0160955
858.771	0.0159538
858.849	0.0160374
858.927	0.0159104
859.005	0.0157851
859.083	0.0156741
859.161	0.0157335
859.239	0.0157356
859.317	0.0157138
859.396	0.0154826
859.474	0.0153700
859.552	0.0154699
859.630	0.0153187
859.708	0.0154053
859.786	0.0154865
859.864	0.0153152
859.942	0.0154426
860.021	0.0153897
860.099	0.0154687
860.177	0.0154215
860.255	0.0154771
860.333	0.0156166
860.411	0.0157617
860.489	0.0156446
860.567	0.0157635
860.646	0.0158231
860.724	0.0158878
860.802	0.0158694
860.880	0.0158593
860.958	0.0157874
861.036	0.0158334
861.114	0.0160970
861.192	0.0160323
861.271	0.0159113
861.349	0.0160287
861.427	0.0160755
861.505	0.0160590
861.583	0.0159408
861.661	0.0161160
861.739	0.0160504
861.817	0.0160350
861.896	0.0160441
861.974	0.0161266
862.052	0.0161153
862.130	0.0160578
862.208	0.0159450
862.286	0.0160538
862.364	0.0162094
862.442	0.0160043
862.521	0.0159258
862.599	0.0160757
862.677	0.0161172
862.755	0.0158910
862.833	0.0160265
862.911	0.0158844
862.989	0.0158743
863.067	0.0157596
863.146	0.0158550
863.224	0.0159836
863.302	0.0159073
863.380	0.0158720
863.458	0.0158885
863.536	0.0159268
863.614	0.0157629
863.692	0.0158288
863.771	0.0160035
863.849	0.0159411
863.927	0.0158700
864.005	0.0158769
864.083	0.0158728
864.161	0.0158730
864.239	0.0158174
864.317	0.0158584
864.396	0.0157722
864.474	0.0157427
864.552	0.0157469
864.630	0.0158192
864.708	0.0158189
864.786	0.0156507
864.864	0.0155798
864.942	0.0154916
865.021	0.0155768
865.099	0.0157288
865.177	0.0157946
865.255	0.0157423
865.333	0.0157442
865.411	0.0158401
865.489	0.0157779
865.567	0.0158413
865.646	0.0158984
865.724	0.0156938
865.802	0.0157671
865.880	0.0157433
865.958	0.0156795
866.036	0.0157507
866.114	0.0156711
866.192	0.0157551
866.271	0.0158533
866.349	0.0157911
866.427	0.0157232
866.505	0.0158159
866.583	0.0158289
866.661	0.0158212
866.739	0.0158573
866.817	0.0158965
866.896	0.0159988
866.974	0.0159167
867.052	0.0159000
867.130	0.0159473
867.208	0.0159281
867.286	0.0159698
867.364	0.0160150
867.442	0.0160614
867.521	0.0159418
867.599	0.0159965
867.677	0.0159999
867.755	0.0159630
867.833	0.0160764
867.911	0.0160405
867.989	0.0159342
868.067	0.0159392
868.146	0.0158526
868.224	0.0158263
868.302	0.0158904
868.380	0.0157705
868.458	0.0158118
868.536	0.0160070
868.614	0.0158517
868.692	0.0158808
868.771	0.0158225
868.849	0.0159468
868.927	0.0159049
869.005	0.0158283
869.083	0.0159409
869.161	0.0159449
869.239	0.0159394
869.317	0.0159630
869.396	0.0158106
869.474	0.0159685
869.552	0.0159193
869.630	0.0158368
869.708	0.0160159
869.786	0.0159647
869.864	0.0159394
869.942	0.0160081
