06/03/2022	15:41:31	Ver.	4.1	UNKNOWN
Optical Delay	550.020508	Delta X		0.078125	Sweeps	1	Scan Rate	0/0
Coordinates	Axis 1	NaN	Axis 2	NaN	Axis 3	NaN	Axis 4	NaN	Axis 5	NaN	Axis 6	0.000000
TX Power	0.000000	RX Power	0.000000

550.021	0.0161304
550.099	0.0162120
550.177	0.0161485
550.255	0.0162725
550.333	0.0160830
550.411	0.0159426
550.489	0.0162448
550.567	0.0161005
550.646	0.0161243
550.724	0.0159870
550.802	0.0162318
550.880	0.0160677
550.958	0.0160497
551.036	0.0161158
551.114	0.0160212
551.192	0.0160210
551.271	0.0162582
551.349	0.0160981
551.427	0.0161628
551.505	0.0161935
551.583	0.0161367
551.661	0.0162184
551.739	0.0162052
551.817	0.0162383
551.896	0.0159966
551.974	0.0161403
552.052	0.0161957
552.130	0.0161268
552.208	0.0161678
552.286	0.0161595
552.364	0.0161664
552.442	0.0161222
552.521	0.0161600
552.599	0.0161529
552.677	0.0160995
552.755	0.0160893
552.833	0.0160634
552.911	0.0161072
552.989	0.0161949
553.067	0.0161803
553.146	0.0161436
553.224	0.0160867
553.302	0.0161643
553.380	0.0160747
553.458	0.0161675
553.536	0.0160809
553.614	0.0162775
553.692	0.0161928
553.771	0.0160717
553.849	0.0160853
553.927	0.0162492
554.005	0.0162897
554.083	0.0162161
554.161	0.0161563
554.239	0.0159934
554.317	0.0162332
554.396	0.0161794
554.474	0.0162822
554.552	0.0160887
554.630	0.0161282
554.708	0.0161696
554.786	0.0161363
554.864	0.0160767
554.942	0.0158973
555.021	0.0160867
555.099	0.0163372
555.177	0.0161237
555.255	0.0161185
555.333	0.0161080
555.411	0.0161752
555.489	0.0161620
555.567	0.0161391
555.646	0.0161887
555.724	0.0162482
555.802	0.0161443
555.880	0.0161851
555.958	0.0161095
556.036	0.0161726
556.114	0.0160947
556.192	0.0161678
556.271	0.0161025
556.349	0.0160652
556.427	0.0161563
556.505	0.0160836
556.583	0.0161223
556.661	0.0162391
556.739	0.0161326
556.817	0.0160904
556.896	0.0160628
556.974	0.0163115
557.052	0.0162118
557.130	0.0161038
557.208	0.0161467
557.286	0.0161127
557.364	0.0163090
557.442	0.0161877
557.521	0.0161115
557.599	0.0161691
557.677	0.0161139
557.755	0.0162473
557.833	0.0161654
557.911	0.0159190
557.989	0.0159004
558.067	0.0161411
558.146	0.0162871
558.224	0.0160786
558.302	0.0161054
558.380	0.0161101
558.458	0.0162054
558.536	0.0162384
558.614	0.0161714
558.692	0.0161756
558.771	0.0160605
558.849	0.0161386
558.927	0.0161938
559.005	0.0162605
559.083	0.0160474
559.161	0.0162123
559.239	0.0161108
559.317	0.0160892
559.396	0.0162482
559.474	0.0162592
559.552	0.0162244
559.630	0.0161178
559.708	0.0162170
559.786	0.0161368
559.864	0.0160744
559.942	0.0160651
560.021	0.0161383
560.099	0.0161797
560.177	0.0161605
560.255	0.0161846
560.333	0.0161171
560.411	0.0162354
560.489	0.0162222
560.567	0.0162311
560.646	0.0163234
560.724	0.0161174
560.802	0.0161466
560.880	0.0161980
560.958	0.0161874
561.036	0.0161407
561.114	0.0160721
561.192	0.0162406
561.271	0.0161561
561.349	0.0162621
561.427	0.0161760
561.505	0.0160819
561.583	0.0162111
561.661	0.0162418
561.739	0.0161234
561.817	0.0161274
561.896	0.0162595
561.974	0.0162067
562.052	0.0161314
562.130	0.0161448
562.208	0.0162122
562.286	0.0160548
562.364	0.0161102
562.442	0.0160934
562.521	0.0162136
562.599	0.0162847
562.677	0.0160860
562.755	0.0161493
562.833	0.0160849
562.911	0.0161055
562.989	0.0161470
563.067	0.0160666
563.146	0.0162395
563.224	0.0161992
563.302	0.0161227
563.380	0.0161681
563.458	0.0161176
563.536	0.0161908
563.614	0.0161409
563.692	0.0161391
563.771	0.0162208
563.849	0.0162270
563.927	0.0163167
564.005	0.0161263
564.083	0.0161615
564.161	0.0161102
564.239	0.0162250
564.317	0.0161472
564.396	0.0161845
564.474	0.0161791
564.552	0.0162244
564.630	0.0162450
564.708	0.0161563
564.786	0.0161526
564.864	0.0159801
564.942	0.0161573
565.021	0.0161689
565.099	0.0162857
565.177	0.0162305
565.255	0.0162909
565.333	0.0161571
565.411	0.0160125
565.489	0.0162447
565.567	0.0162086
565.646	0.0161704
565.724	0.0161343
565.802	0.0161863
565.880	0.0161897
565.958	0.0162492
566.036	0.0161963
566.114	0.0160281
566.192	0.0161026
566.271	0.0163010
566.349	0.0161588
566.427	0.0161638
566.505	0.0161632
566.583	0.0161307
566.661	0.0160844
566.739	0.0161217
566.817	0.0160490
566.896	0.0160785
566.974	0.0162491
567.052	0.0162225
567.130	0.0161977
567.208	0.0161638
567.286	0.0162429
567.364	0.0162926
567.442	0.0161172
567.521	0.0162565
567.599	0.0160994
567.677	0.0162196
567.755	0.0159858
567.833	0.0162383
567.911	0.0161671
567.989	0.0161869
568.067	0.0160757
568.146	0.0159334
568.224	0.0161806
568.302	0.0162198
568.380	0.0161738
568.458	0.0161661
568.536	0.0161919
568.614	0.0162104
568.692	0.0161560
568.771	0.0161143
568.849	0.0160791
568.927	0.0161053
569.005	0.0161835
569.083	0.0161454
569.161	0.0161530
569.239	0.0161454
569.317	0.0161816
569.396	0.0161110
569.474	0.0161935
569.552	0.0161488
569.630	0.0160446
569.708	0.0161349
569.786	0.0162922
569.864	0.0161752
569.942	0.0160542
570.021	0.0160719
570.099	0.0160669
570.177	0.0162411
570.255	0.0161344
570.333	0.0162056
570.411	0.0161156
570.489	0.0161406
570.567	0.0163506
570.646	0.0161076
570.724	0.0160950
570.802	0.0162595
570.880	0.0162353
570.958	0.0163017
571.036	0.0161813
571.114	0.0162208
571.192	0.0160796
571.271	0.0160897
571.349	0.0160677
571.427	0.0162212
571.505	0.0161119
571.583	0.0162841
571.661	0.0162116
571.739	0.0160392
571.817	0.0161440
571.896	0.0161671
571.974	0.0160529
572.052	0.0162106
572.130	0.0160400
572.208	0.0161587
572.286	0.0161136
572.364	0.0159973
572.442	0.0161072
572.521	0.0162485
572.599	0.0162315
572.677	0.0162351
572.755	0.0160379
572.833	0.0161901
572.911	0.0161292
572.989	0.0161148
573.067	0.0161292
573.146	0.0160656
573.224	0.0160655
573.302	0.0163258
573.380	0.0162553
573.458	0.0161543
573.536	0.0161107
573.614	0.0161017
573.692	0.0161707
573.771	0.0160818
573.849	0.0159640
573.927	0.0160735
574.005	0.0161078
574.083	0.0161322
574.161	0.0161567
574.239	0.0161198
574.317	0.0162414
574.396	0.0161149
574.474	0.0161001
574.552	0.0161579
574.630	0.0162263
574.708	0.0160430
574.786	0.0160741
574.864	0.0161620
574.942	0.0162862
575.021	0.0163281
575.099	0.0162300
575.177	0.0160926
575.255	0.0161475
575.333	0.0160664
575.411	0.0162041
575.489	0.0162809
575.567	0.0162673
575.646	0.0161669
575.724	0.0162160
575.802	0.0161954
575.880	0.0160506
575.958	0.0160628
576.036	0.0161811
576.114	0.0162991
576.192	0.0161455
576.271	0.0161407
576.349	0.0163036
576.427	0.0159894
576.505	0.0161929
576.583	0.0162367
576.661	0.0161023
576.739	0.0160421
576.817	0.0161066
576.896	0.0161766
576.974	0.0161887
577.052	0.0160461
577.130	0.0160736
577.208	0.0162531
577.286	0.0162031
577.364	0.0162465
577.442	0.0161192
577.521	0.0161694
577.599	0.0161554
577.677	0.0162169
577.755	0.0163065
577.833	0.0161996
577.911	0.0161582
577.989	0.0160891
578.067	0.0162182
578.146	0.0161679
578.224	0.0160434
578.302	0.0162466
578.380	0.0161142
578.458	0.0162103
578.536	0.0160345
578.614	0.0160913
578.692	0.0163810
578.771	0.0161221
578.849	0.0159817
578.927	0.0163191
579.005	0.0161597
579.083	0.0161848
579.161	0.0162438
579.239	0.0162380
579.317	0.0161631
579.396	0.0161333
579.474	0.0161498
579.552	0.0160565
579.630	0.0161188
579.708	0.0162389
579.786	0.0162544
579.864	0.0161542
579.942	0.0161377
580.021	0.0160281
580.099	0.0160129
580.177	0.0160464
580.255	0.0161494
580.333	0.0161626
580.411	0.0163128
580.489	0.0162309
580.567	0.0161639
580.646	0.0161578
580.724	0.0160463
580.802	0.0161530
580.880	0.0162057
580.958	0.0161108
581.036	0.0162557
581.114	0.0161794
581.192	0.0162357
581.271	0.0162370
581.349	0.0161566
581.427	0.0161753
581.505	0.0160454
581.583	0.0160899
581.661	0.0161269
581.739	0.0162312
581.817	0.0160024
581.896	0.0161504
581.974	0.0161555
582.052	0.0161118
582.130	0.0159011
582.208	0.0159744
582.286	0.0160627
582.364	0.0161209
582.442	0.0162221
582.521	0.0162152
582.599	0.0161592
582.677	0.0161446
582.755	0.0161935
582.833	0.0162318
582.911	0.0161283
582.989	0.0160899
583.067	0.0161741
583.146	0.0162012
583.224	0.0162177
583.302	0.0161544
583.380	0.0162233
583.458	0.0161055
583.536	0.0161237
583.614	0.0161944
583.692	0.0160690
583.771	0.0161905
583.849	0.0161693
583.927	0.0160811
584.005	0.0161456
584.083	0.0162349
584.161	0.0161911
584.239	0.0161604
584.317	0.0161785
584.396	0.0160933
584.474	0.0161992
584.552	0.0163403
584.630	0.0161977
584.708	0.0161330
584.786	0.0162090
584.864	0.0161689
584.942	0.0161469
585.021	0.0161222
585.099	0.0161948
585.177	0.0161123
585.255	0.0160464
585.333	0.0162281
585.411	0.0162189
585.489	0.0161806
585.567	0.0160610
585.646	0.0161209
585.724	0.0160336
585.802	0.0160326
585.880	0.0161559
585.958	0.0162463
586.036	0.0160660
586.114	0.0161322
586.192	0.0161873
586.271	0.0161098
586.349	0.0160809
586.427	0.0160041
586.505	0.0161549
586.583	0.0163252
586.661	0.0162045
586.739	0.0161067
586.817	0.0160180
586.896	0.0161122
586.974	0.0161429
587.052	0.0161182
587.130	0.0161227
587.208	0.0161664
587.286	0.0161953
587.364	0.0161678
587.442	0.0162002
587.521	0.0161079
587.599	0.0161192
587.677	0.0161239
587.755	0.0162277
587.833	0.0161733
587.911	0.0160608
587.989	0.0161568
588.067	0.0160337
588.146	0.0162785
588.224	0.0162739
588.302	0.0160683
588.380	0.0162574
588.458	0.0161319
588.536	0.0160983
588.614	0.0161687
588.692	0.0162516
588.771	0.0162088
588.849	0.0162313
588.927	0.0162103
589.005	0.0160625
589.083	0.0162351
589.161	0.0162904
589.239	0.0162121
589.317	0.0162739
589.396	0.0161420
589.474	0.0162050
589.552	0.0162987
589.630	0.0161131
589.708	0.0161644
589.786	0.0162228
589.864	0.0161347
589.942	0.0160399
590.021	0.0161452
590.099	0.0161275
590.177	0.0161078
590.255	0.0162054
590.333	0.0160303
590.411	0.0160704
590.489	0.0160955
590.567	0.0162742
590.646	0.0161670
590.724	0.0161725
590.802	0.0161778
590.880	0.0160967
590.958	0.0161626
591.036	0.0161513
591.114	0.0160403
591.192	0.0162117
591.271	0.0162437
591.349	0.0161352
591.427	0.0161443
591.505	0.0162022
591.583	0.0161920
591.661	0.0161863
591.739	0.0161727
591.817	0.0160408
591.896	0.0159900
591.974	0.0160994
592.052	0.0160058
592.130	0.0161024
592.208	0.0160970
592.286	0.0160859
592.364	0.0161444
592.442	0.0162563
592.521	0.0161948
592.599	0.0161050
592.677	0.0161784
592.755	0.0161111
592.833	0.0162125
592.911	0.0161707
592.989	0.0160275
593.067	0.0162019
593.146	0.0161356
593.224	0.0161357
593.302	0.0160825
593.380	0.0160297
593.458	0.0161544
593.536	0.0161449
593.614	0.0161398
593.692	0.0161578
593.771	0.0162788
593.849	0.0162170
593.927	0.0160464
594.005	0.0162113
594.083	0.0162376
594.161	0.0161549
594.239	0.0160925
594.317	0.0161518
594.396	0.0160204
594.474	0.0161591
594.552	0.0160369
594.630	0.0160986
594.708	0.0162897
594.786	0.0161229
594.864	0.0161247
594.942	0.0161005
595.021	0.0162295
595.099	0.0160698
595.177	0.0162641
595.255	0.0162840
595.333	0.0162486
595.411	0.0161753
595.489	0.0161690
595.567	0.0161968
595.646	0.0161575
595.724	0.0161726
595.802	0.0162140
595.880	0.0161115
595.958	0.0161615
596.036	0.0162222
596.114	0.0160510
596.192	0.0161266
596.271	0.0162681
596.349	0.0162617
596.427	0.0162277
596.505	0.0160307
596.583	0.0161300
596.661	0.0161095
596.739	0.0161920
596.817	0.0161923
596.896	0.0160337
596.974	0.0160046
597.052	0.0162003
597.130	0.0161859
597.208	0.0160536
597.286	0.0160793
597.364	0.0163057
597.442	0.0163158
597.521	0.0162726
597.599	0.0161409
597.677	0.0161699
597.755	0.0163015
597.833	0.0162673
597.911	0.0161947
597.989	0.0161332
598.067	0.0161465
598.146	0.0162247
598.224	0.0161890
598.302	0.0161715
598.380	0.0161365
598.458	0.0161869
598.536	0.0161029
598.614	0.0160429
598.692	0.0161171
598.771	0.0162339
598.849	0.0161901
598.927	0.0160277
599.005	0.0162521
599.083	0.0162774
599.161	0.0160271
599.239	0.0160954
599.317	0.0160747
599.396	0.0161794
599.474	0.0161997
599.552	0.0158839
599.630	0.0162093
599.708	0.0162074
599.786	0.0159701
599.864	0.0161831
599.942	0.0159923
600.021	0.0161332
600.099	0.0162325
600.177	0.0160639
600.255	0.0162350
600.333	0.0160595
600.411	0.0161109
600.489	0.0160547
600.567	0.0161876
600.646	0.0160921
600.724	0.0161607
600.802	0.0161297
600.880	0.0161507
600.958	0.0160459
601.036	0.0161559
601.114	0.0160489
601.192	0.0161053
601.271	0.0160147
601.349	0.0161150
601.427	0.0160974
601.505	0.0160812
601.583	0.0161382
601.661	0.0161072
601.739	0.0160271
601.817	0.0160616
601.896	0.0161531
601.974	0.0161280
602.052	0.0161915
602.130	0.0160696
602.208	0.0160498
602.286	0.0161339
602.364	0.0160910
602.442	0.0162337
602.521	0.0161401
602.599	0.0161382
602.677	0.0161749
602.755	0.0160709
602.833	0.0161258
602.911	0.0161065
602.989	0.0161485
603.067	0.0161068
603.146	0.0162597
603.224	0.0162440
603.302	0.0159801
603.380	0.0161620
603.458	0.0161353
603.536	0.0161320
603.614	0.0162063
603.692	0.0161478
603.771	0.0161306
603.849	0.0160527
603.927	0.0162283
604.005	0.0160872
604.083	0.0160398
604.161	0.0161670
604.239	0.0162634
604.317	0.0161985
604.396	0.0161734
604.474	0.0160931
604.552	0.0161491
604.630	0.0160680
604.708	0.0162033
604.786	0.0161400
604.864	0.0160889
604.942	0.0162751
605.021	0.0162814
605.099	0.0160717
605.177	0.0161553
605.255	0.0161665
605.333	0.0162000
605.411	0.0160993
605.489	0.0160888
605.567	0.0160747
605.646	0.0161486
605.724	0.0161469
605.802	0.0160754
605.880	0.0160757
605.958	0.0161339
606.036	0.0160552
606.114	0.0160699
606.192	0.0161119
606.271	0.0162327
606.349	0.0161273
606.427	0.0161502
606.505	0.0159921
606.583	0.0162301
606.661	0.0162641
606.739	0.0161801
606.817	0.0160747
606.896	0.0160892
606.974	0.0161980
607.052	0.0162113
607.130	0.0162401
607.208	0.0161742
607.286	0.0160787
607.364	0.0160732
607.442	0.0160802
607.521	0.0161323
607.599	0.0161050
607.677	0.0161328
607.755	0.0162144
607.833	0.0162478
607.911	0.0160915
607.989	0.0161240
608.067	0.0160824
608.146	0.0160184
608.224	0.0160972
608.302	0.0161658
608.380	0.0160095
608.458	0.0161414
608.536	0.0161303
608.614	0.0161346
608.692	0.0161089
608.771	0.0161021
608.849	0.0160199
608.927	0.0160767
609.005	0.0160483
609.083	0.0161561
609.161	0.0161459
609.239	0.0161944
609.317	0.0161067
609.396	0.0161330
609.474	0.0160548
609.552	0.0159768
609.630	0.0160076
609.708	0.0161816
609.786	0.0162367
609.864	0.0160632
609.942	0.0161620
610.021	0.0160241
610.099	0.0162738
610.177	0.0161098
610.255	0.0160059
610.333	0.0161843
610.411	0.0161964
610.489	0.0161257
610.567	0.0161516
610.646	0.0161220
610.724	0.0160072
610.802	0.0160864
610.880	0.0161162
610.958	0.0162059
611.036	0.0161235
611.114	0.0160638
611.192	0.0160699
611.271	0.0160529
611.349	0.0160730
611.427	0.0162560
611.505	0.0161878
611.583	0.0160394
611.661	0.0160371
611.739	0.0162119
611.817	0.0159078
611.896	0.0160516
611.974	0.0161513
612.052	0.0162993
612.130	0.0161301
612.208	0.0161160
612.286	0.0161105
612.364	0.0160880
612.442	0.0159280
612.521	0.0161557
612.599	0.0162019
612.677	0.0161929
612.755	0.0162234
612.833	0.0161217
612.911	0.0160870
612.989	0.0161185
613.067	0.0161559
613.146	0.0161552
613.224	0.0162613
613.302	0.0161857
613.380	0.0160385
613.458	0.0160600
613.536	0.0160590
613.614	0.0162288
613.692	0.0161867
613.771	0.0161752
613.849	0.0159710
613.927	0.0160732
614.005	0.0160783
614.083	0.0160493
614.161	0.0162514
614.239	0.0161255
614.317	0.0160009
614.396	0.0162106
614.474	0.0161238
614.552	0.0160770
614.630	0.0160605
614.708	0.0161810
614.786	0.0161858
614.864	0.0161555
614.942	0.0161570
615.021	0.0160712
615.099	0.0161211
615.177	0.0161472
615.255	0.0160777
615.333	0.0161090
615.411	0.0160180
615.489	0.0162196
615.567	0.0162086
615.646	0.0162064
615.724	0.0161222
615.802	0.0162148
615.880	0.0161984
615.958	0.0162268
616.036	0.0161621
616.114	0.0160765
616.192	0.0160458
616.271	0.0161944
616.349	0.0161570
616.427	0.0161855
616.505	0.0161325
616.583	0.0161614
616.661	0.0161093
616.739	0.0161905
616.817	0.0160592
616.896	0.0161098
616.974	0.0163020
617.052	0.0160656
617.130	0.0161008
617.208	0.0161981
617.286	0.0161016
617.364	0.0161021
617.442	0.0161825
617.521	0.0161681
617.599	0.0160578
617.677	0.0160207
617.755	0.0160816
617.833	0.0161585
617.911	0.0162019
617.989	0.0160543
618.067	0.0161398
618.146	0.0161168
618.224	0.0160658
618.302	0.0161633
618.380	0.0160143
618.458	0.0160471
618.536	0.0161462
618.614	0.0162412
618.692	0.0161313
618.771	0.0161629
618.849	0.0161328
618.927	0.0161226
619.005	0.0161446
619.083	0.0162263
619.161	0.0162203
619.239	0.0162028
619.317	0.0161848
619.396	0.0161348
619.474	0.0162006
619.552	0.0161549
619.630	0.0162117
619.708	0.0160586
619.786	0.0162119
619.864	0.0161994
619.942	0.0161621
620.021	0.0162450
620.099	0.0161861
620.177	0.0162386
620.255	0.0160913
620.333	0.0160343
620.411	0.0161724
620.489	0.0161366
620.567	0.0160062
620.646	0.0162420
620.724	0.0162243
620.802	0.0161114
620.880	0.0160937
620.958	0.0160812
621.036	0.0161638
621.114	0.0161844
621.192	0.0161987
621.271	0.0162312
621.349	0.0161801
621.427	0.0161132
621.505	0.0161826
621.583	0.0162344
621.661	0.0161309
621.739	0.0161922
621.817	0.0162297
621.896	0.0161497
621.974	0.0161721
622.052	0.0161797
622.130	0.0161248
622.208	0.0161816
622.286	0.0160834
622.364	0.0161028
622.442	0.0161156
622.521	0.0162378
622.599	0.0161543
622.677	0.0161118
622.755	0.0162196
622.833	0.0162346
622.911	0.0162063
622.989	0.0162206
623.067	0.0161589
623.146	0.0162646
623.224	0.0161127
623.302	0.0160989
623.380	0.0161530
623.458	0.0161125
623.536	0.0161987
623.614	0.0159375
623.692	0.0161552
623.771	0.0161696
623.849	0.0161316
623.927	0.0161577
624.005	0.0161202
624.083	0.0162475
624.161	0.0161582
624.239	0.0161910
624.317	0.0161660
624.396	0.0161056
624.474	0.0159995
624.552	0.0162891
624.630	0.0160956
624.708	0.0161317
624.786	0.0162588
624.864	0.0161925
624.942	0.0162185
625.021	0.0161706
625.099	0.0162352
625.177	0.0161165
625.255	0.0161513
625.333	0.0160615
625.411	0.0160696
625.489	0.0162136
625.567	0.0161522
625.646	0.0162067
625.724	0.0162282
625.802	0.0163235
625.880	0.0160544
625.958	0.0160821
626.036	0.0162233
626.114	0.0161839
626.192	0.0162188
626.271	0.0160942
626.349	0.0161512
626.427	0.0161996
626.505	0.0163264
626.583	0.0161478
626.661	0.0162621
626.739	0.0161761
626.817	0.0161641
626.896	0.0162673
626.974	0.0161098
627.052	0.0161678
627.130	0.0161144
627.208	0.0161516
627.286	0.0162073
627.364	0.0160793
627.442	0.0160737
627.521	0.0161076
627.599	0.0160996
627.677	0.0162417
627.755	0.0161954
627.833	0.0160627
627.911	0.0161140
627.989	0.0160506
628.067	0.0162595
628.146	0.0162244
628.224	0.0160843
628.302	0.0162120
628.380	0.0161983
628.458	0.0161072
628.536	0.0161443
628.614	0.0162228
628.692	0.0162402
628.771	0.0161079
628.849	0.0163036
628.927	0.0161184
629.005	0.0161960
629.083	0.0161531
629.161	0.0162245
629.239	0.0161253
629.317	0.0160780
629.396	0.0161931
629.474	0.0162594
629.552	0.0163557
629.630	0.0162488
629.708	0.0161548
629.786	0.0160500
629.864	0.0161551
629.942	0.0161862
630.021	0.0160926
630.099	0.0162029
630.177	0.0161161
630.255	0.0160634
630.333	0.0161481
630.411	0.0162000
630.489	0.0161494
630.567	0.0161817
630.646	0.0160468
630.724	0.0161115
630.802	0.0160960
630.880	0.0160664
630.958	0.0161292
631.036	0.0161301
631.114	0.0161652
631.192	0.0160634
631.271	0.0161718
631.349	0.0162494
631.427	0.0160524
631.505	0.0160938
631.583	0.0161473
631.661	0.0162086
631.739	0.0163010
631.817	0.0160865
631.896	0.0161037
631.974	0.0162064
632.052	0.0160638
632.130	0.0161826
632.208	0.0161701
632.286	0.0161793
632.364	0.0161346
632.442	0.0161198
632.521	0.0160757
632.599	0.0161664
632.677	0.0160361
632.755	0.0161050
632.833	0.0162823
632.911	0.0161346
632.989	0.0160793
633.067	0.0160296
633.146	0.0161536
633.224	0.0162437
633.302	0.0160518
633.380	0.0160639
633.458	0.0162005
633.536	0.0159938
633.614	0.0160193
633.692	0.0160930
633.771	0.0162126
633.849	0.0161768
633.927	0.0162086
634.005	0.0161987
634.083	0.0161566
634.161	0.0161954
634.239	0.0161781
634.317	0.0161419
634.396	0.0160883
634.474	0.0161064
634.552	0.0161233
634.630	0.0162898
634.708	0.0161388
634.786	0.0161610
634.864	0.0160494
634.942	0.0162138
635.021	0.0162569
635.099	0.0160781
635.177	0.0162214
635.255	0.0161393
635.333	0.0161514
635.411	0.0161071
635.489	0.0160725
635.567	0.0161913
635.646	0.0161880
635.724	0.0161453
635.802	0.0162358
635.880	0.0159899
635.958	0.0160516
636.036	0.0160666
636.114	0.0161562
636.192	0.0159163
636.271	0.0161884
636.349	0.0161217
636.427	0.0161633
636.505	0.0159869
636.583	0.0160782
636.661	0.0160835
636.739	0.0162112
636.817	0.0160726
636.896	0.0161211
636.974	0.0160388
637.052	0.0160692
637.130	0.0161330
637.208	0.0161531
637.286	0.0160609
637.364	0.0161277
637.442	0.0162514
637.521	0.0161284
637.599	0.0162214
637.677	0.0161309
637.755	0.0160894
637.833	0.0160591
637.911	0.0162020
637.989	0.0159955
638.067	0.0161999
638.146	0.0162764
638.224	0.0160717
638.302	0.0161543
638.380	0.0161998
638.458	0.0161056
638.536	0.0161694
638.614	0.0160472
638.692	0.0160625
638.771	0.0160938
638.849	0.0160789
638.927	0.0161511
639.005	0.0161230
639.083	0.0162010
639.161	0.0162251
639.239	0.0161728
639.317	0.0160657
639.396	0.0160078
639.474	0.0160464
639.552	0.0161180
639.630	0.0161533
639.708	0.0161151
639.786	0.0161877
639.864	0.0160567
639.942	0.0160987
640.021	0.0161042
640.099	0.0162467
640.177	0.0161293
640.255	0.0161674
640.333	0.0161737
640.411	0.0163240
640.489	0.0161466
640.567	0.0161149
640.646	0.0162005
640.724	0.0160759
640.802	0.0161932
640.880	0.0161933
640.958	0.0160245
641.036	0.0161095
641.114	0.0161587
641.192	0.0161651
641.271	0.0161632
641.349	0.0161834
641.427	0.0161254
641.505	0.0160973
641.583	0.0161373
641.661	0.0160696
641.739	0.0161337
641.817	0.0161407
641.896	0.0162172
641.974	0.0161460
642.052	0.0162196
642.130	0.0162814
642.208	0.0161542
642.286	0.0161127
642.364	0.0161953
642.442	0.0162579
642.521	0.0161964
642.599	0.0161765
642.677	0.0162208
642.755	0.0163178
642.833	0.0161961
642.911	0.0160601
642.989	0.0161439
643.067	0.0160107
643.146	0.0161678
643.224	0.0162167
643.302	0.0160644
643.380	0.0160533
643.458	0.0162656
643.536	0.0162267
643.614	0.0160818
643.692	0.0160746
643.771	0.0162378
643.849	0.0161231
643.927	0.0161077
644.005	0.0161391
644.083	0.0161335
644.161	0.0159995
644.239	0.0161418
644.317	0.0160966
644.396	0.0160558
644.474	0.0160913
644.552	0.0161037
644.630	0.0160652
644.708	0.0160069
644.786	0.0160177
644.864	0.0161406
644.942	0.0161167
645.021	0.0161148
645.099	0.0163371
645.177	0.0161971
645.255	0.0161111
645.333	0.0162316
645.411	0.0162556
645.489	0.0161275
645.567	0.0162197
645.646	0.0162514
645.724	0.0161967
645.802	0.0163420
645.880	0.0161626
645.958	0.0161504
646.036	0.0159509
646.114	0.0161987
646.192	0.0161539
646.271	0.0162041
646.349	0.0161871
646.427	0.0161442
646.505	0.0162189
646.583	0.0163102
646.661	0.0161272
646.739	0.0162135
646.817	0.0161798
646.896	0.0161897
646.974	0.0161954
647.052	0.0160726
647.130	0.0160606
647.208	0.0162033
647.286	0.0161735
647.364	0.0161402
647.442	0.0160207
647.521	0.0161500
647.599	0.0160631
647.677	0.0160416
647.755	0.0161416
647.833	0.0161446
647.911	0.0161233
647.989	0.0160734
648.067	0.0160402
648.146	0.0161799
648.224	0.0161507
648.302	0.0161600
648.380	0.0161486
648.458	0.0161297
648.536	0.0161161
648.614	0.0161345
648.692	0.0161275
648.771	0.0161330
648.849	0.0160805
648.927	0.0161320
649.005	0.0161607
649.083	0.0161710
649.161	0.0161274
649.239	0.0160875
649.317	0.0161399
649.396	0.0161616
649.474	0.0159861
649.552	0.0160757
649.630	0.0161447
649.708	0.0161094
649.786	0.0160882
649.864	0.0161477
649.942	0.0162407
650.021	0.0161657
650.099	0.0161624
650.177	0.0161823
650.255	0.0163249
650.333	0.0162296
650.411	0.0161768
650.489	0.0161811
650.567	0.0161772
650.646	0.0162944
650.724	0.0162572
650.802	0.0161670
650.880	0.0163119
650.958	0.0162501
651.036	0.0162438
651.114	0.0162125
651.192	0.0162347
651.271	0.0161470
651.349	0.0162853
651.427	0.0161539
651.505	0.0162674
651.583	0.0162279
651.661	0.0162232
651.739	0.0162561
651.817	0.0160786
651.896	0.0160416
651.974	0.0161653
652.052	0.0160568
652.130	0.0161655
652.208	0.0161890
652.286	0.0160944
652.364	0.0160467
652.442	0.0161584
652.521	0.0161276
652.599	0.0160324
652.677	0.0161124
652.755	0.0160622
652.833	0.0161047
652.911	0.0160707
652.989	0.0160766
653.067	0.0159827
653.146	0.0161824
653.224	0.0160715
653.302	0.0162404
653.380	0.0160995
653.458	0.0161308
653.536	0.0162038
653.614	0.0160923
653.692	0.0163758
653.771	0.0162338
653.849	0.0161391
653.927	0.0160808
654.005	0.0161272
654.083	0.0161156
654.161	0.0161732
654.239	0.0160976
654.317	0.0161640
654.396	0.0161285
654.474	0.0160639
654.552	0.0161621
654.630	0.0160893
654.708	0.0161060
654.786	0.0160076
654.864	0.0161488
654.942	0.0161790
655.021	0.0161065
655.099	0.0160255
655.177	0.0161603
655.255	0.0161055
655.333	0.0160763
655.411	0.0160445
655.489	0.0162351
655.567	0.0160357
655.646	0.0162937
655.724	0.0162080
655.802	0.0161645
655.880	0.0162700
655.958	0.0160922
656.036	0.0162473
656.114	0.0161330
656.192	0.0160689
656.271	0.0162854
656.349	0.0159933
656.427	0.0161783
656.505	0.0161087
656.583	0.0161040
656.661	0.0160523
656.739	0.0161340
656.817	0.0161477
656.896	0.0160914
656.974	0.0161986
657.052	0.0160852
657.130	0.0162473
657.208	0.0162090
657.286	0.0160744
657.364	0.0161280
657.442	0.0161581
657.521	0.0161191
657.599	0.0161325
657.677	0.0161490
657.755	0.0161019
657.833	0.0160854
657.911	0.0161493
657.989	0.0160729
658.067	0.0160928
658.146	0.0161059
658.224	0.0161243
658.302	0.0161251
658.380	0.0161015
658.458	0.0161498
658.536	0.0160123
658.614	0.0160265
658.692	0.0161204
658.771	0.0161526
658.849	0.0160014
658.927	0.0161224
659.005	0.0162238
659.083	0.0161372
659.161	0.0161871
659.239	0.0162231
659.317	0.0160483
659.396	0.0161896
659.474	0.0161592
659.552	0.0160453
659.630	0.0160199
659.708	0.0160163
659.786	0.0159599
659.864	0.0162637
659.942	0.0161543
660.021	0.0161610
660.099	0.0159944
660.177	0.0161280
660.255	0.0160342
660.333	0.0160783
660.411	0.0160749
660.489	0.0161762
660.567	0.0161795
660.646	0.0162240
660.724	0.0162505
660.802	0.0160359
660.880	0.0161451
660.958	0.0161384
661.036	0.0162038
661.114	0.0161120
661.192	0.0160561
661.271	0.0161961
661.349	0.0162802
661.427	0.0161006
661.505	0.0161922
661.583	0.0161538
661.661	0.0161752
661.739	0.0162585
661.817	0.0162114
661.896	0.0160945
661.974	0.0162613
662.052	0.0161386
662.130	0.0159978
662.208	0.0160950
662.286	0.0160904
662.364	0.0162237
662.442	0.0160910
662.521	0.0161618
662.599	0.0160889
662.677	0.0161668
662.755	0.0160664
662.833	0.0162048
662.911	0.0162658
662.989	0.0160609
663.067	0.0162545
663.146	0.0160828
663.224	0.0161436
663.302	0.0160724
663.380	0.0161338
663.458	0.0161209
663.536	0.0161194
663.614	0.0161653
663.692	0.0161034
663.771	0.0160538
663.849	0.0161136
663.927	0.0160618
664.005	0.0162196
664.083	0.0162919
664.161	0.0162395
664.239	0.0161105
664.317	0.0160682
664.396	0.0162209
664.474	0.0160387
664.552	0.0162246
664.630	0.0160429
664.708	0.0161108
664.786	0.0161784
664.864	0.0160286
664.942	0.0159805
665.021	0.0160963
665.099	0.0162138
665.177	0.0161883
665.255	0.0160075
665.333	0.0161977
665.411	0.0161243
665.489	0.0160884
665.567	0.0162399
665.646	0.0161050
665.724	0.0161335
665.802	0.0160735
665.880	0.0161157
665.958	0.0161466
666.036	0.0161891
666.114	0.0160022
666.192	0.0160704
666.271	0.0160941
666.349	0.0162085
666.427	0.0162291
666.505	0.0162652
666.583	0.0161079
666.661	0.0161212
666.739	0.0160832
666.817	0.0162036
666.896	0.0161062
666.974	0.0161394
667.052	0.0162901
667.130	0.0160963
667.208	0.0160456
667.286	0.0161810
667.364	0.0161990
667.442	0.0161914
667.521	0.0161634
667.599	0.0160995
667.677	0.0161031
667.755	0.0162009
667.833	0.0161413
667.911	0.0162280
667.989	0.0160313
668.067	0.0162433
668.146	0.0160194
668.224	0.0162518
668.302	0.0161862
668.380	0.0161163
668.458	0.0162553
668.536	0.0160738
668.614	0.0161514
668.692	0.0161722
668.771	0.0161238
668.849	0.0162025
668.927	0.0160968
669.005	0.0160242
669.083	0.0162083
669.161	0.0161359
669.239	0.0161626
669.317	0.0161903
669.396	0.0161893
669.474	0.0161871
669.552	0.0160804
669.630	0.0160745
669.708	0.0162530
669.786	0.0163032
669.864	0.0159807
669.942	0.0160766
670.021	0.0161876
670.099	0.0162851
670.177	0.0159915
670.255	0.0161689
670.333	0.0162106
670.411	0.0161506
670.489	0.0162673
670.567	0.0162234
670.646	0.0160684
670.724	0.0160870
670.802	0.0161702
670.880	0.0161619
670.958	0.0161697
671.036	0.0161193
671.114	0.0161784
671.192	0.0162269
671.271	0.0161815
671.349	0.0160469
671.427	0.0161452
671.505	0.0162588
671.583	0.0161653
671.661	0.0160914
671.739	0.0161494
671.817	0.0160939
671.896	0.0161939
671.974	0.0162099
672.052	0.0161566
672.130	0.0161942
672.208	0.0162547
672.286	0.0161847
672.364	0.0162008
672.442	0.0160765
672.521	0.0161381
672.599	0.0162389
672.677	0.0161692
672.755	0.0161699
672.833	0.0161234
672.911	0.0160806
672.989	0.0162468
673.067	0.0160336
673.146	0.0162534
673.224	0.0162169
673.302	0.0161893
673.380	0.0161004
673.458	0.0161065
673.536	0.0162233
673.614	0.0160610
673.692	0.0161449
673.771	0.0161239
673.849	0.0160893
673.927	0.0160866
674.005	0.0162048
674.083	0.0161520
674.161	0.0161763
674.239	0.0160515
674.317	0.0160710
674.396	0.0161539
674.474	0.0161375
674.552	0.0160755
674.630	0.0161259
674.708	0.0161794
674.786	0.0161017
674.864	0.0161964
674.942	0.0161030
675.021	0.0160534
675.099	0.0162549
675.177	0.0161062
675.255	0.0161092
675.333	0.0160362
675.411	0.0162865
675.489	0.0161950
675.567	0.0161043
675.646	0.0161369
675.724	0.0161374
675.802	0.0161651
675.880	0.0161885
675.958	0.0161798
676.036	0.0160577
676.114	0.0160741
676.192	0.0161011
676.271	0.0161231
676.349	0.0160909
676.427	0.0161429
676.505	0.0160780
676.583	0.0161784
676.661	0.0161428
676.739	0.0161353
676.817	0.0160922
676.896	0.0160951
676.974	0.0158986
677.052	0.0161075
677.130	0.0162217
677.208	0.0161304
677.286	0.0161238
677.364	0.0161848
677.442	0.0161948
677.521	0.0161245
677.599	0.0161986
677.677	0.0160957
677.755	0.0160159
677.833	0.0161203
677.911	0.0161394
677.989	0.0161294
678.067	0.0163592
678.146	0.0162132
678.224	0.0161566
678.302	0.0162583
678.380	0.0161411
678.458	0.0163379
678.536	0.0162653
678.614	0.0162890
678.692	0.0162524
678.771	0.0161916
678.849	0.0161562
678.927	0.0161123
679.005	0.0161855
679.083	0.0161555
679.161	0.0162494
679.239	0.0161860
679.317	0.0161346
679.396	0.0163054
679.474	0.0163091
679.552	0.0162568
679.630	0.0161343
679.708	0.0161716
679.786	0.0163030
679.864	0.0162099
679.942	0.0160941
680.021	0.0160373
680.099	0.0161179
680.177	0.0159651
680.255	0.0160215
680.333	0.0159116
680.411	0.0160135
680.489	0.0161744
680.567	0.0161034
680.646	0.0161852
680.724	0.0162605
680.802	0.0164006
680.880	0.0163741
680.958	0.0163694
681.036	0.0164690
681.114	0.0164786
681.192	0.0163127
681.271	0.0163194
681.349	0.0162222
681.427	0.0161419
681.505	0.0160614
681.583	0.0159010
681.661	0.0158508
681.739	0.0158182
681.817	0.0158486
681.896	0.0157391
681.974	0.0158141
682.052	0.0158801
682.130	0.0158929
682.208	0.0161436
682.286	0.0165054
682.364	0.0165599
682.442	0.0167603
682.521	0.0168665
682.599	0.0168864
682.677	0.0168091
682.755	0.0165950
682.833	0.0165279
682.911	0.0162639
682.989	0.0159458
683.067	0.0157968
683.146	0.0156308
683.224	0.0153578
683.302	0.0154519
683.380	0.0152818
683.458	0.0154514
683.536	0.0156104
683.614	0.0158234
683.692	0.0161733
683.771	0.0163952
683.849	0.0166908
683.927	0.0168671
684.005	0.0169328
684.083	0.0170132
684.161	0.0168951
684.239	0.0167186
684.317	0.0166614
684.396	0.0162325
684.474	0.0158556
684.552	0.0157029
684.630	0.0153416
684.708	0.0154893
684.786	0.0153117
684.864	0.0153793
684.942	0.0155100
685.021	0.0155849
685.099	0.0158670
685.177	0.0158804
685.255	0.0160558
685.333	0.0162183
685.411	0.0164612
685.489	0.0167515
685.567	0.0167490
685.646	0.0167384
685.724	0.0169453
685.802	0.0167357
685.880	0.0166506
685.958	0.0163755
686.036	0.0162975
686.114	0.0161012
686.192	0.0158484
686.271	0.0155549
686.349	0.0156986
686.427	0.0155458
686.505	0.0155811
686.583	0.0155214
686.661	0.0157048
686.739	0.0157703
686.817	0.0160738
686.896	0.0162554
686.974	0.0164220
687.052	0.0164579
687.130	0.0164965
687.208	0.0166912
687.286	0.0166352
687.364	0.0165250
687.442	0.0165150
687.521	0.0161957
687.599	0.0161153
687.677	0.0159467
687.755	0.0159576
687.833	0.0159133
687.911	0.0157634
687.989	0.0158082
688.067	0.0158678
688.146	0.0158901
688.224	0.0160182
688.302	0.0160127
688.380	0.0161373
688.458	0.0162089
688.536	0.0161737
688.614	0.0160813
688.692	0.0159840
688.771	0.0160876
688.849	0.0161532
688.927	0.0160710
689.005	0.0160040
689.083	0.0160738
689.161	0.0161082
689.239	0.0160891
689.317	0.0162287
689.396	0.0164770
689.474	0.0163023
689.552	0.0162065
689.630	0.0162439
689.708	0.0162197
689.786	0.0163054
689.864	0.0161321
689.942	0.0160435
690.021	0.0158759
690.099	0.0156509
690.177	0.0157329
690.255	0.0156346
690.333	0.0156702
690.411	0.0158739
690.489	0.0160834
690.567	0.0161417
690.646	0.0162092
690.724	0.0163086
690.802	0.0164946
690.880	0.0165500
690.958	0.0165932
691.036	0.0164799
691.114	0.0164988
691.192	0.0164619
691.271	0.0162808
691.349	0.0161588
691.427	0.0158080
691.505	0.0158318
691.583	0.0157531
691.661	0.0158238
691.739	0.0157345
691.817	0.0158966
691.896	0.0159337
691.974	0.0160738
692.052	0.0160297
692.130	0.0161889
692.208	0.0161777
692.286	0.0162974
692.364	0.0163215
692.442	0.0163882
692.521	0.0162577
692.599	0.0162126
692.677	0.0161262
692.755	0.0160939
692.833	0.0159229
692.911	0.0158578
692.989	0.0158646
693.067	0.0158050
693.146	0.0156954
693.224	0.0159209
693.302	0.0158849
693.380	0.0158081
693.458	0.0159576
693.536	0.0161607
693.614	0.0161766
693.692	0.0162347
693.771	0.0163246
693.849	0.0162490
693.927	0.0162225
694.005	0.0162212
694.083	0.0162460
694.161	0.0162176
694.239	0.0162966
694.317	0.0161707
694.396	0.0163251
694.474	0.0161485
694.552	0.0162023
694.630	0.0162867
694.708	0.0161999
694.786	0.0162962
694.864	0.0164059
694.942	0.0164918
695.021	0.0163008
695.099	0.0163011
695.177	0.0161723
695.255	0.0163135
695.333	0.0161248
695.411	0.0160409
695.489	0.0160445
695.567	0.0161428
695.646	0.0160931
695.724	0.0161457
695.802	0.0160117
695.880	0.0159586
695.958	0.0161180
696.036	0.0160313
696.114	0.0160781
696.192	0.0161421
696.271	0.0160732
696.349	0.0161863
696.427	0.0161871
696.505	0.0159895
696.583	0.0160619
696.661	0.0159261
696.739	0.0157868
696.817	0.0160739
696.896	0.0160324
696.974	0.0158268
697.052	0.0157925
697.130	0.0160416
697.208	0.0160861
697.286	0.0160588
697.364	0.0162683
697.442	0.0162501
697.521	0.0164011
697.599	0.0164584
697.677	0.0167019
697.755	0.0166024
697.833	0.0164478
697.911	0.0166064
697.989	0.0166212
698.067	0.0165398
698.146	0.0162784
698.224	0.0161734
698.302	0.0161016
698.380	0.0161089
698.458	0.0160726
698.536	0.0160062
698.614	0.0160629
698.692	0.0161075
698.771	0.0162325
698.849	0.0161292
698.927	0.0163274
699.005	0.0165207
699.083	0.0165083
699.161	0.0166695
699.239	0.0166644
699.317	0.0166187
699.396	0.0167123
699.474	0.0165226
699.552	0.0165017
699.630	0.0164143
699.708	0.0161553
699.786	0.0162592
699.864	0.0161210
699.942	0.0159473
700.021	0.0159335
700.099	0.0158986
700.177	0.0157726
700.255	0.0159325
700.333	0.0158229
700.411	0.0157774
700.489	0.0156339
700.567	0.0158158
700.646	0.0158228
700.724	0.0158182
700.802	0.0156921
700.880	0.0157571
700.958	0.0157296
701.036	0.0155622
701.114	0.0155317
701.192	0.0154910
701.271	0.0153714
701.349	0.0154700
701.427	0.0154577
701.505	0.0155694
701.583	0.0156866
701.661	0.0156977
701.739	0.0159765
701.817	0.0160701
701.896	0.0161358
701.974	0.0162910
702.052	0.0163227
702.130	0.0164919
702.208	0.0166815
702.286	0.0169049
702.364	0.0169822
702.442	0.0168591
702.521	0.0169906
702.599	0.0171044
702.677	0.0169069
702.755	0.0170005
702.833	0.0169830
702.911	0.0168591
702.989	0.0167422
703.067	0.0166084
703.146	0.0166129
703.224	0.0165257
703.302	0.0164335
703.380	0.0164986
703.458	0.0165007
703.536	0.0163569
703.614	0.0164575
703.692	0.0162945
703.771	0.0163226
703.849	0.0162139
703.927	0.0162336
704.005	0.0158961
704.083	0.0159772
704.161	0.0159660
704.239	0.0158793
704.317	0.0156390
704.396	0.0157320
704.474	0.0155488
704.552	0.0155680
704.630	0.0155156
704.708	0.0154826
704.786	0.0154955
704.864	0.0155365
704.942	0.0155216
705.021	0.0155725
705.099	0.0155676
705.177	0.0154972
705.255	0.0155779
705.333	0.0156898
705.411	0.0159708
705.489	0.0160358
705.567	0.0162898
705.646	0.0165463
705.724	0.0167883
705.802	0.0169158
705.880	0.0169644
705.958	0.0171748
706.036	0.0171048
706.114	0.0171188
706.192	0.0169338
706.271	0.0168787
706.349	0.0165615
706.427	0.0162302
706.505	0.0156270
706.583	0.0151748
706.661	0.0149683
706.739	0.0145781
706.817	0.0141153
706.896	0.0138427
706.974	0.0135888
707.052	0.0134867
707.130	0.0134023
707.208	0.0136460
707.286	0.0138715
707.364	0.0141994
707.442	0.0146559
707.521	0.0149917
707.599	0.0155909
707.677	0.0160478
707.755	0.0165202
707.833	0.0170300
707.911	0.0176127
707.989	0.0181776
708.067	0.0184267
708.146	0.0188522
708.224	0.0192302
708.302	0.0193777
708.380	0.0195016
708.458	0.0194222
708.536	0.0194617
708.614	0.0194443
708.692	0.0192841
708.771	0.0187251
708.849	0.0184158
708.927	0.0180032
709.005	0.0176385
709.083	0.0173407
709.161	0.0169452
709.239	0.0167686
709.317	0.0163293
709.396	0.0159653
709.474	0.0159419
709.552	0.0156665
709.630	0.0156199
709.708	0.0155213
709.786	0.0150436
709.864	0.0147490
709.942	0.0146983
710.021	0.0145567
710.099	0.0143663
710.177	0.0141279
710.255	0.0140504
710.333	0.0138950
710.411	0.0138315
710.489	0.0138706
710.567	0.0138441
710.646	0.0139413
710.724	0.0139378
710.802	0.0140587
710.880	0.0142550
710.958	0.0144946
711.036	0.0146387
711.114	0.0149696
711.192	0.0152052
711.271	0.0155553
711.349	0.0158141
711.427	0.0162634
711.505	0.0166518
711.583	0.0166984
711.661	0.0168974
711.739	0.0171639
711.817	0.0171107
711.896	0.0170633
711.974	0.0168467
712.052	0.0168999
712.130	0.0165480
712.208	0.0162440
712.286	0.0157759
712.364	0.0153832
712.442	0.0150803
712.521	0.0149479
712.599	0.0146200
712.677	0.0144735
712.755	0.0143739
712.833	0.0140979
712.911	0.0141270
712.989	0.0143146
713.067	0.0145229
713.146	0.0146752
713.224	0.0152518
713.302	0.0155354
713.380	0.0160191
713.458	0.0165871
713.536	0.0172461
713.614	0.0180009
713.692	0.0186798
713.771	0.0194531
713.849	0.0199910
713.927	0.0206776
714.005	0.0211762
714.083	0.0214661
714.161	0.0216943
714.239	0.0216708
714.317	0.0215279
714.396	0.0213612
714.474	0.0208334
714.552	0.0202199
714.630	0.0198245
714.708	0.0191630
714.786	0.0185024
714.864	0.0178580
714.942	0.0170420
715.021	0.0165495
715.099	0.0160520
715.177	0.0152879
715.255	0.0149532
715.333	0.0143964
715.411	0.0138970
715.489	0.0136331
715.567	0.0130606
715.646	0.0127055
715.724	0.0122688
715.802	0.0119456
715.880	0.0117907
715.958	0.0115361
716.036	0.0114971
716.114	0.0112830
716.192	0.0112935
716.271	0.0112653
716.349	0.0114897
716.427	0.0115867
716.505	0.0118014
716.583	0.0123584
716.661	0.0130083
716.739	0.0131588
716.817	0.0139368
716.896	0.0147009
716.974	0.0153036
717.052	0.0162445
717.130	0.0170557
717.208	0.0176626
717.286	0.0183029
717.364	0.0188012
717.442	0.0192282
717.521	0.0196513
717.599	0.0199291
717.677	0.0196665
717.755	0.0191814
717.833	0.0188874
717.911	0.0185252
717.989	0.0176173
718.067	0.0168704
718.146	0.0161651
718.224	0.0152702
718.302	0.0146280
718.380	0.0139282
718.458	0.0135672
718.536	0.0132002
718.614	0.0128664
718.692	0.0129599
718.771	0.0129507
718.849	0.0133968
718.927	0.0138268
719.005	0.0142462
719.083	0.0149258
719.161	0.0156064
719.239	0.0165270
719.317	0.0172718
719.396	0.0180876
719.474	0.0188598
719.552	0.0197314
719.630	0.0206566
719.708	0.0211503
719.786	0.0218573
719.864	0.0223834
719.942	0.0227477
720.021	0.0228660
720.099	0.0228857
720.177	0.0227856
720.255	0.0223816
720.333	0.0222688
720.411	0.0217883
720.489	0.0212973
720.567	0.0207214
720.646	0.0199508
720.724	0.0191834
720.802	0.0185018
720.880	0.0176836
720.958	0.0167606
721.036	0.0160046
721.114	0.0154374
721.192	0.0146372
721.271	0.0141741
721.349	0.0133838
721.427	0.0127812
721.505	0.0122844
721.583	0.0117880
721.661	0.0112422
721.739	0.0110641
721.817	0.0108744
721.896	0.0104672
721.974	0.0104771
722.052	0.0104627
722.130	0.0106947
722.208	0.0108817
722.286	0.0110384
722.364	0.0112753
722.442	0.0117756
722.521	0.0122038
722.599	0.0126653
722.677	0.0129704
722.755	0.0134035
722.833	0.0136420
722.911	0.0138213
722.989	0.0137529
723.067	0.0136523
723.146	0.0133923
723.224	0.0127818
723.302	0.0122787
723.380	0.0118175
723.458	0.0113076
723.536	0.0107413
723.614	0.0102864
723.692	0.0101798
723.771	0.0101794
723.849	0.0106461
723.927	0.0112696
724.005	0.0122552
724.083	0.0135689
724.161	0.0149474
724.239	0.0166572
724.317	0.0183824
724.396	0.0202358
724.474	0.0221028
724.552	0.0239336
724.630	0.0253032
724.708	0.0265968
724.786	0.0277341
724.864	0.0287597
724.942	0.0291525
725.021	0.0293023
725.099	0.0292482
725.177	0.0289729
725.255	0.0285081
725.333	0.0278688
725.411	0.0269817
725.489	0.0260596
725.567	0.0248692
725.646	0.0237338
725.724	0.0225547
725.802	0.0212807
725.880	0.0199986
725.958	0.0187033
726.036	0.0174433
726.114	0.0162214
726.192	0.0150705
726.271	0.0140717
726.349	0.0131422
726.427	0.0121679
726.505	0.0113975
726.583	0.0108543
726.661	0.0103441
726.739	0.00981743
726.817	0.00936241
726.896	0.00903984
726.974	0.00879494
727.052	0.00875122
727.130	0.00854416
727.208	0.00875626
727.286	0.00886551
727.364	0.00890999
727.442	0.00920410
727.521	0.00968910
727.599	0.00997086
727.677	0.0103606
727.755	0.0108367
727.833	0.0110769
727.911	0.0114931
727.989	0.0119723
728.067	0.0120058
728.146	0.0120380
728.224	0.0121347
728.302	0.0119014
728.380	0.0114896
728.458	0.0113156
728.536	0.0111455
728.614	0.0109495
728.692	0.0108839
728.771	0.0108104
728.849	0.0111855
728.927	0.0118097
729.005	0.0125071
729.083	0.0136191
729.161	0.0147923
729.239	0.0160284
729.317	0.0177027
729.396	0.0191180
729.474	0.0205824
729.552	0.0221249
729.630	0.0232909
729.708	0.0243566
729.786	0.0250228
729.864	0.0256722
729.942	0.0262126
730.021	0.0265960
730.099	0.0265189
730.177	0.0263695
730.255	0.0261207
730.333	0.0257234
730.411	0.0253072
730.489	0.0246714
730.567	0.0239785
730.646	0.0232984
730.724	0.0225114
730.802	0.0216024
730.880	0.0206709
730.958	0.0196801
731.036	0.0188139
731.114	0.0179593
731.192	0.0172551
731.271	0.0163505
731.349	0.0157149
731.427	0.0149733
731.505	0.0143811
731.583	0.0140702
731.661	0.0137370
731.739	0.0133145
731.817	0.0129407
731.896	0.0128024
731.974	0.0125552
732.052	0.0123295
732.130	0.0121851
732.208	0.0120826
732.286	0.0119579
732.364	0.0117946
732.442	0.0118419
732.521	0.0119769
732.599	0.0118423
732.677	0.0118707
732.755	0.0119651
732.833	0.0119801
732.911	0.0120039
732.989	0.0119894
733.067	0.0121716
733.146	0.0119864
733.224	0.0118137
733.302	0.0116974
733.380	0.0116890
733.458	0.0112116
733.536	0.0109710
733.614	0.0109682
733.692	0.0107829
733.771	0.0107467
733.849	0.0110383
733.927	0.0111927
734.005	0.0117472
734.083	0.0125555
734.161	0.0136114
734.239	0.0145456
734.317	0.0156877
734.396	0.0167979
734.474	0.0180718
734.552	0.0192772
734.630	0.0203477
734.708	0.0214043
734.786	0.0222581
734.864	0.0226479
734.942	0.0229940
735.021	0.0234087
735.099	0.0234019
735.177	0.0232605
735.255	0.0232381
735.333	0.0231121
735.411	0.0226321
735.489	0.0222498
735.567	0.0219785
735.646	0.0214719
735.724	0.0207337
735.802	0.0202632
735.880	0.0195842
735.958	0.0189011
736.036	0.0180827
736.114	0.0173317
736.192	0.0167905
736.271	0.0161779
736.349	0.0156048
736.427	0.0149828
736.505	0.0146146
736.583	0.0142941
736.661	0.0140150
736.739	0.0138438
736.817	0.0139300
736.896	0.0138930
736.974	0.0138916
737.052	0.0140694
737.130	0.0142000
737.208	0.0143887
737.286	0.0146231
737.364	0.0148328
737.442	0.0149362
737.521	0.0148439
737.599	0.0150909
737.677	0.0149664
737.755	0.0149738
737.833	0.0148811
737.911	0.0147048
737.989	0.0145116
738.067	0.0143316
738.146	0.0140405
738.224	0.0138395
738.302	0.0133744
738.380	0.0132140
738.458	0.0129595
738.536	0.0128185
738.614	0.0125145
738.692	0.0122601
738.771	0.0122994
738.849	0.0122060
738.927	0.0123798
739.005	0.0127420
739.083	0.0128622
739.161	0.0133071
739.239	0.0137334
739.317	0.0145969
739.396	0.0150425
739.474	0.0158869
739.552	0.0166650
739.630	0.0174138
739.708	0.0180039
739.786	0.0187701
739.864	0.0193280
739.942	0.0200635
740.021	0.0204690
740.099	0.0209285
740.177	0.0212836
740.255	0.0216487
740.333	0.0217398
740.411	0.0217794
740.489	0.0217323
740.567	0.0214792
740.646	0.0213426
740.724	0.0209825
740.802	0.0205683
740.880	0.0201909
740.958	0.0197090
741.036	0.0190273
741.114	0.0184978
741.192	0.0178722
741.271	0.0171033
741.349	0.0166287
741.427	0.0160387
741.505	0.0155406
741.583	0.0150464
741.661	0.0146175
741.739	0.0140263
741.817	0.0137185
741.896	0.0135346
741.974	0.0133355
742.052	0.0131828
742.130	0.0129250
742.208	0.0129454
742.286	0.0128094
742.364	0.0129075
742.442	0.0130064
742.521	0.0130051
742.599	0.0131095
742.677	0.0132696
742.755	0.0132615
742.833	0.0136636
742.911	0.0139022
742.989	0.0141408
743.067	0.0144725
743.146	0.0144477
743.224	0.0146623
743.302	0.0147624
743.380	0.0149120
743.458	0.0150433
743.536	0.0151320
743.614	0.0151382
743.692	0.0151768
743.771	0.0151842
743.849	0.0151315
743.927	0.0151532
744.005	0.0152150
744.083	0.0155274
744.161	0.0156654
744.239	0.0159111
744.317	0.0160045
744.396	0.0163988
744.474	0.0168081
744.552	0.0168926
744.630	0.0171731
744.708	0.0175426
744.786	0.0177600
744.864	0.0179836
744.942	0.0183335
745.021	0.0183267
745.099	0.0185197
745.177	0.0186620
745.255	0.0188206
745.333	0.0188952
745.411	0.0187958
745.489	0.0187551
745.567	0.0188508
745.646	0.0187890
745.724	0.0184192
745.802	0.0184068
745.880	0.0181876
745.958	0.0178936
746.036	0.0176620
746.114	0.0172654
746.192	0.0171092
746.271	0.0169688
746.349	0.0165447
746.427	0.0162359
746.505	0.0158499
746.583	0.0157952
746.661	0.0156045
746.739	0.0156009
746.817	0.0154824
746.896	0.0151933
746.974	0.0151762
747.052	0.0150941
747.130	0.0149014
747.208	0.0148569
747.286	0.0147938
747.364	0.0146211
747.442	0.0145538
747.521	0.0144201
747.599	0.0142617
747.677	0.0143166
747.755	0.0143837
747.833	0.0143900
747.911	0.0145840
747.989	0.0146263
748.067	0.0148909
748.146	0.0150913
748.224	0.0154042
748.302	0.0157252
748.380	0.0158182
748.458	0.0159381
748.536	0.0161627
748.614	0.0162515
748.692	0.0163013
748.771	0.0163831
748.849	0.0162588
748.927	0.0160632
749.005	0.0161330
749.083	0.0161496
749.161	0.0160341
749.239	0.0158200
749.317	0.0159357
749.396	0.0157835
749.474	0.0156464
749.552	0.0156723
749.630	0.0157104
749.708	0.0155738
749.786	0.0155256
749.864	0.0156779
749.942	0.0157124
750.021	0.0158575
750.099	0.0159113
750.177	0.0157844
750.255	0.0159233
750.333	0.0161781
750.411	0.0161073
750.489	0.0161750
750.567	0.0161769
750.646	0.0162762
750.724	0.0162342
750.802	0.0164099
750.880	0.0164565
750.958	0.0164687
751.036	0.0165112
751.114	0.0163857
751.192	0.0163915
751.271	0.0166384
751.349	0.0164969
751.427	0.0166105
751.505	0.0166666
751.583	0.0166411
751.661	0.0167228
751.739	0.0167839
751.817	0.0169610
751.896	0.0168527
751.974	0.0169553
752.052	0.0170970
752.130	0.0169860
752.208	0.0169864
752.286	0.0172298
752.364	0.0172807
752.442	0.0170696
752.521	0.0170895
752.599	0.0168476
752.677	0.0169765
752.755	0.0167410
752.833	0.0163986
752.911	0.0164325
752.989	0.0162556
753.067	0.0158543
753.146	0.0157767
753.224	0.0155375
753.302	0.0154333
753.380	0.0152096
753.458	0.0151024
753.536	0.0151469
753.614	0.0150652
753.692	0.0152325
753.771	0.0153546
753.849	0.0152666
753.927	0.0156169
754.005	0.0157794
754.083	0.0157612
754.161	0.0159747
754.239	0.0161092
754.317	0.0161784
754.396	0.0163877
754.474	0.0163606
754.552	0.0165046
754.630	0.0165054
754.708	0.0163331
754.786	0.0161472
754.864	0.0161530
754.942	0.0160788
755.021	0.0158965
755.099	0.0157670
755.177	0.0158768
755.255	0.0157351
755.333	0.0157190
755.411	0.0156606
755.489	0.0156438
755.567	0.0158165
755.646	0.0157639
755.724	0.0156806
755.802	0.0158430
755.880	0.0158832
755.958	0.0159953
756.036	0.0159199
756.114	0.0159094
756.192	0.0158791
756.271	0.0160329
756.349	0.0159669
756.427	0.0161862
756.505	0.0160512
756.583	0.0160540
756.661	0.0161379
756.739	0.0161650
756.817	0.0162198
756.896	0.0161031
756.974	0.0162365
757.052	0.0163964
757.130	0.0162211
757.208	0.0162639
757.286	0.0165576
757.364	0.0165500
757.442	0.0165470
757.521	0.0167202
757.599	0.0167048
757.677	0.0166800
757.755	0.0167596
757.833	0.0167994
757.911	0.0166600
757.989	0.0165694
758.067	0.0162348
758.146	0.0162694
758.224	0.0160322
758.302	0.0158064
758.380	0.0156194
758.458	0.0154912
758.536	0.0154100
758.614	0.0154200
758.692	0.0152740
758.771	0.0151618
758.849	0.0152780
758.927	0.0153038
759.005	0.0155495
759.083	0.0156844
759.161	0.0159425
759.239	0.0160599
759.317	0.0160902
759.396	0.0164877
759.474	0.0164669
759.552	0.0165495
759.630	0.0167117
759.708	0.0167810
759.786	0.0167906
759.864	0.0170069
759.942	0.0167574
760.021	0.0167498
760.099	0.0166528
760.177	0.0165685
760.255	0.0166510
760.333	0.0164747
760.411	0.0165493
760.489	0.0164369
760.567	0.0163996
760.646	0.0163107
760.724	0.0163820
760.802	0.0162487
760.880	0.0162867
760.958	0.0164396
761.036	0.0163391
761.114	0.0162398
761.192	0.0163213
761.271	0.0162015
761.349	0.0163134
761.427	0.0161163
761.505	0.0160838
761.583	0.0160151
761.661	0.0161079
761.739	0.0161466
761.817	0.0159608
761.896	0.0159922
761.974	0.0158436
762.052	0.0159270
762.130	0.0159074
762.208	0.0159743
762.286	0.0159812
762.364	0.0159495
762.442	0.0159145
762.521	0.0158761
762.599	0.0159409
762.677	0.0159669
762.755	0.0160309
762.833	0.0159908
762.911	0.0158358
762.989	0.0158668
763.067	0.0159226
763.146	0.0159498
763.224	0.0159147
763.302	0.0158453
763.380	0.0158608
763.458	0.0158080
763.536	0.0158171
763.614	0.0157152
763.692	0.0156481
763.771	0.0157420
763.849	0.0156372
763.927	0.0156292
764.005	0.0157987
764.083	0.0158127
764.161	0.0159651
764.239	0.0159360
764.317	0.0160941
764.396	0.0162655
764.474	0.0166212
764.552	0.0166265
764.630	0.0167139
764.708	0.0168323
764.786	0.0169493
764.864	0.0169823
764.942	0.0168649
765.021	0.0168639
765.099	0.0167834
765.177	0.0166845
765.255	0.0166346
765.333	0.0164744
765.411	0.0162733
765.489	0.0162431
765.567	0.0160108
765.646	0.0159529
765.724	0.0159006
765.802	0.0156417
765.880	0.0156271
765.958	0.0156734
766.036	0.0154434
766.114	0.0156641
766.192	0.0157266
766.271	0.0157194
766.349	0.0157391
766.427	0.0156902
766.505	0.0157572
766.583	0.0159305
766.661	0.0160442
766.739	0.0162114
766.817	0.0161329
766.896	0.0161050
766.974	0.0161018
767.052	0.0162633
767.130	0.0163155
767.208	0.0163184
767.286	0.0162730
767.364	0.0163138
767.442	0.0164371
767.521	0.0163040
767.599	0.0164005
767.677	0.0163215
767.755	0.0162640
767.833	0.0162437
767.911	0.0163081
767.989	0.0162248
768.067	0.0160538
768.146	0.0159467
768.224	0.0160248
768.302	0.0160721
768.380	0.0160423
768.458	0.0160333
768.536	0.0158717
768.614	0.0159497
768.692	0.0158036
768.771	0.0157877
768.849	0.0156210
768.927	0.0157246
769.005	0.0157445
769.083	0.0156136
769.161	0.0155154
769.239	0.0157459
769.317	0.0158866
769.396	0.0158520
769.474	0.0158817
769.552	0.0158312
769.630	0.0161220
769.708	0.0161990
769.786	0.0162543
769.864	0.0165244
769.942	0.0165971
770.021	0.0167519
770.099	0.0168755
770.177	0.0169994
770.255	0.0169806
770.333	0.0170615
770.411	0.0170415
770.489	0.0170199
770.567	0.0169341
770.646	0.0167375
770.724	0.0167439
770.802	0.0165323
770.880	0.0164227
770.958	0.0162826
771.036	0.0162332
771.114	0.0162003
771.192	0.0160985
771.271	0.0159586
771.349	0.0158372
771.427	0.0157265
771.505	0.0157587
771.583	0.0158396
771.661	0.0155988
771.739	0.0155318
771.817	0.0154231
771.896	0.0155729
771.974	0.0156493
772.052	0.0154247
772.130	0.0155087
772.208	0.0154912
772.286	0.0156028
772.364	0.0156019
772.442	0.0154620
772.521	0.0154917
772.599	0.0155914
772.677	0.0155801
772.755	0.0156571
772.833	0.0155379
772.911	0.0157458
772.989	0.0157117
773.067	0.0157376
773.146	0.0157665
773.224	0.0158215
773.302	0.0159135
773.380	0.0159842
773.458	0.0160081
773.536	0.0158437
773.614	0.0159071
773.692	0.0160365
773.771	0.0159988
773.849	0.0161452
773.927	0.0162547
774.005	0.0161218
774.083	0.0161194
774.161	0.0161784
774.239	0.0162291
774.317	0.0163353
774.396	0.0161860
774.474	0.0161797
774.552	0.0161041
774.630	0.0163210
774.708	0.0162521
774.786	0.0162495
774.864	0.0161378
774.942	0.0163698
775.021	0.0164012
775.099	0.0163302
775.177	0.0164619
775.255	0.0163687
775.333	0.0164623
775.411	0.0165013
775.489	0.0165102
775.567	0.0165253
775.646	0.0164507
775.724	0.0165730
775.802	0.0165266
775.880	0.0165055
775.958	0.0164524
776.036	0.0164463
776.114	0.0163898
776.192	0.0164704
776.271	0.0164658
776.349	0.0162907
776.427	0.0164812
776.505	0.0163691
776.583	0.0163343
776.661	0.0161985
776.739	0.0163735
776.817	0.0161878
776.896	0.0164046
776.974	0.0162835
777.052	0.0162651
777.130	0.0163371
777.208	0.0160375
777.286	0.0160509
777.364	0.0160830
777.442	0.0161680
777.521	0.0160109
777.599	0.0161285
777.677	0.0161011
777.755	0.0160047
777.833	0.0159903
777.911	0.0160073
777.989	0.0159378
778.067	0.0159408
778.146	0.0157347
778.224	0.0157999
778.302	0.0159022
778.380	0.0158488
778.458	0.0157336
778.536	0.0156243
778.614	0.0155524
778.692	0.0155816
778.771	0.0154774
778.849	0.0154246
778.927	0.0155575
779.005	0.0157214
779.083	0.0156758
779.161	0.0157120
779.239	0.0157565
779.317	0.0158610
779.396	0.0158356
779.474	0.0159415
779.552	0.0161196
779.630	0.0160154
779.708	0.0161756
779.786	0.0161436
779.864	0.0160653
779.942	0.0161787
780.021	0.0161361
780.099	0.0160520
780.177	0.0160517
780.255	0.0160791
780.333	0.0159792
780.411	0.0160811
780.489	0.0160868
780.567	0.0159759
780.646	0.0161401
780.724	0.0161188
780.802	0.0162297
780.880	0.0162044
780.958	0.0162666
781.036	0.0163634
781.114	0.0163538
781.192	0.0164566
781.271	0.0165312
781.349	0.0164423
781.427	0.0165952
781.505	0.0167101
781.583	0.0164484
781.661	0.0166798
781.739	0.0166778
781.817	0.0166821
781.896	0.0166624
781.974	0.0165269
782.052	0.0167709
782.130	0.0166991
782.208	0.0167135
782.286	0.0165766
782.364	0.0163876
782.442	0.0164449
782.521	0.0164942
782.599	0.0163473
782.677	0.0164253
782.755	0.0162724
782.833	0.0162477
782.911	0.0160397
782.989	0.0160883
783.067	0.0160731
783.146	0.0160618
783.224	0.0159982
783.302	0.0158412
783.380	0.0158151
783.458	0.0158753
783.536	0.0156997
783.614	0.0157824
783.692	0.0157870
783.771	0.0158190
783.849	0.0158159
783.927	0.0159338
784.005	0.0158588
784.083	0.0159952
784.161	0.0160904
784.239	0.0160205
784.317	0.0161370
784.396	0.0161885
784.474	0.0162968
784.552	0.0164754
784.630	0.0164539
784.708	0.0163385
784.786	0.0165811
784.864	0.0165831
784.942	0.0164123
785.021	0.0166741
785.099	0.0165565
785.177	0.0164793
785.255	0.0163614
785.333	0.0162785
785.411	0.0162722
785.489	0.0161413
785.567	0.0159167
785.646	0.0159292
785.724	0.0157565
785.802	0.0157024
785.880	0.0156698
785.958	0.0155710
786.036	0.0153714
786.114	0.0153661
786.192	0.0153407
786.271	0.0153130
786.349	0.0153313
786.427	0.0152545
786.505	0.0154131
786.583	0.0154198
786.661	0.0154775
786.739	0.0156141
786.817	0.0156197
786.896	0.0157724
786.974	0.0159517
787.052	0.0160589
787.130	0.0161211
787.208	0.0163922
787.286	0.0165464
787.364	0.0166061
787.442	0.0166700
787.521	0.0168560
787.599	0.0168633
787.677	0.0170085
787.755	0.0169271
787.833	0.0169671
787.911	0.0169415
787.989	0.0169596
788.067	0.0169179
788.146	0.0168037
788.224	0.0166991
788.302	0.0166292
788.380	0.0163904
788.458	0.0164252
788.536	0.0163508
788.614	0.0161865
788.692	0.0160849
788.771	0.0161132
788.849	0.0159355
788.927	0.0159528
789.005	0.0159578
789.083	0.0159098
789.161	0.0158264
789.239	0.0158196
789.317	0.0158286
789.396	0.0157881
789.474	0.0157284
789.552	0.0158811
789.630	0.0159284
789.708	0.0159926
789.786	0.0161015
789.864	0.0161564
789.942	0.0162894
790.021	0.0161283
790.099	0.0162230
790.177	0.0164188
790.255	0.0164554
790.333	0.0164770
790.411	0.0163863
790.489	0.0164572
790.567	0.0165318
790.646	0.0164668
790.724	0.0164890
790.802	0.0163309
790.880	0.0161654
790.958	0.0162038
791.036	0.0161990
791.114	0.0160942
791.192	0.0161222
791.271	0.0159855
791.349	0.0159479
791.427	0.0157128
791.505	0.0157668
791.583	0.0156071
791.661	0.0156226
791.739	0.0155958
791.817	0.0155663
791.896	0.0154823
791.974	0.0155545
792.052	0.0156760
792.130	0.0155958
792.208	0.0156499
792.286	0.0158707
792.364	0.0156977
792.442	0.0156779
792.521	0.0158723
792.599	0.0159953
792.677	0.0161942
792.755	0.0161777
792.833	0.0163123
792.911	0.0163931
792.989	0.0165813
793.067	0.0165895
793.146	0.0165436
793.224	0.0164973
793.302	0.0167329
793.380	0.0168286
793.458	0.0168233
793.536	0.0165886
793.614	0.0166847
793.692	0.0167107
793.771	0.0165578
793.849	0.0164731
793.927	0.0163213
794.005	0.0164156
794.083	0.0162665
794.161	0.0161514
794.239	0.0160426
794.317	0.0160636
794.396	0.0158361
794.474	0.0158956
794.552	0.0158315
794.630	0.0156714
794.708	0.0157421
794.786	0.0158038
794.864	0.0156928
794.942	0.0155836
795.021	0.0157283
795.099	0.0157059
795.177	0.0158752
795.255	0.0158409
795.333	0.0160332
795.411	0.0159778
795.489	0.0161297
795.567	0.0160820
795.646	0.0161953
795.724	0.0162458
795.802	0.0163409
795.880	0.0163919
795.958	0.0164156
796.036	0.0163429
796.114	0.0163074
796.192	0.0163444
796.271	0.0162352
796.349	0.0161557
796.427	0.0162553
796.505	0.0160403
796.583	0.0159954
796.661	0.0160231
796.739	0.0159962
796.817	0.0159703
796.896	0.0157024
796.974	0.0157897
797.052	0.0158935
797.130	0.0159292
797.208	0.0158606
797.286	0.0158974
797.364	0.0159872
797.442	0.0159399
797.521	0.0159286
797.599	0.0161385
797.677	0.0161153
797.755	0.0162521
797.833	0.0163915
797.911	0.0163196
797.989	0.0163586
798.067	0.0163592
798.146	0.0164669
798.224	0.0165146
798.302	0.0165994
798.380	0.0166329
798.458	0.0167043
798.536	0.0167034
798.614	0.0164622
798.692	0.0164389
798.771	0.0164423
798.849	0.0165210
798.927	0.0163511
799.005	0.0163815
799.083	0.0162932
799.161	0.0161852
799.239	0.0160232
799.317	0.0160226
799.396	0.0161103
799.474	0.0158870
799.552	0.0157948
799.630	0.0157738
799.708	0.0156744
799.786	0.0157777
799.864	0.0157301
799.942	0.0156600
800.021	0.0155563
800.099	0.0155646
800.177	0.0157520
800.255	0.0156782
800.333	0.0158876
800.411	0.0158711
800.489	0.0158612
800.567	0.0159895
800.646	0.0162120
800.724	0.0162530
800.802	0.0161518
800.880	0.0163000
800.958	0.0165241
801.036	0.0166077
801.114	0.0163950
801.192	0.0166189
801.271	0.0166734
801.349	0.0165971
801.427	0.0166014
801.505	0.0166163
801.583	0.0166355
801.661	0.0165093
801.739	0.0164365
801.817	0.0161258
801.896	0.0163503
801.974	0.0161097
802.052	0.0160598
802.130	0.0160712
802.208	0.0158839
802.286	0.0158581
802.364	0.0158009
802.442	0.0155466
802.521	0.0155696
802.599	0.0156809
802.677	0.0155267
802.755	0.0155293
802.833	0.0156178
802.911	0.0157291
802.989	0.0155791
803.067	0.0155611
803.146	0.0157699
803.224	0.0158469
803.302	0.0160462
803.380	0.0159325
803.458	0.0162165
803.536	0.0162840
803.614	0.0161830
803.692	0.0163710
803.771	0.0164130
803.849	0.0166144
803.927	0.0165778
804.005	0.0165355
804.083	0.0164886
804.161	0.0166073
804.239	0.0166794
804.317	0.0165051
804.396	0.0166505
804.474	0.0166279
804.552	0.0166270
804.630	0.0166332
804.708	0.0164643
804.786	0.0163258
804.864	0.0163969
804.942	0.0162949
805.021	0.0163233
805.099	0.0162972
805.177	0.0162838
805.255	0.0162367
805.333	0.0162388
805.411	0.0161709
805.489	0.0160856
805.567	0.0161121
805.646	0.0161829
805.724	0.0161744
805.802	0.0162206
805.880	0.0162601
805.958	0.0162743
806.036	0.0164238
806.114	0.0163894
806.192	0.0164310
806.271	0.0164123
806.349	0.0163752
806.427	0.0165157
806.505	0.0166470
806.583	0.0164187
806.661	0.0165199
806.739	0.0164774
806.817	0.0163757
806.896	0.0162861
806.974	0.0162488
807.052	0.0161385
807.130	0.0160180
807.208	0.0160060
807.286	0.0159173
807.364	0.0155726
807.442	0.0154404
807.521	0.0154279
807.599	0.0154085
807.677	0.0153357
807.755	0.0153205
807.833	0.0152754
807.911	0.0152589
807.989	0.0152377
808.067	0.0152364
808.146	0.0153178
808.224	0.0154084
808.302	0.0154304
808.380	0.0154655
808.458	0.0156612
808.536	0.0156599
808.614	0.0158114
808.692	0.0159650
808.771	0.0159306
808.849	0.0161285
808.927	0.0160753
809.005	0.0162181
809.083	0.0164922
809.161	0.0166314
809.239	0.0167831
809.317	0.0167835
809.396	0.0167303
809.474	0.0169875
809.552	0.0168498
809.630	0.0169476
809.708	0.0171282
809.786	0.0170575
809.864	0.0170323
809.942	0.0171013
810.021	0.0172138
810.099	0.0170230
810.177	0.0170432
810.255	0.0170376
810.333	0.0171268
810.411	0.0169257
810.489	0.0167510
810.567	0.0166978
810.646	0.0165018
810.724	0.0165254
810.802	0.0163148
810.880	0.0163181
810.958	0.0160034
811.036	0.0160993
811.114	0.0159948
811.192	0.0157618
811.271	0.0157683
811.349	0.0157655
811.427	0.0158170
811.505	0.0157834
811.583	0.0156473
811.661	0.0156083
811.739	0.0155934
811.817	0.0156210
811.896	0.0156642
811.974	0.0157891
812.052	0.0157614
812.130	0.0157766
812.208	0.0157201
812.286	0.0156653
812.364	0.0157275
812.442	0.0156947
812.521	0.0159044
812.599	0.0157004
812.677	0.0156867
812.755	0.0155797
812.833	0.0155975
812.911	0.0156334
812.989	0.0155220
813.067	0.0154730
813.146	0.0157253
813.224	0.0154903
813.302	0.0154256
813.380	0.0154800
813.458	0.0156033
813.536	0.0157621
813.614	0.0157713
813.692	0.0158122
813.771	0.0159857
813.849	0.0159631
813.927	0.0160835
814.005	0.0160995
814.083	0.0161473
814.161	0.0161628
814.239	0.0162116
814.317	0.0162623
814.396	0.0164151
814.474	0.0163564
814.552	0.0164121
814.630	0.0164850
814.708	0.0166123
814.786	0.0166264
814.864	0.0165231
814.942	0.0167204
815.021	0.0166799
815.099	0.0166936
815.177	0.0166473
815.255	0.0168709
815.333	0.0169225
815.411	0.0167398
815.489	0.0167231
815.567	0.0167738
815.646	0.0166218
815.724	0.0166891
815.802	0.0166342
815.880	0.0166286
815.958	0.0164137
816.036	0.0164403
816.114	0.0162698
816.192	0.0161668
816.271	0.0161269
816.349	0.0162231
816.427	0.0159897
816.505	0.0158769
816.583	0.0159701
816.661	0.0160313
816.739	0.0160155
816.817	0.0158527
816.896	0.0159600
816.974	0.0160266
817.052	0.0160549
817.130	0.0160483
817.208	0.0161169
817.286	0.0160754
817.364	0.0161732
817.442	0.0162892
817.521	0.0162943
817.599	0.0163552
817.677	0.0163078
817.755	0.0163920
817.833	0.0163788
817.911	0.0163657
817.989	0.0163672
818.067	0.0163445
818.146	0.0162325
818.224	0.0161724
818.302	0.0161443
818.380	0.0159839
818.458	0.0158452
818.536	0.0157841
818.614	0.0156940
818.692	0.0155671
818.771	0.0154367
818.849	0.0155151
818.927	0.0153207
819.005	0.0152351
819.083	0.0151758
819.161	0.0150152
819.239	0.0149406
819.317	0.0149342
819.396	0.0151068
819.474	0.0150448
819.552	0.0149020
819.630	0.0148857
819.708	0.0151139
819.786	0.0150659
819.864	0.0152149
819.942	0.0154264
820.021	0.0155293
820.099	0.0156107
820.177	0.0156911
820.255	0.0160632
820.333	0.0162025
820.411	0.0164908
820.489	0.0164864
820.567	0.0166909
820.646	0.0169707
820.724	0.0170278
820.802	0.0170371
820.880	0.0170811
820.958	0.0170470
821.036	0.0172987
821.114	0.0173367
821.192	0.0173511
821.271	0.0173076
821.349	0.0172265
821.427	0.0173116
821.505	0.0171550
821.583	0.0172588
821.661	0.0171816
821.739	0.0171483
821.817	0.0171085
821.896	0.0172230
821.974	0.0170658
822.052	0.0170641
822.130	0.0170891
822.208	0.0169189
822.286	0.0168832
822.364	0.0168198
822.442	0.0167400
822.521	0.0167829
822.599	0.0166506
822.677	0.0165780
822.755	0.0164825
822.833	0.0163895
822.911	0.0164035
822.989	0.0162121
823.067	0.0159583
823.146	0.0160074
823.224	0.0158994
823.302	0.0158167
823.380	0.0157330
823.458	0.0155299
823.536	0.0154472
823.614	0.0153588
823.692	0.0151968
823.771	0.0150218
823.849	0.0151583
823.927	0.0150055
824.005	0.0148997
824.083	0.0147371
824.161	0.0148183
824.239	0.0146828
824.317	0.0145333
824.396	0.0145229
824.474	0.0145722
824.552	0.0144991
824.630	0.0146058
824.708	0.0143240
824.786	0.0144968
824.864	0.0147118
824.942	0.0147798
825.021	0.0147534
825.099	0.0150483
825.177	0.0152621
825.255	0.0154284
825.333	0.0156960
825.411	0.0158964
825.489	0.0161575
825.567	0.0163559
825.646	0.0165944
825.724	0.0166333
825.802	0.0169410
825.880	0.0172166
825.958	0.0173100
826.036	0.0174776
826.114	0.0174467
826.192	0.0175404
826.271	0.0175389
826.349	0.0178223
826.427	0.0176424
826.505	0.0177769
826.583	0.0179455
826.661	0.0178447
826.739	0.0176729
826.817	0.0177283
826.896	0.0175625
826.974	0.0175153
827.052	0.0176065
827.130	0.0173802
827.208	0.0171674
827.286	0.0172081
827.364	0.0170535
827.442	0.0169071
827.521	0.0167465
827.599	0.0166701
827.677	0.0164885
827.755	0.0164899
827.833	0.0163785
827.911	0.0162641
827.989	0.0161182
828.067	0.0162299
828.146	0.0159773
828.224	0.0159900
828.302	0.0160231
828.380	0.0159698
828.458	0.0158337
828.536	0.0157088
828.614	0.0156022
828.692	0.0156814
828.771	0.0154848
828.849	0.0154041
828.927	0.0152609
829.005	0.0152176
829.083	0.0152682
829.161	0.0151332
829.239	0.0150343
829.317	0.0149705
829.396	0.0148647
829.474	0.0147130
829.552	0.0146549
829.630	0.0146915
829.708	0.0146301
829.786	0.0147551
829.864	0.0149056
829.942	0.0149847
830.021	0.0149563
830.099	0.0150404
830.177	0.0150723
830.255	0.0152582
830.333	0.0154576
830.411	0.0156786
830.489	0.0158483
830.567	0.0159573
830.646	0.0161530
830.724	0.0163567
830.802	0.0164554
830.880	0.0167340
830.958	0.0168294
831.036	0.0169295
831.114	0.0170093
831.192	0.0169233
831.271	0.0170715
831.349	0.0171622
831.427	0.0171893
831.505	0.0171794
831.583	0.0170835
831.661	0.0171729
831.739	0.0171909
831.817	0.0170928
831.896	0.0170666
831.974	0.0171605
832.052	0.0170084
832.130	0.0169885
832.208	0.0168145
832.286	0.0171330
832.364	0.0168677
832.442	0.0167638
832.521	0.0167509
832.599	0.0167827
832.677	0.0165978
832.755	0.0166879
832.833	0.0165422
832.911	0.0163488
832.989	0.0162244
833.067	0.0162441
833.146	0.0162148
833.224	0.0161512
833.302	0.0160982
833.380	0.0159827
833.458	0.0159350
833.536	0.0158076
833.614	0.0157961
833.692	0.0157063
833.771	0.0156131
833.849	0.0154368
833.927	0.0154833
834.005	0.0154818
834.083	0.0153796
834.161	0.0154353
834.239	0.0152126
834.317	0.0154624
834.396	0.0155804
834.474	0.0153779
834.552	0.0154340
834.630	0.0155768
834.708	0.0156243
834.786	0.0155431
834.864	0.0156254
834.942	0.0157504
835.021	0.0156741
835.099	0.0156306
835.177	0.0157591
835.255	0.0157182
835.333	0.0157683
835.411	0.0158230
835.489	0.0158281
835.567	0.0158238
835.646	0.0159310
835.724	0.0158475
835.802	0.0159515
835.880	0.0160598
835.958	0.0161736
836.036	0.0161474
836.114	0.0162194
836.192	0.0161092
836.271	0.0163269
836.349	0.0163347
836.427	0.0165138
836.505	0.0164572
836.583	0.0165903
836.661	0.0165221
836.739	0.0166797
836.817	0.0166798
836.896	0.0165793
836.974	0.0167802
837.052	0.0166556
837.130	0.0166839
837.208	0.0165925
837.286	0.0167414
837.364	0.0166855
837.442	0.0165549
837.521	0.0164688
837.599	0.0164194
837.677	0.0164182
837.755	0.0163804
837.833	0.0162165
837.911	0.0162926
837.989	0.0162894
838.067	0.0161480
838.146	0.0161330
838.224	0.0162321
838.302	0.0161074
838.380	0.0159412
838.458	0.0159333
838.536	0.0159967
838.614	0.0158769
838.692	0.0158119
838.771	0.0159605
838.849	0.0159261
838.927	0.0156694
839.005	0.0157515
839.083	0.0154926
839.161	0.0154333
839.239	0.0154883
839.317	0.0157428
839.396	0.0157145
839.474	0.0155507
839.552	0.0155973
839.630	0.0156224
839.708	0.0158232
839.786	0.0158633
839.864	0.0158183
839.942	0.0159498
840.021	0.0159318
840.099	0.0159748
840.177	0.0161220
840.255	0.0160972
840.333	0.0162560
840.411	0.0163067
840.489	0.0164984
840.567	0.0165443
840.646	0.0164291
840.724	0.0163818
840.802	0.0165287
840.880	0.0164865
840.958	0.0163950
841.036	0.0163900
841.114	0.0163382
841.192	0.0163565
841.271	0.0164335
841.349	0.0162366
841.427	0.0163483
841.505	0.0162731
841.583	0.0161676
841.661	0.0161254
841.739	0.0162759
841.817	0.0161066
841.896	0.0162108
841.974	0.0161224
842.052	0.0161938
842.130	0.0163107
842.208	0.0160790
842.286	0.0161246
842.364	0.0161533
842.442	0.0161749
842.521	0.0162115
842.599	0.0161333
842.677	0.0161269
842.755	0.0162708
842.833	0.0162086
842.911	0.0160684
842.989	0.0162318
843.067	0.0162107
843.146	0.0163052
843.224	0.0163734
843.302	0.0163403
843.380	0.0163023
843.458	0.0164079
843.536	0.0164201
843.614	0.0164440
843.692	0.0164204
843.771	0.0162695
843.849	0.0162783
843.927	0.0163168
844.005	0.0162142
844.083	0.0161250
844.161	0.0158437
844.239	0.0159345
844.317	0.0158311
844.396	0.0158102
844.474	0.0158075
844.552	0.0157449
844.630	0.0156714
844.708	0.0155759
844.786	0.0155096
844.864	0.0154585
844.942	0.0154890
845.021	0.0156544
845.099	0.0157207
845.177	0.0157383
845.255	0.0156956
845.333	0.0159020
845.411	0.0157388
845.489	0.0158461
845.567	0.0160526
845.646	0.0160299
845.724	0.0161210
845.802	0.0161275
845.880	0.0161266
845.958	0.0161825
846.036	0.0162988
846.114	0.0163290
846.192	0.0163371
846.271	0.0162731
846.349	0.0162695
846.427	0.0164164
846.505	0.0164034
846.583	0.0164281
846.661	0.0162933
846.739	0.0163735
846.817	0.0162853
846.896	0.0163723
846.974	0.0163683
847.052	0.0162006
847.130	0.0163455
847.208	0.0163007
847.286	0.0162335
847.364	0.0162048
847.442	0.0162699
847.521	0.0162797
847.599	0.0162980
847.677	0.0164023
847.755	0.0163345
847.833	0.0162556
847.911	0.0162052
847.989	0.0161674
848.067	0.0164072
848.146	0.0164799
848.224	0.0164291
848.302	0.0163128
848.380	0.0162998
848.458	0.0164185
848.536	0.0163658
848.614	0.0163236
848.692	0.0163223
848.771	0.0161671
848.849	0.0162819
848.927	0.0163293
849.005	0.0162225
849.083	0.0161948
849.161	0.0162312
849.239	0.0162599
849.317	0.0161158
849.396	0.0159696
849.474	0.0160704
849.552	0.0159099
849.630	0.0159654
849.708	0.0158472
849.786	0.0158981
849.864	0.0157145
849.942	0.0157346
850.021	0.0156468
850.099	0.0157028
850.177	0.0158264
850.255	0.0157687
850.333	0.0157598
850.411	0.0158813
850.489	0.0157690
850.567	0.0157109
850.646	0.0158371
850.724	0.0157925
850.802	0.0158331
850.880	0.0158327
850.958	0.0159830
851.036	0.0160548
851.114	0.0160552
851.192	0.0159916
851.271	0.0160208
851.349	0.0161864
851.427	0.0162917
851.505	0.0164631
851.583	0.0164168
851.661	0.0163612
851.739	0.0162706
851.817	0.0164924
851.896	0.0164423
851.974	0.0165221
852.052	0.0165888
852.130	0.0163382
852.208	0.0165696
852.286	0.0164818
852.364	0.0164539
852.442	0.0165240
852.521	0.0166352
852.599	0.0163874
852.677	0.0163847
852.755	0.0163635
852.833	0.0164657
852.911	0.0162828
852.989	0.0162854
853.067	0.0163122
853.146	0.0161578
853.224	0.0162013
853.302	0.0160255
853.380	0.0161626
853.458	0.0162244
853.536	0.0161516
853.614	0.0161701
853.692	0.0161822
853.771	0.0161829
853.849	0.0159824
853.927	0.0162832
854.005	0.0162113
854.083	0.0160361
854.161	0.0161003
854.239	0.0162892
854.317	0.0161485
854.396	0.0161540
854.474	0.0161198
854.552	0.0159995
854.630	0.0160458
854.708	0.0159714
854.786	0.0160770
854.864	0.0159568
854.942	0.0159217
855.021	0.0157665
855.099	0.0158848
855.177	0.0157999
855.255	0.0157915
855.333	0.0156865
855.411	0.0157840
855.489	0.0156499
855.567	0.0156863
855.646	0.0156699
855.724	0.0159074
855.802	0.0157764
855.880	0.0159155
855.958	0.0157706
856.036	0.0159464
856.114	0.0160022
856.192	0.0161834
856.271	0.0161040
856.349	0.0162031
856.427	0.0161981
856.505	0.0162332
856.583	0.0163094
856.661	0.0164334
856.739	0.0165494
856.817	0.0165942
856.896	0.0164503
856.974	0.0166222
857.052	0.0165125
857.130	0.0165370
857.208	0.0165903
857.286	0.0165205
857.364	0.0165025
857.442	0.0165040
857.521	0.0164645
857.599	0.0163567
857.677	0.0163702
857.755	0.0164002
857.833	0.0162492
857.911	0.0164491
857.989	0.0164534
858.067	0.0163365
858.146	0.0164059
858.224	0.0163985
858.302	0.0162675
858.380	0.0162556
858.458	0.0163181
858.536	0.0163054
858.614	0.0162646
858.692	0.0161838
858.771	0.0160941
858.849	0.0159833
858.927	0.0160152
859.005	0.0160018
859.083	0.0159312
859.161	0.0158620
859.239	0.0157465
859.317	0.0158659
859.396	0.0157162
859.474	0.0158063
859.552	0.0157411
859.630	0.0157147
859.708	0.0156899
859.786	0.0158049
859.864	0.0158612
859.942	0.0157553
860.021	0.0158123
860.099	0.0157506
860.177	0.0158161
860.255	0.0159468
860.333	0.0159312
860.411	0.0158664
860.489	0.0160297
860.567	0.0159945
860.646	0.0159249
860.724	0.0158223
860.802	0.0159189
860.880	0.0159822
860.958	0.0160020
861.036	0.0160120
861.114	0.0161340
861.192	0.0160698
861.271	0.0161343
861.349	0.0162090
861.427	0.0160715
861.505	0.0162297
861.583	0.0161935
861.661	0.0162881
861.739	0.0163139
861.817	0.0163214
861.896	0.0163593
861.974	0.0163486
862.052	0.0160939
862.130	0.0164465
862.208	0.0164548
862.286	0.0162285
862.364	0.0163127
862.442	0.0162576
862.521	0.0163330
862.599	0.0163232
862.677	0.0164404
862.755	0.0164355
862.833	0.0164303
862.911	0.0163887
862.989	0.0163911
863.067	0.0164455
863.146	0.0163552
863.224	0.0164408
863.302	0.0164355
863.380	0.0164539
863.458	0.0163899
863.536	0.0164484
863.614	0.0163895
863.692	0.0162911
863.771	0.0162270
863.849	0.0162545
863.927	0.0163947
864.005	0.0161171
864.083	0.0162842
864.161	0.0160896
864.239	0.0159381
864.317	0.0162257
864.396	0.0160173
864.474	0.0160049
864.552	0.0158439
864.630	0.0158248
864.708	0.0158788
864.786	0.0157549
864.864	0.0159231
864.942	0.0158285
865.021	0.0156982
865.099	0.0157143
865.177	0.0157656
865.255	0.0157608
865.333	0.0159068
865.411	0.0157908
865.489	0.0157434
865.567	0.0157308
865.646	0.0157925
865.724	0.0158012
865.802	0.0157631
865.880	0.0158622
865.958	0.0158704
866.036	0.0159697
866.114	0.0159271
866.192	0.0159330
866.271	0.0159519
866.349	0.0159653
866.427	0.0160428
866.505	0.0160266
866.583	0.0160657
866.661	0.0161340
866.739	0.0161790
866.817	0.0161281
866.896	0.0161166
866.974	0.0163065
867.052	0.0163681
867.130	0.0162686
867.208	0.0163828
867.286	0.0164103
867.364	0.0163857
867.442	0.0162790
867.521	0.0164300
867.599	0.0164524
867.677	0.0163894
867.755	0.0164764
867.833	0.0163616
867.911	0.0163918
867.989	0.0165892
868.067	0.0164245
868.146	0.0163229
868.224	0.0162563
868.302	0.0164613
868.380	0.0163709
868.458	0.0162260
868.536	0.0162543
868.614	0.0163492
868.692	0.0162349
868.771	0.0162074
868.849	0.0162141
868.927	0.0160275
869.005	0.0161106
869.083	0.0161885
869.161	0.0160380
869.239	0.0160600
869.317	0.0160814
869.396	0.0161341
869.474	0.0161398
869.552	0.0160710
869.630	0.0160582
869.708	0.0162235
869.786	0.0160045
869.864	0.0159101
869.942	0.0160588
