06/03/2022	15:24:45	Ver.	4.1	UNKNOWN
Optical Delay	550.020508	Delta X		0.078125	Sweeps	1	Scan Rate	0/0
Coordinates	Axis 1	NaN	Axis 2	NaN	Axis 3	NaN	Axis 4	NaN	Axis 5	NaN	Axis 6	0.000000
TX Power	0.000000	RX Power	0.000000

550.021	0.0165305
550.099	0.0165906
550.177	0.0164476
550.255	0.0165427
550.333	0.0166187
550.411	0.0166286
550.489	0.0166061
550.567	0.0165462
550.646	0.0164597
550.724	0.0165193
550.802	0.0166175
550.880	0.0165089
550.958	0.0166671
551.036	0.0165667
551.114	0.0165375
551.192	0.0164529
551.271	0.0164149
551.349	0.0165589
551.427	0.0165725
551.505	0.0165646
551.583	0.0166318
551.661	0.0165537
551.739	0.0165528
551.817	0.0165154
551.896	0.0166298
551.974	0.0164162
552.052	0.0164630
552.130	0.0165580
552.208	0.0166034
552.286	0.0164896
552.364	0.0165327
552.442	0.0166106
552.521	0.0165784
552.599	0.0166747
552.677	0.0165934
552.755	0.0165360
552.833	0.0167116
552.911	0.0165820
552.989	0.0166884
553.067	0.0164999
553.146	0.0165912
553.224	0.0166539
553.302	0.0165068
553.380	0.0165723
553.458	0.0166323
553.536	0.0164980
553.614	0.0165980
553.692	0.0165146
553.771	0.0166089
553.849	0.0166753
553.927	0.0166009
554.005	0.0165181
554.083	0.0165903
554.161	0.0165268
554.239	0.0166138
554.317	0.0164314
554.396	0.0165623
554.474	0.0166146
554.552	0.0165546
554.630	0.0165818
554.708	0.0165601
554.786	0.0164968
554.864	0.0165041
554.942	0.0165417
555.021	0.0166060
555.099	0.0163602
555.177	0.0164713
555.255	0.0165273
555.333	0.0165168
555.411	0.0165273
555.489	0.0164891
555.567	0.0165025
555.646	0.0166028
555.724	0.0166434
555.802	0.0164675
555.880	0.0163651
555.958	0.0164730
556.036	0.0166642
556.114	0.0164776
556.192	0.0165257
556.271	0.0164970
556.349	0.0164285
556.427	0.0164851
556.505	0.0165298
556.583	0.0165018
556.661	0.0165351
556.739	0.0166003
556.817	0.0164374
556.896	0.0164983
556.974	0.0166097
557.052	0.0165318
557.130	0.0165442
557.208	0.0165687
557.286	0.0165263
557.364	0.0165194
557.442	0.0165471
557.521	0.0165145
557.599	0.0165510
557.677	0.0165839
557.755	0.0164639
557.833	0.0165357
557.911	0.0164684
557.989	0.0165682
558.067	0.0165287
558.146	0.0165197
558.224	0.0165316
558.302	0.0165285
558.380	0.0164211
558.458	0.0164575
558.536	0.0164397
558.614	0.0166254
558.692	0.0165136
558.771	0.0165726
558.849	0.0163206
558.927	0.0164043
559.005	0.0164840
559.083	0.0165311
559.161	0.0163938
559.239	0.0164895
559.317	0.0165318
559.396	0.0165692
559.474	0.0164910
559.552	0.0165497
559.630	0.0164355
559.708	0.0165952
559.786	0.0164758
559.864	0.0165778
559.942	0.0166621
560.021	0.0165370
560.099	0.0164819
560.177	0.0165586
560.255	0.0165240
560.333	0.0165364
560.411	0.0165021
560.489	0.0165135
560.567	0.0165195
560.646	0.0165067
560.724	0.0165932
560.802	0.0165267
560.880	0.0165237
560.958	0.0163995
561.036	0.0165115
561.114	0.0166503
561.192	0.0167051
561.271	0.0165836
561.349	0.0165458
561.427	0.0165367
561.505	0.0164812
561.583	0.0166423
561.661	0.0165292
561.739	0.0163996
561.817	0.0164196
561.896	0.0165614
561.974	0.0164429
562.052	0.0165370
562.130	0.0165605
562.208	0.0164923
562.286	0.0165141
562.364	0.0163923
562.442	0.0164269
562.521	0.0165469
562.599	0.0165247
562.677	0.0165461
562.755	0.0165088
562.833	0.0164609
562.911	0.0165417
562.989	0.0165721
563.067	0.0166146
563.146	0.0165623
563.224	0.0165137
563.302	0.0165405
563.380	0.0164997
563.458	0.0165550
563.536	0.0165235
563.614	0.0163048
563.692	0.0164275
563.771	0.0165901
563.849	0.0165086
563.927	0.0164643
564.005	0.0165253
564.083	0.0165908
564.161	0.0165463
564.239	0.0164678
564.317	0.0164884
564.396	0.0164444
564.474	0.0165005
564.552	0.0165308
564.630	0.0165313
564.708	0.0165201
564.786	0.0165986
564.864	0.0164870
564.942	0.0164680
565.021	0.0165301
565.099	0.0164640
565.177	0.0163106
565.255	0.0164594
565.333	0.0166334
565.411	0.0165887
565.489	0.0165694
565.567	0.0163914
565.646	0.0164797
565.724	0.0166756
565.802	0.0164393
565.880	0.0165412
565.958	0.0165308
566.036	0.0165010
566.114	0.0165730
566.192	0.0165407
566.271	0.0163273
566.349	0.0164935
566.427	0.0166375
566.505	0.0166090
566.583	0.0165334
566.661	0.0164094
566.739	0.0166439
566.817	0.0165472
566.896	0.0164983
566.974	0.0163934
567.052	0.0164602
567.130	0.0164491
567.208	0.0164510
567.286	0.0166137
567.364	0.0164853
567.442	0.0164619
567.521	0.0165211
567.599	0.0165153
567.677	0.0165212
567.755	0.0164809
567.833	0.0164941
567.911	0.0165302
567.989	0.0165006
568.067	0.0165253
568.146	0.0164590
568.224	0.0166151
568.302	0.0163504
568.380	0.0164795
568.458	0.0165279
568.536	0.0165224
568.614	0.0166108
568.692	0.0165282
568.771	0.0165168
568.849	0.0164015
568.927	0.0164528
569.005	0.0166063
569.083	0.0165481
569.161	0.0164688
569.239	0.0165910
569.317	0.0164749
569.396	0.0166251
569.474	0.0165923
569.552	0.0165189
569.630	0.0165599
569.708	0.0166002
569.786	0.0165891
569.864	0.0165810
569.942	0.0165475
570.021	0.0165134
570.099	0.0164890
570.177	0.0164946
570.255	0.0165285
570.333	0.0166994
570.411	0.0164806
570.489	0.0164953
570.567	0.0164924
570.646	0.0164014
570.724	0.0164481
570.802	0.0164256
570.880	0.0164966
570.958	0.0165785
571.036	0.0166087
571.114	0.0164840
571.192	0.0164492
571.271	0.0164544
571.349	0.0165197
571.427	0.0165876
571.505	0.0163892
571.583	0.0165100
571.661	0.0164283
571.739	0.0164701
571.817	0.0165211
571.896	0.0166077
571.974	0.0165993
572.052	0.0165245
572.130	0.0165806
572.208	0.0165448
572.286	0.0165758
572.364	0.0165356
572.442	0.0165247
572.521	0.0165471
572.599	0.0164779
572.677	0.0164870
572.755	0.0164767
572.833	0.0163322
572.911	0.0165709
572.989	0.0165424
573.067	0.0166203
573.146	0.0164323
573.224	0.0165186
573.302	0.0165745
573.380	0.0164667
573.458	0.0166856
573.536	0.0164789
573.614	0.0164512
573.692	0.0165375
573.771	0.0164801
573.849	0.0164967
573.927	0.0164756
574.005	0.0164455
574.083	0.0164212
574.161	0.0165409
574.239	0.0165365
574.317	0.0165331
574.396	0.0164205
574.474	0.0164243
574.552	0.0165501
574.630	0.0164798
574.708	0.0164961
574.786	0.0166907
574.864	0.0164349
574.942	0.0165043
575.021	0.0166166
575.099	0.0165132
575.177	0.0164463
575.255	0.0164842
575.333	0.0166119
575.411	0.0163972
575.489	0.0164700
575.567	0.0165785
575.646	0.0165912
575.724	0.0165215
575.802	0.0166040
575.880	0.0165263
575.958	0.0165005
576.036	0.0164776
576.114	0.0165817
576.192	0.0165714
576.271	0.0165536
576.349	0.0164475
576.427	0.0164926
576.505	0.0166145
576.583	0.0165338
576.661	0.0166757
576.739	0.0164799
576.817	0.0165450
576.896	0.0166396
576.974	0.0164687
577.052	0.0165845
577.130	0.0164950
577.208	0.0165764
577.286	0.0164253
577.364	0.0164711
577.442	0.0165243
577.521	0.0166254
577.599	0.0165211
577.677	0.0165158
577.755	0.0165263
577.833	0.0165304
577.911	0.0165533
577.989	0.0164707
578.067	0.0165144
578.146	0.0165697
578.224	0.0166893
578.302	0.0165257
578.380	0.0165133
578.458	0.0165912
578.536	0.0165174
578.614	0.0164665
578.692	0.0164805
578.771	0.0165585
578.849	0.0166109
578.927	0.0165642
579.005	0.0165475
579.083	0.0164506
579.161	0.0165585
579.239	0.0165395
579.317	0.0164712
579.396	0.0165545
579.474	0.0165939
579.552	0.0164068
579.630	0.0165483
579.708	0.0164048
579.786	0.0164674
579.864	0.0165755
579.942	0.0164848
580.021	0.0165820
580.099	0.0165263
580.177	0.0163531
580.255	0.0163966
580.333	0.0165148
580.411	0.0165862
580.489	0.0166281
580.567	0.0165588
580.646	0.0162720
580.724	0.0164063
580.802	0.0164745
580.880	0.0164012
580.958	0.0165014
581.036	0.0165200
581.114	0.0166555
581.192	0.0164909
581.271	0.0163845
581.349	0.0166242
581.427	0.0164867
581.505	0.0164825
581.583	0.0166073
581.661	0.0164647
581.739	0.0164314
581.817	0.0163600
581.896	0.0165535
581.974	0.0164535
582.052	0.0164420
582.130	0.0165296
582.208	0.0164609
582.286	0.0164703
582.364	0.0165750
582.442	0.0164883
582.521	0.0165012
582.599	0.0164191
582.677	0.0166394
582.755	0.0164272
582.833	0.0164944
582.911	0.0164655
582.989	0.0164530
583.067	0.0164886
583.146	0.0165454
583.224	0.0164816
583.302	0.0166280
583.380	0.0166299
583.458	0.0164400
583.536	0.0165498
583.614	0.0165729
583.692	0.0165173
583.771	0.0163351
583.849	0.0163522
583.927	0.0167126
584.005	0.0165868
584.083	0.0164224
584.161	0.0165070
584.239	0.0165755
584.317	0.0166332
584.396	0.0166962
584.474	0.0163807
584.552	0.0164794
584.630	0.0166234
584.708	0.0164822
584.786	0.0165498
584.864	0.0165676
584.942	0.0165236
585.021	0.0166468
585.099	0.0165559
585.177	0.0166048
585.255	0.0165862
585.333	0.0165069
585.411	0.0165128
585.489	0.0165257
585.567	0.0166035
585.646	0.0165500
585.724	0.0164896
585.802	0.0164586
585.880	0.0165999
585.958	0.0165547
586.036	0.0165463
586.114	0.0165871
586.192	0.0165093
586.271	0.0164288
586.349	0.0164887
586.427	0.0164810
586.505	0.0165588
586.583	0.0165384
586.661	0.0166267
586.739	0.0166166
586.817	0.0166437
586.896	0.0165411
586.974	0.0164302
587.052	0.0164990
587.130	0.0164141
587.208	0.0166199
587.286	0.0164900
587.364	0.0165073
587.442	0.0165482
587.521	0.0164529
587.599	0.0166293
587.677	0.0165073
587.755	0.0165470
587.833	0.0166225
587.911	0.0164109
587.989	0.0164850
588.067	0.0164154
588.146	0.0163448
588.224	0.0164565
588.302	0.0166234
588.380	0.0165310
588.458	0.0166412
588.536	0.0164626
588.614	0.0165663
588.692	0.0166273
588.771	0.0164830
588.849	0.0164414
588.927	0.0164934
589.005	0.0166295
589.083	0.0166122
589.161	0.0164651
589.239	0.0165127
589.317	0.0164613
589.396	0.0166304
589.474	0.0166161
589.552	0.0165393
589.630	0.0164735
589.708	0.0165422
589.786	0.0165759
589.864	0.0165130
589.942	0.0166953
590.021	0.0164771
590.099	0.0164776
590.177	0.0166130
590.255	0.0165963
590.333	0.0165216
590.411	0.0164193
590.489	0.0164872
590.567	0.0165752
590.646	0.0166148
590.724	0.0165499
590.802	0.0165634
590.880	0.0164670
590.958	0.0166158
591.036	0.0165098
591.114	0.0166535
591.192	0.0165900
591.271	0.0165173
591.349	0.0164174
591.427	0.0166319
591.505	0.0165033
591.583	0.0167724
591.661	0.0166162
591.739	0.0164663
591.817	0.0165193
591.896	0.0164292
591.974	0.0166160
592.052	0.0166776
592.130	0.0165677
592.208	0.0164345
592.286	0.0165477
592.364	0.0165354
592.442	0.0165381
592.521	0.0166586
592.599	0.0165620
592.677	0.0164938
592.755	0.0165188
592.833	0.0164194
592.911	0.0164593
592.989	0.0165584
593.067	0.0164960
593.146	0.0166151
593.224	0.0166023
593.302	0.0164840
593.380	0.0163636
593.458	0.0164510
593.536	0.0165302
593.614	0.0165862
593.692	0.0165411
593.771	0.0164971
593.849	0.0166258
593.927	0.0165366
594.005	0.0164781
594.083	0.0163258
594.161	0.0165291
594.239	0.0166230
594.317	0.0165637
594.396	0.0164289
594.474	0.0164290
594.552	0.0167363
594.630	0.0165105
594.708	0.0163713
594.786	0.0165051
594.864	0.0165946
594.942	0.0165037
595.021	0.0165578
595.099	0.0165230
595.177	0.0165231
595.255	0.0164774
595.333	0.0165792
595.411	0.0165607
595.489	0.0164648
595.567	0.0164582
595.646	0.0164690
595.724	0.0164905
595.802	0.0164204
595.880	0.0165595
595.958	0.0165585
596.036	0.0166021
596.114	0.0166376
596.192	0.0164542
596.271	0.0165571
596.349	0.0164938
596.427	0.0164198
596.505	0.0165023
596.583	0.0165216
596.661	0.0164667
596.739	0.0165348
596.817	0.0163822
596.896	0.0164780
596.974	0.0165079
597.052	0.0166119
597.130	0.0165321
597.208	0.0164537
597.286	0.0165025
597.364	0.0164925
597.442	0.0164885
597.521	0.0164315
597.599	0.0165115
597.677	0.0164980
597.755	0.0166559
597.833	0.0165070
597.911	0.0163665
597.989	0.0165177
598.067	0.0165225
598.146	0.0165478
598.224	0.0166864
598.302	0.0163989
598.380	0.0165266
598.458	0.0165957
598.536	0.0165570
598.614	0.0166674
598.692	0.0165524
598.771	0.0164565
598.849	0.0164648
598.927	0.0166612
599.005	0.0164495
599.083	0.0164378
599.161	0.0165768
599.239	0.0164669
599.317	0.0164722
599.396	0.0166127
599.474	0.0166697
599.552	0.0164884
599.630	0.0165186
599.708	0.0166196
599.786	0.0166045
599.864	0.0166539
599.942	0.0165910
600.021	0.0165995
600.099	0.0165369
600.177	0.0165680
600.255	0.0165313
600.333	0.0166848
600.411	0.0166139
600.489	0.0165614
600.567	0.0164814
600.646	0.0165111
600.724	0.0166309
600.802	0.0166581
600.880	0.0165243
600.958	0.0164815
601.036	0.0165094
601.114	0.0166518
601.192	0.0165851
601.271	0.0166376
601.349	0.0166335
601.427	0.0165747
601.505	0.0165582
601.583	0.0164619
601.661	0.0165768
601.739	0.0165996
601.817	0.0163673
601.896	0.0164581
601.974	0.0165271
602.052	0.0164892
602.130	0.0164777
602.208	0.0164350
602.286	0.0165779
602.364	0.0166292
602.442	0.0166120
602.521	0.0164839
602.599	0.0165459
602.677	0.0165649
602.755	0.0165155
602.833	0.0165388
602.911	0.0166133
602.989	0.0164824
603.067	0.0165414
603.146	0.0165635
603.224	0.0165848
603.302	0.0164883
603.380	0.0165037
603.458	0.0164867
603.536	0.0165328
603.614	0.0165724
603.692	0.0164915
603.771	0.0165808
603.849	0.0165453
603.927	0.0165185
604.005	0.0165724
604.083	0.0166006
604.161	0.0164790
604.239	0.0164969
604.317	0.0166042
604.396	0.0165764
604.474	0.0165186
604.552	0.0165697
604.630	0.0166337
604.708	0.0165096
604.786	0.0164341
604.864	0.0165498
604.942	0.0164316
605.021	0.0164769
605.099	0.0165865
605.177	0.0165285
605.255	0.0165135
605.333	0.0165968
605.411	0.0165530
605.489	0.0166254
605.567	0.0164719
605.646	0.0164919
605.724	0.0163779
605.802	0.0164834
605.880	0.0166918
605.958	0.0164654
606.036	0.0165187
606.114	0.0164957
606.192	0.0165125
606.271	0.0165886
606.349	0.0166405
606.427	0.0165561
606.505	0.0164885
606.583	0.0165064
606.661	0.0166220
606.739	0.0166094
606.817	0.0165643
606.896	0.0165981
606.974	0.0165685
607.052	0.0164548
607.130	0.0165162
607.208	0.0164960
607.286	0.0165313
607.364	0.0165498
607.442	0.0164504
607.521	0.0164809
607.599	0.0165529
607.677	0.0165515
607.755	0.0164661
607.833	0.0164872
607.911	0.0164041
607.989	0.0164640
608.067	0.0165553
608.146	0.0163712
608.224	0.0164246
608.302	0.0165844
608.380	0.0165498
608.458	0.0165146
608.536	0.0164330
608.614	0.0166109
608.692	0.0164825
608.771	0.0165971
608.849	0.0164310
608.927	0.0165569
609.005	0.0164909
609.083	0.0166551
609.161	0.0164294
609.239	0.0164754
609.317	0.0166331
609.396	0.0167214
609.474	0.0164848
609.552	0.0165842
609.630	0.0165997
609.708	0.0165134
609.786	0.0165351
609.864	0.0165408
609.942	0.0164919
610.021	0.0165701
610.099	0.0165861
610.177	0.0165081
610.255	0.0165195
610.333	0.0166814
610.411	0.0165099
610.489	0.0165591
610.567	0.0165376
610.646	0.0164925
610.724	0.0165204
610.802	0.0165435
610.880	0.0165239
610.958	0.0165643
611.036	0.0164503
611.114	0.0164889
611.192	0.0166010
611.271	0.0164436
611.349	0.0165028
611.427	0.0164819
611.505	0.0166367
611.583	0.0165729
611.661	0.0165394
611.739	0.0165270
611.817	0.0164285
611.896	0.0165786
611.974	0.0165352
612.052	0.0165839
612.130	0.0165406
612.208	0.0164889
612.286	0.0165379
612.364	0.0166872
612.442	0.0164382
612.521	0.0165720
612.599	0.0165945
612.677	0.0166809
612.755	0.0165153
612.833	0.0164936
612.911	0.0166742
612.989	0.0165404
613.067	0.0164825
613.146	0.0164063
613.224	0.0165098
613.302	0.0164523
613.380	0.0164318
613.458	0.0164991
613.536	0.0166534
613.614	0.0164968
613.692	0.0166306
613.771	0.0164850
613.849	0.0164203
613.927	0.0165990
614.005	0.0165393
614.083	0.0165680
614.161	0.0165971
614.239	0.0165017
614.317	0.0165410
614.396	0.0165878
614.474	0.0164650
614.552	0.0165531
614.630	0.0165359
614.708	0.0165701
614.786	0.0165646
614.864	0.0165388
614.942	0.0165439
615.021	0.0164688
615.099	0.0166564
615.177	0.0165546
615.255	0.0164587
615.333	0.0165360
615.411	0.0165804
615.489	0.0165820
615.567	0.0165761
615.646	0.0165104
615.724	0.0165989
615.802	0.0164108
615.880	0.0165463
615.958	0.0163234
616.036	0.0165449
616.114	0.0164993
616.192	0.0164588
616.271	0.0164443
616.349	0.0165481
616.427	0.0166858
616.505	0.0163787
616.583	0.0163455
616.661	0.0165414
616.739	0.0164428
616.817	0.0164680
616.896	0.0166544
616.974	0.0166268
617.052	0.0164793
617.130	0.0164555
617.208	0.0164402
617.286	0.0165523
617.364	0.0164916
617.442	0.0166492
617.521	0.0164898
617.599	0.0165849
617.677	0.0165030
617.755	0.0164501
617.833	0.0164778
617.911	0.0166138
617.989	0.0164568
618.067	0.0166901
618.146	0.0164993
618.224	0.0165697
618.302	0.0164208
618.380	0.0164648
618.458	0.0164375
618.536	0.0165736
618.614	0.0164938
618.692	0.0164836
618.771	0.0165036
618.849	0.0163586
618.927	0.0165749
619.005	0.0165032
619.083	0.0164715
619.161	0.0165460
619.239	0.0164905
619.317	0.0164552
619.396	0.0166225
619.474	0.0163992
619.552	0.0163501
619.630	0.0166335
619.708	0.0166968
619.786	0.0164792
619.864	0.0163678
619.942	0.0162703
620.021	0.0164431
620.099	0.0165871
620.177	0.0165939
620.255	0.0166712
620.333	0.0163706
620.411	0.0165105
620.489	0.0163838
620.567	0.0164797
620.646	0.0166609
620.724	0.0164598
620.802	0.0164784
620.880	0.0165630
620.958	0.0165101
621.036	0.0164546
621.114	0.0165458
621.192	0.0164838
621.271	0.0164835
621.349	0.0164641
621.427	0.0165845
621.505	0.0165060
621.583	0.0164236
621.661	0.0164447
621.739	0.0165155
621.817	0.0166272
621.896	0.0164732
621.974	0.0164401
622.052	0.0165582
622.130	0.0165517
622.208	0.0165024
622.286	0.0165097
622.364	0.0164597
622.442	0.0163639
622.521	0.0165510
622.599	0.0166085
622.677	0.0164613
622.755	0.0163781
622.833	0.0163578
622.911	0.0165090
622.989	0.0165847
623.067	0.0164408
623.146	0.0164951
623.224	0.0165420
623.302	0.0165172
623.380	0.0165189
623.458	0.0165725
623.536	0.0163950
623.614	0.0166664
623.692	0.0164973
623.771	0.0165654
623.849	0.0166261
623.927	0.0165095
624.005	0.0163789
624.083	0.0165402
624.161	0.0164763
624.239	0.0165688
624.317	0.0165041
624.396	0.0166027
624.474	0.0166415
624.552	0.0164635
624.630	0.0165727
624.708	0.0164935
624.786	0.0166502
624.864	0.0164503
624.942	0.0165212
625.021	0.0165854
625.099	0.0165730
625.177	0.0165297
625.255	0.0165653
625.333	0.0165553
625.411	0.0166162
625.489	0.0165366
625.567	0.0165108
625.646	0.0165110
625.724	0.0164941
625.802	0.0165252
625.880	0.0167459
625.958	0.0167142
626.036	0.0164569
626.114	0.0164971
626.192	0.0164970
626.271	0.0165999
626.349	0.0164961
626.427	0.0166275
626.505	0.0166111
626.583	0.0164831
626.661	0.0165314
626.739	0.0165359
626.817	0.0165214
626.896	0.0165782
626.974	0.0166858
627.052	0.0164319
627.130	0.0164246
627.208	0.0164801
627.286	0.0165832
627.364	0.0164607
627.442	0.0164648
627.521	0.0165993
627.599	0.0165225
627.677	0.0165234
627.755	0.0165366
627.833	0.0166558
627.911	0.0164978
627.989	0.0165822
628.067	0.0166268
628.146	0.0165074
628.224	0.0166433
628.302	0.0166127
628.380	0.0165593
628.458	0.0165913
628.536	0.0165685
628.614	0.0164677
628.692	0.0166195
628.771	0.0165742
628.849	0.0166286
628.927	0.0167184
629.005	0.0165382
629.083	0.0165346
629.161	0.0165108
629.239	0.0165816
629.317	0.0166551
629.396	0.0165105
629.474	0.0164995
629.552	0.0165547
629.630	0.0165141
629.708	0.0165443
629.786	0.0165368
629.864	0.0165810
629.942	0.0165910
630.021	0.0164137
630.099	0.0164725
630.177	0.0165345
630.255	0.0165876
630.333	0.0165975
630.411	0.0164535
630.489	0.0165555
630.567	0.0165196
630.646	0.0165562
630.724	0.0165237
630.802	0.0165593
630.880	0.0165468
630.958	0.0165987
631.036	0.0165022
631.114	0.0164657
631.192	0.0164042
631.271	0.0165807
631.349	0.0166548
631.427	0.0165434
631.505	0.0164964
631.583	0.0165704
631.661	0.0166212
631.739	0.0165428
631.817	0.0164697
631.896	0.0166167
631.974	0.0165514
632.052	0.0165263
632.130	0.0166315
632.208	0.0165173
632.286	0.0164392
632.364	0.0165569
632.442	0.0166019
632.521	0.0165556
632.599	0.0164536
632.677	0.0164893
632.755	0.0164546
632.833	0.0165067
632.911	0.0165183
632.989	0.0166158
633.067	0.0164748
633.146	0.0165179
633.224	0.0166073
633.302	0.0163431
633.380	0.0165776
633.458	0.0165548
633.536	0.0165665
633.614	0.0164899
633.692	0.0165902
633.771	0.0164554
633.849	0.0166225
633.927	0.0166494
634.005	0.0163434
634.083	0.0163963
634.161	0.0166147
634.239	0.0165152
634.317	0.0165528
634.396	0.0165129
634.474	0.0164292
634.552	0.0165258
634.630	0.0164697
634.708	0.0163850
634.786	0.0164236
634.864	0.0164669
634.942	0.0165166
635.021	0.0165332
635.099	0.0164256
635.177	0.0164293
635.255	0.0165250
635.333	0.0166219
635.411	0.0165081
635.489	0.0165704
635.567	0.0165694
635.646	0.0165137
635.724	0.0164529
635.802	0.0165194
635.880	0.0165296
635.958	0.0165349
636.036	0.0164606
636.114	0.0163795
636.192	0.0164168
636.271	0.0165296
636.349	0.0165981
636.427	0.0164803
636.505	0.0165677
636.583	0.0164981
636.661	0.0165099
636.739	0.0165517
636.817	0.0164351
636.896	0.0165967
636.974	0.0165836
637.052	0.0164584
637.130	0.0165446
637.208	0.0165805
637.286	0.0165158
637.364	0.0165292
637.442	0.0165878
637.521	0.0165796
637.599	0.0166117
637.677	0.0165214
637.755	0.0165099
637.833	0.0165791
637.911	0.0164427
637.989	0.0165759
638.067	0.0166159
638.146	0.0165346
638.224	0.0165483
638.302	0.0165729
638.380	0.0166514
638.458	0.0166148
638.536	0.0165546
638.614	0.0166093
638.692	0.0164918
638.771	0.0165638
638.849	0.0164829
638.927	0.0165319
639.005	0.0165023
639.083	0.0165336
639.161	0.0165429
639.239	0.0166631
639.317	0.0165011
639.396	0.0163515
639.474	0.0164481
639.552	0.0165228
639.630	0.0164404
639.708	0.0164207
639.786	0.0165984
639.864	0.0164819
639.942	0.0165331
640.021	0.0165490
640.099	0.0165537
640.177	0.0165433
640.255	0.0164760
640.333	0.0165697
640.411	0.0164338
640.489	0.0165459
640.567	0.0165952
640.646	0.0164326
640.724	0.0164436
640.802	0.0164253
640.880	0.0165548
640.958	0.0164297
641.036	0.0165488
641.114	0.0164792
641.192	0.0165557
641.271	0.0166405
641.349	0.0165168
641.427	0.0165065
641.505	0.0164595
641.583	0.0164991
641.661	0.0165099
641.739	0.0166319
641.817	0.0165858
641.896	0.0166558
641.974	0.0164538
642.052	0.0165425
642.130	0.0164603
642.208	0.0165028
642.286	0.0165565
642.364	0.0166649
642.442	0.0165192
642.521	0.0163770
642.599	0.0164812
642.677	0.0165079
642.755	0.0165998
642.833	0.0165266
642.911	0.0166470
642.989	0.0164757
643.067	0.0165639
643.146	0.0165589
643.224	0.0164783
643.302	0.0165721
643.380	0.0165043
643.458	0.0165671
643.536	0.0166238
643.614	0.0165248
643.692	0.0165981
643.771	0.0165493
643.849	0.0164566
643.927	0.0166095
644.005	0.0165728
644.083	0.0166544
644.161	0.0165924
644.239	0.0165475
644.317	0.0166290
644.396	0.0165752
644.474	0.0165451
644.552	0.0166451
644.630	0.0164626
644.708	0.0165041
644.786	0.0166152
644.864	0.0164638
644.942	0.0164071
645.021	0.0165838
645.099	0.0166342
645.177	0.0164693
645.255	0.0164490
645.333	0.0167028
645.411	0.0166335
645.489	0.0165249
645.567	0.0164683
645.646	0.0165507
645.724	0.0165284
645.802	0.0164713
645.880	0.0164804
645.958	0.0166463
646.036	0.0165173
646.114	0.0164679
646.192	0.0164352
646.271	0.0163189
646.349	0.0164059
646.427	0.0165831
646.505	0.0164891
646.583	0.0164809
646.661	0.0164937
646.739	0.0164195
646.817	0.0164902
646.896	0.0164453
646.974	0.0164353
647.052	0.0164679
647.130	0.0166825
647.208	0.0164463
647.286	0.0165128
647.364	0.0165789
647.442	0.0166090
647.521	0.0166331
647.599	0.0164745
647.677	0.0164146
647.755	0.0165018
647.833	0.0164529
647.911	0.0166035
647.989	0.0164581
648.067	0.0165659
648.146	0.0165757
648.224	0.0165223
648.302	0.0165338
648.380	0.0164502
648.458	0.0165096
648.536	0.0164993
648.614	0.0164712
648.692	0.0165126
648.771	0.0164263
648.849	0.0164595
648.927	0.0164607
649.005	0.0164270
649.083	0.0164342
649.161	0.0164951
649.239	0.0165710
649.317	0.0164967
649.396	0.0165363
649.474	0.0165719
649.552	0.0164944
649.630	0.0162733
649.708	0.0165057
649.786	0.0164861
649.864	0.0164087
649.942	0.0165040
650.021	0.0165149
650.099	0.0163623
650.177	0.0165206
650.255	0.0164127
650.333	0.0164742
650.411	0.0165936
650.489	0.0164908
650.567	0.0164351
650.646	0.0163940
650.724	0.0164346
650.802	0.0164812
650.880	0.0164581
650.958	0.0165672
651.036	0.0165744
651.114	0.0164846
651.192	0.0165147
651.271	0.0165650
651.349	0.0165401
651.427	0.0163820
651.505	0.0164864
651.583	0.0164901
651.661	0.0165334
651.739	0.0164724
651.817	0.0164581
651.896	0.0165808
651.974	0.0164377
652.052	0.0164634
652.130	0.0164738
652.208	0.0165515
652.286	0.0164735
652.364	0.0164389
652.442	0.0164952
652.521	0.0164935
652.599	0.0163579
652.677	0.0162823
652.755	0.0164572
652.833	0.0165188
652.911	0.0164592
652.989	0.0164647
653.067	0.0165171
653.146	0.0163971
653.224	0.0163795
653.302	0.0166024
653.380	0.0165829
653.458	0.0165461
653.536	0.0164699
653.614	0.0164865
653.692	0.0165145
653.771	0.0163765
653.849	0.0164229
653.927	0.0165078
654.005	0.0165863
654.083	0.0164816
654.161	0.0164110
654.239	0.0164304
654.317	0.0164828
654.396	0.0165327
654.474	0.0164945
654.552	0.0164690
654.630	0.0165614
654.708	0.0164862
654.786	0.0165074
654.864	0.0165408
654.942	0.0165018
655.021	0.0164578
655.099	0.0165736
655.177	0.0164783
655.255	0.0164086
655.333	0.0164878
655.411	0.0165820
655.489	0.0164876
655.567	0.0166128
655.646	0.0165071
655.724	0.0165739
655.802	0.0164957
655.880	0.0163973
655.958	0.0164451
656.036	0.0166467
656.114	0.0165082
656.192	0.0165282
656.271	0.0166240
656.349	0.0166148
656.427	0.0164581
656.505	0.0165424
656.583	0.0166057
656.661	0.0165606
656.739	0.0166064
656.817	0.0165777
656.896	0.0164830
656.974	0.0162950
657.052	0.0164565
657.130	0.0164941
657.208	0.0165836
657.286	0.0165515
657.364	0.0164777
657.442	0.0164530
657.521	0.0165611
657.599	0.0164438
657.677	0.0165414
657.755	0.0165136
657.833	0.0165730
657.911	0.0164469
657.989	0.0164429
658.067	0.0165447
658.146	0.0165685
658.224	0.0165537
658.302	0.0165533
658.380	0.0166357
658.458	0.0165850
658.536	0.0165453
658.614	0.0164798
658.692	0.0164370
658.771	0.0164292
658.849	0.0162540
658.927	0.0165398
659.005	0.0165744
659.083	0.0165459
659.161	0.0164990
659.239	0.0165246
659.317	0.0163551
659.396	0.0164644
659.474	0.0165926
659.552	0.0165664
659.630	0.0164254
659.708	0.0165450
659.786	0.0164686
659.864	0.0166093
659.942	0.0165235
660.021	0.0165942
660.099	0.0164331
660.177	0.0164793
660.255	0.0165511
660.333	0.0165850
660.411	0.0164073
660.489	0.0164725
660.567	0.0165895
660.646	0.0165765
660.724	0.0165073
660.802	0.0164896
660.880	0.0165887
660.958	0.0165847
661.036	0.0165444
661.114	0.0163133
661.192	0.0164891
661.271	0.0165014
661.349	0.0165620
661.427	0.0164371
661.505	0.0165654
661.583	0.0164558
661.661	0.0164940
661.739	0.0164950
661.817	0.0166349
661.896	0.0164832
661.974	0.0165331
662.052	0.0166010
662.130	0.0165240
662.208	0.0166192
662.286	0.0165614
662.364	0.0164751
662.442	0.0164460
662.521	0.0165190
662.599	0.0164411
662.677	0.0165123
662.755	0.0164989
662.833	0.0165335
662.911	0.0166834
662.989	0.0164708
663.067	0.0164737
663.146	0.0165044
663.224	0.0165648
663.302	0.0165422
663.380	0.0165382
663.458	0.0165191
663.536	0.0165572
663.614	0.0163553
663.692	0.0163902
663.771	0.0164552
663.849	0.0164697
663.927	0.0165068
664.005	0.0165314
664.083	0.0163432
664.161	0.0164799
664.239	0.0164495
664.317	0.0164423
664.396	0.0163772
664.474	0.0164310
664.552	0.0165549
664.630	0.0164711
664.708	0.0165559
664.786	0.0164732
664.864	0.0165891
664.942	0.0165681
665.021	0.0165215
665.099	0.0164114
665.177	0.0165009
665.255	0.0164697
665.333	0.0165324
665.411	0.0164832
665.489	0.0166367
665.567	0.0165876
665.646	0.0164948
665.724	0.0164416
665.802	0.0165310
665.880	0.0165517
665.958	0.0166088
666.036	0.0167178
666.114	0.0165196
666.192	0.0164133
666.271	0.0164503
666.349	0.0165784
666.427	0.0165285
666.505	0.0167220
666.583	0.0165152
666.661	0.0165634
666.739	0.0165316
666.817	0.0164595
666.896	0.0165313
666.974	0.0165208
667.052	0.0165805
667.130	0.0165176
667.208	0.0164436
667.286	0.0165891
667.364	0.0165850
667.442	0.0164380
667.521	0.0164091
667.599	0.0165668
667.677	0.0165623
667.755	0.0165607
667.833	0.0165804
667.911	0.0164103
667.989	0.0165495
668.067	0.0165494
668.146	0.0165204
668.224	0.0164713
668.302	0.0165004
668.380	0.0165568
668.458	0.0166425
668.536	0.0165273
668.614	0.0165221
668.692	0.0164599
668.771	0.0165654
668.849	0.0167585
668.927	0.0165041
669.005	0.0166532
669.083	0.0165691
669.161	0.0165781
669.239	0.0164330
669.317	0.0166930
669.396	0.0165559
669.474	0.0163745
669.552	0.0164474
669.630	0.0165811
669.708	0.0165034
669.786	0.0165104
669.864	0.0164707
669.942	0.0163266
670.021	0.0165872
670.099	0.0166064
670.177	0.0165232
670.255	0.0164845
670.333	0.0165262
670.411	0.0166408
670.489	0.0165504
670.567	0.0166086
670.646	0.0163992
670.724	0.0165100
670.802	0.0165886
670.880	0.0165836
670.958	0.0164429
671.036	0.0164507
671.114	0.0164454
671.192	0.0166636
671.271	0.0164960
671.349	0.0165887
671.427	0.0165506
671.505	0.0165076
671.583	0.0166896
671.661	0.0164993
671.739	0.0164018
671.817	0.0166531
671.896	0.0165930
671.974	0.0164733
672.052	0.0164913
672.130	0.0164495
672.208	0.0166145
672.286	0.0165670
672.364	0.0165630
672.442	0.0166035
672.521	0.0165815
672.599	0.0164599
672.677	0.0165646
672.755	0.0165877
672.833	0.0165318
672.911	0.0164700
672.989	0.0165410
673.067	0.0166992
673.146	0.0164648
673.224	0.0165089
673.302	0.0164502
673.380	0.0164569
673.458	0.0166203
673.536	0.0166386
673.614	0.0165709
673.692	0.0166845
673.771	0.0165714
673.849	0.0164904
673.927	0.0164922
674.005	0.0165323
674.083	0.0165803
674.161	0.0165564
674.239	0.0166219
674.317	0.0165656
674.396	0.0166396
674.474	0.0165482
674.552	0.0164053
674.630	0.0165430
674.708	0.0166454
674.786	0.0165256
674.864	0.0164115
674.942	0.0164924
675.021	0.0166660
675.099	0.0165896
675.177	0.0164609
675.255	0.0164779
675.333	0.0164629
675.411	0.0166248
675.489	0.0165584
675.567	0.0165312
675.646	0.0164226
675.724	0.0165337
675.802	0.0165402
675.880	0.0165199
675.958	0.0165116
676.036	0.0165947
676.114	0.0166125
676.192	0.0164935
676.271	0.0165199
676.349	0.0167059
676.427	0.0165788
676.505	0.0164890
676.583	0.0164377
676.661	0.0164237
676.739	0.0165520
676.817	0.0166129
676.896	0.0165545
676.974	0.0165127
677.052	0.0164997
677.130	0.0164822
677.208	0.0165318
677.286	0.0164828
677.364	0.0165207
677.442	0.0165849
677.521	0.0166082
677.599	0.0165207
677.677	0.0166068
677.755	0.0165807
677.833	0.0165819
677.911	0.0166062
677.989	0.0165372
678.067	0.0164744
678.146	0.0165469
678.224	0.0166287
678.302	0.0166401
678.380	0.0167352
678.458	0.0166351
678.536	0.0165238
678.614	0.0167120
678.692	0.0164764
678.771	0.0164493
678.849	0.0164664
678.927	0.0164693
679.005	0.0165434
679.083	0.0165451
679.161	0.0165472
679.239	0.0165326
679.317	0.0165704
679.396	0.0166045
679.474	0.0165133
679.552	0.0164587
679.630	0.0164969
679.708	0.0164744
679.786	0.0165929
679.864	0.0166562
679.942	0.0165070
680.021	0.0166051
680.099	0.0164845
680.177	0.0164845
680.255	0.0164918
680.333	0.0165693
680.411	0.0165002
680.489	0.0167181
680.567	0.0164917
680.646	0.0164768
680.724	0.0164098
680.802	0.0165604
680.880	0.0166473
680.958	0.0165437
681.036	0.0165726
681.114	0.0165000
681.192	0.0164312
681.271	0.0165326
681.349	0.0164792
681.427	0.0164831
681.505	0.0166040
681.583	0.0165683
681.661	0.0165407
681.739	0.0165621
681.817	0.0166386
681.896	0.0165897
681.974	0.0165125
682.052	0.0165045
682.130	0.0165374
682.208	0.0165558
682.286	0.0165327
682.364	0.0165586
682.442	0.0165115
682.521	0.0165414
682.599	0.0165411
682.677	0.0165135
682.755	0.0163336
682.833	0.0165096
682.911	0.0164931
682.989	0.0164804
683.067	0.0165263
683.146	0.0164037
683.224	0.0164679
683.302	0.0164761
683.380	0.0166588
683.458	0.0165071
683.536	0.0164433
683.614	0.0164870
683.692	0.0164381
683.771	0.0164661
683.849	0.0164848
683.927	0.0165565
684.005	0.0166180
684.083	0.0163609
684.161	0.0164486
684.239	0.0163731
684.317	0.0164961
684.396	0.0165723
684.474	0.0164960
684.552	0.0166095
684.630	0.0166007
684.708	0.0165452
684.786	0.0165369
684.864	0.0165253
684.942	0.0164799
685.021	0.0165114
685.099	0.0165109
685.177	0.0164928
685.255	0.0165347
685.333	0.0164740
685.411	0.0165445
685.489	0.0164391
685.567	0.0164945
685.646	0.0166416
685.724	0.0165720
685.802	0.0166507
685.880	0.0164728
685.958	0.0165297
686.036	0.0165174
686.114	0.0165357
686.192	0.0165746
686.271	0.0166029
686.349	0.0163970
686.427	0.0165398
686.505	0.0164804
686.583	0.0165660
686.661	0.0166933
686.739	0.0165808
686.817	0.0166203
686.896	0.0166129
686.974	0.0165605
687.052	0.0164575
687.130	0.0166045
687.208	0.0166061
687.286	0.0165497
687.364	0.0166971
687.442	0.0165877
687.521	0.0165399
687.599	0.0165049
687.677	0.0165421
687.755	0.0164334
687.833	0.0165925
687.911	0.0166657
687.989	0.0165336
688.067	0.0164835
688.146	0.0166253
688.224	0.0166876
688.302	0.0166625
688.380	0.0166240
688.458	0.0165111
688.536	0.0166994
688.614	0.0165478
688.692	0.0166929
688.771	0.0165782
688.849	0.0164614
688.927	0.0166842
689.005	0.0165488
689.083	0.0165253
689.161	0.0166163
689.239	0.0165889
689.317	0.0165762
689.396	0.0165549
689.474	0.0165823
689.552	0.0165473
689.630	0.0166273
689.708	0.0165979
689.786	0.0164912
689.864	0.0165049
689.942	0.0165991
690.021	0.0165370
690.099	0.0166074
690.177	0.0164844
690.255	0.0165865
690.333	0.0164632
690.411	0.0166222
690.489	0.0165138
690.567	0.0164857
690.646	0.0166772
690.724	0.0165340
690.802	0.0164521
690.880	0.0165666
690.958	0.0164538
691.036	0.0164976
691.114	0.0165231
691.192	0.0165360
691.271	0.0164873
691.349	0.0165983
691.427	0.0166550
691.505	0.0166267
691.583	0.0165289
691.661	0.0164339
691.739	0.0165370
691.817	0.0166031
691.896	0.0164832
691.974	0.0164184
692.052	0.0164032
692.130	0.0164722
692.208	0.0165421
692.286	0.0166435
692.364	0.0163651
692.442	0.0166056
692.521	0.0166431
692.599	0.0164771
692.677	0.0164827
692.755	0.0165144
692.833	0.0166158
692.911	0.0163963
692.989	0.0165842
693.067	0.0164588
693.146	0.0164929
693.224	0.0165313
693.302	0.0165246
693.380	0.0165183
693.458	0.0165388
693.536	0.0165472
693.614	0.0164848
693.692	0.0165858
693.771	0.0166236
693.849	0.0164469
693.927	0.0164591
694.005	0.0164165
694.083	0.0165858
694.161	0.0165559
694.239	0.0166238
694.317	0.0164369
694.396	0.0165304
694.474	0.0165890
694.552	0.0164565
694.630	0.0164414
694.708	0.0165295
694.786	0.0165214
694.864	0.0163410
694.942	0.0165003
695.021	0.0164769
695.099	0.0164805
695.177	0.0165457
695.255	0.0165385
695.333	0.0165121
695.411	0.0164413
695.489	0.0164913
695.567	0.0164532
695.646	0.0165437
695.724	0.0165823
695.802	0.0165228
695.880	0.0165048
695.958	0.0165074
696.036	0.0165469
696.114	0.0165211
696.192	0.0164697
696.271	0.0165730
696.349	0.0164049
696.427	0.0166689
696.505	0.0164617
696.583	0.0163499
696.661	0.0166283
696.739	0.0165940
696.817	0.0164809
696.896	0.0164967
696.974	0.0165267
697.052	0.0164056
697.130	0.0165255
697.208	0.0163841
697.286	0.0165052
697.364	0.0165097
697.442	0.0166014
697.521	0.0165160
697.599	0.0166554
697.677	0.0165719
697.755	0.0167217
697.833	0.0165732
697.911	0.0166299
697.989	0.0166663
698.067	0.0166168
698.146	0.0165379
698.224	0.0164964
698.302	0.0165568
698.380	0.0165923
698.458	0.0164403
698.536	0.0163465
698.614	0.0163780
698.692	0.0164465
698.771	0.0163850
698.849	0.0162771
698.927	0.0162207
699.005	0.0163766
699.083	0.0165462
699.161	0.0165146
699.239	0.0166012
699.317	0.0166443
699.396	0.0167313
699.474	0.0166993
699.552	0.0167708
699.630	0.0166988
699.708	0.0167266
699.786	0.0166947
699.864	0.0167869
699.942	0.0167818
700.021	0.0166725
700.099	0.0167316
700.177	0.0165389
700.255	0.0164232
700.333	0.0164079
700.411	0.0164660
700.489	0.0165484
700.567	0.0165202
700.646	0.0164553
700.724	0.0165421
700.802	0.0165694
700.880	0.0164842
700.958	0.0166027
701.036	0.0168335
701.114	0.0168713
701.192	0.0168795
701.271	0.0167438
701.349	0.0169155
701.427	0.0168356
701.505	0.0168274
701.583	0.0168449
701.661	0.0166408
701.739	0.0167172
701.817	0.0166377
701.896	0.0165602
701.974	0.0163094
702.052	0.0163554
702.130	0.0163687
702.208	0.0162682
702.286	0.0162442
702.364	0.0162312
702.442	0.0162436
702.521	0.0162362
702.599	0.0162663
702.677	0.0163331
702.755	0.0162510
702.833	0.0163725
702.911	0.0166035
702.989	0.0165970
703.067	0.0167496
703.146	0.0168224
703.224	0.0167452
703.302	0.0167634
703.380	0.0166933
703.458	0.0168125
703.536	0.0169233
703.614	0.0168466
703.692	0.0167152
703.771	0.0167255
703.849	0.0166306
703.927	0.0163837
704.005	0.0165697
704.083	0.0165450
704.161	0.0165077
704.239	0.0164002
704.317	0.0163968
704.396	0.0164428
704.474	0.0166121
704.552	0.0165211
704.630	0.0165073
704.708	0.0165703
704.786	0.0163393
704.864	0.0164205
704.942	0.0165708
705.021	0.0162778
705.099	0.0163375
705.177	0.0162888
705.255	0.0161639
705.333	0.0162248
705.411	0.0160464
705.489	0.0161375
705.567	0.0160896
705.646	0.0162408
705.724	0.0161878
705.802	0.0161790
705.880	0.0163319
705.958	0.0164569
706.036	0.0165938
706.114	0.0165733
706.192	0.0166768
706.271	0.0167429
706.349	0.0169569
706.427	0.0169179
706.505	0.0169810
706.583	0.0170956
706.661	0.0170385
706.739	0.0169035
706.817	0.0168159
706.896	0.0167185
706.974	0.0166236
707.052	0.0165533
707.130	0.0163001
707.208	0.0163416
707.286	0.0162238
707.364	0.0161421
707.442	0.0161993
707.521	0.0161674
707.599	0.0162720
707.677	0.0162777
707.755	0.0162930
707.833	0.0164172
707.911	0.0164971
707.989	0.0166718
708.067	0.0166787
708.146	0.0167751
708.224	0.0167597
708.302	0.0168915
708.380	0.0168160
708.458	0.0168372
708.536	0.0168479
708.614	0.0167702
708.692	0.0166412
708.771	0.0167219
708.849	0.0167783
708.927	0.0165336
709.005	0.0164586
709.083	0.0165102
709.161	0.0163885
709.239	0.0163770
709.317	0.0162894
709.396	0.0163586
709.474	0.0161736
709.552	0.0161809
709.630	0.0162556
709.708	0.0162589
709.786	0.0161345
709.864	0.0161897
709.942	0.0161517
710.021	0.0161414
710.099	0.0163698
710.177	0.0163316
710.255	0.0163240
710.333	0.0163773
710.411	0.0166251
710.489	0.0165652
710.567	0.0167045
710.646	0.0167196
710.724	0.0165923
710.802	0.0167975
710.880	0.0166622
710.958	0.0166880
711.036	0.0168698
711.114	0.0167932
711.192	0.0168148
711.271	0.0167644
711.349	0.0168586
711.427	0.0167924
711.505	0.0167832
711.583	0.0166943
711.661	0.0166153
711.739	0.0164912
711.817	0.0165057
711.896	0.0163905
711.974	0.0165022
712.052	0.0163221
712.130	0.0162051
712.208	0.0163063
712.286	0.0162183
712.364	0.0161588
712.442	0.0162072
712.521	0.0162630
712.599	0.0161794
712.677	0.0160761
712.755	0.0160735
712.833	0.0160718
712.911	0.0163387
712.989	0.0163220
713.067	0.0163943
713.146	0.0164773
713.224	0.0165556
713.302	0.0164696
713.380	0.0166881
713.458	0.0168253
713.536	0.0166949
713.614	0.0166649
713.692	0.0168275
713.771	0.0169027
713.849	0.0167807
713.927	0.0167602
714.005	0.0168454
714.083	0.0169180
714.161	0.0167467
714.239	0.0168964
714.317	0.0169863
714.396	0.0167545
714.474	0.0167750
714.552	0.0168326
714.630	0.0167974
714.708	0.0166960
714.786	0.0165600
714.864	0.0166006
714.942	0.0166234
715.021	0.0165536
715.099	0.0164079
715.177	0.0163561
715.255	0.0165533
715.333	0.0164156
715.411	0.0163900
715.489	0.0164260
715.567	0.0164812
715.646	0.0164349
715.724	0.0164695
715.802	0.0164140
715.880	0.0164798
715.958	0.0163702
716.036	0.0165422
716.114	0.0164945
716.192	0.0163687
716.271	0.0166119
716.349	0.0165897
716.427	0.0165163
716.505	0.0165707
716.583	0.0164671
716.661	0.0164492
716.739	0.0164950
716.817	0.0166061
716.896	0.0165240
716.974	0.0165601
717.052	0.0165844
717.130	0.0166239
717.208	0.0164743
717.286	0.0165407
717.364	0.0165218
717.442	0.0165261
717.521	0.0164128
717.599	0.0164706
717.677	0.0165636
717.755	0.0164609
717.833	0.0165605
717.911	0.0166261
717.989	0.0165234
718.067	0.0166304
718.146	0.0166785
718.224	0.0166024
718.302	0.0167584
718.380	0.0166759
718.458	0.0166695
718.536	0.0167616
718.614	0.0166602
718.692	0.0168294
718.771	0.0167122
718.849	0.0165125
718.927	0.0167046
719.005	0.0166028
719.083	0.0166404
719.161	0.0166148
719.239	0.0166138
719.317	0.0166171
719.396	0.0165034
719.474	0.0164755
719.552	0.0164738
719.630	0.0164816
719.708	0.0163746
719.786	0.0164040
719.864	0.0165733
719.942	0.0164963
720.021	0.0163827
720.099	0.0163089
720.177	0.0164021
720.255	0.0164512
720.333	0.0164626
720.411	0.0162810
720.489	0.0162141
720.567	0.0164565
720.646	0.0164398
720.724	0.0164732
720.802	0.0163290
720.880	0.0164590
720.958	0.0163091
721.036	0.0163358
721.114	0.0163854
721.192	0.0162547
721.271	0.0163502
721.349	0.0163363
721.427	0.0163390
721.505	0.0162778
721.583	0.0163815
721.661	0.0163700
721.739	0.0163317
721.817	0.0163796
721.896	0.0165675
721.974	0.0164122
722.052	0.0164065
722.130	0.0164356
722.208	0.0164126
722.286	0.0164199
722.364	0.0163632
722.442	0.0164502
722.521	0.0163857
722.599	0.0164640
722.677	0.0164063
722.755	0.0164275
722.833	0.0166248
722.911	0.0164369
722.989	0.0165169
723.067	0.0164581
723.146	0.0166048
723.224	0.0166835
723.302	0.0165756
723.380	0.0168311
723.458	0.0166912
723.536	0.0166550
723.614	0.0168047
723.692	0.0169148
723.771	0.0167065
723.849	0.0168623
723.927	0.0168787
724.005	0.0168462
724.083	0.0168043
724.161	0.0167863
724.239	0.0168456
724.317	0.0167849
724.396	0.0169526
724.474	0.0167391
724.552	0.0165855
724.630	0.0166668
724.708	0.0166016
724.786	0.0165104
724.864	0.0165472
724.942	0.0165055
725.021	0.0165022
725.099	0.0163010
725.177	0.0163876
725.255	0.0164522
725.333	0.0164620
725.411	0.0164787
725.489	0.0165041
725.567	0.0164571
725.646	0.0163849
725.724	0.0164495
725.802	0.0165797
725.880	0.0164826
725.958	0.0162819
726.036	0.0163577
726.114	0.0164056
726.192	0.0163673
726.271	0.0164822
726.349	0.0164854
726.427	0.0163563
726.505	0.0165090
726.583	0.0164201
726.661	0.0164742
726.739	0.0164820
726.817	0.0163953
726.896	0.0165337
726.974	0.0164636
727.052	0.0165339
727.130	0.0166153
727.208	0.0166004
727.286	0.0164906
727.364	0.0166669
727.442	0.0166795
727.521	0.0165683
727.599	0.0165298
727.677	0.0165487
727.755	0.0164678
727.833	0.0166309
727.911	0.0165041
727.989	0.0165688
728.067	0.0164966
728.146	0.0166325
728.224	0.0166507
728.302	0.0165398
728.380	0.0166220
728.458	0.0165543
728.536	0.0165843
728.614	0.0165625
728.692	0.0165182
728.771	0.0165279
728.849	0.0167112
728.927	0.0165957
729.005	0.0165166
729.083	0.0167036
729.161	0.0167153
729.239	0.0166306
729.317	0.0167469
729.396	0.0167351
729.474	0.0166523
729.552	0.0166377
729.630	0.0166070
729.708	0.0164067
729.786	0.0164377
729.864	0.0164964
729.942	0.0163550
730.021	0.0164649
730.099	0.0165075
730.177	0.0163374
730.255	0.0163258
730.333	0.0163364
730.411	0.0163652
730.489	0.0163447
730.567	0.0164789
730.646	0.0164563
730.724	0.0162516
730.802	0.0164438
730.880	0.0164375
730.958	0.0166644
731.036	0.0164159
731.114	0.0164001
731.192	0.0164567
731.271	0.0165923
731.349	0.0165186
731.427	0.0164510
731.505	0.0165890
731.583	0.0165865
731.661	0.0166018
731.739	0.0164299
731.817	0.0164188
731.896	0.0164816
731.974	0.0164905
732.052	0.0163612
732.130	0.0164758
732.208	0.0163802
732.286	0.0164203
732.364	0.0165683
732.442	0.0165852
732.521	0.0165869
732.599	0.0166353
732.677	0.0166315
732.755	0.0167241
732.833	0.0166563
732.911	0.0166441
732.989	0.0166490
733.067	0.0167064
733.146	0.0166228
733.224	0.0164899
733.302	0.0166528
733.380	0.0165478
733.458	0.0164615
733.536	0.0166187
733.614	0.0165218
733.692	0.0165269
733.771	0.0165664
733.849	0.0164048
733.927	0.0165855
734.005	0.0165595
734.083	0.0165297
734.161	0.0166316
734.239	0.0164697
734.317	0.0166327
734.396	0.0166435
734.474	0.0167811
734.552	0.0165624
734.630	0.0166891
734.708	0.0167343
734.786	0.0166423
734.864	0.0166342
734.942	0.0166238
735.021	0.0166819
735.099	0.0166031
735.177	0.0164711
735.255	0.0165867
735.333	0.0166866
735.411	0.0165967
735.489	0.0165900
735.567	0.0164070
735.646	0.0164751
735.724	0.0165215
735.802	0.0164146
735.880	0.0163653
735.958	0.0163969
736.036	0.0164492
736.114	0.0163806
736.192	0.0163850
736.271	0.0164266
736.349	0.0162790
736.427	0.0164475
736.505	0.0165194
736.583	0.0166207
736.661	0.0165217
736.739	0.0163365
736.817	0.0164676
736.896	0.0165054
736.974	0.0164693
737.052	0.0166379
737.130	0.0164437
737.208	0.0165057
737.286	0.0166732
737.364	0.0165034
737.442	0.0165666
737.521	0.0166362
737.599	0.0166328
737.677	0.0166390
737.755	0.0167347
737.833	0.0166835
737.911	0.0168076
737.989	0.0167204
738.067	0.0166821
738.146	0.0165328
738.224	0.0165766
738.302	0.0168152
738.380	0.0165494
738.458	0.0165421
738.536	0.0167577
738.614	0.0165984
738.692	0.0164782
738.771	0.0166181
738.849	0.0166702
738.927	0.0166160
739.005	0.0165140
739.083	0.0165933
739.161	0.0165070
739.239	0.0165347
739.317	0.0164907
739.396	0.0164356
739.474	0.0165368
739.552	0.0165340
739.630	0.0164463
739.708	0.0165459
739.786	0.0164553
739.864	0.0164299
739.942	0.0164735
740.021	0.0164651
740.099	0.0164011
740.177	0.0164619
740.255	0.0164603
740.333	0.0164162
740.411	0.0165107
740.489	0.0164662
740.567	0.0166404
740.646	0.0166047
740.724	0.0164787
740.802	0.0165677
740.880	0.0165382
740.958	0.0166918
741.036	0.0165302
741.114	0.0164861
741.192	0.0165556
741.271	0.0165600
741.349	0.0165067
741.427	0.0167901
741.505	0.0166662
741.583	0.0163785
741.661	0.0165760
741.739	0.0165143
741.817	0.0163947
741.896	0.0163663
741.974	0.0164578
742.052	0.0164643
742.130	0.0163279
742.208	0.0164566
742.286	0.0163564
742.364	0.0164728
742.442	0.0163924
742.521	0.0162118
742.599	0.0164371
742.677	0.0164285
742.755	0.0163322
742.833	0.0164668
742.911	0.0166264
742.989	0.0165284
743.067	0.0165321
743.146	0.0164458
743.224	0.0165427
743.302	0.0165348
743.380	0.0166442
743.458	0.0165746
743.536	0.0166090
743.614	0.0165896
743.692	0.0165622
743.771	0.0165855
743.849	0.0165590
743.927	0.0164902
744.005	0.0165763
744.083	0.0166364
744.161	0.0165201
744.239	0.0164697
744.317	0.0167023
744.396	0.0165469
744.474	0.0163947
744.552	0.0165456
744.630	0.0166573
744.708	0.0165912
744.786	0.0165932
744.864	0.0164761
744.942	0.0165025
745.021	0.0167153
745.099	0.0166611
745.177	0.0167805
745.255	0.0166760
745.333	0.0166190
745.411	0.0164590
745.489	0.0166846
745.567	0.0168149
745.646	0.0165517
745.724	0.0166448
745.802	0.0164761
745.880	0.0165077
745.958	0.0165089
746.036	0.0164378
746.114	0.0163652
746.192	0.0165195
746.271	0.0164635
746.349	0.0165366
746.427	0.0166258
746.505	0.0163908
746.583	0.0164333
746.661	0.0164472
746.739	0.0165903
746.817	0.0166394
746.896	0.0165564
746.974	0.0166083
747.052	0.0168519
747.130	0.0167081
747.208	0.0165715
747.286	0.0166325
747.364	0.0167441
747.442	0.0166605
747.521	0.0166849
747.599	0.0167580
747.677	0.0166071
747.755	0.0165626
747.833	0.0165815
747.911	0.0166039
747.989	0.0164458
748.067	0.0164181
748.146	0.0165825
748.224	0.0165240
748.302	0.0164328
748.380	0.0164657
748.458	0.0162638
748.536	0.0163123
748.614	0.0163123
748.692	0.0163907
748.771	0.0164455
748.849	0.0163393
748.927	0.0164095
749.005	0.0162134
749.083	0.0162901
749.161	0.0164774
749.239	0.0164895
749.317	0.0164005
749.396	0.0164463
749.474	0.0165203
749.552	0.0164147
749.630	0.0164235
749.708	0.0165629
749.786	0.0165412
749.864	0.0164594
749.942	0.0165148
750.021	0.0165936
750.099	0.0166802
750.177	0.0166326
750.255	0.0164709
750.333	0.0165441
750.411	0.0165230
750.489	0.0166740
750.567	0.0165147
750.646	0.0165193
750.724	0.0166236
750.802	0.0165565
750.880	0.0164719
750.958	0.0165453
751.036	0.0165936
751.114	0.0164754
751.192	0.0165369
751.271	0.0165337
751.349	0.0165178
751.427	0.0165495
751.505	0.0164420
751.583	0.0164392
751.661	0.0164956
751.739	0.0164449
751.817	0.0163964
751.896	0.0163146
751.974	0.0163506
752.052	0.0164411
752.130	0.0164015
752.208	0.0164394
752.286	0.0163433
752.364	0.0162887
752.442	0.0164716
752.521	0.0163934
752.599	0.0163041
752.677	0.0163784
752.755	0.0165370
752.833	0.0165582
752.911	0.0165394
752.989	0.0165376
753.067	0.0165311
753.146	0.0164359
753.224	0.0165386
753.302	0.0165895
753.380	0.0164203
753.458	0.0165769
753.536	0.0166499
753.614	0.0166708
753.692	0.0165120
753.771	0.0165463
753.849	0.0165898
753.927	0.0165383
754.005	0.0165457
754.083	0.0165282
754.161	0.0165979
754.239	0.0164668
754.317	0.0165433
754.396	0.0166095
754.474	0.0165921
754.552	0.0165778
754.630	0.0164634
754.708	0.0164297
754.786	0.0164271
754.864	0.0165557
754.942	0.0166099
755.021	0.0165350
755.099	0.0163710
755.177	0.0165224
755.255	0.0165385
755.333	0.0165771
755.411	0.0164991
755.489	0.0166750
755.567	0.0166236
755.646	0.0165532
755.724	0.0166006
755.802	0.0167176
755.880	0.0166280
755.958	0.0164538
756.036	0.0165778
756.114	0.0166196
756.192	0.0166380
756.271	0.0165237
756.349	0.0164265
756.427	0.0164532
756.505	0.0165260
756.583	0.0165024
756.661	0.0164710
756.739	0.0164077
756.817	0.0163052
756.896	0.0164059
756.974	0.0162719
757.052	0.0162891
757.130	0.0164272
757.208	0.0163806
757.286	0.0163552
757.364	0.0163914
757.442	0.0164230
757.521	0.0163251
757.599	0.0164883
757.677	0.0166299
757.755	0.0165341
757.833	0.0166461
757.911	0.0166424
757.989	0.0166029
758.067	0.0166442
758.146	0.0165740
758.224	0.0165670
758.302	0.0165775
758.380	0.0165743
758.458	0.0166138
758.536	0.0165809
758.614	0.0165833
758.692	0.0163792
758.771	0.0165315
758.849	0.0163937
758.927	0.0164697
759.005	0.0164320
759.083	0.0163454
759.161	0.0163326
759.239	0.0164246
759.317	0.0164706
759.396	0.0162508
759.474	0.0162244
759.552	0.0163677
759.630	0.0163224
759.708	0.0163982
759.786	0.0164920
759.864	0.0164915
759.942	0.0165714
760.021	0.0164277
760.099	0.0165001
760.177	0.0165221
760.255	0.0165058
760.333	0.0164738
760.411	0.0166363
760.489	0.0163982
760.567	0.0166283
760.646	0.0165754
760.724	0.0166133
760.802	0.0165737
760.880	0.0166546
760.958	0.0166598
761.036	0.0166247
761.114	0.0166827
761.192	0.0166508
761.271	0.0165943
761.349	0.0165624
761.427	0.0167932
761.505	0.0165344
761.583	0.0165220
761.661	0.0165796
761.739	0.0165806
761.817	0.0166111
761.896	0.0164342
761.974	0.0164634
762.052	0.0165648
762.130	0.0165945
762.208	0.0165350
762.286	0.0164151
762.364	0.0164200
762.442	0.0166145
762.521	0.0165669
762.599	0.0165751
762.677	0.0164650
762.755	0.0165067
762.833	0.0166069
762.911	0.0166358
762.989	0.0164968
763.067	0.0164941
763.146	0.0166109
763.224	0.0165198
763.302	0.0166568
763.380	0.0165115
763.458	0.0166012
763.536	0.0165092
763.614	0.0164861
763.692	0.0166467
763.771	0.0164909
763.849	0.0166242
763.927	0.0166113
764.005	0.0166845
764.083	0.0166219
764.161	0.0165337
764.239	0.0165282
764.317	0.0165595
764.396	0.0166581
764.474	0.0165475
764.552	0.0165945
764.630	0.0165771
764.708	0.0165391
764.786	0.0165520
764.864	0.0164627
764.942	0.0163334
765.021	0.0163722
765.099	0.0165833
765.177	0.0164697
765.255	0.0165176
765.333	0.0163647
765.411	0.0164344
765.489	0.0164503
765.567	0.0164729
765.646	0.0164265
765.724	0.0163857
765.802	0.0163924
765.880	0.0163774
765.958	0.0164893
766.036	0.0164536
766.114	0.0165218
766.192	0.0166141
766.271	0.0163332
766.349	0.0163915
766.427	0.0165294
766.505	0.0166020
766.583	0.0166169
766.661	0.0166618
766.739	0.0166454
766.817	0.0166492
766.896	0.0165738
766.974	0.0165924
767.052	0.0164939
767.130	0.0165858
767.208	0.0165529
767.286	0.0164878
767.364	0.0165932
767.442	0.0165064
767.521	0.0165016
767.599	0.0164484
767.677	0.0164479
767.755	0.0165080
767.833	0.0164084
767.911	0.0164816
767.989	0.0166318
768.067	0.0165603
768.146	0.0165523
768.224	0.0164951
768.302	0.0165272
768.380	0.0164752
768.458	0.0164326
768.536	0.0165608
768.614	0.0164851
768.692	0.0165959
768.771	0.0166351
768.849	0.0165746
768.927	0.0166280
769.005	0.0165707
769.083	0.0165730
769.161	0.0165794
769.239	0.0165789
769.317	0.0166709
769.396	0.0165745
769.474	0.0166573
769.552	0.0166561
769.630	0.0166315
769.708	0.0168095
769.786	0.0165931
769.864	0.0164609
769.942	0.0165215
770.021	0.0165276
770.099	0.0165224
770.177	0.0165034
770.255	0.0164134
770.333	0.0164807
770.411	0.0165345
770.489	0.0165405
770.567	0.0164315
770.646	0.0165276
770.724	0.0164764
770.802	0.0163504
770.880	0.0165025
770.958	0.0164667
771.036	0.0163519
771.114	0.0164546
771.192	0.0165267
771.271	0.0164812
771.349	0.0165726
771.427	0.0163871
771.505	0.0164230
771.583	0.0163004
771.661	0.0165308
771.739	0.0164489
771.817	0.0163486
771.896	0.0163734
771.974	0.0165279
772.052	0.0165065
772.130	0.0165089
772.208	0.0166608
772.286	0.0166499
772.364	0.0166862
772.442	0.0166250
772.521	0.0165916
772.599	0.0166963
772.677	0.0167626
772.755	0.0166364
772.833	0.0166267
772.911	0.0166560
772.989	0.0166961
773.067	0.0166209
773.146	0.0165438
773.224	0.0166642
773.302	0.0165549
773.380	0.0165527
773.458	0.0164330
773.536	0.0163320
773.614	0.0163385
773.692	0.0165568
773.771	0.0164483
773.849	0.0163281
773.927	0.0164094
774.005	0.0163689
774.083	0.0164933
774.161	0.0164251
774.239	0.0162260
774.317	0.0164352
774.396	0.0163976
774.474	0.0164591
774.552	0.0164765
774.630	0.0165343
774.708	0.0164869
774.786	0.0165792
774.864	0.0165631
774.942	0.0163522
775.021	0.0164806
775.099	0.0164732
775.177	0.0165216
775.255	0.0165973
775.333	0.0165575
775.411	0.0165392
775.489	0.0166043
775.567	0.0165149
775.646	0.0164407
775.724	0.0164867
775.802	0.0163977
775.880	0.0166587
775.958	0.0164115
776.036	0.0164123
776.114	0.0165730
776.192	0.0164819
776.271	0.0165926
776.349	0.0166114
776.427	0.0165186
776.505	0.0165603
776.583	0.0166357
776.661	0.0166364
776.739	0.0166179
776.817	0.0166624
776.896	0.0165054
776.974	0.0166840
777.052	0.0166013
777.130	0.0167120
777.208	0.0167211
777.286	0.0166962
777.364	0.0165345
777.442	0.0166180
777.521	0.0165457
777.599	0.0166185
777.677	0.0165923
777.755	0.0166096
777.833	0.0164103
777.911	0.0166344
777.989	0.0164729
778.067	0.0163691
778.146	0.0163335
778.224	0.0165726
778.302	0.0164007
778.380	0.0164681
778.458	0.0165591
778.536	0.0163645
778.614	0.0164610
778.692	0.0165042
778.771	0.0165344
778.849	0.0165307
778.927	0.0165655
779.005	0.0165366
779.083	0.0165582
779.161	0.0164328
779.239	0.0165878
779.317	0.0165427
779.396	0.0165375
779.474	0.0164719
779.552	0.0166318
779.630	0.0165405
779.708	0.0165009
779.786	0.0166538
779.864	0.0164605
779.942	0.0164714
780.021	0.0164402
780.099	0.0166223
780.177	0.0164902
780.255	0.0164979
780.333	0.0165776
780.411	0.0165059
780.489	0.0164484
780.567	0.0165124
780.646	0.0164578
780.724	0.0163231
780.802	0.0164304
780.880	0.0165636
780.958	0.0164396
781.036	0.0163467
781.114	0.0165020
781.192	0.0164884
781.271	0.0163469
781.349	0.0164263
781.427	0.0163376
781.505	0.0164831
781.583	0.0165362
781.661	0.0165314
781.739	0.0164034
781.817	0.0165172
781.896	0.0166231
781.974	0.0163849
782.052	0.0164957
782.130	0.0163898
782.208	0.0164144
782.286	0.0164532
782.364	0.0164250
782.442	0.0164150
782.521	0.0164777
782.599	0.0164505
782.677	0.0163943
782.755	0.0163754
782.833	0.0164877
782.911	0.0164064
782.989	0.0164191
783.067	0.0164907
783.146	0.0165163
783.224	0.0163900
783.302	0.0164612
783.380	0.0166303
783.458	0.0165572
783.536	0.0165922
783.614	0.0163553
783.692	0.0165302
783.771	0.0165752
783.849	0.0165223
783.927	0.0165528
784.005	0.0165571
784.083	0.0165775
784.161	0.0165701
784.239	0.0165598
784.317	0.0164793
784.396	0.0164626
784.474	0.0166685
784.552	0.0165830
784.630	0.0165255
784.708	0.0162931
784.786	0.0164565
784.864	0.0164299
784.942	0.0164998
785.021	0.0163276
785.099	0.0165658
785.177	0.0164595
785.255	0.0163736
785.333	0.0164612
785.411	0.0164401
785.489	0.0166373
785.567	0.0164899
785.646	0.0164305
785.724	0.0165865
785.802	0.0166274
785.880	0.0165496
785.958	0.0166295
786.036	0.0165550
786.114	0.0166797
786.192	0.0166155
786.271	0.0166656
786.349	0.0166877
786.427	0.0166527
786.505	0.0166963
786.583	0.0166291
786.661	0.0166298
786.739	0.0165818
786.817	0.0166589
786.896	0.0167735
786.974	0.0165663
787.052	0.0165653
787.130	0.0164782
787.208	0.0165275
787.286	0.0163965
787.364	0.0164563
787.442	0.0165472
787.521	0.0164406
787.599	0.0164303
787.677	0.0163685
787.755	0.0164510
787.833	0.0164773
787.911	0.0164325
787.989	0.0164820
788.067	0.0165120
788.146	0.0163890
788.224	0.0164717
788.302	0.0165929
788.380	0.0165812
788.458	0.0165704
788.536	0.0164374
788.614	0.0166071
788.692	0.0166245
788.771	0.0165403
788.849	0.0164317
788.927	0.0165868
789.005	0.0164451
789.083	0.0165240
789.161	0.0165963
789.239	0.0164919
789.317	0.0165220
789.396	0.0164258
789.474	0.0166147
789.552	0.0165440
789.630	0.0164458
789.708	0.0164290
789.786	0.0166097
789.864	0.0165331
789.942	0.0166930
790.021	0.0164593
790.099	0.0166177
790.177	0.0166607
790.255	0.0165578
790.333	0.0165855
790.411	0.0165813
790.489	0.0166401
790.567	0.0164616
790.646	0.0166760
790.724	0.0166248
790.802	0.0165621
790.880	0.0167216
790.958	0.0164689
791.036	0.0165005
791.114	0.0166005
791.192	0.0167788
791.271	0.0167294
791.349	0.0165306
791.427	0.0165325
791.505	0.0165363
791.583	0.0166086
791.661	0.0165038
791.739	0.0166251
791.817	0.0166375
791.896	0.0165920
791.974	0.0165278
792.052	0.0164924
792.130	0.0164688
792.208	0.0167382
792.286	0.0166009
792.364	0.0166172
792.442	0.0164549
792.521	0.0166712
792.599	0.0164950
792.677	0.0165333
792.755	0.0164825
792.833	0.0166440
792.911	0.0165677
792.989	0.0164278
793.067	0.0165464
793.146	0.0165611
793.224	0.0165352
793.302	0.0165910
793.380	0.0165796
793.458	0.0164978
793.536	0.0164231
793.614	0.0165553
793.692	0.0164531
793.771	0.0165153
793.849	0.0165019
793.927	0.0165456
794.005	0.0166902
794.083	0.0165146
794.161	0.0165533
794.239	0.0165858
794.317	0.0165594
794.396	0.0164648
794.474	0.0165102
794.552	0.0165071
794.630	0.0165301
794.708	0.0166305
794.786	0.0164584
794.864	0.0164783
794.942	0.0164776
795.021	0.0164622
795.099	0.0165803
795.177	0.0165285
795.255	0.0166030
795.333	0.0163272
795.411	0.0164516
795.489	0.0164621
795.567	0.0164093
795.646	0.0163524
795.724	0.0165469
795.802	0.0164838
795.880	0.0163381
795.958	0.0163792
796.036	0.0164291
796.114	0.0165221
796.192	0.0164124
796.271	0.0163622
796.349	0.0166415
796.427	0.0164892
796.505	0.0163988
796.583	0.0166126
796.661	0.0166655
796.739	0.0166270
796.817	0.0165460
796.896	0.0167079
796.974	0.0166218
797.052	0.0164600
797.130	0.0165569
797.208	0.0165268
797.286	0.0166666
797.364	0.0166628
797.442	0.0166095
797.521	0.0166296
797.599	0.0165599
797.677	0.0166759
797.755	0.0166654
797.833	0.0166489
797.911	0.0165932
797.989	0.0165154
798.067	0.0165887
798.146	0.0164821
798.224	0.0165831
798.302	0.0166518
798.380	0.0165020
798.458	0.0166551
798.536	0.0165774
798.614	0.0164922
798.692	0.0165733
798.771	0.0166506
798.849	0.0165417
798.927	0.0164616
799.005	0.0164199
799.083	0.0165701
799.161	0.0165910
799.239	0.0164020
799.317	0.0164918
799.396	0.0165433
799.474	0.0164182
799.552	0.0162935
799.630	0.0164370
799.708	0.0164165
799.786	0.0166438
799.864	0.0166530
799.942	0.0164712
800.021	0.0165405
800.099	0.0166976
800.177	0.0164807
800.255	0.0164888
800.333	0.0164719
800.411	0.0166451
800.489	0.0166521
800.567	0.0165730
800.646	0.0165268
800.724	0.0165557
800.802	0.0165685
800.880	0.0165199
800.958	0.0164986
801.036	0.0165016
801.114	0.0164748
801.192	0.0164451
801.271	0.0165285
801.349	0.0163736
801.427	0.0163862
801.505	0.0164586
801.583	0.0163651
801.661	0.0163620
801.739	0.0164712
801.817	0.0164226
801.896	0.0164565
801.974	0.0164015
802.052	0.0166063
802.130	0.0164812
802.208	0.0164732
802.286	0.0165214
802.364	0.0167300
802.442	0.0164948
802.521	0.0164725
802.599	0.0166215
802.677	0.0165412
802.755	0.0166317
802.833	0.0165414
802.911	0.0165257
802.989	0.0164684
803.067	0.0166027
803.146	0.0164675
803.224	0.0164827
803.302	0.0164868
803.380	0.0164610
803.458	0.0165070
803.536	0.0164785
803.614	0.0164989
803.692	0.0164494
803.771	0.0165478
803.849	0.0165101
803.927	0.0164085
804.005	0.0165300
804.083	0.0164280
804.161	0.0164571
804.239	0.0165831
804.317	0.0164501
804.396	0.0165314
804.474	0.0164679
804.552	0.0165807
804.630	0.0166240
804.708	0.0165530
804.786	0.0165099
804.864	0.0165087
804.942	0.0164802
805.021	0.0164445
805.099	0.0164301
805.177	0.0165105
805.255	0.0166688
805.333	0.0163911
805.411	0.0163024
805.489	0.0165400
805.567	0.0165823
805.646	0.0164911
805.724	0.0163929
805.802	0.0164192
805.880	0.0164048
805.958	0.0164824
806.036	0.0165321
806.114	0.0165402
806.192	0.0166309
806.271	0.0165801
806.349	0.0165598
806.427	0.0165219
806.505	0.0165709
806.583	0.0165942
806.661	0.0165971
806.739	0.0165719
806.817	0.0165842
806.896	0.0165161
806.974	0.0164897
807.052	0.0165136
807.130	0.0166000
807.208	0.0165120
807.286	0.0165105
807.364	0.0165964
807.442	0.0165473
807.521	0.0166404
807.599	0.0165660
807.677	0.0165788
807.755	0.0166431
807.833	0.0165469
807.911	0.0165913
807.989	0.0166128
808.067	0.0166477
808.146	0.0165430
808.224	0.0165546
808.302	0.0166782
808.380	0.0167152
808.458	0.0166793
808.536	0.0166777
808.614	0.0165684
808.692	0.0166473
808.771	0.0166129
808.849	0.0166159
808.927	0.0164977
809.005	0.0165990
809.083	0.0166644
809.161	0.0165335
809.239	0.0165609
809.317	0.0165338
809.396	0.0165890
809.474	0.0165571
809.552	0.0164889
809.630	0.0166022
809.708	0.0165672
809.786	0.0164973
809.864	0.0165894
809.942	0.0165804
810.021	0.0164536
810.099	0.0166161
810.177	0.0165463
810.255	0.0166151
810.333	0.0166497
810.411	0.0165855
810.489	0.0165009
810.567	0.0165478
810.646	0.0165145
810.724	0.0165173
810.802	0.0166409
810.880	0.0164834
810.958	0.0164149
811.036	0.0164478
811.114	0.0164390
811.192	0.0165911
811.271	0.0164672
811.349	0.0163897
811.427	0.0164163
811.505	0.0164394
811.583	0.0165878
811.661	0.0164323
811.739	0.0164194
811.817	0.0165401
811.896	0.0165743
811.974	0.0165252
812.052	0.0166465
812.130	0.0165179
812.208	0.0164819
812.286	0.0164995
812.364	0.0166990
812.442	0.0165689
812.521	0.0165163
812.599	0.0165912
812.677	0.0165257
812.755	0.0165420
812.833	0.0166109
812.911	0.0166130
812.989	0.0165921
813.067	0.0164886
813.146	0.0166094
813.224	0.0166270
813.302	0.0165417
813.380	0.0164443
813.458	0.0166216
813.536	0.0166791
813.614	0.0164973
813.692	0.0165130
813.771	0.0165967
813.849	0.0165383
813.927	0.0164976
814.005	0.0166773
814.083	0.0164363
814.161	0.0164705
814.239	0.0163903
814.317	0.0165157
814.396	0.0165786
814.474	0.0164423
814.552	0.0164089
814.630	0.0165067
814.708	0.0164599
814.786	0.0163948
814.864	0.0165187
814.942	0.0166091
815.021	0.0165863
815.099	0.0163691
815.177	0.0164604
815.255	0.0166076
815.333	0.0164716
815.411	0.0165562
815.489	0.0166766
815.567	0.0166387
815.646	0.0165149
815.724	0.0166464
815.802	0.0165961
815.880	0.0164862
815.958	0.0165472
816.036	0.0164761
816.114	0.0165849
816.192	0.0164941
816.271	0.0164952
816.349	0.0165086
816.427	0.0164706
816.505	0.0165126
816.583	0.0164582
816.661	0.0164520
816.739	0.0164433
816.817	0.0163734
816.896	0.0165730
816.974	0.0164338
817.052	0.0164929
817.130	0.0164478
817.208	0.0164849
817.286	0.0164661
817.364	0.0165341
817.442	0.0164742
817.521	0.0165598
817.599	0.0165201
817.677	0.0165714
817.755	0.0164590
817.833	0.0165551
817.911	0.0166087
817.989	0.0165273
818.067	0.0166898
818.146	0.0166248
818.224	0.0165037
818.302	0.0165881
818.380	0.0164898
818.458	0.0164905
818.536	0.0165495
818.614	0.0165867
818.692	0.0165306
818.771	0.0165152
818.849	0.0165250
818.927	0.0166438
819.005	0.0166154
819.083	0.0163440
819.161	0.0165127
819.239	0.0165750
819.317	0.0166414
819.396	0.0165978
819.474	0.0165520
819.552	0.0164644
819.630	0.0165710
819.708	0.0165314
819.786	0.0166776
819.864	0.0165342
819.942	0.0165506
820.021	0.0166552
820.099	0.0167916
820.177	0.0166682
820.255	0.0166521
820.333	0.0165984
820.411	0.0166650
820.489	0.0166585
820.567	0.0167136
820.646	0.0165498
820.724	0.0166504
820.802	0.0166944
820.880	0.0165831
820.958	0.0166022
821.036	0.0165338
821.114	0.0166416
821.192	0.0165459
821.271	0.0164792
821.349	0.0166379
821.427	0.0164445
821.505	0.0164889
821.583	0.0165562
821.661	0.0166331
821.739	0.0165231
821.817	0.0164555
821.896	0.0165085
821.974	0.0165437
822.052	0.0165490
822.130	0.0165443
822.208	0.0165283
822.286	0.0165606
822.364	0.0166720
822.442	0.0166597
822.521	0.0165992
822.599	0.0164307
822.677	0.0166241
822.755	0.0165621
822.833	0.0164739
822.911	0.0166660
822.989	0.0166219
823.067	0.0165345
823.146	0.0164722
823.224	0.0165875
823.302	0.0165589
823.380	0.0165687
823.458	0.0165501
823.536	0.0165800
823.614	0.0166216
823.692	0.0167125
823.771	0.0164277
823.849	0.0165351
823.927	0.0166402
824.005	0.0163948
824.083	0.0164605
824.161	0.0165126
824.239	0.0166342
824.317	0.0164458
824.396	0.0164100
824.474	0.0166087
824.552	0.0165311
824.630	0.0165043
824.708	0.0166301
824.786	0.0164595
824.864	0.0164506
824.942	0.0166151
825.021	0.0165505
825.099	0.0166135
825.177	0.0164767
825.255	0.0165898
825.333	0.0164494
825.411	0.0165708
825.489	0.0164201
825.567	0.0165846
825.646	0.0165070
825.724	0.0166695
825.802	0.0165304
825.880	0.0166714
825.958	0.0166689
826.036	0.0165517
826.114	0.0164926
826.192	0.0166998
826.271	0.0166936
826.349	0.0166069
826.427	0.0166288
826.505	0.0164781
826.583	0.0166171
826.661	0.0166970
826.739	0.0167622
826.817	0.0166676
826.896	0.0166129
826.974	0.0166183
827.052	0.0165652
827.130	0.0164826
827.208	0.0166116
827.286	0.0164949
827.364	0.0165749
827.442	0.0165880
827.521	0.0165801
827.599	0.0165406
827.677	0.0165850
827.755	0.0165817
827.833	0.0165917
827.911	0.0164602
827.989	0.0164829
828.067	0.0165147
828.146	0.0167057
828.224	0.0165799
828.302	0.0164574
828.380	0.0163421
828.458	0.0164011
828.536	0.0166288
828.614	0.0165312
828.692	0.0164561
828.771	0.0165569
828.849	0.0165926
828.927	0.0165885
829.005	0.0165755
829.083	0.0165292
829.161	0.0166071
829.239	0.0165128
829.317	0.0164377
829.396	0.0166019
829.474	0.0165479
829.552	0.0164717
829.630	0.0166259
829.708	0.0165047
829.786	0.0164933
829.864	0.0166269
829.942	0.0165974
830.021	0.0166132
830.099	0.0166771
830.177	0.0165418
830.255	0.0166043
830.333	0.0166991
830.411	0.0165215
830.489	0.0164917
830.567	0.0165216
830.646	0.0165149
830.724	0.0165939
830.802	0.0164628
830.880	0.0165174
830.958	0.0166241
831.036	0.0166425
831.114	0.0165359
831.192	0.0165897
831.271	0.0165015
831.349	0.0165488
831.427	0.0165809
831.505	0.0165657
831.583	0.0166409
831.661	0.0165408
831.739	0.0167001
831.817	0.0165031
831.896	0.0165971
831.974	0.0166048
832.052	0.0167146
832.130	0.0165422
832.208	0.0165347
832.286	0.0165633
832.364	0.0166984
832.442	0.0166994
832.521	0.0164640
832.599	0.0167256
832.677	0.0165648
832.755	0.0164899
832.833	0.0166476
832.911	0.0165613
832.989	0.0166172
833.067	0.0166148
833.146	0.0166022
833.224	0.0165255
833.302	0.0166448
833.380	0.0165454
833.458	0.0165819
833.536	0.0167308
833.614	0.0166946
833.692	0.0165206
833.771	0.0165233
833.849	0.0165359
833.927	0.0164654
834.005	0.0165482
834.083	0.0165093
834.161	0.0165063
834.239	0.0166170
834.317	0.0165474
834.396	0.0164392
834.474	0.0166152
834.552	0.0165311
834.630	0.0166095
834.708	0.0165275
834.786	0.0165530
834.864	0.0166411
834.942	0.0165923
835.021	0.0166520
835.099	0.0166084
835.177	0.0166243
835.255	0.0166550
835.333	0.0165211
835.411	0.0166029
835.489	0.0166202
835.567	0.0166539
835.646	0.0164120
835.724	0.0165447
835.802	0.0165812
835.880	0.0165874
835.958	0.0164781
836.036	0.0164490
836.114	0.0164214
836.192	0.0165513
836.271	0.0166718
836.349	0.0165839
836.427	0.0163879
836.505	0.0165638
836.583	0.0164538
836.661	0.0163669
836.739	0.0164853
836.817	0.0164672
836.896	0.0165859
836.974	0.0164030
837.052	0.0166169
837.130	0.0165034
837.208	0.0164455
837.286	0.0165823
837.364	0.0166003
837.442	0.0166943
837.521	0.0165906
837.599	0.0166003
837.677	0.0165926
837.755	0.0165859
837.833	0.0165765
837.911	0.0165182
837.989	0.0165740
838.067	0.0166925
838.146	0.0167539
838.224	0.0166528
838.302	0.0166153
838.380	0.0165760
838.458	0.0166920
838.536	0.0167020
838.614	0.0166154
838.692	0.0167052
838.771	0.0166166
838.849	0.0166033
838.927	0.0166875
839.005	0.0167074
839.083	0.0166142
839.161	0.0165488
839.239	0.0166422
839.317	0.0165380
839.396	0.0165567
839.474	0.0167184
839.552	0.0165402
839.630	0.0166330
839.708	0.0166198
839.786	0.0166188
839.864	0.0166657
839.942	0.0166174
840.021	0.0165246
840.099	0.0166235
840.177	0.0166772
840.255	0.0166830
840.333	0.0166642
840.411	0.0167255
840.489	0.0165395
840.567	0.0165036
840.646	0.0165793
840.724	0.0166016
840.802	0.0164983
840.880	0.0165823
840.958	0.0165266
841.036	0.0164794
841.114	0.0166706
841.192	0.0165405
841.271	0.0164598
841.349	0.0166202
841.427	0.0166447
841.505	0.0166327
841.583	0.0165596
841.661	0.0166341
841.739	0.0167385
841.817	0.0165404
841.896	0.0164652
841.974	0.0167046
842.052	0.0166946
842.130	0.0164578
842.208	0.0166588
842.286	0.0166083
842.364	0.0165407
842.442	0.0167295
842.521	0.0164667
842.599	0.0165269
842.677	0.0165841
842.755	0.0163735
842.833	0.0164599
842.911	0.0165041
842.989	0.0164624
843.067	0.0164340
843.146	0.0165595
843.224	0.0164471
843.302	0.0164426
843.380	0.0164170
843.458	0.0165754
843.536	0.0165747
843.614	0.0165947
843.692	0.0165743
843.771	0.0165914
843.849	0.0166171
843.927	0.0166063
844.005	0.0165456
844.083	0.0164819
844.161	0.0165414
844.239	0.0164070
844.317	0.0165079
844.396	0.0165222
844.474	0.0165793
844.552	0.0162685
844.630	0.0164262
844.708	0.0165308
844.786	0.0165385
844.864	0.0164243
844.942	0.0162888
845.021	0.0164743
845.099	0.0164959
845.177	0.0164584
845.255	0.0164447
845.333	0.0164874
845.411	0.0165529
845.489	0.0165186
845.567	0.0165029
845.646	0.0166090
845.724	0.0167210
845.802	0.0165981
845.880	0.0166653
845.958	0.0166143
846.036	0.0165972
846.114	0.0165903
846.192	0.0166873
846.271	0.0166525
846.349	0.0166650
846.427	0.0166116
846.505	0.0166853
846.583	0.0166602
846.661	0.0166183
846.739	0.0165980
846.817	0.0166869
846.896	0.0167097
846.974	0.0166552
847.052	0.0167298
847.130	0.0165694
847.208	0.0165339
847.286	0.0166745
847.364	0.0166215
847.442	0.0166348
847.521	0.0165565
847.599	0.0164383
847.677	0.0166502
847.755	0.0166364
847.833	0.0165949
847.911	0.0165936
847.989	0.0166225
848.067	0.0164481
848.146	0.0165754
848.224	0.0164926
848.302	0.0164494
848.380	0.0164499
848.458	0.0165022
848.536	0.0164488
848.614	0.0164943
848.692	0.0164931
848.771	0.0165768
848.849	0.0164515
848.927	0.0163699
849.005	0.0164011
849.083	0.0164734
849.161	0.0164423
849.239	0.0166363
849.317	0.0163175
849.396	0.0163372
849.474	0.0164704
849.552	0.0165500
849.630	0.0164841
849.708	0.0164090
849.786	0.0164143
849.864	0.0166354
849.942	0.0164630
850.021	0.0165616
850.099	0.0165780
850.177	0.0165421
850.255	0.0165100
850.333	0.0166237
850.411	0.0165760
850.489	0.0164341
850.567	0.0166069
850.646	0.0165395
850.724	0.0165385
850.802	0.0165179
850.880	0.0165472
850.958	0.0164797
851.036	0.0166231
851.114	0.0165965
851.192	0.0165374
851.271	0.0166302
851.349	0.0165271
851.427	0.0164496
851.505	0.0165274
851.583	0.0166953
851.661	0.0166779
851.739	0.0166175
851.817	0.0166833
851.896	0.0166619
851.974	0.0165828
852.052	0.0166003
852.130	0.0166624
852.208	0.0166422
852.286	0.0166049
852.364	0.0166489
852.442	0.0166908
852.521	0.0166938
852.599	0.0166351
852.677	0.0166470
852.755	0.0166433
852.833	0.0165586
852.911	0.0165087
852.989	0.0166158
853.067	0.0166444
853.146	0.0166845
853.224	0.0166207
853.302	0.0165503
853.380	0.0165301
853.458	0.0164586
853.536	0.0164919
853.614	0.0165142
853.692	0.0165448
853.771	0.0164255
853.849	0.0163963
853.927	0.0164311
854.005	0.0165233
854.083	0.0165881
854.161	0.0164873
854.239	0.0164372
854.317	0.0162586
854.396	0.0164703
854.474	0.0163922
854.552	0.0164048
854.630	0.0164302
854.708	0.0164233
854.786	0.0164796
854.864	0.0164381
854.942	0.0164553
855.021	0.0163730
855.099	0.0163692
855.177	0.0165554
855.255	0.0165604
855.333	0.0165604
855.411	0.0165080
855.489	0.0164773
855.567	0.0164822
855.646	0.0166064
855.724	0.0165045
855.802	0.0165752
855.880	0.0166177
855.958	0.0166438
856.036	0.0165767
856.114	0.0164184
856.192	0.0166035
856.271	0.0165648
856.349	0.0166364
856.427	0.0166650
856.505	0.0165746
856.583	0.0165482
856.661	0.0166939
856.739	0.0166701
856.817	0.0166656
856.896	0.0165576
856.974	0.0165409
857.052	0.0166199
857.130	0.0167134
857.208	0.0166594
857.286	0.0165544
857.364	0.0167100
857.442	0.0166534
857.521	0.0165892
857.599	0.0166315
857.677	0.0166491
857.755	0.0165055
857.833	0.0166343
857.911	0.0165564
857.989	0.0165582
858.067	0.0165499
858.146	0.0165034
858.224	0.0166239
858.302	0.0165435
858.380	0.0164708
858.458	0.0166854
858.536	0.0165376
858.614	0.0164969
858.692	0.0165964
858.771	0.0166582
858.849	0.0166204
858.927	0.0166196
859.005	0.0166209
859.083	0.0165412
859.161	0.0165190
859.239	0.0165688
859.317	0.0166808
859.396	0.0165987
859.474	0.0166209
859.552	0.0165579
859.630	0.0166255
859.708	0.0166109
859.786	0.0165923
859.864	0.0165894
859.942	0.0165726
860.021	0.0166243
860.099	0.0166560
860.177	0.0166632
860.255	0.0166056
860.333	0.0166839
860.411	0.0164985
860.489	0.0165869
860.567	0.0165218
860.646	0.0165417
860.724	0.0166270
860.802	0.0165726
860.880	0.0165885
860.958	0.0165451
861.036	0.0164719
861.114	0.0166711
861.192	0.0165823
861.271	0.0165095
861.349	0.0164425
861.427	0.0166039
861.505	0.0166154
861.583	0.0165936
861.661	0.0165091
861.739	0.0165582
861.817	0.0165629
861.896	0.0165684
861.974	0.0165107
862.052	0.0165726
862.130	0.0166342
862.208	0.0165417
862.286	0.0166744
862.364	0.0165141
862.442	0.0164955
862.521	0.0165255
862.599	0.0165633
862.677	0.0166405
862.755	0.0164555
862.833	0.0165099
862.911	0.0164512
862.989	0.0164649
863.067	0.0165024
863.146	0.0165408
863.224	0.0163986
863.302	0.0165511
863.380	0.0166112
863.458	0.0165387
863.536	0.0165273
863.614	0.0164021
863.692	0.0166008
863.771	0.0165578
863.849	0.0165113
863.927	0.0163657
864.005	0.0165583
864.083	0.0165043
864.161	0.0164439
864.239	0.0165974
864.317	0.0164409
864.396	0.0165369
864.474	0.0163540
864.552	0.0165800
864.630	0.0166064
864.708	0.0164468
864.786	0.0165334
864.864	0.0164832
864.942	0.0165516
865.021	0.0165775
865.099	0.0164964
865.177	0.0165770
865.255	0.0164944
865.333	0.0164285
865.411	0.0163975
865.489	0.0164304
865.567	0.0164853
865.646	0.0165247
865.724	0.0163206
865.802	0.0165073
865.880	0.0165429
865.958	0.0164339
866.036	0.0166566
866.114	0.0164886
866.192	0.0165354
866.271	0.0164734
866.349	0.0165439
866.427	0.0165294
866.505	0.0167075
866.583	0.0166319
866.661	0.0165857
866.739	0.0165990
866.817	0.0167217
866.896	0.0165898
866.974	0.0166364
867.052	0.0166453
867.130	0.0166792
867.208	0.0167493
867.286	0.0167438
867.364	0.0166574
867.442	0.0166310
867.521	0.0165206
867.599	0.0165926
867.677	0.0168000
867.755	0.0167427
867.833	0.0165259
867.911	0.0166239
867.989	0.0165935
868.067	0.0165804
868.146	0.0166706
868.224	0.0165369
868.302	0.0165731
868.380	0.0166762
868.458	0.0165768
868.536	0.0165260
868.614	0.0167503
868.692	0.0166577
868.771	0.0165989
868.849	0.0164984
868.927	0.0164845
869.005	0.0166335
869.083	0.0164714
869.161	0.0164803
869.239	0.0164020
869.317	0.0164075
869.396	0.0164105
869.474	0.0164906
869.552	0.0164990
869.630	0.0163872
869.708	0.0164989
869.786	0.0165197
869.864	0.0164560
869.942	0.0164700
