06/03/2022	15:42:21	Ver.	4.1	UNKNOWN
Optical Delay	550.020508	Delta X		0.078125	Sweeps	1	Scan Rate	0/0
Coordinates	Axis 1	NaN	Axis 2	NaN	Axis 3	NaN	Axis 4	NaN	Axis 5	NaN	Axis 6	0.000000
TX Power	0.000000	RX Power	0.000000

550.021	0.0165522
550.099	0.0167273
550.177	0.0165143
550.255	0.0165002
550.333	0.0165199
550.411	0.0167377
550.489	0.0166871
550.567	0.0165674
550.646	0.0166046
550.724	0.0166142
550.802	0.0164512
550.880	0.0164439
550.958	0.0165990
551.036	0.0165864
551.114	0.0166158
551.192	0.0166771
551.271	0.0165415
551.349	0.0165830
551.427	0.0164365
551.505	0.0164973
551.583	0.0165639
551.661	0.0165945
551.739	0.0165646
551.817	0.0165840
551.896	0.0165800
551.974	0.0166360
552.052	0.0166819
552.130	0.0164983
552.208	0.0164780
552.286	0.0165507
552.364	0.0165390
552.442	0.0164639
552.521	0.0164546
552.599	0.0164709
552.677	0.0164314
552.755	0.0167160
552.833	0.0164458
552.911	0.0164001
552.989	0.0164663
553.067	0.0165453
553.146	0.0165231
553.224	0.0165369
553.302	0.0165392
553.380	0.0165837
553.458	0.0165588
553.536	0.0164898
553.614	0.0166510
553.692	0.0165090
553.771	0.0165820
553.849	0.0164123
553.927	0.0165176
554.005	0.0164831
554.083	0.0164931
554.161	0.0165927
554.239	0.0165527
554.317	0.0165450
554.396	0.0165472
554.474	0.0164276
554.552	0.0164874
554.630	0.0165107
554.708	0.0165209
554.786	0.0164172
554.864	0.0165373
554.942	0.0166172
555.021	0.0164478
555.099	0.0164222
555.177	0.0164897
555.255	0.0166047
555.333	0.0166492
555.411	0.0165273
555.489	0.0165334
555.567	0.0166619
555.646	0.0165237
555.724	0.0166034
555.802	0.0166196
555.880	0.0167389
555.958	0.0165775
556.036	0.0165942
556.114	0.0165710
556.192	0.0165363
556.271	0.0165472
556.349	0.0165994
556.427	0.0165978
556.505	0.0166135
556.583	0.0164059
556.661	0.0165262
556.739	0.0165540
556.817	0.0166282
556.896	0.0165724
556.974	0.0165957
557.052	0.0166011
557.130	0.0166056
557.208	0.0165146
557.286	0.0165835
557.364	0.0165392
557.442	0.0165081
557.521	0.0165795
557.599	0.0165332
557.677	0.0166993
557.755	0.0165609
557.833	0.0165170
557.911	0.0165604
557.989	0.0165883
558.067	0.0165369
558.146	0.0165598
558.224	0.0165363
558.302	0.0165865
558.380	0.0165425
558.458	0.0166611
558.536	0.0165820
558.614	0.0165260
558.692	0.0165120
558.771	0.0164819
558.849	0.0165911
558.927	0.0165599
559.005	0.0167174
559.083	0.0166501
559.161	0.0165292
559.239	0.0165679
559.317	0.0165144
559.396	0.0165203
559.474	0.0166006
559.552	0.0165491
559.630	0.0165464
559.708	0.0165855
559.786	0.0166435
559.864	0.0164870
559.942	0.0164206
560.021	0.0167194
560.099	0.0166604
560.177	0.0165497
560.255	0.0165955
560.333	0.0166367
560.411	0.0165308
560.489	0.0165714
560.567	0.0164298
560.646	0.0166340
560.724	0.0165476
560.802	0.0165788
560.880	0.0165327
560.958	0.0164853
561.036	0.0165356
561.114	0.0164656
561.192	0.0165262
561.271	0.0165359
561.349	0.0165982
561.427	0.0165810
561.505	0.0164497
561.583	0.0164793
561.661	0.0165022
561.739	0.0165108
561.817	0.0165649
561.896	0.0165667
561.974	0.0165247
562.052	0.0165412
562.130	0.0165610
562.208	0.0164204
562.286	0.0164142
562.364	0.0165571
562.442	0.0165735
562.521	0.0165742
562.599	0.0166024
562.677	0.0166208
562.755	0.0166403
562.833	0.0167055
562.911	0.0165086
562.989	0.0164416
563.067	0.0166029
563.146	0.0166519
563.224	0.0166171
563.302	0.0165993
563.380	0.0166312
563.458	0.0165774
563.536	0.0165031
563.614	0.0166072
563.692	0.0165247
563.771	0.0166636
563.849	0.0166003
563.927	0.0165199
564.005	0.0167086
564.083	0.0167316
564.161	0.0166003
564.239	0.0165714
564.317	0.0164616
564.396	0.0166045
564.474	0.0165106
564.552	0.0166927
564.630	0.0166450
564.708	0.0167275
564.786	0.0165844
564.864	0.0166195
564.942	0.0166454
565.021	0.0165958
565.099	0.0166956
565.177	0.0165444
565.255	0.0165059
565.333	0.0165963
565.411	0.0166809
565.489	0.0166766
565.567	0.0165986
565.646	0.0165324
565.724	0.0166820
565.802	0.0166174
565.880	0.0165424
565.958	0.0166177
566.036	0.0166651
566.114	0.0165475
566.192	0.0165072
566.271	0.0166180
566.349	0.0166277
566.427	0.0167067
566.505	0.0165868
566.583	0.0164977
566.661	0.0166367
566.739	0.0165514
566.817	0.0166055
566.896	0.0165095
566.974	0.0165832
567.052	0.0165685
567.130	0.0167155
567.208	0.0166300
567.286	0.0166349
567.364	0.0166122
567.442	0.0166541
567.521	0.0166080
567.599	0.0166960
567.677	0.0165569
567.755	0.0166547
567.833	0.0165053
567.911	0.0167527
567.989	0.0166131
568.067	0.0165657
568.146	0.0165617
568.224	0.0165262
568.302	0.0165220
568.380	0.0167334
568.458	0.0165567
568.536	0.0164933
568.614	0.0167088
568.692	0.0165505
568.771	0.0166298
568.849	0.0166444
568.927	0.0165274
569.005	0.0165970
569.083	0.0166054
569.161	0.0165770
569.239	0.0166373
569.317	0.0166219
569.396	0.0165636
569.474	0.0165086
569.552	0.0166436
569.630	0.0165413
569.708	0.0165091
569.786	0.0165425
569.864	0.0165738
569.942	0.0165741
570.021	0.0165286
570.099	0.0165845
570.177	0.0164000
570.255	0.0165684
570.333	0.0165684
570.411	0.0167320
570.489	0.0165320
570.567	0.0165807
570.646	0.0166277
570.724	0.0165495
570.802	0.0166421
570.880	0.0166241
570.958	0.0166028
571.036	0.0165376
571.114	0.0164100
571.192	0.0165948
571.271	0.0167102
571.349	0.0167425
571.427	0.0165181
571.505	0.0165305
571.583	0.0165792
571.661	0.0166756
571.739	0.0165706
571.817	0.0165189
571.896	0.0166650
571.974	0.0165124
572.052	0.0164747
572.130	0.0166640
572.208	0.0166423
572.286	0.0165569
572.364	0.0164636
572.442	0.0164321
572.521	0.0166266
572.599	0.0165878
572.677	0.0164922
572.755	0.0165772
572.833	0.0165995
572.911	0.0165508
572.989	0.0164572
573.067	0.0164839
573.146	0.0166052
573.224	0.0166939
573.302	0.0166234
573.380	0.0164689
573.458	0.0167200
573.536	0.0165528
573.614	0.0165142
573.692	0.0164399
573.771	0.0165736
573.849	0.0165282
573.927	0.0165867
574.005	0.0166310
574.083	0.0164867
574.161	0.0164214
574.239	0.0165326
574.317	0.0164883
574.396	0.0164615
574.474	0.0165941
574.552	0.0166918
574.630	0.0164590
574.708	0.0165965
574.786	0.0166235
574.864	0.0166077
574.942	0.0165383
575.021	0.0165097
575.099	0.0166084
575.177	0.0165289
575.255	0.0165704
575.333	0.0166444
575.411	0.0165252
575.489	0.0166338
575.567	0.0166778
575.646	0.0165215
575.724	0.0164841
575.802	0.0167015
575.880	0.0164737
575.958	0.0166060
576.036	0.0166135
576.114	0.0166212
576.192	0.0165855
576.271	0.0166753
576.349	0.0166122
576.427	0.0165506
576.505	0.0166534
576.583	0.0164772
576.661	0.0165987
576.739	0.0166618
576.817	0.0166553
576.896	0.0166090
576.974	0.0166026
577.052	0.0165201
577.130	0.0165469
577.208	0.0165451
577.286	0.0167495
577.364	0.0167066
577.442	0.0165221
577.521	0.0165714
577.599	0.0166607
577.677	0.0165575
577.755	0.0165680
577.833	0.0166492
577.911	0.0165580
577.989	0.0165707
578.067	0.0165917
578.146	0.0166391
578.224	0.0166209
578.302	0.0164705
578.380	0.0165865
578.458	0.0166922
578.536	0.0166239
578.614	0.0166803
578.692	0.0164516
578.771	0.0164893
578.849	0.0165706
578.927	0.0165037
579.005	0.0164970
579.083	0.0165688
579.161	0.0166375
579.239	0.0166911
579.317	0.0164861
579.396	0.0165778
579.474	0.0166675
579.552	0.0166945
579.630	0.0166457
579.708	0.0165384
579.786	0.0166410
579.864	0.0166183
579.942	0.0166267
580.021	0.0164938
580.099	0.0167018
580.177	0.0167619
580.255	0.0165122
580.333	0.0165958
580.411	0.0166214
580.489	0.0165636
580.567	0.0164806
580.646	0.0166062
580.724	0.0166254
580.802	0.0166404
580.880	0.0165882
580.958	0.0166727
581.036	0.0164624
581.114	0.0166403
581.192	0.0166179
581.271	0.0165166
581.349	0.0165414
581.427	0.0166078
581.505	0.0166360
581.583	0.0165880
581.661	0.0166716
581.739	0.0166486
581.817	0.0165269
581.896	0.0166444
581.974	0.0164942
582.052	0.0166636
582.130	0.0165672
582.208	0.0165774
582.286	0.0166460
582.364	0.0166418
582.442	0.0166541
582.521	0.0165939
582.599	0.0165102
582.677	0.0166309
582.755	0.0166853
582.833	0.0166920
582.911	0.0165255
582.989	0.0166469
583.067	0.0166839
583.146	0.0166512
583.224	0.0167047
583.302	0.0165410
583.380	0.0165327
583.458	0.0165230
583.536	0.0165788
583.614	0.0165903
583.692	0.0166627
583.771	0.0165778
583.849	0.0166301
583.927	0.0165167
584.005	0.0166154
584.083	0.0165508
584.161	0.0165502
584.239	0.0166135
584.317	0.0165140
584.396	0.0166231
584.474	0.0167142
584.552	0.0166428
584.630	0.0164622
584.708	0.0165206
584.786	0.0167848
584.864	0.0165942
584.942	0.0165356
585.021	0.0166741
585.099	0.0165496
585.177	0.0165715
585.255	0.0167171
585.333	0.0166438
585.411	0.0165153
585.489	0.0166136
585.567	0.0165987
585.646	0.0165737
585.724	0.0166795
585.802	0.0165549
585.880	0.0165799
585.958	0.0165530
586.036	0.0164889
586.114	0.0166032
586.192	0.0165544
586.271	0.0165643
586.349	0.0166420
586.427	0.0165891
586.505	0.0165390
586.583	0.0165270
586.661	0.0164894
586.739	0.0166756
586.817	0.0166097
586.896	0.0165736
586.974	0.0166341
587.052	0.0166647
587.130	0.0167341
587.208	0.0165785
587.286	0.0165776
587.364	0.0165203
587.442	0.0166203
587.521	0.0165514
587.599	0.0165699
587.677	0.0166186
587.755	0.0165723
587.833	0.0166872
587.911	0.0165589
587.989	0.0164959
588.067	0.0165618
588.146	0.0165556
588.224	0.0165093
588.302	0.0165788
588.380	0.0165278
588.458	0.0164877
588.536	0.0166078
588.614	0.0166887
588.692	0.0166448
588.771	0.0165987
588.849	0.0165843
588.927	0.0165779
589.005	0.0165038
589.083	0.0165641
589.161	0.0166202
589.239	0.0166444
589.317	0.0166747
589.396	0.0166093
589.474	0.0163705
589.552	0.0165131
589.630	0.0166056
589.708	0.0166863
589.786	0.0165378
589.864	0.0166154
589.942	0.0167480
590.021	0.0165649
590.099	0.0164870
590.177	0.0165894
590.255	0.0166058
590.333	0.0166572
590.411	0.0165886
590.489	0.0166425
590.567	0.0165369
590.646	0.0166538
590.724	0.0166653
590.802	0.0165087
590.880	0.0166542
590.958	0.0166638
591.036	0.0165254
591.114	0.0165086
591.192	0.0165781
591.271	0.0166195
591.349	0.0165945
591.427	0.0165228
591.505	0.0165990
591.583	0.0165631
591.661	0.0164297
591.739	0.0166061
591.817	0.0166463
591.896	0.0165808
591.974	0.0166781
592.052	0.0166300
592.130	0.0165353
592.208	0.0165826
592.286	0.0166477
592.364	0.0165775
592.442	0.0165327
592.521	0.0166830
592.599	0.0166380
592.677	0.0164875
592.755	0.0165785
592.833	0.0166502
592.911	0.0165508
592.989	0.0166131
593.067	0.0167105
593.146	0.0165670
593.224	0.0166002
593.302	0.0165961
593.380	0.0166328
593.458	0.0166811
593.536	0.0166031
593.614	0.0167357
593.692	0.0164827
593.771	0.0166299
593.849	0.0166782
593.927	0.0165988
594.005	0.0165616
594.083	0.0166478
594.161	0.0166881
594.239	0.0165408
594.317	0.0166461
594.396	0.0166608
594.474	0.0164951
594.552	0.0166231
594.630	0.0165803
594.708	0.0165521
594.786	0.0166156
594.864	0.0165839
594.942	0.0166343
595.021	0.0167004
595.099	0.0164851
595.177	0.0165160
595.255	0.0166426
595.333	0.0166507
595.411	0.0166237
595.489	0.0165343
595.567	0.0164613
595.646	0.0165890
595.724	0.0166029
595.802	0.0166412
595.880	0.0165643
595.958	0.0165989
596.036	0.0166515
596.114	0.0165038
596.192	0.0165291
596.271	0.0165613
596.349	0.0165632
596.427	0.0166030
596.505	0.0166496
596.583	0.0166238
596.661	0.0165915
596.739	0.0165356
596.817	0.0165691
596.896	0.0165218
596.974	0.0166297
597.052	0.0166867
597.130	0.0166684
597.208	0.0164663
597.286	0.0166237
597.364	0.0165637
597.442	0.0165397
597.521	0.0165431
597.599	0.0167397
597.677	0.0165476
597.755	0.0163684
597.833	0.0165980
597.911	0.0165611
597.989	0.0165471
598.067	0.0166481
598.146	0.0165717
598.224	0.0165803
598.302	0.0165605
598.380	0.0166567
598.458	0.0165979
598.536	0.0166454
598.614	0.0164005
598.692	0.0165225
598.771	0.0166861
598.849	0.0166136
598.927	0.0165745
599.005	0.0165564
599.083	0.0166107
599.161	0.0166560
599.239	0.0165195
599.317	0.0165866
599.396	0.0164465
599.474	0.0165711
599.552	0.0166394
599.630	0.0164867
599.708	0.0164571
599.786	0.0166026
599.864	0.0167561
599.942	0.0166184
600.021	0.0164705
600.099	0.0164747
600.177	0.0166590
600.255	0.0165800
600.333	0.0164678
600.411	0.0166140
600.489	0.0165490
600.567	0.0167410
600.646	0.0166467
600.724	0.0166405
600.802	0.0164973
600.880	0.0166409
600.958	0.0165173
601.036	0.0166043
601.114	0.0165150
601.192	0.0166103
601.271	0.0165903
601.349	0.0165501
601.427	0.0165402
601.505	0.0165314
601.583	0.0166884
601.661	0.0165604
601.739	0.0164903
601.817	0.0166807
601.896	0.0165686
601.974	0.0165848
602.052	0.0166073
602.130	0.0166560
602.208	0.0166523
602.286	0.0167404
602.364	0.0166080
602.442	0.0165355
602.521	0.0165321
602.599	0.0165627
602.677	0.0165434
602.755	0.0166596
602.833	0.0165404
602.911	0.0166016
602.989	0.0165791
603.067	0.0167036
603.146	0.0165861
603.224	0.0165195
603.302	0.0165163
603.380	0.0165884
603.458	0.0166524
603.536	0.0165189
603.614	0.0165335
603.692	0.0167256
603.771	0.0165472
603.849	0.0165369
603.927	0.0164864
604.005	0.0165821
604.083	0.0166312
604.161	0.0166379
604.239	0.0166681
604.317	0.0166563
604.396	0.0166793
604.474	0.0164968
604.552	0.0165259
604.630	0.0166498
604.708	0.0166011
604.786	0.0165721
604.864	0.0165519
604.942	0.0164970
605.021	0.0167649
605.099	0.0166246
605.177	0.0165536
605.255	0.0164454
605.333	0.0165128
605.411	0.0164668
605.489	0.0165954
605.567	0.0167300
605.646	0.0165047
605.724	0.0165782
605.802	0.0165768
605.880	0.0165929
605.958	0.0166273
606.036	0.0165126
606.114	0.0165342
606.192	0.0165341
606.271	0.0166982
606.349	0.0166441
606.427	0.0166340
606.505	0.0166675
606.583	0.0164526
606.661	0.0164884
606.739	0.0166299
606.817	0.0166265
606.896	0.0166605
606.974	0.0166847
607.052	0.0165247
607.130	0.0164995
607.208	0.0164951
607.286	0.0165044
607.364	0.0166442
607.442	0.0166190
607.521	0.0166400
607.599	0.0166257
607.677	0.0165504
607.755	0.0164807
607.833	0.0165532
607.911	0.0166460
607.989	0.0165395
608.067	0.0165217
608.146	0.0166793
608.224	0.0165639
608.302	0.0165800
608.380	0.0167915
608.458	0.0166393
608.536	0.0165740
608.614	0.0166953
608.692	0.0164931
608.771	0.0167158
608.849	0.0167735
608.927	0.0166268
609.005	0.0164583
609.083	0.0166645
609.161	0.0165601
609.239	0.0166245
609.317	0.0166360
609.396	0.0166058
609.474	0.0166521
609.552	0.0165855
609.630	0.0166364
609.708	0.0165681
609.786	0.0165640
609.864	0.0166724
609.942	0.0164671
610.021	0.0165231
610.099	0.0166247
610.177	0.0164895
610.255	0.0165954
610.333	0.0166502
610.411	0.0166276
610.489	0.0166606
610.567	0.0165329
610.646	0.0166171
610.724	0.0166283
610.802	0.0165956
610.880	0.0165054
610.958	0.0165307
611.036	0.0166551
611.114	0.0165211
611.192	0.0166946
611.271	0.0166305
611.349	0.0165736
611.427	0.0165947
611.505	0.0166447
611.583	0.0166500
611.661	0.0167358
611.739	0.0165417
611.817	0.0165973
611.896	0.0165903
611.974	0.0167275
612.052	0.0165299
612.130	0.0166508
612.208	0.0165923
612.286	0.0165388
612.364	0.0165430
612.442	0.0167107
612.521	0.0165354
612.599	0.0165047
612.677	0.0166235
612.755	0.0165606
612.833	0.0166432
612.911	0.0168288
612.989	0.0168224
613.067	0.0165829
613.146	0.0165428
613.224	0.0166915
613.302	0.0165963
613.380	0.0166371
613.458	0.0165704
613.536	0.0166000
613.614	0.0164968
613.692	0.0165898
613.771	0.0165879
613.849	0.0166158
613.927	0.0166448
614.005	0.0165586
614.083	0.0165377
614.161	0.0166499
614.239	0.0166117
614.317	0.0167278
614.396	0.0166518
614.474	0.0164886
614.552	0.0165655
614.630	0.0164806
614.708	0.0165720
614.786	0.0166805
614.864	0.0165753
614.942	0.0166080
615.021	0.0167239
615.099	0.0166532
615.177	0.0165742
615.255	0.0167494
615.333	0.0165860
615.411	0.0167052
615.489	0.0166473
615.567	0.0166417
615.646	0.0167188
615.724	0.0165948
615.802	0.0167213
615.880	0.0164771
615.958	0.0167133
616.036	0.0166624
616.114	0.0167742
616.192	0.0165572
616.271	0.0166482
616.349	0.0167088
616.427	0.0165269
616.505	0.0167304
616.583	0.0166377
616.661	0.0165910
616.739	0.0166659
616.817	0.0166096
616.896	0.0165799
616.974	0.0166000
617.052	0.0165634
617.130	0.0165926
617.208	0.0165470
617.286	0.0164579
617.364	0.0164454
617.442	0.0165008
617.521	0.0165362
617.599	0.0165045
617.677	0.0165658
617.755	0.0165142
617.833	0.0166309
617.911	0.0165647
617.989	0.0164507
618.067	0.0165680
618.146	0.0166691
618.224	0.0167044
618.302	0.0165857
618.380	0.0165665
618.458	0.0166664
618.536	0.0166282
618.614	0.0168036
618.692	0.0166029
618.771	0.0165137
618.849	0.0166960
618.927	0.0164977
619.005	0.0165343
619.083	0.0166686
619.161	0.0166763
619.239	0.0164310
619.317	0.0166491
619.396	0.0166106
619.474	0.0165168
619.552	0.0166651
619.630	0.0167538
619.708	0.0165811
619.786	0.0165009
619.864	0.0165660
619.942	0.0166689
620.021	0.0164969
620.099	0.0165675
620.177	0.0164619
620.255	0.0166737
620.333	0.0167675
620.411	0.0166249
620.489	0.0164578
620.567	0.0165860
620.646	0.0166058
620.724	0.0165083
620.802	0.0165644
620.880	0.0166053
620.958	0.0166185
621.036	0.0164794
621.114	0.0165403
621.192	0.0165425
621.271	0.0164804
621.349	0.0166611
621.427	0.0164962
621.505	0.0165730
621.583	0.0165716
621.661	0.0166371
621.739	0.0164938
621.817	0.0165718
621.896	0.0165685
621.974	0.0166180
622.052	0.0165640
622.130	0.0165217
622.208	0.0166066
622.286	0.0166326
622.364	0.0165060
622.442	0.0166543
622.521	0.0166359
622.599	0.0165477
622.677	0.0165271
622.755	0.0166013
622.833	0.0166069
622.911	0.0165641
622.989	0.0165788
623.067	0.0166769
623.146	0.0166142
623.224	0.0166658
623.302	0.0166505
623.380	0.0166720
623.458	0.0165747
623.536	0.0165807
623.614	0.0164986
623.692	0.0165765
623.771	0.0166228
623.849	0.0167477
623.927	0.0165390
624.005	0.0166259
624.083	0.0164949
624.161	0.0164870
624.239	0.0165720
624.317	0.0164989
624.396	0.0165996
624.474	0.0165741
624.552	0.0165163
624.630	0.0164832
624.708	0.0165338
624.786	0.0165790
624.864	0.0165672
624.942	0.0165857
625.021	0.0165350
625.099	0.0166085
625.177	0.0166990
625.255	0.0165565
625.333	0.0165034
625.411	0.0166403
625.489	0.0165965
625.567	0.0164379
625.646	0.0163756
625.724	0.0164950
625.802	0.0164352
625.880	0.0165227
625.958	0.0166127
626.036	0.0165089
626.114	0.0165128
626.192	0.0166163
626.271	0.0165715
626.349	0.0165882
626.427	0.0165621
626.505	0.0165526
626.583	0.0166058
626.661	0.0163824
626.739	0.0164877
626.817	0.0165038
626.896	0.0166676
626.974	0.0165525
627.052	0.0166103
627.130	0.0165674
627.208	0.0164739
627.286	0.0165589
627.364	0.0165881
627.442	0.0164535
627.521	0.0164703
627.599	0.0165243
627.677	0.0165424
627.755	0.0164024
627.833	0.0166053
627.911	0.0166634
627.989	0.0166272
628.067	0.0165424
628.146	0.0165094
628.224	0.0164494
628.302	0.0166639
628.380	0.0165740
628.458	0.0164780
628.536	0.0164195
628.614	0.0165121
628.692	0.0166386
628.771	0.0165947
628.849	0.0165385
628.927	0.0166193
629.005	0.0165107
629.083	0.0166238
629.161	0.0166704
629.239	0.0166343
629.317	0.0165799
629.396	0.0165725
629.474	0.0165069
629.552	0.0165119
629.630	0.0165973
629.708	0.0165362
629.786	0.0164708
629.864	0.0166426
629.942	0.0166762
630.021	0.0165270
630.099	0.0166964
630.177	0.0167731
630.255	0.0165304
630.333	0.0165724
630.411	0.0165623
630.489	0.0165321
630.567	0.0166437
630.646	0.0165839
630.724	0.0165853
630.802	0.0165604
630.880	0.0164494
630.958	0.0164861
631.036	0.0164953
631.114	0.0164974
631.192	0.0165532
631.271	0.0166141
631.349	0.0166505
631.427	0.0164937
631.505	0.0166491
631.583	0.0164605
631.661	0.0165499
631.739	0.0165527
631.817	0.0164906
631.896	0.0165956
631.974	0.0165147
632.052	0.0165344
632.130	0.0167521
632.208	0.0166543
632.286	0.0166444
632.364	0.0165686
632.442	0.0166119
632.521	0.0165192
632.599	0.0165829
632.677	0.0166862
632.755	0.0165160
632.833	0.0166886
632.911	0.0166242
632.989	0.0165291
633.067	0.0165751
633.146	0.0165580
633.224	0.0165472
633.302	0.0164778
633.380	0.0165866
633.458	0.0165572
633.536	0.0166067
633.614	0.0165101
633.692	0.0165004
633.771	0.0165494
633.849	0.0165383
633.927	0.0164698
634.005	0.0165391
634.083	0.0166449
634.161	0.0165054
634.239	0.0165813
634.317	0.0164772
634.396	0.0164798
634.474	0.0164925
634.552	0.0165511
634.630	0.0166367
634.708	0.0165678
634.786	0.0165240
634.864	0.0165749
634.942	0.0166747
635.021	0.0165051
635.099	0.0166316
635.177	0.0165430
635.255	0.0166118
635.333	0.0164910
635.411	0.0166183
635.489	0.0166109
635.567	0.0165599
635.646	0.0165631
635.724	0.0164001
635.802	0.0166751
635.880	0.0165099
635.958	0.0165877
636.036	0.0166187
636.114	0.0166457
636.192	0.0165411
636.271	0.0165702
636.349	0.0163609
636.427	0.0164700
636.505	0.0164659
636.583	0.0167197
636.661	0.0166856
636.739	0.0164566
636.817	0.0165448
636.896	0.0165024
636.974	0.0165244
637.052	0.0165321
637.130	0.0165348
637.208	0.0165828
637.286	0.0165826
637.364	0.0166077
637.442	0.0165360
637.521	0.0164970
637.599	0.0166058
637.677	0.0166100
637.755	0.0164717
637.833	0.0165914
637.911	0.0166319
637.989	0.0166297
638.067	0.0165715
638.146	0.0165883
638.224	0.0167238
638.302	0.0166068
638.380	0.0166228
638.458	0.0165808
638.536	0.0166237
638.614	0.0166772
638.692	0.0166114
638.771	0.0164753
638.849	0.0165138
638.927	0.0167243
639.005	0.0166241
639.083	0.0165914
639.161	0.0165399
639.239	0.0165486
639.317	0.0166220
639.396	0.0165551
639.474	0.0165285
639.552	0.0165065
639.630	0.0165101
639.708	0.0165453
639.786	0.0164450
639.864	0.0166693
639.942	0.0166260
640.021	0.0166560
640.099	0.0166386
640.177	0.0166946
640.255	0.0166122
640.333	0.0166280
640.411	0.0165392
640.489	0.0166153
640.567	0.0166515
640.646	0.0165978
640.724	0.0164831
640.802	0.0166912
640.880	0.0166851
640.958	0.0165588
641.036	0.0164989
641.114	0.0165040
641.192	0.0166609
641.271	0.0166384
641.349	0.0165853
641.427	0.0164964
641.505	0.0165526
641.583	0.0166336
641.661	0.0166903
641.739	0.0166332
641.817	0.0165145
641.896	0.0166637
641.974	0.0165491
642.052	0.0166029
642.130	0.0165375
642.208	0.0166365
642.286	0.0166611
642.364	0.0165719
642.442	0.0165824
642.521	0.0164825
642.599	0.0164050
642.677	0.0164914
642.755	0.0166127
642.833	0.0164838
642.911	0.0167202
642.989	0.0166409
643.067	0.0165347
643.146	0.0165536
643.224	0.0164590
643.302	0.0166553
643.380	0.0166567
643.458	0.0166783
643.536	0.0164978
643.614	0.0166076
643.692	0.0167368
643.771	0.0165679
643.849	0.0165734
643.927	0.0167314
644.005	0.0165095
644.083	0.0165480
644.161	0.0164958
644.239	0.0165104
644.317	0.0166512
644.396	0.0165308
644.474	0.0166008
644.552	0.0166419
644.630	0.0166019
644.708	0.0165221
644.786	0.0165742
644.864	0.0164874
644.942	0.0165888
645.021	0.0166470
645.099	0.0165229
645.177	0.0165115
645.255	0.0165926
645.333	0.0166897
645.411	0.0166700
645.489	0.0166897
645.567	0.0164427
645.646	0.0166310
645.724	0.0165945
645.802	0.0166470
645.880	0.0166648
645.958	0.0166845
646.036	0.0166805
646.114	0.0166726
646.192	0.0167107
646.271	0.0166763
646.349	0.0166759
646.427	0.0166281
646.505	0.0166972
646.583	0.0167538
646.661	0.0167548
646.739	0.0164896
646.817	0.0166500
646.896	0.0166296
646.974	0.0166643
647.052	0.0166177
647.130	0.0166807
647.208	0.0164583
647.286	0.0166674
647.364	0.0166895
647.442	0.0167203
647.521	0.0165942
647.599	0.0165535
647.677	0.0166254
647.755	0.0165417
647.833	0.0165005
647.911	0.0164812
647.989	0.0165476
648.067	0.0166209
648.146	0.0166857
648.224	0.0165991
648.302	0.0165702
648.380	0.0166271
648.458	0.0165259
648.536	0.0166302
648.614	0.0164363
648.692	0.0165875
648.771	0.0166044
648.849	0.0164814
648.927	0.0166222
649.005	0.0165538
649.083	0.0165894
649.161	0.0165992
649.239	0.0165415
649.317	0.0166375
649.396	0.0166068
649.474	0.0165917
649.552	0.0164681
649.630	0.0164733
649.708	0.0164925
649.786	0.0165958
649.864	0.0166105
649.942	0.0165255
650.021	0.0164782
650.099	0.0164841
650.177	0.0166897
650.255	0.0165373
650.333	0.0166134
650.411	0.0166275
650.489	0.0166502
650.567	0.0165159
650.646	0.0165733
650.724	0.0166082
650.802	0.0165331
650.880	0.0166869
650.958	0.0167057
651.036	0.0167026
651.114	0.0167181
651.192	0.0167415
651.271	0.0166530
651.349	0.0166984
651.427	0.0167403
651.505	0.0166235
651.583	0.0166785
651.661	0.0166279
651.739	0.0166452
651.817	0.0166127
651.896	0.0167448
651.974	0.0165850
652.052	0.0164542
652.130	0.0166055
652.208	0.0166450
652.286	0.0166015
652.364	0.0166309
652.442	0.0165221
652.521	0.0166007
652.599	0.0165827
652.677	0.0165350
652.755	0.0165273
652.833	0.0165231
652.911	0.0165895
652.989	0.0165981
653.067	0.0165821
653.146	0.0165868
653.224	0.0164268
653.302	0.0164981
653.380	0.0165836
653.458	0.0166777
653.536	0.0165755
653.614	0.0164957
653.692	0.0165109
653.771	0.0165672
653.849	0.0166065
653.927	0.0165971
654.005	0.0165761
654.083	0.0165926
654.161	0.0164986
654.239	0.0164454
654.317	0.0165681
654.396	0.0165049
654.474	0.0166044
654.552	0.0166768
654.630	0.0166172
654.708	0.0165897
654.786	0.0164007
654.864	0.0166400
654.942	0.0165417
655.021	0.0165749
655.099	0.0164272
655.177	0.0164243
655.255	0.0165828
655.333	0.0165536
655.411	0.0165292
655.489	0.0164337
655.567	0.0164517
655.646	0.0165551
655.724	0.0165269
655.802	0.0164392
655.880	0.0165568
655.958	0.0164847
656.036	0.0165267
656.114	0.0165682
656.192	0.0166212
656.271	0.0165279
656.349	0.0166542
656.427	0.0165498
656.505	0.0165374
656.583	0.0165659
656.661	0.0165172
656.739	0.0164487
656.817	0.0166573
656.896	0.0166449
656.974	0.0164991
657.052	0.0165700
657.130	0.0165430
657.208	0.0166409
657.286	0.0166027
657.364	0.0165585
657.442	0.0163534
657.521	0.0165226
657.599	0.0164976
657.677	0.0163969
657.755	0.0164687
657.833	0.0164671
657.911	0.0165087
657.989	0.0166895
658.067	0.0164709
658.146	0.0164142
658.224	0.0165614
658.302	0.0166154
658.380	0.0164722
658.458	0.0165326
658.536	0.0164977
658.614	0.0165720
658.692	0.0166121
658.771	0.0164487
658.849	0.0164618
658.927	0.0166166
659.005	0.0165167
659.083	0.0164417
659.161	0.0164946
659.239	0.0164631
659.317	0.0164314
659.396	0.0164134
659.474	0.0166219
659.552	0.0164913
659.630	0.0164691
659.708	0.0165316
659.786	0.0164866
659.864	0.0165309
659.942	0.0165980
660.021	0.0165554
660.099	0.0165157
660.177	0.0165659
660.255	0.0165750
660.333	0.0165335
660.411	0.0165720
660.489	0.0164799
660.567	0.0165484
660.646	0.0164963
660.724	0.0166241
660.802	0.0164458
660.880	0.0165149
660.958	0.0167120
661.036	0.0164801
661.114	0.0165876
661.192	0.0164542
661.271	0.0165831
661.349	0.0164984
661.427	0.0165176
661.505	0.0165430
661.583	0.0165247
661.661	0.0165987
661.739	0.0165379
661.817	0.0165037
661.896	0.0166444
661.974	0.0165827
662.052	0.0165367
662.130	0.0165181
662.208	0.0164362
662.286	0.0165228
662.364	0.0166409
662.442	0.0165991
662.521	0.0166603
662.599	0.0164004
662.677	0.0165656
662.755	0.0166447
662.833	0.0165375
662.911	0.0165646
662.989	0.0164730
663.067	0.0165000
663.146	0.0166675
663.224	0.0166388
663.302	0.0165989
663.380	0.0165299
663.458	0.0164796
663.536	0.0165450
663.614	0.0166277
663.692	0.0165516
663.771	0.0165650
663.849	0.0165813
663.927	0.0164790
664.005	0.0165063
664.083	0.0165856
664.161	0.0164764
664.239	0.0166518
664.317	0.0164687
664.396	0.0164539
664.474	0.0165639
664.552	0.0166622
664.630	0.0165794
664.708	0.0165812
664.786	0.0165735
664.864	0.0165745
664.942	0.0166409
665.021	0.0165500
665.099	0.0165054
665.177	0.0165202
665.255	0.0164881
665.333	0.0164359
665.411	0.0165616
665.489	0.0166194
665.567	0.0164950
665.646	0.0165578
665.724	0.0165846
665.802	0.0166199
665.880	0.0165981
665.958	0.0165329
666.036	0.0164556
666.114	0.0165258
666.192	0.0164923
666.271	0.0166969
666.349	0.0165091
666.427	0.0164534
666.505	0.0165327
666.583	0.0166132
666.661	0.0164441
666.739	0.0166236
666.817	0.0166337
666.896	0.0166725
666.974	0.0166599
667.052	0.0166051
667.130	0.0164992
667.208	0.0165759
667.286	0.0165893
667.364	0.0166485
667.442	0.0166001
667.521	0.0166239
667.599	0.0166276
667.677	0.0165604
667.755	0.0166206
667.833	0.0165868
667.911	0.0165880
667.989	0.0166039
668.067	0.0165838
668.146	0.0166109
668.224	0.0164834
668.302	0.0165656
668.380	0.0164875
668.458	0.0165213
668.536	0.0165210
668.614	0.0165619
668.692	0.0166962
668.771	0.0166223
668.849	0.0166788
668.927	0.0164793
669.005	0.0164809
669.083	0.0165773
669.161	0.0165290
669.239	0.0164793
669.317	0.0166595
669.396	0.0165266
669.474	0.0166904
669.552	0.0165842
669.630	0.0165305
669.708	0.0165459
669.786	0.0166688
669.864	0.0164616
669.942	0.0168422
670.021	0.0166419
670.099	0.0166862
670.177	0.0166614
670.255	0.0166849
670.333	0.0165515
670.411	0.0166590
670.489	0.0166245
670.567	0.0167366
670.646	0.0165329
670.724	0.0166562
670.802	0.0166029
670.880	0.0165876
670.958	0.0166460
671.036	0.0164626
671.114	0.0165148
671.192	0.0165703
671.271	0.0166067
671.349	0.0165923
671.427	0.0166456
671.505	0.0165638
671.583	0.0165912
671.661	0.0166717
671.739	0.0165913
671.817	0.0167430
671.896	0.0166928
671.974	0.0166848
672.052	0.0166769
672.130	0.0167147
672.208	0.0166711
672.286	0.0165060
672.364	0.0166451
672.442	0.0165114
672.521	0.0166083
672.599	0.0166159
672.677	0.0167193
672.755	0.0165962
672.833	0.0166953
672.911	0.0165907
672.989	0.0165230
673.067	0.0165434
673.146	0.0167419
673.224	0.0167155
673.302	0.0166124
673.380	0.0165247
673.458	0.0165685
673.536	0.0166069
673.614	0.0166829
673.692	0.0166304
673.771	0.0165516
673.849	0.0165902
673.927	0.0166389
674.005	0.0164744
674.083	0.0166247
674.161	0.0165343
674.239	0.0166063
674.317	0.0164453
674.396	0.0167357
674.474	0.0165785
674.552	0.0165347
674.630	0.0165553
674.708	0.0165498
674.786	0.0166035
674.864	0.0165250
674.942	0.0166623
675.021	0.0166710
675.099	0.0163995
675.177	0.0167091
675.255	0.0166323
675.333	0.0165618
675.411	0.0164216
675.489	0.0164701
675.567	0.0165005
675.646	0.0166785
675.724	0.0165266
675.802	0.0166100
675.880	0.0164835
675.958	0.0166187
676.036	0.0165875
676.114	0.0166088
676.192	0.0166776
676.271	0.0166138
676.349	0.0165155
676.427	0.0164945
676.505	0.0164877
676.583	0.0166473
676.661	0.0166405
676.739	0.0165884
676.817	0.0166092
676.896	0.0167497
676.974	0.0166580
677.052	0.0166337
677.130	0.0165659
677.208	0.0166457
677.286	0.0164545
677.364	0.0165687
677.442	0.0165039
677.521	0.0165221
677.599	0.0164893
677.677	0.0165509
677.755	0.0165792
677.833	0.0167324
677.911	0.0166633
677.989	0.0166672
678.067	0.0166583
678.146	0.0166534
678.224	0.0167370
678.302	0.0167113
678.380	0.0165145
678.458	0.0167207
678.536	0.0164892
678.614	0.0165151
678.692	0.0164340
678.771	0.0163505
678.849	0.0164618
678.927	0.0163845
679.005	0.0165071
679.083	0.0164892
679.161	0.0164529
679.239	0.0165262
679.317	0.0165889
679.396	0.0166529
679.474	0.0166676
679.552	0.0167744
679.630	0.0170245
679.708	0.0169090
679.786	0.0169006
679.864	0.0166859
679.942	0.0166391
680.021	0.0166175
680.099	0.0164300
680.177	0.0163152
680.255	0.0162093
680.333	0.0161306
680.411	0.0161112
680.489	0.0160405
680.567	0.0161442
680.646	0.0161075
680.724	0.0162996
680.802	0.0165694
680.880	0.0167069
680.958	0.0169188
681.036	0.0170095
681.114	0.0170235
681.192	0.0173184
681.271	0.0170690
681.349	0.0170155
681.427	0.0168658
681.505	0.0167443
681.583	0.0164032
681.661	0.0161173
681.739	0.0158544
681.817	0.0157995
681.896	0.0158325
681.974	0.0158762
682.052	0.0160355
682.130	0.0160226
682.208	0.0162381
682.286	0.0165530
682.364	0.0167516
682.442	0.0169652
682.521	0.0170780
682.599	0.0171114
682.677	0.0172964
682.755	0.0171691
682.833	0.0169656
682.911	0.0168877
682.989	0.0166891
683.067	0.0164924
683.146	0.0161110
683.224	0.0159213
683.302	0.0160015
683.380	0.0158788
683.458	0.0159348
683.536	0.0158868
683.614	0.0160028
683.692	0.0161707
683.771	0.0163171
683.849	0.0164539
683.927	0.0165530
684.005	0.0167339
684.083	0.0168694
684.161	0.0170069
684.239	0.0171634
684.317	0.0171346
684.396	0.0169602
684.474	0.0169936
684.552	0.0168556
684.630	0.0167162
684.708	0.0167065
684.786	0.0164085
684.864	0.0162128
684.942	0.0161034
685.021	0.0159641
685.099	0.0160480
685.177	0.0160173
685.255	0.0162248
685.333	0.0161690
685.411	0.0163403
685.489	0.0165662
685.567	0.0168278
685.646	0.0167406
685.724	0.0169546
685.802	0.0170629
685.880	0.0168713
685.958	0.0168750
686.036	0.0168385
686.114	0.0168439
686.192	0.0166769
686.271	0.0165382
686.349	0.0163441
686.427	0.0163344
686.505	0.0163739
686.583	0.0162850
686.661	0.0163150
686.739	0.0163646
686.817	0.0166436
686.896	0.0165520
686.974	0.0165397
687.052	0.0165341
687.130	0.0164552
687.208	0.0164455
687.286	0.0163986
687.364	0.0164589
687.442	0.0164433
687.521	0.0164680
687.599	0.0163999
687.677	0.0165189
687.755	0.0165300
687.833	0.0167117
687.911	0.0166650
687.989	0.0167297
688.067	0.0166750
688.146	0.0168906
688.224	0.0166956
688.302	0.0168091
688.380	0.0166812
688.458	0.0165641
688.536	0.0164589
688.614	0.0162655
688.692	0.0160896
688.771	0.0162248
688.849	0.0161398
688.927	0.0161901
689.005	0.0163503
689.083	0.0164220
689.161	0.0166243
689.239	0.0166756
689.317	0.0167932
689.396	0.0168555
689.474	0.0168519
689.552	0.0169742
689.630	0.0170526
689.708	0.0168949
689.786	0.0168065
689.864	0.0167805
689.942	0.0165775
690.021	0.0165897
690.099	0.0164140
690.177	0.0161114
690.255	0.0160584
690.333	0.0161462
690.411	0.0161908
690.489	0.0163628
690.567	0.0162298
690.646	0.0163367
690.724	0.0166766
690.802	0.0167422
690.880	0.0166543
690.958	0.0169706
691.036	0.0169109
691.114	0.0168048
691.192	0.0168246
691.271	0.0167464
691.349	0.0167052
691.427	0.0166734
691.505	0.0163735
691.583	0.0165402
691.661	0.0164767
691.739	0.0163491
691.817	0.0164759
691.896	0.0165006
691.974	0.0164043
692.052	0.0164935
692.130	0.0165840
692.208	0.0166290
692.286	0.0165688
692.364	0.0164554
692.442	0.0165302
692.521	0.0164523
692.599	0.0165182
692.677	0.0166330
692.755	0.0165179
692.833	0.0163461
692.911	0.0165450
692.989	0.0165714
693.067	0.0166241
693.146	0.0167075
693.224	0.0166316
693.302	0.0166263
693.380	0.0167301
693.458	0.0168341
693.536	0.0166958
693.614	0.0166991
693.692	0.0166508
693.771	0.0165432
693.849	0.0165862
693.927	0.0163879
694.005	0.0164764
694.083	0.0164609
694.161	0.0164327
694.239	0.0164430
694.317	0.0165859
694.396	0.0166257
694.474	0.0166866
694.552	0.0167599
694.630	0.0168434
694.708	0.0170005
694.786	0.0170591
694.864	0.0169329
694.942	0.0169045
695.021	0.0169061
695.099	0.0168461
695.177	0.0166138
695.255	0.0164848
695.333	0.0165673
695.411	0.0164692
695.489	0.0162478
695.567	0.0160332
695.646	0.0161000
695.724	0.0161128
695.802	0.0162651
695.880	0.0162939
695.958	0.0163275
696.036	0.0165292
696.114	0.0165215
696.192	0.0164907
696.271	0.0167184
696.349	0.0166206
696.427	0.0166677
696.505	0.0167688
696.583	0.0167548
696.661	0.0165848
696.739	0.0164214
696.817	0.0163805
696.896	0.0164523
696.974	0.0163164
697.052	0.0163097
697.130	0.0161864
697.208	0.0163158
697.286	0.0163676
697.364	0.0164957
697.442	0.0165523
697.521	0.0165936
697.599	0.0167018
697.677	0.0168163
697.755	0.0169247
697.833	0.0169951
697.911	0.0169786
697.989	0.0169632
698.067	0.0170791
698.146	0.0169408
698.224	0.0167576
698.302	0.0166607
698.380	0.0165714
698.458	0.0164957
698.536	0.0164310
698.614	0.0164137
698.692	0.0164774
698.771	0.0164378
698.849	0.0166123
698.927	0.0165448
699.005	0.0165012
699.083	0.0167890
699.161	0.0169650
699.239	0.0170716
699.317	0.0169318
699.396	0.0169077
699.474	0.0170193
699.552	0.0169217
699.630	0.0168324
699.708	0.0167671
699.786	0.0167323
699.864	0.0165672
699.942	0.0162829
700.021	0.0162710
700.099	0.0162412
700.177	0.0161981
700.255	0.0158514
700.333	0.0158556
700.411	0.0157400
700.489	0.0157420
700.567	0.0156415
700.646	0.0156986
700.724	0.0155283
700.802	0.0157338
700.880	0.0157912
700.958	0.0159300
701.036	0.0160280
701.114	0.0161122
701.192	0.0162645
701.271	0.0164204
701.349	0.0165216
701.427	0.0166407
701.505	0.0167928
701.583	0.0167814
701.661	0.0169219
701.739	0.0170337
701.817	0.0169263
701.896	0.0169521
701.974	0.0169668
702.052	0.0171130
702.130	0.0172058
702.208	0.0170123
702.286	0.0170159
702.364	0.0169883
702.442	0.0169421
702.521	0.0169736
702.599	0.0168265
702.677	0.0171056
702.755	0.0170500
702.833	0.0172285
702.911	0.0170451
702.989	0.0170795
703.067	0.0170505
703.146	0.0169638
703.224	0.0169348
703.302	0.0168680
703.380	0.0166854
703.458	0.0166344
703.536	0.0164316
703.614	0.0163317
703.692	0.0160956
703.771	0.0159484
703.849	0.0160049
703.927	0.0159914
704.005	0.0158114
704.083	0.0158627
704.161	0.0159213
704.239	0.0161684
704.317	0.0161922
704.396	0.0162743
704.474	0.0164611
704.552	0.0165245
704.630	0.0165751
704.708	0.0166799
704.786	0.0166591
704.864	0.0168127
704.942	0.0167133
705.021	0.0165986
705.099	0.0164798
705.177	0.0164477
705.255	0.0163599
705.333	0.0163474
705.411	0.0162321
705.489	0.0162047
705.567	0.0161785
705.646	0.0162484
705.724	0.0161572
705.802	0.0160806
705.880	0.0161671
705.958	0.0161044
706.036	0.0161839
706.114	0.0162945
706.192	0.0164401
706.271	0.0165147
706.349	0.0165883
706.427	0.0166802
706.505	0.0167769
706.583	0.0167340
706.661	0.0167030
706.739	0.0165693
706.817	0.0164341
706.896	0.0163366
706.974	0.0162158
707.052	0.0159617
707.130	0.0156685
707.208	0.0155333
707.286	0.0155917
707.364	0.0152995
707.442	0.0153111
707.521	0.0153227
707.599	0.0154504
707.677	0.0157150
707.755	0.0159950
707.833	0.0162489
707.911	0.0164423
707.989	0.0170210
708.067	0.0173392
708.146	0.0176978
708.224	0.0181855
708.302	0.0184062
708.380	0.0187486
708.458	0.0190482
708.536	0.0193594
708.614	0.0193222
708.692	0.0194715
708.771	0.0194149
708.849	0.0192341
708.927	0.0192207
709.005	0.0189759
709.083	0.0185760
709.161	0.0182782
709.239	0.0178735
709.317	0.0175300
709.396	0.0169655
709.474	0.0165131
709.552	0.0160799
709.630	0.0155123
709.708	0.0152908
709.786	0.0148631
709.864	0.0145083
709.942	0.0142148
710.021	0.0140320
710.099	0.0137497
710.177	0.0135703
710.255	0.0136834
710.333	0.0135926
710.411	0.0136208
710.489	0.0136680
710.567	0.0138995
710.646	0.0142019
710.724	0.0143896
710.802	0.0149148
710.880	0.0152325
710.958	0.0157131
711.036	0.0159272
711.114	0.0163759
711.192	0.0167986
711.271	0.0170914
711.349	0.0174813
711.427	0.0177522
711.505	0.0179645
711.583	0.0182418
711.661	0.0183875
711.739	0.0183569
711.817	0.0185094
711.896	0.0184129
711.974	0.0182043
712.052	0.0180885
712.130	0.0178207
712.208	0.0172598
712.286	0.0170174
712.364	0.0166916
712.442	0.0162741
712.521	0.0158826
712.599	0.0154310
712.677	0.0148760
712.755	0.0145311
712.833	0.0142519
712.911	0.0139438
712.989	0.0137995
713.067	0.0136593
713.146	0.0138746
713.224	0.0141103
713.302	0.0144350
713.380	0.0147967
713.458	0.0154662
713.536	0.0162330
713.614	0.0170500
713.692	0.0177246
713.771	0.0185632
713.849	0.0194473
713.927	0.0200466
714.005	0.0206981
714.083	0.0212430
714.161	0.0214934
714.239	0.0218870
714.317	0.0218932
714.396	0.0219774
714.474	0.0218236
714.552	0.0213934
714.630	0.0210619
714.708	0.0206229
714.786	0.0201077
714.864	0.0192774
714.942	0.0187393
715.021	0.0183736
715.099	0.0178024
715.177	0.0171229
715.255	0.0165657
715.333	0.0158837
715.411	0.0153027
715.489	0.0146748
715.567	0.0140502
715.646	0.0134879
715.724	0.0129882
715.802	0.0123397
715.880	0.0117700
715.958	0.0114960
716.036	0.0112357
716.114	0.0109826
716.192	0.0110136
716.271	0.0107690
716.349	0.0108517
716.427	0.0112199
716.505	0.0113461
716.583	0.0115853
716.661	0.0121288
716.739	0.0127517
716.817	0.0132150
716.896	0.0137415
716.974	0.0144997
717.052	0.0152809
717.130	0.0161276
717.208	0.0169572
717.286	0.0176265
717.364	0.0184396
717.442	0.0190944
717.521	0.0197849
717.599	0.0201869
717.677	0.0204853
717.755	0.0207677
717.833	0.0205732
717.911	0.0204771
717.989	0.0202866
718.067	0.0196540
718.146	0.0191520
718.224	0.0188034
718.302	0.0181780
718.380	0.0177402
718.458	0.0172099
718.536	0.0167266
718.614	0.0163953
718.692	0.0162701
718.771	0.0160516
718.849	0.0158949
718.927	0.0159093
719.005	0.0158594
719.083	0.0157490
719.161	0.0159747
719.239	0.0162076
719.317	0.0163571
719.396	0.0163603
719.474	0.0167700
719.552	0.0167836
719.630	0.0169909
719.708	0.0173586
719.786	0.0176450
719.864	0.0178550
719.942	0.0181776
720.021	0.0185466
720.099	0.0186460
720.177	0.0189031
720.255	0.0192555
720.333	0.0193166
720.411	0.0193541
720.489	0.0196033
720.567	0.0194106
720.646	0.0194344
720.724	0.0193993
720.802	0.0192610
720.880	0.0187045
720.958	0.0185922
721.036	0.0182812
721.114	0.0179123
721.192	0.0174440
721.271	0.0171953
721.349	0.0164610
721.427	0.0160803
721.505	0.0157249
721.583	0.0152515
721.661	0.0147604
721.739	0.0144072
721.817	0.0140331
721.896	0.0136028
721.974	0.0136071
722.052	0.0131935
722.130	0.0128619
722.208	0.0125662
722.286	0.0123399
722.364	0.0122348
722.442	0.0120590
722.521	0.0120641
722.599	0.0120991
722.677	0.0122970
722.755	0.0124086
722.833	0.0128572
722.911	0.0133186
722.989	0.0138982
723.067	0.0143853
723.146	0.0149298
723.224	0.0155213
723.302	0.0158189
723.380	0.0162874
723.458	0.0165778
723.536	0.0166350
723.614	0.0164787
723.692	0.0161485
723.771	0.0158560
723.849	0.0153831
723.927	0.0147835
724.005	0.0143240
724.083	0.0138837
724.161	0.0134700
724.239	0.0132381
724.317	0.0132587
724.396	0.0134692
724.474	0.0137041
724.552	0.0144397
724.630	0.0151742
724.708	0.0162945
724.786	0.0174381
724.864	0.0184291
724.942	0.0198266
725.021	0.0209580
725.099	0.0221571
725.177	0.0231228
725.255	0.0240926
725.333	0.0248726
725.411	0.0254823
725.489	0.0260114
725.567	0.0261292
725.646	0.0263232
725.724	0.0264140
725.802	0.0263223
725.880	0.0260034
725.958	0.0256322
726.036	0.0251529
726.114	0.0243668
726.192	0.0234498
726.271	0.0227344
726.349	0.0217483
726.427	0.0205801
726.505	0.0194351
726.583	0.0180820
726.661	0.0168021
726.739	0.0154890
726.817	0.0142509
726.896	0.0130466
726.974	0.0118467
727.052	0.0108331
727.130	0.0101007
727.208	0.00936028
727.286	0.00874962
727.364	0.00843323
727.442	0.00803238
727.521	0.00796539
727.599	0.00808945
727.677	0.00820518
727.755	0.00828064
727.833	0.00861931
727.911	0.00900879
727.989	0.00960289
728.067	0.0101842
728.146	0.0107883
728.224	0.0115727
728.302	0.0123534
728.380	0.0131270
728.458	0.0138788
728.536	0.0145642
728.614	0.0149319
728.692	0.0154153
728.771	0.0154559
728.849	0.0155976
728.927	0.0154983
729.005	0.0152818
729.083	0.0149075
729.161	0.0145343
729.239	0.0140102
729.317	0.0137016
729.396	0.0134222
729.474	0.0132404
729.552	0.0132018
729.630	0.0133235
729.708	0.0138662
729.786	0.0144927
729.864	0.0153497
729.942	0.0164417
730.021	0.0175834
730.099	0.0189045
730.177	0.0201052
730.255	0.0213982
730.333	0.0227567
730.411	0.0238146
730.489	0.0247350
730.567	0.0254548
730.646	0.0262357
730.724	0.0266113
730.802	0.0268710
730.880	0.0268660
730.958	0.0268349
731.036	0.0265633
731.114	0.0261217
731.192	0.0255865
731.271	0.0250475
731.349	0.0243320
731.427	0.0234299
731.505	0.0225472
731.583	0.0216975
731.661	0.0206875
731.739	0.0197849
731.817	0.0189422
731.896	0.0180951
731.974	0.0171284
732.052	0.0162335
732.130	0.0155355
732.208	0.0149454
732.286	0.0143087
732.364	0.0136971
732.442	0.0132052
732.521	0.0126113
732.599	0.0121208
732.677	0.0116546
732.755	0.0112252
732.833	0.0109914
732.911	0.0106303
732.989	0.0104769
733.067	0.0103498
733.146	0.00988808
733.224	0.00973724
733.302	0.00993927
733.380	0.0100076
733.458	0.0101849
733.536	0.0104958
733.614	0.0107970
733.692	0.0112605
733.771	0.0117755
733.849	0.0120906
733.927	0.0125848
734.005	0.0130957
734.083	0.0131606
734.161	0.0132083
734.239	0.0132700
734.317	0.0134908
734.396	0.0134427
734.474	0.0132871
734.552	0.0132332
734.630	0.0131606
734.708	0.0133015
734.786	0.0135086
734.864	0.0137783
734.942	0.0142599
735.021	0.0151365
735.099	0.0158801
735.177	0.0168121
735.255	0.0180215
735.333	0.0189348
735.411	0.0200518
735.489	0.0210633
735.567	0.0220826
735.646	0.0228277
735.724	0.0235125
735.802	0.0241290
735.880	0.0244405
735.958	0.0247373
736.036	0.0249085
736.114	0.0248679
736.192	0.0244164
736.271	0.0240939
736.349	0.0237864
736.427	0.0232846
736.505	0.0226868
736.583	0.0222070
736.661	0.0212817
736.739	0.0207082
736.817	0.0199670
736.896	0.0192290
736.974	0.0185246
737.052	0.0177618
737.130	0.0168647
737.208	0.0165417
737.286	0.0160661
737.364	0.0155499
737.442	0.0150886
737.521	0.0149856
737.599	0.0146041
737.677	0.0145724
737.755	0.0144659
737.833	0.0142632
737.911	0.0141832
737.989	0.0140520
738.067	0.0142001
738.146	0.0139282
738.224	0.0137200
738.302	0.0135217
738.380	0.0134179
738.458	0.0133517
738.536	0.0129885
738.614	0.0131154
738.692	0.0130114
738.771	0.0127914
738.849	0.0129715
738.927	0.0129542
739.005	0.0131001
739.083	0.0127969
739.161	0.0127596
739.239	0.0130094
739.317	0.0128276
739.396	0.0128622
739.474	0.0126289
739.552	0.0126607
739.630	0.0127088
739.708	0.0128486
739.786	0.0128404
739.864	0.0132235
739.942	0.0135735
740.021	0.0139894
740.099	0.0148245
740.177	0.0155093
740.255	0.0164076
740.333	0.0173376
740.411	0.0179592
740.489	0.0189056
740.567	0.0197412
740.646	0.0204666
740.724	0.0212576
740.802	0.0216048
740.880	0.0220389
740.958	0.0221982
741.036	0.0224521
741.114	0.0224735
741.192	0.0222822
741.271	0.0222321
741.349	0.0219141
741.427	0.0218410
741.505	0.0211987
741.583	0.0208180
741.661	0.0202009
741.739	0.0197029
741.817	0.0190900
741.896	0.0184090
741.974	0.0178378
742.052	0.0173379
742.130	0.0167671
742.208	0.0162255
742.286	0.0158407
742.364	0.0154344
742.442	0.0152897
742.521	0.0150056
742.599	0.0147175
742.677	0.0144493
742.755	0.0144358
742.833	0.0144073
742.911	0.0144952
742.989	0.0144135
743.067	0.0145895
743.146	0.0145989
743.224	0.0146028
743.302	0.0147575
743.380	0.0147540
743.458	0.0146581
743.536	0.0147794
743.614	0.0148295
743.692	0.0150556
743.771	0.0151072
743.849	0.0153822
743.927	0.0152502
744.005	0.0154018
744.083	0.0154173
744.161	0.0153079
744.239	0.0154401
744.317	0.0152669
744.396	0.0150863
744.474	0.0150200
744.552	0.0147537
744.630	0.0144688
744.708	0.0143369
744.786	0.0142532
744.864	0.0141485
744.942	0.0142642
745.021	0.0142204
745.099	0.0144900
745.177	0.0146964
745.255	0.0150150
745.333	0.0153739
745.411	0.0159822
745.489	0.0166236
745.567	0.0171739
745.646	0.0176815
745.724	0.0183645
745.802	0.0187941
745.880	0.0192770
745.958	0.0197363
746.036	0.0200043
746.114	0.0202781
746.192	0.0203818
746.271	0.0204742
746.349	0.0205705
746.427	0.0203546
746.505	0.0201866
746.583	0.0202088
746.661	0.0198601
746.739	0.0196186
746.817	0.0194178
746.896	0.0190951
746.974	0.0186546
747.052	0.0183070
747.130	0.0178691
747.208	0.0174725
747.286	0.0172234
747.364	0.0168480
747.442	0.0163906
747.521	0.0161018
747.599	0.0157589
747.677	0.0155532
747.755	0.0152209
747.833	0.0147572
747.911	0.0145811
747.989	0.0144131
748.067	0.0142690
748.146	0.0143017
748.224	0.0142091
748.302	0.0142279
748.380	0.0142804
748.458	0.0145682
748.536	0.0148377
748.614	0.0150693
748.692	0.0151821
748.771	0.0156413
748.849	0.0159880
748.927	0.0163953
749.005	0.0167287
749.083	0.0169349
749.161	0.0169901
749.239	0.0170079
749.317	0.0171532
749.396	0.0169342
749.474	0.0168497
749.552	0.0164812
749.630	0.0163022
749.708	0.0159525
749.786	0.0156566
749.864	0.0152988
749.942	0.0150855
750.021	0.0145435
750.099	0.0144616
750.177	0.0142315
750.255	0.0142067
750.333	0.0141770
750.411	0.0143799
750.489	0.0144905
750.567	0.0148070
750.646	0.0150135
750.724	0.0153690
750.802	0.0156368
750.880	0.0161148
750.958	0.0165983
751.036	0.0169103
751.114	0.0173296
751.192	0.0175607
751.271	0.0178445
751.349	0.0182596
751.427	0.0185046
751.505	0.0185091
751.583	0.0187110
751.661	0.0187979
751.739	0.0187559
751.817	0.0189112
751.896	0.0189320
751.974	0.0187453
752.052	0.0186265
752.130	0.0184687
752.208	0.0185682
752.286	0.0184137
752.364	0.0182507
752.442	0.0181573
752.521	0.0179083
752.599	0.0177933
752.677	0.0176932
752.755	0.0174724
752.833	0.0172189
752.911	0.0170815
752.989	0.0168216
753.067	0.0166177
753.146	0.0166014
753.224	0.0162675
753.302	0.0160567
753.380	0.0159741
753.458	0.0157307
753.536	0.0156503
753.614	0.0154817
753.692	0.0154093
753.771	0.0152938
753.849	0.0153240
753.927	0.0154124
754.005	0.0155060
754.083	0.0157667
754.161	0.0158556
754.239	0.0160968
754.317	0.0162621
754.396	0.0166922
754.474	0.0167996
754.552	0.0169827
754.630	0.0172295
754.708	0.0173345
754.786	0.0174964
754.864	0.0175121
754.942	0.0172451
755.021	0.0172332
755.099	0.0170164
755.177	0.0167710
755.255	0.0165643
755.333	0.0162711
755.411	0.0159035
755.489	0.0157357
755.567	0.0156574
755.646	0.0153557
755.724	0.0152895
755.802	0.0153450
755.880	0.0151196
755.958	0.0152225
756.036	0.0152689
756.114	0.0151419
756.192	0.0153115
756.271	0.0153783
756.349	0.0154890
756.427	0.0156261
756.505	0.0157684
756.583	0.0157562
756.661	0.0159750
756.739	0.0162375
756.817	0.0160863
756.896	0.0162369
756.974	0.0164445
757.052	0.0165657
757.130	0.0165928
757.208	0.0169032
757.286	0.0168253
757.364	0.0171342
757.442	0.0172614
757.521	0.0172486
757.599	0.0173847
757.677	0.0174603
757.755	0.0175493
757.833	0.0176418
757.911	0.0177861
757.989	0.0175938
758.067	0.0177136
758.146	0.0177317
758.224	0.0178338
758.302	0.0176888
758.380	0.0177264
758.458	0.0175584
758.536	0.0175746
758.614	0.0173436
758.692	0.0171879
758.771	0.0169782
758.849	0.0167123
758.927	0.0163995
759.005	0.0161613
759.083	0.0160957
759.161	0.0159894
759.239	0.0157218
759.317	0.0158497
759.396	0.0159588
759.474	0.0158546
759.552	0.0159846
759.630	0.0162620
759.708	0.0164185
759.786	0.0165324
759.864	0.0167262
759.942	0.0169310
760.021	0.0168965
760.099	0.0169450
760.177	0.0169546
760.255	0.0171068
760.333	0.0168530
760.411	0.0169174
760.489	0.0168756
760.567	0.0167217
760.646	0.0168119
760.724	0.0165889
760.802	0.0165877
760.880	0.0165920
760.958	0.0166470
761.036	0.0165878
761.114	0.0166582
761.192	0.0167368
761.271	0.0165801
761.349	0.0165485
761.427	0.0165623
761.505	0.0165833
761.583	0.0164296
761.661	0.0164525
761.739	0.0164735
761.817	0.0160926
761.896	0.0160744
761.974	0.0160533
762.052	0.0159891
762.130	0.0160003
762.208	0.0158853
762.286	0.0159718
762.364	0.0159515
762.442	0.0158863
762.521	0.0159888
762.599	0.0160172
762.677	0.0161570
762.755	0.0162103
762.833	0.0164216
762.911	0.0166425
762.989	0.0167181
763.067	0.0168195
763.146	0.0169900
763.224	0.0170976
763.302	0.0172140
763.380	0.0172896
763.458	0.0173533
763.536	0.0172288
763.614	0.0172903
763.692	0.0172858
763.771	0.0172093
763.849	0.0170614
763.927	0.0169318
764.005	0.0166213
764.083	0.0165483
764.161	0.0164865
764.239	0.0161737
764.317	0.0160581
764.396	0.0159235
764.474	0.0157343
764.552	0.0156933
764.630	0.0156882
764.708	0.0157773
764.786	0.0158933
764.864	0.0160528
764.942	0.0161227
765.021	0.0163908
765.099	0.0163289
765.177	0.0163838
765.255	0.0166422
765.333	0.0166962
765.411	0.0166227
765.489	0.0167647
765.567	0.0168787
765.646	0.0168383
765.724	0.0167625
765.802	0.0167852
765.880	0.0168382
765.958	0.0167013
766.036	0.0166251
766.114	0.0166255
766.192	0.0167053
766.271	0.0165916
766.349	0.0167522
766.427	0.0168285
766.505	0.0167312
766.583	0.0167200
766.661	0.0168501
766.739	0.0167887
766.817	0.0167493
766.896	0.0168265
766.974	0.0169157
767.052	0.0169028
767.130	0.0169431
767.208	0.0168175
767.286	0.0167953
767.364	0.0169166
767.442	0.0168719
767.521	0.0167435
767.599	0.0168280
767.677	0.0168121
767.755	0.0165960
767.833	0.0166489
767.911	0.0165915
767.989	0.0165989
768.067	0.0165881
768.146	0.0164581
768.224	0.0164711
768.302	0.0164658
768.380	0.0165428
768.458	0.0165110
768.536	0.0164730
768.614	0.0164263
768.692	0.0165249
768.771	0.0164189
768.849	0.0165848
768.927	0.0165024
769.005	0.0164130
769.083	0.0163240
769.161	0.0162782
769.239	0.0161745
769.317	0.0160018
769.396	0.0160326
769.474	0.0159679
769.552	0.0158118
769.630	0.0157843
769.708	0.0157636
769.786	0.0158592
769.864	0.0158930
769.942	0.0159065
770.021	0.0160326
770.099	0.0163695
770.177	0.0164807
770.255	0.0166286
770.333	0.0168451
770.411	0.0169160
770.489	0.0169349
770.567	0.0171359
770.646	0.0171839
770.724	0.0172659
770.802	0.0172507
770.880	0.0172646
770.958	0.0172235
771.036	0.0170457
771.114	0.0169704
771.192	0.0167847
771.271	0.0167727
771.349	0.0166619
771.427	0.0166288
771.505	0.0165963
771.583	0.0165440
771.661	0.0164348
771.739	0.0164023
771.817	0.0164902
771.896	0.0163470
771.974	0.0163549
772.052	0.0163909
772.130	0.0165680
772.208	0.0163310
772.286	0.0163702
772.364	0.0164317
772.442	0.0162505
772.521	0.0162675
772.599	0.0163584
772.677	0.0164297
772.755	0.0162226
772.833	0.0163767
772.911	0.0161529
772.989	0.0162701
773.067	0.0163445
773.146	0.0163347
773.224	0.0164601
773.302	0.0164639
773.380	0.0165249
773.458	0.0165531
773.536	0.0165009
773.614	0.0165688
773.692	0.0166193
773.771	0.0165955
773.849	0.0166478
773.927	0.0167531
774.005	0.0166724
774.083	0.0166415
774.161	0.0165654
774.239	0.0165314
774.317	0.0163795
774.396	0.0164079
774.474	0.0164650
774.552	0.0163299
774.630	0.0162637
774.708	0.0162858
774.786	0.0163029
774.864	0.0162895
774.942	0.0162810
775.021	0.0164404
775.099	0.0166477
775.177	0.0165675
775.255	0.0167849
775.333	0.0167638
775.411	0.0169613
775.489	0.0170279
775.567	0.0171565
775.646	0.0171896
775.724	0.0173549
775.802	0.0173962
775.880	0.0173166
775.958	0.0172626
776.036	0.0172913
776.114	0.0171813
776.192	0.0171734
776.271	0.0170782
776.349	0.0169878
776.427	0.0170167
776.505	0.0168869
776.583	0.0167510
776.661	0.0167828
776.739	0.0166521
776.817	0.0165263
776.896	0.0165482
776.974	0.0165596
777.052	0.0165260
777.130	0.0163148
777.208	0.0162379
777.286	0.0162139
777.364	0.0162471
777.442	0.0162039
777.521	0.0160221
777.599	0.0160212
777.677	0.0161183
777.755	0.0161347
777.833	0.0163461
777.911	0.0164122
777.989	0.0164153
778.067	0.0164787
778.146	0.0164636
778.224	0.0165836
778.302	0.0166442
778.380	0.0166981
778.458	0.0167520
778.536	0.0167567
778.614	0.0167961
778.692	0.0167490
778.771	0.0166727
778.849	0.0165324
778.927	0.0165241
779.005	0.0165403
779.083	0.0164507
779.161	0.0162833
779.239	0.0163568
779.317	0.0164594
779.396	0.0163543
779.474	0.0163615
779.552	0.0163644
779.630	0.0163472
779.708	0.0163921
779.786	0.0162817
779.864	0.0161549
779.942	0.0161312
780.021	0.0160891
780.099	0.0161200
780.177	0.0160650
780.255	0.0159373
780.333	0.0159904
780.411	0.0161134
780.489	0.0161315
780.567	0.0160179
780.646	0.0160724
780.724	0.0161993
780.802	0.0164681
780.880	0.0162609
780.958	0.0164735
781.036	0.0166816
781.114	0.0167099
781.192	0.0168961
781.271	0.0168650
781.349	0.0169868
781.427	0.0169267
781.505	0.0170868
781.583	0.0171342
781.661	0.0172185
781.739	0.0171545
781.817	0.0171159
781.896	0.0170882
781.974	0.0170621
782.052	0.0170729
782.130	0.0170555
782.208	0.0170470
782.286	0.0171345
782.364	0.0169576
782.442	0.0168657
782.521	0.0170172
782.599	0.0169056
782.677	0.0168695
782.755	0.0168571
782.833	0.0167785
782.911	0.0168747
782.989	0.0167454
783.067	0.0166853
783.146	0.0166993
783.224	0.0165481
783.302	0.0165509
783.380	0.0163380
783.458	0.0163658
783.536	0.0165140
783.614	0.0164166
783.692	0.0163699
783.771	0.0163058
783.849	0.0164034
783.927	0.0164130
784.005	0.0164984
784.083	0.0164145
784.161	0.0166138
784.239	0.0163776
784.317	0.0163479
784.396	0.0164704
784.474	0.0166099
784.552	0.0166181
784.630	0.0166973
784.708	0.0165216
784.786	0.0166131
784.864	0.0167175
784.942	0.0167899
785.021	0.0167169
785.099	0.0168248
785.177	0.0168621
785.255	0.0167135
785.333	0.0167020
785.411	0.0166805
785.489	0.0166763
785.567	0.0165243
785.646	0.0164536
785.724	0.0164910
785.802	0.0162918
785.880	0.0163617
785.958	0.0162975
786.036	0.0160548
786.114	0.0160573
786.192	0.0159277
786.271	0.0160112
786.349	0.0160934
786.427	0.0160548
786.505	0.0161091
786.583	0.0162675
786.661	0.0162564
786.739	0.0162488
786.817	0.0162416
786.896	0.0163022
786.974	0.0163540
787.052	0.0163223
787.130	0.0163153
787.208	0.0163291
787.286	0.0162996
787.364	0.0163698
787.442	0.0166559
787.521	0.0165864
787.599	0.0166094
787.677	0.0165953
787.755	0.0166561
787.833	0.0168255
787.911	0.0168640
787.989	0.0167987
788.067	0.0170505
788.146	0.0170580
788.224	0.0170142
788.302	0.0170538
788.380	0.0171507
788.458	0.0171243
788.536	0.0170111
788.614	0.0168803
788.692	0.0168432
788.771	0.0167178
788.849	0.0167561
788.927	0.0168134
789.005	0.0165479
789.083	0.0166074
789.161	0.0166323
789.239	0.0163070
789.317	0.0164353
789.396	0.0162830
789.474	0.0162907
789.552	0.0162427
789.630	0.0162812
789.708	0.0161621
789.786	0.0162323
789.864	0.0162450
789.942	0.0163899
790.021	0.0163878
790.099	0.0165308
790.177	0.0164929
790.255	0.0165262
790.333	0.0166228
790.411	0.0166995
790.489	0.0166985
790.567	0.0169459
790.646	0.0168985
790.724	0.0170855
790.802	0.0170454
790.880	0.0170736
790.958	0.0170618
791.036	0.0169724
791.114	0.0168204
791.192	0.0169646
791.271	0.0167492
791.349	0.0166550
791.427	0.0166315
791.505	0.0164736
791.583	0.0165821
791.661	0.0165004
791.739	0.0164239
791.817	0.0163599
791.896	0.0161936
791.974	0.0163238
792.052	0.0162282
792.130	0.0162577
792.208	0.0162723
792.286	0.0163015
792.364	0.0161971
792.442	0.0162304
792.521	0.0163007
792.599	0.0162326
792.677	0.0160971
792.755	0.0162676
792.833	0.0164034
792.911	0.0165087
792.989	0.0164133
793.067	0.0163100
793.146	0.0163780
793.224	0.0166493
793.302	0.0165942
793.380	0.0165594
793.458	0.0168245
793.536	0.0168456
793.614	0.0167191
793.692	0.0168330
793.771	0.0167461
793.849	0.0168764
793.927	0.0166693
794.005	0.0166821
794.083	0.0167557
794.161	0.0167152
794.239	0.0167167
794.317	0.0166449
794.396	0.0167542
794.474	0.0165979
794.552	0.0167451
794.630	0.0166924
794.708	0.0166433
794.786	0.0165407
794.864	0.0164611
794.942	0.0164926
795.021	0.0164828
795.099	0.0164168
795.177	0.0163829
795.255	0.0164605
795.333	0.0162994
795.411	0.0162318
795.489	0.0163081
795.567	0.0161721
795.646	0.0162731
795.724	0.0163132
795.802	0.0163472
795.880	0.0163737
795.958	0.0165432
796.036	0.0164327
796.114	0.0165247
796.192	0.0167586
796.271	0.0165451
796.349	0.0168307
796.427	0.0168718
796.505	0.0168646
796.583	0.0167833
796.661	0.0165958
796.739	0.0166370
796.817	0.0165550
796.896	0.0165505
796.974	0.0165636
797.052	0.0164533
797.130	0.0163988
797.208	0.0164502
797.286	0.0163183
797.364	0.0162788
797.442	0.0164159
797.521	0.0162616
797.599	0.0163737
797.677	0.0164213
797.755	0.0164664
797.833	0.0164522
797.911	0.0165951
797.989	0.0165790
798.067	0.0167018
798.146	0.0167355
798.224	0.0167957
798.302	0.0167142
798.380	0.0169633
798.458	0.0171008
798.536	0.0171535
798.614	0.0170255
798.692	0.0171323
798.771	0.0172165
798.849	0.0171338
798.927	0.0170948
799.005	0.0171619
799.083	0.0170375
799.161	0.0170988
799.239	0.0170269
799.317	0.0170287
799.396	0.0168629
799.474	0.0167239
799.552	0.0164942
799.630	0.0164734
799.708	0.0163831
799.786	0.0163694
799.864	0.0162184
799.942	0.0161128
800.021	0.0160513
800.099	0.0160324
800.177	0.0159251
800.255	0.0159214
800.333	0.0157898
800.411	0.0157879
800.489	0.0158729
800.567	0.0159362
800.646	0.0160178
800.724	0.0159792
800.802	0.0160384
800.880	0.0161320
800.958	0.0163879
801.036	0.0164262
801.114	0.0164712
801.192	0.0165321
801.271	0.0166699
801.349	0.0167564
801.427	0.0167230
801.505	0.0168376
801.583	0.0169802
801.661	0.0169475
801.739	0.0169823
801.817	0.0170364
801.896	0.0169343
801.974	0.0170022
802.052	0.0170641
802.130	0.0169741
802.208	0.0167603
802.286	0.0167244
802.364	0.0166660
802.442	0.0166782
802.521	0.0167136
802.599	0.0165445
802.677	0.0164304
802.755	0.0163380
802.833	0.0162395
802.911	0.0162479
802.989	0.0160498
803.067	0.0161246
803.146	0.0160141
803.224	0.0160970
803.302	0.0163521
803.380	0.0162188
803.458	0.0162398
803.536	0.0164224
803.614	0.0164157
803.692	0.0164019
803.771	0.0166611
803.849	0.0166402
803.927	0.0167471
804.005	0.0167015
804.083	0.0168353
804.161	0.0168999
804.239	0.0169142
804.317	0.0170373
804.396	0.0171209
804.474	0.0169975
804.552	0.0169232
804.630	0.0170139
804.708	0.0169519
804.786	0.0168079
804.864	0.0169996
804.942	0.0168697
805.021	0.0167603
805.099	0.0167078
805.177	0.0166783
805.255	0.0167159
805.333	0.0166432
805.411	0.0165275
805.489	0.0164915
805.567	0.0165254
805.646	0.0164752
805.724	0.0164034
805.802	0.0163579
805.880	0.0163401
805.958	0.0162135
806.036	0.0164014
806.114	0.0163593
806.192	0.0162550
806.271	0.0163158
806.349	0.0164627
806.427	0.0165753
806.505	0.0165122
806.583	0.0166214
806.661	0.0166861
806.739	0.0166058
806.817	0.0167404
806.896	0.0168741
806.974	0.0168243
807.052	0.0167992
807.130	0.0169454
807.208	0.0168117
807.286	0.0167416
807.364	0.0168335
807.442	0.0168251
807.521	0.0165433
807.599	0.0164615
807.677	0.0164298
807.755	0.0163709
807.833	0.0163107
807.911	0.0162699
807.989	0.0162098
808.067	0.0160758
808.146	0.0160487
808.224	0.0158562
808.302	0.0159788
808.380	0.0158801
808.458	0.0158127
808.536	0.0159270
808.614	0.0158103
808.692	0.0158113
808.771	0.0159721
808.849	0.0157623
808.927	0.0160604
809.005	0.0161913
809.083	0.0162283
809.161	0.0162534
809.239	0.0163776
809.317	0.0167474
809.396	0.0166262
809.474	0.0167944
809.552	0.0169284
809.630	0.0170396
809.708	0.0172558
809.786	0.0171236
809.864	0.0172076
809.942	0.0174474
810.021	0.0174056
810.099	0.0174706
810.177	0.0174679
810.255	0.0173010
810.333	0.0173434
810.411	0.0174682
810.489	0.0171086
810.567	0.0172186
810.646	0.0172826
810.724	0.0170079
810.802	0.0170770
810.880	0.0169431
810.958	0.0168576
811.036	0.0166411
811.114	0.0165573
811.192	0.0165144
811.271	0.0164777
811.349	0.0164923
811.427	0.0164124
811.505	0.0163292
811.583	0.0163142
811.661	0.0163830
811.739	0.0161879
811.817	0.0163759
811.896	0.0163110
811.974	0.0162817
812.052	0.0163167
812.130	0.0163805
812.208	0.0163008
812.286	0.0163223
812.364	0.0163392
812.442	0.0163039
812.521	0.0162900
812.599	0.0163087
812.677	0.0162180
812.755	0.0162485
812.833	0.0162411
812.911	0.0162647
812.989	0.0161432
813.067	0.0162664
813.146	0.0163590
813.224	0.0161666
813.302	0.0160909
813.380	0.0160887
813.458	0.0161785
813.536	0.0161328
813.614	0.0160684
813.692	0.0160313
813.771	0.0160506
813.849	0.0159476
813.927	0.0159706
814.005	0.0160472
814.083	0.0159670
814.161	0.0161254
814.239	0.0162519
814.317	0.0162739
814.396	0.0164565
814.474	0.0164539
814.552	0.0166729
814.630	0.0167751
814.708	0.0169386
814.786	0.0169678
814.864	0.0170753
814.942	0.0172763
815.021	0.0172214
815.099	0.0172368
815.177	0.0173341
815.255	0.0175403
815.333	0.0175317
815.411	0.0175980
815.489	0.0176926
815.567	0.0175719
815.646	0.0175154
815.724	0.0174436
815.802	0.0175048
815.880	0.0173806
815.958	0.0172235
816.036	0.0171950
816.114	0.0171113
816.192	0.0170946
816.271	0.0168430
816.349	0.0167403
816.427	0.0166167
816.505	0.0163871
816.583	0.0163996
816.661	0.0163985
816.739	0.0163395
816.817	0.0162177
816.896	0.0160825
816.974	0.0160596
817.052	0.0161353
817.130	0.0160304
817.208	0.0161734
817.286	0.0161990
817.364	0.0162782
817.442	0.0161047
817.521	0.0161111
817.599	0.0162709
817.677	0.0163387
817.755	0.0164262
817.833	0.0164825
817.911	0.0165836
817.989	0.0166802
818.067	0.0166454
818.146	0.0165546
818.224	0.0164744
818.302	0.0167545
818.380	0.0166433
818.458	0.0165276
818.536	0.0166760
818.614	0.0165004
818.692	0.0164329
818.771	0.0164949
818.849	0.0163380
818.927	0.0162966
819.005	0.0162687
819.083	0.0161395
819.161	0.0159206
819.239	0.0159183
819.317	0.0159906
819.396	0.0158516
819.474	0.0159664
819.552	0.0159409
819.630	0.0158722
819.708	0.0157014
819.786	0.0158350
819.864	0.0158111
819.942	0.0158654
820.021	0.0159570
820.099	0.0161814
820.177	0.0161021
820.255	0.0162576
820.333	0.0163663
820.411	0.0165863
820.489	0.0165977
820.567	0.0166743
820.646	0.0168591
820.724	0.0170635
820.802	0.0172117
820.880	0.0172231
820.958	0.0173119
821.036	0.0172191
821.114	0.0174456
821.192	0.0175939
821.271	0.0174820
821.349	0.0175459
821.427	0.0176174
821.505	0.0176422
821.583	0.0175076
821.661	0.0175656
821.739	0.0175988
821.817	0.0174754
821.896	0.0174696
821.974	0.0173496
822.052	0.0172231
822.130	0.0172258
822.208	0.0171538
822.286	0.0171237
822.364	0.0170109
822.442	0.0169051
822.521	0.0169276
822.599	0.0170781
822.677	0.0168109
822.755	0.0168433
822.833	0.0169092
822.911	0.0168034
822.989	0.0167279
823.067	0.0167640
823.146	0.0167430
823.224	0.0167342
823.302	0.0165939
823.380	0.0165619
823.458	0.0165395
823.536	0.0164172
823.614	0.0165037
823.692	0.0163884
823.771	0.0163039
823.849	0.0161940
823.927	0.0160389
824.005	0.0160428
824.083	0.0158353
824.161	0.0158039
824.239	0.0157433
824.317	0.0156755
824.396	0.0154198
824.474	0.0153625
824.552	0.0154319
824.630	0.0153568
824.708	0.0153603
824.786	0.0153536
824.864	0.0152424
824.942	0.0152412
825.021	0.0154154
825.099	0.0154925
825.177	0.0155843
825.255	0.0154115
825.333	0.0155710
825.411	0.0156229
825.489	0.0156741
825.567	0.0158147
825.646	0.0159610
825.724	0.0160186
825.802	0.0163412
825.880	0.0163560
825.958	0.0164603
826.036	0.0166756
826.114	0.0169237
826.192	0.0170617
826.271	0.0171714
826.349	0.0175392
826.427	0.0174622
826.505	0.0175761
826.583	0.0178031
826.661	0.0177576
826.739	0.0178359
826.817	0.0179744
826.896	0.0180161
826.974	0.0180202
827.052	0.0180900
827.130	0.0180682
827.208	0.0179083
827.286	0.0180032
827.364	0.0178925
827.442	0.0178302
827.521	0.0177734
827.599	0.0178339
827.677	0.0175599
827.755	0.0175291
827.833	0.0174769
827.911	0.0174053
827.989	0.0172504
828.067	0.0172036
828.146	0.0170747
828.224	0.0170901
828.302	0.0168484
828.380	0.0166972
828.458	0.0166674
828.536	0.0165553
828.614	0.0164724
828.692	0.0164536
828.771	0.0163901
828.849	0.0162533
828.927	0.0161417
829.005	0.0161037
829.083	0.0160597
829.161	0.0160663
829.239	0.0159576
829.317	0.0160086
829.396	0.0158427
829.474	0.0158788
829.552	0.0158251
829.630	0.0157022
829.708	0.0154800
829.786	0.0155000
829.864	0.0153427
829.942	0.0152459
830.021	0.0149987
830.099	0.0150267
830.177	0.0151586
830.255	0.0150806
830.333	0.0150540
830.411	0.0149284
830.489	0.0150881
830.567	0.0151012
830.646	0.0150230
830.724	0.0152723
830.802	0.0153939
830.880	0.0155138
830.958	0.0156408
831.036	0.0157249
831.114	0.0161069
831.192	0.0162261
831.271	0.0164241
831.349	0.0166669
831.427	0.0167005
831.505	0.0171569
831.583	0.0172620
831.661	0.0174641
831.739	0.0175819
831.817	0.0175861
831.896	0.0177188
831.974	0.0177876
832.052	0.0178963
832.130	0.0179666
832.208	0.0179276
832.286	0.0178482
832.364	0.0178704
832.442	0.0179923
832.521	0.0178960
832.599	0.0178085
832.677	0.0178077
832.755	0.0177068
832.833	0.0176077
832.911	0.0176069
832.989	0.0173780
833.067	0.0175953
833.146	0.0172723
833.224	0.0173752
833.302	0.0171700
833.380	0.0170854
833.458	0.0171204
833.536	0.0168240
833.614	0.0168465
833.692	0.0167137
833.771	0.0165836
833.849	0.0164552
833.927	0.0164920
834.005	0.0163671
834.083	0.0161867
834.161	0.0162355
834.239	0.0161526
834.317	0.0160976
834.396	0.0162413
834.474	0.0160104
834.552	0.0160605
834.630	0.0160699
834.708	0.0159393
834.786	0.0159060
834.864	0.0159933
834.942	0.0159299
835.021	0.0159983
835.099	0.0158897
835.177	0.0158250
835.255	0.0158362
835.333	0.0158947
835.411	0.0157104
835.489	0.0158060
835.567	0.0159353
835.646	0.0157139
835.724	0.0158366
835.802	0.0158636
835.880	0.0159281
835.958	0.0159707
836.036	0.0159356
836.114	0.0160067
836.192	0.0160934
836.271	0.0162141
836.349	0.0161620
836.427	0.0163160
836.505	0.0162635
836.583	0.0163795
836.661	0.0165638
836.739	0.0167725
836.817	0.0167712
836.896	0.0168255
836.974	0.0170490
837.052	0.0171169
837.130	0.0171581
837.208	0.0172357
837.286	0.0171764
837.364	0.0173139
837.442	0.0172118
837.521	0.0172623
837.599	0.0171355
837.677	0.0171971
837.755	0.0173133
837.833	0.0171898
837.911	0.0173098
837.989	0.0172002
838.067	0.0171303
838.146	0.0173268
838.224	0.0172397
838.302	0.0171120
838.380	0.0170600
838.458	0.0170180
838.536	0.0169318
838.614	0.0168933
838.692	0.0168890
838.771	0.0167953
838.849	0.0167884
838.927	0.0167566
839.005	0.0165807
839.083	0.0164515
839.161	0.0165295
839.239	0.0163770
839.317	0.0162924
839.396	0.0160797
839.474	0.0162880
839.552	0.0161569
839.630	0.0160596
839.708	0.0162213
839.786	0.0160025
839.864	0.0160420
839.942	0.0160712
840.021	0.0162765
840.099	0.0164005
840.177	0.0162413
840.255	0.0163441
840.333	0.0163244
840.411	0.0164528
840.489	0.0164669
840.567	0.0165629
840.646	0.0166000
840.724	0.0166592
840.802	0.0165354
840.880	0.0164719
840.958	0.0165623
841.036	0.0165170
841.114	0.0165835
841.192	0.0164612
841.271	0.0164108
841.349	0.0164697
841.427	0.0162752
841.505	0.0164249
841.583	0.0163322
841.661	0.0163082
841.739	0.0164410
841.817	0.0163496
841.896	0.0162901
841.974	0.0164068
842.052	0.0164651
842.130	0.0164767
842.208	0.0164991
842.286	0.0164729
842.364	0.0165765
842.442	0.0165540
842.521	0.0166459
842.599	0.0166387
842.677	0.0165202
842.755	0.0165348
842.833	0.0166063
842.911	0.0166445
842.989	0.0166631
843.067	0.0168740
843.146	0.0166531
843.224	0.0166821
843.302	0.0169387
843.380	0.0167741
843.458	0.0167891
843.536	0.0167651
843.614	0.0168325
843.692	0.0169273
843.771	0.0170149
843.849	0.0170316
843.927	0.0169452
844.005	0.0168875
844.083	0.0169234
844.161	0.0169420
844.239	0.0169154
844.317	0.0170049
844.396	0.0167271
844.474	0.0165522
844.552	0.0165090
844.630	0.0164343
844.708	0.0163973
844.786	0.0162601
844.864	0.0162466
844.942	0.0161438
845.021	0.0160286
845.099	0.0160542
845.177	0.0161346
845.255	0.0160758
845.333	0.0160295
845.411	0.0160120
845.489	0.0161297
845.567	0.0160811
845.646	0.0162326
845.724	0.0162670
845.802	0.0160401
845.880	0.0162302
845.958	0.0164993
846.036	0.0164062
846.114	0.0164738
846.192	0.0165417
846.271	0.0165810
846.349	0.0165873
846.427	0.0165667
846.505	0.0167480
846.583	0.0168267
846.661	0.0167582
846.739	0.0167005
846.817	0.0167125
846.896	0.0167714
846.974	0.0167878
847.052	0.0167795
847.130	0.0167159
847.208	0.0165611
847.286	0.0168591
847.364	0.0167554
847.442	0.0165525
847.521	0.0164021
847.599	0.0166894
847.677	0.0167091
847.755	0.0166518
847.833	0.0163722
847.911	0.0165913
847.989	0.0166631
848.067	0.0165776
848.146	0.0165813
848.224	0.0165544
848.302	0.0165630
848.380	0.0166562
848.458	0.0164785
848.536	0.0166518
848.614	0.0166233
848.692	0.0166069
848.771	0.0168076
848.849	0.0168556
848.927	0.0166993
849.005	0.0166862
849.083	0.0167368
849.161	0.0166706
849.239	0.0167201
849.317	0.0167834
849.396	0.0167899
849.474	0.0168228
849.552	0.0168837
849.630	0.0167722
849.708	0.0167143
849.786	0.0167905
849.864	0.0166471
849.942	0.0165154
850.021	0.0164778
850.099	0.0163898
850.177	0.0162563
850.255	0.0162240
850.333	0.0161618
850.411	0.0160487
850.489	0.0160079
850.567	0.0159964
850.646	0.0160309
850.724	0.0158685
850.802	0.0160483
850.880	0.0161740
850.958	0.0162189
851.036	0.0160719
851.114	0.0161312
851.192	0.0162514
851.271	0.0164611
851.349	0.0163978
851.427	0.0164766
851.505	0.0166041
851.583	0.0164877
851.661	0.0166542
851.739	0.0168793
851.817	0.0166829
851.896	0.0167600
851.974	0.0170055
852.052	0.0170844
852.130	0.0170169
852.208	0.0170148
852.286	0.0171036
852.364	0.0170865
852.442	0.0170951
852.521	0.0169501
852.599	0.0170001
852.677	0.0169750
852.755	0.0168916
852.833	0.0168765
852.911	0.0167603
852.989	0.0166634
853.067	0.0165452
853.146	0.0166634
853.224	0.0164667
853.302	0.0165533
853.380	0.0164426
853.458	0.0164482
853.536	0.0163867
853.614	0.0162180
853.692	0.0163073
853.771	0.0162989
853.849	0.0162962
853.927	0.0163726
854.005	0.0164366
854.083	0.0164075
854.161	0.0163994
854.239	0.0166472
854.317	0.0166029
854.396	0.0166542
854.474	0.0165015
854.552	0.0167032
854.630	0.0167303
854.708	0.0168801
854.786	0.0167095
854.864	0.0168094
854.942	0.0166959
855.021	0.0167403
855.099	0.0166338
855.177	0.0165745
855.255	0.0165196
855.333	0.0165781
855.411	0.0165089
855.489	0.0163895
855.567	0.0164150
855.646	0.0163280
855.724	0.0162627
855.802	0.0163142
855.880	0.0163219
855.958	0.0162791
856.036	0.0161477
856.114	0.0162849
856.192	0.0163293
856.271	0.0163529
856.349	0.0162801
856.427	0.0163718
856.505	0.0162135
856.583	0.0163602
856.661	0.0164975
856.739	0.0164332
856.817	0.0163916
856.896	0.0167107
856.974	0.0167206
857.052	0.0167909
857.130	0.0168609
857.208	0.0169590
857.286	0.0169386
857.364	0.0169488
857.442	0.0171407
857.521	0.0170953
857.599	0.0170865
857.677	0.0171807
857.755	0.0171619
857.833	0.0170950
857.911	0.0172296
857.989	0.0170397
858.067	0.0170700
858.146	0.0170322
858.224	0.0168327
858.302	0.0168884
858.380	0.0167549
858.458	0.0169355
858.536	0.0168098
858.614	0.0166897
858.692	0.0167594
858.771	0.0166032
858.849	0.0165687
858.927	0.0165377
859.005	0.0164588
859.083	0.0165023
859.161	0.0163923
859.239	0.0162641
859.317	0.0162962
859.396	0.0163819
859.474	0.0164032
859.552	0.0162787
859.630	0.0163000
859.708	0.0163905
859.786	0.0163142
859.864	0.0164925
859.942	0.0164017
860.021	0.0163152
860.099	0.0163161
860.177	0.0164599
860.255	0.0164738
860.333	0.0163610
860.411	0.0163345
860.489	0.0163900
860.567	0.0165303
860.646	0.0163049
860.724	0.0163938
860.802	0.0164725
860.880	0.0163994
860.958	0.0162860
861.036	0.0163149
861.114	0.0163491
861.192	0.0163476
861.271	0.0163120
861.349	0.0163671
861.427	0.0163496
861.505	0.0163605
861.583	0.0164307
861.661	0.0165837
861.739	0.0167175
861.817	0.0165816
861.896	0.0166607
861.974	0.0167191
862.052	0.0167280
862.130	0.0166499
862.208	0.0167149
862.286	0.0169711
862.364	0.0168661
862.442	0.0169550
862.521	0.0170715
862.599	0.0167984
862.677	0.0169728
862.755	0.0169841
862.833	0.0169395
862.911	0.0169186
862.989	0.0168849
863.067	0.0168673
863.146	0.0169394
863.224	0.0169650
863.302	0.0168475
863.380	0.0169176
863.458	0.0169942
863.536	0.0170210
863.614	0.0168767
863.692	0.0168806
863.771	0.0169781
863.849	0.0169719
863.927	0.0168923
864.005	0.0168259
864.083	0.0167767
864.161	0.0168430
864.239	0.0168880
864.317	0.0166762
864.396	0.0166737
864.474	0.0167651
864.552	0.0166067
864.630	0.0166031
864.708	0.0164165
864.786	0.0165763
864.864	0.0164948
864.942	0.0163143
865.021	0.0163092
865.099	0.0164321
865.177	0.0162140
865.255	0.0163359
865.333	0.0163632
865.411	0.0162621
865.489	0.0162206
865.567	0.0163202
865.646	0.0162559
865.724	0.0162792
865.802	0.0162368
865.880	0.0162837
865.958	0.0162190
866.036	0.0160394
866.114	0.0161019
866.192	0.0162231
866.271	0.0162965
866.349	0.0161389
866.427	0.0162952
866.505	0.0162823
866.583	0.0164139
866.661	0.0163781
866.739	0.0163467
866.817	0.0164288
866.896	0.0165417
866.974	0.0166134
867.052	0.0166032
867.130	0.0165061
867.208	0.0165450
867.286	0.0165845
867.364	0.0167241
867.442	0.0165903
867.521	0.0167535
867.599	0.0167953
867.677	0.0168079
867.755	0.0166920
867.833	0.0168816
867.911	0.0167762
867.989	0.0168648
868.067	0.0170132
868.146	0.0170269
868.224	0.0170409
868.302	0.0169418
868.380	0.0170048
868.458	0.0170448
868.536	0.0169495
868.614	0.0169228
868.692	0.0167286
868.771	0.0168085
868.849	0.0167548
868.927	0.0169009
869.005	0.0166788
869.083	0.0167124
869.161	0.0168089
869.239	0.0165816
869.317	0.0166061
869.396	0.0166316
869.474	0.0165178
869.552	0.0166453
869.630	0.0167535
869.708	0.0166888
869.786	0.0164558
869.864	0.0165195
869.942	0.0164307
