06/03/2022	15:43:26	Ver.	4.1	UNKNOWN
Optical Delay	550.020508	Delta X		0.078125	Sweeps	1	Scan Rate	0/0
Coordinates	Axis 1	NaN	Axis 2	NaN	Axis 3	NaN	Axis 4	NaN	Axis 5	NaN	Axis 6	0.000000
TX Power	0.000000	RX Power	0.000000

550.021	0.0161013
550.099	0.0161054
550.177	0.0160348
550.255	0.0160774
550.333	0.0160983
550.411	0.0159366
550.489	0.0159991
550.567	0.0161046
550.646	0.0161631
550.724	0.0160973
550.802	0.0160748
550.880	0.0162251
550.958	0.0160452
551.036	0.0161512
551.114	0.0161590
551.192	0.0161193
551.271	0.0161153
551.349	0.0160101
551.427	0.0161161
551.505	0.0162344
551.583	0.0161087
551.661	0.0160406
551.739	0.0162167
551.817	0.0161091
551.896	0.0161629
551.974	0.0159429
552.052	0.0160478
552.130	0.0161991
552.208	0.0160173
552.286	0.0162270
552.364	0.0161950
552.442	0.0161321
552.521	0.0160719
552.599	0.0160364
552.677	0.0160683
552.755	0.0160811
552.833	0.0160338
552.911	0.0161225
552.989	0.0160810
553.067	0.0161684
553.146	0.0160458
553.224	0.0160453
553.302	0.0160517
553.380	0.0159649
553.458	0.0159886
553.536	0.0160732
553.614	0.0161736
553.692	0.0159525
553.771	0.0159843
553.849	0.0160572
553.927	0.0161655
554.005	0.0160773
554.083	0.0161192
554.161	0.0161658
554.239	0.0160146
554.317	0.0160751
554.396	0.0160097
554.474	0.0161558
554.552	0.0159985
554.630	0.0160663
554.708	0.0161155
554.786	0.0160894
554.864	0.0160876
554.942	0.0161207
555.021	0.0161002
555.099	0.0160777
555.177	0.0160703
555.255	0.0161683
555.333	0.0161866
555.411	0.0160314
555.489	0.0159281
555.567	0.0160046
555.646	0.0160143
555.724	0.0160075
555.802	0.0160850
555.880	0.0160588
555.958	0.0160695
556.036	0.0160406
556.114	0.0162084
556.192	0.0161446
556.271	0.0161275
556.349	0.0161117
556.427	0.0160836
556.505	0.0160668
556.583	0.0160722
556.661	0.0160272
556.739	0.0161143
556.817	0.0160207
556.896	0.0161031
556.974	0.0160289
557.052	0.0161736
557.130	0.0160892
557.208	0.0160377
557.286	0.0159435
557.364	0.0160485
557.442	0.0159683
557.521	0.0162872
557.599	0.0162775
557.677	0.0160721
557.755	0.0160901
557.833	0.0161929
557.911	0.0160407
557.989	0.0161026
558.067	0.0159467
558.146	0.0159769
558.224	0.0160896
558.302	0.0161823
558.380	0.0161193
558.458	0.0161353
558.536	0.0162400
558.614	0.0161785
558.692	0.0161360
558.771	0.0160484
558.849	0.0161856
558.927	0.0161688
559.005	0.0160360
559.083	0.0159901
559.161	0.0161974
559.239	0.0161893
559.317	0.0160822
559.396	0.0159631
559.474	0.0159912
559.552	0.0160082
559.630	0.0160606
559.708	0.0160706
559.786	0.0159805
559.864	0.0159998
559.942	0.0161151
560.021	0.0160406
560.099	0.0159184
560.177	0.0161202
560.255	0.0162247
560.333	0.0160395
560.411	0.0161012
560.489	0.0161259
560.567	0.0160211
560.646	0.0160748
560.724	0.0160027
560.802	0.0161103
560.880	0.0160141
560.958	0.0161163
561.036	0.0160046
561.114	0.0160138
561.192	0.0160632
561.271	0.0161055
561.349	0.0161641
561.427	0.0161922
561.505	0.0161296
561.583	0.0160738
561.661	0.0160501
561.739	0.0161331
561.817	0.0160541
561.896	0.0160604
561.974	0.0161642
562.052	0.0160387
562.130	0.0160865
562.208	0.0160291
562.286	0.0161633
562.364	0.0160502
562.442	0.0159954
562.521	0.0161519
562.599	0.0161457
562.677	0.0160674
562.755	0.0161581
562.833	0.0161781
562.911	0.0160235
562.989	0.0160313
563.067	0.0160094
563.146	0.0160662
563.224	0.0160211
563.302	0.0159697
563.380	0.0161038
563.458	0.0160928
563.536	0.0159915
563.614	0.0161121
563.692	0.0161662
563.771	0.0160838
563.849	0.0160784
563.927	0.0161054
564.005	0.0160312
564.083	0.0160764
564.161	0.0161800
564.239	0.0161904
564.317	0.0160284
564.396	0.0160323
564.474	0.0160980
564.552	0.0160926
564.630	0.0159386
564.708	0.0161440
564.786	0.0163924
564.864	0.0160566
564.942	0.0160239
565.021	0.0160912
565.099	0.0160380
565.177	0.0160765
565.255	0.0161942
565.333	0.0160715
565.411	0.0160053
565.489	0.0160177
565.567	0.0159992
565.646	0.0159757
565.724	0.0161491
565.802	0.0161132
565.880	0.0159826
565.958	0.0160371
566.036	0.0160676
566.114	0.0159927
566.192	0.0161021
566.271	0.0161619
566.349	0.0161237
566.427	0.0161029
566.505	0.0160584
566.583	0.0161198
566.661	0.0160693
566.739	0.0160266
566.817	0.0160911
566.896	0.0160006
566.974	0.0160085
567.052	0.0159886
567.130	0.0160316
567.208	0.0161152
567.286	0.0160265
567.364	0.0160262
567.442	0.0160495
567.521	0.0160724
567.599	0.0161382
567.677	0.0161507
567.755	0.0161473
567.833	0.0160552
567.911	0.0160349
567.989	0.0161408
568.067	0.0161939
568.146	0.0160739
568.224	0.0161977
568.302	0.0160729
568.380	0.0160527
568.458	0.0161170
568.536	0.0161060
568.614	0.0159637
568.692	0.0160462
568.771	0.0160890
568.849	0.0161213
568.927	0.0160728
569.005	0.0160085
569.083	0.0160482
569.161	0.0159806
569.239	0.0160713
569.317	0.0160880
569.396	0.0159705
569.474	0.0162246
569.552	0.0160621
569.630	0.0161617
569.708	0.0160322
569.786	0.0160094
569.864	0.0161441
569.942	0.0161600
570.021	0.0162117
570.099	0.0160248
570.177	0.0160416
570.255	0.0160646
570.333	0.0159285
570.411	0.0159673
570.489	0.0160506
570.567	0.0161653
570.646	0.0160970
570.724	0.0161979
570.802	0.0160220
570.880	0.0160614
570.958	0.0160694
571.036	0.0161685
571.114	0.0159773
571.192	0.0159890
571.271	0.0160000
571.349	0.0160835
571.427	0.0160542
571.505	0.0160654
571.583	0.0161063
571.661	0.0161601
571.739	0.0160824
571.817	0.0161033
571.896	0.0161089
571.974	0.0160615
572.052	0.0160701
572.130	0.0161663
572.208	0.0161097
572.286	0.0160283
572.364	0.0159409
572.442	0.0160667
572.521	0.0161436
572.599	0.0161188
572.677	0.0162317
572.755	0.0160732
572.833	0.0160288
572.911	0.0161060
572.989	0.0160720
573.067	0.0161156
573.146	0.0160487
573.224	0.0159779
573.302	0.0159348
573.380	0.0160028
573.458	0.0162143
573.536	0.0160331
573.614	0.0159960
573.692	0.0160490
573.771	0.0160183
573.849	0.0160857
573.927	0.0160258
574.005	0.0160876
574.083	0.0160418
574.161	0.0160772
574.239	0.0161232
574.317	0.0160944
574.396	0.0159658
574.474	0.0160753
574.552	0.0160764
574.630	0.0159518
574.708	0.0161047
574.786	0.0160612
574.864	0.0161300
574.942	0.0161329
575.021	0.0159893
575.099	0.0161481
575.177	0.0161562
575.255	0.0160689
575.333	0.0161156
575.411	0.0161206
575.489	0.0160527
575.567	0.0161259
575.646	0.0161113
575.724	0.0159901
575.802	0.0161664
575.880	0.0161095
575.958	0.0160918
576.036	0.0160484
576.114	0.0160210
576.192	0.0160164
576.271	0.0161395
576.349	0.0161210
576.427	0.0160893
576.505	0.0160023
576.583	0.0161052
576.661	0.0161517
576.739	0.0161538
576.817	0.0160876
576.896	0.0160619
576.974	0.0159743
577.052	0.0160412
577.130	0.0161088
577.208	0.0160822
577.286	0.0161884
577.364	0.0160429
577.442	0.0160300
577.521	0.0160066
577.599	0.0161198
577.677	0.0160664
577.755	0.0160452
577.833	0.0161308
577.911	0.0161396
577.989	0.0160430
578.067	0.0161052
578.146	0.0161099
578.224	0.0160641
578.302	0.0161385
578.380	0.0159880
578.458	0.0161163
578.536	0.0161069
578.614	0.0160570
578.692	0.0161515
578.771	0.0161267
578.849	0.0161178
578.927	0.0160348
579.005	0.0160665
579.083	0.0161353
579.161	0.0161066
579.239	0.0160928
579.317	0.0160984
579.396	0.0161371
579.474	0.0160995
579.552	0.0160033
579.630	0.0160960
579.708	0.0160695
579.786	0.0160155
579.864	0.0161018
579.942	0.0161078
580.021	0.0160278
580.099	0.0160282
580.177	0.0160140
580.255	0.0160628
580.333	0.0160588
580.411	0.0161330
580.489	0.0160783
580.567	0.0160058
580.646	0.0159953
580.724	0.0161885
580.802	0.0161007
580.880	0.0159896
580.958	0.0160176
581.036	0.0160516
581.114	0.0161166
581.192	0.0161443
581.271	0.0161652
581.349	0.0161864
581.427	0.0161484
581.505	0.0159394
581.583	0.0161275
581.661	0.0162321
581.739	0.0161570
581.817	0.0160555
581.896	0.0159816
581.974	0.0160185
582.052	0.0159839
582.130	0.0161122
582.208	0.0161441
582.286	0.0160787
582.364	0.0159846
582.442	0.0160520
582.521	0.0161333
582.599	0.0160394
582.677	0.0160735
582.755	0.0160367
582.833	0.0161411
582.911	0.0160573
582.989	0.0159959
583.067	0.0162636
583.146	0.0161877
583.224	0.0160268
583.302	0.0160436
583.380	0.0160683
583.458	0.0161325
583.536	0.0160481
583.614	0.0161054
583.692	0.0161571
583.771	0.0159989
583.849	0.0161133
583.927	0.0160609
584.005	0.0160547
584.083	0.0160397
584.161	0.0160115
584.239	0.0162311
584.317	0.0161592
584.396	0.0161850
584.474	0.0161811
584.552	0.0161900
584.630	0.0162243
584.708	0.0160380
584.786	0.0160313
584.864	0.0160903
584.942	0.0160867
585.021	0.0161209
585.099	0.0161011
585.177	0.0161269
585.255	0.0161273
585.333	0.0160375
585.411	0.0161808
585.489	0.0160772
585.567	0.0161064
585.646	0.0160811
585.724	0.0161527
585.802	0.0160633
585.880	0.0160873
585.958	0.0160818
586.036	0.0161461
586.114	0.0161053
586.192	0.0160302
586.271	0.0160017
586.349	0.0161150
586.427	0.0159853
586.505	0.0161156
586.583	0.0161275
586.661	0.0160090
586.739	0.0162048
586.817	0.0160767
586.896	0.0159659
586.974	0.0160898
587.052	0.0161763
587.130	0.0160007
587.208	0.0160952
587.286	0.0160374
587.364	0.0160570
587.442	0.0159904
587.521	0.0160509
587.599	0.0160400
587.677	0.0158569
587.755	0.0161590
587.833	0.0161564
587.911	0.0160980
587.989	0.0160249
588.067	0.0160130
588.146	0.0161247
588.224	0.0160653
588.302	0.0159952
588.380	0.0160109
588.458	0.0160853
588.536	0.0160014
588.614	0.0161244
588.692	0.0162328
588.771	0.0161155
588.849	0.0159764
588.927	0.0160146
589.005	0.0160922
589.083	0.0161179
589.161	0.0161018
589.239	0.0159322
589.317	0.0160275
589.396	0.0160673
589.474	0.0160660
589.552	0.0161424
589.630	0.0160807
589.708	0.0160345
589.786	0.0161104
589.864	0.0161607
589.942	0.0159992
590.021	0.0159730
590.099	0.0159847
590.177	0.0160361
590.255	0.0160760
590.333	0.0161530
590.411	0.0161243
590.489	0.0160522
590.567	0.0160091
590.646	0.0160238
590.724	0.0161636
590.802	0.0160725
590.880	0.0161269
590.958	0.0160205
591.036	0.0161050
591.114	0.0161636
591.192	0.0161179
591.271	0.0160291
591.349	0.0159866
591.427	0.0160455
591.505	0.0161534
591.583	0.0160871
591.661	0.0161144
591.739	0.0160222
591.817	0.0160140
591.896	0.0160588
591.974	0.0159692
592.052	0.0161979
592.130	0.0161079
592.208	0.0161158
592.286	0.0161192
592.364	0.0159710
592.442	0.0161401
592.521	0.0160184
592.599	0.0159264
592.677	0.0160574
592.755	0.0161802
592.833	0.0161205
592.911	0.0161524
592.989	0.0162798
593.067	0.0161625
593.146	0.0160562
593.224	0.0161252
593.302	0.0161383
593.380	0.0162242
593.458	0.0160622
593.536	0.0160796
593.614	0.0161558
593.692	0.0160641
593.771	0.0161650
593.849	0.0161376
593.927	0.0161089
594.005	0.0160867
594.083	0.0161111
594.161	0.0161057
594.239	0.0161574
594.317	0.0160290
594.396	0.0160336
594.474	0.0161957
594.552	0.0160326
594.630	0.0160218
594.708	0.0161356
594.786	0.0161532
594.864	0.0162337
594.942	0.0161169
595.021	0.0160471
595.099	0.0161353
595.177	0.0159306
595.255	0.0160594
595.333	0.0162672
595.411	0.0160524
595.489	0.0160811
595.567	0.0160809
595.646	0.0161437
595.724	0.0161031
595.802	0.0161295
595.880	0.0160849
595.958	0.0160728
596.036	0.0161370
596.114	0.0161208
596.192	0.0159682
596.271	0.0161088
596.349	0.0159991
596.427	0.0161394
596.505	0.0160750
596.583	0.0161154
596.661	0.0161233
596.739	0.0160223
596.817	0.0160558
596.896	0.0161173
596.974	0.0160413
597.052	0.0162184
597.130	0.0161316
597.208	0.0160954
597.286	0.0161623
597.364	0.0160536
597.442	0.0159928
597.521	0.0159603
597.599	0.0160573
597.677	0.0160521
597.755	0.0160361
597.833	0.0161556
597.911	0.0161788
597.989	0.0161266
598.067	0.0161749
598.146	0.0161488
598.224	0.0161642
598.302	0.0160917
598.380	0.0160075
598.458	0.0160789
598.536	0.0161524
598.614	0.0160609
598.692	0.0160609
598.771	0.0160165
598.849	0.0161750
598.927	0.0162415
599.005	0.0159742
599.083	0.0160427
599.161	0.0160426
599.239	0.0161610
599.317	0.0161330
599.396	0.0160827
599.474	0.0159608
599.552	0.0161473
599.630	0.0160957
599.708	0.0161880
599.786	0.0160559
599.864	0.0161530
599.942	0.0161237
600.021	0.0160551
600.099	0.0160828
600.177	0.0160435
600.255	0.0160670
600.333	0.0161652
600.411	0.0160878
600.489	0.0160576
600.567	0.0162537
600.646	0.0161509
600.724	0.0161676
600.802	0.0161887
600.880	0.0160683
600.958	0.0159662
601.036	0.0161113
601.114	0.0161819
601.192	0.0161047
601.271	0.0161034
601.349	0.0161163
601.427	0.0162192
601.505	0.0161735
601.583	0.0159853
601.661	0.0160857
601.739	0.0161452
601.817	0.0159736
601.896	0.0162786
601.974	0.0159366
602.052	0.0161144
602.130	0.0162725
602.208	0.0161368
602.286	0.0161264
602.364	0.0160949
602.442	0.0160860
602.521	0.0161334
602.599	0.0160879
602.677	0.0161082
602.755	0.0160759
602.833	0.0160137
602.911	0.0160459
602.989	0.0161537
603.067	0.0161539
603.146	0.0161854
603.224	0.0161250
603.302	0.0161390
603.380	0.0161421
603.458	0.0161622
603.536	0.0160246
603.614	0.0160449
603.692	0.0161638
603.771	0.0161201
603.849	0.0161166
603.927	0.0159728
604.005	0.0160369
604.083	0.0161078
604.161	0.0160619
604.239	0.0160202
604.317	0.0160956
604.396	0.0161890
604.474	0.0160410
604.552	0.0159111
604.630	0.0160843
604.708	0.0160196
604.786	0.0160955
604.864	0.0160662
604.942	0.0160167
605.021	0.0160416
605.099	0.0161102
605.177	0.0160088
605.255	0.0159959
605.333	0.0160358
605.411	0.0161465
605.489	0.0160962
605.567	0.0160682
605.646	0.0160613
605.724	0.0160637
605.802	0.0160374
605.880	0.0161471
605.958	0.0159567
606.036	0.0161212
606.114	0.0162073
606.192	0.0162093
606.271	0.0159782
606.349	0.0160897
606.427	0.0161463
606.505	0.0161076
606.583	0.0160435
606.661	0.0161381
606.739	0.0159943
606.817	0.0160423
606.896	0.0160722
606.974	0.0161105
607.052	0.0159834
607.130	0.0160315
607.208	0.0162084
607.286	0.0160606
607.364	0.0161490
607.442	0.0160787
607.521	0.0159457
607.599	0.0159715
607.677	0.0161214
607.755	0.0160584
607.833	0.0160525
607.911	0.0160644
607.989	0.0160919
608.067	0.0160478
608.146	0.0161312
608.224	0.0160077
608.302	0.0160271
608.380	0.0162029
608.458	0.0161016
608.536	0.0160821
608.614	0.0161467
608.692	0.0160393
608.771	0.0159990
608.849	0.0161543
608.927	0.0160175
609.005	0.0160422
609.083	0.0161429
609.161	0.0161462
609.239	0.0160902
609.317	0.0160370
609.396	0.0160292
609.474	0.0161087
609.552	0.0160830
609.630	0.0160329
609.708	0.0161257
609.786	0.0160521
609.864	0.0161556
609.942	0.0160033
610.021	0.0161376
610.099	0.0161153
610.177	0.0160786
610.255	0.0162317
610.333	0.0161214
610.411	0.0159518
610.489	0.0159632
610.567	0.0161401
610.646	0.0160353
610.724	0.0160802
610.802	0.0160601
610.880	0.0160232
610.958	0.0161349
611.036	0.0160534
611.114	0.0161098
611.192	0.0161005
611.271	0.0159750
611.349	0.0159758
611.427	0.0160960
611.505	0.0160965
611.583	0.0160721
611.661	0.0160102
611.739	0.0160614
611.817	0.0161192
611.896	0.0161263
611.974	0.0160703
612.052	0.0160800
612.130	0.0160640
612.208	0.0160094
612.286	0.0159895
612.364	0.0160615
612.442	0.0161283
612.521	0.0162452
612.599	0.0161141
612.677	0.0161334
612.755	0.0162142
612.833	0.0160318
612.911	0.0159769
612.989	0.0160742
613.067	0.0161031
613.146	0.0160058
613.224	0.0160711
613.302	0.0159624
613.380	0.0159748
613.458	0.0160957
613.536	0.0161168
613.614	0.0161321
613.692	0.0159727
613.771	0.0160084
613.849	0.0161008
613.927	0.0160919
614.005	0.0161177
614.083	0.0159550
614.161	0.0160703
614.239	0.0160704
614.317	0.0159652
614.396	0.0161675
614.474	0.0160171
614.552	0.0159857
614.630	0.0160009
614.708	0.0161678
614.786	0.0160732
614.864	0.0160646
614.942	0.0160794
615.021	0.0160762
615.099	0.0160681
615.177	0.0160761
615.255	0.0161678
615.333	0.0160345
615.411	0.0158578
615.489	0.0159978
615.567	0.0161356
615.646	0.0160939
615.724	0.0159637
615.802	0.0160281
615.880	0.0161204
615.958	0.0161638
616.036	0.0160684
616.114	0.0160821
616.192	0.0161595
616.271	0.0160979
616.349	0.0160242
616.427	0.0160360
616.505	0.0160871
616.583	0.0160442
616.661	0.0159386
616.739	0.0159671
616.817	0.0159908
616.896	0.0160892
616.974	0.0160685
617.052	0.0160342
617.130	0.0160717
617.208	0.0162521
617.286	0.0160446
617.364	0.0161246
617.442	0.0160973
617.521	0.0160987
617.599	0.0161181
617.677	0.0160148
617.755	0.0160044
617.833	0.0160703
617.911	0.0161278
617.989	0.0162278
618.067	0.0160847
618.146	0.0159425
618.224	0.0160646
618.302	0.0159843
618.380	0.0159848
618.458	0.0161718
618.536	0.0161873
618.614	0.0159572
618.692	0.0160522
618.771	0.0160547
618.849	0.0159155
618.927	0.0160471
619.005	0.0159824
619.083	0.0160356
619.161	0.0159841
619.239	0.0159933
619.317	0.0159892
619.396	0.0159141
619.474	0.0161005
619.552	0.0160303
619.630	0.0161150
619.708	0.0159882
619.786	0.0159435
619.864	0.0161094
619.942	0.0159818
620.021	0.0160175
620.099	0.0159461
620.177	0.0160760
620.255	0.0160386
620.333	0.0160791
620.411	0.0160571
620.489	0.0161031
620.567	0.0160340
620.646	0.0160190
620.724	0.0160793
620.802	0.0161464
620.880	0.0161919
620.958	0.0160493
621.036	0.0158454
621.114	0.0160977
621.192	0.0161266
621.271	0.0159266
621.349	0.0160241
621.427	0.0160651
621.505	0.0161195
621.583	0.0160445
621.661	0.0158795
621.739	0.0159367
621.817	0.0160644
621.896	0.0160340
621.974	0.0161221
622.052	0.0160012
622.130	0.0160519
622.208	0.0159905
622.286	0.0160405
622.364	0.0160378
622.442	0.0159908
622.521	0.0160413
622.599	0.0161959
622.677	0.0160672
622.755	0.0160288
622.833	0.0159507
622.911	0.0159721
622.989	0.0160275
623.067	0.0160271
623.146	0.0159373
623.224	0.0160061
623.302	0.0160400
623.380	0.0160963
623.458	0.0160754
623.536	0.0160263
623.614	0.0159820
623.692	0.0159352
623.771	0.0160275
623.849	0.0159446
623.927	0.0159690
624.005	0.0160718
624.083	0.0160243
624.161	0.0159722
624.239	0.0160746
624.317	0.0160196
624.396	0.0160693
624.474	0.0159232
624.552	0.0160417
624.630	0.0160021
624.708	0.0159538
624.786	0.0161137
624.864	0.0161456
624.942	0.0161433
625.021	0.0158967
625.099	0.0161179
625.177	0.0161944
625.255	0.0159994
625.333	0.0159350
625.411	0.0160981
625.489	0.0160371
625.567	0.0159710
625.646	0.0159773
625.724	0.0159702
625.802	0.0159235
625.880	0.0160732
625.958	0.0158138
626.036	0.0161612
626.114	0.0160268
626.192	0.0160020
626.271	0.0160538
626.349	0.0160168
626.427	0.0161028
626.505	0.0160422
626.583	0.0159140
626.661	0.0160236
626.739	0.0161395
626.817	0.0161140
626.896	0.0160686
626.974	0.0159695
627.052	0.0159271
627.130	0.0161883
627.208	0.0161400
627.286	0.0160226
627.364	0.0160494
627.442	0.0160489
627.521	0.0159954
627.599	0.0160532
627.677	0.0159900
627.755	0.0161540
627.833	0.0159692
627.911	0.0159915
627.989	0.0160078
628.067	0.0161217
628.146	0.0161999
628.224	0.0161129
628.302	0.0160767
628.380	0.0160551
628.458	0.0161471
628.536	0.0160725
628.614	0.0160931
628.692	0.0161276
628.771	0.0159872
628.849	0.0159650
628.927	0.0160404
629.005	0.0161171
629.083	0.0161346
629.161	0.0160270
629.239	0.0161046
629.317	0.0160262
629.396	0.0160378
629.474	0.0159969
629.552	0.0162727
629.630	0.0160625
629.708	0.0161956
629.786	0.0160561
629.864	0.0161167
629.942	0.0161924
630.021	0.0161445
630.099	0.0160921
630.177	0.0159686
630.255	0.0160314
630.333	0.0161942
630.411	0.0159776
630.489	0.0161040
630.567	0.0160791
630.646	0.0160207
630.724	0.0161284
630.802	0.0160448
630.880	0.0160600
630.958	0.0160603
631.036	0.0160635
631.114	0.0160272
631.192	0.0161285
631.271	0.0160270
631.349	0.0160145
631.427	0.0161899
631.505	0.0161382
631.583	0.0161366
631.661	0.0161206
631.739	0.0161601
631.817	0.0161428
631.896	0.0162603
631.974	0.0160504
632.052	0.0160271
632.130	0.0161528
632.208	0.0161497
632.286	0.0159975
632.364	0.0159675
632.442	0.0160992
632.521	0.0160655
632.599	0.0158904
632.677	0.0160478
632.755	0.0161440
632.833	0.0161504
632.911	0.0159676
632.989	0.0160506
633.067	0.0159039
633.146	0.0161415
633.224	0.0161053
633.302	0.0160754
633.380	0.0160342
633.458	0.0160023
633.536	0.0160981
633.614	0.0160631
633.692	0.0160859
633.771	0.0162312
633.849	0.0159747
633.927	0.0159850
634.005	0.0161328
634.083	0.0160630
634.161	0.0159695
634.239	0.0161184
634.317	0.0161882
634.396	0.0162029
634.474	0.0160423
634.552	0.0160934
634.630	0.0161635
634.708	0.0160715
634.786	0.0160401
634.864	0.0161279
634.942	0.0160792
635.021	0.0160986
635.099	0.0160658
635.177	0.0159790
635.255	0.0161594
635.333	0.0160181
635.411	0.0159831
635.489	0.0161135
635.567	0.0160106
635.646	0.0160235
635.724	0.0159382
635.802	0.0160149
635.880	0.0161127
635.958	0.0160217
636.036	0.0160377
636.114	0.0161447
636.192	0.0159589
636.271	0.0159528
636.349	0.0160229
636.427	0.0161176
636.505	0.0160139
636.583	0.0160209
636.661	0.0159746
636.739	0.0160766
636.817	0.0160197
636.896	0.0159380
636.974	0.0160621
637.052	0.0161074
637.130	0.0160767
637.208	0.0161120
637.286	0.0161473
637.364	0.0160847
637.442	0.0160793
637.521	0.0161491
637.599	0.0160741
637.677	0.0161665
637.755	0.0161926
637.833	0.0160487
637.911	0.0162322
637.989	0.0161853
638.067	0.0160302
638.146	0.0160795
638.224	0.0161298
638.302	0.0161761
638.380	0.0159579
638.458	0.0161513
638.536	0.0160131
638.614	0.0159808
638.692	0.0161775
638.771	0.0161528
638.849	0.0159367
638.927	0.0161025
639.005	0.0161472
639.083	0.0159412
639.161	0.0160399
639.239	0.0160048
639.317	0.0159938
639.396	0.0159927
639.474	0.0161143
639.552	0.0160726
639.630	0.0159299
639.708	0.0160713
639.786	0.0161006
639.864	0.0160809
639.942	0.0159730
640.021	0.0160976
640.099	0.0160635
640.177	0.0161097
640.255	0.0160943
640.333	0.0161424
640.411	0.0162650
640.489	0.0160288
640.567	0.0161009
640.646	0.0160281
640.724	0.0161870
640.802	0.0160998
640.880	0.0159852
640.958	0.0160428
641.036	0.0160335
641.114	0.0161758
641.192	0.0160913
641.271	0.0160075
641.349	0.0159861
641.427	0.0160121
641.505	0.0160838
641.583	0.0160303
641.661	0.0160530
641.739	0.0161049
641.817	0.0161678
641.896	0.0161948
641.974	0.0161068
642.052	0.0161552
642.130	0.0161851
642.208	0.0161232
642.286	0.0160212
642.364	0.0159370
642.442	0.0160786
642.521	0.0161180
642.599	0.0160433
642.677	0.0161311
642.755	0.0161924
642.833	0.0158762
642.911	0.0159988
642.989	0.0160692
643.067	0.0159181
643.146	0.0161009
643.224	0.0160780
643.302	0.0161417
643.380	0.0161855
643.458	0.0161288
643.536	0.0161478
643.614	0.0160381
643.692	0.0159418
643.771	0.0160757
643.849	0.0161961
643.927	0.0161672
644.005	0.0160572
644.083	0.0160824
644.161	0.0161533
644.239	0.0159846
644.317	0.0161407
644.396	0.0160412
644.474	0.0160207
644.552	0.0161658
644.630	0.0161230
644.708	0.0159860
644.786	0.0160353
644.864	0.0160558
644.942	0.0161181
645.021	0.0162389
645.099	0.0159939
645.177	0.0161876
645.255	0.0162359
645.333	0.0161559
645.411	0.0160740
645.489	0.0161259
645.567	0.0161044
645.646	0.0161586
645.724	0.0161518
645.802	0.0160934
645.880	0.0161381
645.958	0.0160950
646.036	0.0162193
646.114	0.0161070
646.192	0.0161868
646.271	0.0161893
646.349	0.0161459
646.427	0.0161735
646.505	0.0159974
646.583	0.0162058
646.661	0.0161821
646.739	0.0161008
646.817	0.0160763
646.896	0.0160468
646.974	0.0162331
647.052	0.0161229
647.130	0.0159758
647.208	0.0161423
647.286	0.0160888
647.364	0.0159297
647.442	0.0160299
647.521	0.0159494
647.599	0.0160751
647.677	0.0160441
647.755	0.0161422
647.833	0.0159689
647.911	0.0160580
647.989	0.0160938
648.067	0.0160222
648.146	0.0161956
648.224	0.0160361
648.302	0.0159726
648.380	0.0159918
648.458	0.0159016
648.536	0.0159381
648.614	0.0160069
648.692	0.0161394
648.771	0.0161768
648.849	0.0159298
648.927	0.0159668
649.005	0.0157602
649.083	0.0160277
649.161	0.0159667
649.239	0.0160722
649.317	0.0159412
649.396	0.0160210
649.474	0.0161191
649.552	0.0160548
649.630	0.0161699
649.708	0.0160308
649.786	0.0160143
649.864	0.0160070
649.942	0.0159557
650.021	0.0160289
650.099	0.0159666
650.177	0.0159018
650.255	0.0160567
650.333	0.0160080
650.411	0.0159731
650.489	0.0159531
650.567	0.0158871
650.646	0.0160548
650.724	0.0162245
650.802	0.0159262
650.880	0.0159309
650.958	0.0160144
651.036	0.0159532
651.114	0.0160315
651.192	0.0159737
651.271	0.0161631
651.349	0.0160867
651.427	0.0161136
651.505	0.0161868
651.583	0.0161864
651.661	0.0159953
651.739	0.0160519
651.817	0.0160472
651.896	0.0159827
651.974	0.0161347
652.052	0.0161029
652.130	0.0160798
652.208	0.0159467
652.286	0.0161082
652.364	0.0159954
652.442	0.0160440
652.521	0.0159595
652.599	0.0160873
652.677	0.0161453
652.755	0.0160596
652.833	0.0159621
652.911	0.0159172
652.989	0.0160077
653.067	0.0160234
653.146	0.0159735
653.224	0.0160777
653.302	0.0160550
653.380	0.0160164
653.458	0.0160880
653.536	0.0160247
653.614	0.0159327
653.692	0.0161054
653.771	0.0160732
653.849	0.0158794
653.927	0.0160284
654.005	0.0161642
654.083	0.0161044
654.161	0.0160529
654.239	0.0161890
654.317	0.0160179
654.396	0.0159695
654.474	0.0160503
654.552	0.0159333
654.630	0.0158961
654.708	0.0161047
654.786	0.0160081
654.864	0.0159827
654.942	0.0160839
655.021	0.0162154
655.099	0.0159960
655.177	0.0160925
655.255	0.0159171
655.333	0.0160436
655.411	0.0160847
655.489	0.0160438
655.567	0.0161742
655.646	0.0160597
655.724	0.0160177
655.802	0.0161272
655.880	0.0161717
655.958	0.0159898
656.036	0.0160918
656.114	0.0160406
656.192	0.0161671
656.271	0.0160062
656.349	0.0161499
656.427	0.0159025
656.505	0.0159893
656.583	0.0160386
656.661	0.0161829
656.739	0.0162530
656.817	0.0161819
656.896	0.0160969
656.974	0.0160064
657.052	0.0160402
657.130	0.0161349
657.208	0.0159306
657.286	0.0161475
657.364	0.0161399
657.442	0.0160375
657.521	0.0161016
657.599	0.0160284
657.677	0.0161986
657.755	0.0159901
657.833	0.0159364
657.911	0.0160390
657.989	0.0162173
658.067	0.0161224
658.146	0.0160661
658.224	0.0159341
658.302	0.0159495
658.380	0.0162118
658.458	0.0162095
658.536	0.0160909
658.614	0.0159294
658.692	0.0161486
658.771	0.0160636
658.849	0.0161317
658.927	0.0160217
659.005	0.0160793
659.083	0.0161558
659.161	0.0161272
659.239	0.0160771
659.317	0.0159738
659.396	0.0160426
659.474	0.0160284
659.552	0.0160639
659.630	0.0160214
659.708	0.0161348
659.786	0.0161942
659.864	0.0160289
659.942	0.0161269
660.021	0.0160732
660.099	0.0161507
660.177	0.0161755
660.255	0.0161416
660.333	0.0160516
660.411	0.0160706
660.489	0.0161161
660.567	0.0162553
660.646	0.0162285
660.724	0.0161016
660.802	0.0161988
660.880	0.0160396
660.958	0.0159619
661.036	0.0160428
661.114	0.0161183
661.192	0.0162450
661.271	0.0162246
661.349	0.0161597
661.427	0.0160713
661.505	0.0160925
661.583	0.0160680
661.661	0.0160788
661.739	0.0161455
661.817	0.0161676
661.896	0.0160898
661.974	0.0160031
662.052	0.0161520
662.130	0.0161563
662.208	0.0162298
662.286	0.0161305
662.364	0.0161184
662.442	0.0161524
662.521	0.0160806
662.599	0.0159139
662.677	0.0160281
662.755	0.0160851
662.833	0.0161913
662.911	0.0161415
662.989	0.0160758
663.067	0.0161205
663.146	0.0160871
663.224	0.0161121
663.302	0.0161052
663.380	0.0161598
663.458	0.0160208
663.536	0.0160600
663.614	0.0161691
663.692	0.0160786
663.771	0.0160642
663.849	0.0161086
663.927	0.0161089
664.005	0.0161292
664.083	0.0161480
664.161	0.0160555
664.239	0.0160600
664.317	0.0160883
664.396	0.0160783
664.474	0.0161993
664.552	0.0159738
664.630	0.0160133
664.708	0.0160474
664.786	0.0159231
664.864	0.0161071
664.942	0.0160764
665.021	0.0161791
665.099	0.0161083
665.177	0.0159584
665.255	0.0161125
665.333	0.0160388
665.411	0.0161010
665.489	0.0161491
665.567	0.0160899
665.646	0.0161852
665.724	0.0161201
665.802	0.0161284
665.880	0.0161069
665.958	0.0160611
666.036	0.0162053
666.114	0.0161086
666.192	0.0161534
666.271	0.0162558
666.349	0.0161723
666.427	0.0160967
666.505	0.0160844
666.583	0.0161642
666.661	0.0162313
666.739	0.0160425
666.817	0.0162528
666.896	0.0161163
666.974	0.0162279
667.052	0.0162251
667.130	0.0161239
667.208	0.0161131
667.286	0.0160503
667.364	0.0160014
667.442	0.0160932
667.521	0.0162357
667.599	0.0160796
667.677	0.0160655
667.755	0.0161619
667.833	0.0161024
667.911	0.0160549
667.989	0.0162264
668.067	0.0160250
668.146	0.0160224
668.224	0.0161922
668.302	0.0162261
668.380	0.0159435
668.458	0.0161547
668.536	0.0161897
668.614	0.0160594
668.692	0.0160566
668.771	0.0161089
668.849	0.0161623
668.927	0.0160329
669.005	0.0161210
669.083	0.0161252
669.161	0.0160981
669.239	0.0159615
669.317	0.0160626
669.396	0.0162064
669.474	0.0160989
669.552	0.0159766
669.630	0.0160716
669.708	0.0160342
669.786	0.0161001
669.864	0.0161447
669.942	0.0160983
670.021	0.0161150
670.099	0.0160392
670.177	0.0162151
670.255	0.0161737
670.333	0.0161550
670.411	0.0160177
670.489	0.0160076
670.567	0.0160466
670.646	0.0161160
670.724	0.0160602
670.802	0.0161246
670.880	0.0160267
670.958	0.0160442
671.036	0.0160916
671.114	0.0160599
671.192	0.0160046
671.271	0.0161180
671.349	0.0162322
671.427	0.0160773
671.505	0.0160709
671.583	0.0161298
671.661	0.0160865
671.739	0.0159715
671.817	0.0158370
671.896	0.0160810
671.974	0.0160050
672.052	0.0160747
672.130	0.0160149
672.208	0.0160527
672.286	0.0159999
672.364	0.0160010
672.442	0.0159624
672.521	0.0160188
672.599	0.0160567
672.677	0.0161525
672.755	0.0160511
672.833	0.0160576
672.911	0.0160880
672.989	0.0160044
673.067	0.0160023
673.146	0.0159911
673.224	0.0160391
673.302	0.0159086
673.380	0.0158949
673.458	0.0159583
673.536	0.0160130
673.614	0.0159080
673.692	0.0160463
673.771	0.0159409
673.849	0.0160441
673.927	0.0161633
674.005	0.0159235
674.083	0.0159825
674.161	0.0159766
674.239	0.0160626
674.317	0.0159401
674.396	0.0160124
674.474	0.0159560
674.552	0.0160898
674.630	0.0159559
674.708	0.0161765
674.786	0.0161398
674.864	0.0159946
674.942	0.0159984
675.021	0.0160503
675.099	0.0159467
675.177	0.0161362
675.255	0.0160108
675.333	0.0159967
675.411	0.0159548
675.489	0.0160139
675.567	0.0160437
675.646	0.0158995
675.724	0.0158985
675.802	0.0160957
675.880	0.0160032
675.958	0.0159793
676.036	0.0159715
676.114	0.0160444
676.192	0.0160190
676.271	0.0160847
676.349	0.0160119
676.427	0.0161723
676.505	0.0159981
676.583	0.0160114
676.661	0.0159759
676.739	0.0159308
676.817	0.0158852
676.896	0.0160403
676.974	0.0157751
677.052	0.0158143
677.130	0.0159689
677.208	0.0157419
677.286	0.0159331
677.364	0.0158888
677.442	0.0160376
677.521	0.0160797
677.599	0.0162108
677.677	0.0163063
677.755	0.0162967
677.833	0.0161456
677.911	0.0162269
677.989	0.0161918
678.067	0.0161652
678.146	0.0159979
678.224	0.0158106
678.302	0.0157423
678.380	0.0158105
678.458	0.0157703
678.536	0.0156372
678.614	0.0156670
678.692	0.0157770
678.771	0.0157832
678.849	0.0159334
678.927	0.0160501
679.005	0.0162313
679.083	0.0163345
679.161	0.0164558
679.239	0.0165892
679.317	0.0166212
679.396	0.0164965
679.474	0.0164251
679.552	0.0164133
679.630	0.0161761
679.708	0.0158855
679.786	0.0157825
679.864	0.0156550
679.942	0.0154116
680.021	0.0153680
680.099	0.0154140
680.177	0.0156241
680.255	0.0155978
680.333	0.0157935
680.411	0.0160218
680.489	0.0162003
680.567	0.0164267
680.646	0.0168145
680.724	0.0166002
680.802	0.0166333
680.880	0.0165917
680.958	0.0167015
681.036	0.0164474
681.114	0.0161145
681.192	0.0160494
681.271	0.0157597
681.349	0.0155378
681.427	0.0155559
681.505	0.0154142
681.583	0.0155077
681.661	0.0157276
681.739	0.0157690
681.817	0.0157628
681.896	0.0158926
681.974	0.0159325
682.052	0.0159830
682.130	0.0162952
682.208	0.0163356
682.286	0.0165003
682.364	0.0164079
682.442	0.0164175
682.521	0.0165670
682.599	0.0164079
682.677	0.0163476
682.755	0.0162315
682.833	0.0161584
682.911	0.0160724
682.989	0.0160356
683.067	0.0157372
683.146	0.0156238
683.224	0.0158373
683.302	0.0157687
683.380	0.0158401
683.458	0.0159017
683.536	0.0160735
683.614	0.0160573
683.692	0.0162855
683.771	0.0164657
683.849	0.0165016
683.927	0.0166011
684.005	0.0165331
684.083	0.0163345
684.161	0.0162653
684.239	0.0163179
684.317	0.0161086
684.396	0.0159994
684.474	0.0159473
684.552	0.0159171
684.630	0.0159020
684.708	0.0159897
684.786	0.0160277
684.864	0.0160820
684.942	0.0159695
685.021	0.0159985
685.099	0.0161571
685.177	0.0161011
685.255	0.0160810
685.333	0.0161059
685.411	0.0160600
685.489	0.0158988
685.567	0.0158894
685.646	0.0160113
685.724	0.0158600
685.802	0.0160890
685.880	0.0161236
685.958	0.0160822
686.036	0.0163271
686.114	0.0163148
686.192	0.0165007
686.271	0.0163408
686.349	0.0161522
686.427	0.0161736
686.505	0.0161835
686.583	0.0161022
686.661	0.0159042
686.739	0.0158278
686.817	0.0157880
686.896	0.0156224
686.974	0.0158427
687.052	0.0156992
687.130	0.0158733
687.208	0.0159785
687.286	0.0160446
687.364	0.0161573
687.442	0.0163306
687.521	0.0163276
687.599	0.0165625
687.677	0.0164900
687.755	0.0165664
687.833	0.0163675
687.911	0.0163015
687.989	0.0162347
688.067	0.0161362
688.146	0.0159373
688.224	0.0159409
688.302	0.0157526
688.380	0.0158548
688.458	0.0157971
688.536	0.0157312
688.614	0.0159168
688.692	0.0159105
688.771	0.0161478
688.849	0.0161926
688.927	0.0163630
689.005	0.0162450
689.083	0.0162636
689.161	0.0162886
689.239	0.0163995
689.317	0.0162376
689.396	0.0160818
689.474	0.0160915
689.552	0.0159856
689.630	0.0159422
689.708	0.0159946
689.786	0.0160188
689.864	0.0159394
689.942	0.0160223
690.021	0.0161600
690.099	0.0161304
690.177	0.0160357
690.255	0.0162354
690.333	0.0162693
690.411	0.0161927
690.489	0.0163316
690.567	0.0161051
690.646	0.0162032
690.724	0.0160616
690.802	0.0160091
690.880	0.0160638
690.958	0.0160822
691.036	0.0160101
691.114	0.0160506
691.192	0.0160238
691.271	0.0162089
691.349	0.0160201
691.427	0.0160892
691.505	0.0162370
691.583	0.0162201
691.661	0.0162899
691.739	0.0162955
691.817	0.0159463
691.896	0.0160440
691.974	0.0160589
692.052	0.0159268
692.130	0.0160237
692.208	0.0159650
692.286	0.0158705
692.364	0.0160016
692.442	0.0159377
692.521	0.0159870
692.599	0.0160967
692.677	0.0162136
692.755	0.0162870
692.833	0.0162517
692.911	0.0165337
692.989	0.0164446
693.067	0.0164371
693.146	0.0164925
693.224	0.0165272
693.302	0.0162951
693.380	0.0163441
693.458	0.0161736
693.536	0.0160233
693.614	0.0158286
693.692	0.0159447
693.771	0.0159319
693.849	0.0159870
693.927	0.0158382
694.005	0.0158954
694.083	0.0159304
694.161	0.0159160
694.239	0.0160760
694.317	0.0161527
694.396	0.0161967
694.474	0.0163088
694.552	0.0163185
694.630	0.0162510
694.708	0.0161582
694.786	0.0161443
694.864	0.0159058
694.942	0.0157683
695.021	0.0157306
695.099	0.0157255
695.177	0.0156628
695.255	0.0155904
695.333	0.0156590
695.411	0.0155921
695.489	0.0156326
695.567	0.0157712
695.646	0.0159600
695.724	0.0159792
695.802	0.0161488
695.880	0.0161447
695.958	0.0163054
696.036	0.0163213
696.114	0.0163052
696.192	0.0162040
696.271	0.0162366
696.349	0.0160833
696.427	0.0161591
696.505	0.0161568
696.583	0.0158952
696.661	0.0159784
696.739	0.0159349
696.817	0.0160550
696.896	0.0160823
696.974	0.0161993
697.052	0.0161944
697.130	0.0160902
697.208	0.0161810
697.286	0.0162489
697.364	0.0160776
697.442	0.0162963
697.521	0.0162828
697.599	0.0161665
697.677	0.0161864
697.755	0.0161290
697.833	0.0160165
697.911	0.0160966
697.989	0.0162219
698.067	0.0161504
698.146	0.0160872
698.224	0.0161555
698.302	0.0161646
698.380	0.0163187
698.458	0.0161039
698.536	0.0162186
698.614	0.0162782
698.692	0.0162062
698.771	0.0163256
698.849	0.0160744
698.927	0.0161609
699.005	0.0160227
699.083	0.0160011
699.161	0.0160012
699.239	0.0157922
699.317	0.0157361
699.396	0.0155649
699.474	0.0154240
699.552	0.0154314
699.630	0.0152710
699.708	0.0153136
699.786	0.0152508
699.864	0.0152258
699.942	0.0151801
700.021	0.0152451
700.099	0.0151894
700.177	0.0153850
700.255	0.0154447
700.333	0.0156939
700.411	0.0158386
700.489	0.0159560
700.567	0.0159299
700.646	0.0161214
700.724	0.0163091
700.802	0.0164687
700.880	0.0164622
700.958	0.0166280
701.036	0.0167004
701.114	0.0166013
701.192	0.0167007
701.271	0.0167712
701.349	0.0170540
701.427	0.0168139
701.505	0.0166421
701.583	0.0166907
701.661	0.0164638
701.739	0.0163306
701.817	0.0163860
701.896	0.0162400
701.974	0.0162757
702.052	0.0160891
702.130	0.0160773
702.208	0.0159650
702.286	0.0160930
702.364	0.0161372
702.442	0.0161348
702.521	0.0161705
702.599	0.0159821
702.677	0.0162916
702.755	0.0161675
702.833	0.0160957
702.911	0.0159433
702.989	0.0159743
703.067	0.0159186
703.146	0.0157999
703.224	0.0156726
703.302	0.0156242
703.380	0.0156049
703.458	0.0155722
703.536	0.0155905
703.614	0.0155708
703.692	0.0156196
703.771	0.0156097
703.849	0.0157810
703.927	0.0158773
704.005	0.0159864
704.083	0.0162521
704.161	0.0163158
704.239	0.0164222
704.317	0.0165626
704.396	0.0167062
704.474	0.0167109
704.552	0.0166735
704.630	0.0167477
704.708	0.0167887
704.786	0.0163225
704.864	0.0164175
704.942	0.0159872
705.021	0.0158810
705.099	0.0159096
705.177	0.0156351
705.255	0.0154313
705.333	0.0152769
705.411	0.0151429
705.489	0.0150176
705.567	0.0149258
705.646	0.0149133
705.724	0.0149290
705.802	0.0149400
705.880	0.0151234
705.958	0.0152864
706.036	0.0154317
706.114	0.0156330
706.192	0.0159458
706.271	0.0161951
706.349	0.0163824
706.427	0.0165761
706.505	0.0169977
706.583	0.0170468
706.661	0.0172147
706.739	0.0172127
706.817	0.0170903
706.896	0.0171191
706.974	0.0169661
707.052	0.0168819
707.130	0.0166491
707.208	0.0166109
707.286	0.0164722
707.364	0.0161784
707.442	0.0161032
707.521	0.0162291
707.599	0.0163476
707.677	0.0162719
707.755	0.0164497
707.833	0.0164811
707.911	0.0166405
707.989	0.0168794
708.067	0.0170596
708.146	0.0171532
708.224	0.0171469
708.302	0.0172521
708.380	0.0174524
708.458	0.0173546
708.536	0.0170006
708.614	0.0170489
708.692	0.0170081
708.771	0.0168797
708.849	0.0167012
708.927	0.0165160
709.005	0.0162864
709.083	0.0161430
709.161	0.0157194
709.239	0.0154291
709.317	0.0150719
709.396	0.0148332
709.474	0.0143986
709.552	0.0140723
709.630	0.0138963
709.708	0.0135601
709.786	0.0133394
709.864	0.0132681
709.942	0.0133533
710.021	0.0133771
710.099	0.0135173
710.177	0.0137106
710.255	0.0138661
710.333	0.0140606
710.411	0.0144411
710.489	0.0148144
710.567	0.0154195
710.646	0.0156525
710.724	0.0162586
710.802	0.0168301
710.880	0.0171440
710.958	0.0175360
711.036	0.0179393
711.114	0.0182534
711.192	0.0183277
711.271	0.0184472
711.349	0.0182647
711.427	0.0180855
711.505	0.0178795
711.583	0.0175263
711.661	0.0173419
711.739	0.0169365
711.817	0.0164219
711.896	0.0160232
711.974	0.0156192
712.052	0.0151630
712.130	0.0147741
712.208	0.0143902
712.286	0.0141416
712.364	0.0138972
712.442	0.0138251
712.521	0.0137078
712.599	0.0138116
712.677	0.0139956
712.755	0.0143589
712.833	0.0147659
712.911	0.0153305
712.989	0.0160223
713.067	0.0166191
713.146	0.0172620
713.224	0.0178626
713.302	0.0183716
713.380	0.0190140
713.458	0.0191944
713.536	0.0195040
713.614	0.0197080
713.692	0.0197227
713.771	0.0197841
713.849	0.0198001
713.927	0.0196546
714.005	0.0195334
714.083	0.0191904
714.161	0.0189845
714.239	0.0185564
714.317	0.0182661
714.396	0.0178352
714.474	0.0174774
714.552	0.0172494
714.630	0.0166608
714.708	0.0161004
714.786	0.0156242
714.864	0.0148970
714.942	0.0146062
715.021	0.0139700
715.099	0.0135192
715.177	0.0129630
715.255	0.0125613
715.333	0.0121597
715.411	0.0119681
715.489	0.0117775
715.567	0.0115067
715.646	0.0114148
715.724	0.0113172
715.802	0.0114514
715.880	0.0114221
715.958	0.0115542
716.036	0.0117142
716.114	0.0119572
716.192	0.0123708
716.271	0.0127742
716.349	0.0133022
716.427	0.0137733
716.505	0.0145441
716.583	0.0152444
716.661	0.0160749
716.739	0.0166690
716.817	0.0175791
716.896	0.0180553
716.974	0.0185554
717.052	0.0192004
717.130	0.0195398
717.208	0.0197862
717.286	0.0197123
717.364	0.0198694
717.442	0.0197272
717.521	0.0196474
717.599	0.0195271
717.677	0.0191364
717.755	0.0188670
717.833	0.0183428
717.911	0.0178388
717.989	0.0172519
718.067	0.0169255
718.146	0.0164146
718.224	0.0158855
718.302	0.0155559
718.380	0.0151505
718.458	0.0148331
718.536	0.0146492
718.614	0.0148441
718.692	0.0145844
718.771	0.0148885
718.849	0.0153196
718.927	0.0157007
719.005	0.0161270
719.083	0.0168440
719.161	0.0173616
719.239	0.0181022
719.317	0.0182791
719.396	0.0187406
719.474	0.0190301
719.552	0.0191415
719.630	0.0192593
719.708	0.0188943
719.786	0.0187801
719.864	0.0186559
719.942	0.0182444
720.021	0.0177557
720.099	0.0175316
720.177	0.0171935
720.255	0.0167010
720.333	0.0164310
720.411	0.0160417
720.489	0.0156017
720.567	0.0154180
720.646	0.0151512
720.724	0.0148306
720.802	0.0145030
720.880	0.0141111
720.958	0.0141014
721.036	0.0139750
721.114	0.0138471
721.192	0.0135878
721.271	0.0135719
721.349	0.0134888
721.427	0.0132535
721.505	0.0133337
721.583	0.0130581
721.661	0.0131371
721.739	0.0129404
721.817	0.0128778
721.896	0.0127933
721.974	0.0127044
722.052	0.0128325
722.130	0.0127744
722.208	0.0127980
722.286	0.0131704
722.364	0.0133627
722.442	0.0138197
722.521	0.0142558
722.599	0.0148502
722.677	0.0154723
722.755	0.0161060
722.833	0.0165218
722.911	0.0170401
722.989	0.0176296
723.067	0.0180212
723.146	0.0181892
723.224	0.0184666
723.302	0.0184328
723.380	0.0183487
723.458	0.0181361
723.536	0.0178417
723.614	0.0173838
723.692	0.0168089
723.771	0.0160569
723.849	0.0155402
723.927	0.0150460
724.005	0.0147569
724.083	0.0144612
724.161	0.0141916
724.239	0.0143313
724.317	0.0145602
724.396	0.0147263
724.474	0.0152303
724.552	0.0157943
724.630	0.0163367
724.708	0.0170392
724.786	0.0179769
724.864	0.0186611
724.942	0.0194180
725.021	0.0201772
725.099	0.0208961
725.177	0.0214797
725.255	0.0219786
725.333	0.0223827
725.411	0.0226431
725.489	0.0228948
725.567	0.0229977
725.646	0.0227304
725.724	0.0225954
725.802	0.0222707
725.880	0.0220471
725.958	0.0213158
726.036	0.0205753
726.114	0.0197673
726.192	0.0189268
726.271	0.0181615
726.349	0.0171348
726.427	0.0163595
726.505	0.0151281
726.583	0.0144089
726.661	0.0136419
726.739	0.0127800
726.817	0.0120838
726.896	0.0112890
726.974	0.0107735
727.052	0.0102738
727.130	0.00988838
727.208	0.00957138
727.286	0.00949921
727.364	0.00934700
727.442	0.00926239
727.521	0.00919250
727.599	0.00923096
727.677	0.00939323
727.755	0.00968552
727.833	0.0100175
727.911	0.0105061
727.989	0.0108787
728.067	0.0115672
728.146	0.0121107
728.224	0.0128516
728.302	0.0135116
728.380	0.0141390
728.458	0.0147085
728.536	0.0153627
728.614	0.0158186
728.692	0.0160296
728.771	0.0161485
728.849	0.0164378
728.927	0.0162833
729.005	0.0159213
729.083	0.0157373
729.161	0.0155760
729.239	0.0152089
729.317	0.0148341
729.396	0.0146645
729.474	0.0145467
729.552	0.0145889
729.630	0.0149127
729.708	0.0152821
729.786	0.0155632
729.864	0.0163210
729.942	0.0170988
730.021	0.0179585
730.099	0.0190705
730.177	0.0200555
730.255	0.0211861
730.333	0.0221475
730.411	0.0231134
730.489	0.0237936
730.567	0.0245653
730.646	0.0250230
730.724	0.0252489
730.802	0.0255875
730.880	0.0256230
730.958	0.0254382
731.036	0.0251498
731.114	0.0246728
731.192	0.0243261
731.271	0.0236573
731.349	0.0229422
731.427	0.0222162
731.505	0.0212045
731.583	0.0204321
731.661	0.0194869
731.739	0.0185720
731.817	0.0172914
731.896	0.0164733
731.974	0.0153793
732.052	0.0143329
732.130	0.0132863
732.208	0.0123692
732.286	0.0117214
732.364	0.0109783
732.442	0.0104036
732.521	0.00981102
732.599	0.00939102
732.677	0.00897812
732.755	0.00863525
732.833	0.00846413
732.911	0.00826935
732.989	0.00818405
733.067	0.00819618
733.146	0.00823067
733.224	0.00835373
733.302	0.00860313
733.380	0.00910675
733.458	0.00969002
733.536	0.0101957
733.614	0.0107790
733.692	0.0114140
733.771	0.0121552
733.849	0.0128236
733.927	0.0133837
734.005	0.0139793
734.083	0.0143318
734.161	0.0146658
734.239	0.0149925
734.317	0.0150432
734.396	0.0149406
734.474	0.0149044
734.552	0.0149566
734.630	0.0147646
734.708	0.0147105
734.786	0.0146093
734.864	0.0149821
734.942	0.0151011
735.021	0.0154671
735.099	0.0159702
735.177	0.0168594
735.255	0.0174940
735.333	0.0185198
735.411	0.0191848
735.489	0.0200845
735.567	0.0209952
735.646	0.0219256
735.724	0.0226137
735.802	0.0231756
735.880	0.0236599
735.958	0.0239030
736.036	0.0240647
736.114	0.0241589
736.192	0.0240357
736.271	0.0239467
736.349	0.0235638
736.427	0.0232278
736.505	0.0227006
736.583	0.0221600
736.661	0.0215012
736.739	0.0209372
736.817	0.0203132
736.896	0.0195974
736.974	0.0189705
737.052	0.0183481
737.130	0.0174862
737.208	0.0168279
737.286	0.0161732
737.364	0.0154652
737.442	0.0148388
737.521	0.0144193
737.599	0.0138304
737.677	0.0133992
737.755	0.0130231
737.833	0.0127435
737.911	0.0124159
737.989	0.0122072
738.067	0.0119275
738.146	0.0116550
738.224	0.0113815
738.302	0.0111726
738.380	0.0113313
738.458	0.0109937
738.536	0.0110337
738.614	0.0110993
738.692	0.0110377
738.771	0.0112350
738.849	0.0115594
738.927	0.0117261
739.005	0.0120250
739.083	0.0123306
739.161	0.0126991
739.239	0.0130387
739.317	0.0133111
739.396	0.0135513
739.474	0.0137005
739.552	0.0138799
739.630	0.0139262
739.708	0.0140932
739.786	0.0139204
739.864	0.0140076
739.942	0.0141984
740.021	0.0142139
740.099	0.0143658
740.177	0.0147140
740.255	0.0151858
740.333	0.0157303
740.411	0.0163421
740.489	0.0168156
740.567	0.0174203
740.646	0.0181538
740.724	0.0188186
740.802	0.0194574
740.880	0.0200067
740.958	0.0203999
741.036	0.0208251
741.114	0.0211416
741.192	0.0213425
741.271	0.0214297
741.349	0.0213333
741.427	0.0211305
741.505	0.0210478
741.583	0.0205858
741.661	0.0202889
741.739	0.0198503
741.817	0.0193220
741.896	0.0189493
741.974	0.0185207
742.052	0.0179585
742.130	0.0178708
742.208	0.0175069
742.286	0.0171893
742.364	0.0168616
742.442	0.0166003
742.521	0.0165022
742.599	0.0163737
742.677	0.0161561
742.755	0.0157217
742.833	0.0156735
742.911	0.0154299
742.989	0.0152790
743.067	0.0152059
743.146	0.0148462
743.224	0.0147762
743.302	0.0144040
743.380	0.0142311
743.458	0.0140609
743.536	0.0137473
743.614	0.0136463
743.692	0.0134514
743.771	0.0133324
743.849	0.0133527
743.927	0.0133137
744.005	0.0133406
744.083	0.0132692
744.161	0.0132806
744.239	0.0132574
744.317	0.0133612
744.396	0.0133680
744.474	0.0132684
744.552	0.0133818
744.630	0.0132980
744.708	0.0134609
744.786	0.0134681
744.864	0.0135114
744.942	0.0136973
745.021	0.0136809
745.099	0.0139160
745.177	0.0142072
745.255	0.0144895
745.333	0.0148012
745.411	0.0153043
745.489	0.0158897
745.567	0.0163190
745.646	0.0168477
745.724	0.0175161
745.802	0.0180159
745.880	0.0186016
745.958	0.0192231
746.036	0.0195479
746.114	0.0199507
746.192	0.0203557
746.271	0.0204459
746.349	0.0204233
746.427	0.0205389
746.505	0.0206188
746.583	0.0202636
746.661	0.0199963
746.739	0.0196664
746.817	0.0193986
746.896	0.0190134
746.974	0.0182321
747.052	0.0178826
747.130	0.0173664
747.208	0.0167646
747.286	0.0163580
747.364	0.0160403
747.442	0.0157038
747.521	0.0153603
747.599	0.0149699
747.677	0.0147739
747.755	0.0146100
747.833	0.0145818
747.911	0.0145808
747.989	0.0146403
748.067	0.0147218
748.146	0.0147755
748.224	0.0148052
748.302	0.0149213
748.380	0.0151007
748.458	0.0152440
748.536	0.0152540
748.614	0.0153700
748.692	0.0156161
748.771	0.0154956
748.849	0.0154996
748.927	0.0155680
749.005	0.0156764
749.083	0.0155320
749.161	0.0154884
749.239	0.0153707
749.317	0.0152094
749.396	0.0151803
749.474	0.0151541
749.552	0.0149113
749.630	0.0147866
749.708	0.0147701
749.786	0.0146070
749.864	0.0142422
749.942	0.0140180
750.021	0.0140520
750.099	0.0141177
750.177	0.0137954
750.255	0.0139075
750.333	0.0139359
750.411	0.0140108
750.489	0.0141151
750.567	0.0145921
750.646	0.0147260
750.724	0.0149355
750.802	0.0155472
750.880	0.0158270
750.958	0.0163104
751.036	0.0168232
751.114	0.0172204
751.192	0.0175562
751.271	0.0180922
751.349	0.0184869
751.427	0.0186871
751.505	0.0188947
751.583	0.0190251
751.661	0.0190176
751.739	0.0192424
751.817	0.0190990
751.896	0.0190712
751.974	0.0187749
752.052	0.0186076
752.130	0.0185109
752.208	0.0180791
752.286	0.0178091
752.364	0.0176996
752.442	0.0173938
752.521	0.0170810
752.599	0.0166599
752.677	0.0163717
752.755	0.0160378
752.833	0.0157471
752.911	0.0157623
752.989	0.0152614
753.067	0.0149867
753.146	0.0149345
753.224	0.0147804
753.302	0.0145650
753.380	0.0145959
753.458	0.0147350
753.536	0.0148645
753.614	0.0149032
753.692	0.0150781
753.771	0.0153191
753.849	0.0154366
753.927	0.0155521
754.005	0.0158363
754.083	0.0161372
754.161	0.0163455
754.239	0.0165788
754.317	0.0167924
754.396	0.0169259
754.474	0.0170271
754.552	0.0173254
754.630	0.0173482
754.708	0.0172698
754.786	0.0172330
754.864	0.0171568
754.942	0.0169604
755.021	0.0166395
755.099	0.0161884
755.177	0.0159355
755.255	0.0155203
755.333	0.0150677
755.411	0.0145979
755.489	0.0141276
755.567	0.0139033
755.646	0.0135561
755.724	0.0132649
755.802	0.0130961
755.880	0.0130106
755.958	0.0132641
756.036	0.0132935
756.114	0.0134487
756.192	0.0137013
756.271	0.0140024
756.349	0.0140818
756.427	0.0144566
756.505	0.0147768
756.583	0.0151551
756.661	0.0155547
756.739	0.0156122
756.817	0.0160781
756.896	0.0164355
756.974	0.0165916
757.052	0.0168311
757.130	0.0169613
757.208	0.0174573
757.286	0.0175754
757.364	0.0176561
757.442	0.0180224
757.521	0.0180117
757.599	0.0181339
757.677	0.0184543
757.755	0.0183237
757.833	0.0181976
757.911	0.0182811
757.989	0.0182479
758.067	0.0182294
758.146	0.0180764
758.224	0.0177870
758.302	0.0175362
758.380	0.0173063
758.458	0.0170085
758.536	0.0166878
758.614	0.0165320
758.692	0.0161877
758.771	0.0158963
758.849	0.0154823
758.927	0.0154761
759.005	0.0152438
759.083	0.0149787
759.161	0.0148425
759.239	0.0149984
759.317	0.0150220
759.396	0.0151405
759.474	0.0152648
759.552	0.0154943
759.630	0.0157853
759.708	0.0162006
759.786	0.0163501
759.864	0.0166066
759.942	0.0169250
760.021	0.0168927
760.099	0.0170763
760.177	0.0171507
760.255	0.0171091
760.333	0.0172051
760.411	0.0169855
760.489	0.0167969
760.567	0.0165427
760.646	0.0163514
760.724	0.0160076
760.802	0.0158252
760.880	0.0156667
760.958	0.0152592
761.036	0.0152997
761.114	0.0150541
761.192	0.0148756
761.271	0.0148690
761.349	0.0148621
761.427	0.0147802
761.505	0.0147344
761.583	0.0146474
761.661	0.0146902
761.739	0.0148119
761.817	0.0148956
761.896	0.0150120
761.974	0.0150477
762.052	0.0150945
762.130	0.0151906
762.208	0.0153696
762.286	0.0154883
762.364	0.0155501
762.442	0.0157034
762.521	0.0160979
762.599	0.0161981
762.677	0.0162383
762.755	0.0164350
762.833	0.0166602
762.911	0.0166575
762.989	0.0169444
763.067	0.0169859
763.146	0.0170690
763.224	0.0171610
763.302	0.0173114
763.380	0.0173800
763.458	0.0172968
763.536	0.0172272
763.614	0.0171368
763.692	0.0170483
763.771	0.0167863
763.849	0.0167305
763.927	0.0164912
764.005	0.0162299
764.083	0.0160414
764.161	0.0156280
764.239	0.0155574
764.317	0.0153175
764.396	0.0150778
764.474	0.0149062
764.552	0.0149189
764.630	0.0147611
764.708	0.0147302
764.786	0.0149478
764.864	0.0150678
764.942	0.0153661
765.021	0.0152979
765.099	0.0154869
765.177	0.0160555
765.255	0.0160594
765.333	0.0161483
765.411	0.0164587
765.489	0.0166626
765.567	0.0167742
765.646	0.0168628
765.724	0.0169736
765.802	0.0169740
765.880	0.0170755
765.958	0.0169609
766.036	0.0167720
766.114	0.0167981
766.192	0.0167109
766.271	0.0166381
766.349	0.0166789
766.427	0.0165479
766.505	0.0164171
766.583	0.0162997
766.661	0.0164855
766.739	0.0165219
766.817	0.0163445
766.896	0.0163218
766.974	0.0162247
767.052	0.0162023
767.130	0.0162251
767.208	0.0162323
767.286	0.0161783
767.364	0.0159661
767.442	0.0160202
767.521	0.0159641
767.599	0.0161153
767.677	0.0159794
767.755	0.0158376
767.833	0.0158390
767.911	0.0157507
767.989	0.0156310
768.067	0.0155665
768.146	0.0158313
768.224	0.0156438
768.302	0.0157169
768.380	0.0157458
768.458	0.0159503
768.536	0.0158810
768.614	0.0159103
768.692	0.0161053
768.771	0.0159537
768.849	0.0160731
768.927	0.0161103
769.005	0.0161190
769.083	0.0162216
769.161	0.0160893
769.239	0.0159576
769.317	0.0158836
769.396	0.0157178
769.474	0.0158051
769.552	0.0157603
769.630	0.0156092
769.708	0.0156075
769.786	0.0155146
769.864	0.0156069
769.942	0.0156990
770.021	0.0155019
770.099	0.0159064
770.177	0.0159229
770.255	0.0159904
770.333	0.0160492
770.411	0.0161667
770.489	0.0162760
770.567	0.0163177
770.646	0.0164027
770.724	0.0164146
770.802	0.0165506
770.880	0.0165189
770.958	0.0163787
771.036	0.0163432
771.114	0.0162801
771.192	0.0162377
771.271	0.0162661
771.349	0.0162223
771.427	0.0161815
771.505	0.0160032
771.583	0.0160095
771.661	0.0159624
771.739	0.0160652
771.817	0.0159238
771.896	0.0158834
771.974	0.0159250
772.052	0.0159960
772.130	0.0160033
772.208	0.0161200
772.286	0.0162682
772.364	0.0162158
772.442	0.0161652
772.521	0.0161674
772.599	0.0161731
772.677	0.0160918
772.755	0.0162228
772.833	0.0161192
772.911	0.0159304
772.989	0.0159573
773.067	0.0160886
773.146	0.0158481
773.224	0.0157280
773.302	0.0159102
773.380	0.0158321
773.458	0.0158170
773.536	0.0158832
773.614	0.0157767
773.692	0.0158193
773.771	0.0159193
773.849	0.0158757
773.927	0.0160105
774.005	0.0162107
774.083	0.0160449
774.161	0.0161909
774.239	0.0161211
774.317	0.0162120
774.396	0.0164413
774.474	0.0164108
774.552	0.0162688
774.630	0.0163686
774.708	0.0162200
774.786	0.0163589
774.864	0.0162653
774.942	0.0161494
775.021	0.0162395
775.099	0.0162099
775.177	0.0161931
775.255	0.0162402
775.333	0.0164287
775.411	0.0163305
775.489	0.0163118
775.567	0.0164798
775.646	0.0164039
775.724	0.0165593
775.802	0.0164531
775.880	0.0165264
775.958	0.0165137
776.036	0.0162781
776.114	0.0165206
776.192	0.0164883
776.271	0.0163039
776.349	0.0161938
776.427	0.0161359
776.505	0.0160656
776.583	0.0158150
776.661	0.0157629
776.739	0.0156696
776.817	0.0154403
776.896	0.0154080
776.974	0.0153232
777.052	0.0152596
777.130	0.0151766
777.208	0.0151487
777.286	0.0152747
777.364	0.0153382
777.442	0.0155333
777.521	0.0154786
777.599	0.0155786
777.677	0.0157222
777.755	0.0159118
777.833	0.0160966
777.911	0.0160290
777.989	0.0162560
778.067	0.0163854
778.146	0.0163473
778.224	0.0165801
778.302	0.0166778
778.380	0.0165563
778.458	0.0165170
778.536	0.0166525
778.614	0.0164859
778.692	0.0165561
778.771	0.0165462
778.849	0.0164671
778.927	0.0163241
779.005	0.0162048
779.083	0.0162271
779.161	0.0160955
779.239	0.0160094
779.317	0.0158736
779.396	0.0158066
779.474	0.0157861
779.552	0.0158360
779.630	0.0156680
779.708	0.0156451
779.786	0.0155153
779.864	0.0154976
779.942	0.0154633
780.021	0.0153768
780.099	0.0155011
780.177	0.0153976
780.255	0.0154042
780.333	0.0154282
780.411	0.0155032
780.489	0.0156332
780.567	0.0157658
780.646	0.0158199
780.724	0.0158991
780.802	0.0159904
780.880	0.0162604
780.958	0.0165602
781.036	0.0164927
781.114	0.0166323
781.192	0.0166953
781.271	0.0168692
781.349	0.0169167
781.427	0.0169580
781.505	0.0170972
781.583	0.0170074
781.661	0.0168385
781.739	0.0169357
781.817	0.0169409
781.896	0.0167897
781.974	0.0166072
782.052	0.0164902
782.130	0.0164200
782.208	0.0164364
782.286	0.0162184
782.364	0.0161272
782.442	0.0158891
782.521	0.0159367
782.599	0.0158844
782.677	0.0158976
782.755	0.0157661
782.833	0.0157527
782.911	0.0159019
782.989	0.0158626
783.067	0.0157542
783.146	0.0158989
783.224	0.0159297
783.302	0.0159307
783.380	0.0158473
783.458	0.0159748
783.536	0.0159914
783.614	0.0159050
783.692	0.0161069
783.771	0.0160469
783.849	0.0159772
783.927	0.0160310
784.005	0.0160001
784.083	0.0161310
784.161	0.0160911
784.239	0.0161584
784.317	0.0161376
784.396	0.0161679
784.474	0.0161372
784.552	0.0162482
784.630	0.0161792
784.708	0.0161992
784.786	0.0161401
784.864	0.0160586
784.942	0.0161526
785.021	0.0162408
785.099	0.0160221
785.177	0.0159972
785.255	0.0158470
785.333	0.0158945
785.411	0.0157487
785.489	0.0157421
785.567	0.0157696
785.646	0.0156455
785.724	0.0157307
785.802	0.0157021
785.880	0.0157117
785.958	0.0156882
786.036	0.0157181
786.114	0.0157302
786.192	0.0158410
786.271	0.0160059
786.349	0.0160469
786.427	0.0158725
786.505	0.0161275
786.583	0.0161966
786.661	0.0163213
786.739	0.0162093
786.817	0.0164791
786.896	0.0165215
786.974	0.0164716
787.052	0.0164454
787.130	0.0164165
787.208	0.0164906
787.286	0.0164207
787.364	0.0163158
787.442	0.0162196
787.521	0.0162554
787.599	0.0163026
787.677	0.0161121
787.755	0.0160583
787.833	0.0161070
787.911	0.0160133
787.989	0.0159345
788.067	0.0160636
788.146	0.0159066
788.224	0.0158617
788.302	0.0159663
788.380	0.0160419
788.458	0.0161221
788.536	0.0160610
788.614	0.0161127
788.692	0.0160846
788.771	0.0160590
788.849	0.0161145
788.927	0.0162645
789.005	0.0160498
789.083	0.0160153
789.161	0.0160361
789.239	0.0161608
789.317	0.0161108
789.396	0.0160942
789.474	0.0159250
789.552	0.0159917
789.630	0.0160509
789.708	0.0160124
789.786	0.0160638
789.864	0.0161024
789.942	0.0162293
790.021	0.0162970
790.099	0.0162914
790.177	0.0164014
790.255	0.0162622
790.333	0.0163290
790.411	0.0165100
790.489	0.0164066
790.567	0.0163634
790.646	0.0164784
790.724	0.0164299
790.802	0.0163776
790.880	0.0164107
790.958	0.0162696
791.036	0.0161759
791.114	0.0161868
791.192	0.0161773
791.271	0.0160235
791.349	0.0159153
791.427	0.0159060
791.505	0.0158178
791.583	0.0159656
791.661	0.0159270
791.739	0.0157149
791.817	0.0158706
791.896	0.0158688
791.974	0.0158164
792.052	0.0159591
792.130	0.0159365
792.208	0.0158735
792.286	0.0159899
792.364	0.0160180
792.442	0.0158325
792.521	0.0157999
792.599	0.0157994
792.677	0.0160278
792.755	0.0160291
792.833	0.0159611
792.911	0.0160720
792.989	0.0160336
793.067	0.0161346
793.146	0.0161165
793.224	0.0159444
793.302	0.0161028
793.380	0.0160659
793.458	0.0159160
793.536	0.0161024
793.614	0.0161500
793.692	0.0158355
793.771	0.0159512
793.849	0.0158806
793.927	0.0159422
794.005	0.0158852
794.083	0.0159891
794.161	0.0160531
794.239	0.0161171
794.317	0.0161798
794.396	0.0162756
794.474	0.0162885
794.552	0.0161308
794.630	0.0162046
794.708	0.0163109
794.786	0.0162223
794.864	0.0162193
794.942	0.0162003
795.021	0.0159795
795.099	0.0160924
795.177	0.0161667
795.255	0.0160973
795.333	0.0159550
795.411	0.0160214
795.489	0.0161272
795.567	0.0160252
795.646	0.0160902
795.724	0.0161156
795.802	0.0161202
795.880	0.0161535
795.958	0.0161132
796.036	0.0161699
796.114	0.0162428
796.192	0.0161342
796.271	0.0163497
796.349	0.0160155
796.427	0.0160219
796.505	0.0160471
796.583	0.0158582
796.661	0.0158315
796.739	0.0159757
796.817	0.0159827
796.896	0.0158139
796.974	0.0157383
797.052	0.0159023
797.130	0.0158260
797.208	0.0159557
797.286	0.0160117
797.364	0.0158710
797.442	0.0159000
797.521	0.0160549
797.599	0.0162300
797.677	0.0161988
797.755	0.0162481
797.833	0.0164014
797.911	0.0163506
797.989	0.0165069
798.067	0.0167119
798.146	0.0166122
798.224	0.0164895
798.302	0.0167310
798.380	0.0166115
798.458	0.0167263
798.536	0.0165494
798.614	0.0166754
798.692	0.0165455
798.771	0.0165092
798.849	0.0163253
798.927	0.0164351
799.005	0.0164877
799.083	0.0162947
799.161	0.0163831
799.239	0.0162436
799.317	0.0160763
799.396	0.0159812
799.474	0.0159873
799.552	0.0159009
799.630	0.0157667
799.708	0.0155643
799.786	0.0155211
799.864	0.0154155
799.942	0.0153944
800.021	0.0152924
800.099	0.0152517
800.177	0.0151513
800.255	0.0153043
800.333	0.0153153
800.411	0.0153141
800.489	0.0152875
800.567	0.0153135
800.646	0.0154662
800.724	0.0154830
800.802	0.0156087
800.880	0.0156039
800.958	0.0158259
801.036	0.0158459
801.114	0.0161172
801.192	0.0161594
801.271	0.0163830
801.349	0.0163802
801.427	0.0164355
801.505	0.0165538
801.583	0.0164874
801.661	0.0164645
801.739	0.0166142
801.817	0.0166327
801.896	0.0165376
801.974	0.0165350
802.052	0.0164978
802.130	0.0163059
802.208	0.0162770
802.286	0.0162927
802.364	0.0161183
802.442	0.0162444
802.521	0.0161359
802.599	0.0160869
802.677	0.0160789
802.755	0.0159539
802.833	0.0159149
802.911	0.0159574
802.989	0.0160545
803.067	0.0159438
803.146	0.0159660
803.224	0.0159190
803.302	0.0159171
803.380	0.0158891
803.458	0.0159682
803.536	0.0161923
803.614	0.0161108
803.692	0.0161557
803.771	0.0162481
803.849	0.0163367
803.927	0.0163454
804.005	0.0163145
804.083	0.0163371
804.161	0.0165319
804.239	0.0164579
804.317	0.0163538
804.396	0.0163281
804.474	0.0163411
804.552	0.0165173
804.630	0.0165437
804.708	0.0164838
804.786	0.0163403
804.864	0.0161970
804.942	0.0163179
805.021	0.0162774
805.099	0.0163647
805.177	0.0163756
805.255	0.0160741
805.333	0.0159693
805.411	0.0160948
805.489	0.0158202
805.567	0.0158779
805.646	0.0156414
805.724	0.0156680
805.802	0.0155502
805.880	0.0154408
805.958	0.0153999
806.036	0.0155595
806.114	0.0155798
806.192	0.0156409
806.271	0.0156384
806.349	0.0156483
806.427	0.0157394
806.505	0.0158746
806.583	0.0160088
806.661	0.0161458
806.739	0.0162608
806.817	0.0163741
806.896	0.0164608
806.974	0.0163698
807.052	0.0162453
807.130	0.0164188
807.208	0.0165352
807.286	0.0164198
807.364	0.0163896
807.442	0.0162316
807.521	0.0161555
807.599	0.0162429
807.677	0.0160014
807.755	0.0160588
807.833	0.0159248
807.911	0.0158257
807.989	0.0159050
808.067	0.0157555
808.146	0.0156721
808.224	0.0157242
808.302	0.0156512
808.380	0.0155408
808.458	0.0155710
808.536	0.0155293
808.614	0.0156176
808.692	0.0156867
808.771	0.0158429
808.849	0.0158704
808.927	0.0159286
809.005	0.0159829
809.083	0.0159490
809.161	0.0162462
809.239	0.0163761
809.317	0.0164538
809.396	0.0164900
809.474	0.0166767
809.552	0.0166760
809.630	0.0167308
809.708	0.0166892
809.786	0.0167542
809.864	0.0168026
809.942	0.0168098
810.021	0.0167314
810.099	0.0167892
810.177	0.0169133
810.255	0.0165969
810.333	0.0165527
810.411	0.0165288
810.489	0.0166635
810.567	0.0163921
810.646	0.0163938
810.724	0.0163158
810.802	0.0162641
810.880	0.0161012
810.958	0.0160357
811.036	0.0160582
811.114	0.0158521
811.192	0.0158870
811.271	0.0157752
811.349	0.0158221
811.427	0.0159521
811.505	0.0157524
811.583	0.0158660
811.661	0.0158125
811.739	0.0158187
811.817	0.0157720
811.896	0.0157469
811.974	0.0158074
812.052	0.0155933
812.130	0.0157227
812.208	0.0157116
812.286	0.0156405
812.364	0.0157265
812.442	0.0156702
812.521	0.0157402
812.599	0.0158441
812.677	0.0157486
812.755	0.0157909
812.833	0.0157838
812.911	0.0159369
812.989	0.0159106
813.067	0.0158525
813.146	0.0159333
813.224	0.0157208
813.302	0.0158028
813.380	0.0159971
813.458	0.0158068
813.536	0.0157514
813.614	0.0159120
813.692	0.0157471
813.771	0.0158467
813.849	0.0157435
813.927	0.0156920
814.005	0.0156915
814.083	0.0159188
814.161	0.0159241
814.239	0.0159730
814.317	0.0160910
814.396	0.0161406
814.474	0.0163541
814.552	0.0163450
814.630	0.0165858
814.708	0.0166649
814.786	0.0167175
814.864	0.0168210
814.942	0.0168539
815.021	0.0170205
815.099	0.0170432
815.177	0.0170882
815.255	0.0169737
815.333	0.0171051
815.411	0.0171361
815.489	0.0170480
815.567	0.0169492
815.646	0.0169072
815.724	0.0168243
815.802	0.0167065
815.880	0.0165915
815.958	0.0164611
816.036	0.0163063
816.114	0.0162486
816.192	0.0161573
816.271	0.0161086
816.349	0.0158409
816.427	0.0158248
816.505	0.0156481
816.583	0.0154787
816.661	0.0154577
816.739	0.0154401
816.817	0.0154899
816.896	0.0155155
816.974	0.0155169
817.052	0.0154392
817.130	0.0155343
817.208	0.0154739
817.286	0.0155435
817.364	0.0155920
817.442	0.0156550
817.521	0.0157730
817.599	0.0158945
817.677	0.0158295
817.755	0.0157903
817.833	0.0160628
817.911	0.0158109
817.989	0.0159851
818.067	0.0159538
818.146	0.0158984
818.224	0.0158876
818.302	0.0158517
818.380	0.0158797
818.458	0.0156805
818.536	0.0157673
818.614	0.0157106
818.692	0.0157166
818.771	0.0156905
818.849	0.0156168
818.927	0.0156571
819.005	0.0155808
819.083	0.0156548
819.161	0.0155991
819.239	0.0157146
819.317	0.0156567
819.396	0.0156139
819.474	0.0157402
819.552	0.0158535
819.630	0.0158519
819.708	0.0160307
819.786	0.0159483
819.864	0.0160693
819.942	0.0160376
820.021	0.0162147
820.099	0.0164006
820.177	0.0166162
820.255	0.0165089
820.333	0.0165301
820.411	0.0167593
820.489	0.0166662
820.567	0.0169090
820.646	0.0169505
820.724	0.0169356
820.802	0.0169902
820.880	0.0169341
820.958	0.0169535
821.036	0.0169598
821.114	0.0171216
821.192	0.0169079
821.271	0.0168932
821.349	0.0169260
821.427	0.0168800
821.505	0.0166670
821.583	0.0165452
821.661	0.0165054
821.739	0.0164777
821.817	0.0162767
821.896	0.0163138
821.974	0.0161649
822.052	0.0162083
822.130	0.0161553
822.208	0.0161354
822.286	0.0160202
822.364	0.0159879
822.442	0.0160889
822.521	0.0160274
822.599	0.0159738
822.677	0.0159370
822.755	0.0160926
822.833	0.0160049
822.911	0.0160194
822.989	0.0159998
823.067	0.0159623
823.146	0.0159107
823.224	0.0159660
823.302	0.0158550
823.380	0.0158447
823.458	0.0157424
823.536	0.0157193
823.614	0.0157909
823.692	0.0159267
823.771	0.0157704
823.849	0.0155854
823.927	0.0156605
824.005	0.0153176
824.083	0.0154046
824.161	0.0154586
824.239	0.0152991
824.317	0.0152328
824.396	0.0152670
824.474	0.0153128
824.552	0.0151648
824.630	0.0150024
824.708	0.0151062
824.786	0.0151759
824.864	0.0151424
824.942	0.0152127
825.021	0.0151999
825.099	0.0153197
825.177	0.0154291
825.255	0.0154780
825.333	0.0155565
825.411	0.0155193
825.489	0.0155776
825.567	0.0157629
825.646	0.0158154
825.724	0.0159742
825.802	0.0161804
825.880	0.0164031
825.958	0.0164462
826.036	0.0167167
826.114	0.0168272
826.192	0.0168763
826.271	0.0170126
826.349	0.0173935
826.427	0.0172234
826.505	0.0174222
826.583	0.0175208
826.661	0.0174691
826.739	0.0174780
826.817	0.0174834
826.896	0.0174520
826.974	0.0173352
827.052	0.0173841
827.130	0.0172301
827.208	0.0171143
827.286	0.0169680
827.364	0.0170199
827.442	0.0167269
827.521	0.0166882
827.599	0.0168565
827.677	0.0166779
827.755	0.0165395
827.833	0.0164888
827.911	0.0165087
827.989	0.0163464
828.067	0.0163203
828.146	0.0164349
828.224	0.0162980
828.302	0.0161528
828.380	0.0162153
828.458	0.0161141
828.536	0.0160176
828.614	0.0160463
828.692	0.0158949
828.771	0.0158907
828.849	0.0157957
828.927	0.0157534
829.005	0.0158385
829.083	0.0155845
829.161	0.0153736
829.239	0.0154680
829.317	0.0153567
829.396	0.0151821
829.474	0.0150565
829.552	0.0151369
829.630	0.0149347
829.708	0.0147253
829.786	0.0146568
829.864	0.0146570
829.942	0.0145918
830.021	0.0145084
830.099	0.0145595
830.177	0.0145641
830.255	0.0145255
830.333	0.0146210
830.411	0.0146569
830.489	0.0148425
830.567	0.0149787
830.646	0.0150369
830.724	0.0152628
830.802	0.0153175
830.880	0.0155315
830.958	0.0154655
831.036	0.0158298
831.114	0.0160464
831.192	0.0161188
831.271	0.0162831
831.349	0.0166684
831.427	0.0168542
831.505	0.0169292
831.583	0.0171133
831.661	0.0171491
831.739	0.0172586
831.817	0.0174189
831.896	0.0173991
831.974	0.0175835
832.052	0.0175780
832.130	0.0175974
832.208	0.0174635
832.286	0.0174993
832.364	0.0174970
832.442	0.0174536
832.521	0.0174516
832.599	0.0172773
832.677	0.0173240
832.755	0.0170919
832.833	0.0169555
832.911	0.0170014
832.989	0.0169611
833.067	0.0166727
833.146	0.0166777
833.224	0.0165565
833.302	0.0162178
833.380	0.0162181
833.458	0.0161987
833.536	0.0160186
833.614	0.0159151
833.692	0.0159337
833.771	0.0158038
833.849	0.0158290
833.927	0.0155864
834.005	0.0157533
834.083	0.0156125
834.161	0.0156509
834.239	0.0156084
834.317	0.0155715
834.396	0.0155595
834.474	0.0156062
834.552	0.0155443
834.630	0.0153344
834.708	0.0153864
834.786	0.0155623
834.864	0.0154617
834.942	0.0155154
835.021	0.0153343
835.099	0.0152061
835.177	0.0151051
835.255	0.0151068
835.333	0.0152132
835.411	0.0150850
835.489	0.0151321
835.567	0.0151744
835.646	0.0153242
835.724	0.0151757
835.802	0.0150337
835.880	0.0152104
835.958	0.0151692
836.036	0.0152547
836.114	0.0154913
836.192	0.0155296
836.271	0.0155779
836.349	0.0158173
836.427	0.0158578
836.505	0.0158363
836.583	0.0160639
836.661	0.0160818
836.739	0.0162429
836.817	0.0163666
836.896	0.0164047
836.974	0.0166560
837.052	0.0167227
837.130	0.0167534
837.208	0.0168409
837.286	0.0169844
837.364	0.0169022
837.442	0.0168343
837.521	0.0169769
837.599	0.0168652
837.677	0.0167946
837.755	0.0166775
837.833	0.0167710
837.911	0.0168678
837.989	0.0168077
838.067	0.0167829
838.146	0.0166244
838.224	0.0166551
838.302	0.0164802
838.380	0.0165296
838.458	0.0164352
838.536	0.0163525
838.614	0.0163434
838.692	0.0163538
838.771	0.0160814
838.849	0.0161865
838.927	0.0162021
839.005	0.0160513
839.083	0.0159818
839.161	0.0159076
839.239	0.0159267
839.317	0.0158958
839.396	0.0158370
839.474	0.0157632
839.552	0.0158632
839.630	0.0156668
839.708	0.0158544
839.786	0.0158125
839.864	0.0157579
839.942	0.0159262
840.021	0.0158224
840.099	0.0157490
840.177	0.0157700
840.255	0.0159013
840.333	0.0158573
840.411	0.0158289
840.489	0.0158076
840.567	0.0157858
840.646	0.0158303
840.724	0.0157522
840.802	0.0157852
840.880	0.0158184
840.958	0.0156918
841.036	0.0155756
841.114	0.0156185
841.192	0.0158062
841.271	0.0155721
841.349	0.0155283
841.427	0.0155196
841.505	0.0156702
841.583	0.0155865
841.661	0.0157574
841.739	0.0159026
841.817	0.0158337
841.896	0.0158869
841.974	0.0160374
842.052	0.0161824
842.130	0.0160948
842.208	0.0161031
842.286	0.0161172
842.364	0.0163209
842.442	0.0162531
842.521	0.0163163
842.599	0.0163673
842.677	0.0163184
842.755	0.0163744
842.833	0.0164330
842.911	0.0163116
842.989	0.0164653
843.067	0.0164698
843.146	0.0164212
843.224	0.0163457
843.302	0.0164787
843.380	0.0164510
843.458	0.0165591
843.536	0.0164885
843.614	0.0165337
843.692	0.0164534
843.771	0.0165591
843.849	0.0164802
843.927	0.0164425
844.005	0.0163998
844.083	0.0163457
844.161	0.0163596
844.239	0.0161626
844.317	0.0161729
844.396	0.0161317
844.474	0.0159940
844.552	0.0158122
844.630	0.0158901
844.708	0.0158741
844.786	0.0158300
844.864	0.0158568
844.942	0.0158459
845.021	0.0157670
845.099	0.0158408
845.177	0.0158874
845.255	0.0157730
845.333	0.0157996
845.411	0.0157720
845.489	0.0159037
845.567	0.0159536
845.646	0.0159148
845.724	0.0159920
845.802	0.0159792
845.880	0.0160135
845.958	0.0160876
846.036	0.0160766
846.114	0.0160674
846.192	0.0160622
846.271	0.0160465
846.349	0.0161851
846.427	0.0160460
846.505	0.0159638
846.583	0.0160310
846.661	0.0160347
846.739	0.0158189
846.817	0.0158527
846.896	0.0160703
846.974	0.0160686
847.052	0.0159541
847.130	0.0159192
847.208	0.0159682
847.286	0.0159966
847.364	0.0159209
847.442	0.0160500
847.521	0.0160905
847.599	0.0160740
847.677	0.0163400
847.755	0.0162047
847.833	0.0162318
847.911	0.0163290
847.989	0.0161782
848.067	0.0161745
848.146	0.0163085
848.224	0.0162270
848.302	0.0162436
848.380	0.0161819
848.458	0.0162170
848.536	0.0162022
848.614	0.0161272
848.692	0.0162451
848.771	0.0160364
848.849	0.0162074
848.927	0.0161963
849.005	0.0161868
849.083	0.0160718
849.161	0.0163077
849.239	0.0162589
849.317	0.0162363
849.396	0.0162283
849.474	0.0162682
849.552	0.0162676
849.630	0.0163157
849.708	0.0163592
849.786	0.0160740
849.864	0.0160432
849.942	0.0159259
850.021	0.0159554
850.099	0.0159437
850.177	0.0159222
850.255	0.0159554
850.333	0.0159076
850.411	0.0158061
850.489	0.0157764
850.567	0.0158711
850.646	0.0158337
850.724	0.0156868
850.802	0.0158230
850.880	0.0157780
850.958	0.0157750
851.036	0.0158839
851.114	0.0160276
851.192	0.0159931
851.271	0.0161570
851.349	0.0161097
851.427	0.0160340
851.505	0.0162624
851.583	0.0160662
851.661	0.0161969
851.739	0.0162782
851.817	0.0162296
851.896	0.0163195
851.974	0.0162160
852.052	0.0161971
852.130	0.0164153
852.208	0.0164243
852.286	0.0162589
852.364	0.0161167
852.442	0.0161973
852.521	0.0160340
852.599	0.0161259
852.677	0.0161026
852.755	0.0160542
852.833	0.0158527
852.911	0.0159367
852.989	0.0159971
853.067	0.0159070
853.146	0.0159278
853.224	0.0158327
853.302	0.0158417
853.380	0.0158751
853.458	0.0158562
853.536	0.0157914
853.614	0.0158596
853.692	0.0158885
853.771	0.0159583
853.849	0.0159418
853.927	0.0159379
854.005	0.0159905
854.083	0.0160543
854.161	0.0161185
854.239	0.0162421
854.317	0.0162756
854.396	0.0162415
854.474	0.0163493
854.552	0.0163208
854.630	0.0163998
854.708	0.0163133
854.786	0.0164561
854.864	0.0164020
854.942	0.0162218
855.021	0.0162608
855.099	0.0161372
855.177	0.0162743
855.255	0.0161289
855.333	0.0160108
855.411	0.0160899
855.489	0.0159702
855.567	0.0160163
855.646	0.0158542
855.724	0.0158932
855.802	0.0158147
855.880	0.0157874
855.958	0.0158646
856.036	0.0157700
856.114	0.0158155
856.192	0.0159655
856.271	0.0158432
856.349	0.0159566
856.427	0.0160146
856.505	0.0160591
856.583	0.0161337
856.661	0.0161468
856.739	0.0161866
856.817	0.0162517
856.896	0.0162426
856.974	0.0163322
857.052	0.0164140
857.130	0.0162989
857.208	0.0164304
857.286	0.0166232
857.364	0.0164636
857.442	0.0164424
857.521	0.0165218
857.599	0.0164264
857.677	0.0163744
857.755	0.0164577
857.833	0.0162932
857.911	0.0162557
857.989	0.0163901
858.067	0.0161574
858.146	0.0161673
858.224	0.0161753
858.302	0.0161320
858.380	0.0161253
858.458	0.0159677
858.536	0.0159427
858.614	0.0160594
858.692	0.0160561
858.771	0.0160250
858.849	0.0159737
858.927	0.0160615
859.005	0.0158740
859.083	0.0158680
859.161	0.0159814
859.239	0.0158889
859.317	0.0159394
859.396	0.0158844
859.474	0.0159288
859.552	0.0158418
859.630	0.0159772
859.708	0.0160777
859.786	0.0159226
859.864	0.0159941
859.942	0.0159466
860.021	0.0161964
860.099	0.0161490
860.177	0.0160921
860.255	0.0160421
860.333	0.0160126
860.411	0.0160676
860.489	0.0161433
860.567	0.0159656
860.646	0.0159522
860.724	0.0159969
860.802	0.0159784
860.880	0.0158993
860.958	0.0157071
861.036	0.0159471
861.114	0.0158713
861.192	0.0158206
861.271	0.0159341
861.349	0.0158250
861.427	0.0159280
861.505	0.0161022
861.583	0.0160525
861.661	0.0160258
861.739	0.0160616
861.817	0.0161035
861.896	0.0161935
861.974	0.0163670
862.052	0.0162355
862.130	0.0163313
862.208	0.0163420
862.286	0.0163007
862.364	0.0162668
862.442	0.0163837
862.521	0.0165406
862.599	0.0164078
862.677	0.0164132
862.755	0.0164614
862.833	0.0164288
862.911	0.0164719
862.989	0.0164062
863.067	0.0165179
863.146	0.0164531
863.224	0.0163889
863.302	0.0164932
863.380	0.0164846
863.458	0.0165520
863.536	0.0163099
863.614	0.0164388
863.692	0.0162196
863.771	0.0163079
863.849	0.0164034
863.927	0.0162446
864.005	0.0161314
864.083	0.0160491
864.161	0.0161333
864.239	0.0161062
864.317	0.0160229
864.396	0.0159193
864.474	0.0159746
864.552	0.0158092
864.630	0.0157531
864.708	0.0157607
864.786	0.0157352
864.864	0.0157741
864.942	0.0156662
865.021	0.0156122
865.099	0.0157216
865.177	0.0155890
865.255	0.0156696
865.333	0.0157557
865.411	0.0156856
865.489	0.0158312
865.567	0.0157483
865.646	0.0157917
865.724	0.0157381
865.802	0.0156513
865.880	0.0157030
865.958	0.0157854
866.036	0.0159021
866.114	0.0158239
866.192	0.0158307
866.271	0.0157992
866.349	0.0159782
866.427	0.0159184
866.505	0.0159465
866.583	0.0159236
866.661	0.0159925
866.739	0.0160638
866.817	0.0161456
866.896	0.0161346
866.974	0.0161626
867.052	0.0160560
867.130	0.0161738
867.208	0.0162415
867.286	0.0161839
867.364	0.0161924
867.442	0.0162275
867.521	0.0161691
867.599	0.0164079
867.677	0.0163162
867.755	0.0164444
867.833	0.0163922
867.911	0.0165411
867.989	0.0164967
868.067	0.0165274
868.146	0.0164883
868.224	0.0165078
868.302	0.0164409
868.380	0.0162740
868.458	0.0164019
868.536	0.0164687
868.614	0.0163514
868.692	0.0163116
868.771	0.0162881
868.849	0.0162317
868.927	0.0162666
869.005	0.0162649
869.083	0.0161345
869.161	0.0162144
869.239	0.0163357
869.317	0.0162552
869.396	0.0161400
869.474	0.0160834
869.552	0.0160197
869.630	0.0160928
869.708	0.0159567
869.786	0.0160030
869.864	0.0159627
869.942	0.0159695
