06/03/2022	15:47:51	Ver.	4.1	UNKNOWN
Optical Delay	550.020508	Delta X		0.078125	Sweeps	1	Scan Rate	0/0
Coordinates	Axis 1	NaN	Axis 2	NaN	Axis 3	NaN	Axis 4	NaN	Axis 5	NaN	Axis 6	0.000000
TX Power	0.000000	RX Power	0.000000

550.021	0.0164001
550.099	0.0164034
550.177	0.0164771
550.255	0.0165077
550.333	0.0164641
550.411	0.0163605
550.489	0.0164413
550.567	0.0164671
550.646	0.0164234
550.724	0.0163556
550.802	0.0164261
550.880	0.0163220
550.958	0.0163651
551.036	0.0164645
551.114	0.0163766
551.192	0.0163216
551.271	0.0165176
551.349	0.0163798
551.427	0.0162325
551.505	0.0164428
551.583	0.0165314
551.661	0.0163753
551.739	0.0163482
551.817	0.0163544
551.896	0.0164250
551.974	0.0164052
552.052	0.0164510
552.130	0.0164450
552.208	0.0164417
552.286	0.0163048
552.364	0.0164470
552.442	0.0165472
552.521	0.0164206
552.599	0.0164244
552.677	0.0162467
552.755	0.0165250
552.833	0.0164877
552.911	0.0163483
552.989	0.0163351
553.067	0.0163477
553.146	0.0163208
553.224	0.0163457
553.302	0.0164521
553.380	0.0163688
553.458	0.0164216
553.536	0.0164021
553.614	0.0164635
553.692	0.0164658
553.771	0.0164970
553.849	0.0165388
553.927	0.0164651
554.005	0.0164496
554.083	0.0164027
554.161	0.0163390
554.239	0.0165199
554.317	0.0164063
554.396	0.0164420
554.474	0.0164636
554.552	0.0164194
554.630	0.0164599
554.708	0.0164000
554.786	0.0163751
554.864	0.0164967
554.942	0.0163474
555.021	0.0163924
555.099	0.0165005
555.177	0.0164015
555.255	0.0164133
555.333	0.0164417
555.411	0.0164116
555.489	0.0165236
555.567	0.0163798
555.646	0.0162775
555.724	0.0163336
555.802	0.0164822
555.880	0.0164653
555.958	0.0164780
556.036	0.0164754
556.114	0.0164060
556.192	0.0164907
556.271	0.0163110
556.349	0.0162978
556.427	0.0164539
556.505	0.0163670
556.583	0.0164304
556.661	0.0163665
556.739	0.0164071
556.817	0.0165398
556.896	0.0164787
556.974	0.0163728
557.052	0.0163544
557.130	0.0164291
557.208	0.0163491
557.286	0.0164739
557.364	0.0163764
557.442	0.0163489
557.521	0.0162961
557.599	0.0164170
557.677	0.0164084
557.755	0.0163937
557.833	0.0164681
557.911	0.0162672
557.989	0.0164289
558.067	0.0165016
558.146	0.0164342
558.224	0.0164659
558.302	0.0164580
558.380	0.0164160
558.458	0.0165070
558.536	0.0164700
558.614	0.0163908
558.692	0.0162558
558.771	0.0162282
558.849	0.0164425
558.927	0.0164593
559.005	0.0163701
559.083	0.0163659
559.161	0.0163042
559.239	0.0164690
559.317	0.0164732
559.396	0.0164690
559.474	0.0165216
559.552	0.0163154
559.630	0.0163452
559.708	0.0163442
559.786	0.0162867
559.864	0.0164214
559.942	0.0163776
560.021	0.0164923
560.099	0.0164544
560.177	0.0164494
560.255	0.0163888
560.333	0.0165275
560.411	0.0163228
560.489	0.0163522
560.567	0.0163585
560.646	0.0164207
560.724	0.0164243
560.802	0.0163653
560.880	0.0164904
560.958	0.0163713
561.036	0.0163053
561.114	0.0163095
561.192	0.0163680
561.271	0.0164558
561.349	0.0163744
561.427	0.0164323
561.505	0.0164041
561.583	0.0166036
561.661	0.0164247
561.739	0.0164051
561.817	0.0163824
561.896	0.0164265
561.974	0.0164634
562.052	0.0163203
562.130	0.0164930
562.208	0.0165022
562.286	0.0163916
562.364	0.0164783
562.442	0.0163548
562.521	0.0164211
562.599	0.0162746
562.677	0.0164626
562.755	0.0164642
562.833	0.0163039
562.911	0.0163577
562.989	0.0164890
563.067	0.0163851
563.146	0.0164039
563.224	0.0163687
563.302	0.0163269
563.380	0.0165088
563.458	0.0164136
563.536	0.0163928
563.614	0.0164020
563.692	0.0165667
563.771	0.0165369
563.849	0.0164931
563.927	0.0165552
564.005	0.0163920
564.083	0.0163382
564.161	0.0164141
564.239	0.0164407
564.317	0.0164497
564.396	0.0164056
564.474	0.0163358
564.552	0.0163916
564.630	0.0163447
564.708	0.0164817
564.786	0.0164088
564.864	0.0164164
564.942	0.0164484
565.021	0.0162664
565.099	0.0164043
565.177	0.0165530
565.255	0.0163704
565.333	0.0163112
565.411	0.0164895
565.489	0.0165462
565.567	0.0163482
565.646	0.0164973
565.724	0.0163715
565.802	0.0163422
565.880	0.0164473
565.958	0.0164311
566.036	0.0164296
566.114	0.0164299
566.192	0.0163383
566.271	0.0163743
566.349	0.0164508
566.427	0.0163737
566.505	0.0164477
566.583	0.0164565
566.661	0.0164807
566.739	0.0163853
566.817	0.0164511
566.896	0.0165391
566.974	0.0164188
567.052	0.0163563
567.130	0.0164532
567.208	0.0165204
567.286	0.0162999
567.364	0.0164032
567.442	0.0164176
567.521	0.0163689
567.599	0.0164384
567.677	0.0163406
567.755	0.0164821
567.833	0.0164691
567.911	0.0163832
567.989	0.0164423
568.067	0.0163892
568.146	0.0163904
568.224	0.0164142
568.302	0.0164780
568.380	0.0163856
568.458	0.0164433
568.536	0.0164725
568.614	0.0164338
568.692	0.0165087
568.771	0.0163325
568.849	0.0163390
568.927	0.0164117
569.005	0.0163288
569.083	0.0164061
569.161	0.0164931
569.239	0.0163666
569.317	0.0164008
569.396	0.0164159
569.474	0.0163803
569.552	0.0165215
569.630	0.0163641
569.708	0.0163122
569.786	0.0165125
569.864	0.0163834
569.942	0.0163822
570.021	0.0163714
570.099	0.0164725
570.177	0.0163815
570.255	0.0164138
570.333	0.0164520
570.411	0.0163854
570.489	0.0164874
570.567	0.0164356
570.646	0.0164873
570.724	0.0163976
570.802	0.0163557
570.880	0.0162268
570.958	0.0164651
571.036	0.0163919
571.114	0.0164381
571.192	0.0164081
571.271	0.0164301
571.349	0.0164114
571.427	0.0163788
571.505	0.0164233
571.583	0.0164165
571.661	0.0163991
571.739	0.0163113
571.817	0.0164081
571.896	0.0163753
571.974	0.0163812
572.052	0.0163813
572.130	0.0165089
572.208	0.0162690
572.286	0.0163999
572.364	0.0164938
572.442	0.0165111
572.521	0.0163190
572.599	0.0163793
572.677	0.0164367
572.755	0.0164098
572.833	0.0165068
572.911	0.0163984
572.989	0.0164381
573.067	0.0164708
573.146	0.0164118
573.224	0.0163554
573.302	0.0164608
573.380	0.0164502
573.458	0.0163813
573.536	0.0164761
573.614	0.0163107
573.692	0.0162939
573.771	0.0164889
573.849	0.0163589
573.927	0.0164037
574.005	0.0163799
574.083	0.0163773
574.161	0.0163337
574.239	0.0164590
574.317	0.0163517
574.396	0.0164299
574.474	0.0164439
574.552	0.0163890
574.630	0.0164658
574.708	0.0163621
574.786	0.0163582
574.864	0.0163631
574.942	0.0164745
575.021	0.0164327
575.099	0.0163570
575.177	0.0164840
575.255	0.0165008
575.333	0.0164069
575.411	0.0163185
575.489	0.0163541
575.567	0.0164522
575.646	0.0164921
575.724	0.0164389
575.802	0.0163436
575.880	0.0162675
575.958	0.0164210
576.036	0.0165376
576.114	0.0162897
576.192	0.0165366
576.271	0.0165235
576.349	0.0165749
576.427	0.0163857
576.505	0.0165736
576.583	0.0163966
576.661	0.0163358
576.739	0.0164338
576.817	0.0163706
576.896	0.0164600
576.974	0.0164057
577.052	0.0164325
577.130	0.0164225
577.208	0.0164418
577.286	0.0163408
577.364	0.0163005
577.442	0.0162905
577.521	0.0164135
577.599	0.0164494
577.677	0.0165282
577.755	0.0164271
577.833	0.0163022
577.911	0.0164756
577.989	0.0162649
578.067	0.0163581
578.146	0.0163812
578.224	0.0164912
578.302	0.0164950
578.380	0.0164582
578.458	0.0163854
578.536	0.0163107
578.614	0.0164231
578.692	0.0164282
578.771	0.0163257
578.849	0.0164149
578.927	0.0164120
579.005	0.0163850
579.083	0.0165044
579.161	0.0162682
579.239	0.0164692
579.317	0.0163581
579.396	0.0164333
579.474	0.0165101
579.552	0.0163580
579.630	0.0165084
579.708	0.0165231
579.786	0.0163234
579.864	0.0163985
579.942	0.0162877
580.021	0.0163589
580.099	0.0164063
580.177	0.0163649
580.255	0.0164653
580.333	0.0165055
580.411	0.0163663
580.489	0.0163197
580.567	0.0164191
580.646	0.0164901
580.724	0.0163664
580.802	0.0163790
580.880	0.0163590
580.958	0.0163669
581.036	0.0163633
581.114	0.0164222
581.192	0.0162319
581.271	0.0164571
581.349	0.0165209
581.427	0.0164558
581.505	0.0163116
581.583	0.0164788
581.661	0.0164806
581.739	0.0163441
581.817	0.0163121
581.896	0.0163158
581.974	0.0165054
582.052	0.0163747
582.130	0.0164478
582.208	0.0163535
582.286	0.0162092
582.364	0.0163966
582.442	0.0166158
582.521	0.0165057
582.599	0.0164986
582.677	0.0164979
582.755	0.0164220
582.833	0.0163432
582.911	0.0164657
582.989	0.0163707
583.067	0.0164215
583.146	0.0164377
583.224	0.0164110
583.302	0.0164614
583.380	0.0163075
583.458	0.0163055
583.536	0.0165356
583.614	0.0164005
583.692	0.0164796
583.771	0.0165812
583.849	0.0164131
583.927	0.0163717
584.005	0.0164817
584.083	0.0164319
584.161	0.0163779
584.239	0.0165293
584.317	0.0165260
584.396	0.0164950
584.474	0.0163990
584.552	0.0164931
584.630	0.0163893
584.708	0.0162805
584.786	0.0163638
584.864	0.0163171
584.942	0.0164007
585.021	0.0164561
585.099	0.0164602
585.177	0.0164777
585.255	0.0164395
585.333	0.0164313
585.411	0.0163197
585.489	0.0163475
585.567	0.0164211
585.646	0.0164964
585.724	0.0164286
585.802	0.0163652
585.880	0.0163368
585.958	0.0165266
586.036	0.0164337
586.114	0.0163393
586.192	0.0164526
586.271	0.0164812
586.349	0.0165254
586.427	0.0163349
586.505	0.0164713
586.583	0.0163831
586.661	0.0163353
586.739	0.0164986
586.817	0.0164716
586.896	0.0164945
586.974	0.0164205
587.052	0.0163991
587.130	0.0164035
587.208	0.0164022
587.286	0.0163638
587.364	0.0163781
587.442	0.0164041
587.521	0.0164035
587.599	0.0164433
587.677	0.0165542
587.755	0.0163259
587.833	0.0163014
587.911	0.0162865
587.989	0.0165478
588.067	0.0163828
588.146	0.0163367
588.224	0.0164171
588.302	0.0165414
588.380	0.0164978
588.458	0.0164848
588.536	0.0164063
588.614	0.0164848
588.692	0.0164126
588.771	0.0163331
588.849	0.0162751
588.927	0.0163420
589.005	0.0165227
589.083	0.0165231
589.161	0.0164675
589.239	0.0164854
589.317	0.0163527
589.396	0.0165017
589.474	0.0164175
589.552	0.0165078
589.630	0.0164277
589.708	0.0164747
589.786	0.0164468
589.864	0.0164851
589.942	0.0165302
590.021	0.0165302
590.099	0.0164515
590.177	0.0164426
590.255	0.0164300
590.333	0.0165470
590.411	0.0165503
590.489	0.0163506
590.567	0.0162659
590.646	0.0165016
590.724	0.0164396
590.802	0.0162865
590.880	0.0165555
590.958	0.0163935
591.036	0.0164404
591.114	0.0162476
591.192	0.0165868
591.271	0.0164527
591.349	0.0164565
591.427	0.0164624
591.505	0.0165111
591.583	0.0163664
591.661	0.0164355
591.739	0.0164732
591.817	0.0164812
591.896	0.0164096
591.974	0.0163998
592.052	0.0165142
592.130	0.0163206
592.208	0.0164332
592.286	0.0165047
592.364	0.0164391
592.442	0.0164668
592.521	0.0164381
592.599	0.0164503
592.677	0.0164436
592.755	0.0164687
592.833	0.0165176
592.911	0.0165725
592.989	0.0163338
593.067	0.0163872
593.146	0.0165674
593.224	0.0164158
593.302	0.0165269
593.380	0.0163892
593.458	0.0165291
593.536	0.0164861
593.614	0.0164633
593.692	0.0164774
593.771	0.0164655
593.849	0.0165214
593.927	0.0164010
594.005	0.0165320
594.083	0.0164027
594.161	0.0165540
594.239	0.0165956
594.317	0.0164420
594.396	0.0165119
594.474	0.0165069
594.552	0.0164661
594.630	0.0164800
594.708	0.0164403
594.786	0.0164382
594.864	0.0165390
594.942	0.0163979
595.021	0.0164484
595.099	0.0165620
595.177	0.0165565
595.255	0.0164484
595.333	0.0167685
595.411	0.0164453
595.489	0.0164606
595.567	0.0165293
595.646	0.0164686
595.724	0.0167557
595.802	0.0164769
595.880	0.0164919
595.958	0.0164921
596.036	0.0164713
596.114	0.0164944
596.192	0.0164372
596.271	0.0165985
596.349	0.0165038
596.427	0.0165081
596.505	0.0164069
596.583	0.0165704
596.661	0.0165208
596.739	0.0164072
596.817	0.0165683
596.896	0.0164426
596.974	0.0163515
597.052	0.0163065
597.130	0.0162863
597.208	0.0164866
597.286	0.0163900
597.364	0.0164820
597.442	0.0163863
597.521	0.0163900
597.599	0.0162418
597.677	0.0163203
597.755	0.0163696
597.833	0.0163570
597.911	0.0164870
597.989	0.0163278
598.067	0.0164172
598.146	0.0163084
598.224	0.0162576
598.302	0.0164012
598.380	0.0164851
598.458	0.0163626
598.536	0.0164097
598.614	0.0163696
598.692	0.0163969
598.771	0.0163990
598.849	0.0163859
598.927	0.0163322
599.005	0.0163381
599.083	0.0163674
599.161	0.0163671
599.239	0.0163598
599.317	0.0163497
599.396	0.0164508
599.474	0.0163345
599.552	0.0163343
599.630	0.0163670
599.708	0.0164095
599.786	0.0161932
599.864	0.0163871
599.942	0.0163743
600.021	0.0163770
600.099	0.0164629
600.177	0.0163097
600.255	0.0163773
600.333	0.0164683
600.411	0.0164803
600.489	0.0162904
600.567	0.0163509
600.646	0.0164745
600.724	0.0163667
600.802	0.0163842
600.880	0.0163696
600.958	0.0165295
601.036	0.0162714
601.114	0.0164275
601.192	0.0162987
601.271	0.0165034
601.349	0.0164080
601.427	0.0163812
601.505	0.0163723
601.583	0.0162750
601.661	0.0163123
601.739	0.0163228
601.817	0.0163610
601.896	0.0162936
601.974	0.0164018
602.052	0.0163654
602.130	0.0162988
602.208	0.0163889
602.286	0.0163200
602.364	0.0164696
602.442	0.0163601
602.521	0.0164188
602.599	0.0165138
602.677	0.0163446
602.755	0.0164306
602.833	0.0164685
602.911	0.0163245
602.989	0.0163304
603.067	0.0161655
603.146	0.0164333
603.224	0.0164033
603.302	0.0163458
603.380	0.0163880
603.458	0.0163602
603.536	0.0165282
603.614	0.0163402
603.692	0.0163675
603.771	0.0162628
603.849	0.0162960
603.927	0.0163665
604.005	0.0163691
604.083	0.0163857
604.161	0.0163561
604.239	0.0164212
604.317	0.0163892
604.396	0.0164635
604.474	0.0162591
604.552	0.0163936
604.630	0.0163998
604.708	0.0163365
604.786	0.0162895
604.864	0.0163718
604.942	0.0162662
605.021	0.0163920
605.099	0.0164574
605.177	0.0162921
605.255	0.0164162
605.333	0.0164713
605.411	0.0163746
605.489	0.0163354
605.567	0.0164905
605.646	0.0164663
605.724	0.0163788
605.802	0.0164123
605.880	0.0162801
605.958	0.0163582
606.036	0.0163965
606.114	0.0163249
606.192	0.0165672
606.271	0.0163936
606.349	0.0163509
606.427	0.0164526
606.505	0.0164152
606.583	0.0164412
606.661	0.0164169
606.739	0.0163863
606.817	0.0164703
606.896	0.0163381
606.974	0.0162975
607.052	0.0163674
607.130	0.0163770
607.208	0.0165118
607.286	0.0163255
607.364	0.0163892
607.442	0.0165489
607.521	0.0164301
607.599	0.0164456
607.677	0.0163943
607.755	0.0164288
607.833	0.0163875
607.911	0.0164689
607.989	0.0163786
608.067	0.0163402
608.146	0.0163625
608.224	0.0164555
608.302	0.0164607
608.380	0.0165003
608.458	0.0164488
608.536	0.0164609
608.614	0.0164201
608.692	0.0163803
608.771	0.0164687
608.849	0.0164234
608.927	0.0163848
609.005	0.0165111
609.083	0.0164259
609.161	0.0164796
609.239	0.0164494
609.317	0.0165177
609.396	0.0163774
609.474	0.0165355
609.552	0.0164344
609.630	0.0164492
609.708	0.0165372
609.786	0.0165386
609.864	0.0165292
609.942	0.0166414
610.021	0.0165004
610.099	0.0163083
610.177	0.0165692
610.255	0.0165644
610.333	0.0165368
610.411	0.0164375
610.489	0.0165724
610.567	0.0165584
610.646	0.0165214
610.724	0.0163743
610.802	0.0165981
610.880	0.0166422
610.958	0.0164631
611.036	0.0164835
611.114	0.0165496
611.192	0.0164909
611.271	0.0164816
611.349	0.0165484
611.427	0.0164915
611.505	0.0164973
611.583	0.0166062
611.661	0.0165685
611.739	0.0166730
611.817	0.0164292
611.896	0.0164623
611.974	0.0165208
612.052	0.0166065
612.130	0.0164906
612.208	0.0163340
612.286	0.0165267
612.364	0.0165493
612.442	0.0164445
612.521	0.0164535
612.599	0.0164927
612.677	0.0164509
612.755	0.0164720
612.833	0.0165357
612.911	0.0164871
612.989	0.0165044
613.067	0.0165865
613.146	0.0166293
613.224	0.0164025
613.302	0.0164058
613.380	0.0164921
613.458	0.0165030
613.536	0.0165646
613.614	0.0163374
613.692	0.0165055
613.771	0.0164791
613.849	0.0164639
613.927	0.0163916
614.005	0.0163458
614.083	0.0164077
614.161	0.0165838
614.239	0.0163912
614.317	0.0164568
614.396	0.0163931
614.474	0.0165324
614.552	0.0164567
614.630	0.0163808
614.708	0.0164257
614.786	0.0164362
614.864	0.0164277
614.942	0.0166422
615.021	0.0164983
615.099	0.0163950
615.177	0.0163017
615.255	0.0163820
615.333	0.0164536
615.411	0.0164379
615.489	0.0164233
615.567	0.0164012
615.646	0.0164481
615.724	0.0164806
615.802	0.0165427
615.880	0.0166522
615.958	0.0164643
616.036	0.0163683
616.114	0.0164841
616.192	0.0164546
616.271	0.0165223
616.349	0.0164541
616.427	0.0164716
616.505	0.0164545
616.583	0.0164095
616.661	0.0164297
616.739	0.0164318
616.817	0.0163235
616.896	0.0164204
616.974	0.0163638
617.052	0.0163036
617.130	0.0164603
617.208	0.0163737
617.286	0.0164769
617.364	0.0163680
617.442	0.0163495
617.521	0.0163930
617.599	0.0164141
617.677	0.0164452
617.755	0.0163439
617.833	0.0163734
617.911	0.0164074
617.989	0.0164684
618.067	0.0163077
618.146	0.0165558
618.224	0.0164281
618.302	0.0164189
618.380	0.0163644
618.458	0.0164038
618.536	0.0163701
618.614	0.0162351
618.692	0.0164236
618.771	0.0163853
618.849	0.0163728
618.927	0.0164677
619.005	0.0163543
619.083	0.0163914
619.161	0.0164262
619.239	0.0164546
619.317	0.0163597
619.396	0.0163563
619.474	0.0164307
619.552	0.0163764
619.630	0.0163732
619.708	0.0162932
619.786	0.0162942
619.864	0.0164169
619.942	0.0162830
620.021	0.0163801
620.099	0.0164205
620.177	0.0162276
620.255	0.0163702
620.333	0.0162817
620.411	0.0164532
620.489	0.0163937
620.567	0.0162818
620.646	0.0163565
620.724	0.0163780
620.802	0.0163029
620.880	0.0163159
620.958	0.0164685
621.036	0.0163371
621.114	0.0163286
621.192	0.0162366
621.271	0.0163994
621.349	0.0162177
621.427	0.0162473
621.505	0.0163815
621.583	0.0164803
621.661	0.0164107
621.739	0.0163078
621.817	0.0162666
621.896	0.0164658
621.974	0.0163010
622.052	0.0163538
622.130	0.0165740
622.208	0.0163371
622.286	0.0164218
622.364	0.0165024
622.442	0.0163935
622.521	0.0163937
622.599	0.0161776
622.677	0.0163168
622.755	0.0165180
622.833	0.0163622
622.911	0.0162950
622.989	0.0163609
623.067	0.0164749
623.146	0.0164304
623.224	0.0162479
623.302	0.0162343
623.380	0.0164098
623.458	0.0163438
623.536	0.0163046
623.614	0.0163060
623.692	0.0162186
623.771	0.0163620
623.849	0.0163521
623.927	0.0163404
624.005	0.0163928
624.083	0.0162688
624.161	0.0163801
624.239	0.0163623
624.317	0.0164250
624.396	0.0163807
624.474	0.0164518
624.552	0.0163378
624.630	0.0163093
624.708	0.0163764
624.786	0.0163947
624.864	0.0163037
624.942	0.0164146
625.021	0.0164513
625.099	0.0163017
625.177	0.0164476
625.255	0.0163927
625.333	0.0163913
625.411	0.0164119
625.489	0.0163598
625.567	0.0163916
625.646	0.0163731
625.724	0.0163480
625.802	0.0164264
625.880	0.0163991
625.958	0.0164600
626.036	0.0163741
626.114	0.0162991
626.192	0.0163564
626.271	0.0163811
626.349	0.0164613
626.427	0.0164282
626.505	0.0162442
626.583	0.0164917
626.661	0.0163744
626.739	0.0163391
626.817	0.0163553
626.896	0.0163373
626.974	0.0162629
627.052	0.0164015
627.130	0.0164806
627.208	0.0164171
627.286	0.0163573
627.364	0.0164366
627.442	0.0163895
627.521	0.0165253
627.599	0.0162762
627.677	0.0163412
627.755	0.0163927
627.833	0.0163051
627.911	0.0164436
627.989	0.0164481
628.067	0.0164256
628.146	0.0163151
628.224	0.0163266
628.302	0.0164207
628.380	0.0164217
628.458	0.0164596
628.536	0.0163898
628.614	0.0164223
628.692	0.0163661
628.771	0.0163966
628.849	0.0164794
628.927	0.0164023
629.005	0.0163232
629.083	0.0165524
629.161	0.0164483
629.239	0.0163805
629.317	0.0163344
629.396	0.0164120
629.474	0.0164391
629.552	0.0164163
629.630	0.0164521
629.708	0.0165305
629.786	0.0164924
629.864	0.0163480
629.942	0.0164014
630.021	0.0165855
630.099	0.0166882
630.177	0.0164155
630.255	0.0163610
630.333	0.0163725
630.411	0.0164130
630.489	0.0165630
630.567	0.0165961
630.646	0.0164332
630.724	0.0163958
630.802	0.0163819
630.880	0.0164440
630.958	0.0164190
631.036	0.0165386
631.114	0.0164738
631.192	0.0161897
631.271	0.0162847
631.349	0.0163778
631.427	0.0164878
631.505	0.0166558
631.583	0.0163534
631.661	0.0164041
631.739	0.0165114
631.817	0.0163341
631.896	0.0163591
631.974	0.0165041
632.052	0.0165396
632.130	0.0163786
632.208	0.0165549
632.286	0.0165717
632.364	0.0164756
632.442	0.0164335
632.521	0.0164991
632.599	0.0163991
632.677	0.0164650
632.755	0.0165427
632.833	0.0165562
632.911	0.0165119
632.989	0.0163682
633.067	0.0164382
633.146	0.0165009
633.224	0.0163644
633.302	0.0165331
633.380	0.0164431
633.458	0.0163703
633.536	0.0163605
633.614	0.0164776
633.692	0.0164672
633.771	0.0166326
633.849	0.0164936
633.927	0.0164730
634.005	0.0164814
634.083	0.0164370
634.161	0.0164501
634.239	0.0164030
634.317	0.0163443
634.396	0.0164891
634.474	0.0163843
634.552	0.0164529
634.630	0.0163348
634.708	0.0165212
634.786	0.0165958
634.864	0.0164680
634.942	0.0164085
635.021	0.0164385
635.099	0.0164688
635.177	0.0164587
635.255	0.0164417
635.333	0.0165023
635.411	0.0164436
635.489	0.0164484
635.567	0.0163931
635.646	0.0163867
635.724	0.0165378
635.802	0.0165624
635.880	0.0164445
635.958	0.0164202
636.036	0.0164618
636.114	0.0163825
636.192	0.0164894
636.271	0.0165018
636.349	0.0163895
636.427	0.0165722
636.505	0.0164357
636.583	0.0165110
636.661	0.0165241
636.739	0.0164176
636.817	0.0164119
636.896	0.0164742
636.974	0.0164250
637.052	0.0165812
637.130	0.0167042
637.208	0.0165607
637.286	0.0163995
637.364	0.0164725
637.442	0.0164254
637.521	0.0165560
637.599	0.0166473
637.677	0.0163834
637.755	0.0164578
637.833	0.0164375
637.911	0.0164287
637.989	0.0164526
638.067	0.0164960
638.146	0.0165430
638.224	0.0164681
638.302	0.0164745
638.380	0.0164716
638.458	0.0164851
638.536	0.0164090
638.614	0.0164780
638.692	0.0164781
638.771	0.0163697
638.849	0.0164835
638.927	0.0165540
639.005	0.0165630
639.083	0.0164395
639.161	0.0164196
639.239	0.0164359
639.317	0.0164993
639.396	0.0164306
639.474	0.0165022
639.552	0.0164591
639.630	0.0164430
639.708	0.0165614
639.786	0.0164413
639.864	0.0164017
639.942	0.0165678
640.021	0.0164429
640.099	0.0163777
640.177	0.0163341
640.255	0.0164687
640.333	0.0165314
640.411	0.0163921
640.489	0.0163513
640.567	0.0164940
640.646	0.0163683
640.724	0.0163396
640.802	0.0165235
640.880	0.0164836
640.958	0.0165685
641.036	0.0165149
641.114	0.0164258
641.192	0.0165260
641.271	0.0164365
641.349	0.0164308
641.427	0.0164791
641.505	0.0165201
641.583	0.0165213
641.661	0.0165466
641.739	0.0166030
641.817	0.0163541
641.896	0.0163512
641.974	0.0164433
642.052	0.0164246
642.130	0.0165691
642.208	0.0164206
642.286	0.0163931
642.364	0.0165395
642.442	0.0164282
642.521	0.0164552
642.599	0.0164379
642.677	0.0163875
642.755	0.0163783
642.833	0.0163900
642.911	0.0163765
642.989	0.0165121
643.067	0.0164419
643.146	0.0164242
643.224	0.0163640
643.302	0.0164566
643.380	0.0162854
643.458	0.0163826
643.536	0.0164816
643.614	0.0164228
643.692	0.0163432
643.771	0.0163360
643.849	0.0164687
643.927	0.0164617
644.005	0.0163057
644.083	0.0163786
644.161	0.0163836
644.239	0.0165046
644.317	0.0164109
644.396	0.0165166
644.474	0.0163631
644.552	0.0164788
644.630	0.0166083
644.708	0.0164787
644.786	0.0164697
644.864	0.0165294
644.942	0.0163726
645.021	0.0164829
645.099	0.0164095
645.177	0.0165292
645.255	0.0164709
645.333	0.0164375
645.411	0.0163575
645.489	0.0164831
645.567	0.0165520
645.646	0.0165088
645.724	0.0164414
645.802	0.0164357
645.880	0.0165423
645.958	0.0163355
646.036	0.0164392
646.114	0.0165026
646.192	0.0163795
646.271	0.0164294
646.349	0.0163600
646.427	0.0164533
646.505	0.0165533
646.583	0.0164234
646.661	0.0164904
646.739	0.0165184
646.817	0.0165111
646.896	0.0165073
646.974	0.0164356
647.052	0.0162219
647.130	0.0163083
647.208	0.0164455
647.286	0.0164645
647.364	0.0163757
647.442	0.0162859
647.521	0.0164022
647.599	0.0164098
647.677	0.0163930
647.755	0.0163293
647.833	0.0163789
647.911	0.0163708
647.989	0.0165357
648.067	0.0164036
648.146	0.0164869
648.224	0.0163361
648.302	0.0164767
648.380	0.0165587
648.458	0.0163524
648.536	0.0163871
648.614	0.0165808
648.692	0.0164051
648.771	0.0164294
648.849	0.0163765
648.927	0.0163985
649.005	0.0163618
649.083	0.0164822
649.161	0.0164352
649.239	0.0163194
649.317	0.0164302
649.396	0.0165783
649.474	0.0165942
649.552	0.0163425
649.630	0.0163564
649.708	0.0164598
649.786	0.0164156
649.864	0.0164773
649.942	0.0164379
650.021	0.0163350
650.099	0.0164790
650.177	0.0164643
650.255	0.0164752
650.333	0.0165367
650.411	0.0164311
650.489	0.0164344
650.567	0.0163074
650.646	0.0165527
650.724	0.0164919
650.802	0.0164137
650.880	0.0163259
650.958	0.0162902
651.036	0.0165282
651.114	0.0164391
651.192	0.0163993
651.271	0.0164793
651.349	0.0161630
651.427	0.0164085
651.505	0.0164075
651.583	0.0163825
651.661	0.0163776
651.739	0.0163872
651.817	0.0163681
651.896	0.0162787
651.974	0.0164819
652.052	0.0165279
652.130	0.0163898
652.208	0.0164736
652.286	0.0163145
652.364	0.0165128
652.442	0.0165535
652.521	0.0165467
652.599	0.0165513
652.677	0.0164750
652.755	0.0164904
652.833	0.0165044
652.911	0.0164703
652.989	0.0163087
653.067	0.0164158
653.146	0.0165246
653.224	0.0165695
653.302	0.0165166
653.380	0.0164140
653.458	0.0164045
653.536	0.0165009
653.614	0.0164189
653.692	0.0163992
653.771	0.0164142
653.849	0.0164967
653.927	0.0165117
654.005	0.0164421
654.083	0.0163764
654.161	0.0164962
654.239	0.0163802
654.317	0.0163222
654.396	0.0165480
654.474	0.0163457
654.552	0.0164179
654.630	0.0164170
654.708	0.0163641
654.786	0.0163351
654.864	0.0163370
654.942	0.0163980
655.021	0.0163537
655.099	0.0163928
655.177	0.0164091
655.255	0.0165454
655.333	0.0163514
655.411	0.0164925
655.489	0.0164214
655.567	0.0164606
655.646	0.0164619
655.724	0.0163725
655.802	0.0165163
655.880	0.0164583
655.958	0.0166035
656.036	0.0164891
656.114	0.0164941
656.192	0.0165198
656.271	0.0165684
656.349	0.0165497
656.427	0.0163649
656.505	0.0165878
656.583	0.0165014
656.661	0.0164740
656.739	0.0165458
656.817	0.0164611
656.896	0.0163725
656.974	0.0164131
657.052	0.0165279
657.130	0.0165000
657.208	0.0165964
657.286	0.0165810
657.364	0.0164606
657.442	0.0165221
657.521	0.0163934
657.599	0.0165330
657.677	0.0164490
657.755	0.0164713
657.833	0.0164698
657.911	0.0163521
657.989	0.0164529
658.067	0.0163374
658.146	0.0163289
658.224	0.0165002
658.302	0.0163583
658.380	0.0165112
658.458	0.0164931
658.536	0.0165369
658.614	0.0164747
658.692	0.0165421
658.771	0.0163798
658.849	0.0163666
658.927	0.0164867
659.005	0.0164938
659.083	0.0162557
659.161	0.0164078
659.239	0.0165195
659.317	0.0164291
659.396	0.0163548
659.474	0.0164911
659.552	0.0163649
659.630	0.0163734
659.708	0.0164106
659.786	0.0163216
659.864	0.0164125
659.942	0.0165527
660.021	0.0163722
660.099	0.0163716
660.177	0.0163992
660.255	0.0164874
660.333	0.0164346
660.411	0.0164277
660.489	0.0165838
660.567	0.0164774
660.646	0.0164710
660.724	0.0164654
660.802	0.0164559
660.880	0.0164570
660.958	0.0163203
661.036	0.0163393
661.114	0.0164250
661.192	0.0166027
661.271	0.0164415
661.349	0.0164080
661.427	0.0163905
661.505	0.0165112
661.583	0.0164661
661.661	0.0164076
661.739	0.0164774
661.817	0.0166119
661.896	0.0165293
661.974	0.0164626
662.052	0.0163500
662.130	0.0165034
662.208	0.0165186
662.286	0.0163667
662.364	0.0163863
662.442	0.0165021
662.521	0.0165961
662.599	0.0164063
662.677	0.0164814
662.755	0.0164896
662.833	0.0165828
662.911	0.0166197
662.989	0.0164536
663.067	0.0162975
663.146	0.0164182
663.224	0.0165911
663.302	0.0164535
663.380	0.0165174
663.458	0.0165205
663.536	0.0163313
663.614	0.0165157
663.692	0.0164506
663.771	0.0163921
663.849	0.0164301
663.927	0.0164190
664.005	0.0163867
664.083	0.0164811
664.161	0.0165343
664.239	0.0165882
664.317	0.0163992
664.396	0.0164078
664.474	0.0164692
664.552	0.0165041
664.630	0.0164330
664.708	0.0164945
664.786	0.0164498
664.864	0.0164323
664.942	0.0163237
665.021	0.0163395
665.099	0.0164088
665.177	0.0164342
665.255	0.0164988
665.333	0.0163551
665.411	0.0164427
665.489	0.0163875
665.567	0.0164194
665.646	0.0163988
665.724	0.0163861
665.802	0.0164951
665.880	0.0163971
665.958	0.0164813
666.036	0.0164617
666.114	0.0164122
666.192	0.0164467
666.271	0.0163170
666.349	0.0164443
666.427	0.0164356
666.505	0.0165161
666.583	0.0162852
666.661	0.0163643
666.739	0.0162903
666.817	0.0162662
666.896	0.0161880
666.974	0.0161818
667.052	0.0164011
667.130	0.0163161
667.208	0.0163962
667.286	0.0163474
667.364	0.0163307
667.442	0.0165622
667.521	0.0165219
667.599	0.0166333
667.677	0.0166637
667.755	0.0165677
667.833	0.0167961
667.911	0.0166473
667.989	0.0163882
668.067	0.0163820
668.146	0.0164156
668.224	0.0161957
668.302	0.0162369
668.380	0.0161259
668.458	0.0162520
668.536	0.0162218
668.614	0.0163062
668.692	0.0163602
668.771	0.0164059
668.849	0.0166177
668.927	0.0166501
669.005	0.0168131
669.083	0.0168126
669.161	0.0168752
669.239	0.0167800
669.317	0.0168357
669.396	0.0168420
669.474	0.0165897
669.552	0.0164153
669.630	0.0162871
669.708	0.0162458
669.786	0.0159812
669.864	0.0158319
669.942	0.0160417
670.021	0.0160480
670.099	0.0159512
670.177	0.0161601
670.255	0.0164162
670.333	0.0166851
670.411	0.0165681
670.489	0.0169299
670.567	0.0169907
670.646	0.0169550
670.724	0.0169745
670.802	0.0167976
670.880	0.0165703
670.958	0.0167202
671.036	0.0163103
671.114	0.0161230
671.192	0.0160378
671.271	0.0158748
671.349	0.0159205
671.427	0.0160331
671.505	0.0161138
671.583	0.0162193
671.661	0.0162867
671.739	0.0162502
671.817	0.0164027
671.896	0.0165513
671.974	0.0165693
672.052	0.0168000
672.130	0.0167052
672.208	0.0166756
672.286	0.0168176
672.364	0.0167084
672.442	0.0167457
672.521	0.0167667
672.599	0.0165642
672.677	0.0164287
672.755	0.0164698
672.833	0.0163035
672.911	0.0161970
672.989	0.0161124
673.067	0.0161961
673.146	0.0163672
673.224	0.0162717
673.302	0.0163085
673.380	0.0163624
673.458	0.0164527
673.536	0.0166151
673.614	0.0167315
673.692	0.0168220
673.771	0.0167281
673.849	0.0165923
673.927	0.0166264
674.005	0.0166283
674.083	0.0165685
674.161	0.0165480
674.239	0.0163387
674.317	0.0162276
674.396	0.0163835
674.474	0.0163586
674.552	0.0162510
674.630	0.0164961
674.708	0.0165440
674.786	0.0164904
674.864	0.0165663
674.942	0.0165049
675.021	0.0166003
675.099	0.0164071
675.177	0.0164780
675.255	0.0164017
675.333	0.0163523
675.411	0.0162152
675.489	0.0161935
675.567	0.0162458
675.646	0.0161561
675.724	0.0162855
675.802	0.0165495
675.880	0.0164962
675.958	0.0166137
676.036	0.0166497
676.114	0.0168261
676.192	0.0167224
676.271	0.0166850
676.349	0.0166003
676.427	0.0165082
676.505	0.0164379
676.583	0.0163515
676.661	0.0162234
676.739	0.0161260
676.817	0.0161384
676.896	0.0160673
676.974	0.0161584
677.052	0.0162103
677.130	0.0162139
677.208	0.0164056
677.286	0.0165376
677.364	0.0166458
677.442	0.0166530
677.521	0.0166634
677.599	0.0167196
677.677	0.0166974
677.755	0.0167127
677.833	0.0165414
677.911	0.0164458
677.989	0.0164211
678.067	0.0163600
678.146	0.0163783
678.224	0.0162080
678.302	0.0162508
678.380	0.0161092
678.458	0.0161528
678.536	0.0161717
678.614	0.0162029
678.692	0.0164370
678.771	0.0165030
678.849	0.0165604
678.927	0.0165678
679.005	0.0165240
679.083	0.0164291
679.161	0.0164793
679.239	0.0166537
679.317	0.0166452
679.396	0.0163969
679.474	0.0164019
679.552	0.0164178
679.630	0.0164149
679.708	0.0163589
679.786	0.0163341
679.864	0.0162991
679.942	0.0163476
680.021	0.0163737
680.099	0.0164244
680.177	0.0165446
680.255	0.0164692
680.333	0.0164655
680.411	0.0164064
680.489	0.0164468
680.567	0.0164977
680.646	0.0164703
680.724	0.0163203
680.802	0.0162745
680.880	0.0163013
680.958	0.0161793
681.036	0.0163068
681.114	0.0164121
681.192	0.0163053
681.271	0.0164331
681.349	0.0165060
681.427	0.0165357
681.505	0.0164769
681.583	0.0165879
681.661	0.0164443
681.739	0.0165154
681.817	0.0164181
681.896	0.0163849
681.974	0.0163062
682.052	0.0162373
682.130	0.0162896
682.208	0.0161368
682.286	0.0163142
682.364	0.0163329
682.442	0.0163353
682.521	0.0164360
682.599	0.0165079
682.677	0.0165820
682.755	0.0166095
682.833	0.0166319
682.911	0.0166575
682.989	0.0167023
683.067	0.0165575
683.146	0.0165148
683.224	0.0165685
683.302	0.0163871
683.380	0.0163525
683.458	0.0163028
683.536	0.0163040
683.614	0.0163759
683.692	0.0163395
683.771	0.0162590
683.849	0.0162694
683.927	0.0164286
684.005	0.0163582
684.083	0.0166948
684.161	0.0166915
684.239	0.0167355
684.317	0.0165196
684.396	0.0166918
684.474	0.0166879
684.552	0.0166355
684.630	0.0165682
684.708	0.0165606
684.786	0.0163905
684.864	0.0163050
684.942	0.0162064
685.021	0.0163412
685.099	0.0162018
685.177	0.0161243
685.255	0.0160587
685.333	0.0161419
685.411	0.0163248
685.489	0.0164679
685.567	0.0164239
685.646	0.0166708
685.724	0.0164262
685.802	0.0166181
685.880	0.0166814
685.958	0.0166271
686.036	0.0165273
686.114	0.0164066
686.192	0.0165202
686.271	0.0162502
686.349	0.0163350
686.427	0.0161496
686.505	0.0160542
686.583	0.0161484
686.661	0.0162412
686.739	0.0164137
686.817	0.0163551
686.896	0.0164446
686.974	0.0163777
687.052	0.0163194
687.130	0.0164381
687.208	0.0165363
687.286	0.0164799
687.364	0.0165272
687.442	0.0166967
687.521	0.0163919
687.599	0.0164273
687.677	0.0164713
687.755	0.0163410
687.833	0.0162919
687.911	0.0163098
687.989	0.0164293
688.067	0.0164097
688.146	0.0162242
688.224	0.0163372
688.302	0.0163851
688.380	0.0165446
688.458	0.0165414
688.536	0.0165055
688.614	0.0165329
688.692	0.0165431
688.771	0.0164715
688.849	0.0166368
688.927	0.0166077
689.005	0.0166135
689.083	0.0165762
689.161	0.0166236
689.239	0.0166608
689.317	0.0165404
689.396	0.0166433
689.474	0.0164832
689.552	0.0164850
689.630	0.0165366
689.708	0.0165238
689.786	0.0164407
689.864	0.0164442
689.942	0.0165013
690.021	0.0164711
690.099	0.0164552
690.177	0.0163438
690.255	0.0163486
690.333	0.0162642
690.411	0.0163833
690.489	0.0162127
690.567	0.0161468
690.646	0.0162810
690.724	0.0162993
690.802	0.0162547
690.880	0.0163123
690.958	0.0163168
691.036	0.0163622
691.114	0.0164671
691.192	0.0164984
691.271	0.0166309
691.349	0.0165267
691.427	0.0164925
691.505	0.0164495
691.583	0.0163937
691.661	0.0165076
691.739	0.0164225
691.817	0.0163239
691.896	0.0163322
691.974	0.0162800
692.052	0.0163516
692.130	0.0163256
692.208	0.0162503
692.286	0.0163414
692.364	0.0163072
692.442	0.0163922
692.521	0.0163840
692.599	0.0163958
692.677	0.0163972
692.755	0.0165742
692.833	0.0165137
692.911	0.0165314
692.989	0.0164848
693.067	0.0165324
693.146	0.0164765
693.224	0.0165453
693.302	0.0165150
693.380	0.0165839
693.458	0.0166158
693.536	0.0166285
693.614	0.0165388
693.692	0.0165843
693.771	0.0165018
693.849	0.0165022
693.927	0.0166782
694.005	0.0166326
694.083	0.0164761
694.161	0.0165776
694.239	0.0164640
694.317	0.0163715
694.396	0.0163461
694.474	0.0165596
694.552	0.0163900
694.630	0.0162835
694.708	0.0164925
694.786	0.0164037
694.864	0.0163954
694.942	0.0163724
695.021	0.0162324
695.099	0.0164351
695.177	0.0163699
695.255	0.0162675
695.333	0.0162693
695.411	0.0162469
695.489	0.0162280
695.567	0.0162579
695.646	0.0162911
695.724	0.0162372
695.802	0.0161350
695.880	0.0162218
695.958	0.0162376
696.036	0.0161549
696.114	0.0162136
696.192	0.0162447
696.271	0.0162023
696.349	0.0162838
696.427	0.0163049
696.505	0.0163622
696.583	0.0163513
696.661	0.0162502
696.739	0.0163857
696.817	0.0163188
696.896	0.0163988
696.974	0.0163576
697.052	0.0164518
697.130	0.0164651
697.208	0.0163593
697.286	0.0164984
697.364	0.0165541
697.442	0.0165389
697.521	0.0167024
697.599	0.0167416
697.677	0.0167338
697.755	0.0167197
697.833	0.0168662
697.911	0.0169019
697.989	0.0168275
698.067	0.0167720
698.146	0.0167330
698.224	0.0166756
698.302	0.0165659
698.380	0.0164581
698.458	0.0164951
698.536	0.0164226
698.614	0.0164709
698.692	0.0162778
698.771	0.0161716
698.849	0.0163020
698.927	0.0164197
699.005	0.0163324
699.083	0.0162698
699.161	0.0162124
699.239	0.0162876
699.317	0.0162749
699.396	0.0160811
699.474	0.0162460
699.552	0.0160895
699.630	0.0162074
699.708	0.0162700
699.786	0.0161875
699.864	0.0160518
699.942	0.0161906
700.021	0.0162189
700.099	0.0163392
700.177	0.0164122
700.255	0.0164783
700.333	0.0167659
700.411	0.0165679
700.489	0.0166329
700.567	0.0167793
700.646	0.0167094
700.724	0.0168287
700.802	0.0166935
700.880	0.0165267
700.958	0.0164191
701.036	0.0164886
701.114	0.0163260
701.192	0.0161115
701.271	0.0162193
701.349	0.0161092
701.427	0.0160297
701.505	0.0158645
701.583	0.0158769
701.661	0.0159188
701.739	0.0158652
701.817	0.0158868
701.896	0.0159263
701.974	0.0159172
702.052	0.0160471
702.130	0.0161558
702.208	0.0161370
702.286	0.0163111
702.364	0.0162414
702.442	0.0162424
702.521	0.0164540
702.599	0.0163653
702.677	0.0164169
702.755	0.0165110
702.833	0.0164854
702.911	0.0164808
702.989	0.0164636
703.067	0.0165818
703.146	0.0166572
703.224	0.0165041
703.302	0.0165939
703.380	0.0167134
703.458	0.0166820
703.536	0.0166465
703.614	0.0167881
703.692	0.0167660
703.771	0.0168798
703.849	0.0168695
703.927	0.0167698
704.005	0.0167332
704.083	0.0168484
704.161	0.0168393
704.239	0.0167896
704.317	0.0166520
704.396	0.0167965
704.474	0.0168615
704.552	0.0167591
704.630	0.0165398
704.708	0.0164838
704.786	0.0165105
704.864	0.0163622
704.942	0.0162485
705.021	0.0163055
705.099	0.0162914
705.177	0.0161903
705.255	0.0161807
705.333	0.0161663
705.411	0.0160877
705.489	0.0161241
705.567	0.0161956
705.646	0.0162268
705.724	0.0163824
705.802	0.0163331
705.880	0.0162779
705.958	0.0161763
706.036	0.0159970
706.114	0.0161037
706.192	0.0161130
706.271	0.0159514
706.349	0.0160017
706.427	0.0158138
706.505	0.0157639
706.583	0.0158875
706.661	0.0157652
706.739	0.0156524
706.817	0.0157829
706.896	0.0158276
706.974	0.0159184
707.052	0.0159480
707.130	0.0160129
707.208	0.0162754
707.286	0.0164133
707.364	0.0165098
707.442	0.0166290
707.521	0.0167709
707.599	0.0169137
707.677	0.0170045
707.755	0.0170432
707.833	0.0172635
707.911	0.0173446
707.989	0.0172972
708.067	0.0174393
708.146	0.0172906
708.224	0.0172568
708.302	0.0172210
708.380	0.0169942
708.458	0.0168153
708.536	0.0166715
708.614	0.0163586
708.692	0.0161583
708.771	0.0159869
708.849	0.0157687
708.927	0.0155612
709.005	0.0154671
709.083	0.0153682
709.161	0.0154355
709.239	0.0152497
709.317	0.0154461
709.396	0.0153010
709.474	0.0155425
709.552	0.0157536
709.630	0.0158124
709.708	0.0161028
709.786	0.0162209
709.864	0.0165559
709.942	0.0170193
710.021	0.0173631
710.099	0.0176373
710.177	0.0178377
710.255	0.0179614
710.333	0.0182475
710.411	0.0184625
710.489	0.0185739
710.567	0.0184572
710.646	0.0184191
710.724	0.0183456
710.802	0.0182854
710.880	0.0179333
710.958	0.0176760
711.036	0.0173000
711.114	0.0170871
711.192	0.0168480
711.271	0.0165014
711.349	0.0162210
711.427	0.0159151
711.505	0.0155869
711.583	0.0153341
711.661	0.0148071
711.739	0.0147006
711.817	0.0145453
711.896	0.0142780
711.974	0.0142977
712.052	0.0141069
712.130	0.0140705
712.208	0.0142315
712.286	0.0144516
712.364	0.0145576
712.442	0.0147540
712.521	0.0151064
712.599	0.0154556
712.677	0.0157210
712.755	0.0159950
712.833	0.0162377
712.911	0.0164520
712.989	0.0167372
713.067	0.0169363
713.146	0.0170559
713.224	0.0171626
713.302	0.0172560
713.380	0.0172052
713.458	0.0173145
713.536	0.0171788
713.614	0.0171048
713.692	0.0169418
713.771	0.0168120
713.849	0.0166848
713.927	0.0166384
714.005	0.0165550
714.083	0.0165202
714.161	0.0165276
714.239	0.0163630
714.317	0.0164550
714.396	0.0165996
714.474	0.0168051
714.552	0.0169286
714.630	0.0171815
714.708	0.0173004
714.786	0.0175272
714.864	0.0176163
714.942	0.0176662
715.021	0.0177106
715.099	0.0176481
715.177	0.0176591
715.255	0.0174267
715.333	0.0172812
715.411	0.0171509
715.489	0.0170112
715.567	0.0167683
715.646	0.0164477
715.724	0.0163685
715.802	0.0161134
715.880	0.0159205
715.958	0.0156470
716.036	0.0154288
716.114	0.0153453
716.192	0.0152153
716.271	0.0150381
716.349	0.0148264
716.427	0.0149632
716.505	0.0149184
716.583	0.0150144
716.661	0.0150407
716.739	0.0152103
716.817	0.0152811
716.896	0.0155276
716.974	0.0159412
717.052	0.0164182
717.130	0.0166705
717.208	0.0172021
717.286	0.0175719
717.364	0.0181577
717.442	0.0183318
717.521	0.0186650
717.599	0.0188506
717.677	0.0189613
717.755	0.0189513
717.833	0.0188904
717.911	0.0187431
717.989	0.0185459
718.067	0.0182706
718.146	0.0180614
718.224	0.0176438
718.302	0.0173254
718.380	0.0169493
718.458	0.0165022
718.536	0.0160762
718.614	0.0157829
718.692	0.0153613
718.771	0.0151086
718.849	0.0147471
718.927	0.0142542
719.005	0.0140944
719.083	0.0138168
719.161	0.0134570
719.239	0.0133801
719.317	0.0133372
719.396	0.0133423
719.474	0.0136488
719.552	0.0137255
719.630	0.0140528
719.708	0.0140080
719.786	0.0143225
719.864	0.0145940
719.942	0.0148869
720.021	0.0151378
720.099	0.0151558
720.177	0.0155424
720.255	0.0158237
720.333	0.0159702
720.411	0.0161771
720.489	0.0165441
720.567	0.0164309
720.646	0.0167418
720.724	0.0172580
720.802	0.0173917
720.880	0.0176974
720.958	0.0179926
721.036	0.0183794
721.114	0.0186120
721.192	0.0188236
721.271	0.0192092
721.349	0.0195766
721.427	0.0196091
721.505	0.0197979
721.583	0.0198818
721.661	0.0196938
721.739	0.0196651
721.817	0.0196253
721.896	0.0193988
721.974	0.0192576
722.052	0.0188239
722.130	0.0183733
722.208	0.0179317
722.286	0.0174667
722.364	0.0170233
722.442	0.0164400
722.521	0.0158267
722.599	0.0152050
722.677	0.0148016
722.755	0.0142254
722.833	0.0137505
722.911	0.0132313
722.989	0.0130312
723.067	0.0128150
723.146	0.0125414
723.224	0.0126282
723.302	0.0128140
723.380	0.0128605
723.458	0.0130474
723.536	0.0134944
723.614	0.0138039
723.692	0.0142651
723.771	0.0148852
723.849	0.0153546
723.927	0.0158957
724.005	0.0164751
724.083	0.0171024
724.161	0.0176336
724.239	0.0181081
724.317	0.0185763
724.396	0.0190462
724.474	0.0193388
724.552	0.0196966
724.630	0.0198001
724.708	0.0200829
724.786	0.0200946
724.864	0.0198811
724.942	0.0196651
725.021	0.0194767
725.099	0.0191382
725.177	0.0187609
725.255	0.0181306
725.333	0.0177010
725.411	0.0171795
725.489	0.0167353
725.567	0.0163821
725.646	0.0156436
725.724	0.0151804
725.802	0.0148221
725.880	0.0144050
725.958	0.0140886
726.036	0.0137671
726.114	0.0134785
726.192	0.0131747
726.271	0.0130875
726.349	0.0129163
726.427	0.0129942
726.505	0.0128893
726.583	0.0128074
726.661	0.0128734
726.739	0.0129945
726.817	0.0131567
726.896	0.0133245
726.974	0.0134011
727.052	0.0135741
727.130	0.0137853
727.208	0.0140168
727.286	0.0141682
727.364	0.0144746
727.442	0.0147062
727.521	0.0149976
727.599	0.0155547
727.677	0.0159405
727.755	0.0164632
727.833	0.0171059
727.911	0.0175927
727.989	0.0180113
728.067	0.0187468
728.146	0.0192272
728.224	0.0198066
728.302	0.0204217
728.380	0.0208340
728.458	0.0209886
728.536	0.0213746
728.614	0.0216995
728.692	0.0218486
728.771	0.0217885
728.849	0.0217350
728.927	0.0215516
729.005	0.0212750
729.083	0.0209139
729.161	0.0205045
729.239	0.0198890
729.317	0.0192353
729.396	0.0184326
729.474	0.0178014
729.552	0.0171114
729.630	0.0163732
729.708	0.0157814
729.786	0.0152109
729.864	0.0146191
729.942	0.0140671
730.021	0.0137063
730.099	0.0135696
730.177	0.0134115
730.255	0.0131756
730.333	0.0129746
730.411	0.0129424
730.489	0.0128984
730.567	0.0131791
730.646	0.0132383
730.724	0.0135455
730.802	0.0139164
730.880	0.0141907
730.958	0.0145988
731.036	0.0150302
731.114	0.0156213
731.192	0.0159998
731.271	0.0163908
731.349	0.0167856
731.427	0.0170500
731.505	0.0171209
731.583	0.0173819
731.661	0.0173552
731.739	0.0173637
731.817	0.0172225
731.896	0.0170715
731.974	0.0167268
732.052	0.0164894
732.130	0.0164240
732.208	0.0162500
732.286	0.0160356
732.364	0.0158720
732.442	0.0157704
732.521	0.0157271
732.599	0.0155534
732.677	0.0156926
732.755	0.0156649
732.833	0.0155452
732.911	0.0154973
732.989	0.0156918
733.067	0.0155676
733.146	0.0154079
733.224	0.0151944
733.302	0.0152499
733.380	0.0155503
733.458	0.0153329
733.536	0.0152044
733.614	0.0152191
733.692	0.0154549
733.771	0.0153721
733.849	0.0155578
733.927	0.0156778
734.005	0.0157050
734.083	0.0159096
734.161	0.0158916
734.239	0.0162805
734.317	0.0165022
734.396	0.0166604
734.474	0.0169597
734.552	0.0171999
734.630	0.0174934
734.708	0.0177917
734.786	0.0179591
734.864	0.0184834
734.942	0.0187151
735.021	0.0189550
735.099	0.0191608
735.177	0.0194638
735.255	0.0196426
735.333	0.0197221
735.411	0.0197691
735.489	0.0196971
735.567	0.0196377
735.646	0.0195057
735.724	0.0193189
735.802	0.0189602
735.880	0.0188062
735.958	0.0183423
736.036	0.0179797
736.114	0.0175367
736.192	0.0170988
736.271	0.0166245
736.349	0.0162740
736.427	0.0158848
736.505	0.0155343
736.583	0.0150014
736.661	0.0146552
736.739	0.0143401
736.817	0.0139447
736.896	0.0136383
736.974	0.0134650
737.052	0.0133113
737.130	0.0134378
737.208	0.0135665
737.286	0.0135908
737.364	0.0137917
737.442	0.0142073
737.521	0.0145615
737.599	0.0150957
737.677	0.0154591
737.755	0.0158182
737.833	0.0163250
737.911	0.0166479
737.989	0.0169324
738.067	0.0172356
738.146	0.0176505
738.224	0.0178939
738.302	0.0180486
738.380	0.0182790
738.458	0.0184422
738.536	0.0185839
738.614	0.0186793
738.692	0.0187065
738.771	0.0187545
738.849	0.0185911
738.927	0.0185524
739.005	0.0181817
739.083	0.0179401
739.161	0.0174650
739.239	0.0170695
739.317	0.0166937
739.396	0.0161693
739.474	0.0155206
739.552	0.0149617
739.630	0.0143426
739.708	0.0139572
739.786	0.0135189
739.864	0.0131261
739.942	0.0128233
740.021	0.0124469
740.099	0.0123010
740.177	0.0121954
740.255	0.0122070
740.333	0.0122385
740.411	0.0125684
740.489	0.0126556
740.567	0.0130569
740.646	0.0133163
740.724	0.0139383
740.802	0.0143683
740.880	0.0148499
740.958	0.0153543
741.036	0.0157141
741.114	0.0163116
741.192	0.0166422
741.271	0.0171265
741.349	0.0176532
741.427	0.0182503
741.505	0.0185479
741.583	0.0190464
741.661	0.0194531
741.739	0.0197237
741.817	0.0199321
741.896	0.0201602
741.974	0.0201701
742.052	0.0201886
742.130	0.0201543
742.208	0.0199594
742.286	0.0197224
742.364	0.0194495
742.442	0.0191109
742.521	0.0187359
742.599	0.0183569
742.677	0.0180083
742.755	0.0178072
742.833	0.0173158
742.911	0.0170252
742.989	0.0169662
743.067	0.0168597
743.146	0.0167896
743.224	0.0167027
743.302	0.0165502
743.380	0.0165389
743.458	0.0164767
743.536	0.0165611
743.614	0.0166470
743.692	0.0168540
743.771	0.0170566
743.849	0.0172918
743.927	0.0175700
744.005	0.0177160
744.083	0.0178741
744.161	0.0180975
744.239	0.0182478
744.317	0.0182224
744.396	0.0183141
744.474	0.0181396
744.552	0.0179694
744.630	0.0178489
744.708	0.0173576
744.786	0.0170357
744.864	0.0166132
744.942	0.0161846
745.021	0.0158755
745.099	0.0153276
745.177	0.0148777
745.255	0.0144895
745.333	0.0141130
745.411	0.0137146
745.489	0.0134623
745.567	0.0131017
745.646	0.0128377
745.724	0.0126759
745.802	0.0124698
745.880	0.0121460
745.958	0.0120473
746.036	0.0117207
746.114	0.0116673
746.192	0.0115211
746.271	0.0113628
746.349	0.0113087
746.427	0.0113183
746.505	0.0114037
746.583	0.0116009
746.661	0.0119269
746.739	0.0123174
746.817	0.0126619
746.896	0.0131131
746.974	0.0139019
747.052	0.0144137
747.130	0.0151043
747.208	0.0158006
747.286	0.0165056
747.364	0.0169845
747.442	0.0177459
747.521	0.0184108
747.599	0.0190392
747.677	0.0195490
747.755	0.0200206
747.833	0.0202482
747.911	0.0206340
747.989	0.0207598
748.067	0.0210220
748.146	0.0209998
748.224	0.0207364
748.302	0.0207169
748.380	0.0205550
748.458	0.0203668
748.536	0.0200819
748.614	0.0197860
748.692	0.0195148
748.771	0.0192648
748.849	0.0192235
748.927	0.0191096
749.005	0.0188373
749.083	0.0186868
749.161	0.0186476
749.239	0.0184465
749.317	0.0181814
749.396	0.0181746
749.474	0.0180682
749.552	0.0178417
749.630	0.0176038
749.708	0.0175439
749.786	0.0173158
749.864	0.0173430
749.942	0.0172016
750.021	0.0172126
750.099	0.0172301
750.177	0.0173479
750.255	0.0173740
750.333	0.0173221
750.411	0.0172568
750.489	0.0173954
750.567	0.0171628
750.646	0.0167914
750.724	0.0166828
750.802	0.0163320
750.880	0.0161175
750.958	0.0156237
751.036	0.0152800
751.114	0.0148457
751.192	0.0146112
751.271	0.0141354
751.349	0.0138443
751.427	0.0135389
751.505	0.0133672
751.583	0.0132977
751.661	0.0131538
751.739	0.0129696
751.817	0.0131103
751.896	0.0130077
751.974	0.0130328
752.052	0.0130872
752.130	0.0130664
752.208	0.0131107
752.286	0.0132079
752.364	0.0132317
752.442	0.0132149
752.521	0.0132565
752.599	0.0133516
752.677	0.0135098
752.755	0.0137035
752.833	0.0137674
752.911	0.0139576
752.989	0.0141555
753.067	0.0144369
753.146	0.0147919
753.224	0.0150433
753.302	0.0153069
753.380	0.0157570
753.458	0.0162500
753.536	0.0165337
753.614	0.0171264
753.692	0.0174690
753.771	0.0179073
753.849	0.0184077
753.927	0.0185970
754.005	0.0188884
754.083	0.0191883
754.161	0.0192783
754.239	0.0194185
754.317	0.0193462
754.396	0.0193555
754.474	0.0193470
754.552	0.0189342
754.630	0.0188561
754.708	0.0185693
754.786	0.0182400
754.864	0.0183031
754.942	0.0180825
755.021	0.0179396
755.099	0.0179330
755.177	0.0177895
755.255	0.0178272
755.333	0.0178272
755.411	0.0177012
755.489	0.0177547
755.567	0.0178445
755.646	0.0179513
755.724	0.0180534
755.802	0.0181058
755.880	0.0181528
755.958	0.0182285
756.036	0.0182691
756.114	0.0185088
756.192	0.0184700
756.271	0.0183457
756.349	0.0183207
756.427	0.0184416
756.505	0.0183459
756.583	0.0180094
756.661	0.0177062
756.739	0.0175053
756.817	0.0169169
756.896	0.0166682
756.974	0.0160973
757.052	0.0158704
757.130	0.0154350
757.208	0.0149338
757.286	0.0146107
757.364	0.0143246
757.442	0.0141946
757.521	0.0138712
757.599	0.0139551
757.677	0.0139831
757.755	0.0137406
757.833	0.0137603
757.911	0.0139161
757.989	0.0138435
758.067	0.0138762
758.146	0.0137830
758.224	0.0138272
758.302	0.0140766
758.380	0.0140261
758.458	0.0139802
758.536	0.0142150
758.614	0.0143757
758.692	0.0145054
758.771	0.0146693
758.849	0.0147169
758.927	0.0150260
759.005	0.0148740
759.083	0.0151114
759.161	0.0154340
759.239	0.0158068
759.317	0.0157467
759.396	0.0160742
759.474	0.0165216
759.552	0.0166161
759.630	0.0169662
759.708	0.0171493
759.786	0.0173068
759.864	0.0174662
759.942	0.0175272
760.021	0.0177138
760.099	0.0176479
760.177	0.0175605
760.255	0.0174686
760.333	0.0174911
760.411	0.0174708
760.489	0.0173273
760.567	0.0172694
760.646	0.0174223
760.724	0.0171863
760.802	0.0171790
760.880	0.0173215
760.958	0.0174976
761.036	0.0176013
761.114	0.0175458
761.192	0.0176656
761.271	0.0175410
761.349	0.0175158
761.427	0.0174959
761.505	0.0175803
761.583	0.0174731
761.661	0.0174012
761.739	0.0171792
761.817	0.0172320
761.896	0.0171626
761.974	0.0172371
762.052	0.0173056
762.130	0.0171329
762.208	0.0171500
762.286	0.0173651
762.364	0.0173428
762.442	0.0173740
762.521	0.0173601
762.599	0.0173060
762.677	0.0171985
762.755	0.0171218
762.833	0.0169205
762.911	0.0167142
762.989	0.0165968
763.067	0.0163479
763.146	0.0161534
763.224	0.0158196
763.302	0.0156033
763.380	0.0155813
763.458	0.0155304
763.536	0.0151529
763.614	0.0149733
763.692	0.0150308
763.771	0.0147189
763.849	0.0149599
763.927	0.0149843
764.005	0.0149515
764.083	0.0148218
764.161	0.0150993
764.239	0.0151950
764.317	0.0152753
764.396	0.0153749
764.474	0.0155996
764.552	0.0157167
764.630	0.0159167
764.708	0.0160498
764.786	0.0162105
764.864	0.0162128
764.942	0.0161085
765.021	0.0162033
765.099	0.0164280
765.177	0.0164622
765.255	0.0165369
765.333	0.0164690
765.411	0.0164938
765.489	0.0165129
765.567	0.0166144
765.646	0.0165889
765.724	0.0165830
765.802	0.0166884
765.880	0.0166708
765.958	0.0166478
766.036	0.0166542
766.114	0.0164687
766.192	0.0165661
766.271	0.0164944
766.349	0.0163737
766.427	0.0163965
766.505	0.0163421
766.583	0.0163395
766.661	0.0162888
766.739	0.0164574
766.817	0.0164808
766.896	0.0165170
766.974	0.0167015
767.052	0.0167553
767.130	0.0168440
767.208	0.0169442
767.286	0.0171060
767.364	0.0170904
767.442	0.0171680
767.521	0.0172988
767.599	0.0173119
767.677	0.0174443
767.755	0.0172815
767.833	0.0171586
767.911	0.0174239
767.989	0.0171841
768.067	0.0172157
768.146	0.0170762
768.224	0.0170995
768.302	0.0167694
768.380	0.0167548
768.458	0.0167170
768.536	0.0166464
768.614	0.0163050
768.692	0.0162129
768.771	0.0159208
768.849	0.0157481
768.927	0.0156155
769.005	0.0156525
769.083	0.0155084
769.161	0.0153716
769.239	0.0151795
769.317	0.0151591
769.396	0.0151843
769.474	0.0150817
769.552	0.0151453
769.630	0.0152408
769.708	0.0152501
769.786	0.0153720
769.864	0.0154948
769.942	0.0155749
770.021	0.0157763
770.099	0.0158364
770.177	0.0159276
770.255	0.0162162
770.333	0.0163787
770.411	0.0165058
770.489	0.0167604
770.567	0.0166761
770.646	0.0168091
770.724	0.0168400
770.802	0.0170280
770.880	0.0170615
770.958	0.0168916
771.036	0.0169062
771.114	0.0168689
771.192	0.0170415
771.271	0.0167165
771.349	0.0168169
771.427	0.0168133
771.505	0.0168086
771.583	0.0167954
771.661	0.0169292
771.739	0.0169270
771.817	0.0168545
771.896	0.0169505
771.974	0.0168672
772.052	0.0167572
772.130	0.0166660
772.208	0.0167307
772.286	0.0165388
772.364	0.0164413
772.442	0.0164936
772.521	0.0165238
772.599	0.0165154
772.677	0.0164915
772.755	0.0164439
772.833	0.0164993
772.911	0.0166383
772.989	0.0167261
773.067	0.0168622
773.146	0.0169025
773.224	0.0170487
773.302	0.0170505
773.380	0.0171093
773.458	0.0171620
773.536	0.0171302
773.614	0.0169836
773.692	0.0170942
773.771	0.0171281
773.849	0.0171318
773.927	0.0170892
774.005	0.0169775
774.083	0.0168861
774.161	0.0167571
774.239	0.0166920
774.317	0.0165352
774.396	0.0163541
774.474	0.0163893
774.552	0.0161480
774.630	0.0160416
774.708	0.0157794
774.786	0.0155868
774.864	0.0154674
774.942	0.0153683
775.021	0.0152103
775.099	0.0152139
775.177	0.0151901
775.255	0.0150059
775.333	0.0149719
775.411	0.0152340
775.489	0.0150836
775.567	0.0152187
775.646	0.0153596
775.724	0.0153576
775.802	0.0154943
775.880	0.0157771
775.958	0.0156293
776.036	0.0159142
776.114	0.0161957
776.192	0.0162617
776.271	0.0163919
776.349	0.0164057
776.427	0.0167090
776.505	0.0165550
776.583	0.0167848
776.661	0.0168754
776.739	0.0168673
776.817	0.0169086
776.896	0.0168301
776.974	0.0167435
777.052	0.0167542
777.130	0.0167161
777.208	0.0165173
777.286	0.0165823
777.364	0.0164910
777.442	0.0163060
777.521	0.0161539
777.599	0.0162474
777.677	0.0162120
777.755	0.0162163
777.833	0.0161576
777.911	0.0159917
777.989	0.0159805
778.067	0.0162003
778.146	0.0160735
778.224	0.0162257
778.302	0.0162276
778.380	0.0165759
778.458	0.0166131
778.536	0.0167973
778.614	0.0171582
778.692	0.0171564
778.771	0.0174173
778.849	0.0174861
778.927	0.0176649
779.005	0.0177679
779.083	0.0179476
779.161	0.0180314
779.239	0.0180643
779.317	0.0179556
779.396	0.0180023
779.474	0.0178258
779.552	0.0177502
779.630	0.0177031
779.708	0.0174432
779.786	0.0174001
779.864	0.0172215
779.942	0.0169415
780.021	0.0170223
780.099	0.0166489
780.177	0.0164455
780.255	0.0163500
780.333	0.0163232
780.411	0.0159653
780.489	0.0158768
780.567	0.0158706
780.646	0.0155502
780.724	0.0155638
780.802	0.0152753
780.880	0.0150817
780.958	0.0150728
781.036	0.0151816
781.114	0.0152040
781.192	0.0151553
781.271	0.0151019
781.349	0.0152185
781.427	0.0153499
781.505	0.0153426
781.583	0.0155008
781.661	0.0154549
781.739	0.0154739
781.817	0.0155103
781.896	0.0158261
781.974	0.0159638
782.052	0.0159823
782.130	0.0160951
782.208	0.0161567
782.286	0.0163752
782.364	0.0165562
782.442	0.0165079
782.521	0.0166214
782.599	0.0167702
782.677	0.0165891
782.755	0.0168913
782.833	0.0167979
782.911	0.0169001
782.989	0.0168789
783.067	0.0168436
783.146	0.0167051
783.224	0.0166365
783.302	0.0163924
783.380	0.0164600
783.458	0.0164124
783.536	0.0162904
783.614	0.0162251
783.692	0.0159815
783.771	0.0159799
783.849	0.0160326
783.927	0.0158024
784.005	0.0158321
784.083	0.0156960
784.161	0.0157920
784.239	0.0159615
784.317	0.0158936
784.396	0.0159824
784.474	0.0160237
784.552	0.0160831
784.630	0.0161960
784.708	0.0163533
784.786	0.0165641
784.864	0.0165855
784.942	0.0167972
785.021	0.0168774
785.099	0.0169737
785.177	0.0174071
785.255	0.0172708
785.333	0.0173251
785.411	0.0174370
785.489	0.0174698
785.567	0.0175040
785.646	0.0174502
785.724	0.0174289
785.802	0.0174348
785.880	0.0173447
785.958	0.0172176
786.036	0.0169394
786.114	0.0169372
786.192	0.0166797
786.271	0.0165813
786.349	0.0165253
786.427	0.0162017
786.505	0.0160509
786.583	0.0161492
786.661	0.0161317
786.739	0.0159103
786.817	0.0160654
786.896	0.0158573
786.974	0.0157919
787.052	0.0158548
787.130	0.0159747
787.208	0.0161578
787.286	0.0160718
787.364	0.0161770
787.442	0.0162161
787.521	0.0162529
787.599	0.0162540
787.677	0.0163596
787.755	0.0163516
787.833	0.0163207
787.911	0.0163489
787.989	0.0165096
788.067	0.0163769
788.146	0.0164703
788.224	0.0164656
788.302	0.0164848
788.380	0.0165095
788.458	0.0165157
788.536	0.0165936
788.614	0.0164330
788.692	0.0163427
788.771	0.0164437
788.849	0.0163636
788.927	0.0163838
789.005	0.0163503
789.083	0.0161211
789.161	0.0163067
789.239	0.0163035
789.317	0.0161333
789.396	0.0159947
789.474	0.0160133
789.552	0.0159757
789.630	0.0157977
789.708	0.0158389
789.786	0.0157680
789.864	0.0157317
789.942	0.0157279
790.021	0.0157041
790.099	0.0158168
790.177	0.0157522
790.255	0.0158405
790.333	0.0160166
790.411	0.0161396
790.489	0.0162264
790.567	0.0164842
790.646	0.0164568
790.724	0.0167064
790.802	0.0167468
790.880	0.0167842
790.958	0.0170682
791.036	0.0170704
791.114	0.0170557
791.192	0.0170352
791.271	0.0170108
791.349	0.0170255
791.427	0.0169241
791.505	0.0169256
791.583	0.0169069
791.661	0.0167081
791.739	0.0165803
791.817	0.0166889
791.896	0.0165662
791.974	0.0164126
792.052	0.0162675
792.130	0.0162598
792.208	0.0162231
792.286	0.0162131
792.364	0.0160930
792.442	0.0160138
792.521	0.0161203
792.599	0.0159274
792.677	0.0160418
792.755	0.0160235
792.833	0.0162891
792.911	0.0160805
792.989	0.0162936
793.067	0.0161955
793.146	0.0162540
793.224	0.0165475
793.302	0.0164549
793.380	0.0166173
793.458	0.0166842
793.536	0.0168262
793.614	0.0169497
793.692	0.0168000
793.771	0.0168624
793.849	0.0168562
793.927	0.0169618
794.005	0.0170007
794.083	0.0167916
794.161	0.0169115
794.239	0.0168800
794.317	0.0167004
794.396	0.0167883
794.474	0.0168062
794.552	0.0168052
794.630	0.0167263
794.708	0.0166695
794.786	0.0167475
794.864	0.0166258
794.942	0.0166334
795.021	0.0165457
795.099	0.0164065
795.177	0.0164559
795.255	0.0162723
795.333	0.0159978
795.411	0.0159838
795.489	0.0160827
795.567	0.0160145
795.646	0.0159420
795.724	0.0159259
795.802	0.0158443
795.880	0.0157961
795.958	0.0158802
796.036	0.0158287
796.114	0.0158188
796.192	0.0159309
796.271	0.0159560
796.349	0.0160207
796.427	0.0159712
796.505	0.0161131
796.583	0.0163352
796.661	0.0163275
796.739	0.0165481
796.817	0.0165662
796.896	0.0166006
796.974	0.0167651
797.052	0.0167021
797.130	0.0166953
797.208	0.0168250
797.286	0.0168513
797.364	0.0169163
797.442	0.0168982
797.521	0.0169221
797.599	0.0166799
797.677	0.0166971
797.755	0.0167788
797.833	0.0165807
797.911	0.0164255
797.989	0.0165491
798.067	0.0164114
798.146	0.0163569
798.224	0.0161695
798.302	0.0161166
798.380	0.0161185
798.458	0.0159498
798.536	0.0158632
798.614	0.0159544
798.692	0.0159100
798.771	0.0159090
798.849	0.0158701
798.927	0.0160149
799.005	0.0159751
799.083	0.0161368
799.161	0.0162585
799.239	0.0162387
799.317	0.0164742
799.396	0.0163783
799.474	0.0165183
799.552	0.0164141
799.630	0.0165830
799.708	0.0167345
799.786	0.0164642
799.864	0.0166581
799.942	0.0169189
800.021	0.0167239
800.099	0.0166814
800.177	0.0167688
800.255	0.0169176
800.333	0.0167798
800.411	0.0167645
800.489	0.0169770
800.567	0.0169221
800.646	0.0168668
800.724	0.0167766
800.802	0.0166391
800.880	0.0166975
800.958	0.0168415
801.036	0.0166439
801.114	0.0166347
801.192	0.0167279
801.271	0.0165993
801.349	0.0166184
801.427	0.0165070
801.505	0.0163937
801.583	0.0163853
801.661	0.0163705
801.739	0.0162314
801.817	0.0163063
801.896	0.0162762
801.974	0.0162762
802.052	0.0162630
802.130	0.0162103
802.208	0.0162133
802.286	0.0161720
802.364	0.0161532
802.442	0.0160748
802.521	0.0160182
802.599	0.0160938
802.677	0.0162727
802.755	0.0161523
802.833	0.0163039
802.911	0.0163920
802.989	0.0164870
803.067	0.0165259
803.146	0.0165152
803.224	0.0165382
803.302	0.0165803
803.380	0.0167339
803.458	0.0168893
803.536	0.0167799
803.614	0.0167641
803.692	0.0167278
803.771	0.0166941
803.849	0.0166103
803.927	0.0165419
804.005	0.0165690
804.083	0.0163761
804.161	0.0162549
804.239	0.0162518
804.317	0.0162906
804.396	0.0162027
804.474	0.0161288
804.552	0.0159946
804.630	0.0160270
804.708	0.0158176
804.786	0.0160048
804.864	0.0159617
804.942	0.0159467
805.021	0.0159921
805.099	0.0160406
805.177	0.0161109
805.255	0.0160198
805.333	0.0161781
805.411	0.0163390
805.489	0.0164053
805.567	0.0164172
805.646	0.0166119
805.724	0.0165665
805.802	0.0164214
805.880	0.0166805
805.958	0.0166268
806.036	0.0168476
806.114	0.0168764
806.192	0.0167561
806.271	0.0167360
806.349	0.0166574
806.427	0.0167187
806.505	0.0166718
806.583	0.0165791
806.661	0.0164687
806.739	0.0165524
806.817	0.0165031
806.896	0.0164671
806.974	0.0163891
807.052	0.0163729
807.130	0.0164172
807.208	0.0163567
807.286	0.0161994
807.364	0.0161541
807.442	0.0160847
807.521	0.0160393
807.599	0.0159829
807.677	0.0160542
807.755	0.0160022
807.833	0.0160960
807.911	0.0160878
807.989	0.0159911
808.067	0.0161457
808.146	0.0162917
808.224	0.0162649
808.302	0.0161029
808.380	0.0164074
808.458	0.0165136
808.536	0.0164939
808.614	0.0166161
808.692	0.0165916
808.771	0.0166391
808.849	0.0167326
808.927	0.0166545
809.005	0.0166260
809.083	0.0167600
809.161	0.0167223
809.239	0.0167752
809.317	0.0166980
809.396	0.0168558
809.474	0.0168165
809.552	0.0168232
809.630	0.0168093
809.708	0.0166162
809.786	0.0166409
809.864	0.0165730
809.942	0.0164958
810.021	0.0164056
810.099	0.0162845
810.177	0.0165052
810.255	0.0163799
810.333	0.0163871
810.411	0.0162989
810.489	0.0162688
810.567	0.0162656
810.646	0.0161703
810.724	0.0160825
810.802	0.0162363
810.880	0.0161494
810.958	0.0162791
811.036	0.0162861
811.114	0.0163313
811.192	0.0164068
811.271	0.0164291
811.349	0.0163609
811.427	0.0164930
811.505	0.0165453
811.583	0.0165627
811.661	0.0165479
811.739	0.0166329
811.817	0.0165939
811.896	0.0166139
811.974	0.0164719
812.052	0.0165958
812.130	0.0165089
812.208	0.0164230
812.286	0.0163746
812.364	0.0164755
812.442	0.0162909
812.521	0.0160931
812.599	0.0161172
812.677	0.0161365
812.755	0.0160841
812.833	0.0161225
812.911	0.0160871
812.989	0.0159018
813.067	0.0160732
813.146	0.0160822
813.224	0.0160123
813.302	0.0160880
813.380	0.0161033
813.458	0.0160268
813.536	0.0162427
813.614	0.0161105
813.692	0.0161568
813.771	0.0163749
813.849	0.0165858
813.927	0.0164798
814.005	0.0165838
814.083	0.0166406
814.161	0.0164960
814.239	0.0165731
814.317	0.0166003
814.396	0.0168566
814.474	0.0167530
814.552	0.0168841
814.630	0.0168066
814.708	0.0169379
814.786	0.0170289
814.864	0.0169429
814.942	0.0169082
815.021	0.0169425
815.099	0.0167859
815.177	0.0167898
815.255	0.0166127
815.333	0.0166957
815.411	0.0166243
815.489	0.0163767
815.567	0.0164066
815.646	0.0163796
815.724	0.0161381
815.802	0.0160530
815.880	0.0159769
815.958	0.0160754
816.036	0.0159130
816.114	0.0158358
816.192	0.0159381
816.271	0.0159162
816.349	0.0158501
816.427	0.0159212
816.505	0.0158488
816.583	0.0158840
816.661	0.0161166
816.739	0.0159909
816.817	0.0161254
816.896	0.0160750
816.974	0.0161303
817.052	0.0163740
817.130	0.0163245
817.208	0.0166577
817.286	0.0166864
817.364	0.0168946
817.442	0.0168828
817.521	0.0169997
817.599	0.0170541
817.677	0.0172792
817.755	0.0173435
817.833	0.0172988
817.911	0.0172485
817.989	0.0171008
818.067	0.0170985
818.146	0.0169982
818.224	0.0170045
818.302	0.0170023
818.380	0.0168484
818.458	0.0167139
818.536	0.0167076
818.614	0.0164210
818.692	0.0164509
818.771	0.0164371
818.849	0.0163404
818.927	0.0161406
819.005	0.0162336
819.083	0.0160667
819.161	0.0160165
819.239	0.0161238
819.317	0.0160052
819.396	0.0158125
819.474	0.0159151
819.552	0.0160179
819.630	0.0159729
819.708	0.0160229
819.786	0.0160006
819.864	0.0161423
819.942	0.0160561
820.021	0.0161792
820.099	0.0162019
820.177	0.0163161
820.255	0.0163131
820.333	0.0163046
820.411	0.0164253
820.489	0.0164665
820.567	0.0165164
820.646	0.0162630
820.724	0.0164762
820.802	0.0164629
820.880	0.0163251
820.958	0.0163647
821.036	0.0164886
821.114	0.0165299
821.192	0.0162607
821.271	0.0164331
821.349	0.0164947
821.427	0.0164018
821.505	0.0164645
821.583	0.0164637
821.661	0.0164080
821.739	0.0164233
821.817	0.0163481
821.896	0.0165946
821.974	0.0164929
822.052	0.0163985
822.130	0.0163582
822.208	0.0164320
822.286	0.0164818
822.364	0.0163879
822.442	0.0163840
822.521	0.0162674
822.599	0.0163338
822.677	0.0162992
822.755	0.0162019
822.833	0.0162780
822.911	0.0162329
822.989	0.0162123
823.067	0.0160690
823.146	0.0161659
823.224	0.0161393
823.302	0.0161325
823.380	0.0161567
823.458	0.0160920
823.536	0.0161309
823.614	0.0162126
823.692	0.0161783
823.771	0.0161681
823.849	0.0162914
823.927	0.0164576
824.005	0.0163555
824.083	0.0164341
824.161	0.0163299
824.239	0.0163972
824.317	0.0164567
824.396	0.0164150
824.474	0.0165188
824.552	0.0166532
824.630	0.0162872
824.708	0.0164596
824.786	0.0164685
824.864	0.0165849
824.942	0.0164702
825.021	0.0166097
825.099	0.0167049
825.177	0.0165420
825.255	0.0166846
825.333	0.0167319
825.411	0.0167050
825.489	0.0167377
825.567	0.0168618
825.646	0.0168257
825.724	0.0168605
825.802	0.0169137
825.880	0.0167776
825.958	0.0168778
826.036	0.0168246
826.114	0.0168132
826.192	0.0168542
826.271	0.0167768
826.349	0.0168534
826.427	0.0166028
826.505	0.0166378
826.583	0.0167114
826.661	0.0165170
826.739	0.0166154
826.817	0.0163346
826.896	0.0164349
826.974	0.0163947
827.052	0.0163435
827.130	0.0160883
827.208	0.0161202
827.286	0.0160665
827.364	0.0158794
827.442	0.0158849
827.521	0.0159505
827.599	0.0159250
827.677	0.0158204
827.755	0.0158705
827.833	0.0158633
827.911	0.0157584
827.989	0.0158114
828.067	0.0158833
828.146	0.0158006
828.224	0.0158791
828.302	0.0159672
828.380	0.0159168
828.458	0.0159653
828.536	0.0160800
828.614	0.0161231
828.692	0.0162024
828.771	0.0163609
828.849	0.0163634
828.927	0.0163069
829.005	0.0163265
829.083	0.0164932
829.161	0.0166033
829.239	0.0163727
829.317	0.0165412
829.396	0.0165517
829.474	0.0164795
829.552	0.0165932
829.630	0.0165995
829.708	0.0165041
829.786	0.0165330
829.864	0.0166009
829.942	0.0165429
830.021	0.0164981
830.099	0.0165817
830.177	0.0166352
830.255	0.0166293
830.333	0.0167871
830.411	0.0166984
830.489	0.0166694
830.567	0.0166695
830.646	0.0166316
830.724	0.0166857
830.802	0.0166889
830.880	0.0166000
830.958	0.0167327
831.036	0.0166322
831.114	0.0166865
831.192	0.0167275
831.271	0.0167292
831.349	0.0166956
831.427	0.0166837
831.505	0.0165527
831.583	0.0166316
831.661	0.0167566
831.739	0.0167712
831.817	0.0167452
831.896	0.0167673
831.974	0.0166891
832.052	0.0164991
832.130	0.0164054
832.208	0.0165401
832.286	0.0165318
832.364	0.0165256
832.442	0.0163318
832.521	0.0163699
832.599	0.0163161
832.677	0.0162925
832.755	0.0162048
832.833	0.0160960
832.911	0.0161369
832.989	0.0161921
833.067	0.0163104
833.146	0.0161347
833.224	0.0162791
833.302	0.0162498
833.380	0.0161402
833.458	0.0162593
833.536	0.0163593
833.614	0.0163529
833.692	0.0162814
833.771	0.0164211
833.849	0.0165459
833.927	0.0165714
834.005	0.0165205
834.083	0.0164851
834.161	0.0166186
834.239	0.0165461
834.317	0.0165787
834.396	0.0166039
834.474	0.0165978
834.552	0.0165998
834.630	0.0165104
834.708	0.0164603
834.786	0.0164661
834.864	0.0163292
834.942	0.0164414
835.021	0.0164703
835.099	0.0163561
835.177	0.0161613
835.255	0.0162047
835.333	0.0162504
835.411	0.0161346
835.489	0.0161263
835.567	0.0162625
835.646	0.0162779
835.724	0.0161818
835.802	0.0161324
835.880	0.0162009
835.958	0.0161897
836.036	0.0163375
836.114	0.0163499
836.192	0.0163657
836.271	0.0164665
836.349	0.0164165
836.427	0.0163255
836.505	0.0163370
836.583	0.0162722
836.661	0.0164255
836.739	0.0163152
836.817	0.0161414
836.896	0.0161919
836.974	0.0163030
837.052	0.0161696
837.130	0.0160134
837.208	0.0160688
837.286	0.0162358
837.364	0.0161251
837.442	0.0161453
837.521	0.0161539
837.599	0.0162551
837.677	0.0163488
837.755	0.0163618
837.833	0.0163627
837.911	0.0164960
837.989	0.0166672
838.067	0.0166976
838.146	0.0166933
838.224	0.0167191
838.302	0.0167957
838.380	0.0169072
838.458	0.0168767
838.536	0.0169411
838.614	0.0169599
838.692	0.0167155
838.771	0.0168248
838.849	0.0169312
838.927	0.0168587
839.005	0.0167631
839.083	0.0166550
839.161	0.0167580
839.239	0.0166296
839.317	0.0166460
839.396	0.0165690
839.474	0.0164334
839.552	0.0163819
839.630	0.0164729
839.708	0.0163076
839.786	0.0163332
839.864	0.0164713
839.942	0.0162669
840.021	0.0162455
840.099	0.0163933
840.177	0.0163068
840.255	0.0163907
840.333	0.0165021
840.411	0.0164444
840.489	0.0165144
840.567	0.0164366
840.646	0.0165349
840.724	0.0164794
840.802	0.0164828
840.880	0.0163793
840.958	0.0164646
841.036	0.0163316
841.114	0.0163532
841.192	0.0162637
841.271	0.0161475
841.349	0.0162349
841.427	0.0161564
841.505	0.0161465
841.583	0.0160004
841.661	0.0159293
841.739	0.0159311
841.817	0.0160407
841.896	0.0158958
841.974	0.0158767
842.052	0.0159628
842.130	0.0158556
842.208	0.0158007
842.286	0.0159219
842.364	0.0160128
842.442	0.0159800
842.521	0.0160600
842.599	0.0161750
842.677	0.0162449
842.755	0.0162114
842.833	0.0161619
842.911	0.0163482
842.989	0.0163052
843.067	0.0165096
843.146	0.0163609
843.224	0.0163128
843.302	0.0162872
843.380	0.0162384
843.458	0.0164182
843.536	0.0163178
843.614	0.0163274
843.692	0.0164141
843.771	0.0163939
843.849	0.0163735
843.927	0.0164853
844.005	0.0165419
844.083	0.0165427
844.161	0.0165744
844.239	0.0166530
844.317	0.0168712
844.396	0.0167323
844.474	0.0168298
844.552	0.0169167
844.630	0.0169640
844.708	0.0170602
844.786	0.0171371
844.864	0.0169892
844.942	0.0171276
845.021	0.0171412
845.099	0.0169411
845.177	0.0169247
845.255	0.0169037
845.333	0.0170411
845.411	0.0168954
845.489	0.0167619
845.567	0.0167762
845.646	0.0167110
845.724	0.0168911
845.802	0.0166224
845.880	0.0167390
845.958	0.0166064
846.036	0.0165804
846.114	0.0164201
846.192	0.0163278
846.271	0.0164653
846.349	0.0164421
846.427	0.0163246
846.505	0.0163033
846.583	0.0163529
846.661	0.0163351
846.739	0.0163055
846.817	0.0162730
846.896	0.0163055
846.974	0.0163406
847.052	0.0162189
847.130	0.0162558
847.208	0.0163299
847.286	0.0163198
847.364	0.0162788
847.442	0.0162825
847.521	0.0162424
847.599	0.0162187
847.677	0.0162925
847.755	0.0162054
847.833	0.0161684
847.911	0.0161075
847.989	0.0160638
848.067	0.0160067
848.146	0.0158134
848.224	0.0159778
848.302	0.0159858
848.380	0.0159470
848.458	0.0159986
848.536	0.0159827
848.614	0.0159770
848.692	0.0159334
848.771	0.0159559
848.849	0.0160082
848.927	0.0159397
849.005	0.0158961
849.083	0.0157883
849.161	0.0159659
849.239	0.0160987
849.317	0.0160484
849.396	0.0159877
849.474	0.0160613
849.552	0.0161587
849.630	0.0161915
849.708	0.0162701
849.786	0.0163146
849.864	0.0164021
849.942	0.0165945
850.021	0.0166254
850.099	0.0163817
850.177	0.0165865
850.255	0.0167066
850.333	0.0168372
850.411	0.0168768
850.489	0.0168858
850.567	0.0170727
850.646	0.0169563
850.724	0.0171806
850.802	0.0171384
850.880	0.0171809
850.958	0.0171798
851.036	0.0171077
851.114	0.0171424
851.192	0.0171225
851.271	0.0171864
851.349	0.0172081
851.427	0.0170644
851.505	0.0169685
851.583	0.0170094
851.661	0.0169603
851.739	0.0169927
851.817	0.0169534
851.896	0.0167970
851.974	0.0166847
852.052	0.0167076
852.130	0.0166922
852.208	0.0167141
852.286	0.0164796
852.364	0.0165243
852.442	0.0165816
852.521	0.0164483
852.599	0.0165079
852.677	0.0164149
852.755	0.0163384
852.833	0.0162326
852.911	0.0163456
852.989	0.0162196
853.067	0.0161659
853.146	0.0160343
853.224	0.0160197
853.302	0.0160921
853.380	0.0160096
853.458	0.0159337
853.536	0.0159211
853.614	0.0159708
853.692	0.0160374
853.771	0.0161349
853.849	0.0160313
853.927	0.0162054
854.005	0.0161468
854.083	0.0161735
854.161	0.0160036
854.239	0.0160872
854.317	0.0161664
854.396	0.0162458
854.474	0.0162025
854.552	0.0162634
854.630	0.0161429
854.708	0.0161927
854.786	0.0162392
854.864	0.0161317
854.942	0.0159781
855.021	0.0161186
855.099	0.0161204
855.177	0.0160065
855.255	0.0160953
855.333	0.0160552
855.411	0.0161118
855.489	0.0161481
855.567	0.0161214
855.646	0.0160715
855.724	0.0161087
855.802	0.0162843
855.880	0.0162255
855.958	0.0161662
856.036	0.0162705
856.114	0.0163966
856.192	0.0163623
856.271	0.0165352
856.349	0.0165378
856.427	0.0165485
856.505	0.0165408
856.583	0.0166955
856.661	0.0167596
856.739	0.0167366
856.817	0.0166171
856.896	0.0167133
856.974	0.0169228
857.052	0.0167658
857.130	0.0167106
857.208	0.0166253
857.286	0.0168513
857.364	0.0167642
857.442	0.0166454
857.521	0.0166811
857.599	0.0167233
857.677	0.0167339
857.755	0.0166990
857.833	0.0166844
857.911	0.0167178
857.989	0.0166340
858.067	0.0165440
858.146	0.0165636
858.224	0.0165924
858.302	0.0163909
858.380	0.0166095
858.458	0.0164951
858.536	0.0164408
858.614	0.0165901
858.692	0.0165037
858.771	0.0165056
858.849	0.0164329
858.927	0.0164172
859.005	0.0163540
859.083	0.0164069
859.161	0.0164725
859.239	0.0163822
859.317	0.0163122
859.396	0.0162709
859.474	0.0160362
859.552	0.0161658
859.630	0.0161713
859.708	0.0160695
859.786	0.0160623
859.864	0.0161783
859.942	0.0159009
860.021	0.0159289
860.099	0.0160255
860.177	0.0158893
860.255	0.0159903
860.333	0.0160003
860.411	0.0159810
860.489	0.0160661
860.567	0.0160406
860.646	0.0160577
860.724	0.0161839
860.802	0.0162223
860.880	0.0162196
860.958	0.0163901
861.036	0.0163590
861.114	0.0163602
861.192	0.0162357
861.271	0.0164228
861.349	0.0164125
861.427	0.0164233
861.505	0.0163461
861.583	0.0164097
861.661	0.0163702
861.739	0.0164920
861.817	0.0164366
861.896	0.0167037
861.974	0.0164852
862.052	0.0165219
862.130	0.0166240
862.208	0.0166299
862.286	0.0165388
862.364	0.0165408
862.442	0.0166330
862.521	0.0164158
862.599	0.0165214
862.677	0.0165010
862.755	0.0165839
862.833	0.0164755
862.911	0.0164688
862.989	0.0164685
863.067	0.0165408
863.146	0.0164174
863.224	0.0165585
863.302	0.0165482
863.380	0.0165254
863.458	0.0163457
863.536	0.0163165
863.614	0.0164835
863.692	0.0164089
863.771	0.0164577
863.849	0.0164570
863.927	0.0164790
864.005	0.0164259
864.083	0.0163701
864.161	0.0165340
864.239	0.0164246
864.317	0.0164244
864.396	0.0163695
864.474	0.0164096
864.552	0.0165820
864.630	0.0166995
864.708	0.0164542
864.786	0.0164861
864.864	0.0166077
864.942	0.0165788
865.021	0.0166160
865.099	0.0167036
865.177	0.0165189
865.255	0.0166420
865.333	0.0166693
865.411	0.0165389
865.489	0.0164760
865.567	0.0164722
865.646	0.0166695
865.724	0.0165109
865.802	0.0163341
865.880	0.0163871
865.958	0.0163203
866.036	0.0163630
866.114	0.0162498
866.192	0.0163303
866.271	0.0163527
866.349	0.0162470
866.427	0.0163627
866.505	0.0162275
866.583	0.0163786
866.661	0.0161837
866.739	0.0161613
866.817	0.0162233
866.896	0.0161494
866.974	0.0161017
867.052	0.0161022
867.130	0.0160159
867.208	0.0160966
867.286	0.0162576
867.364	0.0163555
867.442	0.0162101
867.521	0.0162753
867.599	0.0164079
867.677	0.0164618
867.755	0.0164025
867.833	0.0163832
867.911	0.0164008
867.989	0.0164688
868.067	0.0165854
868.146	0.0165310
868.224	0.0165502
868.302	0.0164573
868.380	0.0167040
868.458	0.0166172
868.536	0.0164012
868.614	0.0165404
868.692	0.0165146
868.771	0.0165866
868.849	0.0165007
868.927	0.0165166
869.005	0.0164666
869.083	0.0163788
869.161	0.0163310
869.239	0.0164953
869.317	0.0165591
869.396	0.0165075
869.474	0.0164045
869.552	0.0165377
869.630	0.0164909
869.708	0.0163068
869.786	0.0164215
869.864	0.0164228
869.942	0.0162938
