06/03/2022	15:50:26	Ver.	4.1	UNKNOWN
Optical Delay	550.020508	Delta X		0.078125	Sweeps	1	Scan Rate	0/0
Coordinates	Axis 1	NaN	Axis 2	NaN	Axis 3	NaN	Axis 4	NaN	Axis 5	NaN	Axis 6	0.000000
TX Power	0.000000	RX Power	0.000000

550.021	0.0162923
550.099	0.0162418
550.177	0.0161295
550.255	0.0162749
550.333	0.0161830
550.411	0.0162057
550.489	0.0161653
550.567	0.0162384
550.646	0.0161637
550.724	0.0160432
550.802	0.0162701
550.880	0.0162696
550.958	0.0162282
551.036	0.0161308
551.114	0.0161539
551.192	0.0161931
551.271	0.0161662
551.349	0.0162132
551.427	0.0160964
551.505	0.0161308
551.583	0.0162040
551.661	0.0162319
551.739	0.0161211
551.817	0.0162764
551.896	0.0162186
551.974	0.0161485
552.052	0.0161023
552.130	0.0161355
552.208	0.0160271
552.286	0.0161355
552.364	0.0161227
552.442	0.0161512
552.521	0.0161647
552.599	0.0160288
552.677	0.0161967
552.755	0.0160518
552.833	0.0160671
552.911	0.0161818
552.989	0.0162399
553.067	0.0163019
553.146	0.0161679
553.224	0.0161488
553.302	0.0162086
553.380	0.0162327
553.458	0.0160681
553.536	0.0163560
553.614	0.0162288
553.692	0.0160515
553.771	0.0162697
553.849	0.0162891
553.927	0.0162949
554.005	0.0162211
554.083	0.0161887
554.161	0.0163280
554.239	0.0162595
554.317	0.0163024
554.396	0.0162547
554.474	0.0162874
554.552	0.0162352
554.630	0.0162975
554.708	0.0162046
554.786	0.0161790
554.864	0.0162054
554.942	0.0160772
555.021	0.0160975
555.099	0.0162737
555.177	0.0161411
555.255	0.0162424
555.333	0.0162753
555.411	0.0162017
555.489	0.0161864
555.567	0.0163057
555.646	0.0162618
555.724	0.0161774
555.802	0.0162254
555.880	0.0162193
555.958	0.0162435
556.036	0.0162784
556.114	0.0162459
556.192	0.0161467
556.271	0.0161550
556.349	0.0161726
556.427	0.0161787
556.505	0.0160826
556.583	0.0160743
556.661	0.0163266
556.739	0.0162659
556.817	0.0161500
556.896	0.0164632
556.974	0.0161320
557.052	0.0161714
557.130	0.0162315
557.208	0.0163068
557.286	0.0162471
557.364	0.0162378
557.442	0.0161293
557.521	0.0161891
557.599	0.0161548
557.677	0.0162084
557.755	0.0160812
557.833	0.0160867
557.911	0.0163105
557.989	0.0162929
558.067	0.0163014
558.146	0.0162254
558.224	0.0160833
558.302	0.0161090
558.380	0.0161701
558.458	0.0161597
558.536	0.0162064
558.614	0.0161113
558.692	0.0162981
558.771	0.0162766
558.849	0.0162503
558.927	0.0162640
559.005	0.0161172
559.083	0.0162785
559.161	0.0162850
559.239	0.0162310
559.317	0.0163599
559.396	0.0162138
559.474	0.0161427
559.552	0.0162041
559.630	0.0163173
559.708	0.0164240
559.786	0.0164498
559.864	0.0161970
559.942	0.0162002
560.021	0.0161999
560.099	0.0163394
560.177	0.0163788
560.255	0.0164757
560.333	0.0162759
560.411	0.0162046
560.489	0.0162334
560.567	0.0163410
560.646	0.0162551
560.724	0.0161117
560.802	0.0163196
560.880	0.0165382
560.958	0.0163651
561.036	0.0163457
561.114	0.0163297
561.192	0.0162895
561.271	0.0163661
561.349	0.0162456
561.427	0.0165057
561.505	0.0164745
561.583	0.0164278
561.661	0.0162970
561.739	0.0164049
561.817	0.0163533
561.896	0.0164976
561.974	0.0165364
562.052	0.0163168
562.130	0.0163065
562.208	0.0164368
562.286	0.0164049
562.364	0.0164519
562.442	0.0163787
562.521	0.0163865
562.599	0.0163062
562.677	0.0162431
562.755	0.0163428
562.833	0.0162782
562.911	0.0164091
562.989	0.0163290
563.067	0.0164079
563.146	0.0164588
563.224	0.0163457
563.302	0.0162697
563.380	0.0163298
563.458	0.0163398
563.536	0.0162341
563.614	0.0162743
563.692	0.0164034
563.771	0.0162862
563.849	0.0165142
563.927	0.0162865
564.005	0.0162398
564.083	0.0163356
564.161	0.0164259
564.239	0.0163442
564.317	0.0162852
564.396	0.0162363
564.474	0.0162150
564.552	0.0163677
564.630	0.0162963
564.708	0.0162801
564.786	0.0162574
564.864	0.0161761
564.942	0.0162550
565.021	0.0162516
565.099	0.0162763
565.177	0.0161398
565.255	0.0162553
565.333	0.0162426
565.411	0.0161885
565.489	0.0162149
565.567	0.0163016
565.646	0.0161563
565.724	0.0162377
565.802	0.0161484
565.880	0.0162795
565.958	0.0161356
566.036	0.0162338
566.114	0.0161365
566.192	0.0162996
566.271	0.0163731
566.349	0.0161330
566.427	0.0162437
566.505	0.0162862
566.583	0.0163692
566.661	0.0162115
566.739	0.0162735
566.817	0.0162442
566.896	0.0161491
566.974	0.0163045
567.052	0.0161494
567.130	0.0162520
567.208	0.0164436
567.286	0.0163020
567.364	0.0162636
567.442	0.0162931
567.521	0.0163207
567.599	0.0162352
567.677	0.0162752
567.755	0.0162639
567.833	0.0163017
567.911	0.0162862
567.989	0.0163343
568.067	0.0163544
568.146	0.0162152
568.224	0.0162985
568.302	0.0161945
568.380	0.0162531
568.458	0.0162339
568.536	0.0163276
568.614	0.0162653
568.692	0.0163387
568.771	0.0163050
568.849	0.0163723
568.927	0.0163105
569.005	0.0163771
569.083	0.0163849
569.161	0.0162363
569.239	0.0161588
569.317	0.0162859
569.396	0.0162672
569.474	0.0162440
569.552	0.0163219
569.630	0.0162670
569.708	0.0162089
569.786	0.0162366
569.864	0.0162415
569.942	0.0163045
570.021	0.0162266
570.099	0.0163886
570.177	0.0163586
570.255	0.0162658
570.333	0.0162042
570.411	0.0161766
570.489	0.0161883
570.567	0.0163450
570.646	0.0162222
570.724	0.0163218
570.802	0.0162283
570.880	0.0163142
570.958	0.0163244
571.036	0.0163224
571.114	0.0162500
571.192	0.0163003
571.271	0.0162431
571.349	0.0162569
571.427	0.0161617
571.505	0.0162198
571.583	0.0161554
571.661	0.0162269
571.739	0.0162058
571.817	0.0162370
571.896	0.0162922
571.974	0.0162930
572.052	0.0162110
572.130	0.0161584
572.208	0.0163386
572.286	0.0161125
572.364	0.0163406
572.442	0.0163122
572.521	0.0161001
572.599	0.0162476
572.677	0.0161515
572.755	0.0162625
572.833	0.0162123
572.911	0.0162930
572.989	0.0160916
573.067	0.0162585
573.146	0.0163372
573.224	0.0162788
573.302	0.0161523
573.380	0.0162366
573.458	0.0162778
573.536	0.0163084
573.614	0.0161662
573.692	0.0162112
573.771	0.0163827
573.849	0.0163048
573.927	0.0161263
574.005	0.0162154
574.083	0.0162447
574.161	0.0161767
574.239	0.0162470
574.317	0.0161856
574.396	0.0161463
574.474	0.0161580
574.552	0.0162500
574.630	0.0162307
574.708	0.0163168
574.786	0.0161702
574.864	0.0162840
574.942	0.0162326
575.021	0.0163710
575.099	0.0161410
575.177	0.0163551
575.255	0.0163148
575.333	0.0161066
575.411	0.0162668
575.489	0.0163898
575.567	0.0163463
575.646	0.0162472
575.724	0.0161177
575.802	0.0161276
575.880	0.0163022
575.958	0.0162556
576.036	0.0162489
576.114	0.0160696
576.192	0.0162253
576.271	0.0162495
576.349	0.0161451
576.427	0.0161796
576.505	0.0161483
576.583	0.0163125
576.661	0.0162917
576.739	0.0161049
576.817	0.0162032
576.896	0.0161632
576.974	0.0162537
577.052	0.0162498
577.130	0.0162702
577.208	0.0162999
577.286	0.0162472
577.364	0.0159948
577.442	0.0160402
577.521	0.0160797
577.599	0.0160327
577.677	0.0162099
577.755	0.0162434
577.833	0.0163347
577.911	0.0163480
577.989	0.0160852
578.067	0.0161831
578.146	0.0161836
578.224	0.0162101
578.302	0.0161784
578.380	0.0162585
578.458	0.0162103
578.536	0.0162678
578.614	0.0162791
578.692	0.0161729
578.771	0.0161884
578.849	0.0162011
578.927	0.0162033
579.005	0.0163500
579.083	0.0161333
579.161	0.0159829
579.239	0.0161259
579.317	0.0162342
579.396	0.0162369
579.474	0.0162180
579.552	0.0162203
579.630	0.0162030
579.708	0.0162016
579.786	0.0163065
579.864	0.0161291
579.942	0.0162321
580.021	0.0162053
580.099	0.0160870
580.177	0.0161034
580.255	0.0161838
580.333	0.0161554
580.411	0.0162556
580.489	0.0161742
580.567	0.0161732
580.646	0.0162260
580.724	0.0160993
580.802	0.0161754
580.880	0.0162929
580.958	0.0161469
581.036	0.0162936
581.114	0.0163214
581.192	0.0162339
581.271	0.0163155
581.349	0.0163286
581.427	0.0162448
581.505	0.0162955
581.583	0.0162463
581.661	0.0162119
581.739	0.0161730
581.817	0.0164162
581.896	0.0162238
581.974	0.0163255
582.052	0.0162286
582.130	0.0162681
582.208	0.0163088
582.286	0.0162415
582.364	0.0163197
582.442	0.0163088
582.521	0.0162251
582.599	0.0161766
582.677	0.0163013
582.755	0.0162152
582.833	0.0162785
582.911	0.0163033
582.989	0.0162601
583.067	0.0163152
583.146	0.0162888
583.224	0.0162560
583.302	0.0161971
583.380	0.0161971
583.458	0.0163085
583.536	0.0164287
583.614	0.0162943
583.692	0.0163040
583.771	0.0163055
583.849	0.0162784
583.927	0.0163799
584.005	0.0163208
584.083	0.0163003
584.161	0.0162575
584.239	0.0161200
584.317	0.0162847
584.396	0.0163589
584.474	0.0164162
584.552	0.0161993
584.630	0.0162727
584.708	0.0163557
584.786	0.0163074
584.864	0.0162338
584.942	0.0162618
585.021	0.0162081
585.099	0.0163886
585.177	0.0162991
585.255	0.0163112
585.333	0.0161132
585.411	0.0162524
585.489	0.0163563
585.567	0.0163757
585.646	0.0163310
585.724	0.0164095
585.802	0.0163422
585.880	0.0161385
585.958	0.0162648
586.036	0.0163119
586.114	0.0162370
586.192	0.0162921
586.271	0.0162209
586.349	0.0162238
586.427	0.0161826
586.505	0.0162270
586.583	0.0162703
586.661	0.0163102
586.739	0.0161857
586.817	0.0162740
586.896	0.0161568
586.974	0.0161647
587.052	0.0161865
587.130	0.0163312
587.208	0.0163398
587.286	0.0161880
587.364	0.0162082
587.442	0.0162994
587.521	0.0162090
587.599	0.0162253
587.677	0.0161550
587.755	0.0163158
587.833	0.0162743
587.911	0.0161562
587.989	0.0161430
588.067	0.0163156
588.146	0.0163383
588.224	0.0161999
588.302	0.0160369
588.380	0.0162223
588.458	0.0162408
588.536	0.0162622
588.614	0.0162025
588.692	0.0163295
588.771	0.0163021
588.849	0.0163313
588.927	0.0163266
589.005	0.0163417
589.083	0.0163114
589.161	0.0162559
589.239	0.0163863
589.317	0.0162868
589.396	0.0163534
589.474	0.0162909
589.552	0.0163156
589.630	0.0163228
589.708	0.0163160
589.786	0.0164831
589.864	0.0162745
589.942	0.0162376
590.021	0.0163467
590.099	0.0162849
590.177	0.0163237
590.255	0.0164208
590.333	0.0162239
590.411	0.0162636
590.489	0.0162806
590.567	0.0163672
590.646	0.0163074
590.724	0.0163557
590.802	0.0163254
590.880	0.0164166
590.958	0.0163334
591.036	0.0164412
591.114	0.0162692
591.192	0.0162900
591.271	0.0163337
591.349	0.0163643
591.427	0.0163087
591.505	0.0161705
591.583	0.0164766
591.661	0.0163702
591.739	0.0162484
591.817	0.0162941
591.896	0.0163065
591.974	0.0161589
592.052	0.0163163
592.130	0.0163768
592.208	0.0162590
592.286	0.0162387
592.364	0.0163194
592.442	0.0162932
592.521	0.0162569
592.599	0.0163808
592.677	0.0162361
592.755	0.0163110
592.833	0.0162814
592.911	0.0163354
592.989	0.0162942
593.067	0.0162807
593.146	0.0162627
593.224	0.0163461
593.302	0.0162988
593.380	0.0162188
593.458	0.0161803
593.536	0.0164503
593.614	0.0163506
593.692	0.0163172
593.771	0.0163367
593.849	0.0162246
593.927	0.0164856
594.005	0.0163570
594.083	0.0162786
594.161	0.0162241
594.239	0.0162701
594.317	0.0163469
594.396	0.0162732
594.474	0.0163231
594.552	0.0162852
594.630	0.0163191
594.708	0.0161446
594.786	0.0162466
594.864	0.0162060
594.942	0.0162376
595.021	0.0161023
595.099	0.0161887
595.177	0.0162027
595.255	0.0162456
595.333	0.0161987
595.411	0.0161530
595.489	0.0161711
595.567	0.0164079
595.646	0.0160499
595.724	0.0160988
595.802	0.0161746
595.880	0.0160509
595.958	0.0163337
596.036	0.0162157
596.114	0.0162550
596.192	0.0161464
596.271	0.0162334
596.349	0.0162204
596.427	0.0162827
596.505	0.0161665
596.583	0.0162257
596.661	0.0162672
596.739	0.0161864
596.817	0.0162621
596.896	0.0162387
596.974	0.0162910
597.052	0.0162560
597.130	0.0163602
597.208	0.0162169
597.286	0.0161896
597.364	0.0162451
597.442	0.0162767
597.521	0.0161460
597.599	0.0161842
597.677	0.0161478
597.755	0.0162512
597.833	0.0162080
597.911	0.0162308
597.989	0.0161185
598.067	0.0161342
598.146	0.0161041
598.224	0.0161128
598.302	0.0163257
598.380	0.0161597
598.458	0.0161552
598.536	0.0161795
598.614	0.0161812
598.692	0.0161629
598.771	0.0162373
598.849	0.0162959
598.927	0.0161611
599.005	0.0161566
599.083	0.0160320
599.161	0.0160936
599.239	0.0161424
599.317	0.0162833
599.396	0.0162041
599.474	0.0160397
599.552	0.0161746
599.630	0.0161359
599.708	0.0162342
599.786	0.0160664
599.864	0.0161715
599.942	0.0162475
600.021	0.0164514
600.099	0.0162646
600.177	0.0161874
600.255	0.0161215
600.333	0.0162694
600.411	0.0162444
600.489	0.0161970
600.567	0.0162540
600.646	0.0163241
600.724	0.0162144
600.802	0.0162820
600.880	0.0161641
600.958	0.0161919
601.036	0.0162134
601.114	0.0161900
601.192	0.0163366
601.271	0.0163215
601.349	0.0161036
601.427	0.0161792
601.505	0.0163364
601.583	0.0161480
601.661	0.0161703
601.739	0.0161764
601.817	0.0161827
601.896	0.0162535
601.974	0.0161936
602.052	0.0161709
602.130	0.0162158
602.208	0.0162423
602.286	0.0161564
602.364	0.0162510
602.442	0.0162611
602.521	0.0162083
602.599	0.0162667
602.677	0.0162949
602.755	0.0161591
602.833	0.0160899
602.911	0.0162155
602.989	0.0162289
603.067	0.0162768
603.146	0.0163100
603.224	0.0162350
603.302	0.0161158
603.380	0.0162042
603.458	0.0161030
603.536	0.0163786
603.614	0.0164005
603.692	0.0162292
603.771	0.0161522
603.849	0.0162505
603.927	0.0162148
604.005	0.0162193
604.083	0.0162617
604.161	0.0162885
604.239	0.0162630
604.317	0.0163109
604.396	0.0163649
604.474	0.0163738
604.552	0.0162432
604.630	0.0164637
604.708	0.0163786
604.786	0.0162510
604.864	0.0162566
604.942	0.0162315
605.021	0.0162629
605.099	0.0163094
605.177	0.0163334
605.255	0.0163035
605.333	0.0162585
605.411	0.0162676
605.489	0.0163382
605.567	0.0163098
605.646	0.0162807
605.724	0.0162025
605.802	0.0161703
605.880	0.0163058
605.958	0.0162704
606.036	0.0162102
606.114	0.0161308
606.192	0.0162186
606.271	0.0161690
606.349	0.0161021
606.427	0.0161201
606.505	0.0161340
606.583	0.0161420
606.661	0.0161356
606.739	0.0161163
606.817	0.0162202
606.896	0.0161584
606.974	0.0161826
607.052	0.0162910
607.130	0.0161689
607.208	0.0162727
607.286	0.0161183
607.364	0.0162244
607.442	0.0161743
607.521	0.0162072
607.599	0.0163708
607.677	0.0162315
607.755	0.0161055
607.833	0.0162377
607.911	0.0161951
607.989	0.0163541
608.067	0.0162453
608.146	0.0161870
608.224	0.0161938
608.302	0.0162560
608.380	0.0161437
608.458	0.0161568
608.536	0.0163311
608.614	0.0163519
608.692	0.0162547
608.771	0.0162917
608.849	0.0161777
608.927	0.0161463
609.005	0.0162819
609.083	0.0163094
609.161	0.0162457
609.239	0.0161685
609.317	0.0162547
609.396	0.0162029
609.474	0.0162553
609.552	0.0162027
609.630	0.0162973
609.708	0.0162119
609.786	0.0161361
609.864	0.0162585
609.942	0.0162315
610.021	0.0161934
610.099	0.0163097
610.177	0.0160725
610.255	0.0162685
610.333	0.0164114
610.411	0.0162063
610.489	0.0163130
610.567	0.0162373
610.646	0.0163065
610.724	0.0162616
610.802	0.0161728
610.880	0.0162070
610.958	0.0162859
611.036	0.0163836
611.114	0.0163319
611.192	0.0162511
611.271	0.0163020
611.349	0.0162936
611.427	0.0163432
611.505	0.0162119
611.583	0.0162269
611.661	0.0163473
611.739	0.0162828
611.817	0.0164439
611.896	0.0163701
611.974	0.0162698
612.052	0.0163185
612.130	0.0163000
612.208	0.0162527
612.286	0.0162560
612.364	0.0162666
612.442	0.0162531
612.521	0.0162897
612.599	0.0162817
612.677	0.0162309
612.755	0.0162660
612.833	0.0163432
612.911	0.0163342
612.989	0.0161963
613.067	0.0163334
613.146	0.0162091
613.224	0.0163509
613.302	0.0163670
613.380	0.0162862
613.458	0.0163649
613.536	0.0161579
613.614	0.0163280
613.692	0.0163021
613.771	0.0162101
613.849	0.0162114
613.927	0.0163092
614.005	0.0163552
614.083	0.0163403
614.161	0.0162641
614.239	0.0162673
614.317	0.0162031
614.396	0.0162685
614.474	0.0162442
614.552	0.0162719
614.630	0.0161395
614.708	0.0163658
614.786	0.0164761
614.864	0.0161449
614.942	0.0161304
615.021	0.0161454
615.099	0.0163087
615.177	0.0163482
615.255	0.0162800
615.333	0.0161477
615.411	0.0161849
615.489	0.0161565
615.567	0.0160481
615.646	0.0163049
615.724	0.0161855
615.802	0.0163583
615.880	0.0162651
615.958	0.0161315
616.036	0.0162075
616.114	0.0162463
616.192	0.0162767
616.271	0.0162827
616.349	0.0162383
616.427	0.0162766
616.505	0.0161392
616.583	0.0162792
616.661	0.0161810
616.739	0.0162664
616.817	0.0162564
616.896	0.0162450
616.974	0.0162842
617.052	0.0162801
617.130	0.0163009
617.208	0.0160706
617.286	0.0162418
617.364	0.0162746
617.442	0.0161056
617.521	0.0163568
617.599	0.0163166
617.677	0.0162975
617.755	0.0161697
617.833	0.0162885
617.911	0.0162671
617.989	0.0163338
618.067	0.0162677
618.146	0.0161998
618.224	0.0162374
618.302	0.0163683
618.380	0.0162736
618.458	0.0163813
618.536	0.0162145
618.614	0.0162276
618.692	0.0162107
618.771	0.0163746
618.849	0.0162848
618.927	0.0162749
619.005	0.0161153
619.083	0.0163007
619.161	0.0162442
619.239	0.0162094
619.317	0.0162724
619.396	0.0160309
619.474	0.0162069
619.552	0.0162753
619.630	0.0162054
619.708	0.0162701
619.786	0.0161540
619.864	0.0162843
619.942	0.0162489
620.021	0.0161450
620.099	0.0161713
620.177	0.0164030
620.255	0.0161848
620.333	0.0161706
620.411	0.0163225
620.489	0.0162608
620.567	0.0162778
620.646	0.0161738
620.724	0.0163094
620.802	0.0162304
620.880	0.0163136
620.958	0.0162656
621.036	0.0163187
621.114	0.0162479
621.192	0.0162052
621.271	0.0163483
621.349	0.0162148
621.427	0.0162008
621.505	0.0163512
621.583	0.0163451
621.661	0.0162398
621.739	0.0163382
621.817	0.0162728
621.896	0.0161824
621.974	0.0162125
622.052	0.0162608
622.130	0.0163535
622.208	0.0161954
622.286	0.0161486
622.364	0.0162556
622.442	0.0163395
622.521	0.0163582
622.599	0.0162339
622.677	0.0163599
622.755	0.0162965
622.833	0.0161179
622.911	0.0162602
622.989	0.0162524
623.067	0.0163660
623.146	0.0161565
623.224	0.0162261
623.302	0.0161419
623.380	0.0163495
623.458	0.0162764
623.536	0.0162611
623.614	0.0162739
623.692	0.0162057
623.771	0.0162335
623.849	0.0162480
623.927	0.0162909
624.005	0.0164523
624.083	0.0163128
624.161	0.0162521
624.239	0.0164086
624.317	0.0164180
624.396	0.0162852
624.474	0.0161878
624.552	0.0162099
624.630	0.0164074
624.708	0.0162589
624.786	0.0163761
624.864	0.0162918
624.942	0.0163232
625.021	0.0164056
625.099	0.0163535
625.177	0.0162620
625.255	0.0161785
625.333	0.0163657
625.411	0.0162432
625.489	0.0162669
625.567	0.0162994
625.646	0.0162006
625.724	0.0162711
625.802	0.0163494
625.880	0.0163045
625.958	0.0163277
626.036	0.0162394
626.114	0.0163413
626.192	0.0162723
626.271	0.0163299
626.349	0.0163162
626.427	0.0162630
626.505	0.0162409
626.583	0.0161787
626.661	0.0161600
626.739	0.0161852
626.817	0.0162159
626.896	0.0162144
626.974	0.0162434
627.052	0.0161353
627.130	0.0160860
627.208	0.0163031
627.286	0.0162862
627.364	0.0163025
627.442	0.0162012
627.521	0.0162758
627.599	0.0163326
627.677	0.0163290
627.755	0.0163486
627.833	0.0162129
627.911	0.0162144
627.989	0.0163321
628.067	0.0164137
628.146	0.0163444
628.224	0.0161501
628.302	0.0162550
628.380	0.0163779
628.458	0.0163834
628.536	0.0163508
628.614	0.0162338
628.692	0.0161353
628.771	0.0163114
628.849	0.0162517
628.927	0.0163944
629.005	0.0162762
629.083	0.0161820
629.161	0.0162670
629.239	0.0163382
629.317	0.0163316
629.396	0.0161664
629.474	0.0163084
629.552	0.0163673
629.630	0.0165287
629.708	0.0163020
629.786	0.0163297
629.864	0.0164462
629.942	0.0163027
630.021	0.0162302
630.099	0.0163089
630.177	0.0162011
630.255	0.0162181
630.333	0.0163074
630.411	0.0162686
630.489	0.0161034
630.567	0.0163270
630.646	0.0162436
630.724	0.0162270
630.802	0.0162150
630.880	0.0163818
630.958	0.0162270
631.036	0.0162218
631.114	0.0162313
631.192	0.0163162
631.271	0.0163841
631.349	0.0162180
631.427	0.0163010
631.505	0.0162827
631.583	0.0162091
631.661	0.0162332
631.739	0.0162447
631.817	0.0163011
631.896	0.0163206
631.974	0.0161507
632.052	0.0163667
632.130	0.0161900
632.208	0.0162672
632.286	0.0161923
632.364	0.0162989
632.442	0.0163276
632.521	0.0164035
632.599	0.0162279
632.677	0.0162402
632.755	0.0163034
632.833	0.0163091
632.911	0.0162020
632.989	0.0163500
633.067	0.0162083
633.146	0.0163295
633.224	0.0163953
633.302	0.0162321
633.380	0.0163258
633.458	0.0162623
633.536	0.0163139
633.614	0.0161107
633.692	0.0161748
633.771	0.0163528
633.849	0.0161937
633.927	0.0161431
634.005	0.0164120
634.083	0.0161668
634.161	0.0162663
634.239	0.0161621
634.317	0.0163023
634.396	0.0162856
634.474	0.0163605
634.552	0.0161189
634.630	0.0163010
634.708	0.0163508
634.786	0.0163386
634.864	0.0162795
634.942	0.0162861
635.021	0.0162655
635.099	0.0162424
635.177	0.0163493
635.255	0.0162048
635.333	0.0161763
635.411	0.0163677
635.489	0.0163786
635.567	0.0161990
635.646	0.0162814
635.724	0.0161418
635.802	0.0162331
635.880	0.0162194
635.958	0.0161301
636.036	0.0162457
636.114	0.0163275
636.192	0.0163235
636.271	0.0163237
636.349	0.0163641
636.427	0.0160867
636.505	0.0163306
636.583	0.0161806
636.661	0.0163631
636.739	0.0162413
636.817	0.0161558
636.896	0.0162930
636.974	0.0162971
637.052	0.0162104
637.130	0.0162341
637.208	0.0161769
637.286	0.0162218
637.364	0.0162672
637.442	0.0163213
637.521	0.0163044
637.599	0.0163017
637.677	0.0162978
637.755	0.0162514
637.833	0.0162889
637.911	0.0163381
637.989	0.0161761
638.067	0.0163158
638.146	0.0162392
638.224	0.0160548
638.302	0.0161585
638.380	0.0163235
638.458	0.0163516
638.536	0.0161666
638.614	0.0163737
638.692	0.0162328
638.771	0.0162599
638.849	0.0162518
638.927	0.0162575
639.005	0.0163021
639.083	0.0162362
639.161	0.0162141
639.239	0.0162479
639.317	0.0164555
639.396	0.0163087
639.474	0.0162170
639.552	0.0161742
639.630	0.0162560
639.708	0.0163335
639.786	0.0161564
639.864	0.0161644
639.942	0.0162777
640.021	0.0161533
640.099	0.0162665
640.177	0.0161005
640.255	0.0162762
640.333	0.0162786
640.411	0.0162994
640.489	0.0161430
640.567	0.0162814
640.646	0.0162653
640.724	0.0162486
640.802	0.0163602
640.880	0.0163260
640.958	0.0162448
641.036	0.0163011
641.114	0.0163748
641.192	0.0161598
641.271	0.0163902
641.349	0.0163158
641.427	0.0161745
641.505	0.0160546
641.583	0.0163178
641.661	0.0162751
641.739	0.0161671
641.817	0.0163605
641.896	0.0161907
641.974	0.0161514
642.052	0.0162023
642.130	0.0162723
642.208	0.0162275
642.286	0.0161470
642.364	0.0161270
642.442	0.0161807
642.521	0.0163360
642.599	0.0161636
642.677	0.0162756
642.755	0.0162147
642.833	0.0161117
642.911	0.0161497
642.989	0.0162753
643.067	0.0162055
643.146	0.0162400
643.224	0.0163665
643.302	0.0162943
643.380	0.0161073
643.458	0.0161795
643.536	0.0162454
643.614	0.0164144
643.692	0.0162441
643.771	0.0162349
643.849	0.0161908
643.927	0.0162861
644.005	0.0162399
644.083	0.0162431
644.161	0.0161739
644.239	0.0163960
644.317	0.0163404
644.396	0.0161279
644.474	0.0162404
644.552	0.0162943
644.630	0.0162835
644.708	0.0162093
644.786	0.0162251
644.864	0.0162576
644.942	0.0162578
645.021	0.0162498
645.099	0.0162798
645.177	0.0162470
645.255	0.0161881
645.333	0.0162383
645.411	0.0162684
645.489	0.0163078
645.567	0.0162513
645.646	0.0162299
645.724	0.0163093
645.802	0.0164485
645.880	0.0164206
645.958	0.0162502
646.036	0.0162449
646.114	0.0163394
646.192	0.0161591
646.271	0.0163253
646.349	0.0162638
646.427	0.0163367
646.505	0.0162896
646.583	0.0162888
646.661	0.0163661
646.739	0.0162488
646.817	0.0162844
646.896	0.0163065
646.974	0.0162979
647.052	0.0163488
647.130	0.0162165
647.208	0.0162561
647.286	0.0161869
647.364	0.0161735
647.442	0.0163116
647.521	0.0163096
647.599	0.0163415
647.677	0.0161084
647.755	0.0162217
647.833	0.0163304
647.911	0.0162092
647.989	0.0162280
648.067	0.0162318
648.146	0.0162439
648.224	0.0163880
648.302	0.0162873
648.380	0.0163288
648.458	0.0162830
648.536	0.0162295
648.614	0.0163344
648.692	0.0163143
648.771	0.0161182
648.849	0.0162232
648.927	0.0163165
649.005	0.0163148
649.083	0.0162554
649.161	0.0162074
649.239	0.0161029
649.317	0.0162965
649.396	0.0162527
649.474	0.0162064
649.552	0.0162708
649.630	0.0162950
649.708	0.0162468
649.786	0.0162209
649.864	0.0163187
649.942	0.0164062
650.021	0.0163197
650.099	0.0163274
650.177	0.0162453
650.255	0.0162272
650.333	0.0162845
650.411	0.0162614
650.489	0.0162286
650.567	0.0162527
650.646	0.0164809
650.724	0.0162579
650.802	0.0162870
650.880	0.0163559
650.958	0.0162666
651.036	0.0162998
651.114	0.0163694
651.192	0.0163951
651.271	0.0161858
651.349	0.0162944
651.427	0.0163141
651.505	0.0161964
651.583	0.0161844
651.661	0.0163251
651.739	0.0163323
651.817	0.0161991
651.896	0.0163073
651.974	0.0164275
652.052	0.0162542
652.130	0.0163521
652.208	0.0162723
652.286	0.0162312
652.364	0.0162733
652.442	0.0162941
652.521	0.0164425
652.599	0.0162268
652.677	0.0162802
652.755	0.0162786
652.833	0.0162757
652.911	0.0163330
652.989	0.0161851
653.067	0.0162482
653.146	0.0163037
653.224	0.0163301
653.302	0.0162332
653.380	0.0163801
653.458	0.0162961
653.536	0.0163098
653.614	0.0162141
653.692	0.0162698
653.771	0.0163135
653.849	0.0162833
653.927	0.0162957
654.005	0.0160914
654.083	0.0161610
654.161	0.0163357
654.239	0.0162850
654.317	0.0162954
654.396	0.0160810
654.474	0.0160479
654.552	0.0161666
654.630	0.0163269
654.708	0.0163279
654.786	0.0163168
654.864	0.0162225
654.942	0.0163138
655.021	0.0162926
655.099	0.0163364
655.177	0.0162013
655.255	0.0162224
655.333	0.0160948
655.411	0.0161981
655.489	0.0163126
655.567	0.0162371
655.646	0.0163080
655.724	0.0163052
655.802	0.0163248
655.880	0.0162161
655.958	0.0162703
656.036	0.0162937
656.114	0.0161776
656.192	0.0163486
656.271	0.0162860
656.349	0.0162560
656.427	0.0160984
656.505	0.0162900
656.583	0.0162186
656.661	0.0161298
656.739	0.0162574
656.817	0.0161863
656.896	0.0161932
656.974	0.0162734
657.052	0.0163060
657.130	0.0163458
657.208	0.0162642
657.286	0.0162595
657.364	0.0162283
657.442	0.0163448
657.521	0.0162347
657.599	0.0162089
657.677	0.0164111
657.755	0.0163033
657.833	0.0161940
657.911	0.0163261
657.989	0.0162474
658.067	0.0163012
658.146	0.0162083
658.224	0.0163094
658.302	0.0162471
658.380	0.0162140
658.458	0.0162463
658.536	0.0161172
658.614	0.0159510
658.692	0.0162745
658.771	0.0161953
658.849	0.0162003
658.927	0.0162753
659.005	0.0162986
659.083	0.0163960
659.161	0.0163691
659.239	0.0164409
659.317	0.0164359
659.396	0.0165251
659.474	0.0163750
659.552	0.0163379
659.630	0.0162939
659.708	0.0162527
659.786	0.0162009
659.864	0.0161370
659.942	0.0160355
660.021	0.0160784
660.099	0.0160676
660.177	0.0160165
660.255	0.0160711
660.333	0.0163569
660.411	0.0162874
660.489	0.0163448
660.567	0.0165240
660.646	0.0163897
660.724	0.0164572
660.802	0.0165545
660.880	0.0164678
660.958	0.0163977
661.036	0.0163995
661.114	0.0163312
661.192	0.0161487
661.271	0.0161217
661.349	0.0162363
661.427	0.0161389
661.505	0.0160444
661.583	0.0161075
661.661	0.0160836
661.739	0.0162087
661.817	0.0161407
661.896	0.0161443
661.974	0.0162211
662.052	0.0163503
662.130	0.0163836
662.208	0.0162914
662.286	0.0163102
662.364	0.0163561
662.442	0.0162589
662.521	0.0164043
662.599	0.0163748
662.677	0.0163618
662.755	0.0162109
662.833	0.0164270
662.911	0.0162449
662.989	0.0160448
663.067	0.0162780
663.146	0.0162683
663.224	0.0161697
663.302	0.0160916
663.380	0.0162450
663.458	0.0164075
663.536	0.0163448
663.614	0.0163556
663.692	0.0164815
663.771	0.0164008
663.849	0.0163702
663.927	0.0163986
664.005	0.0164044
664.083	0.0163657
664.161	0.0163603
664.239	0.0162757
664.317	0.0162754
664.396	0.0162151
664.474	0.0161178
664.552	0.0162487
664.630	0.0163425
664.708	0.0162978
664.786	0.0162727
664.864	0.0163926
664.942	0.0163517
665.021	0.0162663
665.099	0.0163808
665.177	0.0163783
665.255	0.0162398
665.333	0.0163222
665.411	0.0162167
665.489	0.0160886
665.567	0.0162198
665.646	0.0163323
665.724	0.0161085
665.802	0.0160302
665.880	0.0162919
665.958	0.0162354
666.036	0.0163181
666.114	0.0164093
666.192	0.0163811
666.271	0.0162865
666.349	0.0164222
666.427	0.0163773
666.505	0.0163435
666.583	0.0162688
666.661	0.0163338
666.739	0.0162054
666.817	0.0161543
666.896	0.0161221
666.974	0.0161394
667.052	0.0162562
667.130	0.0163771
667.208	0.0161925
667.286	0.0161427
667.364	0.0163880
667.442	0.0162762
667.521	0.0162919
667.599	0.0164388
667.677	0.0164070
667.755	0.0163502
667.833	0.0164375
667.911	0.0163448
667.989	0.0163345
668.067	0.0163589
668.146	0.0162678
668.224	0.0162059
668.302	0.0161866
668.380	0.0163603
668.458	0.0162514
668.536	0.0162305
668.614	0.0161757
668.692	0.0161526
668.771	0.0163618
668.849	0.0164244
668.927	0.0162127
669.005	0.0163593
669.083	0.0164227
669.161	0.0163043
669.239	0.0162625
669.317	0.0163072
669.396	0.0162643
669.474	0.0162676
669.552	0.0162122
669.630	0.0163242
669.708	0.0162276
669.786	0.0164222
669.864	0.0161546
669.942	0.0161877
670.021	0.0161748
670.099	0.0161954
670.177	0.0162292
670.255	0.0163327
670.333	0.0160799
670.411	0.0162372
670.489	0.0161283
670.567	0.0163138
670.646	0.0162681
670.724	0.0161874
670.802	0.0162633
670.880	0.0161623
670.958	0.0162856
671.036	0.0161125
671.114	0.0162370
671.192	0.0162195
671.271	0.0161815
671.349	0.0162716
671.427	0.0162280
671.505	0.0161938
671.583	0.0163023
671.661	0.0163052
671.739	0.0162966
671.817	0.0161945
671.896	0.0161124
671.974	0.0163715
672.052	0.0162185
672.130	0.0162273
672.208	0.0162748
672.286	0.0162359
672.364	0.0161590
672.442	0.0162679
672.521	0.0162147
672.599	0.0161348
672.677	0.0161477
672.755	0.0161833
672.833	0.0162183
672.911	0.0163918
672.989	0.0163280
673.067	0.0162817
673.146	0.0161388
673.224	0.0161383
673.302	0.0162274
673.380	0.0162786
673.458	0.0161369
673.536	0.0161205
673.614	0.0161581
673.692	0.0163058
673.771	0.0162729
673.849	0.0162318
673.927	0.0163239
674.005	0.0163103
674.083	0.0162501
674.161	0.0163867
674.239	0.0163756
674.317	0.0162267
674.396	0.0163205
674.474	0.0163181
674.552	0.0162925
674.630	0.0161749
674.708	0.0160825
674.786	0.0161776
674.864	0.0161946
674.942	0.0162062
675.021	0.0161634
675.099	0.0161864
675.177	0.0160967
675.255	0.0162536
675.333	0.0163625
675.411	0.0163982
675.489	0.0163058
675.567	0.0163874
675.646	0.0164937
675.724	0.0163996
675.802	0.0163901
675.880	0.0163798
675.958	0.0162534
676.036	0.0162240
676.114	0.0161233
676.192	0.0160995
676.271	0.0161693
676.349	0.0160206
676.427	0.0160092
676.505	0.0161517
676.583	0.0159870
676.661	0.0161415
676.739	0.0161646
676.817	0.0162408
676.896	0.0161814
676.974	0.0162075
677.052	0.0161864
677.130	0.0162357
677.208	0.0163113
677.286	0.0162367
677.364	0.0163575
677.442	0.0162900
677.521	0.0163217
677.599	0.0163033
677.677	0.0161622
677.755	0.0160191
677.833	0.0161158
677.911	0.0161218
677.989	0.0159723
678.067	0.0161610
678.146	0.0160878
678.224	0.0160843
678.302	0.0162746
678.380	0.0161131
678.458	0.0162740
678.536	0.0163554
678.614	0.0165214
678.692	0.0163494
678.771	0.0165215
678.849	0.0164083
678.927	0.0164810
679.005	0.0164668
679.083	0.0164428
679.161	0.0162175
679.239	0.0162199
679.317	0.0163194
679.396	0.0163197
679.474	0.0162304
679.552	0.0161913
679.630	0.0162373
679.708	0.0162498
679.786	0.0163596
679.864	0.0162589
679.942	0.0163985
680.021	0.0162936
680.099	0.0164304
680.177	0.0162402
680.255	0.0164233
680.333	0.0164270
680.411	0.0164037
680.489	0.0163354
680.567	0.0162777
680.646	0.0161951
680.724	0.0162579
680.802	0.0162001
680.880	0.0162671
680.958	0.0161889
681.036	0.0162093
681.114	0.0161835
681.192	0.0163824
681.271	0.0161377
681.349	0.0163210
681.427	0.0162405
681.505	0.0162639
681.583	0.0161360
681.661	0.0162202
681.739	0.0162640
681.817	0.0159963
681.896	0.0161188
681.974	0.0161758
682.052	0.0162302
682.130	0.0162625
682.208	0.0160562
682.286	0.0164278
682.364	0.0162974
682.442	0.0162696
682.521	0.0163782
682.599	0.0163373
682.677	0.0163570
682.755	0.0163074
682.833	0.0163580
682.911	0.0162214
682.989	0.0161644
683.067	0.0161997
683.146	0.0161314
683.224	0.0161457
683.302	0.0162061
683.380	0.0160970
683.458	0.0162621
683.536	0.0162955
683.614	0.0162087
683.692	0.0160521
683.771	0.0162144
683.849	0.0162721
683.927	0.0163217
684.005	0.0163850
684.083	0.0163260
684.161	0.0162963
684.239	0.0162605
684.317	0.0162479
684.396	0.0163317
684.474	0.0163624
684.552	0.0162031
684.630	0.0162159
684.708	0.0163702
684.786	0.0162645
684.864	0.0163092
684.942	0.0163899
685.021	0.0162392
685.099	0.0162431
685.177	0.0163301
685.255	0.0164061
685.333	0.0163639
685.411	0.0163146
685.489	0.0163099
685.567	0.0163892
685.646	0.0163477
685.724	0.0162130
685.802	0.0163588
685.880	0.0162451
685.958	0.0160379
686.036	0.0161282
686.114	0.0162789
686.192	0.0162293
686.271	0.0161109
686.349	0.0160686
686.427	0.0162113
686.505	0.0162446
686.583	0.0162422
686.661	0.0162649
686.739	0.0161405
686.817	0.0160384
686.896	0.0161300
686.974	0.0160593
687.052	0.0161989
687.130	0.0161652
687.208	0.0162556
687.286	0.0162308
687.364	0.0162556
687.442	0.0162740
687.521	0.0162560
687.599	0.0163715
687.677	0.0164628
687.755	0.0162393
687.833	0.0163064
687.911	0.0163527
687.989	0.0162771
688.067	0.0164690
688.146	0.0162697
688.224	0.0163444
688.302	0.0162534
688.380	0.0162408
688.458	0.0162344
688.536	0.0162164
688.614	0.0162637
688.692	0.0162103
688.771	0.0162206
688.849	0.0162290
688.927	0.0162379
689.005	0.0162578
689.083	0.0163487
689.161	0.0162509
689.239	0.0164522
689.317	0.0162771
689.396	0.0162823
689.474	0.0164044
689.552	0.0164230
689.630	0.0163480
689.708	0.0164616
689.786	0.0162921
689.864	0.0163120
689.942	0.0163097
690.021	0.0162263
690.099	0.0163016
690.177	0.0161920
690.255	0.0163647
690.333	0.0163264
690.411	0.0162872
690.489	0.0162440
690.567	0.0162109
690.646	0.0162713
690.724	0.0162711
690.802	0.0161456
690.880	0.0161940
690.958	0.0161931
691.036	0.0161226
691.114	0.0161243
691.192	0.0162353
691.271	0.0159718
691.349	0.0161510
691.427	0.0160223
691.505	0.0159723
691.583	0.0161609
691.661	0.0161462
691.739	0.0162449
691.817	0.0162054
691.896	0.0163094
691.974	0.0162795
692.052	0.0163000
692.130	0.0163614
692.208	0.0163448
692.286	0.0163317
692.364	0.0163992
692.442	0.0164467
692.521	0.0164291
692.599	0.0163374
692.677	0.0162664
692.755	0.0162720
692.833	0.0162849
692.911	0.0162273
692.989	0.0161536
693.067	0.0162193
693.146	0.0160703
693.224	0.0160736
693.302	0.0161236
693.380	0.0159731
693.458	0.0162823
693.536	0.0161705
693.614	0.0161237
693.692	0.0163206
693.771	0.0162713
693.849	0.0163189
693.927	0.0163193
694.005	0.0162617
694.083	0.0162488
694.161	0.0161944
694.239	0.0162605
694.317	0.0162347
694.396	0.0162927
694.474	0.0162298
694.552	0.0162100
694.630	0.0162244
694.708	0.0161246
694.786	0.0160373
694.864	0.0160794
694.942	0.0158910
695.021	0.0160798
695.099	0.0161463
695.177	0.0158987
695.255	0.0160371
695.333	0.0160344
695.411	0.0162157
695.489	0.0163016
695.567	0.0163686
695.646	0.0162711
695.724	0.0163341
695.802	0.0164497
695.880	0.0163980
695.958	0.0163711
696.036	0.0164153
696.114	0.0163227
696.192	0.0164379
696.271	0.0163808
696.349	0.0162202
696.427	0.0162016
696.505	0.0162266
696.583	0.0160787
696.661	0.0160744
696.739	0.0159745
696.817	0.0158331
696.896	0.0159144
696.974	0.0159193
697.052	0.0157465
697.130	0.0158375
697.208	0.0158890
697.286	0.0157597
697.364	0.0157452
697.442	0.0158445
697.521	0.0158133
697.599	0.0160803
697.677	0.0159164
697.755	0.0160670
697.833	0.0160212
697.911	0.0159734
697.989	0.0160231
698.067	0.0161507
698.146	0.0160159
698.224	0.0161752
698.302	0.0162851
698.380	0.0163203
698.458	0.0163227
698.536	0.0162803
698.614	0.0163012
698.692	0.0163123
698.771	0.0165291
698.849	0.0166681
698.927	0.0166479
699.005	0.0166821
699.083	0.0167927
699.161	0.0167107
699.239	0.0167220
699.317	0.0167296
699.396	0.0166655
699.474	0.0166436
699.552	0.0167435
699.630	0.0164535
699.708	0.0164267
699.786	0.0163103
699.864	0.0163974
699.942	0.0162662
700.021	0.0162871
700.099	0.0161112
700.177	0.0162005
700.255	0.0160979
700.333	0.0160472
700.411	0.0158950
700.489	0.0161289
700.567	0.0161671
700.646	0.0159504
700.724	0.0160120
700.802	0.0160102
700.880	0.0160591
700.958	0.0161623
701.036	0.0161908
701.114	0.0160854
701.192	0.0161503
701.271	0.0161177
701.349	0.0161730
701.427	0.0162045
701.505	0.0163000
701.583	0.0163164
701.661	0.0162167
701.739	0.0163766
701.817	0.0162688
701.896	0.0161814
701.974	0.0161677
702.052	0.0162170
702.130	0.0161921
702.208	0.0161404
702.286	0.0159455
702.364	0.0159209
702.442	0.0161749
702.521	0.0160312
702.599	0.0158852
702.677	0.0159096
702.755	0.0159314
702.833	0.0158698
702.911	0.0160982
702.989	0.0161850
703.067	0.0162334
703.146	0.0162702
703.224	0.0163192
703.302	0.0164864
703.380	0.0165246
703.458	0.0168423
703.536	0.0167032
703.614	0.0167393
703.692	0.0167348
703.771	0.0167484
703.849	0.0165169
703.927	0.0165498
704.005	0.0164942
704.083	0.0163685
704.161	0.0162688
704.239	0.0162627
704.317	0.0161304
704.396	0.0159955
704.474	0.0159633
704.552	0.0158395
704.630	0.0157951
704.708	0.0157854
704.786	0.0158600
704.864	0.0158093
704.942	0.0157263
705.021	0.0158923
705.099	0.0158881
705.177	0.0161047
705.255	0.0161707
705.333	0.0163663
705.411	0.0164214
705.489	0.0165929
705.567	0.0166868
705.646	0.0166748
705.724	0.0167218
705.802	0.0167035
705.880	0.0167947
705.958	0.0167522
706.036	0.0169294
706.114	0.0169171
706.192	0.0169534
706.271	0.0169846
706.349	0.0169514
706.427	0.0169916
706.505	0.0169659
706.583	0.0168944
706.661	0.0168269
706.739	0.0167110
706.817	0.0166801
706.896	0.0167064
706.974	0.0165551
707.052	0.0161496
707.130	0.0160244
707.208	0.0160548
707.286	0.0157288
707.364	0.0155994
707.442	0.0155816
707.521	0.0153424
707.599	0.0153239
707.677	0.0153508
707.755	0.0153093
707.833	0.0154078
707.911	0.0155640
707.989	0.0156199
708.067	0.0157762
708.146	0.0158595
708.224	0.0159600
708.302	0.0161845
708.380	0.0163537
708.458	0.0163921
708.536	0.0165177
708.614	0.0166989
708.692	0.0166895
708.771	0.0169398
708.849	0.0168233
708.927	0.0166926
709.005	0.0166712
709.083	0.0164862
709.161	0.0164131
709.239	0.0163001
709.317	0.0162957
709.396	0.0160905
709.474	0.0159704
709.552	0.0159229
709.630	0.0157294
709.708	0.0156446
709.786	0.0155923
709.864	0.0155138
709.942	0.0156490
710.021	0.0156325
710.099	0.0158244
710.177	0.0159018
710.255	0.0158932
710.333	0.0159992
710.411	0.0162637
710.489	0.0163335
710.567	0.0164542
710.646	0.0164131
710.724	0.0165604
710.802	0.0167932
710.880	0.0168451
710.958	0.0169781
711.036	0.0169464
711.114	0.0170924
711.192	0.0171529
711.271	0.0171735
711.349	0.0170869
711.427	0.0171622
711.505	0.0171439
711.583	0.0171460
711.661	0.0171608
711.739	0.0172459
711.817	0.0170213
711.896	0.0168568
711.974	0.0167719
712.052	0.0167468
712.130	0.0166917
712.208	0.0164510
712.286	0.0163596
712.364	0.0162466
712.442	0.0160728
712.521	0.0159052
712.599	0.0156568
712.677	0.0154776
712.755	0.0154180
712.833	0.0151914
712.911	0.0150395
712.989	0.0147722
713.067	0.0147495
713.146	0.0146623
713.224	0.0147415
713.302	0.0148441
713.380	0.0149581
713.458	0.0149313
713.536	0.0151195
713.614	0.0153162
713.692	0.0156415
713.771	0.0159792
713.849	0.0162843
713.927	0.0166972
714.005	0.0168253
714.083	0.0170618
714.161	0.0174211
714.239	0.0175486
714.317	0.0177119
714.396	0.0178081
714.474	0.0180176
714.552	0.0178471
714.630	0.0176252
714.708	0.0175770
714.786	0.0171784
714.864	0.0168925
714.942	0.0166750
715.021	0.0165514
715.099	0.0161335
715.177	0.0158942
715.255	0.0157190
715.333	0.0153095
715.411	0.0151263
715.489	0.0150490
715.567	0.0149437
715.646	0.0149353
715.724	0.0149501
715.802	0.0150634
715.880	0.0152503
715.958	0.0152840
716.036	0.0153146
716.114	0.0153894
716.192	0.0156537
716.271	0.0158517
716.349	0.0159846
716.427	0.0158952
716.505	0.0159827
716.583	0.0159882
716.661	0.0160169
716.739	0.0161617
716.817	0.0161932
716.896	0.0161752
716.974	0.0160347
717.052	0.0161873
717.130	0.0162287
717.208	0.0162935
717.286	0.0163522
717.364	0.0165083
717.442	0.0165609
717.521	0.0166854
717.599	0.0167074
717.677	0.0169151
717.755	0.0169560
717.833	0.0169878
717.911	0.0170641
717.989	0.0172189
718.067	0.0173329
718.146	0.0171058
718.224	0.0171143
718.302	0.0171529
718.380	0.0171255
718.458	0.0169915
718.536	0.0170313
718.614	0.0168375
718.692	0.0168228
718.771	0.0168179
718.849	0.0167085
718.927	0.0167751
719.005	0.0165509
719.083	0.0165014
719.161	0.0164635
719.239	0.0164445
719.317	0.0164743
719.396	0.0163457
719.474	0.0162871
719.552	0.0160712
719.630	0.0161726
719.708	0.0162328
719.786	0.0161594
719.864	0.0161122
719.942	0.0159728
720.021	0.0159656
720.099	0.0159268
720.177	0.0158768
720.255	0.0156351
720.333	0.0155547
720.411	0.0154972
720.489	0.0153567
720.567	0.0151622
720.646	0.0151217
720.724	0.0150806
720.802	0.0149396
720.880	0.0147173
720.958	0.0148169
721.036	0.0147190
721.114	0.0148342
721.192	0.0146735
721.271	0.0150159
721.349	0.0152282
721.427	0.0152144
721.505	0.0154753
721.583	0.0158406
721.661	0.0161090
721.739	0.0162171
721.817	0.0165204
721.896	0.0168044
721.974	0.0171259
722.052	0.0172974
722.130	0.0176659
722.208	0.0177397
722.286	0.0178552
722.364	0.0181334
722.442	0.0182925
722.521	0.0183765
722.599	0.0185091
722.677	0.0183676
722.755	0.0183674
722.833	0.0183734
722.911	0.0181615
722.989	0.0179253
723.067	0.0177205
723.146	0.0173804
723.224	0.0172152
723.302	0.0168742
723.380	0.0165778
723.458	0.0159865
723.536	0.0156715
723.614	0.0151597
723.692	0.0148006
723.771	0.0146851
723.849	0.0142563
723.927	0.0140097
724.005	0.0138786
724.083	0.0139481
724.161	0.0138858
724.239	0.0139757
724.317	0.0140772
724.396	0.0143965
724.474	0.0146819
724.552	0.0150458
724.630	0.0152807
724.708	0.0156339
724.786	0.0158329
724.864	0.0163506
724.942	0.0166221
725.021	0.0167619
725.099	0.0171395
725.177	0.0172717
725.255	0.0174805
725.333	0.0174391
725.411	0.0175390
725.489	0.0176378
725.567	0.0177029
725.646	0.0175620
725.724	0.0173737
725.802	0.0173689
725.880	0.0170992
725.958	0.0169472
726.036	0.0169572
726.114	0.0168224
726.192	0.0165223
726.271	0.0165900
726.349	0.0164142
726.427	0.0162900
726.505	0.0162015
726.583	0.0163685
726.661	0.0162563
726.739	0.0163550
726.817	0.0164306
726.896	0.0164189
726.974	0.0165936
727.052	0.0167151
727.130	0.0167468
727.208	0.0169139
727.286	0.0169128
727.364	0.0170054
727.442	0.0170048
727.521	0.0170240
727.599	0.0168464
727.677	0.0169483
727.755	0.0169053
727.833	0.0166788
727.911	0.0164838
727.989	0.0162119
728.067	0.0160652
728.146	0.0158318
728.224	0.0156644
728.302	0.0152826
728.380	0.0149988
728.458	0.0147923
728.536	0.0147463
728.614	0.0145005
728.692	0.0143674
728.771	0.0144160
728.849	0.0143725
728.927	0.0144611
729.005	0.0146041
729.083	0.0146896
729.161	0.0149444
729.239	0.0150506
729.317	0.0155524
729.396	0.0156841
729.474	0.0159084
729.552	0.0160546
729.630	0.0161977
729.708	0.0163789
729.786	0.0166129
729.864	0.0166398
729.942	0.0167406
730.021	0.0167741
730.099	0.0167285
730.177	0.0167520
730.255	0.0169121
730.333	0.0168060
730.411	0.0169210
730.489	0.0169476
730.567	0.0168461
730.646	0.0167094
730.724	0.0168284
730.802	0.0168735
730.880	0.0168008
730.958	0.0167403
731.036	0.0165828
731.114	0.0165276
731.192	0.0166440
731.271	0.0166821
731.349	0.0164662
731.427	0.0163752
731.505	0.0163400
731.583	0.0161716
731.661	0.0160912
731.739	0.0160855
731.817	0.0160293
731.896	0.0160722
731.974	0.0162408
732.052	0.0160629
732.130	0.0162848
732.208	0.0163580
732.286	0.0164960
732.364	0.0166796
732.442	0.0169499
732.521	0.0169940
732.599	0.0170528
732.677	0.0172684
732.755	0.0173763
732.833	0.0174735
732.911	0.0173694
732.989	0.0174680
733.067	0.0174329
733.146	0.0174515
733.224	0.0172807
733.302	0.0167901
733.380	0.0167400
733.458	0.0164952
733.536	0.0160677
733.614	0.0158549
733.692	0.0156322
733.771	0.0153753
733.849	0.0149921
733.927	0.0147667
734.005	0.0145088
734.083	0.0144894
734.161	0.0143932
734.239	0.0142612
734.317	0.0143282
734.396	0.0145397
734.474	0.0145164
734.552	0.0148035
734.630	0.0149483
734.708	0.0151617
734.786	0.0156913
734.864	0.0159371
734.942	0.0161051
735.021	0.0163528
735.099	0.0167424
735.177	0.0171461
735.255	0.0171813
735.333	0.0174237
735.411	0.0176672
735.489	0.0177659
735.567	0.0177203
735.646	0.0178152
735.724	0.0176601
735.802	0.0175902
735.880	0.0175268
735.958	0.0173855
736.036	0.0171789
736.114	0.0171361
736.192	0.0170547
736.271	0.0167619
736.349	0.0165670
736.427	0.0167114
736.505	0.0165888
736.583	0.0166045
736.661	0.0162986
736.739	0.0163358
736.817	0.0161776
736.896	0.0159859
736.974	0.0158676
737.052	0.0156106
737.130	0.0153957
737.208	0.0150269
737.286	0.0148108
737.364	0.0147417
737.442	0.0145013
737.521	0.0145293
737.599	0.0143961
737.677	0.0143706
737.755	0.0144370
737.833	0.0145604
737.911	0.0147894
737.989	0.0147237
738.067	0.0149074
738.146	0.0152218
738.224	0.0153659
738.302	0.0153757
738.380	0.0154334
738.458	0.0154819
738.536	0.0155859
738.614	0.0156752
738.692	0.0156966
738.771	0.0156504
738.849	0.0157950
738.927	0.0158382
739.005	0.0160411
739.083	0.0161888
739.161	0.0163321
739.239	0.0163268
739.317	0.0165541
739.396	0.0170254
739.474	0.0173108
739.552	0.0174514
739.630	0.0177024
739.708	0.0179193
739.786	0.0181810
739.864	0.0184908
739.942	0.0186894
740.021	0.0188538
740.099	0.0189895
740.177	0.0191043
740.255	0.0190937
740.333	0.0191183
740.411	0.0191640
740.489	0.0189701
740.567	0.0188997
740.646	0.0187064
740.724	0.0184602
740.802	0.0183035
740.880	0.0180139
740.958	0.0176573
741.036	0.0173769
741.114	0.0171205
741.192	0.0166088
741.271	0.0162206
741.349	0.0157722
741.427	0.0154055
741.505	0.0148828
741.583	0.0146682
741.661	0.0141492
741.739	0.0138236
741.817	0.0135281
741.896	0.0133617
741.974	0.0133484
742.052	0.0132327
742.130	0.0132138
742.208	0.0132419
742.286	0.0134725
742.364	0.0136800
742.442	0.0137998
742.521	0.0138270
742.599	0.0141824
742.677	0.0144604
742.755	0.0147021
742.833	0.0150470
742.911	0.0154499
742.989	0.0156414
743.067	0.0157252
743.146	0.0160231
743.224	0.0163766
743.302	0.0163612
743.380	0.0165848
743.458	0.0166862
743.536	0.0168356
743.614	0.0169957
743.692	0.0169851
743.771	0.0171611
743.849	0.0171429
743.927	0.0170473
744.005	0.0168814
744.083	0.0168226
744.161	0.0167549
744.239	0.0166693
744.317	0.0163823
744.396	0.0162332
744.474	0.0161034
744.552	0.0160780
744.630	0.0160125
744.708	0.0159587
744.786	0.0161452
744.864	0.0162444
744.942	0.0162576
745.021	0.0163549
745.099	0.0164541
745.177	0.0165379
745.255	0.0166033
745.333	0.0167712
745.411	0.0167247
745.489	0.0167368
745.567	0.0169079
745.646	0.0168470
745.724	0.0169070
745.802	0.0168921
745.880	0.0168965
745.958	0.0170367
746.036	0.0170971
746.114	0.0171878
746.192	0.0173112
746.271	0.0172190
746.349	0.0172842
746.427	0.0172904
746.505	0.0174129
746.583	0.0175801
746.661	0.0175549
746.739	0.0175159
746.817	0.0174140
746.896	0.0173231
746.974	0.0173659
747.052	0.0171269
747.130	0.0170804
747.208	0.0170110
747.286	0.0170129
747.364	0.0166389
747.442	0.0167233
747.521	0.0166635
747.599	0.0165021
747.677	0.0164048
747.755	0.0163928
747.833	0.0162532
747.911	0.0160283
747.989	0.0159704
748.067	0.0157066
748.146	0.0156600
748.224	0.0154807
748.302	0.0153737
748.380	0.0152080
748.458	0.0151719
748.536	0.0149860
748.614	0.0149062
748.692	0.0146751
748.771	0.0146729
748.849	0.0147365
748.927	0.0145405
749.005	0.0146987
749.083	0.0147698
749.161	0.0148177
749.239	0.0148501
749.317	0.0150191
749.396	0.0151749
749.474	0.0150929
749.552	0.0154204
749.630	0.0154533
749.708	0.0156202
749.786	0.0157087
749.864	0.0156852
749.942	0.0158111
750.021	0.0159776
750.099	0.0160461
750.177	0.0162213
750.255	0.0162653
750.333	0.0165552
750.411	0.0169009
750.489	0.0171326
750.567	0.0173025
750.646	0.0175368
750.724	0.0177650
750.802	0.0178130
750.880	0.0180216
750.958	0.0182310
751.036	0.0183231
751.114	0.0183878
751.192	0.0184283
751.271	0.0180106
751.349	0.0180535
751.427	0.0178227
751.505	0.0175109
751.583	0.0173290
751.661	0.0172826
751.739	0.0169239
751.817	0.0164847
751.896	0.0163422
751.974	0.0161349
752.052	0.0158089
752.130	0.0155360
752.208	0.0152956
752.286	0.0151120
752.364	0.0148241
752.442	0.0146925
752.521	0.0144488
752.599	0.0141348
752.677	0.0140998
752.755	0.0140363
752.833	0.0139788
752.911	0.0140368
752.989	0.0141727
753.067	0.0143317
753.146	0.0145213
753.224	0.0145206
753.302	0.0147036
753.380	0.0149928
753.458	0.0154790
753.536	0.0156334
753.614	0.0158569
753.692	0.0160635
753.771	0.0163426
753.849	0.0163986
753.927	0.0167474
754.005	0.0169108
754.083	0.0173128
754.161	0.0175729
754.239	0.0177280
754.317	0.0180202
754.396	0.0183669
754.474	0.0184955
754.552	0.0187656
754.630	0.0188702
754.708	0.0190674
754.786	0.0191712
754.864	0.0190412
754.942	0.0191484
755.021	0.0190107
755.099	0.0187786
755.177	0.0185841
755.255	0.0183047
755.333	0.0180227
755.411	0.0176318
755.489	0.0173616
755.567	0.0171149
755.646	0.0168516
755.724	0.0163355
755.802	0.0159084
755.880	0.0156335
755.958	0.0152692
756.036	0.0150642
756.114	0.0148503
756.192	0.0145656
756.271	0.0143673
756.349	0.0141759
756.427	0.0141447
756.505	0.0143305
756.583	0.0142216
756.661	0.0143062
756.739	0.0143601
756.817	0.0143997
756.896	0.0147115
756.974	0.0149593
757.052	0.0149606
757.130	0.0152859
757.208	0.0154113
757.286	0.0157372
757.364	0.0157632
757.442	0.0161670
757.521	0.0164422
757.599	0.0165922
757.677	0.0166679
757.755	0.0168241
757.833	0.0169073
757.911	0.0170252
757.989	0.0169797
758.067	0.0170650
758.146	0.0168991
758.224	0.0166765
758.302	0.0165582
758.380	0.0164503
758.458	0.0162453
758.536	0.0159707
758.614	0.0157270
758.692	0.0155373
758.771	0.0154393
758.849	0.0151030
758.927	0.0151067
759.005	0.0150075
759.083	0.0149380
759.161	0.0147182
759.239	0.0148211
759.317	0.0147156
759.396	0.0146666
759.474	0.0146894
759.552	0.0147729
759.630	0.0148324
759.708	0.0149124
759.786	0.0148161
759.864	0.0150744
759.942	0.0151548
760.021	0.0152802
760.099	0.0153800
760.177	0.0155660
760.255	0.0159115
760.333	0.0159315
760.411	0.0163410
760.489	0.0166148
760.567	0.0168231
760.646	0.0171105
760.724	0.0174203
760.802	0.0177999
760.880	0.0180753
760.958	0.0183559
761.036	0.0186411
761.114	0.0187492
761.192	0.0189229
761.271	0.0190669
761.349	0.0191308
761.427	0.0194053
761.505	0.0193591
761.583	0.0193807
761.661	0.0193249
761.739	0.0192924
761.817	0.0191741
761.896	0.0188460
761.974	0.0185651
762.052	0.0183080
762.130	0.0179543
762.208	0.0177358
762.286	0.0173002
762.364	0.0169079
762.442	0.0164810
762.521	0.0162939
762.599	0.0159811
762.677	0.0157365
762.755	0.0154659
762.833	0.0152454
762.911	0.0149599
762.989	0.0148672
763.067	0.0147663
763.146	0.0145524
763.224	0.0148457
763.302	0.0147156
763.380	0.0148831
763.458	0.0149427
763.536	0.0150706
763.614	0.0152205
763.692	0.0154874
763.771	0.0155604
763.849	0.0157021
763.927	0.0158291
764.005	0.0158831
764.083	0.0160358
764.161	0.0159361
764.239	0.0158227
764.317	0.0158282
764.396	0.0157545
764.474	0.0157094
764.552	0.0155461
764.630	0.0153940
764.708	0.0153239
764.786	0.0154046
764.864	0.0152316
764.942	0.0152085
765.021	0.0151911
765.099	0.0150944
765.177	0.0150308
765.255	0.0150826
765.333	0.0149297
765.411	0.0147875
765.489	0.0145775
765.567	0.0145109
765.646	0.0144308
765.724	0.0143764
765.802	0.0142724
765.880	0.0142016
765.958	0.0141424
766.036	0.0144179
766.114	0.0144437
766.192	0.0146841
766.271	0.0148798
766.349	0.0150482
766.427	0.0154502
766.505	0.0156345
766.583	0.0157571
766.661	0.0162581
766.739	0.0164263
766.817	0.0165720
766.896	0.0169596
766.974	0.0173161
767.052	0.0175328
767.130	0.0177687
767.208	0.0181305
767.286	0.0185399
767.364	0.0186882
767.442	0.0189183
767.521	0.0190749
767.599	0.0192052
767.677	0.0193092
767.755	0.0193615
767.833	0.0194051
767.911	0.0194273
767.989	0.0193723
768.067	0.0192278
768.146	0.0192178
768.224	0.0190724
768.302	0.0187994
768.380	0.0185448
768.458	0.0181903
768.536	0.0179774
768.614	0.0175085
768.692	0.0173848
768.771	0.0171037
768.849	0.0166000
768.927	0.0164665
769.005	0.0162090
769.083	0.0158806
769.161	0.0155945
769.239	0.0157426
769.317	0.0156056
769.396	0.0154478
769.474	0.0153155
769.552	0.0152724
769.630	0.0154348
769.708	0.0152397
769.786	0.0151919
769.864	0.0151124
769.942	0.0153661
770.021	0.0152585
770.099	0.0153637
770.177	0.0155550
770.255	0.0155887
770.333	0.0156506
770.411	0.0156722
770.489	0.0157879
770.567	0.0157687
770.646	0.0158041
770.724	0.0156940
770.802	0.0156575
770.880	0.0156153
770.958	0.0155853
771.036	0.0155839
771.114	0.0153095
771.192	0.0152696
771.271	0.0153767
771.349	0.0152354
771.427	0.0152200
771.505	0.0153520
771.583	0.0153318
771.661	0.0152711
771.739	0.0152924
771.817	0.0152180
771.896	0.0153554
771.974	0.0153277
772.052	0.0152422
772.130	0.0150137
772.208	0.0150652
772.286	0.0150374
772.364	0.0148347
772.442	0.0148853
772.521	0.0147829
772.599	0.0147938
772.677	0.0147181
772.755	0.0147682
772.833	0.0148779
772.911	0.0149121
772.989	0.0151580
773.067	0.0152880
773.146	0.0152630
773.224	0.0155522
773.302	0.0159162
773.380	0.0161322
773.458	0.0163696
773.536	0.0167082
773.614	0.0167718
773.692	0.0170895
773.771	0.0172833
773.849	0.0174046
773.927	0.0175685
774.005	0.0178909
774.083	0.0178429
774.161	0.0178635
774.239	0.0179823
774.317	0.0181458
774.396	0.0179956
774.474	0.0180106
774.552	0.0181982
774.630	0.0180615
774.708	0.0181468
774.786	0.0182369
774.864	0.0180788
774.942	0.0179002
775.021	0.0178762
775.099	0.0179697
775.177	0.0177659
775.255	0.0176981
775.333	0.0175806
775.411	0.0174263
775.489	0.0172997
775.567	0.0172588
775.646	0.0169898
775.724	0.0168398
775.802	0.0166710
775.880	0.0164362
775.958	0.0163883
776.036	0.0160310
776.114	0.0159464
776.192	0.0158036
776.271	0.0157970
776.349	0.0156545
776.427	0.0157516
776.505	0.0156534
776.583	0.0157541
776.661	0.0157545
776.739	0.0158355
776.817	0.0157336
776.896	0.0157719
776.974	0.0157764
777.052	0.0158054
777.130	0.0159043
777.208	0.0157287
777.286	0.0157363
777.364	0.0156416
777.442	0.0157339
777.521	0.0156598
777.599	0.0155202
777.677	0.0154626
777.755	0.0155660
777.833	0.0155071
777.911	0.0153394
777.989	0.0156206
778.067	0.0157688
778.146	0.0157129
778.224	0.0155789
778.302	0.0155293
778.380	0.0156255
778.458	0.0156277
778.536	0.0155151
778.614	0.0156550
778.692	0.0155144
778.771	0.0155756
778.849	0.0154836
778.927	0.0154205
779.005	0.0154236
779.083	0.0154246
779.161	0.0154248
779.239	0.0152596
779.317	0.0154662
779.396	0.0154587
779.474	0.0154047
779.552	0.0155379
779.630	0.0155024
779.708	0.0156525
779.786	0.0156800
779.864	0.0158235
779.942	0.0160232
780.021	0.0161467
780.099	0.0163562
780.177	0.0165572
780.255	0.0166182
780.333	0.0170028
780.411	0.0171259
780.489	0.0170879
780.567	0.0174362
780.646	0.0174916
780.724	0.0175735
780.802	0.0176266
780.880	0.0176266
780.958	0.0175703
781.036	0.0176731
781.114	0.0176243
781.192	0.0174456
781.271	0.0174154
781.349	0.0174152
781.427	0.0169644
781.505	0.0169777
781.583	0.0168390
781.661	0.0167488
781.739	0.0166611
781.817	0.0166567
781.896	0.0166164
781.974	0.0164044
782.052	0.0165219
782.130	0.0164005
782.208	0.0163576
782.286	0.0164578
782.364	0.0162943
782.442	0.0163125
782.521	0.0163409
782.599	0.0164729
782.677	0.0164130
782.755	0.0162315
782.833	0.0164484
782.911	0.0164732
782.989	0.0164599
783.067	0.0165269
783.146	0.0165144
783.224	0.0164669
783.302	0.0164823
783.380	0.0165997
783.458	0.0165241
783.536	0.0164415
783.614	0.0164231
783.692	0.0165059
783.771	0.0163068
783.849	0.0165037
783.927	0.0164906
784.005	0.0165057
784.083	0.0164752
784.161	0.0164056
784.239	0.0163516
784.317	0.0163759
784.396	0.0162415
784.474	0.0162587
784.552	0.0161494
784.630	0.0160796
784.708	0.0160103
784.786	0.0158352
784.864	0.0155857
784.942	0.0154585
785.021	0.0155560
785.099	0.0154839
785.177	0.0151703
785.255	0.0150486
785.333	0.0151357
785.411	0.0152293
785.489	0.0152126
785.567	0.0153210
785.646	0.0153174
785.724	0.0154138
785.802	0.0153874
785.880	0.0155177
785.958	0.0157539
786.036	0.0157387
786.114	0.0158762
786.192	0.0159610
786.271	0.0161495
786.349	0.0162518
786.427	0.0163690
786.505	0.0163823
786.583	0.0165185
786.661	0.0166914
786.739	0.0167069
786.817	0.0168085
786.896	0.0168581
786.974	0.0169086
787.052	0.0169108
787.130	0.0171267
787.208	0.0171473
787.286	0.0171114
787.364	0.0172152
787.442	0.0171248
787.521	0.0169003
787.599	0.0168778
787.677	0.0167574
787.755	0.0167908
787.833	0.0165633
787.911	0.0163258
787.989	0.0162624
788.067	0.0162865
788.146	0.0160030
788.224	0.0158896
788.302	0.0160345
788.380	0.0158463
788.458	0.0159135
788.536	0.0158974
788.614	0.0160050
788.692	0.0159973
788.771	0.0160356
788.849	0.0161424
788.927	0.0161140
789.005	0.0162132
789.083	0.0162675
789.161	0.0163590
789.239	0.0162419
789.317	0.0164610
789.396	0.0166092
789.474	0.0164832
789.552	0.0165918
789.630	0.0163739
789.708	0.0162535
789.786	0.0163472
789.864	0.0162575
789.942	0.0163608
790.021	0.0163219
790.099	0.0162041
790.177	0.0161752
790.255	0.0163156
790.333	0.0164451
790.411	0.0164314
790.489	0.0163634
790.567	0.0165004
790.646	0.0165513
790.724	0.0165351
790.802	0.0165176
790.880	0.0165981
790.958	0.0166096
791.036	0.0165923
791.114	0.0165891
791.192	0.0165419
791.271	0.0165527
791.349	0.0163310
791.427	0.0164014
791.505	0.0164067
791.583	0.0163406
791.661	0.0161668
791.739	0.0160232
791.817	0.0159617
791.896	0.0159308
791.974	0.0159044
792.052	0.0157856
792.130	0.0157469
792.208	0.0156822
792.286	0.0159019
792.364	0.0158746
792.442	0.0156481
792.521	0.0158420
792.599	0.0159312
792.677	0.0160028
792.755	0.0160564
792.833	0.0160467
792.911	0.0161089
792.989	0.0161697
793.067	0.0162363
793.146	0.0161863
793.224	0.0163316
793.302	0.0164475
793.380	0.0161942
793.458	0.0163094
793.536	0.0164622
793.614	0.0163663
793.692	0.0164479
793.771	0.0164469
793.849	0.0163931
793.927	0.0162672
794.005	0.0162139
794.083	0.0163528
794.161	0.0162638
794.239	0.0161936
794.317	0.0161648
794.396	0.0161842
794.474	0.0160903
794.552	0.0160648
794.630	0.0160912
794.708	0.0161583
794.786	0.0162278
794.864	0.0162546
794.942	0.0162509
795.021	0.0164187
795.099	0.0163541
795.177	0.0164575
795.255	0.0163479
795.333	0.0165192
795.411	0.0165102
795.489	0.0166622
795.567	0.0164472
795.646	0.0166434
795.724	0.0165939
795.802	0.0164399
795.880	0.0165292
795.958	0.0164032
796.036	0.0163367
796.114	0.0164251
796.192	0.0163766
796.271	0.0162548
796.349	0.0161440
796.427	0.0159056
796.505	0.0158546
796.583	0.0161080
796.661	0.0158642
796.739	0.0157838
796.817	0.0157589
796.896	0.0159258
796.974	0.0159510
797.052	0.0159751
797.130	0.0158794
797.208	0.0159194
797.286	0.0161114
797.364	0.0159363
797.442	0.0161867
797.521	0.0161653
797.599	0.0162115
797.677	0.0161652
797.755	0.0162887
797.833	0.0162963
797.911	0.0163086
797.989	0.0164260
798.067	0.0164851
798.146	0.0165031
798.224	0.0166029
798.302	0.0166655
798.380	0.0166888
798.458	0.0168567
798.536	0.0167812
798.614	0.0166389
798.692	0.0167892
798.771	0.0168138
798.849	0.0168994
798.927	0.0168079
799.005	0.0167545
799.083	0.0166696
799.161	0.0166980
799.239	0.0166240
799.317	0.0165588
799.396	0.0165659
799.474	0.0165941
799.552	0.0164873
799.630	0.0164172
799.708	0.0163773
799.786	0.0163306
799.864	0.0163286
799.942	0.0163311
800.021	0.0162105
800.099	0.0160857
800.177	0.0160780
800.255	0.0160347
800.333	0.0158923
800.411	0.0158353
800.489	0.0157133
800.567	0.0156554
800.646	0.0156235
800.724	0.0157787
800.802	0.0156499
800.880	0.0156273
800.958	0.0156106
801.036	0.0157656
801.114	0.0157420
801.192	0.0157679
801.271	0.0158972
801.349	0.0159157
801.427	0.0159739
801.505	0.0160168
801.583	0.0163060
801.661	0.0164119
801.739	0.0163483
801.817	0.0165744
801.896	0.0166417
801.974	0.0167384
802.052	0.0167013
802.130	0.0168566
802.208	0.0169505
802.286	0.0170323
802.364	0.0170350
802.442	0.0170261
802.521	0.0169849
802.599	0.0168955
802.677	0.0166811
802.755	0.0167513
802.833	0.0167560
802.911	0.0165477
802.989	0.0164929
803.067	0.0165275
803.146	0.0163676
803.224	0.0162183
803.302	0.0163763
803.380	0.0162261
803.458	0.0162762
803.536	0.0161008
803.614	0.0159956
803.692	0.0160630
803.771	0.0160152
803.849	0.0161023
803.927	0.0161095
804.005	0.0160194
804.083	0.0161169
804.161	0.0160076
804.239	0.0160694
804.317	0.0157484
804.396	0.0160518
804.474	0.0159322
804.552	0.0159170
804.630	0.0159182
804.708	0.0159745
804.786	0.0158683
804.864	0.0160970
804.942	0.0160146
805.021	0.0160669
805.099	0.0162682
805.177	0.0162762
805.255	0.0163271
805.333	0.0164196
805.411	0.0164272
805.489	0.0162215
805.567	0.0163899
805.646	0.0165680
805.724	0.0165605
805.802	0.0164676
805.880	0.0165237
805.958	0.0165611
806.036	0.0166090
806.114	0.0166306
806.192	0.0167376
806.271	0.0166005
806.349	0.0164854
806.427	0.0165436
806.505	0.0165581
806.583	0.0164233
806.661	0.0165795
806.739	0.0165752
806.817	0.0165302
806.896	0.0165001
806.974	0.0163779
807.052	0.0164664
807.130	0.0164314
807.208	0.0163488
807.286	0.0164145
807.364	0.0164264
807.442	0.0163667
807.521	0.0163458
807.599	0.0163308
807.677	0.0163568
807.755	0.0164480
807.833	0.0163097
807.911	0.0162203
807.989	0.0162157
808.067	0.0162450
808.146	0.0163406
808.224	0.0162715
808.302	0.0162004
808.380	0.0163477
808.458	0.0161459
808.536	0.0162623
808.614	0.0164593
808.692	0.0161729
808.771	0.0160494
808.849	0.0161719
808.927	0.0160306
809.005	0.0160636
809.083	0.0159963
809.161	0.0160175
809.239	0.0160369
809.317	0.0159834
809.396	0.0158991
809.474	0.0158227
809.552	0.0158304
809.630	0.0158787
809.708	0.0158710
809.786	0.0159736
809.864	0.0159073
809.942	0.0160776
810.021	0.0160255
810.099	0.0160689
810.177	0.0161794
810.255	0.0162202
810.333	0.0163425
810.411	0.0163721
810.489	0.0163235
810.567	0.0162176
810.646	0.0162920
810.724	0.0163998
810.802	0.0162711
810.880	0.0163833
810.958	0.0163482
811.036	0.0165429
811.114	0.0165089
811.192	0.0163886
811.271	0.0164249
811.349	0.0162772
811.427	0.0164534
811.505	0.0165789
811.583	0.0163360
811.661	0.0163643
811.739	0.0162823
811.817	0.0164716
811.896	0.0164036
811.974	0.0162981
812.052	0.0162731
812.130	0.0163455
812.208	0.0162971
812.286	0.0162234
812.364	0.0160403
812.442	0.0160742
812.521	0.0160742
812.599	0.0159987
812.677	0.0160159
812.755	0.0159905
812.833	0.0160676
812.911	0.0159964
812.989	0.0161298
813.067	0.0162258
813.146	0.0161522
813.224	0.0161050
813.302	0.0162595
813.380	0.0162251
813.458	0.0162526
813.536	0.0163841
813.614	0.0163560
813.692	0.0162506
813.771	0.0164265
813.849	0.0163995
813.927	0.0163343
814.005	0.0163586
814.083	0.0162701
814.161	0.0163315
814.239	0.0163059
814.317	0.0163528
814.396	0.0162967
814.474	0.0162280
814.552	0.0164493
814.630	0.0162147
814.708	0.0162817
814.786	0.0164403
814.864	0.0163627
814.942	0.0163085
815.021	0.0163820
815.099	0.0164444
815.177	0.0163547
815.255	0.0163802
815.333	0.0162551
815.411	0.0164052
815.489	0.0163122
815.567	0.0163151
815.646	0.0162343
815.724	0.0162472
815.802	0.0161983
815.880	0.0162542
815.958	0.0160987
816.036	0.0161491
816.114	0.0161227
816.192	0.0160712
816.271	0.0160590
816.349	0.0159658
816.427	0.0159546
816.505	0.0158908
816.583	0.0160623
816.661	0.0159987
816.739	0.0158961
816.817	0.0159203
816.896	0.0159673
816.974	0.0161377
817.052	0.0160613
817.130	0.0160136
817.208	0.0162714
817.286	0.0161632
817.364	0.0161490
817.442	0.0163313
817.521	0.0162757
817.599	0.0161986
817.677	0.0162129
817.755	0.0163804
817.833	0.0161528
817.911	0.0162121
817.989	0.0162320
818.067	0.0162228
818.146	0.0160950
818.224	0.0162375
818.302	0.0161405
818.380	0.0162426
818.458	0.0161758
818.536	0.0161584
818.614	0.0160641
818.692	0.0160948
818.771	0.0163094
818.849	0.0163747
818.927	0.0162399
819.005	0.0163456
819.083	0.0164466
819.161	0.0165887
819.239	0.0165596
819.317	0.0165009
819.396	0.0166955
819.474	0.0166187
819.552	0.0166146
819.630	0.0165146
819.708	0.0165979
819.786	0.0165291
819.864	0.0166483
819.942	0.0165475
820.021	0.0164914
820.099	0.0164573
820.177	0.0163096
820.255	0.0163659
820.333	0.0163415
820.411	0.0163303
820.489	0.0163877
820.567	0.0162414
820.646	0.0161340
820.724	0.0160911
820.802	0.0161458
820.880	0.0160631
820.958	0.0161389
821.036	0.0158384
821.114	0.0160387
821.192	0.0161130
821.271	0.0160820
821.349	0.0158009
821.427	0.0159203
821.505	0.0159969
821.583	0.0160975
821.661	0.0160356
821.739	0.0160439
821.817	0.0161226
821.896	0.0161249
821.974	0.0161598
822.052	0.0162675
822.130	0.0163046
822.208	0.0162503
822.286	0.0162527
822.364	0.0164172
822.442	0.0163201
822.521	0.0164823
822.599	0.0163956
822.677	0.0165369
822.755	0.0164145
822.833	0.0164745
822.911	0.0164348
822.989	0.0164626
823.067	0.0164404
823.146	0.0164053
823.224	0.0163526
823.302	0.0165430
823.380	0.0164309
823.458	0.0165913
823.536	0.0165514
823.614	0.0164722
823.692	0.0163631
823.771	0.0164470
823.849	0.0163950
823.927	0.0164318
824.005	0.0164046
824.083	0.0164847
824.161	0.0164492
824.239	0.0164450
824.317	0.0161892
824.396	0.0164300
824.474	0.0162891
824.552	0.0162881
824.630	0.0163155
824.708	0.0162615
824.786	0.0162772
824.864	0.0162256
824.942	0.0161668
825.021	0.0162075
825.099	0.0162136
825.177	0.0161110
825.255	0.0162733
825.333	0.0163777
825.411	0.0162624
825.489	0.0161922
825.567	0.0160751
825.646	0.0162228
825.724	0.0161775
825.802	0.0161894
825.880	0.0159510
825.958	0.0160085
826.036	0.0161852
826.114	0.0160930
826.192	0.0161185
826.271	0.0161730
826.349	0.0161020
826.427	0.0161637
826.505	0.0161665
826.583	0.0162428
826.661	0.0163233
826.739	0.0164471
826.817	0.0162004
826.896	0.0163865
826.974	0.0164507
827.052	0.0164171
827.130	0.0163155
827.208	0.0162036
827.286	0.0162543
827.364	0.0161829
827.442	0.0160731
827.521	0.0162528
827.599	0.0161339
827.677	0.0162132
827.755	0.0160496
827.833	0.0161161
827.911	0.0161267
827.989	0.0159222
828.067	0.0161075
828.146	0.0162359
828.224	0.0163824
828.302	0.0162390
828.380	0.0163013
828.458	0.0163156
828.536	0.0163441
828.614	0.0164998
828.692	0.0164555
828.771	0.0164969
828.849	0.0164753
828.927	0.0165573
829.005	0.0164568
829.083	0.0165125
829.161	0.0165311
829.239	0.0164920
829.317	0.0165467
829.396	0.0164189
829.474	0.0165163
829.552	0.0165012
829.630	0.0162777
829.708	0.0164056
829.786	0.0163110
829.864	0.0162691
829.942	0.0162984
830.021	0.0162310
830.099	0.0160056
830.177	0.0162459
830.255	0.0162141
830.333	0.0161580
830.411	0.0161108
830.489	0.0161264
830.567	0.0161207
830.646	0.0159820
830.724	0.0159519
830.802	0.0161351
830.880	0.0159066
830.958	0.0159943
831.036	0.0160997
831.114	0.0161913
831.192	0.0160381
831.271	0.0160630
831.349	0.0160854
831.427	0.0161416
831.505	0.0161853
831.583	0.0163191
831.661	0.0162807
831.739	0.0161809
831.817	0.0161786
831.896	0.0163509
831.974	0.0164012
832.052	0.0163474
832.130	0.0162133
832.208	0.0161745
832.286	0.0162862
832.364	0.0162391
832.442	0.0162138
832.521	0.0162123
832.599	0.0162738
832.677	0.0162333
832.755	0.0162594
832.833	0.0161909
832.911	0.0161220
832.989	0.0162714
833.067	0.0161322
833.146	0.0160918
833.224	0.0161864
833.302	0.0162400
833.380	0.0164299
833.458	0.0163509
833.536	0.0163589
833.614	0.0163132
833.692	0.0162354
833.771	0.0163136
833.849	0.0162994
833.927	0.0162605
834.005	0.0161071
834.083	0.0161770
834.161	0.0160979
834.239	0.0160269
834.317	0.0160110
834.396	0.0159895
834.474	0.0159132
834.552	0.0157227
834.630	0.0158049
834.708	0.0158141
834.786	0.0157436
834.864	0.0157777
834.942	0.0158404
835.021	0.0160276
835.099	0.0160041
835.177	0.0158524
835.255	0.0160327
835.333	0.0160657
835.411	0.0160897
835.489	0.0161813
835.567	0.0164072
835.646	0.0162962
835.724	0.0163766
835.802	0.0164896
835.880	0.0163159
835.958	0.0164310
836.036	0.0163969
836.114	0.0165085
836.192	0.0162615
836.271	0.0164641
836.349	0.0166246
836.427	0.0165350
836.505	0.0165110
836.583	0.0165878
836.661	0.0165501
836.739	0.0165652
836.817	0.0167113
836.896	0.0166142
836.974	0.0164482
837.052	0.0163478
837.130	0.0165187
837.208	0.0166111
837.286	0.0165717
837.364	0.0167530
837.442	0.0165573
837.521	0.0165394
837.599	0.0164493
837.677	0.0163818
837.755	0.0164331
837.833	0.0164162
837.911	0.0163402
837.989	0.0162115
838.067	0.0162173
838.146	0.0161788
838.224	0.0161458
838.302	0.0160482
838.380	0.0160854
838.458	0.0159329
838.536	0.0160780
838.614	0.0158192
838.692	0.0157177
838.771	0.0157143
838.849	0.0157820
838.927	0.0155902
839.005	0.0155904
839.083	0.0155331
839.161	0.0156713
839.239	0.0155400
839.317	0.0156960
839.396	0.0155202
839.474	0.0157029
839.552	0.0155598
839.630	0.0158104
839.708	0.0158973
839.786	0.0160329
839.864	0.0157894
839.942	0.0159855
840.021	0.0159570
840.099	0.0163270
840.177	0.0162388
840.255	0.0163937
840.333	0.0164306
840.411	0.0164256
840.489	0.0163503
840.567	0.0163676
840.646	0.0165528
840.724	0.0164731
840.802	0.0163799
840.880	0.0164713
840.958	0.0164446
841.036	0.0164771
841.114	0.0165265
841.192	0.0165097
841.271	0.0164748
841.349	0.0164417
841.427	0.0163108
841.505	0.0165124
841.583	0.0165129
841.661	0.0165421
841.739	0.0164751
841.817	0.0165373
841.896	0.0164841
841.974	0.0164263
842.052	0.0165260
842.130	0.0164457
842.208	0.0163874
842.286	0.0164165
842.364	0.0164806
842.442	0.0164203
842.521	0.0163616
842.599	0.0164838
842.677	0.0163223
842.755	0.0162704
842.833	0.0163802
842.911	0.0163485
842.989	0.0161942
843.067	0.0162415
843.146	0.0162717
843.224	0.0163095
843.302	0.0163078
843.380	0.0161070
843.458	0.0161678
843.536	0.0161484
843.614	0.0162322
843.692	0.0161011
843.771	0.0161694
843.849	0.0161240
843.927	0.0159542
844.005	0.0161626
844.083	0.0162083
844.161	0.0163215
844.239	0.0162521
844.317	0.0161857
844.396	0.0161400
844.474	0.0163378
844.552	0.0162686
844.630	0.0163211
844.708	0.0163200
844.786	0.0161484
844.864	0.0162694
844.942	0.0163712
845.021	0.0162560
845.099	0.0161990
845.177	0.0163393
845.255	0.0162863
845.333	0.0161841
845.411	0.0162260
845.489	0.0162399
845.567	0.0161948
845.646	0.0162793
845.724	0.0162396
845.802	0.0161282
845.880	0.0160971
845.958	0.0161694
846.036	0.0163860
846.114	0.0161791
846.192	0.0161789
846.271	0.0163109
846.349	0.0162536
846.427	0.0162900
846.505	0.0163483
846.583	0.0164410
846.661	0.0164455
846.739	0.0165070
846.817	0.0164115
846.896	0.0164393
846.974	0.0165269
847.052	0.0165441
847.130	0.0165627
847.208	0.0166460
847.286	0.0165784
847.364	0.0164947
847.442	0.0165385
847.521	0.0165543
847.599	0.0165098
847.677	0.0164502
847.755	0.0165191
847.833	0.0163212
847.911	0.0164137
847.989	0.0162241
848.067	0.0163705
848.146	0.0164149
848.224	0.0161321
848.302	0.0162103
848.380	0.0161599
848.458	0.0162246
848.536	0.0162201
848.614	0.0161684
848.692	0.0160905
848.771	0.0161821
848.849	0.0162151
848.927	0.0161374
849.005	0.0162382
849.083	0.0162376
849.161	0.0163322
849.239	0.0162949
849.317	0.0163038
849.396	0.0164393
849.474	0.0163837
849.552	0.0163544
849.630	0.0163386
849.708	0.0164018
849.786	0.0162778
849.864	0.0162399
849.942	0.0162428
850.021	0.0164419
850.099	0.0163732
850.177	0.0162692
850.255	0.0163254
850.333	0.0163984
850.411	0.0163207
850.489	0.0162635
850.567	0.0163492
850.646	0.0163144
850.724	0.0162768
850.802	0.0163330
850.880	0.0163778
850.958	0.0163925
851.036	0.0164819
851.114	0.0164670
851.192	0.0164203
851.271	0.0164521
851.349	0.0165017
851.427	0.0164416
851.505	0.0163839
851.583	0.0164436
851.661	0.0165797
851.739	0.0165521
851.817	0.0165055
851.896	0.0164833
851.974	0.0164454
852.052	0.0163098
852.130	0.0164318
852.208	0.0163979
852.286	0.0162239
852.364	0.0163235
852.442	0.0163377
852.521	0.0161715
852.599	0.0161327
852.677	0.0162184
852.755	0.0161585
852.833	0.0161577
852.911	0.0163174
852.989	0.0162315
853.067	0.0161427
853.146	0.0162756
853.224	0.0163784
853.302	0.0163306
853.380	0.0162374
853.458	0.0163390
853.536	0.0164779
853.614	0.0163118
853.692	0.0162570
853.771	0.0162746
853.849	0.0163758
853.927	0.0162909
854.005	0.0161942
854.083	0.0161004
854.161	0.0161532
854.239	0.0161601
854.317	0.0160920
854.396	0.0159566
854.474	0.0158730
854.552	0.0159101
854.630	0.0159576
854.708	0.0159146
854.786	0.0158871
854.864	0.0159537
854.942	0.0159228
855.021	0.0158522
855.099	0.0158784
855.177	0.0159454
855.255	0.0160666
855.333	0.0158623
855.411	0.0161598
855.489	0.0161510
855.567	0.0160220
855.646	0.0160980
855.724	0.0162780
855.802	0.0161833
855.880	0.0162578
855.958	0.0162901
856.036	0.0162897
856.114	0.0162521
856.192	0.0162482
856.271	0.0163116
856.349	0.0162257
856.427	0.0162122
856.505	0.0164582
856.583	0.0163258
856.661	0.0161518
856.739	0.0161262
856.817	0.0163087
856.896	0.0162363
856.974	0.0162678
857.052	0.0161446
857.130	0.0161932
857.208	0.0162121
857.286	0.0162450
857.364	0.0162344
857.442	0.0162649
857.521	0.0162782
857.599	0.0164120
857.677	0.0163806
857.755	0.0164358
857.833	0.0163618
857.911	0.0164540
857.989	0.0165781
858.067	0.0165113
858.146	0.0165730
858.224	0.0165991
858.302	0.0165356
858.380	0.0164230
858.458	0.0164407
858.536	0.0164033
858.614	0.0164233
858.692	0.0164045
858.771	0.0163158
858.849	0.0163295
858.927	0.0163617
859.005	0.0163778
859.083	0.0162975
859.161	0.0162669
859.239	0.0162411
859.317	0.0160598
859.396	0.0160969
859.474	0.0161628
859.552	0.0160613
859.630	0.0160933
859.708	0.0161833
859.786	0.0160463
859.864	0.0160127
859.942	0.0159667
860.021	0.0159286
860.099	0.0159949
860.177	0.0161468
860.255	0.0162001
860.333	0.0160139
860.411	0.0159698
860.489	0.0160658
860.567	0.0161269
860.646	0.0162306
860.724	0.0161486
860.802	0.0160410
860.880	0.0161649
860.958	0.0160417
861.036	0.0159313
861.114	0.0160045
861.192	0.0161312
861.271	0.0160081
861.349	0.0160418
861.427	0.0160077
861.505	0.0160889
861.583	0.0162238
861.661	0.0159936
861.739	0.0159853
861.817	0.0161452
861.896	0.0161243
861.974	0.0161812
862.052	0.0162006
862.130	0.0162066
862.208	0.0161206
862.286	0.0162582
862.364	0.0162581
862.442	0.0162332
862.521	0.0163582
862.599	0.0162758
862.677	0.0162042
862.755	0.0162704
862.833	0.0163916
862.911	0.0163383
862.989	0.0164314
863.067	0.0163644
863.146	0.0163406
863.224	0.0163602
863.302	0.0164333
863.380	0.0164251
863.458	0.0165117
863.536	0.0164491
863.614	0.0164398
863.692	0.0165074
863.771	0.0164571
863.849	0.0164060
863.927	0.0164647
864.005	0.0164388
864.083	0.0164444
864.161	0.0165546
864.239	0.0165840
864.317	0.0164407
864.396	0.0163557
864.474	0.0164378
864.552	0.0164682
864.630	0.0163438
864.708	0.0165553
864.786	0.0163265
864.864	0.0165020
864.942	0.0166231
865.021	0.0164102
865.099	0.0165145
865.177	0.0165592
865.255	0.0164541
865.333	0.0164398
865.411	0.0162651
865.489	0.0164124
865.567	0.0163632
865.646	0.0162544
865.724	0.0162575
865.802	0.0162054
865.880	0.0160952
865.958	0.0163198
866.036	0.0160318
866.114	0.0159119
866.192	0.0160667
866.271	0.0161822
866.349	0.0160893
866.427	0.0161252
866.505	0.0160191
866.583	0.0161309
866.661	0.0160940
866.739	0.0159974
866.817	0.0160619
866.896	0.0161757
866.974	0.0161039
867.052	0.0160825
867.130	0.0162173
867.208	0.0161893
867.286	0.0162642
867.364	0.0162716
867.442	0.0162608
867.521	0.0162894
867.599	0.0161592
867.677	0.0161519
867.755	0.0163275
867.833	0.0161381
867.911	0.0162183
867.989	0.0162096
868.067	0.0162985
868.146	0.0163273
868.224	0.0162304
868.302	0.0163611
868.380	0.0164940
868.458	0.0163008
868.536	0.0162352
868.614	0.0162986
868.692	0.0163569
868.771	0.0163880
868.849	0.0163580
868.927	0.0163206
869.005	0.0162602
869.083	0.0162888
869.161	0.0162922
869.239	0.0162536
869.317	0.0163248
869.396	0.0163141
869.474	0.0161539
869.552	0.0161778
869.630	0.0162023
869.708	0.0163317
869.786	0.0163291
869.864	0.0163739
869.942	0.0163064
