06/03/2022	15:50:41	Ver.	4.1	UNKNOWN
Optical Delay	550.020508	Delta X		0.078125	Sweeps	1	Scan Rate	0/0
Coordinates	Axis 1	NaN	Axis 2	NaN	Axis 3	NaN	Axis 4	NaN	Axis 5	NaN	Axis 6	0.000000
TX Power	0.000000	RX Power	0.000000

550.021	0.0162730
550.099	0.0164248
550.177	0.0161584
550.255	0.0161783
550.333	0.0163039
550.411	0.0161951
550.489	0.0164066
550.567	0.0163940
550.646	0.0162206
550.724	0.0162714
550.802	0.0162354
550.880	0.0162690
550.958	0.0163537
551.036	0.0163439
551.114	0.0162325
551.192	0.0162385
551.271	0.0163570
551.349	0.0163590
551.427	0.0162864
551.505	0.0164177
551.583	0.0162248
551.661	0.0163682
551.739	0.0163136
551.817	0.0164043
551.896	0.0162746
551.974	0.0163649
552.052	0.0163023
552.130	0.0164188
552.208	0.0163032
552.286	0.0161349
552.364	0.0162453
552.442	0.0162359
552.521	0.0162652
552.599	0.0163499
552.677	0.0163422
552.755	0.0162280
552.833	0.0160872
552.911	0.0162675
552.989	0.0164232
553.067	0.0162849
553.146	0.0162525
553.224	0.0161455
553.302	0.0162282
553.380	0.0163171
553.458	0.0163375
553.536	0.0163682
553.614	0.0162495
553.692	0.0163291
553.771	0.0164271
553.849	0.0162555
553.927	0.0162727
554.005	0.0162109
554.083	0.0162953
554.161	0.0163699
554.239	0.0162463
554.317	0.0163197
554.396	0.0162252
554.474	0.0161667
554.552	0.0162692
554.630	0.0162405
554.708	0.0162293
554.786	0.0164066
554.864	0.0163594
554.942	0.0162164
555.021	0.0162482
555.099	0.0163220
555.177	0.0162737
555.255	0.0163533
555.333	0.0163854
555.411	0.0163721
555.489	0.0163311
555.567	0.0164579
555.646	0.0164223
555.724	0.0163891
555.802	0.0164590
555.880	0.0164870
555.958	0.0162529
556.036	0.0165471
556.114	0.0163569
556.192	0.0163681
556.271	0.0163646
556.349	0.0163705
556.427	0.0164420
556.505	0.0165019
556.583	0.0163766
556.661	0.0164068
556.739	0.0164844
556.817	0.0164500
556.896	0.0163662
556.974	0.0164426
557.052	0.0163560
557.130	0.0164423
557.208	0.0165080
557.286	0.0163770
557.364	0.0164678
557.442	0.0164437
557.521	0.0164514
557.599	0.0165601
557.677	0.0164096
557.755	0.0165257
557.833	0.0164761
557.911	0.0164447
557.989	0.0163866
558.067	0.0164072
558.146	0.0165282
558.224	0.0164703
558.302	0.0164023
558.380	0.0163722
558.458	0.0163180
558.536	0.0164005
558.614	0.0165124
558.692	0.0163558
558.771	0.0163656
558.849	0.0163856
558.927	0.0163656
559.005	0.0163644
559.083	0.0163925
559.161	0.0164523
559.239	0.0164530
559.317	0.0162487
559.396	0.0163494
559.474	0.0162722
559.552	0.0164207
559.630	0.0164445
559.708	0.0164114
559.786	0.0163886
559.864	0.0162760
559.942	0.0163380
560.021	0.0164855
560.099	0.0162772
560.177	0.0163747
560.255	0.0164381
560.333	0.0162517
560.411	0.0163297
560.489	0.0163438
560.567	0.0163889
560.646	0.0163242
560.724	0.0162923
560.802	0.0163255
560.880	0.0163040
560.958	0.0162111
561.036	0.0164011
561.114	0.0163503
561.192	0.0163966
561.271	0.0163402
561.349	0.0164168
561.427	0.0163798
561.505	0.0163192
561.583	0.0163626
561.661	0.0163860
561.739	0.0164183
561.817	0.0163447
561.896	0.0163889
561.974	0.0163189
562.052	0.0164330
562.130	0.0163888
562.208	0.0164931
562.286	0.0164661
562.364	0.0163209
562.442	0.0162540
562.521	0.0163519
562.599	0.0162275
562.677	0.0163730
562.755	0.0163115
562.833	0.0163371
562.911	0.0163934
562.989	0.0161890
563.067	0.0163891
563.146	0.0164876
563.224	0.0163367
563.302	0.0163879
563.380	0.0163095
563.458	0.0163136
563.536	0.0163016
563.614	0.0163513
563.692	0.0163998
563.771	0.0163049
563.849	0.0161246
563.927	0.0164132
564.005	0.0163889
564.083	0.0163486
564.161	0.0163565
564.239	0.0164470
564.317	0.0164851
564.396	0.0162760
564.474	0.0164574
564.552	0.0163889
564.630	0.0165603
564.708	0.0162560
564.786	0.0162480
564.864	0.0163887
564.942	0.0164066
565.021	0.0163033
565.099	0.0164719
565.177	0.0164847
565.255	0.0163140
565.333	0.0163299
565.411	0.0162275
565.489	0.0163867
565.567	0.0163226
565.646	0.0163552
565.724	0.0163108
565.802	0.0164277
565.880	0.0163924
565.958	0.0163468
566.036	0.0163125
566.114	0.0161823
566.192	0.0164091
566.271	0.0163658
566.349	0.0163873
566.427	0.0164877
566.505	0.0162865
566.583	0.0162381
566.661	0.0163176
566.739	0.0163564
566.817	0.0163905
566.896	0.0162798
566.974	0.0163615
567.052	0.0164192
567.130	0.0164276
567.208	0.0164867
567.286	0.0164468
567.364	0.0163751
567.442	0.0162716
567.521	0.0161945
567.599	0.0162749
567.677	0.0162879
567.755	0.0163470
567.833	0.0164142
567.911	0.0162703
567.989	0.0163317
568.067	0.0163974
568.146	0.0163367
568.224	0.0161710
568.302	0.0162099
568.380	0.0161196
568.458	0.0163743
568.536	0.0161805
568.614	0.0162366
568.692	0.0163605
568.771	0.0163764
568.849	0.0161789
568.927	0.0162373
569.005	0.0163204
569.083	0.0161869
569.161	0.0162312
569.239	0.0163227
569.317	0.0161929
569.396	0.0162450
569.474	0.0162057
569.552	0.0162617
569.630	0.0162135
569.708	0.0161233
569.786	0.0163783
569.864	0.0163435
569.942	0.0163041
570.021	0.0162563
570.099	0.0162469
570.177	0.0163065
570.255	0.0162901
570.333	0.0160799
570.411	0.0162589
570.489	0.0163409
570.567	0.0163016
570.646	0.0162966
570.724	0.0162288
570.802	0.0162296
570.880	0.0162403
570.958	0.0163140
571.036	0.0162982
571.114	0.0162590
571.192	0.0162642
571.271	0.0162373
571.349	0.0163730
571.427	0.0162112
571.505	0.0162757
571.583	0.0163177
571.661	0.0163538
571.739	0.0162994
571.817	0.0163403
571.896	0.0162363
571.974	0.0162551
572.052	0.0161935
572.130	0.0162145
572.208	0.0162843
572.286	0.0162789
572.364	0.0162374
572.442	0.0162190
572.521	0.0163451
572.599	0.0163615
572.677	0.0164681
572.755	0.0162796
572.833	0.0163148
572.911	0.0163413
572.989	0.0163486
573.067	0.0162054
573.146	0.0162809
573.224	0.0162946
573.302	0.0163617
573.380	0.0162730
573.458	0.0161471
573.536	0.0161944
573.614	0.0162508
573.692	0.0162889
573.771	0.0162498
573.849	0.0161912
573.927	0.0163100
574.005	0.0163134
574.083	0.0161850
574.161	0.0162506
574.239	0.0162091
574.317	0.0162082
574.396	0.0163169
574.474	0.0161711
574.552	0.0162183
574.630	0.0163793
574.708	0.0163035
574.786	0.0162644
574.864	0.0163388
574.942	0.0163294
575.021	0.0161426
575.099	0.0163042
575.177	0.0163303
575.255	0.0162785
575.333	0.0161937
575.411	0.0163563
575.489	0.0161813
575.567	0.0161579
575.646	0.0163307
575.724	0.0162109
575.802	0.0162410
575.880	0.0163965
575.958	0.0162841
576.036	0.0163777
576.114	0.0162989
576.192	0.0163675
576.271	0.0162879
576.349	0.0163123
576.427	0.0163046
576.505	0.0162498
576.583	0.0163669
576.661	0.0163678
576.739	0.0163132
576.817	0.0163113
576.896	0.0163515
576.974	0.0163657
577.052	0.0163419
577.130	0.0163291
577.208	0.0162994
577.286	0.0163177
577.364	0.0163223
577.442	0.0164217
577.521	0.0164222
577.599	0.0163452
577.677	0.0163669
577.755	0.0163343
577.833	0.0163081
577.911	0.0164001
577.989	0.0163497
578.067	0.0163977
578.146	0.0163834
578.224	0.0162070
578.302	0.0162518
578.380	0.0163671
578.458	0.0163573
578.536	0.0164895
578.614	0.0164256
578.692	0.0164381
578.771	0.0163203
578.849	0.0161991
578.927	0.0162601
579.005	0.0163778
579.083	0.0163040
579.161	0.0163343
579.239	0.0162393
579.317	0.0164541
579.396	0.0164632
579.474	0.0162127
579.552	0.0162646
579.630	0.0164321
579.708	0.0163310
579.786	0.0163779
579.864	0.0163796
579.942	0.0164993
580.021	0.0163119
580.099	0.0163834
580.177	0.0163369
580.255	0.0164211
580.333	0.0164717
580.411	0.0163634
580.489	0.0163818
580.567	0.0162911
580.646	0.0163496
580.724	0.0164185
580.802	0.0163215
580.880	0.0163378
580.958	0.0164285
581.036	0.0163734
581.114	0.0163261
581.192	0.0163412
581.271	0.0163565
581.349	0.0163515
581.427	0.0163263
581.505	0.0164206
581.583	0.0162989
581.661	0.0163152
581.739	0.0162987
581.817	0.0162495
581.896	0.0164300
581.974	0.0165272
582.052	0.0162281
582.130	0.0162126
582.208	0.0164130
582.286	0.0162322
582.364	0.0163142
582.442	0.0162910
582.521	0.0163366
582.599	0.0163634
582.677	0.0162715
582.755	0.0163447
582.833	0.0163204
582.911	0.0164700
582.989	0.0163696
583.067	0.0162363
583.146	0.0163844
583.224	0.0162921
583.302	0.0163604
583.380	0.0164993
583.458	0.0162415
583.536	0.0162476
583.614	0.0162198
583.692	0.0162861
583.771	0.0164516
583.849	0.0162643
583.927	0.0163468
584.005	0.0164757
584.083	0.0161871
584.161	0.0163966
584.239	0.0163976
584.317	0.0162637
584.396	0.0162723
584.474	0.0164128
584.552	0.0163882
584.630	0.0164398
584.708	0.0164265
584.786	0.0164296
584.864	0.0164349
584.942	0.0163949
585.021	0.0164386
585.099	0.0164507
585.177	0.0164069
585.255	0.0163192
585.333	0.0163969
585.411	0.0164419
585.489	0.0165647
585.567	0.0163840
585.646	0.0163756
585.724	0.0165356
585.802	0.0164195
585.880	0.0165108
585.958	0.0164079
586.036	0.0163382
586.114	0.0164089
586.192	0.0164037
586.271	0.0163853
586.349	0.0163419
586.427	0.0164370
586.505	0.0163389
586.583	0.0163645
586.661	0.0163703
586.739	0.0164820
586.817	0.0163391
586.896	0.0163341
586.974	0.0163735
587.052	0.0163045
587.130	0.0163460
587.208	0.0163171
587.286	0.0164192
587.364	0.0163541
587.442	0.0164400
587.521	0.0162436
587.599	0.0164301
587.677	0.0164306
587.755	0.0163361
587.833	0.0163401
587.911	0.0162980
587.989	0.0163992
588.067	0.0163159
588.146	0.0163151
588.224	0.0164249
588.302	0.0164552
588.380	0.0163593
588.458	0.0163974
588.536	0.0164690
588.614	0.0162189
588.692	0.0161755
588.771	0.0164064
588.849	0.0163292
588.927	0.0163696
589.005	0.0163900
589.083	0.0162515
589.161	0.0163141
589.239	0.0164281
589.317	0.0163654
589.396	0.0163426
589.474	0.0163752
589.552	0.0163751
589.630	0.0163654
589.708	0.0163017
589.786	0.0164264
589.864	0.0163303
589.942	0.0163621
590.021	0.0163153
590.099	0.0163248
590.177	0.0162077
590.255	0.0163293
590.333	0.0163165
590.411	0.0162766
590.489	0.0162657
590.567	0.0162444
590.646	0.0163417
590.724	0.0162849
590.802	0.0161372
590.880	0.0162333
590.958	0.0162842
591.036	0.0162663
591.114	0.0162841
591.192	0.0163815
591.271	0.0162785
591.349	0.0161686
591.427	0.0163300
591.505	0.0163335
591.583	0.0163340
591.661	0.0164075
591.739	0.0162810
591.817	0.0163178
591.896	0.0163052
591.974	0.0162388
592.052	0.0162076
592.130	0.0163991
592.208	0.0163148
592.286	0.0163540
592.364	0.0163364
592.442	0.0163453
592.521	0.0163173
592.599	0.0164136
592.677	0.0162910
592.755	0.0162730
592.833	0.0164301
592.911	0.0162695
592.989	0.0162640
593.067	0.0161612
593.146	0.0161427
593.224	0.0161674
593.302	0.0162962
593.380	0.0162421
593.458	0.0162717
593.536	0.0162663
593.614	0.0162617
593.692	0.0162676
593.771	0.0163281
593.849	0.0163242
593.927	0.0162544
594.005	0.0164275
594.083	0.0164134
594.161	0.0162479
594.239	0.0162711
594.317	0.0163017
594.396	0.0163053
594.474	0.0163435
594.552	0.0162545
594.630	0.0161481
594.708	0.0163498
594.786	0.0163324
594.864	0.0162518
594.942	0.0162386
595.021	0.0163522
595.099	0.0162326
595.177	0.0162253
595.255	0.0163320
595.333	0.0162357
595.411	0.0163438
595.489	0.0162965
595.567	0.0163313
595.646	0.0162553
595.724	0.0163008
595.802	0.0163465
595.880	0.0163798
595.958	0.0162300
596.036	0.0163146
596.114	0.0162636
596.192	0.0162144
596.271	0.0161923
596.349	0.0163132
596.427	0.0162499
596.505	0.0163235
596.583	0.0162125
596.661	0.0162883
596.739	0.0162511
596.817	0.0162658
596.896	0.0162639
596.974	0.0163557
597.052	0.0163425
597.130	0.0161842
597.208	0.0164982
597.286	0.0162986
597.364	0.0162994
597.442	0.0162907
597.521	0.0162649
597.599	0.0162692
597.677	0.0162847
597.755	0.0163503
597.833	0.0162994
597.911	0.0163219
597.989	0.0164098
598.067	0.0162962
598.146	0.0163448
598.224	0.0163533
598.302	0.0161812
598.380	0.0162667
598.458	0.0163357
598.536	0.0164000
598.614	0.0163947
598.692	0.0163454
598.771	0.0162434
598.849	0.0164312
598.927	0.0163682
599.005	0.0161845
599.083	0.0163266
599.161	0.0163908
599.239	0.0163414
599.317	0.0162775
599.396	0.0161559
599.474	0.0163548
599.552	0.0163121
599.630	0.0163482
599.708	0.0162894
599.786	0.0164765
599.864	0.0162659
599.942	0.0164713
600.021	0.0161843
600.099	0.0163963
600.177	0.0162959
600.255	0.0163020
600.333	0.0163478
600.411	0.0163004
600.489	0.0161782
600.567	0.0163028
600.646	0.0164875
600.724	0.0163560
600.802	0.0162819
600.880	0.0161741
600.958	0.0162727
601.036	0.0163788
601.114	0.0164354
601.192	0.0163263
601.271	0.0163293
601.349	0.0163721
601.427	0.0162885
601.505	0.0162374
601.583	0.0161794
601.661	0.0162857
601.739	0.0162154
601.817	0.0163133
601.896	0.0163042
601.974	0.0162853
602.052	0.0162939
602.130	0.0163656
602.208	0.0162941
602.286	0.0162507
602.364	0.0163589
602.442	0.0162538
602.521	0.0162544
602.599	0.0162529
602.677	0.0163597
602.755	0.0162180
602.833	0.0162491
602.911	0.0163116
602.989	0.0162704
603.067	0.0162474
603.146	0.0161842
603.224	0.0164608
603.302	0.0163837
603.380	0.0162808
603.458	0.0163692
603.536	0.0163341
603.614	0.0164290
603.692	0.0163331
603.771	0.0164449
603.849	0.0163239
603.927	0.0163613
604.005	0.0164165
604.083	0.0163275
604.161	0.0162868
604.239	0.0163286
604.317	0.0164742
604.396	0.0163988
604.474	0.0163136
604.552	0.0163572
604.630	0.0163623
604.708	0.0163327
604.786	0.0162431
604.864	0.0164733
604.942	0.0163282
605.021	0.0162992
605.099	0.0164368
605.177	0.0163453
605.255	0.0163246
605.333	0.0163532
605.411	0.0164948
605.489	0.0164883
605.567	0.0162748
605.646	0.0163708
605.724	0.0163659
605.802	0.0164673
605.880	0.0163726
605.958	0.0164045
606.036	0.0163799
606.114	0.0162755
606.192	0.0164120
606.271	0.0164730
606.349	0.0163866
606.427	0.0163792
606.505	0.0163541
606.583	0.0162639
606.661	0.0164219
606.739	0.0162709
606.817	0.0163196
606.896	0.0163652
606.974	0.0163399
607.052	0.0162437
607.130	0.0164146
607.208	0.0164327
607.286	0.0164788
607.364	0.0164362
607.442	0.0163184
607.521	0.0163383
607.599	0.0162283
607.677	0.0163208
607.755	0.0164343
607.833	0.0162922
607.911	0.0162305
607.989	0.0164458
608.067	0.0164439
608.146	0.0163927
608.224	0.0162513
608.302	0.0163988
608.380	0.0162741
608.458	0.0163553
608.536	0.0162954
608.614	0.0165120
608.692	0.0164624
608.771	0.0162885
608.849	0.0163427
608.927	0.0164949
609.005	0.0163430
609.083	0.0162772
609.161	0.0164597
609.239	0.0164880
609.317	0.0162722
609.396	0.0164117
609.474	0.0163251
609.552	0.0163707
609.630	0.0163518
609.708	0.0161904
609.786	0.0163329
609.864	0.0165909
609.942	0.0164223
610.021	0.0161998
610.099	0.0163033
610.177	0.0161638
610.255	0.0162312
610.333	0.0162878
610.411	0.0161555
610.489	0.0163869
610.567	0.0161736
610.646	0.0161980
610.724	0.0163945
610.802	0.0162743
610.880	0.0162119
610.958	0.0163338
611.036	0.0162226
611.114	0.0163271
611.192	0.0162263
611.271	0.0162894
611.349	0.0161721
611.427	0.0162892
611.505	0.0162072
611.583	0.0163036
611.661	0.0162653
611.739	0.0162003
611.817	0.0162521
611.896	0.0164007
611.974	0.0162824
612.052	0.0161948
612.130	0.0163560
612.208	0.0162959
612.286	0.0163883
612.364	0.0162276
612.442	0.0162183
612.521	0.0162127
612.599	0.0164069
612.677	0.0164271
612.755	0.0163412
612.833	0.0162914
612.911	0.0164549
612.989	0.0163894
613.067	0.0163715
613.146	0.0163013
613.224	0.0163584
613.302	0.0164383
613.380	0.0163898
613.458	0.0163260
613.536	0.0164229
613.614	0.0163631
613.692	0.0163749
613.771	0.0164299
613.849	0.0164375
613.927	0.0164252
614.005	0.0161896
614.083	0.0164907
614.161	0.0164029
614.239	0.0163306
614.317	0.0163896
614.396	0.0162553
614.474	0.0164242
614.552	0.0163290
614.630	0.0163619
614.708	0.0164408
614.786	0.0163396
614.864	0.0163686
614.942	0.0163073
615.021	0.0162939
615.099	0.0163821
615.177	0.0164249
615.255	0.0163432
615.333	0.0163815
615.411	0.0163696
615.489	0.0164111
615.567	0.0162186
615.646	0.0163289
615.724	0.0163196
615.802	0.0163639
615.880	0.0164224
615.958	0.0162730
616.036	0.0162415
616.114	0.0163879
616.192	0.0162683
616.271	0.0163517
616.349	0.0163220
616.427	0.0162543
616.505	0.0163893
616.583	0.0164388
616.661	0.0163418
616.739	0.0164146
616.817	0.0163103
616.896	0.0163236
616.974	0.0163123
617.052	0.0163214
617.130	0.0162480
617.208	0.0163115
617.286	0.0163168
617.364	0.0162810
617.442	0.0162701
617.521	0.0162919
617.599	0.0163606
617.677	0.0163043
617.755	0.0163781
617.833	0.0164104
617.911	0.0162689
617.989	0.0163383
618.067	0.0162225
618.146	0.0163560
618.224	0.0163295
618.302	0.0162644
618.380	0.0162804
618.458	0.0163969
618.536	0.0163231
618.614	0.0163645
618.692	0.0163312
618.771	0.0164114
618.849	0.0163662
618.927	0.0162916
619.005	0.0162526
619.083	0.0162206
619.161	0.0163381
619.239	0.0164113
619.317	0.0162668
619.396	0.0164095
619.474	0.0162166
619.552	0.0163749
619.630	0.0164054
619.708	0.0163799
619.786	0.0162951
619.864	0.0164069
619.942	0.0162312
620.021	0.0163964
620.099	0.0163954
620.177	0.0164124
620.255	0.0164458
620.333	0.0164236
620.411	0.0163077
620.489	0.0164269
620.567	0.0162730
620.646	0.0163297
620.724	0.0164298
620.802	0.0164809
620.880	0.0163654
620.958	0.0163100
621.036	0.0163818
621.114	0.0163744
621.192	0.0164780
621.271	0.0163236
621.349	0.0163917
621.427	0.0163167
621.505	0.0162888
621.583	0.0164046
621.661	0.0162810
621.739	0.0162827
621.817	0.0163103
621.896	0.0163612
621.974	0.0163600
622.052	0.0163089
622.130	0.0163389
622.208	0.0162727
622.286	0.0162167
622.364	0.0163099
622.442	0.0164748
622.521	0.0163770
622.599	0.0162532
622.677	0.0162685
622.755	0.0163284
622.833	0.0163824
622.911	0.0162843
622.989	0.0162949
623.067	0.0163725
623.146	0.0164511
623.224	0.0164323
623.302	0.0163262
623.380	0.0163588
623.458	0.0163708
623.536	0.0163424
623.614	0.0163284
623.692	0.0163333
623.771	0.0163632
623.849	0.0163360
623.927	0.0163097
624.005	0.0163510
624.083	0.0163609
624.161	0.0161912
624.239	0.0163947
624.317	0.0163634
624.396	0.0163287
624.474	0.0163356
624.552	0.0162502
624.630	0.0163184
624.708	0.0164010
624.786	0.0163101
624.864	0.0162863
624.942	0.0163555
625.021	0.0163038
625.099	0.0164111
625.177	0.0162762
625.255	0.0162582
625.333	0.0163322
625.411	0.0164622
625.489	0.0163832
625.567	0.0163515
625.646	0.0162756
625.724	0.0162000
625.802	0.0162734
625.880	0.0163429
625.958	0.0161987
626.036	0.0163926
626.114	0.0163692
626.192	0.0162816
626.271	0.0163261
626.349	0.0163422
626.427	0.0162852
626.505	0.0162640
626.583	0.0164403
626.661	0.0162562
626.739	0.0163436
626.817	0.0162390
626.896	0.0163464
626.974	0.0163988
627.052	0.0163573
627.130	0.0163240
627.208	0.0163135
627.286	0.0163485
627.364	0.0163199
627.442	0.0163663
627.521	0.0163043
627.599	0.0163691
627.677	0.0163358
627.755	0.0163094
627.833	0.0164272
627.911	0.0163679
627.989	0.0162806
628.067	0.0164543
628.146	0.0162669
628.224	0.0164243
628.302	0.0164069
628.380	0.0163233
628.458	0.0162840
628.536	0.0163737
628.614	0.0163645
628.692	0.0163477
628.771	0.0162238
628.849	0.0163575
628.927	0.0163433
629.005	0.0163194
629.083	0.0162197
629.161	0.0162259
629.239	0.0164331
629.317	0.0161893
629.396	0.0162379
629.474	0.0163058
629.552	0.0162673
629.630	0.0162973
629.708	0.0164114
629.786	0.0162185
629.864	0.0163277
629.942	0.0162367
630.021	0.0161288
630.099	0.0162524
630.177	0.0163596
630.255	0.0163213
630.333	0.0163634
630.411	0.0161887
630.489	0.0162063
630.567	0.0162555
630.646	0.0163282
630.724	0.0163573
630.802	0.0162836
630.880	0.0163715
630.958	0.0162438
631.036	0.0161230
631.114	0.0162398
631.192	0.0162881
631.271	0.0162949
631.349	0.0161900
631.427	0.0161501
631.505	0.0162653
631.583	0.0164076
631.661	0.0164049
631.739	0.0163783
631.817	0.0162747
631.896	0.0163322
631.974	0.0162952
632.052	0.0161994
632.130	0.0162819
632.208	0.0163068
632.286	0.0164024
632.364	0.0164134
632.442	0.0163951
632.521	0.0163330
632.599	0.0164024
632.677	0.0163451
632.755	0.0163050
632.833	0.0162988
632.911	0.0162796
632.989	0.0163550
633.067	0.0163451
633.146	0.0162586
633.224	0.0163185
633.302	0.0163097
633.380	0.0164312
633.458	0.0162692
633.536	0.0163306
633.614	0.0163503
633.692	0.0162741
633.771	0.0163262
633.849	0.0162793
633.927	0.0162172
634.005	0.0162484
634.083	0.0162669
634.161	0.0162450
634.239	0.0163625
634.317	0.0163400
634.396	0.0163033
634.474	0.0163267
634.552	0.0163407
634.630	0.0163708
634.708	0.0163896
634.786	0.0163176
634.864	0.0162445
634.942	0.0162781
635.021	0.0164781
635.099	0.0164227
635.177	0.0162908
635.255	0.0164349
635.333	0.0163880
635.411	0.0165539
635.489	0.0163599
635.567	0.0163927
635.646	0.0164291
635.724	0.0164212
635.802	0.0162595
635.880	0.0164001
635.958	0.0163065
636.036	0.0164115
636.114	0.0164691
636.192	0.0163899
636.271	0.0163056
636.349	0.0163608
636.427	0.0163639
636.505	0.0163982
636.583	0.0162991
636.661	0.0165786
636.739	0.0163907
636.817	0.0163474
636.896	0.0164282
636.974	0.0162905
637.052	0.0163475
637.130	0.0163593
637.208	0.0164883
637.286	0.0165403
637.364	0.0163657
637.442	0.0162917
637.521	0.0163454
637.599	0.0164645
637.677	0.0165685
637.755	0.0163075
637.833	0.0164082
637.911	0.0163842
637.989	0.0163554
638.067	0.0163374
638.146	0.0163148
638.224	0.0165379
638.302	0.0164248
638.380	0.0162614
638.458	0.0164069
638.536	0.0164068
638.614	0.0163457
638.692	0.0163289
638.771	0.0164526
638.849	0.0163493
638.927	0.0164996
639.005	0.0163477
639.083	0.0163339
639.161	0.0163853
639.239	0.0163464
639.317	0.0163956
639.396	0.0164324
639.474	0.0162971
639.552	0.0162929
639.630	0.0163892
639.708	0.0165364
639.786	0.0163738
639.864	0.0163033
639.942	0.0164034
640.021	0.0165376
640.099	0.0163948
640.177	0.0162823
640.255	0.0163799
640.333	0.0164208
640.411	0.0162971
640.489	0.0163007
640.567	0.0164485
640.646	0.0164652
640.724	0.0163166
640.802	0.0162914
640.880	0.0164358
640.958	0.0163277
641.036	0.0164520
641.114	0.0163551
641.192	0.0163863
641.271	0.0165335
641.349	0.0162716
641.427	0.0162720
641.505	0.0163844
641.583	0.0163866
641.661	0.0161799
641.739	0.0163885
641.817	0.0164662
641.896	0.0163049
641.974	0.0162672
642.052	0.0163352
642.130	0.0163100
642.208	0.0163007
642.286	0.0163427
642.364	0.0164157
642.442	0.0163195
642.521	0.0164425
642.599	0.0163717
642.677	0.0164812
642.755	0.0164227
642.833	0.0163653
642.911	0.0163533
642.989	0.0162705
643.067	0.0163521
643.146	0.0163556
643.224	0.0163503
643.302	0.0163016
643.380	0.0163503
643.458	0.0163113
643.536	0.0162330
643.614	0.0162878
643.692	0.0164097
643.771	0.0163232
643.849	0.0163049
643.927	0.0163543
644.005	0.0163116
644.083	0.0163457
644.161	0.0163195
644.239	0.0163995
644.317	0.0162763
644.396	0.0162856
644.474	0.0163157
644.552	0.0162432
644.630	0.0162942
644.708	0.0162727
644.786	0.0164231
644.864	0.0163699
644.942	0.0164340
645.021	0.0162950
645.099	0.0163110
645.177	0.0162274
645.255	0.0162042
645.333	0.0164445
645.411	0.0162928
645.489	0.0164182
645.567	0.0163585
645.646	0.0161780
645.724	0.0163201
645.802	0.0163897
645.880	0.0164359
645.958	0.0163429
646.036	0.0162473
646.114	0.0163191
646.192	0.0163025
646.271	0.0163512
646.349	0.0164735
646.427	0.0162814
646.505	0.0164404
646.583	0.0162598
646.661	0.0163224
646.739	0.0163097
646.817	0.0163569
646.896	0.0162361
646.974	0.0162965
647.052	0.0162917
647.130	0.0163670
647.208	0.0162730
647.286	0.0164244
647.364	0.0165134
647.442	0.0163871
647.521	0.0163430
647.599	0.0162582
647.677	0.0162133
647.755	0.0162846
647.833	0.0163793
647.911	0.0163044
647.989	0.0163860
648.067	0.0162737
648.146	0.0162292
648.224	0.0162721
648.302	0.0163271
648.380	0.0162498
648.458	0.0163150
648.536	0.0163884
648.614	0.0163734
648.692	0.0162241
648.771	0.0162492
648.849	0.0163551
648.927	0.0162029
649.005	0.0162575
649.083	0.0162864
649.161	0.0163449
649.239	0.0162248
649.317	0.0163464
649.396	0.0163857
649.474	0.0163635
649.552	0.0163141
649.630	0.0162665
649.708	0.0161311
649.786	0.0161728
649.864	0.0161999
649.942	0.0162942
650.021	0.0162520
650.099	0.0162585
650.177	0.0163245
650.255	0.0162939
650.333	0.0160480
650.411	0.0163020
650.489	0.0162077
650.567	0.0162591
650.646	0.0162202
650.724	0.0162713
650.802	0.0163677
650.880	0.0161942
650.958	0.0162174
651.036	0.0164256
651.114	0.0163791
651.192	0.0162962
651.271	0.0162973
651.349	0.0162830
651.427	0.0161978
651.505	0.0162739
651.583	0.0162683
651.661	0.0161125
651.739	0.0164278
651.817	0.0163414
651.896	0.0161964
651.974	0.0164165
652.052	0.0164508
652.130	0.0162578
652.208	0.0163377
652.286	0.0164195
652.364	0.0163876
652.442	0.0161670
652.521	0.0161766
652.599	0.0163083
652.677	0.0163439
652.755	0.0162591
652.833	0.0162621
652.911	0.0162759
652.989	0.0163341
653.067	0.0164312
653.146	0.0162180
653.224	0.0165334
653.302	0.0164948
653.380	0.0162978
653.458	0.0162915
653.536	0.0164156
653.614	0.0163184
653.692	0.0165070
653.771	0.0163326
653.849	0.0162134
653.927	0.0163548
654.005	0.0164922
654.083	0.0164561
654.161	0.0162810
654.239	0.0163244
654.317	0.0163213
654.396	0.0164538
654.474	0.0164227
654.552	0.0163791
654.630	0.0164146
654.708	0.0163052
654.786	0.0163508
654.864	0.0163753
654.942	0.0163102
655.021	0.0162353
655.099	0.0161545
655.177	0.0162749
655.255	0.0164203
655.333	0.0163807
655.411	0.0162208
655.489	0.0164067
655.567	0.0163046
655.646	0.0163795
655.724	0.0163172
655.802	0.0162473
655.880	0.0162991
655.958	0.0162861
656.036	0.0162778
656.114	0.0164503
656.192	0.0164375
656.271	0.0162736
656.349	0.0162637
656.427	0.0165089
656.505	0.0163511
656.583	0.0164204
656.661	0.0164003
656.739	0.0163487
656.817	0.0164333
656.896	0.0162244
656.974	0.0165151
657.052	0.0164608
657.130	0.0163122
657.208	0.0162758
657.286	0.0163242
657.364	0.0163520
657.442	0.0162910
657.521	0.0161163
657.599	0.0161769
657.677	0.0163297
657.755	0.0162811
657.833	0.0162523
657.911	0.0163560
657.989	0.0163736
658.067	0.0163715
658.146	0.0164676
658.224	0.0165075
658.302	0.0163918
658.380	0.0164432
658.458	0.0164789
658.536	0.0163720
658.614	0.0164823
658.692	0.0163818
658.771	0.0162482
658.849	0.0162946
658.927	0.0162920
659.005	0.0161917
659.083	0.0161626
659.161	0.0161736
659.239	0.0163166
659.317	0.0162825
659.396	0.0164007
659.474	0.0163107
659.552	0.0165258
659.630	0.0164079
659.708	0.0165877
659.786	0.0167098
659.864	0.0165277
659.942	0.0165176
660.021	0.0165257
660.099	0.0163397
660.177	0.0164394
660.255	0.0161084
660.333	0.0161892
660.411	0.0162566
660.489	0.0163058
660.567	0.0162709
660.646	0.0163293
660.724	0.0162986
660.802	0.0162193
660.880	0.0161980
660.958	0.0162757
661.036	0.0163920
661.114	0.0163894
661.192	0.0163508
661.271	0.0165050
661.349	0.0163786
661.427	0.0163313
661.505	0.0164346
661.583	0.0164157
661.661	0.0164886
661.739	0.0163235
661.817	0.0162807
661.896	0.0162827
661.974	0.0162676
662.052	0.0162268
662.130	0.0162691
662.208	0.0163211
662.286	0.0162608
662.364	0.0162992
662.442	0.0163335
662.521	0.0163376
662.599	0.0164092
662.677	0.0164948
662.755	0.0164324
662.833	0.0164852
662.911	0.0163448
662.989	0.0163358
663.067	0.0164737
663.146	0.0164043
663.224	0.0163803
663.302	0.0163670
663.380	0.0162817
663.458	0.0163411
663.536	0.0163790
663.614	0.0162910
663.692	0.0163879
663.771	0.0165114
663.849	0.0162910
663.927	0.0163496
664.005	0.0164631
664.083	0.0163171
664.161	0.0163245
664.239	0.0165273
664.317	0.0164501
664.396	0.0162935
664.474	0.0162621
664.552	0.0162518
664.630	0.0161018
664.708	0.0162010
664.786	0.0160277
664.864	0.0162882
664.942	0.0163074
665.021	0.0161723
665.099	0.0162886
665.177	0.0162455
665.255	0.0162833
665.333	0.0163462
665.411	0.0162624
665.489	0.0162773
665.567	0.0163145
665.646	0.0162515
665.724	0.0162432
665.802	0.0163042
665.880	0.0162197
665.958	0.0161255
666.036	0.0161075
666.114	0.0160233
666.192	0.0161444
666.271	0.0162096
666.349	0.0160745
666.427	0.0163568
666.505	0.0163385
666.583	0.0162413
666.661	0.0161736
666.739	0.0165019
666.817	0.0163786
666.896	0.0163192
666.974	0.0164752
667.052	0.0163735
667.130	0.0162944
667.208	0.0163763
667.286	0.0162793
667.364	0.0162933
667.442	0.0162457
667.521	0.0162218
667.599	0.0163448
667.677	0.0163940
667.755	0.0162397
667.833	0.0162836
667.911	0.0163267
667.989	0.0163245
668.067	0.0163126
668.146	0.0162691
668.224	0.0164384
668.302	0.0164922
668.380	0.0161675
668.458	0.0162777
668.536	0.0162423
668.614	0.0162070
668.692	0.0162334
668.771	0.0162399
668.849	0.0162363
668.927	0.0163263
669.005	0.0162542
669.083	0.0161816
669.161	0.0162213
669.239	0.0163758
669.317	0.0163145
669.396	0.0162387
669.474	0.0162708
669.552	0.0162827
669.630	0.0162519
669.708	0.0163367
669.786	0.0162497
669.864	0.0161083
669.942	0.0162960
670.021	0.0162596
670.099	0.0162415
670.177	0.0162121
670.255	0.0162398
670.333	0.0161295
670.411	0.0161410
670.489	0.0163277
670.567	0.0161605
670.646	0.0162444
670.724	0.0163242
670.802	0.0162498
670.880	0.0162504
670.958	0.0162527
671.036	0.0162350
671.114	0.0162134
671.192	0.0162446
671.271	0.0161613
671.349	0.0163785
671.427	0.0162963
671.505	0.0162414
671.583	0.0163184
671.661	0.0161483
671.739	0.0161687
671.817	0.0162410
671.896	0.0162872
671.974	0.0162723
672.052	0.0161934
672.130	0.0162031
672.208	0.0161607
672.286	0.0163591
672.364	0.0162767
672.442	0.0161674
672.521	0.0161745
672.599	0.0161141
672.677	0.0161369
672.755	0.0163656
672.833	0.0162103
672.911	0.0163160
672.989	0.0164072
673.067	0.0163100
673.146	0.0163742
673.224	0.0163766
673.302	0.0164978
673.380	0.0162973
673.458	0.0162241
673.536	0.0163750
673.614	0.0163392
673.692	0.0162640
673.771	0.0161134
673.849	0.0162120
673.927	0.0160294
674.005	0.0161972
674.083	0.0162937
674.161	0.0160843
674.239	0.0162457
674.317	0.0161225
674.396	0.0162717
674.474	0.0163715
674.552	0.0163996
674.630	0.0163558
674.708	0.0163163
674.786	0.0164967
674.864	0.0164750
674.942	0.0165431
675.021	0.0163683
675.099	0.0163089
675.177	0.0163351
675.255	0.0163355
675.333	0.0162868
675.411	0.0163043
675.489	0.0162203
675.567	0.0161774
675.646	0.0160431
675.724	0.0162281
675.802	0.0163546
675.880	0.0163001
675.958	0.0162357
676.036	0.0163351
676.114	0.0164052
676.192	0.0164074
676.271	0.0163260
676.349	0.0163741
676.427	0.0162807
676.505	0.0163113
676.583	0.0163515
676.661	0.0162376
676.739	0.0162442
676.817	0.0161575
676.896	0.0161974
676.974	0.0161463
677.052	0.0162386
677.130	0.0161536
677.208	0.0162100
677.286	0.0161555
677.364	0.0162640
677.442	0.0163208
677.521	0.0161884
677.599	0.0161913
677.677	0.0163581
677.755	0.0165240
677.833	0.0162620
677.911	0.0164190
677.989	0.0164334
678.067	0.0163743
678.146	0.0162748
678.224	0.0164927
678.302	0.0164344
678.380	0.0163817
678.458	0.0163198
678.536	0.0162058
678.614	0.0162556
678.692	0.0164051
678.771	0.0163378
678.849	0.0164281
678.927	0.0163291
679.005	0.0162998
679.083	0.0163103
679.161	0.0163485
679.239	0.0163233
679.317	0.0163475
679.396	0.0163580
679.474	0.0164455
679.552	0.0163927
679.630	0.0163311
679.708	0.0163094
679.786	0.0163688
679.864	0.0163574
679.942	0.0163510
680.021	0.0162636
680.099	0.0161724
680.177	0.0164019
680.255	0.0165440
680.333	0.0163872
680.411	0.0163928
680.489	0.0161759
680.567	0.0162631
680.646	0.0163049
680.724	0.0163168
680.802	0.0162556
680.880	0.0164295
680.958	0.0162469
681.036	0.0161924
681.114	0.0164288
681.192	0.0164938
681.271	0.0162060
681.349	0.0163592
681.427	0.0164424
681.505	0.0163704
681.583	0.0163367
681.661	0.0163134
681.739	0.0163564
681.817	0.0164426
681.896	0.0163396
681.974	0.0163101
682.052	0.0163303
682.130	0.0163506
682.208	0.0162243
682.286	0.0162027
682.364	0.0163222
682.442	0.0163092
682.521	0.0162904
682.599	0.0163072
682.677	0.0162938
682.755	0.0163454
682.833	0.0163560
682.911	0.0163145
682.989	0.0163393
683.067	0.0164906
683.146	0.0163544
683.224	0.0164027
683.302	0.0162238
683.380	0.0162297
683.458	0.0163152
683.536	0.0163287
683.614	0.0162526
683.692	0.0165118
683.771	0.0162608
683.849	0.0162785
683.927	0.0162565
684.005	0.0162722
684.083	0.0163491
684.161	0.0163593
684.239	0.0163427
684.317	0.0164285
684.396	0.0163473
684.474	0.0163367
684.552	0.0164204
684.630	0.0164251
684.708	0.0163247
684.786	0.0163767
684.864	0.0163292
684.942	0.0163229
685.021	0.0163024
685.099	0.0163837
685.177	0.0164173
685.255	0.0164160
685.333	0.0162118
685.411	0.0162725
685.489	0.0164059
685.567	0.0163081
685.646	0.0162140
685.724	0.0162683
685.802	0.0161951
685.880	0.0161595
685.958	0.0161348
686.036	0.0163205
686.114	0.0162611
686.192	0.0162845
686.271	0.0162910
686.349	0.0161663
686.427	0.0162920
686.505	0.0163556
686.583	0.0163477
686.661	0.0163647
686.739	0.0164354
686.817	0.0162844
686.896	0.0163187
686.974	0.0165521
687.052	0.0165337
687.130	0.0164676
687.208	0.0164365
687.286	0.0162746
687.364	0.0162828
687.442	0.0162634
687.521	0.0163226
687.599	0.0162610
687.677	0.0163935
687.755	0.0163042
687.833	0.0162200
687.911	0.0163207
687.989	0.0163017
688.067	0.0164080
688.146	0.0163039
688.224	0.0163331
688.302	0.0164041
688.380	0.0162548
688.458	0.0163281
688.536	0.0163039
688.614	0.0164035
688.692	0.0163876
688.771	0.0163888
688.849	0.0162843
688.927	0.0161916
689.005	0.0162273
689.083	0.0162234
689.161	0.0162127
689.239	0.0161372
689.317	0.0162643
689.396	0.0162772
689.474	0.0162216
689.552	0.0164924
689.630	0.0162557
689.708	0.0162696
689.786	0.0163762
689.864	0.0163293
689.942	0.0162614
690.021	0.0163467
690.099	0.0162523
690.177	0.0164559
690.255	0.0163164
690.333	0.0161302
690.411	0.0161079
690.489	0.0161784
690.567	0.0160368
690.646	0.0161223
690.724	0.0160216
690.802	0.0160255
690.880	0.0160579
690.958	0.0160614
691.036	0.0161037
691.114	0.0159891
691.192	0.0160533
691.271	0.0161869
691.349	0.0161728
691.427	0.0161338
691.505	0.0163258
691.583	0.0162646
691.661	0.0162712
691.739	0.0163466
691.817	0.0163309
691.896	0.0162982
691.974	0.0163902
692.052	0.0163193
692.130	0.0162577
692.208	0.0162046
692.286	0.0164191
692.364	0.0162853
692.442	0.0163374
692.521	0.0162770
692.599	0.0162175
692.677	0.0162852
692.755	0.0163774
692.833	0.0162135
692.911	0.0162582
692.989	0.0162387
693.067	0.0161764
693.146	0.0161881
693.224	0.0163483
693.302	0.0162319
693.380	0.0162566
693.458	0.0163687
693.536	0.0163104
693.614	0.0163400
693.692	0.0162661
693.771	0.0163107
693.849	0.0164773
693.927	0.0162952
694.005	0.0164341
694.083	0.0163313
694.161	0.0162529
694.239	0.0163425
694.317	0.0163409
694.396	0.0163936
694.474	0.0162225
694.552	0.0162751
694.630	0.0161790
694.708	0.0162067
694.786	0.0162931
694.864	0.0160620
694.942	0.0161620
695.021	0.0162914
695.099	0.0162057
695.177	0.0162212
695.255	0.0163786
695.333	0.0165362
695.411	0.0164320
695.489	0.0164736
695.567	0.0164781
695.646	0.0165100
695.724	0.0165047
695.802	0.0164884
695.880	0.0165626
695.958	0.0165663
696.036	0.0163550
696.114	0.0163888
696.192	0.0163692
696.271	0.0163698
696.349	0.0162170
696.427	0.0162012
696.505	0.0161701
696.583	0.0160443
696.661	0.0160239
696.739	0.0159186
696.817	0.0160512
696.896	0.0159548
696.974	0.0161261
697.052	0.0159765
697.130	0.0159394
697.208	0.0160719
697.286	0.0159854
697.364	0.0159509
697.442	0.0160886
697.521	0.0161806
697.599	0.0160963
697.677	0.0161440
697.755	0.0163169
697.833	0.0163114
697.911	0.0163314
697.989	0.0163464
698.067	0.0163327
698.146	0.0164754
698.224	0.0165891
698.302	0.0163895
698.380	0.0164558
698.458	0.0166754
698.536	0.0166293
698.614	0.0166474
698.692	0.0167117
698.771	0.0167559
698.849	0.0167755
698.927	0.0167708
699.005	0.0167378
699.083	0.0168464
699.161	0.0167815
699.239	0.0167690
699.317	0.0165544
699.396	0.0167709
699.474	0.0167009
699.552	0.0165034
699.630	0.0165459
699.708	0.0164501
699.786	0.0163906
699.864	0.0162688
699.942	0.0161979
700.021	0.0160986
700.099	0.0161227
700.177	0.0161301
700.255	0.0161843
700.333	0.0160689
700.411	0.0159663
700.489	0.0161530
700.567	0.0160799
700.646	0.0161781
700.724	0.0161659
700.802	0.0160549
700.880	0.0162601
700.958	0.0162109
701.036	0.0162934
701.114	0.0163242
701.192	0.0163107
701.271	0.0163828
701.349	0.0165263
701.427	0.0164120
701.505	0.0164684
701.583	0.0164656
701.661	0.0164533
701.739	0.0164658
701.817	0.0164613
701.896	0.0164573
701.974	0.0164660
702.052	0.0162872
702.130	0.0163766
702.208	0.0161308
702.286	0.0161153
702.364	0.0161611
702.442	0.0160810
702.521	0.0161163
702.599	0.0162897
702.677	0.0161731
702.755	0.0161747
702.833	0.0162167
702.911	0.0161651
702.989	0.0161194
703.067	0.0162918
703.146	0.0163389
703.224	0.0165441
703.302	0.0166248
703.380	0.0167503
703.458	0.0166727
703.536	0.0168659
703.614	0.0168169
703.692	0.0167734
703.771	0.0167624
703.849	0.0165917
703.927	0.0165791
704.005	0.0164722
704.083	0.0163557
704.161	0.0163629
704.239	0.0162122
704.317	0.0160368
704.396	0.0160101
704.474	0.0159371
704.552	0.0159611
704.630	0.0159270
704.708	0.0159167
704.786	0.0160609
704.864	0.0159733
704.942	0.0160231
705.021	0.0161170
705.099	0.0161105
705.177	0.0162325
705.255	0.0163692
705.333	0.0164856
705.411	0.0164698
705.489	0.0165150
705.567	0.0167849
705.646	0.0166547
705.724	0.0167526
705.802	0.0169314
705.880	0.0167600
705.958	0.0168441
706.036	0.0167593
706.114	0.0168776
706.192	0.0167570
706.271	0.0168234
706.349	0.0167224
706.427	0.0166023
706.505	0.0165440
706.583	0.0166043
706.661	0.0164651
706.739	0.0163456
706.817	0.0161796
706.896	0.0160936
706.974	0.0161396
707.052	0.0159608
707.130	0.0159011
707.208	0.0157242
707.286	0.0157361
707.364	0.0155874
707.442	0.0154953
707.521	0.0155785
707.599	0.0152897
707.677	0.0154935
707.755	0.0154640
707.833	0.0153655
707.911	0.0154999
707.989	0.0156784
708.067	0.0158016
708.146	0.0160007
708.224	0.0160843
708.302	0.0161332
708.380	0.0162840
708.458	0.0164026
708.536	0.0165461
708.614	0.0165984
708.692	0.0167165
708.771	0.0166681
708.849	0.0167549
708.927	0.0166986
709.005	0.0167830
709.083	0.0168214
709.161	0.0165215
709.239	0.0164591
709.317	0.0163871
709.396	0.0165125
709.474	0.0161521
709.552	0.0159945
709.630	0.0158564
709.708	0.0158842
709.786	0.0158538
709.864	0.0157733
709.942	0.0158817
710.021	0.0159489
710.099	0.0159481
710.177	0.0159071
710.255	0.0160239
710.333	0.0163044
710.411	0.0163653
710.489	0.0163473
710.567	0.0163485
710.646	0.0166464
710.724	0.0166805
710.802	0.0168076
710.880	0.0167471
710.958	0.0167999
711.036	0.0168033
711.114	0.0167413
711.192	0.0169021
711.271	0.0170732
711.349	0.0170512
711.427	0.0170684
711.505	0.0171619
711.583	0.0171779
711.661	0.0169934
711.739	0.0170712
711.817	0.0169696
711.896	0.0169671
711.974	0.0169167
712.052	0.0168865
712.130	0.0167518
712.208	0.0166087
712.286	0.0164280
712.364	0.0163392
712.442	0.0161720
712.521	0.0161520
712.599	0.0159052
712.677	0.0157597
712.755	0.0154924
712.833	0.0153380
712.911	0.0153114
712.989	0.0151469
713.067	0.0149895
713.146	0.0150000
713.224	0.0148476
713.302	0.0148407
713.380	0.0148148
713.458	0.0149231
713.536	0.0150061
713.614	0.0151913
713.692	0.0155933
713.771	0.0156953
713.849	0.0160809
713.927	0.0162855
714.005	0.0165087
714.083	0.0166496
714.161	0.0170053
714.239	0.0172487
714.317	0.0174684
714.396	0.0177000
714.474	0.0176911
714.552	0.0176239
714.630	0.0176740
714.708	0.0177474
714.786	0.0176075
714.864	0.0173453
714.942	0.0171545
715.021	0.0167805
715.099	0.0167883
715.177	0.0165567
715.255	0.0161685
715.333	0.0159351
715.411	0.0157017
715.489	0.0157323
715.567	0.0156128
715.646	0.0154678
715.724	0.0154590
715.802	0.0155453
715.880	0.0155047
715.958	0.0155418
716.036	0.0157405
716.114	0.0158183
716.192	0.0159924
716.271	0.0160249
716.349	0.0160728
716.427	0.0162037
716.505	0.0164304
716.583	0.0162980
716.661	0.0162453
716.739	0.0163645
716.817	0.0164211
716.896	0.0163730
716.974	0.0164212
717.052	0.0163038
717.130	0.0161224
717.208	0.0163352
717.286	0.0162904
717.364	0.0162598
717.442	0.0163815
717.521	0.0165537
717.599	0.0166332
717.677	0.0166544
717.755	0.0167720
717.833	0.0169978
717.911	0.0170610
717.989	0.0170523
718.067	0.0171148
718.146	0.0171164
718.224	0.0172796
718.302	0.0172314
718.380	0.0171554
718.458	0.0172021
718.536	0.0170242
718.614	0.0171198
718.692	0.0170532
718.771	0.0168488
718.849	0.0168326
718.927	0.0167586
719.005	0.0167281
719.083	0.0165660
719.161	0.0164732
719.239	0.0163589
719.317	0.0162925
719.396	0.0161256
719.474	0.0161548
719.552	0.0162545
719.630	0.0159460
719.708	0.0160838
719.786	0.0161588
719.864	0.0160382
719.942	0.0158915
720.021	0.0158122
720.099	0.0158468
720.177	0.0157701
720.255	0.0155788
720.333	0.0155392
720.411	0.0155283
720.489	0.0153444
720.567	0.0152736
720.646	0.0152827
720.724	0.0153430
720.802	0.0152249
720.880	0.0151656
720.958	0.0150143
721.036	0.0149413
721.114	0.0150558
721.192	0.0151212
721.271	0.0150954
721.349	0.0152152
721.427	0.0153211
721.505	0.0154446
721.583	0.0155272
721.661	0.0157809
721.739	0.0159699
721.817	0.0161522
721.896	0.0164637
721.974	0.0166792
722.052	0.0170580
722.130	0.0171608
722.208	0.0175031
722.286	0.0176688
722.364	0.0178120
722.442	0.0180907
722.521	0.0181979
722.599	0.0182716
722.677	0.0183183
722.755	0.0182902
722.833	0.0182265
722.911	0.0181866
722.989	0.0180551
723.067	0.0179310
723.146	0.0176574
723.224	0.0175687
723.302	0.0173692
723.380	0.0171851
723.458	0.0166371
723.536	0.0163675
723.614	0.0160361
723.692	0.0157108
723.771	0.0152856
723.849	0.0150862
723.927	0.0148904
724.005	0.0145471
724.083	0.0143872
724.161	0.0143898
724.239	0.0142948
724.317	0.0141507
724.396	0.0141876
724.474	0.0144775
724.552	0.0147130
724.630	0.0147681
724.708	0.0151959
724.786	0.0156129
724.864	0.0159500
724.942	0.0162604
725.021	0.0166038
725.099	0.0168656
725.177	0.0172136
725.255	0.0173993
725.333	0.0174845
725.411	0.0175884
725.489	0.0173886
725.567	0.0174320
725.646	0.0174538
725.724	0.0174544
725.802	0.0172594
725.880	0.0169077
725.958	0.0168097
726.036	0.0164857
726.114	0.0162696
726.192	0.0161282
726.271	0.0159229
726.349	0.0157764
726.427	0.0156913
726.505	0.0156819
726.583	0.0156815
726.661	0.0157387
726.739	0.0159370
726.817	0.0161270
726.896	0.0163982
726.974	0.0165778
727.052	0.0169889
727.130	0.0171841
727.208	0.0173882
727.286	0.0175941
727.364	0.0174120
727.442	0.0175866
727.521	0.0175448
727.599	0.0175937
727.677	0.0175285
727.755	0.0173885
727.833	0.0171739
727.911	0.0168961
727.989	0.0167577
728.067	0.0164576
728.146	0.0161064
728.224	0.0159536
728.302	0.0156129
728.380	0.0154963
728.458	0.0151986
728.536	0.0151746
728.614	0.0150156
728.692	0.0146431
728.771	0.0145296
728.849	0.0145589
728.927	0.0146416
729.005	0.0145395
729.083	0.0146346
729.161	0.0147215
729.239	0.0148665
729.317	0.0150161
729.396	0.0151044
729.474	0.0152379
729.552	0.0154966
729.630	0.0157420
729.708	0.0159435
729.786	0.0160654
729.864	0.0163332
729.942	0.0163863
730.021	0.0164833
730.099	0.0165248
730.177	0.0165385
730.255	0.0165691
730.333	0.0167293
730.411	0.0166434
730.489	0.0166592
730.567	0.0166721
730.646	0.0167588
730.724	0.0168251
730.802	0.0168275
730.880	0.0169646
730.958	0.0170512
731.036	0.0170372
731.114	0.0170702
731.192	0.0171355
731.271	0.0171923
731.349	0.0168925
731.427	0.0168211
731.505	0.0168665
731.583	0.0167634
731.661	0.0167379
731.739	0.0167535
731.817	0.0166967
731.896	0.0165253
731.974	0.0166245
732.052	0.0167850
732.130	0.0167509
732.208	0.0168250
732.286	0.0170260
732.364	0.0171496
732.442	0.0172460
732.521	0.0173184
732.599	0.0174110
732.677	0.0174168
732.755	0.0175716
732.833	0.0175854
732.911	0.0173884
732.989	0.0173026
733.067	0.0171281
733.146	0.0169514
733.224	0.0168194
733.302	0.0166308
733.380	0.0162106
733.458	0.0159325
733.536	0.0155261
733.614	0.0152271
733.692	0.0149607
733.771	0.0148165
733.849	0.0144577
733.927	0.0142507
734.005	0.0142316
734.083	0.0142513
734.161	0.0141095
734.239	0.0141486
734.317	0.0143295
734.396	0.0143462
734.474	0.0144913
734.552	0.0149504
734.630	0.0150491
734.708	0.0154828
734.786	0.0156951
734.864	0.0160819
734.942	0.0163007
735.021	0.0165195
735.099	0.0166805
735.177	0.0170656
735.255	0.0172238
735.333	0.0173901
735.411	0.0174447
735.489	0.0176528
735.567	0.0176365
735.646	0.0177204
735.724	0.0176893
735.802	0.0175732
735.880	0.0176633
735.958	0.0177071
736.036	0.0176694
736.114	0.0174393
736.192	0.0173908
736.271	0.0172793
736.349	0.0171661
736.427	0.0174429
736.505	0.0171850
736.583	0.0168983
736.661	0.0168343
736.739	0.0168411
736.817	0.0165060
736.896	0.0163120
736.974	0.0161045
737.052	0.0158438
737.130	0.0155876
737.208	0.0154056
737.286	0.0151117
737.364	0.0149369
737.442	0.0147277
737.521	0.0144751
737.599	0.0143411
737.677	0.0141658
737.755	0.0141995
737.833	0.0141897
737.911	0.0142904
737.989	0.0144062
738.067	0.0145103
738.146	0.0148807
738.224	0.0152087
738.302	0.0152327
738.380	0.0155675
738.458	0.0159252
738.536	0.0162201
738.614	0.0163616
738.692	0.0166617
738.771	0.0167843
738.849	0.0168229
738.927	0.0168456
739.005	0.0170101
739.083	0.0171211
739.161	0.0170988
739.239	0.0171711
739.317	0.0173471
739.396	0.0172388
739.474	0.0173944
739.552	0.0173756
739.630	0.0173706
739.708	0.0175020
739.786	0.0176173
739.864	0.0177129
739.942	0.0179173
740.021	0.0180075
740.099	0.0180737
740.177	0.0182883
740.255	0.0183311
740.333	0.0183707
740.411	0.0184244
740.489	0.0183159
740.567	0.0184274
740.646	0.0184918
740.724	0.0183047
740.802	0.0181427
740.880	0.0180699
740.958	0.0176614
741.036	0.0171837
741.114	0.0168293
741.192	0.0164832
741.271	0.0161211
741.349	0.0155658
741.427	0.0152892
741.505	0.0148955
741.583	0.0144967
741.661	0.0142149
741.739	0.0140154
741.817	0.0138512
741.896	0.0135917
741.974	0.0136012
742.052	0.0138078
742.130	0.0138291
742.208	0.0139495
742.286	0.0142700
742.364	0.0143313
742.442	0.0146684
742.521	0.0147008
742.599	0.0151442
742.677	0.0155230
742.755	0.0156246
742.833	0.0158310
742.911	0.0160193
742.989	0.0160189
743.067	0.0162498
743.146	0.0164078
743.224	0.0163977
743.302	0.0164758
743.380	0.0164893
743.458	0.0166476
743.536	0.0167465
743.614	0.0167650
743.692	0.0168357
743.771	0.0168072
743.849	0.0168675
743.927	0.0167040
744.005	0.0166116
744.083	0.0164301
744.161	0.0162261
744.239	0.0160702
744.317	0.0159921
744.396	0.0157088
744.474	0.0157407
744.552	0.0155009
744.630	0.0155565
744.708	0.0154994
744.786	0.0155515
744.864	0.0156393
744.942	0.0157842
745.021	0.0158861
745.099	0.0159864
745.177	0.0161617
745.255	0.0163444
745.333	0.0164347
745.411	0.0164727
745.489	0.0166586
745.567	0.0168340
745.646	0.0169368
745.724	0.0171482
745.802	0.0174635
745.880	0.0175137
745.958	0.0175928
746.036	0.0178594
746.114	0.0180626
746.192	0.0182618
746.271	0.0182550
746.349	0.0185359
746.427	0.0185575
746.505	0.0185892
746.583	0.0185954
746.661	0.0185822
746.739	0.0183402
746.817	0.0181108
746.896	0.0179501
746.974	0.0178008
747.052	0.0175351
747.130	0.0173460
747.208	0.0169460
747.286	0.0167760
747.364	0.0165334
747.442	0.0164994
747.521	0.0162565
747.599	0.0160093
747.677	0.0158640
747.755	0.0159425
747.833	0.0156896
747.911	0.0155399
747.989	0.0155103
748.067	0.0151914
748.146	0.0152106
748.224	0.0151366
748.302	0.0148812
748.380	0.0147681
748.458	0.0146568
748.536	0.0143839
748.614	0.0143449
748.692	0.0142648
748.771	0.0142733
748.849	0.0140787
748.927	0.0140051
749.005	0.0141624
749.083	0.0141971
749.161	0.0141452
749.239	0.0143295
749.317	0.0146360
749.396	0.0146777
749.474	0.0148891
749.552	0.0151549
749.630	0.0153764
749.708	0.0157533
749.786	0.0159989
749.864	0.0162013
749.942	0.0165197
750.021	0.0167564
750.099	0.0169463
750.177	0.0172997
750.255	0.0173546
750.333	0.0174911
750.411	0.0177380
750.489	0.0177570
750.567	0.0179420
750.646	0.0180309
750.724	0.0181403
750.802	0.0181262
750.880	0.0181752
750.958	0.0182273
751.036	0.0180892
751.114	0.0181767
751.192	0.0181029
751.271	0.0177420
751.349	0.0177036
751.427	0.0175395
751.505	0.0173770
751.583	0.0170065
751.661	0.0167535
751.739	0.0164890
751.817	0.0163844
751.896	0.0161797
751.974	0.0158322
752.052	0.0156090
752.130	0.0155177
752.208	0.0152583
752.286	0.0150992
752.364	0.0148083
752.442	0.0148389
752.521	0.0145877
752.599	0.0143192
752.677	0.0143888
752.755	0.0142504
752.833	0.0143900
752.911	0.0142697
752.989	0.0142945
753.067	0.0144630
753.146	0.0146523
753.224	0.0149195
753.302	0.0151586
753.380	0.0154116
753.458	0.0157130
753.536	0.0159756
753.614	0.0162305
753.692	0.0164007
753.771	0.0165587
753.849	0.0169653
753.927	0.0171584
754.005	0.0173233
754.083	0.0175373
754.161	0.0176712
754.239	0.0179228
754.317	0.0180686
754.396	0.0182739
754.474	0.0183157
754.552	0.0183475
754.630	0.0184860
754.708	0.0185260
754.786	0.0186219
754.864	0.0184192
754.942	0.0184301
755.021	0.0183190
755.099	0.0181653
755.177	0.0179693
755.255	0.0177939
755.333	0.0176918
755.411	0.0173160
755.489	0.0170848
755.567	0.0166341
755.646	0.0163280
755.724	0.0160555
755.802	0.0158069
755.880	0.0155165
755.958	0.0152689
756.036	0.0151880
756.114	0.0148846
756.192	0.0147073
756.271	0.0147610
756.349	0.0144798
756.427	0.0144762
756.505	0.0146001
756.583	0.0145206
756.661	0.0145918
756.739	0.0146983
756.817	0.0149220
756.896	0.0149136
756.974	0.0150282
757.052	0.0150997
757.130	0.0152710
757.208	0.0153953
757.286	0.0156139
757.364	0.0157954
757.442	0.0159695
757.521	0.0162952
757.599	0.0165084
757.677	0.0167899
757.755	0.0168769
757.833	0.0169411
757.911	0.0169865
757.989	0.0170842
758.067	0.0172873
758.146	0.0169910
758.224	0.0169922
758.302	0.0169815
758.380	0.0167587
758.458	0.0165897
758.536	0.0164494
758.614	0.0161601
758.692	0.0160065
758.771	0.0159280
758.849	0.0155861
758.927	0.0156084
759.005	0.0152287
759.083	0.0151762
759.161	0.0151665
759.239	0.0149016
759.317	0.0148421
759.396	0.0148192
759.474	0.0148462
759.552	0.0147851
759.630	0.0147375
759.708	0.0148714
759.786	0.0150109
759.864	0.0149803
759.942	0.0151601
760.021	0.0155058
760.099	0.0154517
760.177	0.0156491
760.255	0.0159428
760.333	0.0159380
760.411	0.0161063
760.489	0.0163951
760.567	0.0166474
760.646	0.0169388
760.724	0.0172610
760.802	0.0174225
760.880	0.0176691
760.958	0.0178981
761.036	0.0183283
761.114	0.0184213
761.192	0.0185611
761.271	0.0187356
761.349	0.0187668
761.427	0.0189571
761.505	0.0190517
761.583	0.0190715
761.661	0.0190575
761.739	0.0190390
761.817	0.0189838
761.896	0.0188889
761.974	0.0185849
762.052	0.0184023
762.130	0.0181326
762.208	0.0177470
762.286	0.0176017
762.364	0.0170942
762.442	0.0166584
762.521	0.0165308
762.599	0.0163446
762.677	0.0160344
762.755	0.0155028
762.833	0.0154060
762.911	0.0151464
762.989	0.0149828
763.067	0.0147842
763.146	0.0149771
763.224	0.0146833
763.302	0.0147254
763.380	0.0146028
763.458	0.0146426
763.536	0.0147816
763.614	0.0151931
763.692	0.0152406
763.771	0.0152954
763.849	0.0155814
763.927	0.0155592
764.005	0.0157599
764.083	0.0157523
764.161	0.0158863
764.239	0.0159791
764.317	0.0160171
764.396	0.0160463
764.474	0.0159602
764.552	0.0159454
764.630	0.0161282
764.708	0.0160210
764.786	0.0159148
764.864	0.0158139
764.942	0.0156689
765.021	0.0157690
765.099	0.0155589
765.177	0.0153676
765.255	0.0153019
765.333	0.0151297
765.411	0.0150835
765.489	0.0149763
765.567	0.0149379
765.646	0.0145589
765.724	0.0143127
765.802	0.0143810
765.880	0.0143662
765.958	0.0144384
766.036	0.0144762
766.114	0.0144135
766.192	0.0145649
766.271	0.0147138
766.349	0.0148573
766.427	0.0150907
766.505	0.0152731
766.583	0.0155811
766.661	0.0158517
766.739	0.0161314
766.817	0.0163085
766.896	0.0166125
766.974	0.0169803
767.052	0.0172579
767.130	0.0175047
767.208	0.0179185
767.286	0.0181681
767.364	0.0183839
767.442	0.0187857
767.521	0.0187239
767.599	0.0190970
767.677	0.0192893
767.755	0.0194038
767.833	0.0194484
767.911	0.0193793
767.989	0.0193709
768.067	0.0193832
768.146	0.0192818
768.224	0.0191592
768.302	0.0189174
768.380	0.0187010
768.458	0.0184584
768.536	0.0181671
768.614	0.0178715
768.692	0.0174899
768.771	0.0172717
768.849	0.0167720
768.927	0.0164084
769.005	0.0160651
769.083	0.0160030
769.161	0.0158028
769.239	0.0155653
769.317	0.0154523
769.396	0.0152446
769.474	0.0152354
769.552	0.0149416
769.630	0.0151505
769.708	0.0150002
769.786	0.0148780
769.864	0.0150825
769.942	0.0151357
770.021	0.0152510
770.099	0.0153111
770.177	0.0154622
770.255	0.0156149
770.333	0.0157467
770.411	0.0158435
770.489	0.0159174
770.567	0.0159136
770.646	0.0159661
770.724	0.0158870
770.802	0.0158698
770.880	0.0157394
770.958	0.0157212
771.036	0.0155342
771.114	0.0154458
771.192	0.0155014
771.271	0.0153897
771.349	0.0153214
771.427	0.0153081
771.505	0.0152249
771.583	0.0154517
771.661	0.0153599
771.739	0.0154851
771.817	0.0155899
771.896	0.0153574
771.974	0.0155087
772.052	0.0154653
772.130	0.0152505
772.208	0.0154459
772.286	0.0153398
772.364	0.0151819
772.442	0.0150943
772.521	0.0150101
772.599	0.0151639
772.677	0.0149185
772.755	0.0149432
772.833	0.0149108
772.911	0.0151240
772.989	0.0154209
773.067	0.0153814
773.146	0.0154604
773.224	0.0156992
773.302	0.0159645
773.380	0.0162148
773.458	0.0164520
773.536	0.0166002
773.614	0.0169495
773.692	0.0171245
773.771	0.0172173
773.849	0.0173513
773.927	0.0176199
774.005	0.0177540
774.083	0.0179646
774.161	0.0179954
774.239	0.0180716
774.317	0.0181237
774.396	0.0181528
774.474	0.0182328
774.552	0.0184056
774.630	0.0182843
774.708	0.0184739
774.786	0.0185999
774.864	0.0184370
774.942	0.0185707
775.021	0.0183797
775.099	0.0182769
775.177	0.0181888
775.255	0.0181017
775.333	0.0180372
775.411	0.0176701
775.489	0.0173775
775.567	0.0172634
775.646	0.0170674
775.724	0.0167338
775.802	0.0165865
775.880	0.0162849
775.958	0.0160810
776.036	0.0159180
776.114	0.0156248
776.192	0.0156089
776.271	0.0155717
776.349	0.0155343
776.427	0.0155333
776.505	0.0155313
776.583	0.0155427
776.661	0.0156992
776.739	0.0155595
776.817	0.0156100
776.896	0.0157877
776.974	0.0158290
777.052	0.0158123
777.130	0.0157998
777.208	0.0157616
777.286	0.0158914
777.364	0.0156791
777.442	0.0154064
777.521	0.0157891
777.599	0.0156800
777.677	0.0154443
777.755	0.0155502
777.833	0.0156487
777.911	0.0158093
777.989	0.0156514
778.067	0.0158974
778.146	0.0158026
778.224	0.0158470
778.302	0.0159299
778.380	0.0159694
778.458	0.0160188
778.536	0.0159076
778.614	0.0159228
778.692	0.0158330
778.771	0.0157664
778.849	0.0156391
778.927	0.0154919
779.005	0.0154566
779.083	0.0155444
779.161	0.0153934
779.239	0.0152960
779.317	0.0152514
779.396	0.0151985
779.474	0.0153608
779.552	0.0153151
779.630	0.0153784
779.708	0.0154732
779.786	0.0154232
779.864	0.0155903
779.942	0.0158636
780.021	0.0160602
780.099	0.0161356
780.177	0.0163742
780.255	0.0165092
780.333	0.0166837
780.411	0.0168966
780.489	0.0170316
780.567	0.0172098
780.646	0.0174951
780.724	0.0175689
780.802	0.0176041
780.880	0.0177535
780.958	0.0177494
781.036	0.0178439
781.114	0.0177843
781.192	0.0178342
781.271	0.0178596
781.349	0.0177666
781.427	0.0176431
781.505	0.0175533
781.583	0.0172601
781.661	0.0171960
781.739	0.0171979
781.817	0.0171733
781.896	0.0170056
781.974	0.0167905
782.052	0.0168475
782.130	0.0166333
782.208	0.0165691
782.286	0.0165886
782.364	0.0166603
782.442	0.0164033
782.521	0.0164211
782.599	0.0164887
782.677	0.0164082
782.755	0.0163326
782.833	0.0163648
782.911	0.0163046
782.989	0.0163832
783.067	0.0164027
783.146	0.0163516
783.224	0.0163737
783.302	0.0164111
783.380	0.0164729
783.458	0.0163617
783.536	0.0162179
783.614	0.0162544
783.692	0.0161603
783.771	0.0162818
783.849	0.0162953
783.927	0.0163229
784.005	0.0161772
784.083	0.0161028
784.161	0.0161228
784.239	0.0161853
784.317	0.0161868
784.396	0.0160498
784.474	0.0160284
784.552	0.0159652
784.630	0.0157369
784.708	0.0157889
784.786	0.0155530
784.864	0.0156284
784.942	0.0154922
785.021	0.0153968
785.099	0.0152998
785.177	0.0152673
785.255	0.0152592
785.333	0.0152417
785.411	0.0150311
785.489	0.0153418
785.567	0.0154213
785.646	0.0153561
785.724	0.0153741
785.802	0.0155163
785.880	0.0155550
785.958	0.0156406
786.036	0.0157909
786.114	0.0158229
786.192	0.0157827
786.271	0.0160581
786.349	0.0161304
786.427	0.0161217
786.505	0.0163245
786.583	0.0164668
786.661	0.0165177
786.739	0.0164998
786.817	0.0165106
786.896	0.0167261
786.974	0.0168745
787.052	0.0167939
787.130	0.0169949
787.208	0.0169840
787.286	0.0168565
787.364	0.0170217
787.442	0.0169445
787.521	0.0170250
787.599	0.0167567
787.677	0.0168272
787.755	0.0168328
787.833	0.0166793
787.911	0.0167646
787.989	0.0165318
788.067	0.0163862
788.146	0.0163522
788.224	0.0162757
788.302	0.0162116
788.380	0.0161336
788.458	0.0160957
788.536	0.0159938
788.614	0.0159469
788.692	0.0161183
788.771	0.0160371
788.849	0.0160674
788.927	0.0161215
789.005	0.0162333
789.083	0.0162382
789.161	0.0163648
789.239	0.0163294
789.317	0.0164372
789.396	0.0166081
789.474	0.0165150
789.552	0.0165611
789.630	0.0167456
789.708	0.0167626
789.786	0.0167295
789.864	0.0167341
789.942	0.0167336
790.021	0.0167732
790.099	0.0166269
790.177	0.0166634
790.255	0.0164935
790.333	0.0166541
790.411	0.0164690
790.489	0.0165887
790.567	0.0165949
790.646	0.0164951
790.724	0.0164729
790.802	0.0166853
790.880	0.0166497
790.958	0.0166682
791.036	0.0165540
791.114	0.0166072
791.192	0.0166006
791.271	0.0165510
791.349	0.0164375
791.427	0.0163726
791.505	0.0162720
791.583	0.0163029
791.661	0.0161684
791.739	0.0160686
791.817	0.0159920
791.896	0.0157474
791.974	0.0158414
792.052	0.0157545
792.130	0.0155666
792.208	0.0154154
792.286	0.0155051
792.364	0.0156729
792.442	0.0154857
792.521	0.0154960
792.599	0.0155651
792.677	0.0155732
792.755	0.0157260
792.833	0.0158243
792.911	0.0157648
792.989	0.0158620
793.067	0.0160802
793.146	0.0160732
793.224	0.0162938
793.302	0.0162555
793.380	0.0162426
793.458	0.0165122
793.536	0.0165178
793.614	0.0165465
793.692	0.0165240
793.771	0.0167064
793.849	0.0165141
793.927	0.0164678
794.005	0.0166653
794.083	0.0165969
794.161	0.0165923
794.239	0.0165733
794.317	0.0165263
794.396	0.0164935
794.474	0.0163459
794.552	0.0163475
794.630	0.0165682
794.708	0.0163132
794.786	0.0163235
794.864	0.0164754
794.942	0.0162373
795.021	0.0163620
795.099	0.0163717
795.177	0.0164021
795.255	0.0162275
795.333	0.0164961
795.411	0.0164904
795.489	0.0162502
795.567	0.0163959
795.646	0.0165015
795.724	0.0164272
795.802	0.0164637
795.880	0.0164668
795.958	0.0165211
796.036	0.0165841
796.114	0.0165025
796.192	0.0164132
796.271	0.0165270
796.349	0.0163697
796.427	0.0164312
796.505	0.0162785
796.583	0.0161713
796.661	0.0159905
796.739	0.0161359
796.817	0.0161286
796.896	0.0159656
796.974	0.0161592
797.052	0.0163093
797.130	0.0161473
797.208	0.0161816
797.286	0.0163258
797.364	0.0164970
797.442	0.0164531
797.521	0.0164496
797.599	0.0166237
797.677	0.0166440
797.755	0.0166185
797.833	0.0166882
797.911	0.0165906
797.989	0.0167017
798.067	0.0166200
798.146	0.0167700
798.224	0.0167135
798.302	0.0166009
798.380	0.0166222
798.458	0.0167285
798.536	0.0166455
798.614	0.0166991
798.692	0.0166912
798.771	0.0167870
798.849	0.0166508
798.927	0.0166431
799.005	0.0164911
799.083	0.0165858
799.161	0.0167006
799.239	0.0165031
799.317	0.0164354
799.396	0.0164900
799.474	0.0166139
799.552	0.0165084
799.630	0.0164814
799.708	0.0164133
799.786	0.0162296
799.864	0.0162484
799.942	0.0163826
800.021	0.0163351
800.099	0.0161353
800.177	0.0161221
800.255	0.0160948
800.333	0.0160869
800.411	0.0159688
800.489	0.0159657
800.567	0.0159560
800.646	0.0158958
800.724	0.0158158
800.802	0.0157793
800.880	0.0157310
800.958	0.0157777
801.036	0.0157753
801.114	0.0158346
801.192	0.0157983
801.271	0.0156686
801.349	0.0158810
801.427	0.0157704
801.505	0.0159581
801.583	0.0161232
801.661	0.0162840
801.739	0.0164229
801.817	0.0165969
801.896	0.0163733
801.974	0.0165110
802.052	0.0165680
802.130	0.0166785
802.208	0.0168114
802.286	0.0169289
802.364	0.0169083
802.442	0.0169015
802.521	0.0167899
802.599	0.0168616
802.677	0.0169289
802.755	0.0167749
802.833	0.0166601
802.911	0.0166312
802.989	0.0165263
803.067	0.0164473
803.146	0.0164034
803.224	0.0161994
803.302	0.0160413
803.380	0.0161913
803.458	0.0161980
803.536	0.0159648
803.614	0.0158485
803.692	0.0160348
803.771	0.0160559
803.849	0.0159654
803.927	0.0161357
804.005	0.0158726
804.083	0.0160682
804.161	0.0159470
804.239	0.0159443
804.317	0.0160350
804.396	0.0159388
804.474	0.0159853
804.552	0.0160044
804.630	0.0159381
804.708	0.0159335
804.786	0.0160413
804.864	0.0160367
804.942	0.0161259
805.021	0.0162068
805.099	0.0162994
805.177	0.0164751
805.255	0.0164869
805.333	0.0164652
805.411	0.0165673
805.489	0.0167200
805.567	0.0166526
805.646	0.0167680
805.724	0.0166832
805.802	0.0167014
805.880	0.0168253
805.958	0.0167138
806.036	0.0165070
806.114	0.0168126
806.192	0.0165369
806.271	0.0165532
806.349	0.0165272
806.427	0.0167007
806.505	0.0164799
806.583	0.0164738
806.661	0.0164624
806.739	0.0165005
806.817	0.0164267
806.896	0.0163508
806.974	0.0165187
807.052	0.0162806
807.130	0.0163030
807.208	0.0161736
807.286	0.0162088
807.364	0.0160744
807.442	0.0161134
807.521	0.0160378
807.599	0.0159885
807.677	0.0159252
807.755	0.0160296
807.833	0.0159593
807.911	0.0159402
807.989	0.0160738
808.067	0.0160391
808.146	0.0161462
808.224	0.0159865
808.302	0.0162455
808.380	0.0161909
808.458	0.0159467
808.536	0.0160552
808.614	0.0162949
808.692	0.0163558
808.771	0.0162450
808.849	0.0163268
808.927	0.0163290
809.005	0.0163669
809.083	0.0162720
809.161	0.0163254
809.239	0.0162189
809.317	0.0162450
809.396	0.0162140
809.474	0.0162282
809.552	0.0162508
809.630	0.0161138
809.708	0.0160696
809.786	0.0160091
809.864	0.0161271
809.942	0.0162069
810.021	0.0159315
810.099	0.0160188
810.177	0.0161402
810.255	0.0159499
810.333	0.0160195
810.411	0.0161056
810.489	0.0161449
810.567	0.0160223
810.646	0.0161228
810.724	0.0162276
810.802	0.0163718
810.880	0.0163620
810.958	0.0162991
811.036	0.0164941
811.114	0.0164386
811.192	0.0164278
811.271	0.0165298
811.349	0.0164312
811.427	0.0165885
811.505	0.0165699
811.583	0.0163861
811.661	0.0165481
811.739	0.0166091
811.817	0.0165309
811.896	0.0164693
811.974	0.0164835
812.052	0.0166080
812.130	0.0162579
812.208	0.0163066
812.286	0.0163432
812.364	0.0164272
812.442	0.0162693
812.521	0.0162798
812.599	0.0163068
812.677	0.0163368
812.755	0.0163943
812.833	0.0163069
812.911	0.0163255
812.989	0.0162934
813.067	0.0162714
813.146	0.0164301
813.224	0.0163692
813.302	0.0163973
813.380	0.0164452
813.458	0.0163855
813.536	0.0164216
813.614	0.0162784
813.692	0.0163809
813.771	0.0163140
813.849	0.0164477
813.927	0.0162409
814.005	0.0163062
814.083	0.0163065
814.161	0.0163030
814.239	0.0164133
814.317	0.0162582
814.396	0.0162055
814.474	0.0162411
814.552	0.0163111
814.630	0.0164066
814.708	0.0163452
814.786	0.0164209
814.864	0.0163569
814.942	0.0164317
815.021	0.0162630
815.099	0.0163608
815.177	0.0164047
815.255	0.0163921
815.333	0.0163986
815.411	0.0165406
815.489	0.0164646
815.567	0.0163654
815.646	0.0164684
815.724	0.0164485
815.802	0.0163874
815.880	0.0162511
815.958	0.0163470
816.036	0.0163120
816.114	0.0161720
816.192	0.0162644
816.271	0.0163787
816.349	0.0162096
816.427	0.0162056
816.505	0.0161208
816.583	0.0162292
816.661	0.0161754
816.739	0.0163011
816.817	0.0162875
816.896	0.0162212
816.974	0.0163518
817.052	0.0164240
817.130	0.0163901
817.208	0.0163293
817.286	0.0163342
817.364	0.0163779
817.442	0.0164101
817.521	0.0163693
817.599	0.0163734
817.677	0.0164262
817.755	0.0161643
817.833	0.0163589
817.911	0.0163338
817.989	0.0162585
818.067	0.0163163
818.146	0.0162965
818.224	0.0161359
818.302	0.0160918
818.380	0.0161088
818.458	0.0160519
818.536	0.0161811
818.614	0.0161818
818.692	0.0160604
818.771	0.0161350
818.849	0.0161340
818.927	0.0161458
819.005	0.0163624
819.083	0.0163616
819.161	0.0160980
819.239	0.0163852
819.317	0.0165907
819.396	0.0165831
819.474	0.0165609
819.552	0.0166052
819.630	0.0166725
819.708	0.0166126
819.786	0.0166887
819.864	0.0166686
819.942	0.0166491
820.021	0.0166803
820.099	0.0168026
820.177	0.0167047
820.255	0.0167116
820.333	0.0167159
820.411	0.0166518
820.489	0.0165696
820.567	0.0166324
820.646	0.0165529
820.724	0.0164707
820.802	0.0166834
820.880	0.0164144
820.958	0.0164127
821.036	0.0162437
821.114	0.0161518
821.192	0.0162240
821.271	0.0159436
821.349	0.0161134
821.427	0.0161320
821.505	0.0161968
821.583	0.0160296
821.661	0.0160642
821.739	0.0160815
821.817	0.0160580
821.896	0.0162107
821.974	0.0162984
822.052	0.0160053
822.130	0.0159901
822.208	0.0162102
822.286	0.0160960
822.364	0.0161599
822.442	0.0161887
822.521	0.0162827
822.599	0.0163387
822.677	0.0163382
822.755	0.0163733
822.833	0.0162607
822.911	0.0164854
822.989	0.0163194
823.067	0.0164652
823.146	0.0164869
823.224	0.0164285
823.302	0.0164103
823.380	0.0164182
823.458	0.0163133
823.536	0.0164943
823.614	0.0165698
823.692	0.0163467
823.771	0.0164346
823.849	0.0164102
823.927	0.0164637
824.005	0.0163318
824.083	0.0164258
824.161	0.0163860
824.239	0.0163607
824.317	0.0163481
824.396	0.0164625
824.474	0.0162141
824.552	0.0163302
824.630	0.0164456
824.708	0.0162619
824.786	0.0163420
824.864	0.0163676
824.942	0.0163371
825.021	0.0162538
825.099	0.0163566
825.177	0.0163261
825.255	0.0162463
825.333	0.0163169
825.411	0.0161347
825.489	0.0162321
825.567	0.0162895
825.646	0.0161626
825.724	0.0162115
825.802	0.0161406
825.880	0.0161652
825.958	0.0161569
826.036	0.0160789
826.114	0.0159524
826.192	0.0160970
826.271	0.0160021
826.349	0.0160225
826.427	0.0161315
826.505	0.0160426
826.583	0.0159496
826.661	0.0160213
826.739	0.0160025
826.817	0.0160782
826.896	0.0161654
826.974	0.0162613
827.052	0.0162479
827.130	0.0161948
827.208	0.0161882
827.286	0.0161209
827.364	0.0160946
827.442	0.0161785
827.521	0.0162370
827.599	0.0160625
827.677	0.0159745
827.755	0.0160241
827.833	0.0161208
827.911	0.0161635
827.989	0.0162595
828.067	0.0161846
828.146	0.0161745
828.224	0.0163501
828.302	0.0164628
828.380	0.0166222
828.458	0.0166088
828.536	0.0166616
828.614	0.0165697
828.692	0.0166296
828.771	0.0165612
828.849	0.0166782
828.927	0.0166416
829.005	0.0165524
829.083	0.0166796
829.161	0.0166087
829.239	0.0166523
829.317	0.0166618
829.396	0.0165154
829.474	0.0163879
829.552	0.0164866
829.630	0.0164288
829.708	0.0164227
829.786	0.0162708
829.864	0.0162569
829.942	0.0162804
830.021	0.0162479
830.099	0.0161805
830.177	0.0162493
830.255	0.0161731
830.333	0.0160695
830.411	0.0160782
830.489	0.0160784
830.567	0.0160464
830.646	0.0161131
830.724	0.0160860
830.802	0.0161761
830.880	0.0160495
830.958	0.0161461
831.036	0.0160365
831.114	0.0163761
831.192	0.0161187
831.271	0.0161838
831.349	0.0163047
831.427	0.0163383
831.505	0.0163508
831.583	0.0163400
831.661	0.0162366
831.739	0.0163129
831.817	0.0164108
831.896	0.0163225
831.974	0.0162939
832.052	0.0163857
832.130	0.0164866
832.208	0.0163766
832.286	0.0163766
832.364	0.0163124
832.442	0.0165010
832.521	0.0163576
832.599	0.0163493
832.677	0.0164223
832.755	0.0162936
832.833	0.0164005
832.911	0.0162852
832.989	0.0160615
833.067	0.0163680
833.146	0.0162065
833.224	0.0162610
833.302	0.0163380
833.380	0.0163633
833.458	0.0164383
833.536	0.0163476
833.614	0.0164294
833.692	0.0163383
833.771	0.0163308
833.849	0.0163599
833.927	0.0162685
834.005	0.0161397
834.083	0.0161771
834.161	0.0160564
834.239	0.0159647
834.317	0.0160233
834.396	0.0159591
834.474	0.0158699
834.552	0.0159221
834.630	0.0159475
834.708	0.0157906
834.786	0.0158678
834.864	0.0158833
834.942	0.0158388
835.021	0.0158076
835.099	0.0159371
835.177	0.0160921
835.255	0.0160757
835.333	0.0161320
835.411	0.0162950
835.489	0.0163564
835.567	0.0162964
835.646	0.0164111
835.724	0.0164772
835.802	0.0164204
835.880	0.0165783
835.958	0.0165132
836.036	0.0165639
836.114	0.0165369
836.192	0.0165099
836.271	0.0166477
836.349	0.0166370
836.427	0.0165585
836.505	0.0165340
836.583	0.0166100
836.661	0.0165746
836.739	0.0166267
836.817	0.0167338
836.896	0.0167799
836.974	0.0167821
837.052	0.0167081
837.130	0.0167834
837.208	0.0167252
837.286	0.0167410
837.364	0.0166603
837.442	0.0167603
837.521	0.0165694
837.599	0.0166640
837.677	0.0165694
837.755	0.0165038
837.833	0.0165276
837.911	0.0164610
837.989	0.0163575
838.067	0.0163100
838.146	0.0163221
838.224	0.0162778
838.302	0.0163486
838.380	0.0161153
838.458	0.0161284
838.536	0.0161166
838.614	0.0160938
838.692	0.0160867
838.771	0.0159962
838.849	0.0160038
838.927	0.0159504
839.005	0.0159400
839.083	0.0158911
839.161	0.0158311
839.239	0.0158697
839.317	0.0159308
839.396	0.0158998
839.474	0.0158726
839.552	0.0160195
839.630	0.0159097
839.708	0.0160902
839.786	0.0160365
839.864	0.0160640
839.942	0.0160297
840.021	0.0161949
840.099	0.0163907
840.177	0.0162957
840.255	0.0164700
840.333	0.0163343
840.411	0.0164333
840.489	0.0165582
840.567	0.0164517
840.646	0.0165327
840.724	0.0166257
840.802	0.0166036
840.880	0.0166959
840.958	0.0166162
841.036	0.0165692
841.114	0.0167258
841.192	0.0165220
841.271	0.0165621
841.349	0.0165422
841.427	0.0165479
841.505	0.0165352
841.583	0.0164853
841.661	0.0165008
841.739	0.0166294
841.817	0.0165128
841.896	0.0164777
841.974	0.0166295
842.052	0.0165353
842.130	0.0166123
842.208	0.0167036
842.286	0.0166392
842.364	0.0166344
842.442	0.0167690
842.521	0.0165932
842.599	0.0165402
842.677	0.0165739
842.755	0.0165077
842.833	0.0164812
842.911	0.0164051
842.989	0.0164046
843.067	0.0163062
843.146	0.0162799
843.224	0.0162527
843.302	0.0163232
843.380	0.0161745
843.458	0.0163860
843.536	0.0164240
843.614	0.0162503
843.692	0.0163062
843.771	0.0162813
843.849	0.0163708
843.927	0.0164324
844.005	0.0163567
844.083	0.0163780
844.161	0.0163438
844.239	0.0164380
844.317	0.0163883
844.396	0.0164088
844.474	0.0163491
844.552	0.0163367
844.630	0.0163047
844.708	0.0163937
844.786	0.0164687
844.864	0.0164118
844.942	0.0163280
845.021	0.0163049
845.099	0.0163343
845.177	0.0162862
845.255	0.0163046
845.333	0.0162682
845.411	0.0162234
845.489	0.0162529
845.567	0.0161516
845.646	0.0161198
845.724	0.0160984
845.802	0.0162118
845.880	0.0162536
845.958	0.0162773
846.036	0.0162344
846.114	0.0163197
846.192	0.0164129
846.271	0.0163435
846.349	0.0163308
846.427	0.0165778
846.505	0.0164680
846.583	0.0164534
846.661	0.0165695
846.739	0.0166246
846.817	0.0165973
846.896	0.0165977
846.974	0.0167406
847.052	0.0167670
847.130	0.0166222
847.208	0.0167465
847.286	0.0166997
847.364	0.0167242
847.442	0.0166259
847.521	0.0165848
847.599	0.0166219
847.677	0.0165664
847.755	0.0165930
847.833	0.0165654
847.911	0.0165004
847.989	0.0164211
848.067	0.0163287
848.146	0.0162799
848.224	0.0163126
848.302	0.0163309
848.380	0.0161697
848.458	0.0161458
848.536	0.0162862
848.614	0.0161262
848.692	0.0160674
848.771	0.0160531
848.849	0.0160789
848.927	0.0162165
849.005	0.0161279
849.083	0.0161185
849.161	0.0161105
849.239	0.0161991
849.317	0.0161844
849.396	0.0162206
849.474	0.0162546
849.552	0.0162005
849.630	0.0161979
849.708	0.0163702
849.786	0.0162688
849.864	0.0161828
849.942	0.0160895
850.021	0.0161524
850.099	0.0161347
850.177	0.0160247
850.255	0.0161465
850.333	0.0162280
850.411	0.0161000
850.489	0.0162077
850.567	0.0162417
850.646	0.0161638
850.724	0.0162442
850.802	0.0161890
850.880	0.0162309
850.958	0.0163568
851.036	0.0162936
851.114	0.0163833
851.192	0.0162682
851.271	0.0163477
851.349	0.0165677
851.427	0.0165177
851.505	0.0164411
851.583	0.0165025
851.661	0.0164986
851.739	0.0163389
851.817	0.0163488
851.896	0.0164044
851.974	0.0164761
852.052	0.0164433
852.130	0.0163838
852.208	0.0163689
852.286	0.0162888
852.364	0.0162907
852.442	0.0162852
852.521	0.0163102
852.599	0.0161105
852.677	0.0163049
852.755	0.0163443
852.833	0.0163219
852.911	0.0163527
852.989	0.0163485
853.067	0.0162524
853.146	0.0163702
853.224	0.0164846
853.302	0.0162314
853.380	0.0164216
853.458	0.0165532
853.536	0.0163973
853.614	0.0163714
853.692	0.0163515
853.771	0.0164413
853.849	0.0163175
853.927	0.0164590
854.005	0.0163914
854.083	0.0164675
854.161	0.0164080
854.239	0.0163342
854.317	0.0163022
854.396	0.0162886
854.474	0.0163126
854.552	0.0163732
854.630	0.0162687
854.708	0.0161707
854.786	0.0161219
854.864	0.0160932
854.942	0.0161668
855.021	0.0160609
855.099	0.0160884
855.177	0.0160825
855.255	0.0161430
855.333	0.0159574
855.411	0.0161933
855.489	0.0160935
855.567	0.0160392
855.646	0.0162223
855.724	0.0161852
855.802	0.0162048
855.880	0.0162080
855.958	0.0162197
856.036	0.0162173
856.114	0.0161899
856.192	0.0162897
856.271	0.0161681
856.349	0.0162706
856.427	0.0163262
856.505	0.0162857
856.583	0.0162968
856.661	0.0161452
856.739	0.0162170
856.817	0.0163147
856.896	0.0161304
856.974	0.0162260
857.052	0.0162084
857.130	0.0161314
857.208	0.0161169
857.286	0.0163016
857.364	0.0160889
857.442	0.0161397
857.521	0.0162749
857.599	0.0162132
857.677	0.0162096
857.755	0.0163506
857.833	0.0162304
857.911	0.0162578
857.989	0.0163340
858.067	0.0164000
858.146	0.0165123
858.224	0.0166488
858.302	0.0166212
858.380	0.0164716
858.458	0.0163512
858.536	0.0164610
858.614	0.0165990
858.692	0.0165173
858.771	0.0164284
858.849	0.0165540
858.927	0.0163188
859.005	0.0164817
859.083	0.0164906
859.161	0.0164870
859.239	0.0164163
859.317	0.0164813
859.396	0.0162936
859.474	0.0161858
859.552	0.0162091
859.630	0.0161926
859.708	0.0161482
859.786	0.0161725
859.864	0.0162109
859.942	0.0162526
860.021	0.0161456
860.099	0.0163454
860.177	0.0162438
860.255	0.0163560
860.333	0.0163288
860.411	0.0162318
860.489	0.0164696
860.567	0.0163567
860.646	0.0163317
860.724	0.0163558
860.802	0.0163747
860.880	0.0162649
860.958	0.0163133
861.036	0.0162363
861.114	0.0161844
861.192	0.0162241
861.271	0.0161248
861.349	0.0161720
861.427	0.0161879
861.505	0.0161674
861.583	0.0160275
861.661	0.0161721
861.739	0.0161342
861.817	0.0162833
861.896	0.0162249
861.974	0.0161857
862.052	0.0162914
862.130	0.0161588
862.208	0.0162088
862.286	0.0162914
862.364	0.0162854
862.442	0.0163032
862.521	0.0163099
862.599	0.0163966
862.677	0.0164892
862.755	0.0163609
862.833	0.0166162
862.911	0.0163930
862.989	0.0165453
863.067	0.0163658
863.146	0.0165779
863.224	0.0165866
863.302	0.0163147
863.380	0.0165372
863.458	0.0164156
863.536	0.0164923
863.614	0.0164958
863.692	0.0164306
863.771	0.0165221
863.849	0.0166025
863.927	0.0165810
864.005	0.0165540
864.083	0.0164875
864.161	0.0165019
864.239	0.0165082
864.317	0.0164891
864.396	0.0165626
864.474	0.0165793
864.552	0.0164388
864.630	0.0165206
864.708	0.0167289
864.786	0.0165642
864.864	0.0165781
864.942	0.0165862
865.021	0.0165784
865.099	0.0165961
865.177	0.0165343
865.255	0.0167008
865.333	0.0167042
865.411	0.0165144
865.489	0.0163877
865.567	0.0164432
865.646	0.0162854
865.724	0.0163249
865.802	0.0164668
865.880	0.0163303
865.958	0.0162329
866.036	0.0161333
866.114	0.0160322
866.192	0.0160819
866.271	0.0160587
866.349	0.0162002
866.427	0.0160508
866.505	0.0160725
866.583	0.0161030
866.661	0.0161430
866.739	0.0162419
866.817	0.0161029
866.896	0.0160058
866.974	0.0161374
867.052	0.0161665
867.130	0.0162730
867.208	0.0163270
867.286	0.0162828
867.364	0.0163422
867.442	0.0162398
867.521	0.0163765
867.599	0.0162884
867.677	0.0163303
867.755	0.0164074
867.833	0.0163208
867.911	0.0163051
867.989	0.0164524
868.067	0.0162915
868.146	0.0163793
868.224	0.0163586
868.302	0.0163107
868.380	0.0164891
868.458	0.0163688
868.536	0.0164048
868.614	0.0164337
868.692	0.0164062
868.771	0.0162512
868.849	0.0164651
868.927	0.0163509
869.005	0.0164256
869.083	0.0163770
869.161	0.0164806
869.239	0.0163605
869.317	0.0163242
869.396	0.0164502
869.474	0.0164398
869.552	0.0164017
869.630	0.0163787
869.708	0.0162679
869.786	0.0163443
869.864	0.0162487
869.942	0.0163351
