06/03/2022	15:25:40	Ver.	4.1	UNKNOWN
Optical Delay	550.020508	Delta X		0.078125	Sweeps	1	Scan Rate	0/0
Coordinates	Axis 1	NaN	Axis 2	NaN	Axis 3	NaN	Axis 4	NaN	Axis 5	NaN	Axis 6	0.000000
TX Power	0.000000	RX Power	0.000000

550.021	0.0165759
550.099	0.0165489
550.177	0.0165656
550.255	0.0166175
550.333	0.0167239
550.411	0.0166147
550.489	0.0166409
550.567	0.0165003
550.646	0.0166971
550.724	0.0165482
550.802	0.0166266
550.880	0.0166285
550.958	0.0164356
551.036	0.0165222
551.114	0.0166045
551.192	0.0165166
551.271	0.0164542
551.349	0.0165016
551.427	0.0167136
551.505	0.0167517
551.583	0.0165851
551.661	0.0165176
551.739	0.0165426
551.817	0.0165459
551.896	0.0166898
551.974	0.0167096
552.052	0.0167805
552.130	0.0165430
552.208	0.0165657
552.286	0.0165128
552.364	0.0164706
552.442	0.0166606
552.521	0.0165794
552.599	0.0166225
552.677	0.0165497
552.755	0.0166019
552.833	0.0165491
552.911	0.0166043
552.989	0.0165614
553.067	0.0166875
553.146	0.0166062
553.224	0.0165798
553.302	0.0166380
553.380	0.0165499
553.458	0.0165358
553.536	0.0165578
553.614	0.0166747
553.692	0.0165527
553.771	0.0164805
553.849	0.0166061
553.927	0.0164948
554.005	0.0166400
554.083	0.0165193
554.161	0.0166696
554.239	0.0166242
554.317	0.0166925
554.396	0.0165900
554.474	0.0166948
554.552	0.0165092
554.630	0.0165722
554.708	0.0165992
554.786	0.0166585
554.864	0.0165131
554.942	0.0165712
555.021	0.0166840
555.099	0.0167622
555.177	0.0165457
555.255	0.0164941
555.333	0.0166258
555.411	0.0165709
555.489	0.0164708
555.567	0.0165522
555.646	0.0165569
555.724	0.0166364
555.802	0.0166348
555.880	0.0165994
555.958	0.0166390
556.036	0.0165442
556.114	0.0165723
556.192	0.0165909
556.271	0.0165145
556.349	0.0164998
556.427	0.0165693
556.505	0.0163913
556.583	0.0166546
556.661	0.0166383
556.739	0.0166093
556.817	0.0164605
556.896	0.0165998
556.974	0.0167527
557.052	0.0165007
557.130	0.0166007
557.208	0.0166224
557.286	0.0165835
557.364	0.0165639
557.442	0.0164715
557.521	0.0164806
557.599	0.0165771
557.677	0.0165433
557.755	0.0165691
557.833	0.0165015
557.911	0.0164194
557.989	0.0166811
558.067	0.0166232
558.146	0.0166176
558.224	0.0165913
558.302	0.0165150
558.380	0.0164996
558.458	0.0167159
558.536	0.0164082
558.614	0.0165754
558.692	0.0165941
558.771	0.0165681
558.849	0.0164906
558.927	0.0164566
559.005	0.0166679
559.083	0.0165974
559.161	0.0164771
559.239	0.0164778
559.317	0.0166091
559.396	0.0166005
559.474	0.0165975
559.552	0.0166266
559.630	0.0165453
559.708	0.0166636
559.786	0.0166563
559.864	0.0165597
559.942	0.0165028
560.021	0.0165346
560.099	0.0165125
560.177	0.0165832
560.255	0.0164914
560.333	0.0165622
560.411	0.0165956
560.489	0.0164974
560.567	0.0165020
560.646	0.0164467
560.724	0.0164669
560.802	0.0167334
560.880	0.0166842
560.958	0.0164164
561.036	0.0164553
561.114	0.0164282
561.192	0.0165736
561.271	0.0166135
561.349	0.0165463
561.427	0.0164578
561.505	0.0165464
561.583	0.0165916
561.661	0.0164909
561.739	0.0166213
561.817	0.0165988
561.896	0.0165164
561.974	0.0165967
562.052	0.0166914
562.130	0.0166460
562.208	0.0167143
562.286	0.0165300
562.364	0.0165841
562.442	0.0165685
562.521	0.0165776
562.599	0.0165682
562.677	0.0167194
562.755	0.0165613
562.833	0.0166213
562.911	0.0165484
562.989	0.0164493
563.067	0.0166325
563.146	0.0167221
563.224	0.0166507
563.302	0.0165637
563.380	0.0166545
563.458	0.0164436
563.536	0.0166399
563.614	0.0165637
563.692	0.0166776
563.771	0.0165578
563.849	0.0165520
563.927	0.0165550
564.005	0.0167320
564.083	0.0165759
564.161	0.0164481
564.239	0.0165870
564.317	0.0165089
564.396	0.0166454
564.474	0.0167196
564.552	0.0165498
564.630	0.0167245
564.708	0.0165932
564.786	0.0165607
564.864	0.0165997
564.942	0.0164931
565.021	0.0165756
565.099	0.0166651
565.177	0.0165240
565.255	0.0167334
565.333	0.0167014
565.411	0.0165596
565.489	0.0165162
565.567	0.0166798
565.646	0.0165086
565.724	0.0166167
565.802	0.0166002
565.880	0.0166707
565.958	0.0165445
566.036	0.0166376
566.114	0.0165836
566.192	0.0165256
566.271	0.0165913
566.349	0.0165965
566.427	0.0165645
566.505	0.0165996
566.583	0.0165190
566.661	0.0165378
566.739	0.0166413
566.817	0.0165858
566.896	0.0165813
566.974	0.0166135
567.052	0.0166293
567.130	0.0165504
567.208	0.0166692
567.286	0.0165790
567.364	0.0165374
567.442	0.0166058
567.521	0.0166608
567.599	0.0164337
567.677	0.0165372
567.755	0.0166800
567.833	0.0167013
567.911	0.0165961
567.989	0.0164737
568.067	0.0165525
568.146	0.0166467
568.224	0.0165546
568.302	0.0165964
568.380	0.0166022
568.458	0.0165179
568.536	0.0164088
568.614	0.0165902
568.692	0.0166451
568.771	0.0166156
568.849	0.0166175
568.927	0.0166250
569.005	0.0165552
569.083	0.0164799
569.161	0.0166025
569.239	0.0166283
569.317	0.0167844
569.396	0.0165493
569.474	0.0165705
569.552	0.0165949
569.630	0.0166695
569.708	0.0166020
569.786	0.0165401
569.864	0.0167247
569.942	0.0166227
570.021	0.0166344
570.099	0.0165788
570.177	0.0165719
570.255	0.0164763
570.333	0.0166234
570.411	0.0166602
570.489	0.0166145
570.567	0.0166225
570.646	0.0165821
570.724	0.0165705
570.802	0.0164739
570.880	0.0166246
570.958	0.0165517
571.036	0.0165572
571.114	0.0165718
571.192	0.0165832
571.271	0.0165240
571.349	0.0164920
571.427	0.0165519
571.505	0.0165508
571.583	0.0165280
571.661	0.0166161
571.739	0.0165376
571.817	0.0164007
571.896	0.0164748
571.974	0.0164543
572.052	0.0167234
572.130	0.0165767
572.208	0.0166352
572.286	0.0165707
572.364	0.0165565
572.442	0.0165240
572.521	0.0163998
572.599	0.0165092
572.677	0.0165890
572.755	0.0165929
572.833	0.0164078
572.911	0.0164856
572.989	0.0165916
573.067	0.0164442
573.146	0.0163658
573.224	0.0165397
573.302	0.0165557
573.380	0.0165342
573.458	0.0164416
573.536	0.0165248
573.614	0.0165346
573.692	0.0165781
573.771	0.0166753
573.849	0.0166145
573.927	0.0165800
574.005	0.0166336
574.083	0.0165087
574.161	0.0165173
574.239	0.0164803
574.317	0.0166065
574.396	0.0165717
574.474	0.0165341
574.552	0.0166067
574.630	0.0167156
574.708	0.0165511
574.786	0.0165349
574.864	0.0166986
574.942	0.0165004
575.021	0.0166297
575.099	0.0164869
575.177	0.0166185
575.255	0.0166399
575.333	0.0166944
575.411	0.0165858
575.489	0.0165578
575.567	0.0166419
575.646	0.0164975
575.724	0.0166032
575.802	0.0165350
575.880	0.0165171
575.958	0.0165880
576.036	0.0164654
576.114	0.0163650
576.192	0.0165146
576.271	0.0166510
576.349	0.0165875
576.427	0.0165985
576.505	0.0166942
576.583	0.0165387
576.661	0.0166531
576.739	0.0165800
576.817	0.0166608
576.896	0.0166921
576.974	0.0167008
577.052	0.0166170
577.130	0.0165847
577.208	0.0165791
577.286	0.0167703
577.364	0.0166104
577.442	0.0164598
577.521	0.0165595
577.599	0.0165341
577.677	0.0164999
577.755	0.0164451
577.833	0.0165272
577.911	0.0165721
577.989	0.0165215
578.067	0.0165810
578.146	0.0165000
578.224	0.0165469
578.302	0.0165051
578.380	0.0164925
578.458	0.0167855
578.536	0.0167822
578.614	0.0165916
578.692	0.0165847
578.771	0.0165090
578.849	0.0166170
578.927	0.0166486
579.005	0.0164410
579.083	0.0165796
579.161	0.0165594
579.239	0.0164594
579.317	0.0166585
579.396	0.0166326
579.474	0.0165364
579.552	0.0164916
579.630	0.0164925
579.708	0.0166320
579.786	0.0165854
579.864	0.0166303
579.942	0.0165208
580.021	0.0165820
580.099	0.0166752
580.177	0.0166501
580.255	0.0164813
580.333	0.0165668
580.411	0.0165718
580.489	0.0165491
580.567	0.0165710
580.646	0.0164091
580.724	0.0165089
580.802	0.0166293
580.880	0.0167577
580.958	0.0166699
581.036	0.0164855
581.114	0.0165738
581.192	0.0166410
581.271	0.0166785
581.349	0.0165474
581.427	0.0164513
581.505	0.0165494
581.583	0.0167112
581.661	0.0166415
581.739	0.0166000
581.817	0.0165810
581.896	0.0165841
581.974	0.0166190
582.052	0.0166132
582.130	0.0166665
582.208	0.0164822
582.286	0.0165533
582.364	0.0165190
582.442	0.0166307
582.521	0.0167551
582.599	0.0165396
582.677	0.0166141
582.755	0.0166453
582.833	0.0165364
582.911	0.0165395
582.989	0.0166615
583.067	0.0166216
583.146	0.0165008
583.224	0.0166447
583.302	0.0165859
583.380	0.0165620
583.458	0.0165355
583.536	0.0165163
583.614	0.0165138
583.692	0.0165649
583.771	0.0166550
583.849	0.0165739
583.927	0.0165617
584.005	0.0165534
584.083	0.0165215
584.161	0.0166044
584.239	0.0166489
584.317	0.0166226
584.396	0.0165531
584.474	0.0164584
584.552	0.0165253
584.630	0.0164973
584.708	0.0166292
584.786	0.0165877
584.864	0.0165768
584.942	0.0165769
585.021	0.0165270
585.099	0.0165237
585.177	0.0167290
585.255	0.0166327
585.333	0.0165770
585.411	0.0164952
585.489	0.0165360
585.567	0.0165776
585.646	0.0165800
585.724	0.0165922
585.802	0.0166087
585.880	0.0166031
585.958	0.0167665
586.036	0.0166578
586.114	0.0165942
586.192	0.0166350
586.271	0.0167177
586.349	0.0166525
586.427	0.0166001
586.505	0.0166035
586.583	0.0165603
586.661	0.0166437
586.739	0.0164799
586.817	0.0164951
586.896	0.0165221
586.974	0.0165420
587.052	0.0165579
587.130	0.0165434
587.208	0.0166164
587.286	0.0164790
587.364	0.0164510
587.442	0.0166807
587.521	0.0166248
587.599	0.0166043
587.677	0.0166220
587.755	0.0166933
587.833	0.0166846
587.911	0.0166388
587.989	0.0165546
588.067	0.0165392
588.146	0.0166370
588.224	0.0165877
588.302	0.0165285
588.380	0.0166274
588.458	0.0166236
588.536	0.0164037
588.614	0.0164608
588.692	0.0165805
588.771	0.0166219
588.849	0.0164094
588.927	0.0165179
589.005	0.0165016
589.083	0.0164794
589.161	0.0166280
589.239	0.0166451
589.317	0.0165533
589.396	0.0166218
589.474	0.0167416
589.552	0.0165965
589.630	0.0165781
589.708	0.0167517
589.786	0.0165731
589.864	0.0165083
589.942	0.0165784
590.021	0.0165012
590.099	0.0164629
590.177	0.0166580
590.255	0.0165946
590.333	0.0165447
590.411	0.0165490
590.489	0.0163714
590.567	0.0166261
590.646	0.0166621
590.724	0.0166518
590.802	0.0166074
590.880	0.0165885
590.958	0.0165540
591.036	0.0165749
591.114	0.0167325
591.192	0.0166647
591.271	0.0165437
591.349	0.0165421
591.427	0.0165738
591.505	0.0165707
591.583	0.0165868
591.661	0.0165732
591.739	0.0166972
591.817	0.0167329
591.896	0.0166410
591.974	0.0165591
592.052	0.0164771
592.130	0.0166377
592.208	0.0167140
592.286	0.0165326
592.364	0.0167773
592.442	0.0167105
592.521	0.0165725
592.599	0.0165301
592.677	0.0165401
592.755	0.0165560
592.833	0.0165926
592.911	0.0166269
592.989	0.0166751
593.067	0.0165313
593.146	0.0166369
593.224	0.0165426
593.302	0.0166872
593.380	0.0166781
593.458	0.0164967
593.536	0.0165802
593.614	0.0166555
593.692	0.0167027
593.771	0.0165933
593.849	0.0166042
593.927	0.0165434
594.005	0.0164848
594.083	0.0165166
594.161	0.0167416
594.239	0.0165402
594.317	0.0166115
594.396	0.0165598
594.474	0.0166834
594.552	0.0166278
594.630	0.0167069
594.708	0.0167458
594.786	0.0168016
594.864	0.0163912
594.942	0.0166287
595.021	0.0166304
595.099	0.0165855
595.177	0.0164919
595.255	0.0166263
595.333	0.0165767
595.411	0.0166009
595.489	0.0167448
595.567	0.0165482
595.646	0.0166171
595.724	0.0165571
595.802	0.0165115
595.880	0.0165727
595.958	0.0165332
596.036	0.0166476
596.114	0.0166203
596.192	0.0165913
596.271	0.0165193
596.349	0.0165215
596.427	0.0165941
596.505	0.0165223
596.583	0.0164500
596.661	0.0165649
596.739	0.0165468
596.817	0.0166639
596.896	0.0165510
596.974	0.0165552
597.052	0.0166749
597.130	0.0165907
597.208	0.0166109
597.286	0.0164890
597.364	0.0165228
597.442	0.0165611
597.521	0.0165125
597.599	0.0165629
597.677	0.0166626
597.755	0.0165881
597.833	0.0166431
597.911	0.0164477
597.989	0.0164703
598.067	0.0165836
598.146	0.0165066
598.224	0.0166309
598.302	0.0165710
598.380	0.0166429
598.458	0.0165804
598.536	0.0166299
598.614	0.0165965
598.692	0.0166692
598.771	0.0165410
598.849	0.0164752
598.927	0.0166169
599.005	0.0166442
599.083	0.0165598
599.161	0.0165481
599.239	0.0166563
599.317	0.0164950
599.396	0.0165508
599.474	0.0166333
599.552	0.0165934
599.630	0.0165287
599.708	0.0166317
599.786	0.0166260
599.864	0.0165379
599.942	0.0164431
600.021	0.0166006
600.099	0.0165013
600.177	0.0165845
600.255	0.0165827
600.333	0.0164670
600.411	0.0165004
600.489	0.0165045
600.567	0.0167234
600.646	0.0165558
600.724	0.0165798
600.802	0.0166099
600.880	0.0166521
600.958	0.0166706
601.036	0.0166019
601.114	0.0165028
601.192	0.0165065
601.271	0.0166085
601.349	0.0166241
601.427	0.0165341
601.505	0.0166670
601.583	0.0166772
601.661	0.0164803
601.739	0.0165696
601.817	0.0166087
601.896	0.0166032
601.974	0.0166493
602.052	0.0167263
602.130	0.0166677
602.208	0.0164445
602.286	0.0167789
602.364	0.0165020
602.442	0.0165784
602.521	0.0165768
602.599	0.0165463
602.677	0.0166399
602.755	0.0166862
602.833	0.0166078
602.911	0.0165836
602.989	0.0164630
603.067	0.0164999
603.146	0.0167363
603.224	0.0166677
603.302	0.0166460
603.380	0.0164391
603.458	0.0166268
603.536	0.0165945
603.614	0.0166097
603.692	0.0165714
603.771	0.0165201
603.849	0.0165697
603.927	0.0166320
604.005	0.0165002
604.083	0.0165497
604.161	0.0167263
604.239	0.0166463
604.317	0.0164409
604.396	0.0165865
604.474	0.0165525
604.552	0.0165414
604.630	0.0165601
604.708	0.0166334
604.786	0.0164531
604.864	0.0164294
604.942	0.0166219
605.021	0.0166473
605.099	0.0166106
605.177	0.0165849
605.255	0.0164788
605.333	0.0165749
605.411	0.0165569
605.489	0.0166647
605.567	0.0166868
605.646	0.0166174
605.724	0.0166862
605.802	0.0166143
605.880	0.0165282
605.958	0.0166605
606.036	0.0167336
606.114	0.0166916
606.192	0.0165766
606.271	0.0165768
606.349	0.0166198
606.427	0.0167692
606.505	0.0166512
606.583	0.0164777
606.661	0.0165907
606.739	0.0166616
606.817	0.0165572
606.896	0.0164280
606.974	0.0166792
607.052	0.0165926
607.130	0.0165726
607.208	0.0165526
607.286	0.0165285
607.364	0.0166151
607.442	0.0166228
607.521	0.0166162
607.599	0.0165697
607.677	0.0165497
607.755	0.0166113
607.833	0.0167774
607.911	0.0167316
607.989	0.0166554
608.067	0.0165658
608.146	0.0165587
608.224	0.0166385
608.302	0.0165632
608.380	0.0165260
608.458	0.0165502
608.536	0.0167427
608.614	0.0167141
608.692	0.0165766
608.771	0.0165322
608.849	0.0165411
608.927	0.0165956
609.005	0.0165673
609.083	0.0165968
609.161	0.0166551
609.239	0.0166946
609.317	0.0166316
609.396	0.0166901
609.474	0.0167915
609.552	0.0165879
609.630	0.0165385
609.708	0.0165782
609.786	0.0165864
609.864	0.0165533
609.942	0.0165069
610.021	0.0167325
610.099	0.0166021
610.177	0.0164954
610.255	0.0165877
610.333	0.0164325
610.411	0.0166528
610.489	0.0166577
610.567	0.0165913
610.646	0.0165890
610.724	0.0166341
610.802	0.0166895
610.880	0.0165955
610.958	0.0167395
611.036	0.0165337
611.114	0.0166434
611.192	0.0164689
611.271	0.0166557
611.349	0.0166154
611.427	0.0166737
611.505	0.0167258
611.583	0.0166048
611.661	0.0166402
611.739	0.0165578
611.817	0.0164749
611.896	0.0166216
611.974	0.0165425
612.052	0.0166485
612.130	0.0166399
612.208	0.0164758
612.286	0.0165874
612.364	0.0166200
612.442	0.0165328
612.521	0.0165476
612.599	0.0166039
612.677	0.0166296
612.755	0.0166048
612.833	0.0165147
612.911	0.0165829
612.989	0.0165968
613.067	0.0166666
613.146	0.0166139
613.224	0.0165551
613.302	0.0166274
613.380	0.0166164
613.458	0.0165575
613.536	0.0166328
613.614	0.0165655
613.692	0.0165973
613.771	0.0166006
613.849	0.0166433
613.927	0.0166550
614.005	0.0165248
614.083	0.0165459
614.161	0.0166299
614.239	0.0166715
614.317	0.0167472
614.396	0.0164713
614.474	0.0165388
614.552	0.0167322
614.630	0.0166919
614.708	0.0166003
614.786	0.0165230
614.864	0.0164888
614.942	0.0164548
615.021	0.0165598
615.099	0.0165479
615.177	0.0166011
615.255	0.0166383
615.333	0.0165698
615.411	0.0165625
615.489	0.0165752
615.567	0.0165041
615.646	0.0166125
615.724	0.0165478
615.802	0.0166080
615.880	0.0166466
615.958	0.0165341
616.036	0.0165865
616.114	0.0164669
616.192	0.0165387
616.271	0.0165082
616.349	0.0166509
616.427	0.0166608
616.505	0.0165070
616.583	0.0166005
616.661	0.0165787
616.739	0.0164655
616.817	0.0166630
616.896	0.0165723
616.974	0.0165513
617.052	0.0166049
617.130	0.0165330
617.208	0.0166443
617.286	0.0165069
617.364	0.0166364
617.442	0.0166002
617.521	0.0165953
617.599	0.0166233
617.677	0.0167025
617.755	0.0164964
617.833	0.0166355
617.911	0.0166524
617.989	0.0164809
618.067	0.0165092
618.146	0.0166199
618.224	0.0166386
618.302	0.0166394
618.380	0.0166001
618.458	0.0165977
618.536	0.0166946
618.614	0.0166236
618.692	0.0164825
618.771	0.0166106
618.849	0.0165425
618.927	0.0166349
619.005	0.0166444
619.083	0.0165154
619.161	0.0167080
619.239	0.0164988
619.317	0.0165110
619.396	0.0166292
619.474	0.0165891
619.552	0.0164522
619.630	0.0164967
619.708	0.0165726
619.786	0.0165320
619.864	0.0165915
619.942	0.0166686
620.021	0.0166454
620.099	0.0166909
620.177	0.0166650
620.255	0.0166225
620.333	0.0165836
620.411	0.0165267
620.489	0.0165555
620.567	0.0165965
620.646	0.0166106
620.724	0.0165978
620.802	0.0166317
620.880	0.0166306
620.958	0.0165454
621.036	0.0166072
621.114	0.0164389
621.192	0.0165170
621.271	0.0165887
621.349	0.0165685
621.427	0.0167072
621.505	0.0165404
621.583	0.0165968
621.661	0.0165729
621.739	0.0166484
621.817	0.0165939
621.896	0.0166191
621.974	0.0165668
622.052	0.0165636
622.130	0.0166557
622.208	0.0165437
622.286	0.0165178
622.364	0.0165039
622.442	0.0166339
622.521	0.0166729
622.599	0.0165624
622.677	0.0166033
622.755	0.0166247
622.833	0.0166797
622.911	0.0166952
622.989	0.0166251
623.067	0.0166180
623.146	0.0166408
623.224	0.0166608
623.302	0.0165804
623.380	0.0166771
623.458	0.0167828
623.536	0.0165983
623.614	0.0166130
623.692	0.0165649
623.771	0.0164740
623.849	0.0167929
623.927	0.0167180
624.005	0.0165347
624.083	0.0165752
624.161	0.0166708
624.239	0.0165133
624.317	0.0166320
624.396	0.0165956
624.474	0.0166586
624.552	0.0166358
624.630	0.0166306
624.708	0.0165880
624.786	0.0165366
624.864	0.0164460
624.942	0.0166027
625.021	0.0165835
625.099	0.0164779
625.177	0.0165234
625.255	0.0165663
625.333	0.0166336
625.411	0.0166360
625.489	0.0167013
625.567	0.0166813
625.646	0.0165038
625.724	0.0166045
625.802	0.0165476
625.880	0.0166738
625.958	0.0165805
626.036	0.0166994
626.114	0.0166170
626.192	0.0166209
626.271	0.0166628
626.349	0.0166004
626.427	0.0165269
626.505	0.0166354
626.583	0.0166322
626.661	0.0166690
626.739	0.0166542
626.817	0.0165839
626.896	0.0164935
626.974	0.0167177
627.052	0.0165411
627.130	0.0165781
627.208	0.0166073
627.286	0.0166222
627.364	0.0165958
627.442	0.0165878
627.521	0.0166516
627.599	0.0165108
627.677	0.0168170
627.755	0.0166109
627.833	0.0165110
627.911	0.0166481
627.989	0.0166608
628.067	0.0165478
628.146	0.0165120
628.224	0.0166547
628.302	0.0164487
628.380	0.0164455
628.458	0.0165117
628.536	0.0166280
628.614	0.0165949
628.692	0.0165772
628.771	0.0165650
628.849	0.0166218
628.927	0.0164006
629.005	0.0164735
629.083	0.0166051
629.161	0.0166708
629.239	0.0164855
629.317	0.0164510
629.396	0.0165958
629.474	0.0166169
629.552	0.0165728
629.630	0.0164549
629.708	0.0165402
629.786	0.0165788
629.864	0.0166074
629.942	0.0165492
630.021	0.0164452
630.099	0.0166532
630.177	0.0166415
630.255	0.0166051
630.333	0.0165419
630.411	0.0166212
630.489	0.0166074
630.567	0.0166770
630.646	0.0164838
630.724	0.0165259
630.802	0.0167372
630.880	0.0165893
630.958	0.0165026
631.036	0.0164989
631.114	0.0164877
631.192	0.0165998
631.271	0.0167155
631.349	0.0166882
631.427	0.0167617
631.505	0.0166037
631.583	0.0166605
631.661	0.0165331
631.739	0.0166250
631.817	0.0166241
631.896	0.0166141
631.974	0.0165938
632.052	0.0165426
632.130	0.0166216
632.208	0.0166811
632.286	0.0165597
632.364	0.0165888
632.442	0.0166409
632.521	0.0166360
632.599	0.0165051
632.677	0.0165993
632.755	0.0164767
632.833	0.0166044
632.911	0.0165247
632.989	0.0165748
633.067	0.0165612
633.146	0.0166737
633.224	0.0166297
633.302	0.0166630
633.380	0.0166940
633.458	0.0167102
633.536	0.0165762
633.614	0.0165031
633.692	0.0165496
633.771	0.0165847
633.849	0.0165649
633.927	0.0165499
634.005	0.0166283
634.083	0.0166660
634.161	0.0166416
634.239	0.0165808
634.317	0.0166109
634.396	0.0166793
634.474	0.0168089
634.552	0.0166715
634.630	0.0165359
634.708	0.0165187
634.786	0.0164988
634.864	0.0165179
634.942	0.0166220
635.021	0.0165563
635.099	0.0165050
635.177	0.0165644
635.255	0.0164880
635.333	0.0165761
635.411	0.0165249
635.489	0.0165437
635.567	0.0165831
635.646	0.0166627
635.724	0.0165672
635.802	0.0166821
635.880	0.0164935
635.958	0.0166018
636.036	0.0166019
636.114	0.0166314
636.192	0.0165793
636.271	0.0165278
636.349	0.0165082
636.427	0.0165131
636.505	0.0166127
636.583	0.0166634
636.661	0.0165126
636.739	0.0166468
636.817	0.0165021
636.896	0.0165674
636.974	0.0165253
637.052	0.0166528
637.130	0.0166387
637.208	0.0166087
637.286	0.0166488
637.364	0.0166070
637.442	0.0166734
637.521	0.0165939
637.599	0.0165646
637.677	0.0165878
637.755	0.0165923
637.833	0.0165857
637.911	0.0166254
637.989	0.0165470
638.067	0.0165976
638.146	0.0165116
638.224	0.0165945
638.302	0.0164705
638.380	0.0166611
638.458	0.0166084
638.536	0.0166167
638.614	0.0166457
638.692	0.0166329
638.771	0.0166035
638.849	0.0167101
638.927	0.0168034
639.005	0.0166494
639.083	0.0165857
639.161	0.0166434
639.239	0.0166466
639.317	0.0165997
639.396	0.0167130
639.474	0.0166711
639.552	0.0165281
639.630	0.0165277
639.708	0.0167280
639.786	0.0166741
639.864	0.0166408
639.942	0.0164762
640.021	0.0165923
640.099	0.0165655
640.177	0.0165904
640.255	0.0166225
640.333	0.0166869
640.411	0.0165181
640.489	0.0166209
640.567	0.0166635
640.646	0.0167335
640.724	0.0166080
640.802	0.0166310
640.880	0.0165229
640.958	0.0165032
641.036	0.0166689
641.114	0.0165596
641.192	0.0165544
641.271	0.0166529
641.349	0.0166289
641.427	0.0166328
641.505	0.0164732
641.583	0.0165203
641.661	0.0165985
641.739	0.0165833
641.817	0.0164474
641.896	0.0166614
641.974	0.0166434
642.052	0.0165836
642.130	0.0166313
642.208	0.0166188
642.286	0.0165202
642.364	0.0165004
642.442	0.0166394
642.521	0.0166155
642.599	0.0166018
642.677	0.0166084
642.755	0.0165579
642.833	0.0165811
642.911	0.0165625
642.989	0.0164875
643.067	0.0165310
643.146	0.0165784
643.224	0.0165810
643.302	0.0166219
643.380	0.0166729
643.458	0.0166492
643.536	0.0165408
643.614	0.0166807
643.692	0.0166817
643.771	0.0165980
643.849	0.0166699
643.927	0.0165992
644.005	0.0167139
644.083	0.0166089
644.161	0.0166124
644.239	0.0165606
644.317	0.0166138
644.396	0.0166569
644.474	0.0165762
644.552	0.0165843
644.630	0.0165368
644.708	0.0166112
644.786	0.0164962
644.864	0.0167577
644.942	0.0165967
645.021	0.0165510
645.099	0.0165255
645.177	0.0165648
645.255	0.0166684
645.333	0.0165659
645.411	0.0166202
645.489	0.0165833
645.567	0.0165281
645.646	0.0166048
645.724	0.0166437
645.802	0.0166064
645.880	0.0165242
645.958	0.0165871
646.036	0.0165388
646.114	0.0165019
646.192	0.0166504
646.271	0.0167251
646.349	0.0166007
646.427	0.0166622
646.505	0.0166518
646.583	0.0165514
646.661	0.0165630
646.739	0.0166513
646.817	0.0167383
646.896	0.0164124
646.974	0.0165388
647.052	0.0165607
647.130	0.0165975
647.208	0.0164611
647.286	0.0165356
647.364	0.0166096
647.442	0.0166018
647.521	0.0165640
647.599	0.0165108
647.677	0.0165815
647.755	0.0166983
647.833	0.0166100
647.911	0.0166213
647.989	0.0165847
648.067	0.0165379
648.146	0.0165287
648.224	0.0165678
648.302	0.0166808
648.380	0.0166174
648.458	0.0165972
648.536	0.0165048
648.614	0.0164487
648.692	0.0166139
648.771	0.0166868
648.849	0.0165189
648.927	0.0166756
649.005	0.0167670
649.083	0.0166214
649.161	0.0166550
649.239	0.0166375
649.317	0.0165791
649.396	0.0166186
649.474	0.0166039
649.552	0.0167123
649.630	0.0165955
649.708	0.0165902
649.786	0.0166660
649.864	0.0165469
649.942	0.0166566
650.021	0.0166154
650.099	0.0165818
650.177	0.0165702
650.255	0.0166200
650.333	0.0165266
650.411	0.0165855
650.489	0.0166700
650.567	0.0165266
650.646	0.0166142
650.724	0.0165107
650.802	0.0165677
650.880	0.0167174
650.958	0.0167064
651.036	0.0166663
651.114	0.0164903
651.192	0.0164786
651.271	0.0166053
651.349	0.0165450
651.427	0.0165270
651.505	0.0165000
651.583	0.0165310
651.661	0.0165514
651.739	0.0165405
651.817	0.0166399
651.896	0.0166282
651.974	0.0166177
652.052	0.0165405
652.130	0.0165100
652.208	0.0165344
652.286	0.0166907
652.364	0.0165642
652.442	0.0165362
652.521	0.0166272
652.599	0.0165587
652.677	0.0165155
652.755	0.0164513
652.833	0.0165649
652.911	0.0165804
652.989	0.0165072
653.067	0.0164772
653.146	0.0166317
653.224	0.0165810
653.302	0.0166429
653.380	0.0166049
653.458	0.0165437
653.536	0.0166405
653.614	0.0165831
653.692	0.0165448
653.771	0.0165810
653.849	0.0166471
653.927	0.0165632
654.005	0.0167516
654.083	0.0165376
654.161	0.0164846
654.239	0.0166117
654.317	0.0166005
654.396	0.0166125
654.474	0.0165392
654.552	0.0166070
654.630	0.0165911
654.708	0.0165842
654.786	0.0166245
654.864	0.0167059
654.942	0.0165936
655.021	0.0166764
655.099	0.0165536
655.177	0.0166199
655.255	0.0167116
655.333	0.0166199
655.411	0.0167069
655.489	0.0166968
655.567	0.0165926
655.646	0.0166746
655.724	0.0164908
655.802	0.0164810
655.880	0.0166091
655.958	0.0165196
656.036	0.0166930
656.114	0.0166323
656.192	0.0165293
656.271	0.0165537
656.349	0.0166130
656.427	0.0166100
656.505	0.0166270
656.583	0.0165383
656.661	0.0163319
656.739	0.0165488
656.817	0.0166341
656.896	0.0165787
656.974	0.0166467
657.052	0.0165701
657.130	0.0166498
657.208	0.0164668
657.286	0.0165603
657.364	0.0166874
657.442	0.0166870
657.521	0.0165929
657.599	0.0165917
657.677	0.0164883
657.755	0.0166010
657.833	0.0165961
657.911	0.0165182
657.989	0.0165526
658.067	0.0165768
658.146	0.0165836
658.224	0.0165519
658.302	0.0165297
658.380	0.0166302
658.458	0.0164139
658.536	0.0163750
658.614	0.0165304
658.692	0.0166367
658.771	0.0164965
658.849	0.0164924
658.927	0.0165740
659.005	0.0165916
659.083	0.0166067
659.161	0.0165186
659.239	0.0165455
659.317	0.0165842
659.396	0.0164842
659.474	0.0166340
659.552	0.0167230
659.630	0.0166392
659.708	0.0166269
659.786	0.0165997
659.864	0.0165663
659.942	0.0165962
660.021	0.0165173
660.099	0.0165549
660.177	0.0165073
660.255	0.0165535
660.333	0.0166368
660.411	0.0167211
660.489	0.0166701
660.567	0.0165902
660.646	0.0165166
660.724	0.0166286
660.802	0.0166049
660.880	0.0167218
660.958	0.0165641
661.036	0.0164432
661.114	0.0166875
661.192	0.0166110
661.271	0.0165799
661.349	0.0165730
661.427	0.0165012
661.505	0.0166603
661.583	0.0166384
661.661	0.0165271
661.739	0.0165678
661.817	0.0165031
661.896	0.0166601
661.974	0.0165264
662.052	0.0164758
662.130	0.0164806
662.208	0.0164757
662.286	0.0166013
662.364	0.0166764
662.442	0.0166006
662.521	0.0165761
662.599	0.0165578
662.677	0.0166140
662.755	0.0165283
662.833	0.0166138
662.911	0.0164603
662.989	0.0165264
663.067	0.0166988
663.146	0.0165778
663.224	0.0164996
663.302	0.0166470
663.380	0.0165795
663.458	0.0165539
663.536	0.0166299
663.614	0.0164925
663.692	0.0164682
663.771	0.0166685
663.849	0.0166542
663.927	0.0165505
664.005	0.0165705
664.083	0.0166707
664.161	0.0165164
664.239	0.0164001
664.317	0.0164214
664.396	0.0165895
664.474	0.0166612
664.552	0.0164767
664.630	0.0166182
664.708	0.0166199
664.786	0.0164841
664.864	0.0165273
664.942	0.0165377
665.021	0.0165728
665.099	0.0166454
665.177	0.0166598
665.255	0.0167052
665.333	0.0166747
665.411	0.0166049
665.489	0.0165772
665.567	0.0165258
665.646	0.0165284
665.724	0.0166681
665.802	0.0167084
665.880	0.0164127
665.958	0.0165484
666.036	0.0165825
666.114	0.0165628
666.192	0.0165717
666.271	0.0166467
666.349	0.0166125
666.427	0.0164501
666.505	0.0165917
666.583	0.0167487
666.661	0.0166058
666.739	0.0166466
666.817	0.0167403
666.896	0.0164950
666.974	0.0166026
667.052	0.0165658
667.130	0.0165991
667.208	0.0166714
667.286	0.0165649
667.364	0.0163607
667.442	0.0165186
667.521	0.0166053
667.599	0.0165737
667.677	0.0166599
667.755	0.0166592
667.833	0.0164416
667.911	0.0165135
667.989	0.0166753
668.067	0.0166621
668.146	0.0166223
668.224	0.0164746
668.302	0.0164430
668.380	0.0165465
668.458	0.0166187
668.536	0.0166851
668.614	0.0166420
668.692	0.0166465
668.771	0.0164699
668.849	0.0166185
668.927	0.0166099
669.005	0.0165723
669.083	0.0166219
669.161	0.0166553
669.239	0.0165340
669.317	0.0164685
669.396	0.0165942
669.474	0.0165996
669.552	0.0165949
669.630	0.0164941
669.708	0.0165794
669.786	0.0166904
669.864	0.0166238
669.942	0.0165266
670.021	0.0165621
670.099	0.0167972
670.177	0.0166939
670.255	0.0165691
670.333	0.0166054
670.411	0.0167498
670.489	0.0166442
670.567	0.0166685
670.646	0.0165979
670.724	0.0166211
670.802	0.0166093
670.880	0.0166303
670.958	0.0164858
671.036	0.0166119
671.114	0.0165667
671.192	0.0164876
671.271	0.0166541
671.349	0.0166914
671.427	0.0166631
671.505	0.0166953
671.583	0.0166962
671.661	0.0165416
671.739	0.0165239
671.817	0.0166756
671.896	0.0165257
671.974	0.0164568
672.052	0.0165079
672.130	0.0167366
672.208	0.0166138
672.286	0.0165427
672.364	0.0166315
672.442	0.0166075
672.521	0.0166579
672.599	0.0165643
672.677	0.0166343
672.755	0.0164573
672.833	0.0166544
672.911	0.0166856
672.989	0.0165634
673.067	0.0166357
673.146	0.0165872
673.224	0.0165536
673.302	0.0165772
673.380	0.0165538
673.458	0.0166581
673.536	0.0166156
673.614	0.0166736
673.692	0.0166448
673.771	0.0166633
673.849	0.0165579
673.927	0.0165565
674.005	0.0166526
674.083	0.0166081
674.161	0.0165152
674.239	0.0166472
674.317	0.0165832
674.396	0.0166101
674.474	0.0166439
674.552	0.0166798
674.630	0.0166333
674.708	0.0166349
674.786	0.0166288
674.864	0.0166936
674.942	0.0166263
675.021	0.0165607
675.099	0.0165725
675.177	0.0165216
675.255	0.0166023
675.333	0.0167136
675.411	0.0165408
675.489	0.0165942
675.567	0.0165469
675.646	0.0167040
675.724	0.0165508
675.802	0.0165124
675.880	0.0165757
675.958	0.0166440
676.036	0.0166525
676.114	0.0164216
676.192	0.0165691
676.271	0.0167046
676.349	0.0166242
676.427	0.0166239
676.505	0.0166581
676.583	0.0167241
676.661	0.0165547
676.739	0.0165886
676.817	0.0166003
676.896	0.0165151
676.974	0.0165858
677.052	0.0165807
677.130	0.0165291
677.208	0.0166432
677.286	0.0166853
677.364	0.0165578
677.442	0.0164968
677.521	0.0167195
677.599	0.0166151
677.677	0.0165656
677.755	0.0165955
677.833	0.0165666
677.911	0.0165807
677.989	0.0165281
678.067	0.0166592
678.146	0.0165992
678.224	0.0166421
678.302	0.0165359
678.380	0.0166521
678.458	0.0166195
678.536	0.0165962
678.614	0.0165292
678.692	0.0167260
678.771	0.0166046
678.849	0.0165608
678.927	0.0164550
679.005	0.0165253
679.083	0.0164696
679.161	0.0167281
679.239	0.0165234
679.317	0.0165768
679.396	0.0165189
679.474	0.0165398
679.552	0.0166060
679.630	0.0165939
679.708	0.0166130
679.786	0.0164979
679.864	0.0166882
679.942	0.0166386
680.021	0.0166084
680.099	0.0165349
680.177	0.0164762
680.255	0.0166624
680.333	0.0166358
680.411	0.0166325
680.489	0.0166114
680.567	0.0165179
680.646	0.0165259
680.724	0.0165610
680.802	0.0165878
680.880	0.0165604
680.958	0.0166521
681.036	0.0167384
681.114	0.0166459
681.192	0.0165141
681.271	0.0165815
681.349	0.0164989
681.427	0.0167014
681.505	0.0166496
681.583	0.0166954
681.661	0.0167240
681.739	0.0166663
681.817	0.0165920
681.896	0.0166083
681.974	0.0166292
682.052	0.0165500
682.130	0.0165155
682.208	0.0165499
682.286	0.0165396
682.364	0.0164972
682.442	0.0166122
682.521	0.0166195
682.599	0.0165683
682.677	0.0166628
682.755	0.0164665
682.833	0.0165421
682.911	0.0165260
682.989	0.0165527
683.067	0.0165303
683.146	0.0166929
683.224	0.0166348
683.302	0.0165321
683.380	0.0165259
683.458	0.0165472
683.536	0.0166016
683.614	0.0164986
683.692	0.0166284
683.771	0.0166765
683.849	0.0166314
683.927	0.0165012
684.005	0.0166018
684.083	0.0166630
684.161	0.0167033
684.239	0.0164409
684.317	0.0166977
684.396	0.0167018
684.474	0.0166335
684.552	0.0167193
684.630	0.0165468
684.708	0.0167109
684.786	0.0166988
684.864	0.0165401
684.942	0.0166839
685.021	0.0167115
685.099	0.0165412
685.177	0.0165842
685.255	0.0166266
685.333	0.0167274
685.411	0.0167432
685.489	0.0165362
685.567	0.0166737
685.646	0.0167278
685.724	0.0167355
685.802	0.0167360
685.880	0.0166877
685.958	0.0166631
686.036	0.0166014
686.114	0.0166810
686.192	0.0166111
686.271	0.0167684
686.349	0.0166945
686.427	0.0166176
686.505	0.0166623
686.583	0.0166605
686.661	0.0166277
686.739	0.0167316
686.817	0.0165561
686.896	0.0166374
686.974	0.0165371
687.052	0.0166086
687.130	0.0168124
687.208	0.0167439
687.286	0.0166034
687.364	0.0165799
687.442	0.0167536
687.521	0.0166056
687.599	0.0165763
687.677	0.0167915
687.755	0.0168073
687.833	0.0166474
687.911	0.0166049
687.989	0.0166676
688.067	0.0166673
688.146	0.0166431
688.224	0.0167168
688.302	0.0165674
688.380	0.0167233
688.458	0.0166239
688.536	0.0165649
688.614	0.0165693
688.692	0.0166322
688.771	0.0166501
688.849	0.0166062
688.927	0.0166549
689.005	0.0165377
689.083	0.0166795
689.161	0.0166293
689.239	0.0166835
689.317	0.0166371
689.396	0.0165473
689.474	0.0166220
689.552	0.0166850
689.630	0.0164740
689.708	0.0166622
689.786	0.0167937
689.864	0.0164692
689.942	0.0165360
690.021	0.0166497
690.099	0.0166180
690.177	0.0166026
690.255	0.0165932
690.333	0.0166400
690.411	0.0167347
690.489	0.0165457
690.567	0.0165300
690.646	0.0165231
690.724	0.0166963
690.802	0.0167206
690.880	0.0166610
690.958	0.0166728
691.036	0.0165653
691.114	0.0164101
691.192	0.0165617
691.271	0.0165308
691.349	0.0166790
691.427	0.0164320
691.505	0.0165417
691.583	0.0165759
691.661	0.0164290
691.739	0.0164982
691.817	0.0166073
691.896	0.0166583
691.974	0.0166180
692.052	0.0165618
692.130	0.0166109
692.208	0.0165479
692.286	0.0165871
692.364	0.0166067
692.442	0.0165734
692.521	0.0166012
692.599	0.0165023
692.677	0.0164750
692.755	0.0166117
692.833	0.0166190
692.911	0.0164727
692.989	0.0164704
693.067	0.0166134
693.146	0.0164137
693.224	0.0165938
693.302	0.0164619
693.380	0.0163886
693.458	0.0165689
693.536	0.0166489
693.614	0.0166470
693.692	0.0164339
693.771	0.0165314
693.849	0.0165163
693.927	0.0165269
694.005	0.0166091
694.083	0.0166131
694.161	0.0166109
694.239	0.0165648
694.317	0.0163559
694.396	0.0164541
694.474	0.0166557
694.552	0.0165873
694.630	0.0165020
694.708	0.0166885
694.786	0.0165980
694.864	0.0165244
694.942	0.0165723
695.021	0.0165098
695.099	0.0164593
695.177	0.0166422
695.255	0.0166169
695.333	0.0164668
695.411	0.0163742
695.489	0.0165128
695.567	0.0165618
695.646	0.0165720
695.724	0.0166026
695.802	0.0164745
695.880	0.0166130
695.958	0.0164021
696.036	0.0165686
696.114	0.0165888
696.192	0.0167094
696.271	0.0166405
696.349	0.0165181
696.427	0.0166546
696.505	0.0166523
696.583	0.0167136
696.661	0.0166076
696.739	0.0164677
696.817	0.0165613
696.896	0.0164508
696.974	0.0163811
697.052	0.0163261
697.130	0.0162420
697.208	0.0163909
697.286	0.0162591
697.364	0.0165989
697.442	0.0166875
697.521	0.0167183
697.599	0.0170037
697.677	0.0173297
697.755	0.0172291
697.833	0.0171838
697.911	0.0171709
697.989	0.0170103
698.067	0.0169241
698.146	0.0166029
698.224	0.0163789
698.302	0.0160436
698.380	0.0159344
698.458	0.0156458
698.536	0.0156550
698.614	0.0158140
698.692	0.0158237
698.771	0.0159177
698.849	0.0161855
698.927	0.0163686
699.005	0.0168243
699.083	0.0169070
699.161	0.0171056
699.239	0.0173764
699.317	0.0175781
699.396	0.0176088
699.474	0.0175096
699.552	0.0174030
699.630	0.0173679
699.708	0.0170968
699.786	0.0169743
699.864	0.0168356
699.942	0.0165379
700.021	0.0161913
700.099	0.0159994
700.177	0.0159328
700.255	0.0159743
700.333	0.0158981
700.411	0.0158711
700.489	0.0160072
700.567	0.0159991
700.646	0.0162681
700.724	0.0166051
700.802	0.0167096
700.880	0.0170019
700.958	0.0172067
701.036	0.0174165
701.114	0.0175596
701.192	0.0175819
701.271	0.0174859
701.349	0.0174640
701.427	0.0171326
701.505	0.0170051
701.583	0.0167468
701.661	0.0167342
701.739	0.0164026
701.817	0.0161549
701.896	0.0158456
701.974	0.0157175
702.052	0.0159822
702.130	0.0158562
702.208	0.0157742
702.286	0.0160144
702.364	0.0160253
702.442	0.0159800
702.521	0.0160988
702.599	0.0162825
702.677	0.0162691
702.755	0.0163834
702.833	0.0165931
702.911	0.0167142
702.989	0.0166836
703.067	0.0166883
703.146	0.0167475
703.224	0.0169730
703.302	0.0170331
703.380	0.0172125
703.458	0.0172210
703.536	0.0174727
703.614	0.0172439
703.692	0.0174089
703.771	0.0172584
703.849	0.0172955
703.927	0.0171530
704.005	0.0169212
704.083	0.0168871
704.161	0.0166837
704.239	0.0164711
704.317	0.0163534
704.396	0.0160962
704.474	0.0159870
704.552	0.0159299
704.630	0.0161612
704.708	0.0160674
704.786	0.0159624
704.864	0.0160709
704.942	0.0162344
705.021	0.0163346
705.099	0.0164587
705.177	0.0163164
705.255	0.0164843
705.333	0.0166698
705.411	0.0165100
705.489	0.0165192
705.567	0.0164711
705.646	0.0163893
705.724	0.0162536
705.802	0.0162533
705.880	0.0161868
705.958	0.0160824
706.036	0.0159757
706.114	0.0159321
706.192	0.0161584
706.271	0.0162366
706.349	0.0163937
706.427	0.0166472
706.505	0.0167892
706.583	0.0171793
706.661	0.0172961
706.739	0.0173570
706.817	0.0175503
706.896	0.0176321
706.974	0.0176662
707.052	0.0176910
707.130	0.0177404
707.208	0.0174907
707.286	0.0173987
707.364	0.0171718
707.442	0.0169169
707.521	0.0167250
707.599	0.0164259
707.677	0.0161641
707.755	0.0159010
707.833	0.0157306
707.911	0.0158327
707.989	0.0157541
708.067	0.0156384
708.146	0.0157303
708.224	0.0159402
708.302	0.0161407
708.380	0.0162089
708.458	0.0164922
708.536	0.0166972
708.614	0.0168375
708.692	0.0168511
708.771	0.0170837
708.849	0.0169450
708.927	0.0170147
709.005	0.0170110
709.083	0.0170270
709.161	0.0171117
709.239	0.0167574
709.317	0.0166061
709.396	0.0164373
709.474	0.0162995
709.552	0.0161144
709.630	0.0160326
709.708	0.0158025
709.786	0.0155309
709.864	0.0156153
709.942	0.0156932
710.021	0.0157481
710.099	0.0157019
710.177	0.0159061
710.255	0.0160191
710.333	0.0162597
710.411	0.0164264
710.489	0.0168283
710.567	0.0168704
710.646	0.0171360
710.724	0.0174643
710.802	0.0176829
710.880	0.0179540
710.958	0.0179198
711.036	0.0179701
711.114	0.0178990
711.192	0.0179719
711.271	0.0174515
711.349	0.0173045
711.427	0.0170831
711.505	0.0167890
711.583	0.0165101
711.661	0.0162000
711.739	0.0160658
711.817	0.0159366
711.896	0.0157645
711.974	0.0156319
712.052	0.0156291
712.130	0.0154922
712.208	0.0155076
712.286	0.0155575
712.364	0.0156093
712.442	0.0157735
712.521	0.0159772
712.599	0.0160801
712.677	0.0162109
712.755	0.0163800
712.833	0.0164774
712.911	0.0166732
712.989	0.0168996
713.067	0.0170020
713.146	0.0170820
713.224	0.0170651
713.302	0.0172053
713.380	0.0173092
713.458	0.0172578
713.536	0.0171445
713.614	0.0172165
713.692	0.0171353
713.771	0.0171244
713.849	0.0171426
713.927	0.0169535
714.005	0.0169008
714.083	0.0168517
714.161	0.0167634
714.239	0.0168111
714.317	0.0168465
714.396	0.0169289
714.474	0.0168015
714.552	0.0167610
714.630	0.0167652
714.708	0.0168710
714.786	0.0167749
714.864	0.0166644
714.942	0.0167482
715.021	0.0166863
715.099	0.0164450
715.177	0.0164625
715.255	0.0163430
715.333	0.0161117
715.411	0.0163181
715.489	0.0163439
715.567	0.0162469
715.646	0.0162421
715.724	0.0162070
715.802	0.0162064
715.880	0.0163653
715.958	0.0162382
716.036	0.0163811
716.114	0.0162916
716.192	0.0163848
716.271	0.0164576
716.349	0.0163373
716.427	0.0165131
716.505	0.0165115
716.583	0.0163920
716.661	0.0165358
716.739	0.0165626
716.817	0.0165238
716.896	0.0165100
716.974	0.0165410
717.052	0.0165975
717.130	0.0166203
717.208	0.0167973
717.286	0.0167572
717.364	0.0167076
717.442	0.0167672
717.521	0.0167036
717.599	0.0167541
717.677	0.0167543
717.755	0.0167631
717.833	0.0168583
717.911	0.0169896
717.989	0.0168597
718.067	0.0168108
718.146	0.0167642
718.224	0.0169877
718.302	0.0168105
718.380	0.0167092
718.458	0.0167723
718.536	0.0167836
718.614	0.0167126
718.692	0.0167254
718.771	0.0165883
718.849	0.0166231
718.927	0.0165865
719.005	0.0163972
719.083	0.0164468
719.161	0.0164642
719.239	0.0164073
719.317	0.0163605
719.396	0.0162746
719.474	0.0162301
719.552	0.0163276
719.630	0.0162208
719.708	0.0162228
719.786	0.0162399
719.864	0.0162735
719.942	0.0163708
720.021	0.0163496
720.099	0.0163535
720.177	0.0163648
720.255	0.0163356
720.333	0.0165815
720.411	0.0165675
720.489	0.0166000
720.567	0.0165958
720.646	0.0165968
720.724	0.0166437
720.802	0.0164483
720.880	0.0163689
720.958	0.0162435
721.036	0.0164936
721.114	0.0163599
721.192	0.0163975
721.271	0.0163631
721.349	0.0162470
721.427	0.0162942
721.505	0.0163918
721.583	0.0163699
721.661	0.0164072
721.739	0.0164992
721.817	0.0167019
721.896	0.0167342
721.974	0.0167773
722.052	0.0167695
722.130	0.0167603
722.208	0.0168194
722.286	0.0167366
722.364	0.0166899
722.442	0.0167513
722.521	0.0166721
722.599	0.0165430
722.677	0.0165388
722.755	0.0165230
722.833	0.0164301
722.911	0.0164002
722.989	0.0165442
723.067	0.0163545
723.146	0.0165295
723.224	0.0165759
723.302	0.0166523
723.380	0.0166444
723.458	0.0167918
723.536	0.0169787
723.614	0.0171448
723.692	0.0170972
723.771	0.0173595
723.849	0.0173943
723.927	0.0173743
724.005	0.0174442
724.083	0.0173785
724.161	0.0172321
724.239	0.0173201
724.317	0.0171129
724.396	0.0170488
724.474	0.0168778
724.552	0.0168094
724.630	0.0166692
724.708	0.0164408
724.786	0.0165198
724.864	0.0165118
724.942	0.0164329
725.021	0.0162788
725.099	0.0162188
725.177	0.0164877
725.255	0.0163477
725.333	0.0163459
725.411	0.0163902
725.489	0.0163072
725.567	0.0163647
725.646	0.0163599
725.724	0.0164059
725.802	0.0164445
725.880	0.0162986
725.958	0.0163962
726.036	0.0166029
726.114	0.0164970
726.192	0.0162646
726.271	0.0164400
726.349	0.0165051
726.427	0.0163665
726.505	0.0164641
726.583	0.0164415
726.661	0.0163900
726.739	0.0165927
726.817	0.0165700
726.896	0.0164818
726.974	0.0166259
727.052	0.0166694
727.130	0.0168280
727.208	0.0166341
727.286	0.0166331
727.364	0.0167083
727.442	0.0166791
727.521	0.0165791
727.599	0.0166688
727.677	0.0166223
727.755	0.0166090
727.833	0.0166921
727.911	0.0166661
727.989	0.0166959
728.067	0.0166366
728.146	0.0167290
728.224	0.0165593
728.302	0.0165732
728.380	0.0167149
728.458	0.0166692
728.536	0.0165411
728.614	0.0167290
728.692	0.0167646
728.771	0.0167677
728.849	0.0167348
728.927	0.0168134
729.005	0.0168615
729.083	0.0167853
729.161	0.0168159
729.239	0.0168158
729.317	0.0168111
729.396	0.0167371
729.474	0.0167645
729.552	0.0165514
729.630	0.0164716
729.708	0.0164849
729.786	0.0164646
729.864	0.0163616
729.942	0.0163695
730.021	0.0162698
730.099	0.0162000
730.177	0.0162846
730.255	0.0162841
730.333	0.0163656
730.411	0.0164706
730.489	0.0163510
730.567	0.0164529
730.646	0.0165994
730.724	0.0164774
730.802	0.0166410
730.880	0.0167682
730.958	0.0167512
731.036	0.0167393
731.114	0.0167880
731.192	0.0168182
731.271	0.0167294
731.349	0.0166090
731.427	0.0166837
731.505	0.0167100
731.583	0.0165766
731.661	0.0163800
731.739	0.0164904
731.817	0.0164990
731.896	0.0163017
731.974	0.0166466
732.052	0.0165085
732.130	0.0164751
732.208	0.0165544
732.286	0.0166726
732.364	0.0165915
732.442	0.0164890
732.521	0.0166321
732.599	0.0168581
732.677	0.0167223
732.755	0.0167466
732.833	0.0167770
732.911	0.0167737
732.989	0.0167387
733.067	0.0167458
733.146	0.0165908
733.224	0.0164496
733.302	0.0164395
733.380	0.0164323
733.458	0.0164729
733.536	0.0163432
733.614	0.0164539
733.692	0.0161955
733.771	0.0163032
733.849	0.0164308
733.927	0.0165812
734.005	0.0163228
734.083	0.0164302
734.161	0.0166176
734.239	0.0167752
734.317	0.0168011
734.396	0.0168927
734.474	0.0169961
734.552	0.0171388
734.630	0.0171514
734.708	0.0171893
734.786	0.0171075
734.864	0.0170614
734.942	0.0170517
735.021	0.0169926
735.099	0.0168327
735.177	0.0167378
735.255	0.0166830
735.333	0.0165522
735.411	0.0165802
735.489	0.0165610
735.567	0.0163261
735.646	0.0163380
735.724	0.0162816
735.802	0.0162315
735.880	0.0164047
735.958	0.0163213
736.036	0.0163368
736.114	0.0162899
736.192	0.0164678
736.271	0.0164961
736.349	0.0164793
736.427	0.0166045
736.505	0.0166611
736.583	0.0165562
736.661	0.0165141
736.739	0.0166543
736.817	0.0167513
736.896	0.0168653
736.974	0.0166921
737.052	0.0167078
737.130	0.0168057
737.208	0.0167339
737.286	0.0166825
737.364	0.0167567
737.442	0.0165428
737.521	0.0164597
737.599	0.0164382
737.677	0.0167704
737.755	0.0166358
737.833	0.0165117
737.911	0.0165519
737.989	0.0165742
738.067	0.0166193
738.146	0.0167627
738.224	0.0166616
738.302	0.0168191
738.380	0.0169025
738.458	0.0168026
738.536	0.0167175
738.614	0.0166936
738.692	0.0166351
738.771	0.0166692
738.849	0.0169277
738.927	0.0166660
739.005	0.0167292
739.083	0.0165036
739.161	0.0166597
739.239	0.0166882
739.317	0.0165958
739.396	0.0165031
739.474	0.0165306
739.552	0.0165060
739.630	0.0165081
739.708	0.0165089
739.786	0.0165318
739.864	0.0165359
739.942	0.0164463
740.021	0.0165304
740.099	0.0165477
740.177	0.0165341
740.255	0.0165987
740.333	0.0167004
740.411	0.0168796
740.489	0.0166019
740.567	0.0167703
740.646	0.0168594
740.724	0.0166813
740.802	0.0166211
740.880	0.0167196
740.958	0.0166289
741.036	0.0166879
741.114	0.0166129
741.192	0.0166911
741.271	0.0166863
741.349	0.0166264
741.427	0.0165708
741.505	0.0166237
741.583	0.0165700
741.661	0.0165027
741.739	0.0164496
741.817	0.0163680
741.896	0.0163938
741.974	0.0163206
742.052	0.0163670
742.130	0.0162851
742.208	0.0165208
742.286	0.0164351
742.364	0.0163539
742.442	0.0164555
742.521	0.0165913
742.599	0.0165137
742.677	0.0165897
742.755	0.0166510
742.833	0.0168201
742.911	0.0166871
742.989	0.0167336
743.067	0.0166906
743.146	0.0168659
743.224	0.0167391
743.302	0.0165548
743.380	0.0167006
743.458	0.0166119
743.536	0.0168176
743.614	0.0165927
743.692	0.0165553
743.771	0.0166540
743.849	0.0165823
743.927	0.0164795
744.005	0.0164040
744.083	0.0165543
744.161	0.0166051
744.239	0.0166018
744.317	0.0166456
744.396	0.0167844
744.474	0.0167976
744.552	0.0166921
744.630	0.0167821
744.708	0.0167184
744.786	0.0166658
744.864	0.0168179
744.942	0.0167908
745.021	0.0167413
745.099	0.0167572
745.177	0.0166702
745.255	0.0168742
745.333	0.0168389
745.411	0.0167291
745.489	0.0166653
745.567	0.0167943
745.646	0.0168027
745.724	0.0165838
745.802	0.0163789
745.880	0.0164952
745.958	0.0165781
746.036	0.0165157
746.114	0.0165421
746.192	0.0164236
746.271	0.0164450
746.349	0.0165824
746.427	0.0165900
746.505	0.0166970
746.583	0.0166114
746.661	0.0165497
746.739	0.0168008
746.817	0.0167789
746.896	0.0167458
746.974	0.0169648
747.052	0.0169951
747.130	0.0169879
747.208	0.0169822
747.286	0.0170583
747.364	0.0169535
747.442	0.0168567
747.521	0.0169395
747.599	0.0169416
747.677	0.0167133
747.755	0.0167105
747.833	0.0163897
747.911	0.0163463
747.989	0.0164123
748.067	0.0162943
748.146	0.0163378
748.224	0.0161142
748.302	0.0161236
748.380	0.0161071
748.458	0.0159849
748.536	0.0162698
748.614	0.0161332
748.692	0.0160812
748.771	0.0161633
748.849	0.0162571
748.927	0.0163928
749.005	0.0163502
749.083	0.0164402
749.161	0.0165584
749.239	0.0166032
749.317	0.0166535
749.396	0.0168330
749.474	0.0166737
749.552	0.0167633
749.630	0.0167044
749.708	0.0165873
749.786	0.0166819
749.864	0.0169272
749.942	0.0168445
750.021	0.0168310
750.099	0.0168153
750.177	0.0167837
750.255	0.0168737
750.333	0.0166404
750.411	0.0168398
750.489	0.0167204
750.567	0.0168586
750.646	0.0167026
750.724	0.0167467
750.802	0.0167632
750.880	0.0166504
750.958	0.0167130
751.036	0.0167236
751.114	0.0167513
751.192	0.0167850
751.271	0.0166784
751.349	0.0166449
751.427	0.0166837
751.505	0.0166797
751.583	0.0167147
751.661	0.0164542
751.739	0.0164238
751.817	0.0164832
751.896	0.0164135
751.974	0.0164345
752.052	0.0163877
752.130	0.0163119
752.208	0.0163873
752.286	0.0163793
752.364	0.0164163
752.442	0.0165239
752.521	0.0164951
752.599	0.0164409
752.677	0.0164996
752.755	0.0164957
752.833	0.0165640
752.911	0.0166612
752.989	0.0167471
753.067	0.0167502
753.146	0.0166779
753.224	0.0168465
753.302	0.0169226
753.380	0.0167824
753.458	0.0167902
753.536	0.0168771
753.614	0.0167699
753.692	0.0166750
753.771	0.0168365
753.849	0.0167487
753.927	0.0167371
754.005	0.0167327
754.083	0.0167609
754.161	0.0167510
754.239	0.0166502
754.317	0.0164461
754.396	0.0166605
754.474	0.0165841
754.552	0.0165218
754.630	0.0166412
754.708	0.0167655
754.786	0.0164822
754.864	0.0165855
754.942	0.0166338
755.021	0.0166708
755.099	0.0165125
755.177	0.0167015
755.255	0.0165996
755.333	0.0167552
755.411	0.0167802
755.489	0.0165931
755.567	0.0166518
755.646	0.0167888
755.724	0.0167402
755.802	0.0166562
755.880	0.0167688
755.958	0.0165453
756.036	0.0165593
756.114	0.0165211
756.192	0.0165516
756.271	0.0164161
756.349	0.0165157
756.427	0.0163019
756.505	0.0164462
756.583	0.0163931
756.661	0.0163745
756.739	0.0164462
756.817	0.0163065
756.896	0.0163447
756.974	0.0164875
757.052	0.0164021
757.130	0.0166132
757.208	0.0167050
757.286	0.0166817
757.364	0.0165903
757.442	0.0167162
757.521	0.0167342
757.599	0.0167400
757.677	0.0166290
757.755	0.0168895
757.833	0.0169697
757.911	0.0167824
757.989	0.0168266
758.067	0.0166594
758.146	0.0166952
758.224	0.0167786
758.302	0.0166219
758.380	0.0165797
758.458	0.0165797
758.536	0.0165017
758.614	0.0165564
758.692	0.0164497
758.771	0.0164330
758.849	0.0163940
758.927	0.0165412
759.005	0.0164483
759.083	0.0162833
759.161	0.0165317
759.239	0.0163081
759.317	0.0164385
759.396	0.0163539
759.474	0.0164207
759.552	0.0164294
759.630	0.0165257
759.708	0.0165184
759.786	0.0165704
759.864	0.0166757
759.942	0.0167287
760.021	0.0168085
760.099	0.0167709
760.177	0.0168714
760.255	0.0168681
760.333	0.0169347
760.411	0.0169089
760.489	0.0168578
760.567	0.0169099
760.646	0.0170314
760.724	0.0168074
760.802	0.0168073
760.880	0.0168091
760.958	0.0166022
761.036	0.0167236
761.114	0.0166495
761.192	0.0164909
761.271	0.0165711
761.349	0.0166773
761.427	0.0165947
761.505	0.0165163
761.583	0.0166228
761.661	0.0165454
761.739	0.0164760
761.817	0.0165779
761.896	0.0167153
761.974	0.0166113
762.052	0.0166401
762.130	0.0167116
762.208	0.0167325
762.286	0.0165746
762.364	0.0166365
762.442	0.0167316
762.521	0.0165773
762.599	0.0166713
762.677	0.0165863
762.755	0.0166790
762.833	0.0165787
762.911	0.0166395
762.989	0.0166691
763.067	0.0167115
763.146	0.0166624
763.224	0.0167900
763.302	0.0167612
763.380	0.0167889
763.458	0.0168465
763.536	0.0168014
763.614	0.0168348
763.692	0.0168275
763.771	0.0168597
763.849	0.0167246
763.927	0.0167692
764.005	0.0168990
764.083	0.0167951
764.161	0.0167216
764.239	0.0165823
764.317	0.0166883
764.396	0.0166174
764.474	0.0166338
764.552	0.0166313
764.630	0.0165342
764.708	0.0164110
764.786	0.0164165
764.864	0.0165460
764.942	0.0164935
765.021	0.0163277
765.099	0.0162940
765.177	0.0165579
765.255	0.0164854
765.333	0.0164191
765.411	0.0163530
765.489	0.0165597
765.567	0.0164729
765.646	0.0164872
765.724	0.0167697
765.802	0.0166551
765.880	0.0165684
765.958	0.0166756
766.036	0.0168502
766.114	0.0167477
766.192	0.0166826
766.271	0.0167566
766.349	0.0165802
766.427	0.0167348
766.505	0.0166781
766.583	0.0166812
766.661	0.0166488
766.739	0.0166286
766.817	0.0166807
766.896	0.0167427
766.974	0.0167419
767.052	0.0166164
767.130	0.0166232
767.208	0.0165600
767.286	0.0165868
767.364	0.0167451
767.442	0.0165456
767.521	0.0165463
767.599	0.0166615
767.677	0.0166151
767.755	0.0166455
767.833	0.0166351
767.911	0.0165546
767.989	0.0164291
768.067	0.0164278
768.146	0.0164605
768.224	0.0165244
768.302	0.0165450
768.380	0.0164327
768.458	0.0164914
768.536	0.0164990
768.614	0.0165614
768.692	0.0166169
768.771	0.0166898
768.849	0.0167280
768.927	0.0167119
769.005	0.0167234
769.083	0.0167353
769.161	0.0166639
769.239	0.0167195
769.317	0.0168150
769.396	0.0168085
769.474	0.0167348
769.552	0.0167337
769.630	0.0166817
769.708	0.0166669
769.786	0.0166474
769.864	0.0167159
769.942	0.0166703
770.021	0.0166234
770.099	0.0167375
770.177	0.0165398
770.255	0.0165998
770.333	0.0165972
770.411	0.0165784
770.489	0.0166263
770.567	0.0165333
770.646	0.0164856
770.724	0.0165685
770.802	0.0164764
770.880	0.0163573
770.958	0.0164244
771.036	0.0165724
771.114	0.0163812
771.192	0.0163717
771.271	0.0163867
771.349	0.0166155
771.427	0.0164780
771.505	0.0163387
771.583	0.0165388
771.661	0.0165961
771.739	0.0165723
771.817	0.0168694
771.896	0.0167947
771.974	0.0165262
772.052	0.0165634
772.130	0.0167299
772.208	0.0168253
772.286	0.0167531
772.364	0.0168729
772.442	0.0167329
772.521	0.0168369
772.599	0.0167769
772.677	0.0168863
772.755	0.0166534
772.833	0.0166319
772.911	0.0167360
772.989	0.0165963
773.067	0.0165620
773.146	0.0166436
773.224	0.0166572
773.302	0.0164764
773.380	0.0165493
773.458	0.0164784
773.536	0.0164170
773.614	0.0164185
773.692	0.0164337
773.771	0.0164872
773.849	0.0163393
773.927	0.0163957
774.005	0.0164674
774.083	0.0165983
774.161	0.0166142
774.239	0.0165451
774.317	0.0165298
774.396	0.0166599
774.474	0.0165726
774.552	0.0166319
774.630	0.0166188
774.708	0.0165764
774.786	0.0165332
774.864	0.0165511
774.942	0.0167224
775.021	0.0166892
775.099	0.0166009
775.177	0.0166328
775.255	0.0166737
775.333	0.0164774
775.411	0.0166075
775.489	0.0166537
775.567	0.0167252
775.646	0.0167209
775.724	0.0167598
775.802	0.0166457
775.880	0.0165613
775.958	0.0167477
776.036	0.0168069
776.114	0.0167424
776.192	0.0166361
776.271	0.0169048
776.349	0.0168394
776.427	0.0167657
776.505	0.0167612
776.583	0.0168776
776.661	0.0168398
776.739	0.0168322
776.817	0.0168423
776.896	0.0168419
776.974	0.0169099
777.052	0.0168132
777.130	0.0166618
777.208	0.0166483
777.286	0.0167241
777.364	0.0165482
777.442	0.0165289
777.521	0.0166960
777.599	0.0164459
777.677	0.0164407
777.755	0.0164220
777.833	0.0164780
777.911	0.0164570
777.989	0.0163860
778.067	0.0163450
778.146	0.0164095
778.224	0.0164636
778.302	0.0166443
778.380	0.0164661
778.458	0.0164323
778.536	0.0164243
778.614	0.0166500
778.692	0.0166441
778.771	0.0165601
778.849	0.0165356
778.927	0.0166257
779.005	0.0166068
779.083	0.0167229
779.161	0.0166753
779.239	0.0165877
779.317	0.0167636
779.396	0.0166360
779.474	0.0166631
779.552	0.0168070
779.630	0.0167204
779.708	0.0167375
779.786	0.0166254
779.864	0.0165655
779.942	0.0166479
780.021	0.0167850
780.099	0.0166198
780.177	0.0165975
780.255	0.0166304
780.333	0.0166519
780.411	0.0166017
780.489	0.0167030
780.567	0.0166286
780.646	0.0166327
780.724	0.0166267
780.802	0.0165870
780.880	0.0165737
780.958	0.0165422
781.036	0.0164970
781.114	0.0164129
781.192	0.0164638
781.271	0.0165794
781.349	0.0165556
781.427	0.0166168
781.505	0.0166193
781.583	0.0165173
781.661	0.0164293
781.739	0.0164859
781.817	0.0166657
781.896	0.0166068
781.974	0.0166016
782.052	0.0163951
782.130	0.0163198
782.208	0.0164557
782.286	0.0166597
782.364	0.0165647
782.442	0.0164710
782.521	0.0165970
782.599	0.0164336
782.677	0.0164533
782.755	0.0166082
782.833	0.0165604
782.911	0.0164978
782.989	0.0163645
783.067	0.0164959
783.146	0.0166081
783.224	0.0166986
783.302	0.0166724
783.380	0.0166223
783.458	0.0167606
783.536	0.0165987
783.614	0.0167543
783.692	0.0168161
783.771	0.0166724
783.849	0.0166931
783.927	0.0167271
784.005	0.0167432
784.083	0.0167378
784.161	0.0167233
784.239	0.0167045
784.317	0.0167019
784.396	0.0166761
784.474	0.0166035
784.552	0.0165768
784.630	0.0165861
784.708	0.0166183
784.786	0.0162968
784.864	0.0164323
784.942	0.0164728
785.021	0.0164880
785.099	0.0163698
785.177	0.0164368
785.255	0.0165782
785.333	0.0166017
785.411	0.0165487
785.489	0.0166248
785.567	0.0166685
785.646	0.0167780
785.724	0.0167851
785.802	0.0168316
785.880	0.0168255
785.958	0.0168177
786.036	0.0169540
786.114	0.0168874
786.192	0.0169650
786.271	0.0169911
786.349	0.0168059
786.427	0.0169110
786.505	0.0169962
786.583	0.0169079
786.661	0.0166955
786.739	0.0167601
786.817	0.0167148
786.896	0.0166307
786.974	0.0165764
787.052	0.0166291
787.130	0.0167081
787.208	0.0165267
787.286	0.0166219
787.364	0.0165918
787.442	0.0166248
787.521	0.0164160
787.599	0.0164481
787.677	0.0164880
787.755	0.0165418
787.833	0.0165903
787.911	0.0165064
787.989	0.0165910
788.067	0.0165250
788.146	0.0165823
788.224	0.0165258
788.302	0.0166632
788.380	0.0165257
788.458	0.0165105
788.536	0.0166604
788.614	0.0164817
788.692	0.0165118
788.771	0.0166853
788.849	0.0166724
788.927	0.0166126
789.005	0.0167736
789.083	0.0167189
789.161	0.0166508
789.239	0.0166736
789.317	0.0166515
789.396	0.0166254
789.474	0.0167107
789.552	0.0166827
789.630	0.0167342
789.708	0.0166396
789.786	0.0166005
789.864	0.0168134
789.942	0.0166821
790.021	0.0166628
790.099	0.0166576
790.177	0.0167632
790.255	0.0166933
790.333	0.0167506
790.411	0.0166007
790.489	0.0167012
790.567	0.0167169
790.646	0.0167879
790.724	0.0167146
790.802	0.0166760
790.880	0.0167731
790.958	0.0168219
791.036	0.0167540
791.114	0.0168554
791.192	0.0167850
791.271	0.0166817
791.349	0.0166459
791.427	0.0166750
791.505	0.0167320
791.583	0.0167543
791.661	0.0167162
791.739	0.0166320
791.817	0.0165493
791.896	0.0165916
791.974	0.0166773
792.052	0.0164846
792.130	0.0165108
792.208	0.0165443
792.286	0.0164609
792.364	0.0166243
792.442	0.0165886
792.521	0.0165971
792.599	0.0165618
792.677	0.0166119
792.755	0.0165874
792.833	0.0166438
792.911	0.0165847
792.989	0.0165300
793.067	0.0166431
793.146	0.0165743
793.224	0.0165651
793.302	0.0166108
793.380	0.0165719
793.458	0.0165157
793.536	0.0165400
793.614	0.0165128
793.692	0.0165746
793.771	0.0166095
793.849	0.0166061
793.927	0.0166553
794.005	0.0165387
794.083	0.0165607
794.161	0.0167101
794.239	0.0166397
794.317	0.0165976
794.396	0.0168487
794.474	0.0167274
794.552	0.0168096
794.630	0.0167074
794.708	0.0165800
794.786	0.0166536
794.864	0.0167216
794.942	0.0167560
795.021	0.0165762
795.099	0.0166589
795.177	0.0166753
795.255	0.0165978
795.333	0.0165620
795.411	0.0165646
795.489	0.0166865
795.567	0.0165545
795.646	0.0163194
795.724	0.0164626
795.802	0.0164172
795.880	0.0163916
795.958	0.0165108
796.036	0.0165198
796.114	0.0165806
796.192	0.0166001
796.271	0.0167312
796.349	0.0166846
796.427	0.0168278
796.505	0.0168176
796.583	0.0169369
796.661	0.0169128
796.739	0.0168676
796.817	0.0168472
796.896	0.0168843
796.974	0.0169096
797.052	0.0168233
797.130	0.0167204
797.208	0.0167630
797.286	0.0169099
797.364	0.0167550
797.442	0.0166888
797.521	0.0167428
797.599	0.0166744
797.677	0.0166250
797.755	0.0167441
797.833	0.0165716
797.911	0.0166249
797.989	0.0165761
798.067	0.0165399
798.146	0.0166129
798.224	0.0167477
798.302	0.0166364
798.380	0.0165372
798.458	0.0164896
798.536	0.0164825
798.614	0.0164713
798.692	0.0166241
798.771	0.0165125
798.849	0.0164233
798.927	0.0166566
799.005	0.0165821
799.083	0.0164989
799.161	0.0164133
799.239	0.0165785
799.317	0.0165490
799.396	0.0165831
799.474	0.0165641
799.552	0.0166741
799.630	0.0165778
799.708	0.0166791
799.786	0.0167599
799.864	0.0167028
799.942	0.0166810
800.021	0.0166425
800.099	0.0166135
800.177	0.0165902
800.255	0.0167049
800.333	0.0166923
800.411	0.0166080
800.489	0.0166484
800.567	0.0165247
800.646	0.0167676
800.724	0.0167765
800.802	0.0166792
800.880	0.0167357
800.958	0.0166319
801.036	0.0167136
801.114	0.0166641
801.192	0.0165872
801.271	0.0165391
801.349	0.0165576
801.427	0.0166351
801.505	0.0165655
801.583	0.0164340
801.661	0.0164986
801.739	0.0164691
801.817	0.0163895
801.896	0.0163971
801.974	0.0165752
802.052	0.0164508
802.130	0.0164802
802.208	0.0164803
802.286	0.0166819
802.364	0.0165123
802.442	0.0164698
802.521	0.0166262
802.599	0.0165484
802.677	0.0166918
802.755	0.0164980
802.833	0.0165372
802.911	0.0166471
802.989	0.0167116
803.067	0.0167541
803.146	0.0166544
803.224	0.0164971
803.302	0.0165996
803.380	0.0164633
803.458	0.0165135
803.536	0.0166038
803.614	0.0165725
803.692	0.0164730
803.771	0.0164642
803.849	0.0165370
803.927	0.0165540
804.005	0.0164879
804.083	0.0164083
804.161	0.0165220
804.239	0.0164954
804.317	0.0165510
804.396	0.0165730
804.474	0.0166582
804.552	0.0166512
804.630	0.0167926
804.708	0.0167643
804.786	0.0167434
804.864	0.0167108
804.942	0.0168560
805.021	0.0167146
805.099	0.0167492
805.177	0.0167810
805.255	0.0166078
805.333	0.0166867
805.411	0.0166709
805.489	0.0167527
805.567	0.0165107
805.646	0.0165862
805.724	0.0165959
805.802	0.0165693
805.880	0.0165357
805.958	0.0166309
806.036	0.0166313
806.114	0.0166702
806.192	0.0167763
806.271	0.0165822
806.349	0.0165761
806.427	0.0164436
806.505	0.0166302
806.583	0.0167842
806.661	0.0166232
806.739	0.0167302
806.817	0.0167691
806.896	0.0166559
806.974	0.0167349
807.052	0.0167850
807.130	0.0166607
807.208	0.0166943
807.286	0.0167440
807.364	0.0166090
807.442	0.0165602
807.521	0.0166018
807.599	0.0166673
807.677	0.0165417
807.755	0.0165868
807.833	0.0166572
807.911	0.0165660
807.989	0.0167064
808.067	0.0166347
808.146	0.0166370
808.224	0.0165714
808.302	0.0165255
808.380	0.0165879
808.458	0.0165726
808.536	0.0167018
808.614	0.0166582
808.692	0.0168137
808.771	0.0167896
808.849	0.0167379
808.927	0.0168620
809.005	0.0168184
809.083	0.0168349
809.161	0.0167071
809.239	0.0168184
809.317	0.0167171
809.396	0.0166683
809.474	0.0166856
809.552	0.0166545
809.630	0.0165733
809.708	0.0164620
809.786	0.0165961
809.864	0.0164439
809.942	0.0164352
810.021	0.0165616
810.099	0.0164114
810.177	0.0163963
810.255	0.0164677
810.333	0.0162582
810.411	0.0165498
810.489	0.0164111
810.567	0.0165305
810.646	0.0165685
810.724	0.0167017
810.802	0.0164781
810.880	0.0164635
810.958	0.0166171
811.036	0.0166580
811.114	0.0165646
811.192	0.0167021
811.271	0.0168131
811.349	0.0166718
811.427	0.0167255
811.505	0.0167165
811.583	0.0167320
811.661	0.0168150
811.739	0.0167133
811.817	0.0166416
811.896	0.0166741
811.974	0.0165447
812.052	0.0165476
812.130	0.0166457
812.208	0.0166680
812.286	0.0165845
812.364	0.0165726
812.442	0.0165858
812.521	0.0165639
812.599	0.0166252
812.677	0.0165770
812.755	0.0166282
812.833	0.0166364
812.911	0.0165464
812.989	0.0164134
813.067	0.0165253
813.146	0.0165861
813.224	0.0164860
813.302	0.0165572
813.380	0.0165464
813.458	0.0164864
813.536	0.0165745
813.614	0.0165238
813.692	0.0165271
813.771	0.0165569
813.849	0.0166331
813.927	0.0165250
814.005	0.0164565
814.083	0.0166243
814.161	0.0164517
814.239	0.0164333
814.317	0.0164019
814.396	0.0164682
814.474	0.0163577
814.552	0.0163858
814.630	0.0165659
814.708	0.0165723
814.786	0.0166037
814.864	0.0166652
814.942	0.0164263
815.021	0.0165905
815.099	0.0165937
815.177	0.0166492
815.255	0.0166719
815.333	0.0166562
815.411	0.0168111
815.489	0.0168048
815.567	0.0167762
815.646	0.0167316
815.724	0.0166719
815.802	0.0166965
815.880	0.0166218
815.958	0.0166885
816.036	0.0167756
816.114	0.0166155
816.192	0.0165907
816.271	0.0166236
816.349	0.0165829
816.427	0.0165757
816.505	0.0165632
816.583	0.0165872
816.661	0.0165726
816.739	0.0165260
816.817	0.0165540
816.896	0.0165977
816.974	0.0166376
817.052	0.0165045
817.130	0.0164866
817.208	0.0164681
817.286	0.0165424
817.364	0.0166763
817.442	0.0166210
817.521	0.0164834
817.599	0.0164542
817.677	0.0164592
817.755	0.0165501
817.833	0.0164868
817.911	0.0165884
817.989	0.0165845
818.067	0.0165633
818.146	0.0166064
818.224	0.0166998
818.302	0.0165979
818.380	0.0165718
818.458	0.0166830
818.536	0.0166741
818.614	0.0167820
818.692	0.0166859
818.771	0.0165765
818.849	0.0166015
818.927	0.0167656
819.005	0.0167264
819.083	0.0167647
819.161	0.0166700
819.239	0.0166622
819.317	0.0166483
819.396	0.0167200
819.474	0.0166988
819.552	0.0167706
819.630	0.0166547
819.708	0.0166080
819.786	0.0166342
819.864	0.0166953
819.942	0.0167093
820.021	0.0165731
820.099	0.0166964
820.177	0.0167313
820.255	0.0165504
820.333	0.0165054
820.411	0.0168169
820.489	0.0166053
820.567	0.0166976
820.646	0.0166911
820.724	0.0166217
820.802	0.0168515
820.880	0.0166199
820.958	0.0165179
821.036	0.0166834
821.114	0.0166019
821.192	0.0163887
821.271	0.0166637
821.349	0.0166457
821.427	0.0166656
821.505	0.0166776
821.583	0.0164662
821.661	0.0165379
821.739	0.0165273
821.817	0.0166971
821.896	0.0166146
821.974	0.0166179
822.052	0.0165736
822.130	0.0166662
822.208	0.0166500
822.286	0.0166143
822.364	0.0165678
822.442	0.0166193
822.521	0.0165537
822.599	0.0166846
822.677	0.0167255
822.755	0.0166946
822.833	0.0166134
822.911	0.0166121
822.989	0.0165679
823.067	0.0165333
823.146	0.0166664
823.224	0.0165883
823.302	0.0166972
823.380	0.0165484
823.458	0.0164398
823.536	0.0166298
823.614	0.0165765
823.692	0.0165382
823.771	0.0165041
823.849	0.0164963
823.927	0.0164411
824.005	0.0164747
824.083	0.0164332
824.161	0.0163780
824.239	0.0165304
824.317	0.0164336
824.396	0.0165031
824.474	0.0165746
824.552	0.0166571
824.630	0.0165397
824.708	0.0167200
824.786	0.0167490
824.864	0.0165132
824.942	0.0167249
825.021	0.0166129
825.099	0.0166712
825.177	0.0166570
825.255	0.0167371
825.333	0.0166405
825.411	0.0166595
825.489	0.0165611
825.567	0.0167294
825.646	0.0167097
825.724	0.0165972
825.802	0.0165865
825.880	0.0167366
825.958	0.0166624
826.036	0.0166489
826.114	0.0167039
826.192	0.0166700
826.271	0.0168350
826.349	0.0167135
826.427	0.0167615
826.505	0.0167670
826.583	0.0167170
826.661	0.0165276
826.739	0.0167246
826.817	0.0167740
826.896	0.0166860
826.974	0.0165798
827.052	0.0167455
827.130	0.0165519
827.208	0.0166018
827.286	0.0165238
827.364	0.0164606
827.442	0.0165567
827.521	0.0165352
827.599	0.0164286
827.677	0.0165704
827.755	0.0165157
827.833	0.0164582
827.911	0.0163753
827.989	0.0163940
828.067	0.0165314
828.146	0.0164792
828.224	0.0164468
828.302	0.0164215
828.380	0.0165026
828.458	0.0164291
828.536	0.0165337
828.614	0.0165633
828.692	0.0165393
828.771	0.0164898
828.849	0.0165308
828.927	0.0165789
829.005	0.0166227
829.083	0.0165441
829.161	0.0166617
829.239	0.0166640
829.317	0.0165318
829.396	0.0166199
829.474	0.0167570
829.552	0.0167601
829.630	0.0165875
829.708	0.0166670
829.786	0.0167061
829.864	0.0165964
829.942	0.0165998
830.021	0.0168263
830.099	0.0166901
830.177	0.0165398
830.255	0.0167234
830.333	0.0167413
830.411	0.0167316
830.489	0.0167233
830.567	0.0166674
830.646	0.0166853
830.724	0.0167091
830.802	0.0167664
830.880	0.0167471
830.958	0.0167760
831.036	0.0166831
831.114	0.0168118
831.192	0.0166311
831.271	0.0166964
831.349	0.0167929
831.427	0.0169238
831.505	0.0167904
831.583	0.0167123
831.661	0.0167896
831.739	0.0167033
831.817	0.0168195
831.896	0.0167014
831.974	0.0167069
832.052	0.0166007
832.130	0.0167384
832.208	0.0166785
832.286	0.0166091
832.364	0.0168163
832.442	0.0165741
832.521	0.0166018
832.599	0.0165688
832.677	0.0165787
832.755	0.0167431
832.833	0.0165443
832.911	0.0166169
832.989	0.0165253
833.067	0.0165900
833.146	0.0165618
833.224	0.0165793
833.302	0.0165109
833.380	0.0167756
833.458	0.0166460
833.536	0.0165930
833.614	0.0166623
833.692	0.0166661
833.771	0.0165351
833.849	0.0166291
833.927	0.0166058
834.005	0.0165740
834.083	0.0165726
834.161	0.0166390
834.239	0.0165782
834.317	0.0165918
834.396	0.0166075
834.474	0.0165788
834.552	0.0165514
834.630	0.0167217
834.708	0.0166920
834.786	0.0165237
834.864	0.0165316
834.942	0.0166711
835.021	0.0166205
835.099	0.0164932
835.177	0.0166650
835.255	0.0165498
835.333	0.0166409
835.411	0.0166406
835.489	0.0164284
835.567	0.0165136
835.646	0.0164536
835.724	0.0164089
835.802	0.0164779
835.880	0.0164978
835.958	0.0166319
836.036	0.0166115
836.114	0.0165988
836.192	0.0165943
836.271	0.0165709
836.349	0.0165582
836.427	0.0166841
836.505	0.0166682
836.583	0.0166566
836.661	0.0166826
836.739	0.0167895
836.817	0.0166805
836.896	0.0165715
836.974	0.0167908
837.052	0.0166646
837.130	0.0167384
837.208	0.0166989
837.286	0.0167389
837.364	0.0166490
837.442	0.0168600
837.521	0.0169312
837.599	0.0169484
837.677	0.0168710
837.755	0.0168208
837.833	0.0169450
837.911	0.0169620
837.989	0.0168277
838.067	0.0170011
838.146	0.0168121
838.224	0.0169134
838.302	0.0170116
838.380	0.0168528
838.458	0.0168053
838.536	0.0166052
838.614	0.0166335
838.692	0.0166129
838.771	0.0166367
838.849	0.0166889
838.927	0.0164016
839.005	0.0162844
839.083	0.0164332
839.161	0.0164468
839.239	0.0164896
839.317	0.0163609
839.396	0.0164931
839.474	0.0163611
839.552	0.0163576
839.630	0.0165040
839.708	0.0164036
839.786	0.0163464
839.864	0.0163211
839.942	0.0164600
840.021	0.0163995
840.099	0.0165385
840.177	0.0166293
840.255	0.0166315
840.333	0.0165990
840.411	0.0166949
840.489	0.0166908
840.567	0.0165514
840.646	0.0166080
840.724	0.0167642
840.802	0.0167295
840.880	0.0166094
840.958	0.0167204
841.036	0.0167405
841.114	0.0166437
841.192	0.0167304
841.271	0.0167507
841.349	0.0166789
841.427	0.0167234
841.505	0.0167390
841.583	0.0167036
841.661	0.0168383
841.739	0.0167722
841.817	0.0166537
841.896	0.0168393
841.974	0.0167390
842.052	0.0168091
842.130	0.0166476
842.208	0.0165777
842.286	0.0166938
842.364	0.0166664
842.442	0.0164403
842.521	0.0164960
842.599	0.0165850
842.677	0.0164505
842.755	0.0165485
842.833	0.0164839
842.911	0.0165144
842.989	0.0164645
843.067	0.0165385
843.146	0.0165420
843.224	0.0165286
843.302	0.0164835
843.380	0.0166423
843.458	0.0166969
843.536	0.0166051
843.614	0.0165099
843.692	0.0166770
843.771	0.0165523
843.849	0.0165779
843.927	0.0166393
844.005	0.0167533
844.083	0.0165831
844.161	0.0165712
844.239	0.0167536
844.317	0.0166295
844.396	0.0167863
844.474	0.0167027
844.552	0.0167214
844.630	0.0166662
844.708	0.0166647
844.786	0.0167793
844.864	0.0166988
844.942	0.0167151
845.021	0.0166438
845.099	0.0166568
845.177	0.0166442
845.255	0.0166670
845.333	0.0166623
845.411	0.0166821
845.489	0.0167706
845.567	0.0168613
845.646	0.0166638
845.724	0.0165967
845.802	0.0167155
845.880	0.0165408
845.958	0.0167559
846.036	0.0168044
846.114	0.0166319
846.192	0.0165519
846.271	0.0166615
846.349	0.0166270
846.427	0.0165152
846.505	0.0166506
846.583	0.0165806
846.661	0.0165431
846.739	0.0164379
846.817	0.0166164
846.896	0.0166695
846.974	0.0165702
847.052	0.0165050
847.130	0.0165501
847.208	0.0165343
847.286	0.0165421
847.364	0.0165770
847.442	0.0165147
847.521	0.0165979
847.599	0.0164999
847.677	0.0166512
847.755	0.0166778
847.833	0.0167997
847.911	0.0165133
847.989	0.0166412
848.067	0.0166718
848.146	0.0167222
848.224	0.0166977
848.302	0.0165976
848.380	0.0166099
848.458	0.0166908
848.536	0.0165757
848.614	0.0166115
848.692	0.0164902
848.771	0.0166460
848.849	0.0166319
848.927	0.0166417
849.005	0.0166226
849.083	0.0166795
849.161	0.0167115
849.239	0.0166779
849.317	0.0165331
849.396	0.0166985
849.474	0.0167862
849.552	0.0166833
849.630	0.0168070
849.708	0.0168655
849.786	0.0167770
849.864	0.0168181
849.942	0.0165973
850.021	0.0167225
850.099	0.0167584
850.177	0.0166486
850.255	0.0165600
850.333	0.0166377
850.411	0.0165699
850.489	0.0166012
850.567	0.0166563
850.646	0.0165511
850.724	0.0165729
850.802	0.0166194
850.880	0.0165900
850.958	0.0166496
851.036	0.0164986
851.114	0.0164631
851.192	0.0164047
851.271	0.0167560
851.349	0.0165612
851.427	0.0165791
851.505	0.0166744
851.583	0.0165356
851.661	0.0165646
851.739	0.0166568
851.817	0.0166127
851.896	0.0166013
851.974	0.0164981
852.052	0.0166753
852.130	0.0166964
852.208	0.0166399
852.286	0.0165477
852.364	0.0166762
852.442	0.0167109
852.521	0.0166865
852.599	0.0164670
852.677	0.0165299
852.755	0.0166060
852.833	0.0165963
852.911	0.0165228
852.989	0.0165722
853.067	0.0165344
853.146	0.0166721
853.224	0.0165845
853.302	0.0165548
853.380	0.0167651
853.458	0.0167287
853.536	0.0166692
853.614	0.0167178
853.692	0.0166573
853.771	0.0165828
853.849	0.0165717
853.927	0.0165376
854.005	0.0165706
854.083	0.0165426
854.161	0.0164880
854.239	0.0165847
854.317	0.0165992
854.396	0.0166225
854.474	0.0166105
854.552	0.0166547
854.630	0.0166599
854.708	0.0164962
854.786	0.0166634
854.864	0.0166831
854.942	0.0166769
855.021	0.0166281
855.099	0.0167451
855.177	0.0166808
855.255	0.0166276
855.333	0.0166320
855.411	0.0166264
855.489	0.0166016
855.567	0.0165714
855.646	0.0166922
855.724	0.0166608
855.802	0.0167338
855.880	0.0164415
855.958	0.0166473
856.036	0.0166816
856.114	0.0165739
856.192	0.0165479
856.271	0.0165660
856.349	0.0166071
856.427	0.0166351
856.505	0.0165913
856.583	0.0166434
856.661	0.0166077
856.739	0.0164835
856.817	0.0166224
856.896	0.0166401
856.974	0.0166283
857.052	0.0166291
857.130	0.0165711
857.208	0.0167121
857.286	0.0166271
857.364	0.0165291
857.442	0.0165316
857.521	0.0166417
857.599	0.0166617
857.677	0.0166884
857.755	0.0166963
857.833	0.0166806
857.911	0.0166069
857.989	0.0167039
858.067	0.0166762
858.146	0.0168185
858.224	0.0166656
858.302	0.0167580
858.380	0.0168905
858.458	0.0168134
858.536	0.0167917
858.614	0.0167909
858.692	0.0168217
858.771	0.0168221
858.849	0.0168443
858.927	0.0168983
859.005	0.0169195
859.083	0.0168601
859.161	0.0168046
859.239	0.0167756
859.317	0.0168518
859.396	0.0167765
859.474	0.0166564
859.552	0.0165067
859.630	0.0165298
859.708	0.0166958
859.786	0.0165858
859.864	0.0165377
859.942	0.0165205
860.021	0.0163821
860.099	0.0164301
860.177	0.0165859
860.255	0.0164065
860.333	0.0163814
860.411	0.0164622
860.489	0.0165166
860.567	0.0164375
860.646	0.0164646
860.724	0.0164755
860.802	0.0166670
860.880	0.0166391
860.958	0.0167455
861.036	0.0165277
861.114	0.0167183
861.192	0.0167465
861.271	0.0168231
861.349	0.0167405
861.427	0.0166488
861.505	0.0165126
861.583	0.0166412
861.661	0.0165845
861.739	0.0166512
861.817	0.0165414
861.896	0.0164849
861.974	0.0166299
862.052	0.0165346
862.130	0.0165355
862.208	0.0166000
862.286	0.0165485
862.364	0.0165785
862.442	0.0165563
862.521	0.0166072
862.599	0.0166686
862.677	0.0165846
862.755	0.0166794
862.833	0.0166359
862.911	0.0166072
862.989	0.0167526
863.067	0.0166534
863.146	0.0165591
863.224	0.0166149
863.302	0.0166663
863.380	0.0167493
863.458	0.0167165
863.536	0.0166470
863.614	0.0164987
863.692	0.0166106
863.771	0.0166235
863.849	0.0165646
863.927	0.0165771
864.005	0.0164473
864.083	0.0166230
864.161	0.0165831
864.239	0.0165233
864.317	0.0165985
864.396	0.0167616
864.474	0.0165314
864.552	0.0167496
864.630	0.0167335
864.708	0.0165934
864.786	0.0165562
864.864	0.0165547
864.942	0.0166827
865.021	0.0166971
865.099	0.0167505
865.177	0.0165975
865.255	0.0167735
865.333	0.0167351
865.411	0.0166724
865.489	0.0166406
865.567	0.0167175
865.646	0.0167178
865.724	0.0165744
865.802	0.0166518
865.880	0.0167564
865.958	0.0166495
866.036	0.0166036
866.114	0.0167529
866.192	0.0166717
866.271	0.0166499
866.349	0.0166587
866.427	0.0168004
866.505	0.0166055
866.583	0.0167328
866.661	0.0167861
866.739	0.0167165
866.817	0.0166559
866.896	0.0167671
866.974	0.0168943
867.052	0.0169447
867.130	0.0166376
867.208	0.0166608
867.286	0.0167802
867.364	0.0166095
867.442	0.0166971
867.521	0.0166564
867.599	0.0166826
867.677	0.0165956
867.755	0.0165333
867.833	0.0165266
867.911	0.0164593
867.989	0.0165738
868.067	0.0166270
868.146	0.0166148
868.224	0.0166822
868.302	0.0165704
868.380	0.0165542
868.458	0.0164654
868.536	0.0164962
868.614	0.0166179
868.692	0.0165665
868.771	0.0166889
868.849	0.0167358
868.927	0.0164978
869.005	0.0165755
869.083	0.0167284
869.161	0.0167439
869.239	0.0165807
869.317	0.0165620
869.396	0.0167833
869.474	0.0166597
869.552	0.0166050
869.630	0.0166944
869.708	0.0167724
869.786	0.0166756
869.864	0.0167111
869.942	0.0168095
