06/03/2022	15:25:55	Ver.	4.1	UNKNOWN
Optical Delay	550.020508	Delta X		0.078125	Sweeps	1	Scan Rate	0/0
Coordinates	Axis 1	NaN	Axis 2	NaN	Axis 3	NaN	Axis 4	NaN	Axis 5	NaN	Axis 6	0.000000
TX Power	0.000000	RX Power	0.000000

550.021	0.0164588
550.099	0.0164628
550.177	0.0164836
550.255	0.0164028
550.333	0.0164583
550.411	0.0164769
550.489	0.0163494
550.567	0.0164325
550.646	0.0165001
550.724	0.0166160
550.802	0.0164727
550.880	0.0163926
550.958	0.0164403
551.036	0.0164623
551.114	0.0163946
551.192	0.0164196
551.271	0.0165154
551.349	0.0165543
551.427	0.0164266
551.505	0.0164465
551.583	0.0165047
551.661	0.0165107
551.739	0.0165054
551.817	0.0165498
551.896	0.0164208
551.974	0.0165473
552.052	0.0165106
552.130	0.0164176
552.208	0.0165376
552.286	0.0165254
552.364	0.0165372
552.442	0.0164960
552.521	0.0165961
552.599	0.0164388
552.677	0.0164513
552.755	0.0164705
552.833	0.0163544
552.911	0.0165928
552.989	0.0163760
553.067	0.0163689
553.146	0.0165022
553.224	0.0165150
553.302	0.0165166
553.380	0.0164813
553.458	0.0164561
553.536	0.0165387
553.614	0.0164421
553.692	0.0164299
553.771	0.0165331
553.849	0.0165176
553.927	0.0164235
554.005	0.0165729
554.083	0.0165361
554.161	0.0164691
554.239	0.0165059
554.317	0.0164967
554.396	0.0164165
554.474	0.0165680
554.552	0.0165385
554.630	0.0164977
554.708	0.0164596
554.786	0.0165812
554.864	0.0165462
554.942	0.0165186
555.021	0.0165124
555.099	0.0165826
555.177	0.0164548
555.255	0.0164633
555.333	0.0163652
555.411	0.0163004
555.489	0.0165790
555.567	0.0165041
555.646	0.0164410
555.724	0.0162975
555.802	0.0164586
555.880	0.0165998
555.958	0.0163934
556.036	0.0164644
556.114	0.0165294
556.192	0.0165349
556.271	0.0164750
556.349	0.0164548
556.427	0.0164520
556.505	0.0164375
556.583	0.0164294
556.661	0.0165354
556.739	0.0164143
556.817	0.0164241
556.896	0.0164935
556.974	0.0165043
557.052	0.0164961
557.130	0.0164799
557.208	0.0164066
557.286	0.0164834
557.364	0.0164046
557.442	0.0164668
557.521	0.0164482
557.599	0.0165162
557.677	0.0164977
557.755	0.0163399
557.833	0.0163754
557.911	0.0163575
557.989	0.0164868
558.067	0.0163592
558.146	0.0164380
558.224	0.0165359
558.302	0.0163186
558.380	0.0163531
558.458	0.0166081
558.536	0.0163976
558.614	0.0163515
558.692	0.0165926
558.771	0.0163297
558.849	0.0164476
558.927	0.0164707
559.005	0.0164188
559.083	0.0164639
559.161	0.0165646
559.239	0.0164320
559.317	0.0164533
559.396	0.0165134
559.474	0.0164501
559.552	0.0164758
559.630	0.0163898
559.708	0.0163854
559.786	0.0163865
559.864	0.0165109
559.942	0.0165408
560.021	0.0164790
560.099	0.0164260
560.177	0.0165224
560.255	0.0164970
560.333	0.0163520
560.411	0.0165089
560.489	0.0165176
560.567	0.0164630
560.646	0.0165717
560.724	0.0165100
560.802	0.0164833
560.880	0.0165383
560.958	0.0164134
561.036	0.0163976
561.114	0.0164590
561.192	0.0165252
561.271	0.0164748
561.349	0.0163290
561.427	0.0165253
561.505	0.0164780
561.583	0.0163425
561.661	0.0164084
561.739	0.0164033
561.817	0.0165231
561.896	0.0164674
561.974	0.0164269
562.052	0.0163940
562.130	0.0165079
562.208	0.0163319
562.286	0.0165325
562.364	0.0164445
562.442	0.0164497
562.521	0.0164568
562.599	0.0164610
562.677	0.0164851
562.755	0.0165885
562.833	0.0163864
562.911	0.0164050
562.989	0.0164063
563.067	0.0165114
563.146	0.0163983
563.224	0.0164653
563.302	0.0163985
563.380	0.0164124
563.458	0.0163723
563.536	0.0164674
563.614	0.0164680
563.692	0.0165679
563.771	0.0165557
563.849	0.0164851
563.927	0.0164027
564.005	0.0164291
564.083	0.0165383
564.161	0.0164610
564.239	0.0163979
564.317	0.0163439
564.396	0.0164828
564.474	0.0165137
564.552	0.0165044
564.630	0.0163686
564.708	0.0164330
564.786	0.0165067
564.864	0.0164916
564.942	0.0164494
565.021	0.0163345
565.099	0.0164362
565.177	0.0163759
565.255	0.0163543
565.333	0.0163733
565.411	0.0164870
565.489	0.0164534
565.567	0.0163017
565.646	0.0165566
565.724	0.0165726
565.802	0.0163210
565.880	0.0164741
565.958	0.0165557
566.036	0.0164776
566.114	0.0164699
566.192	0.0166192
566.271	0.0164310
566.349	0.0164323
566.427	0.0163703
566.505	0.0164416
566.583	0.0164929
566.661	0.0164989
566.739	0.0163577
566.817	0.0164628
566.896	0.0164928
566.974	0.0164795
567.052	0.0165176
567.130	0.0165232
567.208	0.0165110
567.286	0.0165286
567.364	0.0165436
567.442	0.0163754
567.521	0.0164417
567.599	0.0165504
567.677	0.0164027
567.755	0.0165312
567.833	0.0163856
567.911	0.0163786
567.989	0.0165788
568.067	0.0164217
568.146	0.0163715
568.224	0.0164806
568.302	0.0164924
568.380	0.0164756
568.458	0.0164809
568.536	0.0164233
568.614	0.0163943
568.692	0.0165214
568.771	0.0165238
568.849	0.0164450
568.927	0.0163838
569.005	0.0163709
569.083	0.0164278
569.161	0.0165311
569.239	0.0164632
569.317	0.0165311
569.396	0.0164655
569.474	0.0164014
569.552	0.0164342
569.630	0.0164795
569.708	0.0165359
569.786	0.0165202
569.864	0.0164886
569.942	0.0166184
570.021	0.0163801
570.099	0.0163158
570.177	0.0165209
570.255	0.0164912
570.333	0.0164445
570.411	0.0164775
570.489	0.0164487
570.567	0.0165627
570.646	0.0164028
570.724	0.0164330
570.802	0.0165427
570.880	0.0165218
570.958	0.0163927
571.036	0.0163787
571.114	0.0164509
571.192	0.0164735
571.271	0.0165080
571.349	0.0163988
571.427	0.0164337
571.505	0.0164993
571.583	0.0164172
571.661	0.0165391
571.739	0.0165520
571.817	0.0164079
571.896	0.0165005
571.974	0.0164648
572.052	0.0163826
572.130	0.0164902
572.208	0.0164748
572.286	0.0165314
572.364	0.0165119
572.442	0.0164454
572.521	0.0164644
572.599	0.0165567
572.677	0.0165712
572.755	0.0163852
572.833	0.0164383
572.911	0.0164058
572.989	0.0165823
573.067	0.0163564
573.146	0.0164064
573.224	0.0164545
573.302	0.0164699
573.380	0.0164271
573.458	0.0164638
573.536	0.0166319
573.614	0.0164040
573.692	0.0164537
573.771	0.0164774
573.849	0.0165075
573.927	0.0165344
574.005	0.0165148
574.083	0.0164063
574.161	0.0164024
574.239	0.0164311
574.317	0.0163486
574.396	0.0163575
574.474	0.0164659
574.552	0.0163163
574.630	0.0165165
574.708	0.0162677
574.786	0.0163766
574.864	0.0163474
574.942	0.0164501
575.021	0.0165806
575.099	0.0164764
575.177	0.0166252
575.255	0.0163430
575.333	0.0164339
575.411	0.0166646
575.489	0.0165043
575.567	0.0165822
575.646	0.0165652
575.724	0.0164135
575.802	0.0164657
575.880	0.0164485
575.958	0.0164699
576.036	0.0165384
576.114	0.0164475
576.192	0.0164792
576.271	0.0166054
576.349	0.0164820
576.427	0.0164851
576.505	0.0165718
576.583	0.0165814
576.661	0.0164075
576.739	0.0163736
576.817	0.0165401
576.896	0.0164996
576.974	0.0164276
577.052	0.0165188
577.130	0.0163917
577.208	0.0164018
577.286	0.0164727
577.364	0.0164181
577.442	0.0165833
577.521	0.0164062
577.599	0.0164266
577.677	0.0164021
577.755	0.0166340
577.833	0.0164409
577.911	0.0164543
577.989	0.0163326
578.067	0.0164222
578.146	0.0164926
578.224	0.0164999
578.302	0.0164063
578.380	0.0165115
578.458	0.0165388
578.536	0.0165457
578.614	0.0164888
578.692	0.0164855
578.771	0.0165823
578.849	0.0165038
578.927	0.0165800
579.005	0.0165769
579.083	0.0164696
579.161	0.0163488
579.239	0.0165434
579.317	0.0164510
579.396	0.0164951
579.474	0.0165216
579.552	0.0164940
579.630	0.0165009
579.708	0.0165347
579.786	0.0164421
579.864	0.0163658
579.942	0.0165090
580.021	0.0164009
580.099	0.0163878
580.177	0.0163871
580.255	0.0164815
580.333	0.0165804
580.411	0.0164256
580.489	0.0165195
580.567	0.0166048
580.646	0.0165032
580.724	0.0165959
580.802	0.0164293
580.880	0.0164213
580.958	0.0165424
581.036	0.0164716
581.114	0.0164096
581.192	0.0164130
581.271	0.0165708
581.349	0.0164218
581.427	0.0164967
581.505	0.0165942
581.583	0.0164555
581.661	0.0164173
581.739	0.0164719
581.817	0.0164887
581.896	0.0164117
581.974	0.0164956
582.052	0.0164366
582.130	0.0164741
582.208	0.0164786
582.286	0.0166132
582.364	0.0165383
582.442	0.0164513
582.521	0.0164693
582.599	0.0164634
582.677	0.0164265
582.755	0.0164507
582.833	0.0165575
582.911	0.0166349
582.989	0.0164271
583.067	0.0164184
583.146	0.0164000
583.224	0.0165094
583.302	0.0164164
583.380	0.0165234
583.458	0.0164926
583.536	0.0165017
583.614	0.0164657
583.692	0.0164501
583.771	0.0166220
583.849	0.0164721
583.927	0.0163316
584.005	0.0163457
584.083	0.0166617
584.161	0.0164922
584.239	0.0164666
584.317	0.0165321
584.396	0.0165343
584.474	0.0165804
584.552	0.0164866
584.630	0.0163138
584.708	0.0165467
584.786	0.0164601
584.864	0.0164806
584.942	0.0165034
585.021	0.0164249
585.099	0.0164208
585.177	0.0164841
585.255	0.0165712
585.333	0.0165020
585.411	0.0164717
585.489	0.0162696
585.567	0.0165521
585.646	0.0165932
585.724	0.0164589
585.802	0.0165120
585.880	0.0163946
585.958	0.0163869
586.036	0.0163750
586.114	0.0163542
586.192	0.0164979
586.271	0.0164511
586.349	0.0163951
586.427	0.0164590
586.505	0.0164600
586.583	0.0163684
586.661	0.0163842
586.739	0.0165559
586.817	0.0164561
586.896	0.0163770
586.974	0.0165260
587.052	0.0164297
587.130	0.0164590
587.208	0.0165295
587.286	0.0164663
587.364	0.0164045
587.442	0.0163935
587.521	0.0164626
587.599	0.0165239
587.677	0.0164314
587.755	0.0163448
587.833	0.0163534
587.911	0.0164863
587.989	0.0163546
588.067	0.0164346
588.146	0.0163496
588.224	0.0162417
588.302	0.0164151
588.380	0.0165318
588.458	0.0165077
588.536	0.0165217
588.614	0.0164614
588.692	0.0165371
588.771	0.0164218
588.849	0.0163821
588.927	0.0163991
589.005	0.0164330
589.083	0.0164887
589.161	0.0165397
589.239	0.0164713
589.317	0.0164132
589.396	0.0165007
589.474	0.0163940
589.552	0.0164439
589.630	0.0164111
589.708	0.0164354
589.786	0.0163983
589.864	0.0165305
589.942	0.0165043
590.021	0.0163219
590.099	0.0163859
590.177	0.0164215
590.255	0.0165392
590.333	0.0164853
590.411	0.0163458
590.489	0.0165115
590.567	0.0163558
590.646	0.0165775
590.724	0.0164143
590.802	0.0166337
590.880	0.0164801
590.958	0.0164648
591.036	0.0164878
591.114	0.0164340
591.192	0.0165362
591.271	0.0165727
591.349	0.0165215
591.427	0.0164597
591.505	0.0164000
591.583	0.0164647
591.661	0.0164435
591.739	0.0165052
591.817	0.0164690
591.896	0.0163638
591.974	0.0163692
592.052	0.0164874
592.130	0.0165142
592.208	0.0164665
592.286	0.0164478
592.364	0.0165137
592.442	0.0164278
592.521	0.0165230
592.599	0.0166409
592.677	0.0163238
592.755	0.0164798
592.833	0.0164795
592.911	0.0164893
592.989	0.0165216
593.067	0.0164441
593.146	0.0164830
593.224	0.0165369
593.302	0.0164156
593.380	0.0165313
593.458	0.0165264
593.536	0.0165080
593.614	0.0165048
593.692	0.0164033
593.771	0.0164681
593.849	0.0164761
593.927	0.0166280
594.005	0.0164815
594.083	0.0165259
594.161	0.0164030
594.239	0.0164555
594.317	0.0165401
594.396	0.0165369
594.474	0.0164299
594.552	0.0165806
594.630	0.0164195
594.708	0.0165415
594.786	0.0165377
594.864	0.0164822
594.942	0.0163987
595.021	0.0165311
595.099	0.0164765
595.177	0.0163533
595.255	0.0164684
595.333	0.0164788
595.411	0.0164339
595.489	0.0164170
595.567	0.0165667
595.646	0.0166547
595.724	0.0164894
595.802	0.0164955
595.880	0.0166300
595.958	0.0164121
596.036	0.0165553
596.114	0.0164767
596.192	0.0165047
596.271	0.0163893
596.349	0.0164703
596.427	0.0163740
596.505	0.0165621
596.583	0.0164803
596.661	0.0164742
596.739	0.0164896
596.817	0.0163907
596.896	0.0164333
596.974	0.0164478
597.052	0.0164842
597.130	0.0163627
597.208	0.0164289
597.286	0.0165780
597.364	0.0164466
597.442	0.0164079
597.521	0.0164867
597.599	0.0165206
597.677	0.0165403
597.755	0.0164896
597.833	0.0164523
597.911	0.0164777
597.989	0.0165634
598.067	0.0164217
598.146	0.0166216
598.224	0.0164417
598.302	0.0165706
598.380	0.0166094
598.458	0.0165543
598.536	0.0165520
598.614	0.0164906
598.692	0.0164708
598.771	0.0164132
598.849	0.0165380
598.927	0.0163960
599.005	0.0165627
599.083	0.0164269
599.161	0.0164532
599.239	0.0165178
599.317	0.0164847
599.396	0.0164116
599.474	0.0164296
599.552	0.0164942
599.630	0.0164855
599.708	0.0164714
599.786	0.0164188
599.864	0.0165475
599.942	0.0163953
600.021	0.0163815
600.099	0.0163699
600.177	0.0163345
600.255	0.0165067
600.333	0.0165411
600.411	0.0163988
600.489	0.0163890
600.567	0.0163999
600.646	0.0165311
600.724	0.0165727
600.802	0.0163007
600.880	0.0164430
600.958	0.0164094
601.036	0.0163468
601.114	0.0163768
601.192	0.0164063
601.271	0.0165082
601.349	0.0165596
601.427	0.0164069
601.505	0.0163676
601.583	0.0165078
601.661	0.0164919
601.739	0.0165307
601.817	0.0164314
601.896	0.0164406
601.974	0.0165633
602.052	0.0164083
602.130	0.0164828
602.208	0.0164907
602.286	0.0164574
602.364	0.0164476
602.442	0.0165376
602.521	0.0165433
602.599	0.0163570
602.677	0.0164368
602.755	0.0165794
602.833	0.0162640
602.911	0.0164344
602.989	0.0163300
603.067	0.0165714
603.146	0.0164664
603.224	0.0164756
603.302	0.0163575
603.380	0.0165506
603.458	0.0165435
603.536	0.0162862
603.614	0.0164748
603.692	0.0164090
603.771	0.0164524
603.849	0.0163588
603.927	0.0165423
604.005	0.0165475
604.083	0.0165615
604.161	0.0164519
604.239	0.0164215
604.317	0.0164642
604.396	0.0164489
604.474	0.0164770
604.552	0.0164378
604.630	0.0165078
604.708	0.0164923
604.786	0.0165105
604.864	0.0165125
604.942	0.0163942
605.021	0.0164204
605.099	0.0165569
605.177	0.0164281
605.255	0.0164313
605.333	0.0165453
605.411	0.0163818
605.489	0.0164467
605.567	0.0166000
605.646	0.0162737
605.724	0.0164211
605.802	0.0164832
605.880	0.0165646
605.958	0.0163832
606.036	0.0165113
606.114	0.0164671
606.192	0.0165292
606.271	0.0162890
606.349	0.0164237
606.427	0.0164190
606.505	0.0164604
606.583	0.0164259
606.661	0.0164040
606.739	0.0163912
606.817	0.0163663
606.896	0.0165495
606.974	0.0164435
607.052	0.0164172
607.130	0.0164420
607.208	0.0165748
607.286	0.0164773
607.364	0.0164568
607.442	0.0164396
607.521	0.0164758
607.599	0.0165337
607.677	0.0165726
607.755	0.0165331
607.833	0.0164585
607.911	0.0164843
607.989	0.0163283
608.067	0.0163882
608.146	0.0164212
608.224	0.0164888
608.302	0.0164677
608.380	0.0165762
608.458	0.0162862
608.536	0.0164765
608.614	0.0165147
608.692	0.0165023
608.771	0.0165663
608.849	0.0163759
608.927	0.0165227
609.005	0.0164051
609.083	0.0164661
609.161	0.0164755
609.239	0.0164233
609.317	0.0166042
609.396	0.0164999
609.474	0.0163648
609.552	0.0164457
609.630	0.0164744
609.708	0.0165015
609.786	0.0164592
609.864	0.0164071
609.942	0.0164656
610.021	0.0166207
610.099	0.0164490
610.177	0.0164311
610.255	0.0164927
610.333	0.0165378
610.411	0.0165451
610.489	0.0164532
610.567	0.0164433
610.646	0.0163584
610.724	0.0164336
610.802	0.0164248
610.880	0.0164574
610.958	0.0165198
611.036	0.0165996
611.114	0.0163680
611.192	0.0165270
611.271	0.0163706
611.349	0.0165144
611.427	0.0165924
611.505	0.0164700
611.583	0.0163959
611.661	0.0165369
611.739	0.0164191
611.817	0.0163364
611.896	0.0164864
611.974	0.0164710
612.052	0.0164868
612.130	0.0164073
612.208	0.0164088
612.286	0.0164838
612.364	0.0164955
612.442	0.0164964
612.521	0.0164672
612.599	0.0163642
612.677	0.0165118
612.755	0.0165370
612.833	0.0162994
612.911	0.0164191
612.989	0.0164896
613.067	0.0164738
613.146	0.0164169
613.224	0.0164958
613.302	0.0163155
613.380	0.0164549
613.458	0.0164138
613.536	0.0165221
613.614	0.0165307
613.692	0.0164939
613.771	0.0164452
613.849	0.0165876
613.927	0.0165049
614.005	0.0164533
614.083	0.0164855
614.161	0.0165137
614.239	0.0164108
614.317	0.0165487
614.396	0.0164057
614.474	0.0164561
614.552	0.0162929
614.630	0.0165527
614.708	0.0164989
614.786	0.0164271
614.864	0.0163003
614.942	0.0164930
615.021	0.0164556
615.099	0.0164536
615.177	0.0163828
615.255	0.0164708
615.333	0.0163135
615.411	0.0164204
615.489	0.0164229
615.567	0.0165623
615.646	0.0165180
615.724	0.0164845
615.802	0.0164252
615.880	0.0162971
615.958	0.0164379
616.036	0.0164175
616.114	0.0165431
616.192	0.0163568
616.271	0.0163977
616.349	0.0165811
616.427	0.0164464
616.505	0.0164393
616.583	0.0165438
616.661	0.0163178
616.739	0.0164577
616.817	0.0164118
616.896	0.0164066
616.974	0.0165804
617.052	0.0163127
617.130	0.0165079
617.208	0.0165307
617.286	0.0165735
617.364	0.0164463
617.442	0.0164955
617.521	0.0164466
617.599	0.0164540
617.677	0.0165623
617.755	0.0163661
617.833	0.0165021
617.911	0.0164059
617.989	0.0163408
618.067	0.0164346
618.146	0.0163735
618.224	0.0165224
618.302	0.0163038
618.380	0.0163172
618.458	0.0164368
618.536	0.0164239
618.614	0.0164323
618.692	0.0163791
618.771	0.0163914
618.849	0.0163602
618.927	0.0165000
619.005	0.0164367
619.083	0.0164587
619.161	0.0164770
619.239	0.0163812
619.317	0.0163901
619.396	0.0164751
619.474	0.0163912
619.552	0.0165144
619.630	0.0165776
619.708	0.0165567
619.786	0.0165139
619.864	0.0163715
619.942	0.0163439
620.021	0.0165102
620.099	0.0164742
620.177	0.0165107
620.255	0.0165237
620.333	0.0164097
620.411	0.0164114
620.489	0.0164716
620.567	0.0163637
620.646	0.0164233
620.724	0.0165418
620.802	0.0163428
620.880	0.0164954
620.958	0.0165089
621.036	0.0164435
621.114	0.0164427
621.192	0.0164726
621.271	0.0165753
621.349	0.0164276
621.427	0.0163445
621.505	0.0165423
621.583	0.0164423
621.661	0.0164345
621.739	0.0164771
621.817	0.0164073
621.896	0.0164610
621.974	0.0165046
622.052	0.0164506
622.130	0.0166151
622.208	0.0164079
622.286	0.0163040
622.364	0.0165063
622.442	0.0165201
622.521	0.0164202
622.599	0.0162257
622.677	0.0166275
622.755	0.0165450
622.833	0.0164487
622.911	0.0164865
622.989	0.0164617
623.067	0.0165015
623.146	0.0164336
623.224	0.0164967
623.302	0.0163684
623.380	0.0165179
623.458	0.0165166
623.536	0.0164175
623.614	0.0164893
623.692	0.0164532
623.771	0.0164291
623.849	0.0164114
623.927	0.0165245
624.005	0.0164505
624.083	0.0164610
624.161	0.0165423
624.239	0.0165462
624.317	0.0165691
624.396	0.0163773
624.474	0.0163969
624.552	0.0164784
624.630	0.0164117
624.708	0.0164510
624.786	0.0165263
624.864	0.0164967
624.942	0.0164538
625.021	0.0164973
625.099	0.0166399
625.177	0.0164615
625.255	0.0164355
625.333	0.0165116
625.411	0.0164315
625.489	0.0165492
625.567	0.0163562
625.646	0.0165112
625.724	0.0165792
625.802	0.0163932
625.880	0.0164867
625.958	0.0165313
626.036	0.0165018
626.114	0.0165140
626.192	0.0164745
626.271	0.0165343
626.349	0.0164187
626.427	0.0166375
626.505	0.0164810
626.583	0.0163039
626.661	0.0165018
626.739	0.0163712
626.817	0.0165071
626.896	0.0164661
626.974	0.0164313
627.052	0.0165328
627.130	0.0164848
627.208	0.0164332
627.286	0.0164606
627.364	0.0164971
627.442	0.0164352
627.521	0.0165259
627.599	0.0164417
627.677	0.0165180
627.755	0.0164400
627.833	0.0165035
627.911	0.0165625
627.989	0.0164897
628.067	0.0163111
628.146	0.0163501
628.224	0.0163431
628.302	0.0165649
628.380	0.0165180
628.458	0.0165088
628.536	0.0165896
628.614	0.0164485
628.692	0.0164550
628.771	0.0164388
628.849	0.0163914
628.927	0.0165453
629.005	0.0164711
629.083	0.0164610
629.161	0.0164359
629.239	0.0164579
629.317	0.0164475
629.396	0.0164894
629.474	0.0164434
629.552	0.0164140
629.630	0.0164836
629.708	0.0166084
629.786	0.0164249
629.864	0.0164503
629.942	0.0164053
630.021	0.0165143
630.099	0.0165188
630.177	0.0166235
630.255	0.0163859
630.333	0.0164421
630.411	0.0164479
630.489	0.0164980
630.567	0.0165672
630.646	0.0164068
630.724	0.0164118
630.802	0.0165611
630.880	0.0165366
630.958	0.0163895
631.036	0.0163245
631.114	0.0163575
631.192	0.0165242
631.271	0.0165485
631.349	0.0164896
631.427	0.0164326
631.505	0.0165475
631.583	0.0165945
631.661	0.0165348
631.739	0.0164401
631.817	0.0165840
631.896	0.0164983
631.974	0.0165298
632.052	0.0166193
632.130	0.0164719
632.208	0.0163455
632.286	0.0164819
632.364	0.0165691
632.442	0.0165494
632.521	0.0166511
632.599	0.0165245
632.677	0.0164214
632.755	0.0164841
632.833	0.0164172
632.911	0.0166153
632.989	0.0165292
633.067	0.0165597
633.146	0.0165267
633.224	0.0165294
633.302	0.0166085
633.380	0.0165398
633.458	0.0165107
633.536	0.0163566
633.614	0.0165530
633.692	0.0165089
633.771	0.0164696
633.849	0.0165641
633.927	0.0165816
634.005	0.0164830
634.083	0.0164571
634.161	0.0165694
634.239	0.0164651
634.317	0.0163358
634.396	0.0163663
634.474	0.0164954
634.552	0.0164779
634.630	0.0165761
634.708	0.0165665
634.786	0.0165077
634.864	0.0165972
634.942	0.0164851
635.021	0.0165076
635.099	0.0164805
635.177	0.0163787
635.255	0.0165052
635.333	0.0165175
635.411	0.0165040
635.489	0.0164537
635.567	0.0165432
635.646	0.0166651
635.724	0.0165576
635.802	0.0165338
635.880	0.0165852
635.958	0.0165235
636.036	0.0165646
636.114	0.0165950
636.192	0.0165681
636.271	0.0165041
636.349	0.0165218
636.427	0.0164166
636.505	0.0166022
636.583	0.0165353
636.661	0.0165601
636.739	0.0164038
636.817	0.0165419
636.896	0.0165430
636.974	0.0164750
637.052	0.0165530
637.130	0.0164368
637.208	0.0164513
637.286	0.0163886
637.364	0.0164927
637.442	0.0165191
637.521	0.0165568
637.599	0.0165607
637.677	0.0165678
637.755	0.0165074
637.833	0.0164890
637.911	0.0165881
637.989	0.0164634
638.067	0.0164909
638.146	0.0165514
638.224	0.0164314
638.302	0.0164204
638.380	0.0164429
638.458	0.0164604
638.536	0.0166219
638.614	0.0165341
638.692	0.0163325
638.771	0.0164970
638.849	0.0164951
638.927	0.0165675
639.005	0.0164819
639.083	0.0165427
639.161	0.0164440
639.239	0.0164774
639.317	0.0163615
639.396	0.0164617
639.474	0.0165057
639.552	0.0164128
639.630	0.0165411
639.708	0.0164909
639.786	0.0164519
639.864	0.0163074
639.942	0.0164701
640.021	0.0164933
640.099	0.0165664
640.177	0.0166808
640.255	0.0164728
640.333	0.0163783
640.411	0.0165408
640.489	0.0164923
640.567	0.0164799
640.646	0.0164858
640.724	0.0165859
640.802	0.0164147
640.880	0.0164618
640.958	0.0165025
641.036	0.0164705
641.114	0.0164407
641.192	0.0163934
641.271	0.0164024
641.349	0.0164895
641.427	0.0165167
641.505	0.0164384
641.583	0.0164348
641.661	0.0165566
641.739	0.0165028
641.817	0.0164334
641.896	0.0165615
641.974	0.0164622
642.052	0.0164214
642.130	0.0163643
642.208	0.0165902
642.286	0.0164962
642.364	0.0165071
642.442	0.0164631
642.521	0.0164941
642.599	0.0164606
642.677	0.0165628
642.755	0.0164214
642.833	0.0164423
642.911	0.0164529
642.989	0.0166162
643.067	0.0164893
643.146	0.0164516
643.224	0.0164890
643.302	0.0164103
643.380	0.0164904
643.458	0.0165562
643.536	0.0165622
643.614	0.0163628
643.692	0.0164153
643.771	0.0164848
643.849	0.0165079
643.927	0.0166068
644.005	0.0165456
644.083	0.0165405
644.161	0.0164445
644.239	0.0166822
644.317	0.0165817
644.396	0.0165731
644.474	0.0164256
644.552	0.0164323
644.630	0.0164188
644.708	0.0165286
644.786	0.0164740
644.864	0.0164729
644.942	0.0163905
645.021	0.0164694
645.099	0.0164135
645.177	0.0165751
645.255	0.0165364
645.333	0.0165285
645.411	0.0164838
645.489	0.0164362
645.567	0.0163070
645.646	0.0165536
645.724	0.0164761
645.802	0.0164756
645.880	0.0165160
645.958	0.0165031
646.036	0.0165051
646.114	0.0163236
646.192	0.0164701
646.271	0.0165149
646.349	0.0165816
646.427	0.0164456
646.505	0.0165291
646.583	0.0165147
646.661	0.0164996
646.739	0.0164610
646.817	0.0164342
646.896	0.0165730
646.974	0.0164449
647.052	0.0163988
647.130	0.0164208
647.208	0.0166239
647.286	0.0164439
647.364	0.0163853
647.442	0.0164426
647.521	0.0165633
647.599	0.0165921
647.677	0.0165671
647.755	0.0165137
647.833	0.0163806
647.911	0.0164799
647.989	0.0164152
648.067	0.0165370
648.146	0.0163876
648.224	0.0164177
648.302	0.0165450
648.380	0.0164403
648.458	0.0165727
648.536	0.0165193
648.614	0.0163702
648.692	0.0163491
648.771	0.0165302
648.849	0.0164905
648.927	0.0164538
649.005	0.0165289
649.083	0.0164835
649.161	0.0163232
649.239	0.0164420
649.317	0.0164854
649.396	0.0163942
649.474	0.0164809
649.552	0.0165514
649.630	0.0165034
649.708	0.0166054
649.786	0.0165167
649.864	0.0164829
649.942	0.0163928
650.021	0.0163937
650.099	0.0165591
650.177	0.0164980
650.255	0.0165601
650.333	0.0163779
650.411	0.0163954
650.489	0.0165108
650.567	0.0163568
650.646	0.0163905
650.724	0.0165257
650.802	0.0165064
650.880	0.0165486
650.958	0.0165784
651.036	0.0165042
651.114	0.0164680
651.192	0.0165382
651.271	0.0164973
651.349	0.0164991
651.427	0.0165932
651.505	0.0166164
651.583	0.0163285
651.661	0.0165036
651.739	0.0164838
651.817	0.0164285
651.896	0.0165192
651.974	0.0165488
652.052	0.0164541
652.130	0.0165130
652.208	0.0164977
652.286	0.0164536
652.364	0.0162953
652.442	0.0165230
652.521	0.0165467
652.599	0.0164403
652.677	0.0163598
652.755	0.0164439
652.833	0.0165021
652.911	0.0163478
652.989	0.0164546
653.067	0.0164497
653.146	0.0164093
653.224	0.0163815
653.302	0.0166786
653.380	0.0165179
653.458	0.0163667
653.536	0.0165469
653.614	0.0165356
653.692	0.0163895
653.771	0.0165504
653.849	0.0164751
653.927	0.0165319
654.005	0.0166050
654.083	0.0165478
654.161	0.0162256
654.239	0.0166043
654.317	0.0164388
654.396	0.0164717
654.474	0.0163673
654.552	0.0164854
654.630	0.0164732
654.708	0.0164850
654.786	0.0165710
654.864	0.0165589
654.942	0.0165383
655.021	0.0165228
655.099	0.0164546
655.177	0.0165144
655.255	0.0165550
655.333	0.0165539
655.411	0.0165713
655.489	0.0165668
655.567	0.0164182
655.646	0.0164447
655.724	0.0166655
655.802	0.0165739
655.880	0.0164718
655.958	0.0164445
656.036	0.0164832
656.114	0.0164982
656.192	0.0164789
656.271	0.0165911
656.349	0.0165861
656.427	0.0164005
656.505	0.0164994
656.583	0.0165415
656.661	0.0164518
656.739	0.0164067
656.817	0.0165778
656.896	0.0166501
656.974	0.0165119
657.052	0.0164111
657.130	0.0164597
657.208	0.0165226
657.286	0.0164643
657.364	0.0164630
657.442	0.0164420
657.521	0.0164658
657.599	0.0164605
657.677	0.0164407
657.755	0.0164726
657.833	0.0164649
657.911	0.0164192
657.989	0.0165230
658.067	0.0164616
658.146	0.0164661
658.224	0.0165258
658.302	0.0164952
658.380	0.0166266
658.458	0.0166173
658.536	0.0166226
658.614	0.0166322
658.692	0.0163839
658.771	0.0165221
658.849	0.0164778
658.927	0.0164761
659.005	0.0165421
659.083	0.0164809
659.161	0.0165678
659.239	0.0165964
659.317	0.0165028
659.396	0.0163569
659.474	0.0165456
659.552	0.0167203
659.630	0.0165237
659.708	0.0166556
659.786	0.0165311
659.864	0.0163902
659.942	0.0164644
660.021	0.0164591
660.099	0.0165520
660.177	0.0164885
660.255	0.0165157
660.333	0.0165287
660.411	0.0164722
660.489	0.0164316
660.567	0.0165047
660.646	0.0165098
660.724	0.0165065
660.802	0.0164340
660.880	0.0165105
660.958	0.0164401
661.036	0.0163927
661.114	0.0164401
661.192	0.0164545
661.271	0.0165250
661.349	0.0166127
661.427	0.0164060
661.505	0.0165253
661.583	0.0164517
661.661	0.0164706
661.739	0.0164513
661.817	0.0164191
661.896	0.0166011
661.974	0.0164686
662.052	0.0164606
662.130	0.0165828
662.208	0.0164621
662.286	0.0163246
662.364	0.0165695
662.442	0.0164384
662.521	0.0164798
662.599	0.0164500
662.677	0.0164389
662.755	0.0164852
662.833	0.0164581
662.911	0.0165023
662.989	0.0164988
663.067	0.0164510
663.146	0.0165534
663.224	0.0165056
663.302	0.0165176
663.380	0.0163924
663.458	0.0164830
663.536	0.0165039
663.614	0.0163863
663.692	0.0165122
663.771	0.0166186
663.849	0.0164715
663.927	0.0166236
664.005	0.0165274
664.083	0.0165432
664.161	0.0164272
664.239	0.0164642
664.317	0.0164924
664.396	0.0164977
664.474	0.0165643
664.552	0.0165693
664.630	0.0165020
664.708	0.0165097
664.786	0.0165546
664.864	0.0163913
664.942	0.0164586
665.021	0.0163922
665.099	0.0164624
665.177	0.0166406
665.255	0.0165474
665.333	0.0165840
665.411	0.0163447
665.489	0.0164757
665.567	0.0164725
665.646	0.0164915
665.724	0.0164725
665.802	0.0163280
665.880	0.0164930
665.958	0.0164843
666.036	0.0165651
666.114	0.0165208
666.192	0.0164397
666.271	0.0164954
666.349	0.0165649
666.427	0.0164578
666.505	0.0163519
666.583	0.0163454
666.661	0.0165913
666.739	0.0165010
666.817	0.0164704
666.896	0.0165836
666.974	0.0164679
667.052	0.0164117
667.130	0.0162872
667.208	0.0165407
667.286	0.0164655
667.364	0.0163125
667.442	0.0164915
667.521	0.0165115
667.599	0.0164986
667.677	0.0165693
667.755	0.0165717
667.833	0.0165202
667.911	0.0165066
667.989	0.0164729
668.067	0.0164845
668.146	0.0165665
668.224	0.0165037
668.302	0.0166462
668.380	0.0165470
668.458	0.0165433
668.536	0.0165180
668.614	0.0164597
668.692	0.0164349
668.771	0.0163856
668.849	0.0165895
668.927	0.0165061
669.005	0.0163692
669.083	0.0166008
669.161	0.0164510
669.239	0.0163515
669.317	0.0163961
669.396	0.0164088
669.474	0.0163882
669.552	0.0164156
669.630	0.0164865
669.708	0.0165628
669.786	0.0165392
669.864	0.0164687
669.942	0.0162910
670.021	0.0164365
670.099	0.0166296
670.177	0.0165144
670.255	0.0164322
670.333	0.0163551
670.411	0.0163657
670.489	0.0164300
670.567	0.0163566
670.646	0.0164859
670.724	0.0164724
670.802	0.0164664
670.880	0.0163931
670.958	0.0164600
671.036	0.0164742
671.114	0.0164410
671.192	0.0164258
671.271	0.0164677
671.349	0.0164965
671.427	0.0164754
671.505	0.0164288
671.583	0.0165141
671.661	0.0164272
671.739	0.0165405
671.817	0.0164914
671.896	0.0165077
671.974	0.0165076
672.052	0.0164819
672.130	0.0165334
672.208	0.0164010
672.286	0.0165342
672.364	0.0165622
672.442	0.0165859
672.521	0.0163758
672.599	0.0164022
672.677	0.0164771
672.755	0.0163971
672.833	0.0164830
672.911	0.0165271
672.989	0.0164740
673.067	0.0166416
673.146	0.0165957
673.224	0.0164719
673.302	0.0165500
673.380	0.0165547
673.458	0.0164864
673.536	0.0165894
673.614	0.0164652
673.692	0.0165190
673.771	0.0165192
673.849	0.0164859
673.927	0.0165487
674.005	0.0164955
674.083	0.0165103
674.161	0.0164147
674.239	0.0166560
674.317	0.0163892
674.396	0.0165547
674.474	0.0164701
674.552	0.0163900
674.630	0.0165546
674.708	0.0166203
674.786	0.0165349
674.864	0.0164538
674.942	0.0163017
675.021	0.0164304
675.099	0.0166045
675.177	0.0164809
675.255	0.0164547
675.333	0.0164755
675.411	0.0166280
675.489	0.0164365
675.567	0.0165173
675.646	0.0164528
675.724	0.0166055
675.802	0.0164820
675.880	0.0165302
675.958	0.0164949
676.036	0.0165506
676.114	0.0165713
676.192	0.0166072
676.271	0.0165666
676.349	0.0164171
676.427	0.0165443
676.505	0.0166475
676.583	0.0163668
676.661	0.0164629
676.739	0.0165012
676.817	0.0164922
676.896	0.0164990
676.974	0.0165421
677.052	0.0165114
677.130	0.0164812
677.208	0.0165291
677.286	0.0165174
677.364	0.0163240
677.442	0.0165126
677.521	0.0163889
677.599	0.0165228
677.677	0.0163019
677.755	0.0164558
677.833	0.0166322
677.911	0.0165163
677.989	0.0164886
678.067	0.0165215
678.146	0.0164220
678.224	0.0165634
678.302	0.0165726
678.380	0.0165072
678.458	0.0164558
678.536	0.0164700
678.614	0.0162994
678.692	0.0164542
678.771	0.0164703
678.849	0.0165467
678.927	0.0165596
679.005	0.0163394
679.083	0.0164364
679.161	0.0164832
679.239	0.0162272
679.317	0.0163963
679.396	0.0165514
679.474	0.0165470
679.552	0.0164981
679.630	0.0163792
679.708	0.0163557
679.786	0.0164635
679.864	0.0165032
679.942	0.0164676
680.021	0.0164544
680.099	0.0163602
680.177	0.0164993
680.255	0.0164256
680.333	0.0164526
680.411	0.0162661
680.489	0.0163349
680.567	0.0165347
680.646	0.0163205
680.724	0.0165263
680.802	0.0164021
680.880	0.0163305
680.958	0.0164123
681.036	0.0165976
681.114	0.0164952
681.192	0.0163042
681.271	0.0163903
681.349	0.0165095
681.427	0.0163687
681.505	0.0163603
681.583	0.0164768
681.661	0.0163273
681.739	0.0163582
681.817	0.0165311
681.896	0.0163869
681.974	0.0163326
682.052	0.0165682
682.130	0.0164130
682.208	0.0163878
682.286	0.0165711
682.364	0.0164651
682.442	0.0163936
682.521	0.0164125
682.599	0.0164616
682.677	0.0163248
682.755	0.0164083
682.833	0.0165206
682.911	0.0165142
682.989	0.0163391
683.067	0.0164790
683.146	0.0164597
683.224	0.0164941
683.302	0.0164284
683.380	0.0165188
683.458	0.0166119
683.536	0.0163401
683.614	0.0164303
683.692	0.0165849
683.771	0.0165252
683.849	0.0165276
683.927	0.0165068
684.005	0.0164322
684.083	0.0166076
684.161	0.0165373
684.239	0.0164739
684.317	0.0164996
684.396	0.0164436
684.474	0.0165007
684.552	0.0165892
684.630	0.0163487
684.708	0.0164119
684.786	0.0164770
684.864	0.0163869
684.942	0.0164993
685.021	0.0164870
685.099	0.0164234
685.177	0.0165496
685.255	0.0163873
685.333	0.0165785
685.411	0.0164180
685.489	0.0166159
685.567	0.0163688
685.646	0.0165139
685.724	0.0166530
685.802	0.0166622
685.880	0.0164752
685.958	0.0164543
686.036	0.0166132
686.114	0.0164419
686.192	0.0165888
686.271	0.0165208
686.349	0.0165420
686.427	0.0166429
686.505	0.0165516
686.583	0.0166093
686.661	0.0164799
686.739	0.0164661
686.817	0.0164635
686.896	0.0165310
686.974	0.0166117
687.052	0.0165812
687.130	0.0165701
687.208	0.0165746
687.286	0.0165659
687.364	0.0165411
687.442	0.0165801
687.521	0.0165395
687.599	0.0165618
687.677	0.0165844
687.755	0.0164817
687.833	0.0165147
687.911	0.0164409
687.989	0.0166247
688.067	0.0167203
688.146	0.0165435
688.224	0.0164757
688.302	0.0165462
688.380	0.0165653
688.458	0.0165437
688.536	0.0165430
688.614	0.0165613
688.692	0.0165408
688.771	0.0166438
688.849	0.0164833
688.927	0.0166393
689.005	0.0164222
689.083	0.0165282
689.161	0.0166733
689.239	0.0166401
689.317	0.0165262
689.396	0.0164384
689.474	0.0164912
689.552	0.0165166
689.630	0.0164003
689.708	0.0164848
689.786	0.0165752
689.864	0.0164813
689.942	0.0165531
690.021	0.0165778
690.099	0.0164748
690.177	0.0165471
690.255	0.0165353
690.333	0.0164497
690.411	0.0163923
690.489	0.0165149
690.567	0.0165308
690.646	0.0164069
690.724	0.0164028
690.802	0.0163919
690.880	0.0164542
690.958	0.0164535
691.036	0.0164790
691.114	0.0164671
691.192	0.0164076
691.271	0.0164030
691.349	0.0165021
691.427	0.0166706
691.505	0.0164711
691.583	0.0164301
691.661	0.0163696
691.739	0.0162894
691.817	0.0163783
691.896	0.0166402
691.974	0.0164333
692.052	0.0164333
692.130	0.0164336
692.208	0.0165538
692.286	0.0164656
692.364	0.0163187
692.442	0.0164185
692.521	0.0165369
692.599	0.0164120
692.677	0.0163764
692.755	0.0163672
692.833	0.0163927
692.911	0.0164449
692.989	0.0164708
693.067	0.0164482
693.146	0.0164757
693.224	0.0164357
693.302	0.0164770
693.380	0.0163770
693.458	0.0165351
693.536	0.0164908
693.614	0.0163745
693.692	0.0162206
693.771	0.0163672
693.849	0.0166479
693.927	0.0165359
694.005	0.0164469
694.083	0.0165363
694.161	0.0163018
694.239	0.0164984
694.317	0.0163977
694.396	0.0163511
694.474	0.0164394
694.552	0.0164130
694.630	0.0164480
694.708	0.0162743
694.786	0.0163375
694.864	0.0164292
694.942	0.0164316
695.021	0.0163306
695.099	0.0164580
695.177	0.0165177
695.255	0.0163716
695.333	0.0163499
695.411	0.0161926
695.489	0.0165238
695.567	0.0165948
695.646	0.0164535
695.724	0.0165485
695.802	0.0164820
695.880	0.0164050
695.958	0.0164622
696.036	0.0163969
696.114	0.0164999
696.192	0.0164813
696.271	0.0164935
696.349	0.0165408
696.427	0.0163446
696.505	0.0165579
696.583	0.0165685
696.661	0.0164141
696.739	0.0163956
696.817	0.0164647
696.896	0.0165617
696.974	0.0164989
697.052	0.0163536
697.130	0.0163508
697.208	0.0162315
697.286	0.0161738
697.364	0.0161732
697.442	0.0161877
697.521	0.0161461
697.599	0.0162016
697.677	0.0164034
697.755	0.0166924
697.833	0.0167656
697.911	0.0169389
697.989	0.0171772
698.067	0.0173741
698.146	0.0171764
698.224	0.0172644
698.302	0.0172110
698.380	0.0169220
698.458	0.0164812
698.536	0.0161411
698.614	0.0159245
698.692	0.0155620
698.771	0.0154473
698.849	0.0152638
698.927	0.0152437
699.005	0.0154561
699.083	0.0154740
699.161	0.0158155
699.239	0.0162901
699.317	0.0166479
699.396	0.0169318
699.474	0.0171685
699.552	0.0175193
699.630	0.0176797
699.708	0.0178850
699.786	0.0177745
699.864	0.0178463
699.942	0.0175732
700.021	0.0173398
700.099	0.0170030
700.177	0.0167472
700.255	0.0164589
700.333	0.0160857
700.411	0.0158868
700.489	0.0156974
700.567	0.0155008
700.646	0.0154472
700.724	0.0154062
700.802	0.0155037
700.880	0.0157594
700.958	0.0159563
701.036	0.0162303
701.114	0.0165875
701.192	0.0169202
701.271	0.0171481
701.349	0.0176273
701.427	0.0176818
701.505	0.0177342
701.583	0.0176833
701.661	0.0175351
701.739	0.0173801
701.817	0.0169818
701.896	0.0167198
701.974	0.0164708
702.052	0.0162315
702.130	0.0160372
702.208	0.0159151
702.286	0.0158854
702.364	0.0155794
702.442	0.0155736
702.521	0.0157597
702.599	0.0157345
702.677	0.0157922
702.755	0.0157486
702.833	0.0159565
702.911	0.0161092
702.989	0.0160801
703.067	0.0162499
703.146	0.0161791
703.224	0.0161703
703.302	0.0163256
703.380	0.0165211
703.458	0.0167902
703.536	0.0171207
703.614	0.0171075
703.692	0.0171874
703.771	0.0174561
703.849	0.0175455
703.927	0.0175529
704.005	0.0176100
704.083	0.0174850
704.161	0.0173593
704.239	0.0172277
704.317	0.0169525
704.396	0.0165915
704.474	0.0164018
704.552	0.0161671
704.630	0.0159267
704.708	0.0157697
704.786	0.0156841
704.864	0.0156561
704.942	0.0156678
705.021	0.0157089
705.099	0.0158769
705.177	0.0158604
705.255	0.0162662
705.333	0.0163059
705.411	0.0163409
705.489	0.0165860
705.567	0.0165387
705.646	0.0166967
705.724	0.0164079
705.802	0.0162933
705.880	0.0161713
705.958	0.0160323
706.036	0.0158226
706.114	0.0158298
706.192	0.0154272
706.271	0.0155032
706.349	0.0155871
706.427	0.0156313
706.505	0.0157998
706.583	0.0158389
706.661	0.0161884
706.739	0.0164079
706.817	0.0167195
706.896	0.0171400
706.974	0.0172655
707.052	0.0174673
707.130	0.0177986
707.208	0.0177784
707.286	0.0178982
707.364	0.0179996
707.442	0.0178559
707.521	0.0177110
707.599	0.0174599
707.677	0.0171960
707.755	0.0170294
707.833	0.0167870
707.911	0.0165748
707.989	0.0162102
708.067	0.0161755
708.146	0.0159776
708.224	0.0155742
708.302	0.0155661
708.380	0.0157735
708.458	0.0154671
708.536	0.0156036
708.614	0.0157918
708.692	0.0157806
708.771	0.0159393
708.849	0.0160683
708.927	0.0162726
709.005	0.0162295
709.083	0.0163260
709.161	0.0164730
709.239	0.0167740
709.317	0.0168907
709.396	0.0168105
709.474	0.0168330
709.552	0.0168654
709.630	0.0168495
709.708	0.0167365
709.786	0.0166596
709.864	0.0162510
709.942	0.0161925
710.021	0.0160349
710.099	0.0158838
710.177	0.0157982
710.255	0.0155786
710.333	0.0155366
710.411	0.0154397
710.489	0.0156456
710.567	0.0158099
710.646	0.0159042
710.724	0.0162045
710.802	0.0162383
710.880	0.0166764
710.958	0.0172501
711.036	0.0173563
711.114	0.0174408
711.192	0.0176514
711.271	0.0179199
711.349	0.0179351
711.427	0.0179538
711.505	0.0179315
711.583	0.0175165
711.661	0.0174686
711.739	0.0173118
711.817	0.0169573
711.896	0.0167672
711.974	0.0165166
712.052	0.0161448
712.130	0.0161092
712.208	0.0159367
712.286	0.0158319
712.364	0.0155258
712.442	0.0155635
712.521	0.0154193
712.599	0.0152825
712.677	0.0153909
712.755	0.0153378
712.833	0.0155228
712.911	0.0156213
712.989	0.0156747
713.067	0.0158919
713.146	0.0160574
713.224	0.0163603
713.302	0.0164432
713.380	0.0167003
713.458	0.0169016
713.536	0.0170947
713.614	0.0172611
713.692	0.0172226
713.771	0.0173025
713.849	0.0173064
713.927	0.0173134
714.005	0.0171999
714.083	0.0170654
714.161	0.0170060
714.239	0.0169270
714.317	0.0169432
714.396	0.0167387
714.474	0.0166796
714.552	0.0166462
714.630	0.0166338
714.708	0.0167743
714.786	0.0165453
714.864	0.0167017
714.942	0.0167001
715.021	0.0166238
715.099	0.0166684
715.177	0.0165348
715.255	0.0165356
715.333	0.0164603
715.411	0.0164421
715.489	0.0163619
715.567	0.0162768
715.646	0.0162711
715.724	0.0160822
715.802	0.0159904
715.880	0.0160145
715.958	0.0160269
716.036	0.0160480
716.114	0.0160480
716.192	0.0160629
716.271	0.0161006
716.349	0.0161584
716.427	0.0161844
716.505	0.0161507
716.583	0.0162496
716.661	0.0162209
716.739	0.0162711
716.817	0.0162338
716.896	0.0161758
716.974	0.0163541
717.052	0.0163361
717.130	0.0164061
717.208	0.0163977
717.286	0.0164672
717.364	0.0165644
717.442	0.0165625
717.521	0.0163490
717.599	0.0165390
717.677	0.0165616
717.755	0.0166470
717.833	0.0165221
717.911	0.0165353
717.989	0.0164252
718.067	0.0166032
718.146	0.0166502
718.224	0.0167368
718.302	0.0167004
718.380	0.0167456
718.458	0.0167120
718.536	0.0167730
718.614	0.0167468
718.692	0.0167636
718.771	0.0167777
718.849	0.0167585
718.927	0.0167673
719.005	0.0166776
719.083	0.0164781
719.161	0.0163930
719.239	0.0162494
719.317	0.0162592
719.396	0.0162409
719.474	0.0160838
719.552	0.0159895
719.630	0.0160695
719.708	0.0159811
719.786	0.0159310
719.864	0.0160931
719.942	0.0159502
720.021	0.0161464
720.099	0.0163014
720.177	0.0162843
720.255	0.0162466
720.333	0.0162871
720.411	0.0164138
720.489	0.0163719
720.567	0.0164433
720.646	0.0165894
720.724	0.0165016
720.802	0.0163465
720.880	0.0163154
720.958	0.0163423
721.036	0.0164404
721.114	0.0163429
721.192	0.0162418
721.271	0.0159886
721.349	0.0160691
721.427	0.0160056
721.505	0.0160487
721.583	0.0162472
721.661	0.0161663
721.739	0.0160460
721.817	0.0163467
721.896	0.0163269
721.974	0.0165295
722.052	0.0165015
722.130	0.0165388
722.208	0.0166621
722.286	0.0165665
722.364	0.0167158
722.442	0.0166219
722.521	0.0165968
722.599	0.0166944
722.677	0.0164964
722.755	0.0166470
722.833	0.0164756
722.911	0.0162695
722.989	0.0163326
723.067	0.0163596
723.146	0.0161732
723.224	0.0163090
723.302	0.0162718
723.380	0.0163628
723.458	0.0162064
723.536	0.0164523
723.614	0.0165379
723.692	0.0166728
723.771	0.0167226
723.849	0.0170093
723.927	0.0170505
724.005	0.0171746
724.083	0.0171671
724.161	0.0173408
724.239	0.0173460
724.317	0.0172092
724.396	0.0172629
724.474	0.0172464
724.552	0.0171926
724.630	0.0170311
724.708	0.0167567
724.786	0.0168427
724.864	0.0167500
724.942	0.0166669
725.021	0.0164565
725.099	0.0164159
725.177	0.0163172
725.255	0.0163091
725.333	0.0161584
725.411	0.0160480
725.489	0.0162371
725.567	0.0161178
725.646	0.0160270
725.724	0.0162627
725.802	0.0161601
725.880	0.0162653
725.958	0.0160990
726.036	0.0161252
726.114	0.0162502
726.192	0.0161785
726.271	0.0162481
726.349	0.0162371
726.427	0.0162907
726.505	0.0162876
726.583	0.0162608
726.661	0.0162981
726.739	0.0162124
726.817	0.0162384
726.896	0.0162760
726.974	0.0161832
727.052	0.0162872
727.130	0.0162753
727.208	0.0164004
727.286	0.0164433
727.364	0.0163980
727.442	0.0164490
727.521	0.0165866
727.599	0.0165714
727.677	0.0166208
727.755	0.0166019
727.833	0.0165207
727.911	0.0164828
727.989	0.0166769
728.067	0.0166180
728.146	0.0164606
728.224	0.0166650
728.302	0.0164584
728.380	0.0165026
728.458	0.0163442
728.536	0.0165927
728.614	0.0166820
728.692	0.0166142
728.771	0.0166364
728.849	0.0166438
728.927	0.0167915
729.005	0.0167838
729.083	0.0167133
729.161	0.0167860
729.239	0.0167905
729.317	0.0168512
729.396	0.0167675
729.474	0.0166547
729.552	0.0164539
729.630	0.0165484
729.708	0.0165073
729.786	0.0165286
729.864	0.0164320
729.942	0.0163938
730.021	0.0164886
730.099	0.0162596
730.177	0.0161848
730.255	0.0160977
730.333	0.0161246
730.411	0.0162428
730.489	0.0162310
730.567	0.0162476
730.646	0.0161905
730.724	0.0163950
730.802	0.0164234
730.880	0.0162912
730.958	0.0164291
731.036	0.0164052
731.114	0.0165985
731.192	0.0166106
731.271	0.0164879
731.349	0.0165149
731.427	0.0166733
731.505	0.0166524
731.583	0.0164790
731.661	0.0165331
731.739	0.0164343
731.817	0.0165689
731.896	0.0164736
731.974	0.0163712
732.052	0.0165397
732.130	0.0163430
732.208	0.0163110
732.286	0.0163446
732.364	0.0164301
732.442	0.0163284
732.521	0.0165648
732.599	0.0164111
732.677	0.0164866
732.755	0.0164752
732.833	0.0165527
732.911	0.0165311
732.989	0.0165427
733.067	0.0164899
733.146	0.0165017
733.224	0.0164459
733.302	0.0164812
733.380	0.0164896
733.458	0.0165718
733.536	0.0164893
733.614	0.0163972
733.692	0.0164336
733.771	0.0163168
733.849	0.0163352
733.927	0.0162653
734.005	0.0162895
734.083	0.0163643
734.161	0.0162305
734.239	0.0163216
734.317	0.0165091
734.396	0.0165332
734.474	0.0164956
734.552	0.0166528
734.630	0.0168359
734.708	0.0168958
734.786	0.0168932
734.864	0.0170470
734.942	0.0169896
735.021	0.0169403
735.099	0.0170474
735.177	0.0170927
735.255	0.0168697
735.333	0.0167976
735.411	0.0167609
735.489	0.0167234
735.567	0.0165495
735.646	0.0164371
735.724	0.0164206
735.802	0.0163093
735.880	0.0162473
735.958	0.0161909
736.036	0.0161478
736.114	0.0160504
736.192	0.0160299
736.271	0.0161333
736.349	0.0160703
736.427	0.0160678
736.505	0.0162556
736.583	0.0161308
736.661	0.0162642
736.739	0.0163799
736.817	0.0164415
736.896	0.0164756
736.974	0.0165757
737.052	0.0164568
737.130	0.0165360
737.208	0.0166290
737.286	0.0165813
737.364	0.0166363
737.442	0.0165163
737.521	0.0165446
737.599	0.0164741
737.677	0.0164573
737.755	0.0165356
737.833	0.0163748
737.911	0.0164886
737.989	0.0162952
738.067	0.0163712
738.146	0.0165255
738.224	0.0164912
738.302	0.0165392
738.380	0.0165141
738.458	0.0166250
738.536	0.0165492
738.614	0.0165664
738.692	0.0168432
738.771	0.0167873
738.849	0.0165517
738.927	0.0166172
739.005	0.0167473
739.083	0.0166023
739.161	0.0165479
739.239	0.0166075
739.317	0.0165437
739.396	0.0164679
739.474	0.0166728
739.552	0.0165379
739.630	0.0165524
739.708	0.0165260
739.786	0.0164500
739.864	0.0164359
739.942	0.0166229
740.021	0.0164793
740.099	0.0164203
740.177	0.0164066
740.255	0.0165522
740.333	0.0163678
740.411	0.0165734
740.489	0.0164326
740.567	0.0164510
740.646	0.0164739
740.724	0.0163811
740.802	0.0164433
740.880	0.0165256
740.958	0.0163335
741.036	0.0164057
741.114	0.0164999
741.192	0.0166550
741.271	0.0164024
741.349	0.0163942
741.427	0.0166191
741.505	0.0165489
741.583	0.0164650
741.661	0.0164662
741.739	0.0165483
741.817	0.0163880
741.896	0.0163204
741.974	0.0163104
742.052	0.0162615
742.130	0.0162448
742.208	0.0162328
742.286	0.0163668
742.364	0.0163467
742.442	0.0162576
742.521	0.0163139
742.599	0.0162314
742.677	0.0161096
742.755	0.0163554
742.833	0.0164539
742.911	0.0164350
742.989	0.0164658
743.067	0.0166380
743.146	0.0165426
743.224	0.0165859
743.302	0.0165587
743.380	0.0165836
743.458	0.0165820
743.536	0.0166364
743.614	0.0165732
743.692	0.0164377
743.771	0.0165115
743.849	0.0165486
743.927	0.0164336
744.005	0.0164452
744.083	0.0164394
744.161	0.0165047
744.239	0.0165397
744.317	0.0164108
744.396	0.0165060
744.474	0.0163823
744.552	0.0164909
744.630	0.0162825
744.708	0.0164297
744.786	0.0164932
744.864	0.0165337
744.942	0.0165937
745.021	0.0166392
745.099	0.0167439
745.177	0.0166936
745.255	0.0166547
745.333	0.0167827
745.411	0.0168112
745.489	0.0166266
745.567	0.0166026
745.646	0.0166013
745.724	0.0166965
745.802	0.0166701
745.880	0.0165370
745.958	0.0163909
746.036	0.0163856
746.114	0.0164024
746.192	0.0163173
746.271	0.0162926
746.349	0.0161947
746.427	0.0163438
746.505	0.0162861
746.583	0.0163086
746.661	0.0162598
746.739	0.0162820
746.817	0.0163251
746.896	0.0163745
746.974	0.0164458
747.052	0.0166260
747.130	0.0165974
747.208	0.0167057
747.286	0.0167765
747.364	0.0167614
747.442	0.0166924
747.521	0.0168695
747.599	0.0169093
747.677	0.0167362
747.755	0.0168156
747.833	0.0167347
747.911	0.0167356
747.989	0.0166666
748.067	0.0165193
748.146	0.0163146
748.224	0.0162484
748.302	0.0161042
748.380	0.0159767
748.458	0.0159793
748.536	0.0159391
748.614	0.0159039
748.692	0.0158308
748.771	0.0158333
748.849	0.0158658
748.927	0.0157376
749.005	0.0159783
749.083	0.0159245
749.161	0.0161124
749.239	0.0162407
749.317	0.0162537
749.396	0.0162561
749.474	0.0164535
749.552	0.0163818
749.630	0.0165458
749.708	0.0166828
749.786	0.0164855
749.864	0.0165697
749.942	0.0165454
750.021	0.0165488
750.099	0.0167499
750.177	0.0166994
750.255	0.0167107
750.333	0.0165459
750.411	0.0167155
750.489	0.0167312
750.567	0.0166460
750.646	0.0167098
750.724	0.0166746
750.802	0.0166473
750.880	0.0165918
750.958	0.0164845
751.036	0.0167493
751.114	0.0165861
751.192	0.0166344
751.271	0.0165062
751.349	0.0166319
751.427	0.0164957
751.505	0.0165403
751.583	0.0165659
751.661	0.0164883
751.739	0.0166326
751.817	0.0164579
751.896	0.0163229
751.974	0.0164800
752.052	0.0164526
752.130	0.0163126
752.208	0.0162882
752.286	0.0162466
752.364	0.0162075
752.442	0.0161356
752.521	0.0162309
752.599	0.0162716
752.677	0.0163332
752.755	0.0162572
752.833	0.0162985
752.911	0.0163348
752.989	0.0162746
753.067	0.0164356
753.146	0.0164865
753.224	0.0163908
753.302	0.0165027
753.380	0.0165185
753.458	0.0165391
753.536	0.0165021
753.614	0.0166608
753.692	0.0166454
753.771	0.0167892
753.849	0.0166866
753.927	0.0167769
754.005	0.0166402
754.083	0.0167013
754.161	0.0166690
754.239	0.0165106
754.317	0.0166990
754.396	0.0165388
754.474	0.0164307
754.552	0.0164532
754.630	0.0164582
754.708	0.0164574
754.786	0.0164983
754.864	0.0164096
754.942	0.0164101
755.021	0.0165482
755.099	0.0164237
755.177	0.0163607
755.255	0.0164252
755.333	0.0163694
755.411	0.0165540
755.489	0.0164143
755.567	0.0163922
755.646	0.0164336
755.724	0.0165199
755.802	0.0165987
755.880	0.0165562
755.958	0.0165115
756.036	0.0166072
756.114	0.0164901
756.192	0.0165612
756.271	0.0165717
756.349	0.0163623
756.427	0.0162661
756.505	0.0163025
756.583	0.0163120
756.661	0.0161349
756.739	0.0159747
756.817	0.0160203
756.896	0.0162617
756.974	0.0162833
757.052	0.0163689
757.130	0.0161926
757.208	0.0163470
757.286	0.0163937
757.364	0.0164301
757.442	0.0164135
757.521	0.0164780
757.599	0.0165748
757.677	0.0166397
757.755	0.0165264
757.833	0.0167039
757.911	0.0166959
757.989	0.0166404
758.067	0.0165510
758.146	0.0166824
758.224	0.0167119
758.302	0.0165912
758.380	0.0164590
758.458	0.0165369
758.536	0.0164854
758.614	0.0164643
758.692	0.0163901
758.771	0.0164124
758.849	0.0163699
758.927	0.0162152
759.005	0.0162406
759.083	0.0161689
759.161	0.0161293
759.239	0.0162055
759.317	0.0161395
759.396	0.0162041
759.474	0.0161178
759.552	0.0163161
759.630	0.0161550
759.708	0.0161053
759.786	0.0162666
759.864	0.0162778
759.942	0.0162290
760.021	0.0163591
760.099	0.0165288
760.177	0.0166268
760.255	0.0164999
760.333	0.0167010
760.411	0.0167752
760.489	0.0168551
760.567	0.0169292
760.646	0.0168219
760.724	0.0167087
760.802	0.0168935
760.880	0.0167674
760.958	0.0167156
761.036	0.0166642
761.114	0.0167119
761.192	0.0166140
761.271	0.0166119
761.349	0.0165041
761.427	0.0163920
761.505	0.0165533
761.583	0.0163942
761.661	0.0162779
761.739	0.0162422
761.817	0.0164275
761.896	0.0164516
761.974	0.0162820
762.052	0.0164011
762.130	0.0165205
762.208	0.0165469
762.286	0.0164946
762.364	0.0164331
762.442	0.0165052
762.521	0.0164410
762.599	0.0163340
762.677	0.0163978
762.755	0.0165309
762.833	0.0164760
762.911	0.0163446
762.989	0.0163603
763.067	0.0165430
763.146	0.0164581
763.224	0.0164711
763.302	0.0165839
763.380	0.0166158
763.458	0.0165897
763.536	0.0166397
763.614	0.0165314
763.692	0.0167281
763.771	0.0167130
763.849	0.0166783
763.927	0.0166843
764.005	0.0167192
764.083	0.0167474
764.161	0.0167736
764.239	0.0167204
764.317	0.0166517
764.396	0.0165693
764.474	0.0165656
764.552	0.0167141
764.630	0.0164374
764.708	0.0163441
764.786	0.0162978
764.864	0.0162386
764.942	0.0163995
765.021	0.0161734
765.099	0.0163124
765.177	0.0162276
765.255	0.0163049
765.333	0.0163217
765.411	0.0161912
765.489	0.0162337
765.567	0.0163506
765.646	0.0164088
765.724	0.0163236
765.802	0.0163811
765.880	0.0162839
765.958	0.0165366
766.036	0.0163612
766.114	0.0163623
766.192	0.0163937
766.271	0.0166692
766.349	0.0164532
766.427	0.0165123
766.505	0.0164839
766.583	0.0164899
766.661	0.0164468
766.739	0.0164510
766.817	0.0164437
766.896	0.0164641
766.974	0.0164896
767.052	0.0166386
767.130	0.0165021
767.208	0.0163401
767.286	0.0164884
767.364	0.0165601
767.442	0.0163937
767.521	0.0166071
767.599	0.0165254
767.677	0.0165112
767.755	0.0164998
767.833	0.0163656
767.911	0.0162937
767.989	0.0162749
768.067	0.0163807
768.146	0.0163796
768.224	0.0162836
768.302	0.0163565
768.380	0.0163900
768.458	0.0164440
768.536	0.0163993
768.614	0.0162585
768.692	0.0164333
768.771	0.0164552
768.849	0.0161986
768.927	0.0165128
769.005	0.0164465
769.083	0.0164571
769.161	0.0164495
769.239	0.0165042
769.317	0.0164736
769.396	0.0164658
769.474	0.0165228
769.552	0.0165455
769.630	0.0165150
769.708	0.0165663
769.786	0.0164342
769.864	0.0164828
769.942	0.0166328
770.021	0.0165585
770.099	0.0165437
770.177	0.0165367
770.255	0.0166994
770.333	0.0166434
770.411	0.0165891
770.489	0.0163988
770.567	0.0164774
770.646	0.0164692
770.724	0.0163840
770.802	0.0163860
770.880	0.0164233
770.958	0.0163168
771.036	0.0163479
771.114	0.0164078
771.192	0.0162242
771.271	0.0163024
771.349	0.0164192
771.427	0.0161850
771.505	0.0160748
771.583	0.0163176
771.661	0.0163242
771.739	0.0162830
771.817	0.0163453
771.896	0.0163756
771.974	0.0163888
772.052	0.0162381
772.130	0.0165544
772.208	0.0164670
772.286	0.0164999
772.364	0.0165739
772.442	0.0165169
772.521	0.0165956
772.599	0.0165588
772.677	0.0166376
772.755	0.0166890
772.833	0.0165332
772.911	0.0166407
772.989	0.0165099
773.067	0.0166716
773.146	0.0165654
773.224	0.0164180
773.302	0.0163493
773.380	0.0164945
773.458	0.0163953
773.536	0.0162413
773.614	0.0165114
773.692	0.0162838
773.771	0.0162727
773.849	0.0162681
773.927	0.0162495
774.005	0.0163146
774.083	0.0163667
774.161	0.0163389
774.239	0.0164954
774.317	0.0163290
774.396	0.0163010
774.474	0.0162990
774.552	0.0163159
774.630	0.0163323
774.708	0.0162280
774.786	0.0164043
774.864	0.0163507
774.942	0.0163467
775.021	0.0164426
775.099	0.0163162
775.177	0.0163338
775.255	0.0164144
775.333	0.0164806
775.411	0.0163868
775.489	0.0164746
775.567	0.0164495
775.646	0.0164238
775.724	0.0165263
775.802	0.0163819
775.880	0.0164294
775.958	0.0164760
776.036	0.0164684
776.114	0.0165331
776.192	0.0165685
776.271	0.0165243
776.349	0.0165446
776.427	0.0166359
776.505	0.0165836
776.583	0.0166275
776.661	0.0166322
776.739	0.0166855
776.817	0.0166222
776.896	0.0166709
776.974	0.0167506
777.052	0.0167646
777.130	0.0164848
777.208	0.0166167
777.286	0.0165976
777.364	0.0165986
777.442	0.0165119
777.521	0.0165358
777.599	0.0165694
777.677	0.0165572
777.755	0.0163368
777.833	0.0163090
777.911	0.0163135
777.989	0.0162688
778.067	0.0162064
778.146	0.0162399
778.224	0.0161583
778.302	0.0162126
778.380	0.0162062
778.458	0.0162264
778.536	0.0162191
778.614	0.0161621
778.692	0.0163475
778.771	0.0162787
778.849	0.0163910
778.927	0.0164528
779.005	0.0163832
779.083	0.0163788
779.161	0.0164725
779.239	0.0164748
779.317	0.0165868
779.396	0.0165279
779.474	0.0164766
779.552	0.0166159
779.630	0.0164507
779.708	0.0164523
779.786	0.0166106
779.864	0.0164632
779.942	0.0164956
780.021	0.0164157
780.099	0.0165258
780.177	0.0165107
780.255	0.0164711
780.333	0.0164234
780.411	0.0162775
780.489	0.0165629
780.567	0.0164700
780.646	0.0163912
780.724	0.0164758
780.802	0.0164674
780.880	0.0163909
780.958	0.0164361
781.036	0.0164539
781.114	0.0163506
781.192	0.0164397
781.271	0.0163668
781.349	0.0163018
781.427	0.0164385
781.505	0.0162765
781.583	0.0163492
781.661	0.0162833
781.739	0.0164170
781.817	0.0163539
781.896	0.0163106
781.974	0.0164227
782.052	0.0163151
782.130	0.0161663
782.208	0.0163435
782.286	0.0163195
782.364	0.0162399
782.442	0.0162970
782.521	0.0164525
782.599	0.0163355
782.677	0.0164079
782.755	0.0162496
782.833	0.0163013
782.911	0.0164375
782.989	0.0163750
783.067	0.0163474
783.146	0.0164445
783.224	0.0165041
783.302	0.0164912
783.380	0.0164026
783.458	0.0164388
783.536	0.0164504
783.614	0.0165092
783.692	0.0164987
783.771	0.0165820
783.849	0.0165720
783.927	0.0165087
784.005	0.0166734
784.083	0.0166449
784.161	0.0166038
784.239	0.0165772
784.317	0.0166506
784.396	0.0166465
784.474	0.0166735
784.552	0.0164938
784.630	0.0164120
784.708	0.0164808
784.786	0.0165686
784.864	0.0164436
784.942	0.0163914
785.021	0.0164469
785.099	0.0163503
785.177	0.0162917
785.255	0.0162481
785.333	0.0163474
785.411	0.0163522
785.489	0.0163760
785.567	0.0163112
785.646	0.0163085
785.724	0.0164275
785.802	0.0164782
785.880	0.0165090
785.958	0.0166956
786.036	0.0166555
786.114	0.0166016
786.192	0.0167002
786.271	0.0166866
786.349	0.0167017
786.427	0.0167358
786.505	0.0166715
786.583	0.0167858
786.661	0.0167207
786.739	0.0166470
786.817	0.0165199
786.896	0.0167200
786.974	0.0165779
787.052	0.0165226
787.130	0.0164424
787.208	0.0165949
787.286	0.0164501
787.364	0.0163097
787.442	0.0163686
787.521	0.0164874
787.599	0.0164938
787.677	0.0164057
787.755	0.0164999
787.833	0.0164409
787.911	0.0162782
787.989	0.0163516
788.067	0.0162959
788.146	0.0162708
788.224	0.0163602
788.302	0.0164935
788.380	0.0164239
788.458	0.0162024
788.536	0.0162335
788.614	0.0163509
788.692	0.0163042
788.771	0.0163866
788.849	0.0164729
788.927	0.0162969
789.005	0.0163846
789.083	0.0166312
789.161	0.0163368
789.239	0.0163602
789.317	0.0164858
789.396	0.0164457
789.474	0.0163700
789.552	0.0164578
789.630	0.0164223
789.708	0.0164151
789.786	0.0165023
789.864	0.0163624
789.942	0.0165945
790.021	0.0166257
790.099	0.0164905
790.177	0.0164292
790.255	0.0166019
790.333	0.0165820
790.411	0.0165280
790.489	0.0165265
790.567	0.0165480
790.646	0.0165570
790.724	0.0165531
790.802	0.0164668
790.880	0.0165373
790.958	0.0166019
791.036	0.0165416
791.114	0.0166474
791.192	0.0166278
791.271	0.0165882
791.349	0.0166672
791.427	0.0165006
791.505	0.0167184
791.583	0.0166885
791.661	0.0164117
791.739	0.0164726
791.817	0.0164884
791.896	0.0165905
791.974	0.0163778
792.052	0.0162283
792.130	0.0162080
792.208	0.0165520
792.286	0.0163338
792.364	0.0164244
792.442	0.0164973
792.521	0.0162594
792.599	0.0162896
792.677	0.0163960
792.755	0.0163889
792.833	0.0163209
792.911	0.0163538
792.989	0.0163908
793.067	0.0163928
793.146	0.0164075
793.224	0.0163921
793.302	0.0164707
793.380	0.0164178
793.458	0.0162270
793.536	0.0163986
793.614	0.0164886
793.692	0.0162775
793.771	0.0164487
793.849	0.0164799
793.927	0.0162931
794.005	0.0164783
794.083	0.0163368
794.161	0.0164574
794.239	0.0164516
794.317	0.0165157
794.396	0.0165369
794.474	0.0165702
794.552	0.0165543
794.630	0.0165878
794.708	0.0166980
794.786	0.0164404
794.864	0.0164911
794.942	0.0166530
795.021	0.0165629
795.099	0.0164844
795.177	0.0164662
795.255	0.0165070
795.333	0.0163210
795.411	0.0164622
795.489	0.0163461
795.567	0.0163173
795.646	0.0164160
795.724	0.0163703
795.802	0.0162917
795.880	0.0162717
795.958	0.0163725
796.036	0.0163689
796.114	0.0163771
796.192	0.0163703
796.271	0.0163139
796.349	0.0163521
796.427	0.0163560
796.505	0.0164609
796.583	0.0166447
796.661	0.0165702
796.739	0.0165616
796.817	0.0166847
796.896	0.0166599
796.974	0.0166675
797.052	0.0166519
797.130	0.0166399
797.208	0.0167594
797.286	0.0166276
797.364	0.0166523
797.442	0.0164613
797.521	0.0166277
797.599	0.0164995
797.677	0.0165086
797.755	0.0165729
797.833	0.0166759
797.911	0.0164787
797.989	0.0165677
798.067	0.0164768
798.146	0.0164095
798.224	0.0165199
798.302	0.0164761
798.380	0.0164672
798.458	0.0164739
798.536	0.0163718
798.614	0.0162992
798.692	0.0163447
798.771	0.0164092
798.849	0.0164047
798.927	0.0162038
799.005	0.0163803
799.083	0.0165177
799.161	0.0165756
799.239	0.0164491
799.317	0.0163388
799.396	0.0163910
799.474	0.0164847
799.552	0.0163155
799.630	0.0165099
799.708	0.0164661
799.786	0.0164394
799.864	0.0164713
799.942	0.0164952
800.021	0.0163338
800.099	0.0165033
800.177	0.0164915
800.255	0.0164602
800.333	0.0164873
800.411	0.0163782
800.489	0.0163850
800.567	0.0165034
800.646	0.0165297
800.724	0.0165520
800.802	0.0166010
800.880	0.0165591
800.958	0.0165095
801.036	0.0164455
801.114	0.0165411
801.192	0.0165963
801.271	0.0165379
801.349	0.0165893
801.427	0.0165410
801.505	0.0164797
801.583	0.0164830
801.661	0.0163426
801.739	0.0163912
801.817	0.0164585
801.896	0.0163139
801.974	0.0163627
802.052	0.0162309
802.130	0.0163153
802.208	0.0161715
802.286	0.0162461
802.364	0.0162829
802.442	0.0161970
802.521	0.0162560
802.599	0.0162762
802.677	0.0162974
802.755	0.0162852
802.833	0.0162601
802.911	0.0164151
802.989	0.0163231
803.067	0.0163850
803.146	0.0164117
803.224	0.0163965
803.302	0.0165202
803.380	0.0165508
803.458	0.0164336
803.536	0.0165283
803.614	0.0164497
803.692	0.0163932
803.771	0.0165977
803.849	0.0164452
803.927	0.0164558
804.005	0.0164764
804.083	0.0163524
804.161	0.0164048
804.239	0.0163372
804.317	0.0164590
804.396	0.0164437
804.474	0.0165179
804.552	0.0163419
804.630	0.0164097
804.708	0.0164709
804.786	0.0164369
804.864	0.0164455
804.942	0.0165099
805.021	0.0165096
805.099	0.0165826
805.177	0.0165450
805.255	0.0167696
805.333	0.0166857
805.411	0.0167577
805.489	0.0167375
805.567	0.0166346
805.646	0.0166052
805.724	0.0164807
805.802	0.0165196
805.880	0.0165297
805.958	0.0165319
806.036	0.0165215
806.114	0.0164341
806.192	0.0165559
806.271	0.0164063
806.349	0.0163206
806.427	0.0162800
806.505	0.0163348
806.583	0.0164349
806.661	0.0164450
806.739	0.0164323
806.817	0.0165456
806.896	0.0164628
806.974	0.0165588
807.052	0.0165129
807.130	0.0166547
807.208	0.0166547
807.286	0.0166145
807.364	0.0165354
807.442	0.0165357
807.521	0.0165215
807.599	0.0164069
807.677	0.0165921
807.755	0.0166222
807.833	0.0165324
807.911	0.0163418
807.989	0.0164189
808.067	0.0165079
808.146	0.0164513
808.224	0.0164798
808.302	0.0164514
808.380	0.0164963
808.458	0.0164065
808.536	0.0165763
808.614	0.0166167
808.692	0.0165475
808.771	0.0165336
808.849	0.0165970
808.927	0.0166006
809.005	0.0167046
809.083	0.0166681
809.161	0.0166103
809.239	0.0165849
809.317	0.0166394
809.396	0.0166362
809.474	0.0166022
809.552	0.0165514
809.630	0.0165290
809.708	0.0165760
809.786	0.0165755
809.864	0.0165219
809.942	0.0165116
810.021	0.0164669
810.099	0.0162660
810.177	0.0164109
810.255	0.0163662
810.333	0.0163501
810.411	0.0161829
810.489	0.0160320
810.567	0.0161387
810.646	0.0163611
810.724	0.0161990
810.802	0.0163197
810.880	0.0162885
810.958	0.0164676
811.036	0.0163587
811.114	0.0165331
811.192	0.0165431
811.271	0.0164349
811.349	0.0165007
811.427	0.0165598
811.505	0.0167513
811.583	0.0165905
811.661	0.0165824
811.739	0.0166154
811.817	0.0165245
811.896	0.0165250
811.974	0.0166085
812.052	0.0165589
812.130	0.0165466
812.208	0.0166241
812.286	0.0164573
812.364	0.0166113
812.442	0.0164893
812.521	0.0165292
812.599	0.0165047
812.677	0.0164192
812.755	0.0165145
812.833	0.0163764
812.911	0.0164443
812.989	0.0163180
813.067	0.0163839
813.146	0.0164504
813.224	0.0164140
813.302	0.0163855
813.380	0.0163829
813.458	0.0165678
813.536	0.0164434
813.614	0.0164787
813.692	0.0164798
813.771	0.0163496
813.849	0.0163942
813.927	0.0163743
814.005	0.0163746
814.083	0.0163142
814.161	0.0164289
814.239	0.0163058
814.317	0.0164882
814.396	0.0163896
814.474	0.0163817
814.552	0.0162627
814.630	0.0163789
814.708	0.0163490
814.786	0.0162558
814.864	0.0162752
814.942	0.0162968
815.021	0.0164117
815.099	0.0164203
815.177	0.0164846
815.255	0.0164721
815.333	0.0165478
815.411	0.0165142
815.489	0.0165580
815.567	0.0166881
815.646	0.0164389
815.724	0.0164941
815.802	0.0165563
815.880	0.0164085
815.958	0.0165181
816.036	0.0166019
816.114	0.0164185
816.192	0.0164363
816.271	0.0164540
816.349	0.0166135
816.427	0.0166589
816.505	0.0165035
816.583	0.0166193
816.661	0.0164646
816.739	0.0164300
816.817	0.0164541
816.896	0.0163792
816.974	0.0163977
817.052	0.0164255
817.130	0.0163799
817.208	0.0163290
817.286	0.0163495
817.364	0.0165557
817.442	0.0163109
817.521	0.0163665
817.599	0.0162657
817.677	0.0162721
817.755	0.0165127
817.833	0.0163954
817.911	0.0164871
817.989	0.0164011
818.067	0.0165900
818.146	0.0164473
818.224	0.0162392
818.302	0.0164335
818.380	0.0165678
818.458	0.0163699
818.536	0.0166001
818.614	0.0165932
818.692	0.0164089
818.771	0.0165022
818.849	0.0164178
818.927	0.0164805
819.005	0.0165760
819.083	0.0164621
819.161	0.0165900
819.239	0.0165716
819.317	0.0165601
819.396	0.0164267
819.474	0.0165969
819.552	0.0166376
819.630	0.0165092
819.708	0.0165914
819.786	0.0165321
819.864	0.0165603
819.942	0.0164282
820.021	0.0164956
820.099	0.0163855
820.177	0.0164754
820.255	0.0165805
820.333	0.0164758
820.411	0.0164700
820.489	0.0165156
820.567	0.0164948
820.646	0.0166697
820.724	0.0165108
820.802	0.0165920
820.880	0.0165737
820.958	0.0164764
821.036	0.0165144
821.114	0.0165209
821.192	0.0164187
821.271	0.0164316
821.349	0.0165846
821.427	0.0165866
821.505	0.0164816
821.583	0.0164761
821.661	0.0164798
821.739	0.0164059
821.817	0.0165221
821.896	0.0164990
821.974	0.0164575
822.052	0.0165927
822.130	0.0165764
822.208	0.0165753
822.286	0.0164238
822.364	0.0163364
822.442	0.0164888
822.521	0.0165633
822.599	0.0166383
822.677	0.0164907
822.755	0.0165151
822.833	0.0165543
822.911	0.0164867
822.989	0.0164960
823.067	0.0165072
823.146	0.0164393
823.224	0.0163499
823.302	0.0163510
823.380	0.0165301
823.458	0.0163454
823.536	0.0163511
823.614	0.0162922
823.692	0.0165027
823.771	0.0164274
823.849	0.0162514
823.927	0.0163994
824.005	0.0163609
824.083	0.0163833
824.161	0.0162829
824.239	0.0164156
824.317	0.0164279
824.396	0.0163313
824.474	0.0163374
824.552	0.0164371
824.630	0.0164503
824.708	0.0165228
824.786	0.0164162
824.864	0.0165523
824.942	0.0164540
825.021	0.0164746
825.099	0.0165835
825.177	0.0164070
825.255	0.0164687
825.333	0.0166680
825.411	0.0165172
825.489	0.0165324
825.567	0.0164758
825.646	0.0164867
825.724	0.0166051
825.802	0.0164190
825.880	0.0165925
825.958	0.0166106
826.036	0.0165511
826.114	0.0164431
826.192	0.0164066
826.271	0.0164964
826.349	0.0165155
826.427	0.0165865
826.505	0.0164645
826.583	0.0165472
826.661	0.0164765
826.739	0.0165602
826.817	0.0164316
826.896	0.0164336
826.974	0.0164661
827.052	0.0164688
827.130	0.0164661
827.208	0.0163699
827.286	0.0164035
827.364	0.0164552
827.442	0.0164136
827.521	0.0163045
827.599	0.0163979
827.677	0.0162978
827.755	0.0164555
827.833	0.0163750
827.911	0.0163357
827.989	0.0164201
828.067	0.0163899
828.146	0.0162972
828.224	0.0162887
828.302	0.0163578
828.380	0.0162462
828.458	0.0163268
828.536	0.0164265
828.614	0.0162301
828.692	0.0161872
828.771	0.0162205
828.849	0.0163517
828.927	0.0162749
829.005	0.0162942
829.083	0.0164567
829.161	0.0163113
829.239	0.0162402
829.317	0.0164509
829.396	0.0164906
829.474	0.0165034
829.552	0.0165216
829.630	0.0164109
829.708	0.0164177
829.786	0.0165471
829.864	0.0165651
829.942	0.0164307
830.021	0.0166525
830.099	0.0165127
830.177	0.0166082
830.255	0.0165255
830.333	0.0165415
830.411	0.0166436
830.489	0.0166628
830.567	0.0166218
830.646	0.0165742
830.724	0.0164479
830.802	0.0165018
830.880	0.0166354
830.958	0.0166619
831.036	0.0166645
831.114	0.0165139
831.192	0.0165554
831.271	0.0166305
831.349	0.0165041
831.427	0.0165062
831.505	0.0166341
831.583	0.0164316
831.661	0.0163532
831.739	0.0165085
831.817	0.0164370
831.896	0.0163155
831.974	0.0163635
832.052	0.0163942
832.130	0.0164252
832.208	0.0163833
832.286	0.0164231
832.364	0.0164149
832.442	0.0163471
832.521	0.0165445
832.599	0.0162397
832.677	0.0164607
832.755	0.0165001
832.833	0.0164076
832.911	0.0165585
832.989	0.0165707
833.067	0.0165206
833.146	0.0166465
833.224	0.0165384
833.302	0.0165665
833.380	0.0164211
833.458	0.0165457
833.536	0.0164955
833.614	0.0164232
833.692	0.0165331
833.771	0.0164527
833.849	0.0164586
833.927	0.0165549
834.005	0.0165030
834.083	0.0163517
834.161	0.0164150
834.239	0.0164419
834.317	0.0162975
834.396	0.0162659
834.474	0.0164473
834.552	0.0165079
834.630	0.0163747
834.708	0.0163708
834.786	0.0163259
834.864	0.0164647
834.942	0.0163472
835.021	0.0163854
835.099	0.0164060
835.177	0.0162000
835.255	0.0163210
835.333	0.0163892
835.411	0.0164764
835.489	0.0163565
835.567	0.0163059
835.646	0.0163129
835.724	0.0164154
835.802	0.0164157
835.880	0.0163204
835.958	0.0163504
836.036	0.0164825
836.114	0.0163338
836.192	0.0164369
836.271	0.0164430
836.349	0.0164086
836.427	0.0163811
836.505	0.0164945
836.583	0.0165964
836.661	0.0164690
836.739	0.0164708
836.817	0.0164874
836.896	0.0164182
836.974	0.0165517
837.052	0.0165802
837.130	0.0165783
837.208	0.0165750
837.286	0.0164843
837.364	0.0167075
837.442	0.0167177
837.521	0.0166704
837.599	0.0166130
837.677	0.0167007
837.755	0.0167323
837.833	0.0166705
837.911	0.0166961
837.989	0.0167050
838.067	0.0168215
838.146	0.0167780
838.224	0.0167519
838.302	0.0167609
838.380	0.0167638
838.458	0.0168056
838.536	0.0165034
838.614	0.0165186
838.692	0.0166410
838.771	0.0165971
838.849	0.0165608
838.927	0.0164101
839.005	0.0164621
839.083	0.0162797
839.161	0.0162547
839.239	0.0161337
839.317	0.0163307
839.396	0.0162894
839.474	0.0161830
839.552	0.0160288
839.630	0.0160480
839.708	0.0162968
839.786	0.0161045
839.864	0.0160316
839.942	0.0161831
840.021	0.0162111
840.099	0.0162756
840.177	0.0162746
840.255	0.0162874
840.333	0.0164731
840.411	0.0164929
840.489	0.0163657
840.567	0.0166116
840.646	0.0165887
840.724	0.0166739
840.802	0.0166495
840.880	0.0166673
840.958	0.0166186
841.036	0.0167543
841.114	0.0166199
841.192	0.0165343
841.271	0.0164672
841.349	0.0167387
841.427	0.0167183
841.505	0.0165025
841.583	0.0165269
841.661	0.0164956
841.739	0.0165115
841.817	0.0165445
841.896	0.0164256
841.974	0.0166743
842.052	0.0165413
842.130	0.0164383
842.208	0.0165858
842.286	0.0165556
842.364	0.0165396
842.442	0.0165602
842.521	0.0165402
842.599	0.0165405
842.677	0.0166064
842.755	0.0165856
842.833	0.0165015
842.911	0.0166139
842.989	0.0164554
843.067	0.0164666
843.146	0.0163448
843.224	0.0164059
843.302	0.0163617
843.380	0.0162824
843.458	0.0163197
843.536	0.0164402
843.614	0.0162694
843.692	0.0162379
843.771	0.0163046
843.849	0.0162833
843.927	0.0164139
844.005	0.0164092
844.083	0.0163815
844.161	0.0165399
844.239	0.0166087
844.317	0.0164501
844.396	0.0165999
844.474	0.0166248
844.552	0.0164014
844.630	0.0165933
844.708	0.0166683
844.786	0.0166475
844.864	0.0166306
844.942	0.0165781
845.021	0.0166346
845.099	0.0165128
845.177	0.0165102
845.255	0.0165810
845.333	0.0165623
845.411	0.0165570
845.489	0.0165264
845.567	0.0166092
845.646	0.0166000
845.724	0.0165689
845.802	0.0165830
845.880	0.0166155
845.958	0.0164494
846.036	0.0165137
846.114	0.0165224
846.192	0.0164389
846.271	0.0165056
846.349	0.0165414
846.427	0.0164221
846.505	0.0162858
846.583	0.0163734
846.661	0.0163802
846.739	0.0162887
846.817	0.0163898
846.896	0.0163876
846.974	0.0163364
847.052	0.0163782
847.130	0.0163611
847.208	0.0163940
847.286	0.0164172
847.364	0.0164165
847.442	0.0164748
847.521	0.0163587
847.599	0.0163760
847.677	0.0162180
847.755	0.0164974
847.833	0.0165750
847.911	0.0164732
847.989	0.0164064
848.067	0.0164410
848.146	0.0165459
848.224	0.0165912
848.302	0.0165331
848.380	0.0165688
848.458	0.0164663
848.536	0.0166553
848.614	0.0164503
848.692	0.0163438
848.771	0.0164324
848.849	0.0165569
848.927	0.0165367
849.005	0.0164449
849.083	0.0163889
849.161	0.0164446
849.239	0.0166576
849.317	0.0165002
849.396	0.0163345
849.474	0.0165749
849.552	0.0166523
849.630	0.0166664
849.708	0.0166315
849.786	0.0165047
849.864	0.0165981
849.942	0.0167459
850.021	0.0166177
850.099	0.0165099
850.177	0.0165942
850.255	0.0166724
850.333	0.0163987
850.411	0.0166067
850.489	0.0166691
850.567	0.0164958
850.646	0.0165821
850.724	0.0163892
850.802	0.0164003
850.880	0.0163895
850.958	0.0164844
851.036	0.0163878
851.114	0.0164041
851.192	0.0164428
851.271	0.0163745
851.349	0.0164373
851.427	0.0162636
851.505	0.0164798
851.583	0.0163371
851.661	0.0164178
851.739	0.0163312
851.817	0.0163182
851.896	0.0165160
851.974	0.0163850
852.052	0.0164700
852.130	0.0164105
852.208	0.0163482
852.286	0.0163285
852.364	0.0164585
852.442	0.0164643
852.521	0.0162717
852.599	0.0162842
852.677	0.0165265
852.755	0.0165341
852.833	0.0165276
852.911	0.0162351
852.989	0.0163611
853.067	0.0165635
853.146	0.0164816
853.224	0.0165249
853.302	0.0164521
853.380	0.0164584
853.458	0.0164924
853.536	0.0165699
853.614	0.0165165
853.692	0.0165233
853.771	0.0164280
853.849	0.0162906
853.927	0.0163728
854.005	0.0165154
854.083	0.0165360
854.161	0.0164183
854.239	0.0163908
854.317	0.0164250
854.396	0.0165093
854.474	0.0164474
854.552	0.0165237
854.630	0.0164117
854.708	0.0163381
854.786	0.0163835
854.864	0.0164304
854.942	0.0164652
855.021	0.0165034
855.099	0.0164948
855.177	0.0165137
855.255	0.0165210
855.333	0.0164967
855.411	0.0165377
855.489	0.0165519
855.567	0.0165408
855.646	0.0165027
855.724	0.0165559
855.802	0.0165434
855.880	0.0163763
855.958	0.0163803
856.036	0.0164210
856.114	0.0164060
856.192	0.0165059
856.271	0.0163689
856.349	0.0162989
856.427	0.0164169
856.505	0.0163577
856.583	0.0165751
856.661	0.0164610
856.739	0.0164724
856.817	0.0164971
856.896	0.0164729
856.974	0.0164590
857.052	0.0163314
857.130	0.0164807
857.208	0.0164408
857.286	0.0165348
857.364	0.0164864
857.442	0.0165927
857.521	0.0165116
857.599	0.0165520
857.677	0.0163705
857.755	0.0165704
857.833	0.0165412
857.911	0.0165637
857.989	0.0165218
858.067	0.0166032
858.146	0.0167268
858.224	0.0165682
858.302	0.0166226
858.380	0.0167398
858.458	0.0166113
858.536	0.0167356
858.614	0.0166967
858.692	0.0167594
858.771	0.0167059
858.849	0.0166085
858.927	0.0166608
859.005	0.0167669
859.083	0.0166663
859.161	0.0166476
859.239	0.0166810
859.317	0.0165901
859.396	0.0165789
859.474	0.0164930
859.552	0.0163808
859.630	0.0163925
859.708	0.0164568
859.786	0.0163240
859.864	0.0164642
859.942	0.0164347
860.021	0.0162602
860.099	0.0162811
860.177	0.0162643
860.255	0.0163768
860.333	0.0162747
860.411	0.0163761
860.489	0.0163055
860.567	0.0163603
860.646	0.0163530
860.724	0.0164597
860.802	0.0165108
860.880	0.0164403
860.958	0.0165556
861.036	0.0165160
861.114	0.0165975
861.192	0.0165430
861.271	0.0165644
861.349	0.0165221
861.427	0.0164865
861.505	0.0166530
861.583	0.0164828
861.661	0.0164289
861.739	0.0165591
861.817	0.0165061
861.896	0.0164700
861.974	0.0164874
862.052	0.0164400
862.130	0.0164960
862.208	0.0164382
862.286	0.0164825
862.364	0.0162222
862.442	0.0164291
862.521	0.0164599
862.599	0.0164256
862.677	0.0164747
862.755	0.0165222
862.833	0.0164670
862.911	0.0165328
862.989	0.0164077
863.067	0.0165257
863.146	0.0164879
863.224	0.0165695
863.302	0.0165792
863.380	0.0165566
863.458	0.0163856
863.536	0.0165081
863.614	0.0164854
863.692	0.0165588
863.771	0.0164936
863.849	0.0164011
863.927	0.0164456
864.005	0.0165296
864.083	0.0164558
864.161	0.0164608
864.239	0.0162640
864.317	0.0164847
864.396	0.0164733
864.474	0.0164317
864.552	0.0166040
864.630	0.0164807
864.708	0.0164230
864.786	0.0164776
864.864	0.0165340
864.942	0.0165561
865.021	0.0165625
865.099	0.0165501
865.177	0.0165624
865.255	0.0164991
865.333	0.0167315
865.411	0.0166601
865.489	0.0164317
865.567	0.0165565
865.646	0.0165070
865.724	0.0165485
865.802	0.0166434
865.880	0.0166102
865.958	0.0164577
866.036	0.0165948
866.114	0.0164157
866.192	0.0165568
866.271	0.0164946
866.349	0.0164275
866.427	0.0164730
866.505	0.0164022
866.583	0.0164100
866.661	0.0165100
866.739	0.0165450
866.817	0.0165919
866.896	0.0164811
866.974	0.0164866
867.052	0.0164594
867.130	0.0163973
867.208	0.0165102
867.286	0.0166776
867.364	0.0166278
867.442	0.0165285
867.521	0.0165701
867.599	0.0165089
867.677	0.0163867
867.755	0.0165444
867.833	0.0165985
867.911	0.0166052
867.989	0.0165257
868.067	0.0163811
868.146	0.0164869
868.224	0.0164449
868.302	0.0165256
868.380	0.0166559
868.458	0.0164137
868.536	0.0166036
868.614	0.0164815
868.692	0.0164149
868.771	0.0164294
868.849	0.0164159
868.927	0.0164854
869.005	0.0165446
869.083	0.0166193
869.161	0.0165123
869.239	0.0164709
869.317	0.0165140
869.396	0.0165514
869.474	0.0165050
869.552	0.0164485
869.630	0.0165150
869.708	0.0166476
869.786	0.0165887
869.864	0.0165851
869.942	0.0165664
