06/03/2022	16:01:17	Ver.	4.1	UNKNOWN
Optical Delay	550.020508	Delta X		0.078125	Sweeps	1	Scan Rate	0/0
Coordinates	Axis 1	NaN	Axis 2	NaN	Axis 3	NaN	Axis 4	NaN	Axis 5	NaN	Axis 6	0.000000
TX Power	0.000000	RX Power	0.000000

550.021	0.0167860
550.099	0.0165856
550.177	0.0166790
550.255	0.0166315
550.333	0.0166188
550.411	0.0167072
550.489	0.0167048
550.567	0.0167181
550.646	0.0166456
550.724	0.0167149
550.802	0.0167227
550.880	0.0167432
550.958	0.0166041
551.036	0.0166806
551.114	0.0167056
551.192	0.0167313
551.271	0.0166798
551.349	0.0166664
551.427	0.0166352
551.505	0.0167073
551.583	0.0167150
551.661	0.0166900
551.739	0.0168336
551.817	0.0167517
551.896	0.0165955
551.974	0.0165892
552.052	0.0166057
552.130	0.0166619
552.208	0.0166089
552.286	0.0167682
552.364	0.0167944
552.442	0.0166508
552.521	0.0165900
552.599	0.0166526
552.677	0.0165588
552.755	0.0166518
552.833	0.0167362
552.911	0.0167496
552.989	0.0166264
553.067	0.0167431
553.146	0.0167262
553.224	0.0166145
553.302	0.0166325
553.380	0.0165823
553.458	0.0167062
553.536	0.0166239
553.614	0.0166477
553.692	0.0165280
553.771	0.0166850
553.849	0.0167617
553.927	0.0166404
554.005	0.0166008
554.083	0.0166843
554.161	0.0165318
554.239	0.0166322
554.317	0.0167094
554.396	0.0166437
554.474	0.0165173
554.552	0.0167001
554.630	0.0165985
554.708	0.0167833
554.786	0.0166532
554.864	0.0167011
554.942	0.0166829
555.021	0.0166818
555.099	0.0166234
555.177	0.0167059
555.255	0.0167936
555.333	0.0167586
555.411	0.0166608
555.489	0.0167836
555.567	0.0165900
555.646	0.0166670
555.724	0.0165673
555.802	0.0166528
555.880	0.0167156
555.958	0.0167238
556.036	0.0167055
556.114	0.0167361
556.192	0.0166911
556.271	0.0167413
556.349	0.0166390
556.427	0.0165697
556.505	0.0166728
556.583	0.0167359
556.661	0.0166362
556.739	0.0166567
556.817	0.0167361
556.896	0.0167028
556.974	0.0167878
557.052	0.0167613
557.130	0.0167509
557.208	0.0167797
557.286	0.0167066
557.364	0.0167528
557.442	0.0166160
557.521	0.0166542
557.599	0.0167227
557.677	0.0166698
557.755	0.0166859
557.833	0.0167039
557.911	0.0168067
557.989	0.0168034
558.067	0.0167131
558.146	0.0166158
558.224	0.0167317
558.302	0.0168251
558.380	0.0166771
558.458	0.0166486
558.536	0.0166681
558.614	0.0168793
558.692	0.0167702
558.771	0.0166293
558.849	0.0166876
558.927	0.0167631
559.005	0.0167492
559.083	0.0167884
559.161	0.0166454
559.239	0.0168352
559.317	0.0167927
559.396	0.0167477
559.474	0.0166806
559.552	0.0167939
559.630	0.0167592
559.708	0.0167000
559.786	0.0166840
559.864	0.0168053
559.942	0.0167422
560.021	0.0166747
560.099	0.0167726
560.177	0.0167569
560.255	0.0167765
560.333	0.0168427
560.411	0.0167483
560.489	0.0166267
560.567	0.0167541
560.646	0.0167073
560.724	0.0166232
560.802	0.0168040
560.880	0.0168500
560.958	0.0165993
561.036	0.0166592
561.114	0.0167928
561.192	0.0166724
561.271	0.0166751
561.349	0.0167881
561.427	0.0166278
561.505	0.0166453
561.583	0.0166504
561.661	0.0167453
561.739	0.0165920
561.817	0.0167345
561.896	0.0166607
561.974	0.0166530
562.052	0.0166130
562.130	0.0166656
562.208	0.0166332
562.286	0.0167387
562.364	0.0166174
562.442	0.0165864
562.521	0.0164945
562.599	0.0166867
562.677	0.0166813
562.755	0.0165893
562.833	0.0166908
562.911	0.0168768
562.989	0.0165571
563.067	0.0166892
563.146	0.0167123
563.224	0.0165686
563.302	0.0166942
563.380	0.0166637
563.458	0.0165855
563.536	0.0166584
563.614	0.0166104
563.692	0.0166403
563.771	0.0165205
563.849	0.0166553
563.927	0.0166534
564.005	0.0166615
564.083	0.0166337
564.161	0.0166991
564.239	0.0166347
564.317	0.0165509
564.396	0.0164832
564.474	0.0165409
564.552	0.0166584
564.630	0.0166436
564.708	0.0166188
564.786	0.0165380
564.864	0.0164681
564.942	0.0166026
565.021	0.0167568
565.099	0.0166127
565.177	0.0165889
565.255	0.0166382
565.333	0.0167151
565.411	0.0165761
565.489	0.0168082
565.567	0.0167482
565.646	0.0167045
565.724	0.0167090
565.802	0.0166759
565.880	0.0165662
565.958	0.0167227
566.036	0.0167200
566.114	0.0166366
566.192	0.0166559
566.271	0.0168317
566.349	0.0167947
566.427	0.0167028
566.505	0.0166814
566.583	0.0166010
566.661	0.0167709
566.739	0.0166878
566.817	0.0166829
566.896	0.0167584
566.974	0.0166725
567.052	0.0167340
567.130	0.0166239
567.208	0.0166467
567.286	0.0167223
567.364	0.0167210
567.442	0.0165473
567.521	0.0166023
567.599	0.0166740
567.677	0.0166499
567.755	0.0166437
567.833	0.0166766
567.911	0.0167131
567.989	0.0166251
568.067	0.0167068
568.146	0.0167290
568.224	0.0166732
568.302	0.0166179
568.380	0.0166727
568.458	0.0165929
568.536	0.0166962
568.614	0.0166515
568.692	0.0165447
568.771	0.0166335
568.849	0.0166476
568.927	0.0167850
569.005	0.0168243
569.083	0.0168365
569.161	0.0166298
569.239	0.0167506
569.317	0.0167242
569.396	0.0167720
569.474	0.0168584
569.552	0.0167848
569.630	0.0167905
569.708	0.0167988
569.786	0.0166901
569.864	0.0167451
569.942	0.0166839
570.021	0.0166763
570.099	0.0166966
570.177	0.0166549
570.255	0.0167696
570.333	0.0167500
570.411	0.0168236
570.489	0.0166718
570.567	0.0166232
570.646	0.0168943
570.724	0.0169168
570.802	0.0168343
570.880	0.0168251
570.958	0.0168243
571.036	0.0167270
571.114	0.0167467
571.192	0.0167294
571.271	0.0168086
571.349	0.0167427
571.427	0.0166769
571.505	0.0166765
571.583	0.0166503
571.661	0.0168092
571.739	0.0167647
571.817	0.0166853
571.896	0.0166472
571.974	0.0167240
572.052	0.0166897
572.130	0.0166294
572.208	0.0167160
572.286	0.0166896
572.364	0.0167211
572.442	0.0167298
572.521	0.0165970
572.599	0.0167200
572.677	0.0166746
572.755	0.0166769
572.833	0.0166980
572.911	0.0167324
572.989	0.0166727
573.067	0.0167487
573.146	0.0167411
573.224	0.0167486
573.302	0.0166782
573.380	0.0166537
573.458	0.0167300
573.536	0.0167506
573.614	0.0166422
573.692	0.0167462
573.771	0.0166729
573.849	0.0166710
573.927	0.0168144
574.005	0.0168137
574.083	0.0167470
574.161	0.0166570
574.239	0.0166965
574.317	0.0166267
574.396	0.0167060
574.474	0.0165618
574.552	0.0167596
574.630	0.0168160
574.708	0.0165744
574.786	0.0168270
574.864	0.0167155
574.942	0.0164825
575.021	0.0166811
575.099	0.0168397
575.177	0.0168029
575.255	0.0166943
575.333	0.0167188
575.411	0.0167635
575.489	0.0167254
575.567	0.0166509
575.646	0.0167145
575.724	0.0166647
575.802	0.0167207
575.880	0.0166898
575.958	0.0167995
576.036	0.0167442
576.114	0.0166232
576.192	0.0166898
576.271	0.0167720
576.349	0.0166901
576.427	0.0168600
576.505	0.0167665
576.583	0.0166290
576.661	0.0167097
576.739	0.0168061
576.817	0.0167130
576.896	0.0167188
576.974	0.0166899
577.052	0.0167307
577.130	0.0168568
577.208	0.0168358
577.286	0.0166886
577.364	0.0166188
577.442	0.0167151
577.521	0.0166627
577.599	0.0167916
577.677	0.0168188
577.755	0.0167683
577.833	0.0167064
577.911	0.0167216
577.989	0.0166851
578.067	0.0166858
578.146	0.0169105
578.224	0.0167386
578.302	0.0166341
578.380	0.0167877
578.458	0.0167946
578.536	0.0168317
578.614	0.0167179
578.692	0.0167972
578.771	0.0167802
578.849	0.0167936
578.927	0.0169067
579.005	0.0168443
579.083	0.0167588
579.161	0.0167157
579.239	0.0167645
579.317	0.0166640
579.396	0.0167500
579.474	0.0168135
579.552	0.0168743
579.630	0.0167242
579.708	0.0167497
579.786	0.0168432
579.864	0.0168803
579.942	0.0169139
580.021	0.0167278
580.099	0.0167683
580.177	0.0166985
580.255	0.0167821
580.333	0.0167797
580.411	0.0169274
580.489	0.0166529
580.567	0.0168439
580.646	0.0167535
580.724	0.0166856
580.802	0.0168318
580.880	0.0168754
580.958	0.0167788
581.036	0.0167087
581.114	0.0167046
581.192	0.0166808
581.271	0.0168126
581.349	0.0168317
581.427	0.0168394
581.505	0.0167370
581.583	0.0167722
581.661	0.0167625
581.739	0.0168016
581.817	0.0167156
581.896	0.0167583
581.974	0.0167917
582.052	0.0166554
582.130	0.0167199
582.208	0.0167768
582.286	0.0167312
582.364	0.0167774
582.442	0.0167102
582.521	0.0167303
582.599	0.0168095
582.677	0.0168763
582.755	0.0166379
582.833	0.0167519
582.911	0.0167806
582.989	0.0167787
583.067	0.0167834
583.146	0.0167048
583.224	0.0167171
583.302	0.0166657
583.380	0.0165898
583.458	0.0166718
583.536	0.0166978
583.614	0.0166862
583.692	0.0167351
583.771	0.0167664
583.849	0.0167696
583.927	0.0165575
584.005	0.0166053
584.083	0.0165295
584.161	0.0167002
584.239	0.0167209
584.317	0.0166745
584.396	0.0167300
584.474	0.0167104
584.552	0.0164808
584.630	0.0166707
584.708	0.0167192
584.786	0.0165534
584.864	0.0166080
584.942	0.0166331
585.021	0.0167097
585.099	0.0165437
585.177	0.0166904
585.255	0.0165063
585.333	0.0166410
585.411	0.0166407
585.489	0.0165553
585.567	0.0166761
585.646	0.0166006
585.724	0.0168446
585.802	0.0167162
585.880	0.0165489
585.958	0.0165199
586.036	0.0166023
586.114	0.0167268
586.192	0.0165900
586.271	0.0165113
586.349	0.0165998
586.427	0.0166208
586.505	0.0165979
586.583	0.0167104
586.661	0.0166565
586.739	0.0167012
586.817	0.0166110
586.896	0.0166469
586.974	0.0167554
587.052	0.0166599
587.130	0.0166381
587.208	0.0165848
587.286	0.0165363
587.364	0.0167110
587.442	0.0166368
587.521	0.0166280
587.599	0.0165754
587.677	0.0166369
587.755	0.0166423
587.833	0.0166480
587.911	0.0167782
587.989	0.0166527
588.067	0.0166212
588.146	0.0166321
588.224	0.0165785
588.302	0.0167755
588.380	0.0166855
588.458	0.0165845
588.536	0.0166531
588.614	0.0166449
588.692	0.0166032
588.771	0.0167809
588.849	0.0165793
588.927	0.0166316
589.005	0.0166744
589.083	0.0166832
589.161	0.0166068
589.239	0.0166563
589.317	0.0168814
589.396	0.0167092
589.474	0.0166831
589.552	0.0166469
589.630	0.0168256
589.708	0.0167494
589.786	0.0167863
589.864	0.0169186
589.942	0.0168306
590.021	0.0166566
590.099	0.0167941
590.177	0.0167874
590.255	0.0166631
590.333	0.0166328
590.411	0.0167048
590.489	0.0167226
590.567	0.0168420
590.646	0.0167175
590.724	0.0167293
590.802	0.0168573
590.880	0.0168121
590.958	0.0167216
591.036	0.0167087
591.114	0.0167748
591.192	0.0168015
591.271	0.0167833
591.349	0.0168751
591.427	0.0166862
591.505	0.0165948
591.583	0.0167190
591.661	0.0167416
591.739	0.0167519
591.817	0.0167773
591.896	0.0167861
591.974	0.0167471
592.052	0.0166006
592.130	0.0168021
592.208	0.0167538
592.286	0.0167448
592.364	0.0166655
592.442	0.0166904
592.521	0.0167946
592.599	0.0167192
592.677	0.0168497
592.755	0.0167529
592.833	0.0168551
592.911	0.0166568
592.989	0.0167591
593.067	0.0167723
593.146	0.0167386
593.224	0.0167677
593.302	0.0168083
593.380	0.0168342
593.458	0.0167396
593.536	0.0167543
593.614	0.0166968
593.692	0.0165739
593.771	0.0167179
593.849	0.0167450
593.927	0.0167785
594.005	0.0169357
594.083	0.0167468
594.161	0.0168052
594.239	0.0166984
594.317	0.0166941
594.396	0.0167417
594.474	0.0166792
594.552	0.0167812
594.630	0.0166763
594.708	0.0167577
594.786	0.0168262
594.864	0.0168488
594.942	0.0166977
595.021	0.0168608
595.099	0.0168423
595.177	0.0166744
595.255	0.0167411
595.333	0.0168447
595.411	0.0167555
595.489	0.0166418
595.567	0.0167580
595.646	0.0168413
595.724	0.0168304
595.802	0.0167361
595.880	0.0167876
595.958	0.0166171
596.036	0.0167384
596.114	0.0169361
596.192	0.0167641
596.271	0.0166961
596.349	0.0167358
596.427	0.0168503
596.505	0.0166880
596.583	0.0166954
596.661	0.0166853
596.739	0.0167887
596.817	0.0167721
596.896	0.0167041
596.974	0.0166540
597.052	0.0166073
597.130	0.0166925
597.208	0.0167018
597.286	0.0166651
597.364	0.0167584
597.442	0.0164652
597.521	0.0166059
597.599	0.0166183
597.677	0.0166069
597.755	0.0165366
597.833	0.0166379
597.911	0.0166058
597.989	0.0166328
598.067	0.0167214
598.146	0.0167625
598.224	0.0167094
598.302	0.0166520
598.380	0.0166692
598.458	0.0166897
598.536	0.0167377
598.614	0.0165491
598.692	0.0167666
598.771	0.0167089
598.849	0.0166552
598.927	0.0166454
599.005	0.0167006
599.083	0.0166256
599.161	0.0165720
599.239	0.0166132
599.317	0.0167240
599.396	0.0165998
599.474	0.0165691
599.552	0.0165564
599.630	0.0166086
599.708	0.0166114
599.786	0.0166960
599.864	0.0166315
599.942	0.0166300
600.021	0.0166335
600.099	0.0167402
600.177	0.0165588
600.255	0.0167179
600.333	0.0169045
600.411	0.0166918
600.489	0.0168809
600.567	0.0166521
600.646	0.0167827
600.724	0.0168352
600.802	0.0167804
600.880	0.0166672
600.958	0.0168555
601.036	0.0169070
601.114	0.0168024
601.192	0.0168525
601.271	0.0168338
601.349	0.0166245
601.427	0.0167117
601.505	0.0166779
601.583	0.0166977
601.661	0.0168050
601.739	0.0165963
601.817	0.0165693
601.896	0.0167791
601.974	0.0166815
602.052	0.0166161
602.130	0.0168001
602.208	0.0166091
602.286	0.0165906
602.364	0.0166473
602.442	0.0166636
602.521	0.0166679
602.599	0.0166640
602.677	0.0166514
602.755	0.0167117
602.833	0.0166129
602.911	0.0166496
602.989	0.0166611
603.067	0.0166386
603.146	0.0167241
603.224	0.0167221
603.302	0.0167027
603.380	0.0166966
603.458	0.0167471
603.536	0.0168465
603.614	0.0166756
603.692	0.0168518
603.771	0.0167604
603.849	0.0168085
603.927	0.0167858
604.005	0.0167691
604.083	0.0168258
604.161	0.0168290
604.239	0.0169144
604.317	0.0167815
604.396	0.0169345
604.474	0.0169213
604.552	0.0168584
604.630	0.0169170
604.708	0.0168636
604.786	0.0168975
604.864	0.0168050
604.942	0.0167919
605.021	0.0169069
605.099	0.0168253
605.177	0.0168346
605.255	0.0169164
605.333	0.0168787
605.411	0.0168113
605.489	0.0168810
605.567	0.0168528
605.646	0.0170003
605.724	0.0167830
605.802	0.0168537
605.880	0.0168153
605.958	0.0168127
606.036	0.0167247
606.114	0.0167691
606.192	0.0167310
606.271	0.0167786
606.349	0.0167336
606.427	0.0167444
606.505	0.0167651
606.583	0.0167177
606.661	0.0167044
606.739	0.0167838
606.817	0.0167547
606.896	0.0167670
606.974	0.0167281
607.052	0.0167310
607.130	0.0166667
607.208	0.0166656
607.286	0.0166888
607.364	0.0167730
607.442	0.0167866
607.521	0.0166199
607.599	0.0168163
607.677	0.0167606
607.755	0.0166650
607.833	0.0167680
607.911	0.0166524
607.989	0.0166287
608.067	0.0167612
608.146	0.0167007
608.224	0.0168382
608.302	0.0168278
608.380	0.0166553
608.458	0.0167377
608.536	0.0165890
608.614	0.0167756
608.692	0.0166846
608.771	0.0166995
608.849	0.0166505
608.927	0.0166404
609.005	0.0166792
609.083	0.0166141
609.161	0.0165427
609.239	0.0166954
609.317	0.0165203
609.396	0.0167113
609.474	0.0168152
609.552	0.0165800
609.630	0.0166718
609.708	0.0165651
609.786	0.0164878
609.864	0.0166274
609.942	0.0166131
610.021	0.0167015
610.099	0.0165800
610.177	0.0165586
610.255	0.0165608
610.333	0.0166087
610.411	0.0165736
610.489	0.0165820
610.567	0.0167167
610.646	0.0166762
610.724	0.0166135
610.802	0.0165276
610.880	0.0167369
610.958	0.0165464
611.036	0.0165352
611.114	0.0165780
611.192	0.0166215
611.271	0.0166203
611.349	0.0165482
611.427	0.0165568
611.505	0.0165323
611.583	0.0166200
611.661	0.0166395
611.739	0.0166245
611.817	0.0166797
611.896	0.0166045
611.974	0.0166255
612.052	0.0165048
612.130	0.0166133
612.208	0.0166946
612.286	0.0164499
612.364	0.0165550
612.442	0.0164986
612.521	0.0164617
612.599	0.0164497
612.677	0.0165550
612.755	0.0166058
612.833	0.0165519
612.911	0.0165198
612.989	0.0164857
613.067	0.0165726
613.146	0.0165997
613.224	0.0164968
613.302	0.0164460
613.380	0.0165130
613.458	0.0165718
613.536	0.0166024
613.614	0.0165866
613.692	0.0165887
613.771	0.0165765
613.849	0.0164870
613.927	0.0165828
614.005	0.0167096
614.083	0.0166415
614.161	0.0166891
614.239	0.0166042
614.317	0.0166426
614.396	0.0166115
614.474	0.0164637
614.552	0.0166595
614.630	0.0164934
614.708	0.0165802
614.786	0.0167021
614.864	0.0167460
614.942	0.0168301
615.021	0.0166187
615.099	0.0166592
615.177	0.0166382
615.255	0.0166924
615.333	0.0167554
615.411	0.0166362
615.489	0.0167086
615.567	0.0167567
615.646	0.0167167
615.724	0.0167383
615.802	0.0168187
615.880	0.0167339
615.958	0.0167039
616.036	0.0167478
616.114	0.0166904
616.192	0.0167765
616.271	0.0168172
616.349	0.0166438
616.427	0.0167351
616.505	0.0167263
616.583	0.0166458
616.661	0.0168337
616.739	0.0168463
616.817	0.0165865
616.896	0.0168163
616.974	0.0167913
617.052	0.0168742
617.130	0.0169514
617.208	0.0166359
617.286	0.0168044
617.364	0.0167546
617.442	0.0166934
617.521	0.0166287
617.599	0.0167116
617.677	0.0168001
617.755	0.0168368
617.833	0.0168397
617.911	0.0168481
617.989	0.0166621
618.067	0.0167949
618.146	0.0167073
618.224	0.0168735
618.302	0.0168110
618.380	0.0168903
618.458	0.0166783
618.536	0.0167484
618.614	0.0167162
618.692	0.0167081
618.771	0.0166293
618.849	0.0167777
618.927	0.0167629
619.005	0.0167106
619.083	0.0167043
619.161	0.0167451
619.239	0.0167745
619.317	0.0167188
619.396	0.0166472
619.474	0.0168272
619.552	0.0167614
619.630	0.0167709
619.708	0.0166642
619.786	0.0164552
619.864	0.0167021
619.942	0.0167492
620.021	0.0168568
620.099	0.0167780
620.177	0.0167268
620.255	0.0166216
620.333	0.0167248
620.411	0.0165330
620.489	0.0166850
620.567	0.0166535
620.646	0.0168602
620.724	0.0166481
620.802	0.0164764
620.880	0.0167168
620.958	0.0166740
621.036	0.0166648
621.114	0.0166341
621.192	0.0166467
621.271	0.0166670
621.349	0.0166737
621.427	0.0166898
621.505	0.0165113
621.583	0.0165656
621.661	0.0165385
621.739	0.0166449
621.817	0.0167026
621.896	0.0166286
621.974	0.0165171
622.052	0.0166006
622.130	0.0167622
622.208	0.0166733
622.286	0.0164896
622.364	0.0167623
622.442	0.0166151
622.521	0.0165832
622.599	0.0165837
622.677	0.0166400
622.755	0.0165894
622.833	0.0166036
622.911	0.0167228
622.989	0.0166254
623.067	0.0165257
623.146	0.0165860
623.224	0.0166737
623.302	0.0166706
623.380	0.0166793
623.458	0.0166265
623.536	0.0165520
623.614	0.0167719
623.692	0.0167500
623.771	0.0167856
623.849	0.0167344
623.927	0.0166808
624.005	0.0166988
624.083	0.0167272
624.161	0.0165884
624.239	0.0165956
624.317	0.0168388
624.396	0.0166322
624.474	0.0166388
624.552	0.0165652
624.630	0.0167536
624.708	0.0166954
624.786	0.0166103
624.864	0.0167413
624.942	0.0168215
625.021	0.0167299
625.099	0.0165748
625.177	0.0165891
625.255	0.0167375
625.333	0.0167036
625.411	0.0165959
625.489	0.0167610
625.567	0.0166666
625.646	0.0167020
625.724	0.0167935
625.802	0.0164642
625.880	0.0165435
625.958	0.0167590
626.036	0.0167155
626.114	0.0165617
626.192	0.0168447
626.271	0.0167673
626.349	0.0167132
626.427	0.0166949
626.505	0.0167024
626.583	0.0167336
626.661	0.0167360
626.739	0.0167567
626.817	0.0167033
626.896	0.0166568
626.974	0.0169034
627.052	0.0168021
627.130	0.0167738
627.208	0.0167560
627.286	0.0168047
627.364	0.0166090
627.442	0.0167760
627.521	0.0168620
627.599	0.0167007
627.677	0.0167684
627.755	0.0168251
627.833	0.0168650
627.911	0.0168149
627.989	0.0167274
628.067	0.0167950
628.146	0.0167574
628.224	0.0166744
628.302	0.0168053
628.380	0.0168997
628.458	0.0168203
628.536	0.0167348
628.614	0.0167610
628.692	0.0167715
628.771	0.0166877
628.849	0.0167748
628.927	0.0167689
629.005	0.0167603
629.083	0.0168300
629.161	0.0165859
629.239	0.0167294
629.317	0.0167756
629.396	0.0168853
629.474	0.0169302
629.552	0.0169424
629.630	0.0166399
629.708	0.0166703
629.786	0.0166784
629.864	0.0166702
629.942	0.0167094
630.021	0.0166975
630.099	0.0167693
630.177	0.0167145
630.255	0.0167023
630.333	0.0168415
630.411	0.0166457
630.489	0.0166949
630.567	0.0166552
630.646	0.0167612
630.724	0.0165827
630.802	0.0166983
630.880	0.0167767
630.958	0.0165838
631.036	0.0167406
631.114	0.0167232
631.192	0.0167182
631.271	0.0165950
631.349	0.0166940
631.427	0.0167385
631.505	0.0167595
631.583	0.0169159
631.661	0.0167893
631.739	0.0165377
631.817	0.0167319
631.896	0.0167519
631.974	0.0167750
632.052	0.0167615
632.130	0.0168007
632.208	0.0167592
632.286	0.0168005
632.364	0.0166367
632.442	0.0165879
632.521	0.0167295
632.599	0.0168680
632.677	0.0167371
632.755	0.0166940
632.833	0.0168793
632.911	0.0167596
632.989	0.0166566
633.067	0.0168181
633.146	0.0166910
633.224	0.0167038
633.302	0.0166763
633.380	0.0167492
633.458	0.0168137
633.536	0.0168169
633.614	0.0166943
633.692	0.0165909
633.771	0.0168086
633.849	0.0167162
633.927	0.0166225
634.005	0.0165032
634.083	0.0167109
634.161	0.0166913
634.239	0.0166605
634.317	0.0168180
634.396	0.0168008
634.474	0.0166352
634.552	0.0165774
634.630	0.0166396
634.708	0.0167344
634.786	0.0165565
634.864	0.0166140
634.942	0.0166190
635.021	0.0166776
635.099	0.0166412
635.177	0.0166766
635.255	0.0165778
635.333	0.0166038
635.411	0.0165340
635.489	0.0166180
635.567	0.0167258
635.646	0.0166627
635.724	0.0165767
635.802	0.0165655
635.880	0.0166902
635.958	0.0165373
636.036	0.0166422
636.114	0.0167483
636.192	0.0165950
636.271	0.0165810
636.349	0.0167370
636.427	0.0165518
636.505	0.0165411
636.583	0.0165637
636.661	0.0167071
636.739	0.0165660
636.817	0.0166070
636.896	0.0165397
636.974	0.0165353
637.052	0.0165364
637.130	0.0165617
637.208	0.0165553
637.286	0.0166510
637.364	0.0165216
637.442	0.0165179
637.521	0.0166857
637.599	0.0165427
637.677	0.0165575
637.755	0.0165034
637.833	0.0165981
637.911	0.0166478
637.989	0.0165224
638.067	0.0164498
638.146	0.0164981
638.224	0.0166238
638.302	0.0164999
638.380	0.0164883
638.458	0.0166821
638.536	0.0166006
638.614	0.0166484
638.692	0.0167141
638.771	0.0165557
638.849	0.0164137
638.927	0.0166463
639.005	0.0166406
639.083	0.0166972
639.161	0.0166778
639.239	0.0165933
639.317	0.0165188
639.396	0.0165081
639.474	0.0166997
639.552	0.0165178
639.630	0.0164864
639.708	0.0165206
639.786	0.0165871
639.864	0.0166514
639.942	0.0166525
640.021	0.0165829
640.099	0.0166392
640.177	0.0165821
640.255	0.0165234
640.333	0.0165723
640.411	0.0166650
640.489	0.0166638
640.567	0.0165952
640.646	0.0165982
640.724	0.0165712
640.802	0.0164420
640.880	0.0166993
640.958	0.0167154
641.036	0.0165971
641.114	0.0165203
641.192	0.0165027
641.271	0.0165314
641.349	0.0165836
641.427	0.0166291
641.505	0.0164270
641.583	0.0166122
641.661	0.0165813
641.739	0.0165942
641.817	0.0165637
641.896	0.0165848
641.974	0.0165913
642.052	0.0166037
642.130	0.0166206
642.208	0.0165364
642.286	0.0166750
642.364	0.0166025
642.442	0.0165763
642.521	0.0165285
642.599	0.0165067
642.677	0.0166665
642.755	0.0166280
642.833	0.0166958
642.911	0.0166133
642.989	0.0164584
643.067	0.0165266
643.146	0.0166186
643.224	0.0165951
643.302	0.0165414
643.380	0.0167199
643.458	0.0165397
643.536	0.0166487
643.614	0.0166521
643.692	0.0164616
643.771	0.0166979
643.849	0.0167883
643.927	0.0167386
644.005	0.0166407
644.083	0.0166763
644.161	0.0166892
644.239	0.0166102
644.317	0.0167058
644.396	0.0167213
644.474	0.0166873
644.552	0.0165916
644.630	0.0166151
644.708	0.0168159
644.786	0.0166327
644.864	0.0165520
644.942	0.0168230
645.021	0.0167102
645.099	0.0165792
645.177	0.0166990
645.255	0.0168420
645.333	0.0166067
645.411	0.0166802
645.489	0.0167022
645.567	0.0166257
645.646	0.0167093
645.724	0.0168380
645.802	0.0167336
645.880	0.0166700
645.958	0.0166793
646.036	0.0166779
646.114	0.0167632
646.192	0.0167000
646.271	0.0167451
646.349	0.0167258
646.427	0.0166708
646.505	0.0167045
646.583	0.0167303
646.661	0.0167289
646.739	0.0167650
646.817	0.0167765
646.896	0.0166525
646.974	0.0166825
647.052	0.0167088
647.130	0.0167517
647.208	0.0166681
647.286	0.0167421
647.364	0.0166601
647.442	0.0167235
647.521	0.0166979
647.599	0.0166688
647.677	0.0167219
647.755	0.0168121
647.833	0.0168107
647.911	0.0167213
647.989	0.0166750
648.067	0.0167780
648.146	0.0167377
648.224	0.0167288
648.302	0.0168502
648.380	0.0167186
648.458	0.0167104
648.536	0.0166827
648.614	0.0166171
648.692	0.0166927
648.771	0.0167657
648.849	0.0167407
648.927	0.0166866
649.005	0.0167040
649.083	0.0167432
649.161	0.0167538
649.239	0.0167377
649.317	0.0167644
649.396	0.0166489
649.474	0.0168251
649.552	0.0168654
649.630	0.0166510
649.708	0.0166092
649.786	0.0165141
649.864	0.0166238
649.942	0.0168085
650.021	0.0166874
650.099	0.0166880
650.177	0.0166556
650.255	0.0166637
650.333	0.0167613
650.411	0.0166415
650.489	0.0166648
650.567	0.0166998
650.646	0.0167798
650.724	0.0167694
650.802	0.0168072
650.880	0.0167850
650.958	0.0167098
651.036	0.0168723
651.114	0.0166915
651.192	0.0167321
651.271	0.0167596
651.349	0.0167128
651.427	0.0166952
651.505	0.0168136
651.583	0.0166957
651.661	0.0166209
651.739	0.0166654
651.817	0.0166628
651.896	0.0166820
651.974	0.0167947
652.052	0.0166802
652.130	0.0167268
652.208	0.0167515
652.286	0.0168397
652.364	0.0167749
652.442	0.0167493
652.521	0.0168879
652.599	0.0167924
652.677	0.0167775
652.755	0.0167702
652.833	0.0169135
652.911	0.0167760
652.989	0.0167883
653.067	0.0167736
653.146	0.0166698
653.224	0.0167805
653.302	0.0166758
653.380	0.0167770
653.458	0.0168056
653.536	0.0167159
653.614	0.0167526
653.692	0.0167322
653.771	0.0166395
653.849	0.0168248
653.927	0.0167789
654.005	0.0168754
654.083	0.0168330
654.161	0.0166978
654.239	0.0166814
654.317	0.0168078
654.396	0.0167822
654.474	0.0167656
654.552	0.0166878
654.630	0.0167169
654.708	0.0168987
654.786	0.0168420
654.864	0.0167204
654.942	0.0165788
655.021	0.0167663
655.099	0.0167078
655.177	0.0168652
655.255	0.0167822
655.333	0.0168347
655.411	0.0168732
655.489	0.0168669
655.567	0.0168491
655.646	0.0168912
655.724	0.0168100
655.802	0.0167999
655.880	0.0167117
655.958	0.0168883
656.036	0.0167570
656.114	0.0167365
656.192	0.0168629
656.271	0.0168221
656.349	0.0168165
656.427	0.0167537
656.505	0.0168832
656.583	0.0167490
656.661	0.0166335
656.739	0.0167912
656.817	0.0169508
656.896	0.0167726
656.974	0.0168462
657.052	0.0167569
657.130	0.0167204
657.208	0.0167639
657.286	0.0167817
657.364	0.0167231
657.442	0.0167444
657.521	0.0167920
657.599	0.0166238
657.677	0.0167889
657.755	0.0166551
657.833	0.0167963
657.911	0.0167251
657.989	0.0166431
658.067	0.0168614
658.146	0.0167168
658.224	0.0167686
658.302	0.0168431
658.380	0.0167126
658.458	0.0165997
658.536	0.0166964
658.614	0.0166615
658.692	0.0165672
658.771	0.0166855
658.849	0.0166717
658.927	0.0165766
659.005	0.0165608
659.083	0.0164882
659.161	0.0165343
659.239	0.0167371
659.317	0.0167995
659.396	0.0166244
659.474	0.0166049
659.552	0.0166377
659.630	0.0167566
659.708	0.0166653
659.786	0.0165816
659.864	0.0165644
659.942	0.0165460
660.021	0.0165673
660.099	0.0165833
660.177	0.0167126
660.255	0.0165672
660.333	0.0165340
660.411	0.0165396
660.489	0.0165369
660.567	0.0165650
660.646	0.0165395
660.724	0.0165286
660.802	0.0166818
660.880	0.0166443
660.958	0.0166795
661.036	0.0166608
661.114	0.0167551
661.192	0.0166289
661.271	0.0165943
661.349	0.0165910
661.427	0.0167822
661.505	0.0166133
661.583	0.0165418
661.661	0.0166424
661.739	0.0166380
661.817	0.0166084
661.896	0.0166935
661.974	0.0165401
662.052	0.0166722
662.130	0.0166714
662.208	0.0165601
662.286	0.0165947
662.364	0.0165885
662.442	0.0166935
662.521	0.0166763
662.599	0.0166871
662.677	0.0165664
662.755	0.0165788
662.833	0.0166295
662.911	0.0167159
662.989	0.0165363
663.067	0.0164888
663.146	0.0166222
663.224	0.0166053
663.302	0.0166806
663.380	0.0165452
663.458	0.0167407
663.536	0.0165412
663.614	0.0166960
663.692	0.0166351
663.771	0.0166436
663.849	0.0166633
663.927	0.0166228
664.005	0.0167343
664.083	0.0165506
664.161	0.0165295
664.239	0.0165344
664.317	0.0165745
664.396	0.0165960
664.474	0.0166206
664.552	0.0165697
664.630	0.0166509
664.708	0.0166250
664.786	0.0166683
664.864	0.0165976
664.942	0.0165612
665.021	0.0164824
665.099	0.0165763
665.177	0.0165284
665.255	0.0166198
665.333	0.0165848
665.411	0.0165408
665.489	0.0165357
665.567	0.0166208
665.646	0.0165893
665.724	0.0165845
665.802	0.0165200
665.880	0.0166473
665.958	0.0167099
666.036	0.0166338
666.114	0.0165930
666.192	0.0166430
666.271	0.0166544
666.349	0.0166116
666.427	0.0165285
666.505	0.0165686
666.583	0.0164913
666.661	0.0166078
666.739	0.0165222
666.817	0.0164525
666.896	0.0167149
666.974	0.0165514
667.052	0.0165249
667.130	0.0165172
667.208	0.0165336
667.286	0.0165382
667.364	0.0164355
667.442	0.0164764
667.521	0.0164413
667.599	0.0165410
667.677	0.0165428
667.755	0.0165503
667.833	0.0165646
667.911	0.0165721
667.989	0.0164567
668.067	0.0163792
668.146	0.0163827
668.224	0.0165549
668.302	0.0164953
668.380	0.0165402
668.458	0.0163940
668.536	0.0164817
668.614	0.0166486
668.692	0.0164626
668.771	0.0164906
668.849	0.0164950
668.927	0.0164841
669.005	0.0165630
669.083	0.0165826
669.161	0.0165173
669.239	0.0164466
669.317	0.0166288
669.396	0.0166191
669.474	0.0165101
669.552	0.0165436
669.630	0.0166341
669.708	0.0165377
669.786	0.0165420
669.864	0.0166679
669.942	0.0166206
670.021	0.0164525
670.099	0.0164850
670.177	0.0166692
670.255	0.0165904
670.333	0.0166241
670.411	0.0167865
670.489	0.0166656
670.567	0.0165417
670.646	0.0166886
670.724	0.0166989
670.802	0.0166089
670.880	0.0165952
670.958	0.0165662
671.036	0.0167057
671.114	0.0167181
671.192	0.0166441
671.271	0.0166727
671.349	0.0167094
671.427	0.0165892
671.505	0.0166264
671.583	0.0165900
671.661	0.0167461
671.739	0.0168279
671.817	0.0167263
671.896	0.0166542
671.974	0.0166669
672.052	0.0168054
672.130	0.0168158
672.208	0.0166623
672.286	0.0166702
672.364	0.0166874
672.442	0.0167982
672.521	0.0166754
672.599	0.0167160
672.677	0.0169205
672.755	0.0167730
672.833	0.0167776
672.911	0.0166507
672.989	0.0167726
673.067	0.0167142
673.146	0.0168291
673.224	0.0167371
673.302	0.0167920
673.380	0.0166077
673.458	0.0167149
673.536	0.0168141
673.614	0.0166402
673.692	0.0166534
673.771	0.0168845
673.849	0.0168496
673.927	0.0168220
674.005	0.0167809
674.083	0.0167109
674.161	0.0168024
674.239	0.0169697
674.317	0.0168178
674.396	0.0169994
674.474	0.0167973
674.552	0.0168016
674.630	0.0168163
674.708	0.0168658
674.786	0.0167871
674.864	0.0168400
674.942	0.0167125
675.021	0.0167357
675.099	0.0167563
675.177	0.0168787
675.255	0.0168490
675.333	0.0168460
675.411	0.0168567
675.489	0.0169020
675.567	0.0167883
675.646	0.0168011
675.724	0.0168935
675.802	0.0167902
675.880	0.0167393
675.958	0.0167724
676.036	0.0168587
676.114	0.0169546
676.192	0.0168504
676.271	0.0167105
676.349	0.0167287
676.427	0.0167112
676.505	0.0166477
676.583	0.0165804
676.661	0.0167428
676.739	0.0167365
676.817	0.0166335
676.896	0.0168316
676.974	0.0168190
677.052	0.0167208
677.130	0.0168132
677.208	0.0168370
677.286	0.0167719
677.364	0.0167221
677.442	0.0167348
677.521	0.0168567
677.599	0.0167253
677.677	0.0167172
677.755	0.0167492
677.833	0.0168118
677.911	0.0167390
677.989	0.0167251
678.067	0.0168967
678.146	0.0166743
678.224	0.0167736
678.302	0.0167190
678.380	0.0167686
678.458	0.0168446
678.536	0.0168282
678.614	0.0168925
678.692	0.0169044
678.771	0.0168497
678.849	0.0168613
678.927	0.0169245
679.005	0.0167020
679.083	0.0168813
679.161	0.0168060
679.239	0.0168058
679.317	0.0167243
679.396	0.0165647
679.474	0.0167476
679.552	0.0165895
679.630	0.0165784
679.708	0.0166508
679.786	0.0165770
679.864	0.0164851
679.942	0.0166521
680.021	0.0165479
680.099	0.0165618
680.177	0.0166679
680.255	0.0166592
680.333	0.0165902
680.411	0.0165665
680.489	0.0165508
680.567	0.0166395
680.646	0.0167618
680.724	0.0166805
680.802	0.0167242
680.880	0.0166824
680.958	0.0166945
681.036	0.0166520
681.114	0.0167113
681.192	0.0168713
681.271	0.0167064
681.349	0.0168652
681.427	0.0167683
681.505	0.0166534
681.583	0.0166772
681.661	0.0167273
681.739	0.0166987
681.817	0.0167747
681.896	0.0167520
681.974	0.0165696
682.052	0.0165452
682.130	0.0167929
682.208	0.0167112
682.286	0.0165934
682.364	0.0165367
682.442	0.0165564
682.521	0.0165906
682.599	0.0166856
682.677	0.0166047
682.755	0.0167199
682.833	0.0169125
682.911	0.0166598
682.989	0.0167246
683.067	0.0168132
683.146	0.0166547
683.224	0.0166489
683.302	0.0168205
683.380	0.0167718
683.458	0.0167676
683.536	0.0166992
683.614	0.0165732
683.692	0.0168098
683.771	0.0166267
683.849	0.0165854
683.927	0.0166146
684.005	0.0164953
684.083	0.0164875
684.161	0.0165221
684.239	0.0165746
684.317	0.0164841
684.396	0.0165175
684.474	0.0164599
684.552	0.0165152
684.630	0.0166218
684.708	0.0164021
684.786	0.0165842
684.864	0.0166100
684.942	0.0165531
685.021	0.0165993
685.099	0.0166656
685.177	0.0167648
685.255	0.0167982
685.333	0.0168195
685.411	0.0169188
685.489	0.0169476
685.567	0.0168945
685.646	0.0170475
685.724	0.0168735
685.802	0.0169411
685.880	0.0170447
685.958	0.0169812
686.036	0.0169666
686.114	0.0168520
686.192	0.0168087
686.271	0.0167453
686.349	0.0166457
686.427	0.0166004
686.505	0.0166003
686.583	0.0163396
686.661	0.0163089
686.739	0.0164775
686.817	0.0162065
686.896	0.0162383
686.974	0.0163296
687.052	0.0162743
687.130	0.0162116
687.208	0.0162930
687.286	0.0163370
687.364	0.0164133
687.442	0.0165411
687.521	0.0164372
687.599	0.0163814
687.677	0.0163591
687.755	0.0165137
687.833	0.0166539
687.911	0.0166554
687.989	0.0166553
688.067	0.0165028
688.146	0.0166611
688.224	0.0166557
688.302	0.0166882
688.380	0.0166257
688.458	0.0166029
688.536	0.0166420
688.614	0.0166420
688.692	0.0166972
688.771	0.0167384
688.849	0.0166133
688.927	0.0166737
689.005	0.0166437
689.083	0.0165648
689.161	0.0167192
689.239	0.0166936
689.317	0.0166911
689.396	0.0165413
689.474	0.0167004
689.552	0.0168806
689.630	0.0166919
689.708	0.0166810
689.786	0.0167073
689.864	0.0165517
689.942	0.0165036
690.021	0.0165389
690.099	0.0165791
690.177	0.0163891
690.255	0.0162985
690.333	0.0162553
690.411	0.0162406
690.489	0.0163375
690.567	0.0163352
690.646	0.0161449
690.724	0.0161821
690.802	0.0161807
690.880	0.0161990
690.958	0.0162139
691.036	0.0161100
691.114	0.0161369
691.192	0.0164264
691.271	0.0164484
691.349	0.0164887
691.427	0.0164796
691.505	0.0164271
691.583	0.0165519
691.661	0.0167769
691.739	0.0168356
691.817	0.0167160
691.896	0.0168391
691.974	0.0169035
692.052	0.0168474
692.130	0.0168104
692.208	0.0169096
692.286	0.0168871
692.364	0.0169351
692.442	0.0168141
692.521	0.0168980
692.599	0.0168154
692.677	0.0165073
692.755	0.0166102
692.833	0.0165443
692.911	0.0165504
692.989	0.0163480
693.067	0.0163238
693.146	0.0164600
693.224	0.0164107
693.302	0.0163638
693.380	0.0164951
693.458	0.0164805
693.536	0.0164352
693.614	0.0164972
693.692	0.0165102
693.771	0.0165244
693.849	0.0167054
693.927	0.0167114
694.005	0.0164876
694.083	0.0165598
694.161	0.0166844
694.239	0.0166744
694.317	0.0168469
694.396	0.0167841
694.474	0.0166668
694.552	0.0165938
694.630	0.0166516
694.708	0.0166174
694.786	0.0164707
694.864	0.0164133
694.942	0.0164816
695.021	0.0165394
695.099	0.0166035
695.177	0.0164947
695.255	0.0163461
695.333	0.0163150
695.411	0.0165153
695.489	0.0165949
695.567	0.0166580
695.646	0.0165148
695.724	0.0167761
695.802	0.0167145
695.880	0.0168558
695.958	0.0169090
696.036	0.0168980
696.114	0.0168090
696.192	0.0168044
696.271	0.0169670
696.349	0.0170534
696.427	0.0170982
696.505	0.0170157
696.583	0.0170007
696.661	0.0171246
696.739	0.0170303
696.817	0.0171257
696.896	0.0170376
696.974	0.0170235
697.052	0.0170315
697.130	0.0170491
697.208	0.0169350
697.286	0.0169999
697.364	0.0169382
697.442	0.0168634
697.521	0.0167847
697.599	0.0167192
697.677	0.0167218
697.755	0.0165347
697.833	0.0166310
697.911	0.0166947
697.989	0.0166460
698.067	0.0165063
698.146	0.0165455
698.224	0.0166895
698.302	0.0165065
698.380	0.0165891
698.458	0.0165449
698.536	0.0166726
698.614	0.0167316
698.692	0.0166076
698.771	0.0165944
698.849	0.0167068
698.927	0.0165665
699.005	0.0165650
699.083	0.0165617
699.161	0.0165319
699.239	0.0165250
699.317	0.0165405
699.396	0.0163327
699.474	0.0163792
699.552	0.0166038
699.630	0.0164625
699.708	0.0165540
699.786	0.0164732
699.864	0.0163976
699.942	0.0165328
700.021	0.0166747
700.099	0.0166220
700.177	0.0166158
700.255	0.0168458
700.333	0.0168201
700.411	0.0167767
700.489	0.0168433
700.567	0.0168633
700.646	0.0167857
700.724	0.0168849
700.802	0.0169209
700.880	0.0168745
700.958	0.0169152
701.036	0.0169701
701.114	0.0168040
701.192	0.0167404
701.271	0.0168598
701.349	0.0169686
701.427	0.0169017
701.505	0.0169206
701.583	0.0169890
701.661	0.0169505
701.739	0.0170486
701.817	0.0169356
701.896	0.0169396
701.974	0.0170914
702.052	0.0170075
702.130	0.0169410
702.208	0.0171065
702.286	0.0170525
702.364	0.0170442
702.442	0.0169884
702.521	0.0170580
702.599	0.0169151
702.677	0.0169116
702.755	0.0167336
702.833	0.0169457
702.911	0.0167857
702.989	0.0166769
703.067	0.0167602
703.146	0.0167792
703.224	0.0166695
703.302	0.0166675
703.380	0.0166074
703.458	0.0167982
703.536	0.0167609
703.614	0.0166962
703.692	0.0167786
703.771	0.0167968
703.849	0.0167407
703.927	0.0165772
704.005	0.0165326
704.083	0.0167881
704.161	0.0165820
704.239	0.0164323
704.317	0.0164391
704.396	0.0166097
704.474	0.0163956
704.552	0.0162800
704.630	0.0163055
704.708	0.0161555
704.786	0.0162349
704.864	0.0162101
704.942	0.0162672
705.021	0.0161166
705.099	0.0163061
705.177	0.0163879
705.255	0.0164978
705.333	0.0164500
705.411	0.0164719
705.489	0.0166722
705.567	0.0167038
705.646	0.0168262
705.724	0.0168987
705.802	0.0169902
705.880	0.0170707
705.958	0.0172153
706.036	0.0171898
706.114	0.0171034
706.192	0.0172227
706.271	0.0172859
706.349	0.0172659
706.427	0.0172815
706.505	0.0170876
706.583	0.0172462
706.661	0.0171696
706.739	0.0170268
706.817	0.0168630
706.896	0.0167680
706.974	0.0168474
707.052	0.0167908
707.130	0.0165524
707.208	0.0164408
707.286	0.0163063
707.364	0.0165631
707.442	0.0165395
707.521	0.0163860
707.599	0.0165373
707.677	0.0165325
707.755	0.0165717
707.833	0.0166912
707.911	0.0166587
707.989	0.0168973
708.067	0.0169322
708.146	0.0168138
708.224	0.0168721
708.302	0.0169964
708.380	0.0169584
708.458	0.0169461
708.536	0.0171158
708.614	0.0169885
708.692	0.0168147
708.771	0.0170271
708.849	0.0170348
708.927	0.0168683
709.005	0.0169659
709.083	0.0169509
709.161	0.0169315
709.239	0.0167767
709.317	0.0166911
709.396	0.0167490
709.474	0.0167145
709.552	0.0168288
709.630	0.0166501
709.708	0.0165845
709.786	0.0165643
709.864	0.0164368
709.942	0.0163712
710.021	0.0163528
710.099	0.0164075
710.177	0.0163429
710.255	0.0164360
710.333	0.0163679
710.411	0.0164263
710.489	0.0163582
710.567	0.0163444
710.646	0.0165375
710.724	0.0165666
710.802	0.0165188
710.880	0.0165408
710.958	0.0164616
711.036	0.0166270
711.114	0.0167382
711.192	0.0167448
711.271	0.0166785
711.349	0.0168257
711.427	0.0168416
711.505	0.0168827
711.583	0.0169977
711.661	0.0168414
711.739	0.0168919
711.817	0.0167194
711.896	0.0166625
711.974	0.0166598
712.052	0.0166315
712.130	0.0164469
712.208	0.0165264
712.286	0.0163596
712.364	0.0164827
712.442	0.0165626
712.521	0.0165324
712.599	0.0166856
712.677	0.0167627
712.755	0.0168575
712.833	0.0169741
712.911	0.0171774
712.989	0.0170715
713.067	0.0171373
713.146	0.0173154
713.224	0.0172398
713.302	0.0173419
713.380	0.0173989
713.458	0.0173809
713.536	0.0173079
713.614	0.0174557
713.692	0.0172384
713.771	0.0173420
713.849	0.0172952
713.927	0.0172450
714.005	0.0171877
714.083	0.0171013
714.161	0.0169406
714.239	0.0167277
714.317	0.0166525
714.396	0.0166825
714.474	0.0164133
714.552	0.0162450
714.630	0.0162223
714.708	0.0161124
714.786	0.0160447
714.864	0.0158009
714.942	0.0158629
715.021	0.0157167
715.099	0.0158569
715.177	0.0160003
715.255	0.0158741
715.333	0.0158822
715.411	0.0159013
715.489	0.0159996
715.567	0.0162587
715.646	0.0163402
715.724	0.0163100
715.802	0.0164751
715.880	0.0168474
715.958	0.0168550
716.036	0.0170725
716.114	0.0172247
716.192	0.0173737
716.271	0.0173167
716.349	0.0173429
716.427	0.0175485
716.505	0.0176717
716.583	0.0174677
716.661	0.0175368
716.739	0.0176571
716.817	0.0173417
716.896	0.0173622
716.974	0.0171588
717.052	0.0172211
717.130	0.0169576
717.208	0.0169129
717.286	0.0168491
717.364	0.0167291
717.442	0.0167603
717.521	0.0166278
717.599	0.0164986
717.677	0.0165018
717.755	0.0165999
717.833	0.0165810
717.911	0.0165696
717.989	0.0166763
718.067	0.0166272
718.146	0.0165887
718.224	0.0166808
718.302	0.0166601
718.380	0.0166402
718.458	0.0167210
718.536	0.0168079
718.614	0.0166530
718.692	0.0166499
718.771	0.0165805
718.849	0.0166560
718.927	0.0165033
719.005	0.0163355
719.083	0.0164728
719.161	0.0161964
719.239	0.0161700
719.317	0.0160182
719.396	0.0159518
719.474	0.0158649
719.552	0.0157297
719.630	0.0156677
719.708	0.0155469
719.786	0.0157619
719.864	0.0156689
719.942	0.0157767
720.021	0.0158283
720.099	0.0159377
720.177	0.0161570
720.255	0.0163068
720.333	0.0164606
720.411	0.0166338
720.489	0.0168575
720.567	0.0170431
720.646	0.0174124
720.724	0.0174316
720.802	0.0175386
720.880	0.0178261
720.958	0.0178017
721.036	0.0178813
721.114	0.0178455
721.192	0.0179744
721.271	0.0179621
721.349	0.0179498
721.427	0.0179095
721.505	0.0178288
721.583	0.0175720
721.661	0.0177211
721.739	0.0175623
721.817	0.0173433
721.896	0.0172625
721.974	0.0172359
722.052	0.0171139
722.130	0.0170606
722.208	0.0169517
722.286	0.0167543
722.364	0.0166637
722.442	0.0164200
722.521	0.0164588
722.599	0.0163963
722.677	0.0161591
722.755	0.0161886
722.833	0.0163000
722.911	0.0161707
722.989	0.0160596
723.067	0.0159883
723.146	0.0157853
723.224	0.0157912
723.302	0.0159721
723.380	0.0158560
723.458	0.0158842
723.536	0.0159821
723.614	0.0159234
723.692	0.0160760
723.771	0.0162703
723.849	0.0163580
723.927	0.0164574
724.005	0.0164511
724.083	0.0166557
724.161	0.0167794
724.239	0.0168250
724.317	0.0169161
724.396	0.0170144
724.474	0.0169667
724.552	0.0169714
724.630	0.0171299
724.708	0.0172213
724.786	0.0173290
724.864	0.0172713
724.942	0.0173300
725.021	0.0174213
725.099	0.0174241
725.177	0.0173671
725.255	0.0173603
725.333	0.0174901
725.411	0.0173477
725.489	0.0173533
725.567	0.0174950
725.646	0.0173363
725.724	0.0174751
725.802	0.0173904
725.880	0.0171893
725.958	0.0172973
726.036	0.0172198
726.114	0.0171898
726.192	0.0171926
726.271	0.0171628
726.349	0.0168177
726.427	0.0168888
726.505	0.0169088
726.583	0.0166530
726.661	0.0165373
726.739	0.0165035
726.817	0.0163789
726.896	0.0163698
726.974	0.0161570
727.052	0.0161762
727.130	0.0159805
727.208	0.0158850
727.286	0.0160683
727.364	0.0159576
727.442	0.0158286
727.521	0.0159428
727.599	0.0158686
727.677	0.0158097
727.755	0.0158920
727.833	0.0160068
727.911	0.0162762
727.989	0.0160883
728.067	0.0162424
728.146	0.0164612
728.224	0.0164751
728.302	0.0164925
728.380	0.0165434
728.458	0.0166856
728.536	0.0169295
728.614	0.0169341
728.692	0.0168935
728.771	0.0171942
728.849	0.0173016
728.927	0.0174046
729.005	0.0173355
729.083	0.0175526
729.161	0.0176723
729.239	0.0178617
729.317	0.0179538
729.396	0.0180373
729.474	0.0181078
729.552	0.0182626
729.630	0.0184332
729.708	0.0185116
729.786	0.0184982
729.864	0.0184891
729.942	0.0186037
730.021	0.0183495
730.099	0.0182787
730.177	0.0181036
730.255	0.0180308
730.333	0.0178200
730.411	0.0175486
730.489	0.0171783
730.567	0.0168554
730.646	0.0165191
730.724	0.0162328
730.802	0.0159666
730.880	0.0157673
730.958	0.0154977
731.036	0.0150980
731.114	0.0149421
731.192	0.0149355
731.271	0.0146965
731.349	0.0147553
731.427	0.0146699
731.505	0.0146828
731.583	0.0147958
731.661	0.0149102
731.739	0.0150134
731.817	0.0152747
731.896	0.0154246
731.974	0.0155156
732.052	0.0155983
732.130	0.0159667
732.208	0.0162383
732.286	0.0165134
732.364	0.0166516
732.442	0.0167213
732.521	0.0169776
732.599	0.0173625
732.677	0.0174949
732.755	0.0176659
732.833	0.0177885
732.911	0.0179508
732.989	0.0179819
733.067	0.0180540
733.146	0.0180917
733.224	0.0181464
733.302	0.0181033
733.380	0.0180110
733.458	0.0179309
733.536	0.0176967
733.614	0.0175800
733.692	0.0174117
733.771	0.0173943
733.849	0.0170544
733.927	0.0168660
734.005	0.0167264
734.083	0.0166022
734.161	0.0164587
734.239	0.0163059
734.317	0.0162025
734.396	0.0160509
734.474	0.0160765
734.552	0.0160612
734.630	0.0160746
734.708	0.0159145
734.786	0.0160466
734.864	0.0161294
734.942	0.0161384
735.021	0.0160840
735.099	0.0160542
735.177	0.0161887
735.255	0.0163423
735.333	0.0164715
735.411	0.0164801
735.489	0.0164870
735.567	0.0166712
735.646	0.0167951
735.724	0.0170427
735.802	0.0169566
735.880	0.0171002
735.958	0.0170563
736.036	0.0171451
736.114	0.0170417
736.192	0.0170205
736.271	0.0170567
736.349	0.0169408
736.427	0.0169779
736.505	0.0169095
736.583	0.0168597
736.661	0.0167287
736.739	0.0165276
736.817	0.0166651
736.896	0.0165295
736.974	0.0165839
737.052	0.0164764
737.130	0.0162887
737.208	0.0162752
737.286	0.0164347
737.364	0.0164626
737.442	0.0163302
737.521	0.0162281
737.599	0.0162370
737.677	0.0160942
737.755	0.0162388
737.833	0.0162523
737.911	0.0162241
737.989	0.0163175
738.067	0.0163588
738.146	0.0164794
738.224	0.0164617
738.302	0.0165035
738.380	0.0167040
738.458	0.0168044
738.536	0.0168475
738.614	0.0168324
738.692	0.0169874
738.771	0.0168901
738.849	0.0170075
738.927	0.0169675
739.005	0.0170177
739.083	0.0169928
739.161	0.0167797
739.239	0.0167366
739.317	0.0164149
739.396	0.0163769
739.474	0.0165034
739.552	0.0162653
739.630	0.0161227
739.708	0.0162321
739.786	0.0163212
739.864	0.0163898
739.942	0.0163898
740.021	0.0164993
740.099	0.0165923
740.177	0.0167991
740.255	0.0168141
740.333	0.0168884
740.411	0.0169803
740.489	0.0171594
740.567	0.0173364
740.646	0.0172526
740.724	0.0170868
740.802	0.0172396
740.880	0.0173370
740.958	0.0171308
741.036	0.0171830
741.114	0.0172738
741.192	0.0170988
741.271	0.0169508
741.349	0.0169498
741.427	0.0168077
741.505	0.0168184
741.583	0.0165987
741.661	0.0166024
741.739	0.0165324
741.817	0.0166092
741.896	0.0164205
741.974	0.0162918
742.052	0.0161420
742.130	0.0161137
742.208	0.0158913
742.286	0.0157671
742.364	0.0157858
742.442	0.0158179
742.521	0.0158938
742.599	0.0158163
742.677	0.0158230
742.755	0.0158286
742.833	0.0159196
742.911	0.0158772
742.989	0.0159657
743.067	0.0160677
743.146	0.0162288
743.224	0.0163773
743.302	0.0162999
743.380	0.0165900
743.458	0.0166552
743.536	0.0166094
743.614	0.0167033
743.692	0.0168492
743.771	0.0170276
743.849	0.0169374
743.927	0.0170121
744.005	0.0171234
744.083	0.0171808
744.161	0.0174080
744.239	0.0174668
744.317	0.0176859
744.396	0.0176005
744.474	0.0174023
744.552	0.0175961
744.630	0.0177423
744.708	0.0177151
744.786	0.0177840
744.864	0.0176238
744.942	0.0175546
745.021	0.0174512
745.099	0.0174132
745.177	0.0172815
745.255	0.0171416
745.333	0.0170596
745.411	0.0168768
745.489	0.0168172
745.567	0.0167191
745.646	0.0165870
745.724	0.0165839
745.802	0.0162837
745.880	0.0164155
745.958	0.0164551
746.036	0.0161673
746.114	0.0162407
746.192	0.0161789
746.271	0.0161843
746.349	0.0161461
746.427	0.0162392
746.505	0.0161416
746.583	0.0162563
746.661	0.0163342
746.739	0.0163280
746.817	0.0164661
746.896	0.0165388
746.974	0.0165935
747.052	0.0165353
747.130	0.0167004
747.208	0.0166774
747.286	0.0166856
747.364	0.0168639
747.442	0.0168410
747.521	0.0167968
747.599	0.0166604
747.677	0.0166374
747.755	0.0164890
747.833	0.0164365
747.911	0.0163063
747.989	0.0161749
748.067	0.0161627
748.146	0.0158666
748.224	0.0159809
748.302	0.0160371
748.380	0.0158521
748.458	0.0159304
748.536	0.0160119
748.614	0.0159370
748.692	0.0162704
748.771	0.0163192
748.849	0.0163598
748.927	0.0165554
749.005	0.0167029
749.083	0.0167242
749.161	0.0169984
749.239	0.0170529
749.317	0.0173302
749.396	0.0172632
749.474	0.0175896
749.552	0.0176967
749.630	0.0177339
749.708	0.0178371
749.786	0.0179482
749.864	0.0179342
749.942	0.0180100
750.021	0.0181239
750.099	0.0179533
750.177	0.0179502
750.255	0.0179874
750.333	0.0178121
750.411	0.0177460
750.489	0.0176389
750.567	0.0175007
750.646	0.0172859
750.724	0.0171225
750.802	0.0170993
750.880	0.0168765
750.958	0.0167860
751.036	0.0166157
751.114	0.0164704
751.192	0.0162103
751.271	0.0161169
751.349	0.0161378
751.427	0.0159701
751.505	0.0159940
751.583	0.0158388
751.661	0.0157116
751.739	0.0157835
751.817	0.0157746
751.896	0.0159418
751.974	0.0160177
752.052	0.0159916
752.130	0.0161076
752.208	0.0162453
752.286	0.0164577
752.364	0.0165090
752.442	0.0167101
752.521	0.0166985
752.599	0.0167406
752.677	0.0169087
752.755	0.0169151
752.833	0.0170068
752.911	0.0171324
752.989	0.0172649
753.067	0.0172138
753.146	0.0171207
753.224	0.0170195
753.302	0.0171449
753.380	0.0171677
753.458	0.0170923
753.536	0.0169390
753.614	0.0167822
753.692	0.0167023
753.771	0.0164324
753.849	0.0163712
753.927	0.0162170
754.005	0.0160055
754.083	0.0159866
754.161	0.0158340
754.239	0.0158825
754.317	0.0156813
754.396	0.0156610
754.474	0.0157176
754.552	0.0156751
754.630	0.0156027
754.708	0.0158296
754.786	0.0159399
754.864	0.0159713
754.942	0.0161250
755.021	0.0161075
755.099	0.0165573
755.177	0.0166278
755.255	0.0167389
755.333	0.0170114
755.411	0.0172930
755.489	0.0174019
755.567	0.0176221
755.646	0.0177662
755.724	0.0180757
755.802	0.0181236
755.880	0.0181600
755.958	0.0180813
756.036	0.0182664
756.114	0.0180692
756.192	0.0181332
756.271	0.0180634
756.349	0.0178864
756.427	0.0177959
756.505	0.0177061
756.583	0.0173449
756.661	0.0173446
756.739	0.0173852
756.817	0.0171761
756.896	0.0170198
756.974	0.0169962
757.052	0.0168564
757.130	0.0167432
757.208	0.0165441
757.286	0.0162657
757.364	0.0162270
757.442	0.0161012
757.521	0.0159668
757.599	0.0158534
757.677	0.0156751
757.755	0.0154357
757.833	0.0154517
757.911	0.0153527
757.989	0.0152685
758.067	0.0153219
758.146	0.0152319
758.224	0.0153333
758.302	0.0153593
758.380	0.0153763
758.458	0.0155371
758.536	0.0156597
758.614	0.0158147
758.692	0.0159531
758.771	0.0160630
758.849	0.0161551
758.927	0.0163469
759.005	0.0165948
759.083	0.0167815
759.161	0.0168017
759.239	0.0168763
759.317	0.0172046
759.396	0.0171584
759.474	0.0172276
759.552	0.0173346
759.630	0.0173783
759.708	0.0173662
759.786	0.0173677
759.864	0.0174032
759.942	0.0172684
760.021	0.0173367
760.099	0.0172257
760.177	0.0170319
760.255	0.0168873
760.333	0.0169073
760.411	0.0167867
760.489	0.0168156
760.567	0.0165954
760.646	0.0165519
760.724	0.0166917
760.802	0.0165466
760.880	0.0164891
760.958	0.0164945
761.036	0.0165311
761.114	0.0165681
761.192	0.0168507
761.271	0.0168026
761.349	0.0168477
761.427	0.0169689
761.505	0.0170159
761.583	0.0171275
761.661	0.0170576
761.739	0.0173353
761.817	0.0172836
761.896	0.0172731
761.974	0.0173765
762.052	0.0173196
762.130	0.0172021
762.208	0.0172998
762.286	0.0172436
762.364	0.0170352
762.442	0.0168991
762.521	0.0168904
762.599	0.0167299
762.677	0.0165237
762.755	0.0165443
762.833	0.0163769
762.911	0.0162224
762.989	0.0160979
763.067	0.0160381
763.146	0.0159848
763.224	0.0157819
763.302	0.0158005
763.380	0.0158206
763.458	0.0156508
763.536	0.0157277
763.614	0.0158919
763.692	0.0157563
763.771	0.0158684
763.849	0.0159479
763.927	0.0160902
764.005	0.0161132
764.083	0.0162946
764.161	0.0163611
764.239	0.0164579
764.317	0.0165718
764.396	0.0167561
764.474	0.0166405
764.552	0.0167604
764.630	0.0166896
764.708	0.0168109
764.786	0.0169238
764.864	0.0168452
764.942	0.0167587
765.021	0.0168645
765.099	0.0168872
765.177	0.0169418
765.255	0.0169718
765.333	0.0168930
765.411	0.0170259
765.489	0.0170059
765.567	0.0168604
765.646	0.0170164
765.724	0.0167278
765.802	0.0167915
765.880	0.0168390
765.958	0.0168439
766.036	0.0168085
766.114	0.0167662
766.192	0.0166557
766.271	0.0166095
766.349	0.0164767
766.427	0.0163220
766.505	0.0164223
766.583	0.0162780
766.661	0.0163900
766.739	0.0164138
766.817	0.0165076
766.896	0.0163645
766.974	0.0162661
767.052	0.0164077
767.130	0.0166018
767.208	0.0166412
767.286	0.0166734
767.364	0.0167690
767.442	0.0167300
767.521	0.0168636
767.599	0.0170487
767.677	0.0169498
767.755	0.0169168
767.833	0.0169400
767.911	0.0170351
767.989	0.0170002
768.067	0.0169897
768.146	0.0169937
768.224	0.0167960
768.302	0.0166653
768.380	0.0166839
768.458	0.0164995
768.536	0.0164134
768.614	0.0163441
768.692	0.0163203
768.771	0.0161004
768.849	0.0160255
768.927	0.0160473
769.005	0.0159680
769.083	0.0161964
769.161	0.0161049
769.239	0.0162000
769.317	0.0162994
769.396	0.0162004
769.474	0.0163528
769.552	0.0165437
769.630	0.0166171
769.708	0.0165564
769.786	0.0166342
769.864	0.0166531
769.942	0.0168147
770.021	0.0167120
770.099	0.0168347
770.177	0.0169570
770.255	0.0168471
770.333	0.0170049
770.411	0.0167494
770.489	0.0167696
770.567	0.0168600
770.646	0.0167716
770.724	0.0168530
770.802	0.0167384
770.880	0.0167580
770.958	0.0165676
771.036	0.0167944
771.114	0.0167918
771.192	0.0166796
771.271	0.0167114
771.349	0.0166389
771.427	0.0167051
771.505	0.0166154
771.583	0.0165570
771.661	0.0165450
771.739	0.0167286
771.817	0.0165966
771.896	0.0165341
771.974	0.0165772
772.052	0.0166373
772.130	0.0166587
772.208	0.0166483
772.286	0.0166327
772.364	0.0165457
772.442	0.0167616
772.521	0.0166717
772.599	0.0167510
772.677	0.0168768
772.755	0.0167952
772.833	0.0168938
772.911	0.0169092
772.989	0.0168542
773.067	0.0168935
773.146	0.0168318
773.224	0.0168310
773.302	0.0168893
773.380	0.0170728
773.458	0.0170901
773.536	0.0170456
773.614	0.0170049
773.692	0.0169981
773.771	0.0170570
773.849	0.0169687
773.927	0.0169479
774.005	0.0169118
774.083	0.0168430
774.161	0.0167113
774.239	0.0167933
774.317	0.0167120
774.396	0.0165549
774.474	0.0166962
774.552	0.0164211
774.630	0.0164680
774.708	0.0165365
774.786	0.0164645
774.864	0.0163721
774.942	0.0162975
775.021	0.0164257
775.099	0.0165452
775.177	0.0164622
775.255	0.0163952
775.333	0.0164966
775.411	0.0166466
775.489	0.0168327
775.567	0.0168010
775.646	0.0167836
775.724	0.0168651
775.802	0.0169204
775.880	0.0171188
775.958	0.0171222
776.036	0.0172269
776.114	0.0172047
776.192	0.0172569
776.271	0.0172177
776.349	0.0170774
776.427	0.0170829
776.505	0.0171650
776.583	0.0170715
776.661	0.0170541
776.739	0.0170459
776.817	0.0167922
776.896	0.0166872
776.974	0.0166529
777.052	0.0166454
777.130	0.0163603
777.208	0.0163214
777.286	0.0163269
777.364	0.0162360
777.442	0.0162318
777.521	0.0161250
777.599	0.0161489
777.677	0.0161726
777.755	0.0162088
777.833	0.0161187
777.911	0.0163846
777.989	0.0164053
778.067	0.0164314
778.146	0.0165442
778.224	0.0167435
778.302	0.0168715
778.380	0.0167741
778.458	0.0168916
778.536	0.0169491
778.614	0.0170543
778.692	0.0172498
778.771	0.0171267
778.849	0.0172051
778.927	0.0173231
779.005	0.0173440
779.083	0.0173418
779.161	0.0174177
779.239	0.0173843
779.317	0.0172094
779.396	0.0172052
779.474	0.0172447
779.552	0.0170814
779.630	0.0169791
779.708	0.0168327
779.786	0.0167208
779.864	0.0165982
779.942	0.0165053
780.021	0.0163893
780.099	0.0162884
780.177	0.0162221
780.255	0.0160392
780.333	0.0161007
780.411	0.0160961
780.489	0.0160578
780.567	0.0159016
780.646	0.0159306
780.724	0.0160106
780.802	0.0159002
780.880	0.0159263
780.958	0.0160821
781.036	0.0161668
781.114	0.0160302
781.192	0.0162266
781.271	0.0162206
781.349	0.0164275
781.427	0.0162409
781.505	0.0166158
781.583	0.0165337
781.661	0.0166653
781.739	0.0167582
781.817	0.0168522
781.896	0.0169540
781.974	0.0169225
782.052	0.0172089
782.130	0.0171788
782.208	0.0171933
782.286	0.0172389
782.364	0.0171828
782.442	0.0172148
782.521	0.0171349
782.599	0.0172530
782.677	0.0170905
782.755	0.0169447
782.833	0.0169339
782.911	0.0166830
782.989	0.0166769
783.067	0.0166815
783.146	0.0166153
783.224	0.0162144
783.302	0.0163203
783.380	0.0164529
783.458	0.0162556
783.536	0.0163602
783.614	0.0163753
783.692	0.0162582
783.771	0.0164661
783.849	0.0165569
783.927	0.0165597
784.005	0.0166807
784.083	0.0167871
784.161	0.0167734
784.239	0.0169687
784.317	0.0168388
784.396	0.0169772
784.474	0.0171381
784.552	0.0168609
784.630	0.0170151
784.708	0.0171516
784.786	0.0172356
784.864	0.0171539
784.942	0.0170499
785.021	0.0171614
785.099	0.0170832
785.177	0.0170669
785.255	0.0171444
785.333	0.0170517
785.411	0.0170061
785.489	0.0167960
785.567	0.0168441
785.646	0.0168095
785.724	0.0167415
785.802	0.0166996
785.880	0.0166363
785.958	0.0165639
786.036	0.0166352
786.114	0.0166164
786.192	0.0165501
786.271	0.0164563
786.349	0.0165485
786.427	0.0164189
786.505	0.0164368
786.583	0.0163718
786.661	0.0165267
786.739	0.0165640
786.817	0.0165805
786.896	0.0167341
786.974	0.0165913
787.052	0.0165752
787.130	0.0166186
787.208	0.0166949
787.286	0.0167233
787.364	0.0167226
787.442	0.0167683
787.521	0.0168880
787.599	0.0168186
787.677	0.0168427
787.755	0.0169230
787.833	0.0170140
787.911	0.0169346
787.989	0.0169207
788.067	0.0168659
788.146	0.0169494
788.224	0.0167696
788.302	0.0167783
788.380	0.0166635
788.458	0.0166689
788.536	0.0167064
788.614	0.0164110
788.692	0.0165288
788.771	0.0164206
788.849	0.0164697
788.927	0.0163380
789.005	0.0164335
789.083	0.0165486
789.161	0.0165486
789.239	0.0164882
789.317	0.0165778
789.396	0.0166991
789.474	0.0166559
789.552	0.0167117
789.630	0.0167500
789.708	0.0168307
789.786	0.0166122
789.864	0.0169791
789.942	0.0170093
790.021	0.0168689
790.099	0.0170364
790.177	0.0169337
790.255	0.0169240
790.333	0.0171408
790.411	0.0171644
790.489	0.0171770
790.567	0.0171553
790.646	0.0172324
790.724	0.0172561
790.802	0.0170910
790.880	0.0170899
790.958	0.0172503
791.036	0.0171574
791.114	0.0169627
791.192	0.0169261
791.271	0.0169433
791.349	0.0169868
791.427	0.0168134
791.505	0.0168703
791.583	0.0168117
791.661	0.0166102
791.739	0.0164754
791.817	0.0164651
791.896	0.0162331
791.974	0.0165056
792.052	0.0164846
792.130	0.0162503
792.208	0.0161687
792.286	0.0163866
792.364	0.0163536
792.442	0.0163645
792.521	0.0163104
792.599	0.0163931
792.677	0.0163822
792.755	0.0164112
792.833	0.0163608
792.911	0.0165038
792.989	0.0164539
793.067	0.0165377
793.146	0.0164531
793.224	0.0165602
793.302	0.0168286
793.380	0.0167770
793.458	0.0168550
793.536	0.0168561
793.614	0.0168625
793.692	0.0169157
793.771	0.0169338
793.849	0.0168958
793.927	0.0170811
794.005	0.0169287
794.083	0.0168478
794.161	0.0169777
794.239	0.0168661
794.317	0.0169015
794.396	0.0169817
794.474	0.0167821
794.552	0.0169385
794.630	0.0169872
794.708	0.0169553
794.786	0.0168912
794.864	0.0167548
794.942	0.0168257
795.021	0.0166253
795.099	0.0166357
795.177	0.0167268
795.255	0.0166257
795.333	0.0165344
795.411	0.0166040
795.489	0.0164153
795.567	0.0163404
795.646	0.0163980
795.724	0.0163592
795.802	0.0163383
795.880	0.0162897
795.958	0.0162866
796.036	0.0164182
796.114	0.0163599
796.192	0.0163759
796.271	0.0164665
796.349	0.0163910
796.427	0.0164465
796.505	0.0166107
796.583	0.0166431
796.661	0.0166999
796.739	0.0167208
796.817	0.0166883
796.896	0.0167791
796.974	0.0169170
797.052	0.0168380
797.130	0.0169574
797.208	0.0170960
797.286	0.0171030
797.364	0.0169328
797.442	0.0169840
797.521	0.0169849
797.599	0.0169563
797.677	0.0170509
797.755	0.0171217
797.833	0.0168954
797.911	0.0169835
797.989	0.0167426
798.067	0.0167894
798.146	0.0167739
798.224	0.0168139
798.302	0.0166128
798.380	0.0166631
798.458	0.0167786
798.536	0.0164965
798.614	0.0165856
798.692	0.0165829
798.771	0.0164548
798.849	0.0163989
798.927	0.0165053
799.005	0.0164138
799.083	0.0163302
799.161	0.0164143
799.239	0.0164477
799.317	0.0166338
799.396	0.0164610
799.474	0.0165511
799.552	0.0163506
799.630	0.0165381
799.708	0.0166407
799.786	0.0165884
799.864	0.0165410
799.942	0.0165447
800.021	0.0165520
800.099	0.0166367
800.177	0.0166776
800.255	0.0167098
800.333	0.0165993
800.411	0.0165388
800.489	0.0164754
800.567	0.0165414
800.646	0.0165086
800.724	0.0165227
800.802	0.0166316
800.880	0.0167053
800.958	0.0165495
801.036	0.0166222
801.114	0.0165718
801.192	0.0166797
801.271	0.0165475
801.349	0.0166425
801.427	0.0166116
801.505	0.0166350
801.583	0.0167696
801.661	0.0166575
801.739	0.0166592
801.817	0.0167365
801.896	0.0168346
801.974	0.0166680
802.052	0.0168080
802.130	0.0168641
802.208	0.0168768
802.286	0.0168341
802.364	0.0170236
802.442	0.0169353
802.521	0.0169833
802.599	0.0170490
802.677	0.0169172
802.755	0.0168796
802.833	0.0168596
802.911	0.0167876
802.989	0.0167255
803.067	0.0166877
803.146	0.0167046
803.224	0.0165598
803.302	0.0166707
803.380	0.0164407
803.458	0.0164513
803.536	0.0163979
803.614	0.0163682
803.692	0.0161711
803.771	0.0163236
803.849	0.0160875
803.927	0.0160970
804.005	0.0162312
804.083	0.0160475
804.161	0.0161432
804.239	0.0161950
804.317	0.0162012
804.396	0.0162684
804.474	0.0162583
804.552	0.0163548
804.630	0.0166171
804.708	0.0166540
804.786	0.0166171
804.864	0.0166889
804.942	0.0167603
805.021	0.0168627
805.099	0.0168911
805.177	0.0169378
805.255	0.0170627
805.333	0.0171714
805.411	0.0172824
805.489	0.0172515
805.567	0.0173428
805.646	0.0173357
805.724	0.0174702
805.802	0.0173820
805.880	0.0173715
805.958	0.0172380
806.036	0.0172929
806.114	0.0173198
806.192	0.0171277
806.271	0.0172668
806.349	0.0170761
806.427	0.0170657
806.505	0.0170292
806.583	0.0170076
806.661	0.0170158
806.739	0.0168802
806.817	0.0166736
806.896	0.0166059
806.974	0.0167332
807.052	0.0166207
807.130	0.0165938
807.208	0.0166231
807.286	0.0164531
807.364	0.0164433
807.442	0.0165561
807.521	0.0166316
807.599	0.0165526
807.677	0.0166885
807.755	0.0167066
807.833	0.0167365
807.911	0.0168358
807.989	0.0168378
808.067	0.0169042
808.146	0.0169289
808.224	0.0170380
808.302	0.0172164
808.380	0.0171284
808.458	0.0169795
808.536	0.0171061
808.614	0.0172028
808.692	0.0171231
808.771	0.0171237
808.849	0.0172190
808.927	0.0172568
809.005	0.0172525
809.083	0.0173392
809.161	0.0174477
809.239	0.0171728
809.317	0.0171863
809.396	0.0173263
809.474	0.0173537
809.552	0.0171751
809.630	0.0172210
809.708	0.0171708
809.786	0.0170121
809.864	0.0168565
809.942	0.0170206
810.021	0.0169004
810.099	0.0167651
810.177	0.0166299
810.255	0.0166112
810.333	0.0165669
810.411	0.0164979
810.489	0.0163865
810.567	0.0164909
810.646	0.0164323
810.724	0.0166133
810.802	0.0164008
810.880	0.0164105
810.958	0.0163284
811.036	0.0163461
811.114	0.0165507
811.192	0.0164034
811.271	0.0164743
811.349	0.0165078
811.427	0.0164895
811.505	0.0164770
811.583	0.0165835
811.661	0.0164181
811.739	0.0164686
811.817	0.0163889
811.896	0.0166621
811.974	0.0166667
812.052	0.0164381
812.130	0.0165556
812.208	0.0167435
812.286	0.0165884
812.364	0.0165117
812.442	0.0166295
812.521	0.0166801
812.599	0.0166383
812.677	0.0167103
812.755	0.0166648
812.833	0.0166524
812.911	0.0167792
812.989	0.0167326
813.067	0.0166528
813.146	0.0168155
813.224	0.0168135
813.302	0.0167140
813.380	0.0168156
813.458	0.0167313
813.536	0.0168106
813.614	0.0167902
813.692	0.0167862
813.771	0.0167107
813.849	0.0167451
813.927	0.0169151
814.005	0.0168794
814.083	0.0168471
814.161	0.0168756
814.239	0.0168564
814.317	0.0169062
814.396	0.0168843
814.474	0.0169591
814.552	0.0169858
814.630	0.0170761
814.708	0.0169530
814.786	0.0170244
814.864	0.0169828
814.942	0.0168437
815.021	0.0169802
815.099	0.0167435
815.177	0.0169095
815.255	0.0167620
815.333	0.0166813
815.411	0.0166095
815.489	0.0166345
815.567	0.0165730
815.646	0.0165024
815.724	0.0165048
815.802	0.0165714
815.880	0.0165091
815.958	0.0166380
816.036	0.0166723
816.114	0.0165839
816.192	0.0165361
816.271	0.0166170
816.349	0.0166409
816.427	0.0167863
816.505	0.0166848
816.583	0.0168148
816.661	0.0168256
816.739	0.0168388
816.817	0.0168430
816.896	0.0168859
816.974	0.0168652
817.052	0.0169231
817.130	0.0166891
817.208	0.0167684
817.286	0.0168939
817.364	0.0168063
817.442	0.0167652
817.521	0.0166689
817.599	0.0166122
817.677	0.0166544
817.755	0.0166644
817.833	0.0165385
817.911	0.0166692
817.989	0.0167862
818.067	0.0166522
818.146	0.0166051
818.224	0.0166233
818.302	0.0165568
818.380	0.0166704
818.458	0.0164436
818.536	0.0165807
818.614	0.0164613
818.692	0.0164258
818.771	0.0164250
818.849	0.0164513
818.927	0.0165510
819.005	0.0163247
819.083	0.0164803
819.161	0.0166772
819.239	0.0166359
819.317	0.0167131
819.396	0.0167817
819.474	0.0166290
819.552	0.0165891
819.630	0.0166183
819.708	0.0165952
819.786	0.0165828
819.864	0.0165981
819.942	0.0166776
820.021	0.0166260
820.099	0.0165978
820.177	0.0164382
820.255	0.0163931
820.333	0.0164731
820.411	0.0165125
820.489	0.0165068
820.567	0.0164473
820.646	0.0164135
820.724	0.0163796
820.802	0.0164879
820.880	0.0164343
820.958	0.0166553
821.036	0.0166499
821.114	0.0167246
821.192	0.0166244
821.271	0.0166961
821.349	0.0166884
821.427	0.0167223
821.505	0.0167252
821.583	0.0166036
821.661	0.0166744
821.739	0.0166592
821.817	0.0167812
821.896	0.0167136
821.974	0.0169804
822.052	0.0168515
822.130	0.0169855
822.208	0.0168995
822.286	0.0168368
822.364	0.0170536
822.442	0.0169190
822.521	0.0170126
822.599	0.0168899
822.677	0.0168497
822.755	0.0170966
822.833	0.0170221
822.911	0.0170383
822.989	0.0171326
823.067	0.0170436
823.146	0.0171144
823.224	0.0171590
823.302	0.0169241
823.380	0.0169611
823.458	0.0168983
823.536	0.0166957
823.614	0.0166930
823.692	0.0166910
823.771	0.0166791
823.849	0.0166458
823.927	0.0165582
824.005	0.0165501
824.083	0.0163680
824.161	0.0164124
824.239	0.0165657
824.317	0.0163638
824.396	0.0163740
824.474	0.0162073
824.552	0.0162520
824.630	0.0162165
824.708	0.0161543
824.786	0.0162453
824.864	0.0161648
824.942	0.0163213
825.021	0.0163248
825.099	0.0164147
825.177	0.0163421
825.255	0.0163776
825.333	0.0164856
825.411	0.0164451
825.489	0.0162833
825.567	0.0164867
825.646	0.0165697
825.724	0.0164785
825.802	0.0166864
825.880	0.0166921
825.958	0.0167210
826.036	0.0167104
826.114	0.0166045
826.192	0.0166497
826.271	0.0168507
826.349	0.0168398
826.427	0.0168029
826.505	0.0167608
826.583	0.0168488
826.661	0.0168291
826.739	0.0168067
826.817	0.0167677
826.896	0.0168485
826.974	0.0167799
827.052	0.0167623
827.130	0.0166387
827.208	0.0166188
827.286	0.0165714
827.364	0.0165091
827.442	0.0166830
827.521	0.0164135
827.599	0.0165865
827.677	0.0164985
827.755	0.0164787
827.833	0.0165026
827.911	0.0165240
827.989	0.0165212
828.067	0.0165493
828.146	0.0165765
828.224	0.0163859
828.302	0.0165440
828.380	0.0165488
828.458	0.0165874
828.536	0.0165330
828.614	0.0166520
828.692	0.0166692
828.771	0.0166248
828.849	0.0165240
828.927	0.0166841
829.005	0.0167458
829.083	0.0167721
829.161	0.0167390
829.239	0.0168263
829.317	0.0169631
829.396	0.0169501
829.474	0.0169224
829.552	0.0170525
829.630	0.0170057
829.708	0.0171453
829.786	0.0171851
829.864	0.0171696
829.942	0.0172412
830.021	0.0173559
830.099	0.0171975
830.177	0.0171806
830.255	0.0171378
830.333	0.0172053
830.411	0.0171416
830.489	0.0172081
830.567	0.0171941
830.646	0.0170243
830.724	0.0169964
830.802	0.0169563
830.880	0.0169331
830.958	0.0169244
831.036	0.0167734
831.114	0.0168384
831.192	0.0166867
831.271	0.0168863
831.349	0.0168675
831.427	0.0168204
831.505	0.0168036
831.583	0.0169128
831.661	0.0166500
831.739	0.0166577
831.817	0.0166467
831.896	0.0166060
831.974	0.0166711
832.052	0.0165684
832.130	0.0164748
832.208	0.0165469
832.286	0.0166055
832.364	0.0166090
832.442	0.0165706
832.521	0.0165971
832.599	0.0167550
832.677	0.0166924
832.755	0.0167579
832.833	0.0168002
832.911	0.0166452
832.989	0.0167644
833.067	0.0170133
833.146	0.0169505
833.224	0.0171551
833.302	0.0171207
833.380	0.0172333
833.458	0.0169094
833.536	0.0169624
833.614	0.0170422
833.692	0.0170016
833.771	0.0171471
833.849	0.0170322
833.927	0.0168377
834.005	0.0167919
834.083	0.0168987
834.161	0.0168616
834.239	0.0168248
834.317	0.0167312
834.396	0.0166689
834.474	0.0167146
834.552	0.0166660
834.630	0.0165541
834.708	0.0166068
834.786	0.0167947
834.864	0.0167209
834.942	0.0167681
835.021	0.0166371
835.099	0.0168364
835.177	0.0168407
835.255	0.0169015
835.333	0.0169247
835.411	0.0168685
835.489	0.0168894
835.567	0.0168842
835.646	0.0168201
835.724	0.0169100
835.802	0.0168124
835.880	0.0168039
835.958	0.0168106
836.036	0.0168349
836.114	0.0168250
836.192	0.0168178
836.271	0.0168266
836.349	0.0167374
836.427	0.0168000
836.505	0.0168114
836.583	0.0168751
836.661	0.0167412
836.739	0.0168020
836.817	0.0168909
836.896	0.0169175
836.974	0.0169164
837.052	0.0168501
837.130	0.0169212
837.208	0.0169050
837.286	0.0169188
837.364	0.0169007
837.442	0.0169563
837.521	0.0167533
837.599	0.0168072
837.677	0.0169437
837.755	0.0168504
837.833	0.0167427
837.911	0.0168904
837.989	0.0168114
838.067	0.0168491
838.146	0.0167751
838.224	0.0168171
838.302	0.0167929
838.380	0.0169218
838.458	0.0167519
838.536	0.0167149
838.614	0.0166939
838.692	0.0166475
838.771	0.0165290
838.849	0.0166067
838.927	0.0166549
839.005	0.0164880
839.083	0.0165937
839.161	0.0166087
839.239	0.0165897
839.317	0.0163181
839.396	0.0165295
839.474	0.0165552
839.552	0.0165311
839.630	0.0164869
839.708	0.0162933
839.786	0.0164027
839.864	0.0164437
839.942	0.0165569
840.021	0.0166920
840.099	0.0165555
840.177	0.0165799
840.255	0.0166422
840.333	0.0166523
840.411	0.0168401
840.489	0.0165926
840.567	0.0166975
840.646	0.0166978
840.724	0.0167022
840.802	0.0166938
840.880	0.0166779
840.958	0.0166724
841.036	0.0166521
841.114	0.0165559
841.192	0.0165668
841.271	0.0164840
841.349	0.0166435
841.427	0.0166203
841.505	0.0165871
841.583	0.0164906
841.661	0.0165449
841.739	0.0166206
841.817	0.0166152
841.896	0.0166520
841.974	0.0165700
842.052	0.0165227
842.130	0.0166371
842.208	0.0166622
842.286	0.0167054
842.364	0.0167954
842.442	0.0164944
842.521	0.0167129
842.599	0.0166457
842.677	0.0166382
842.755	0.0165172
842.833	0.0165051
842.911	0.0166077
842.989	0.0167104
843.067	0.0166476
843.146	0.0165865
843.224	0.0167310
843.302	0.0167172
843.380	0.0167233
843.458	0.0167860
843.536	0.0166191
843.614	0.0168184
843.692	0.0168609
843.771	0.0166408
843.849	0.0166680
843.927	0.0168001
844.005	0.0167583
844.083	0.0168481
844.161	0.0168586
844.239	0.0167201
844.317	0.0166052
844.396	0.0167371
844.474	0.0167343
844.552	0.0168595
844.630	0.0167927
844.708	0.0168033
844.786	0.0167001
844.864	0.0169239
844.942	0.0168260
845.021	0.0169045
845.099	0.0168559
845.177	0.0169023
845.255	0.0168579
845.333	0.0170602
845.411	0.0170015
845.489	0.0170393
845.567	0.0169846
845.646	0.0170457
845.724	0.0169547
845.802	0.0169560
845.880	0.0169711
845.958	0.0168414
846.036	0.0167501
846.114	0.0168768
846.192	0.0168182
846.271	0.0167712
846.349	0.0168155
846.427	0.0168295
846.505	0.0166879
846.583	0.0166151
846.661	0.0166636
846.739	0.0167479
846.817	0.0166778
846.896	0.0166344
846.974	0.0167259
847.052	0.0167893
847.130	0.0168186
847.208	0.0166036
847.286	0.0166624
847.364	0.0168053
847.442	0.0168089
847.521	0.0168563
847.599	0.0166830
847.677	0.0168022
847.755	0.0168273
847.833	0.0166787
847.911	0.0167708
847.989	0.0167502
848.067	0.0166617
848.146	0.0165894
848.224	0.0166229
848.302	0.0167712
848.380	0.0165235
848.458	0.0165382
848.536	0.0164992
848.614	0.0165874
848.692	0.0164690
848.771	0.0163631
848.849	0.0163927
848.927	0.0163302
849.005	0.0163187
849.083	0.0165353
849.161	0.0164556
849.239	0.0164455
849.317	0.0164135
849.396	0.0165335
849.474	0.0165989
849.552	0.0166209
849.630	0.0165095
849.708	0.0166711
849.786	0.0164824
849.864	0.0167799
849.942	0.0166738
850.021	0.0167788
850.099	0.0167304
850.177	0.0166886
850.255	0.0167818
850.333	0.0169189
850.411	0.0167571
850.489	0.0167974
850.567	0.0169245
850.646	0.0168424
850.724	0.0168840
850.802	0.0170417
850.880	0.0170184
850.958	0.0167912
851.036	0.0168854
851.114	0.0169427
851.192	0.0168931
851.271	0.0167857
851.349	0.0169708
851.427	0.0167649
851.505	0.0167731
851.583	0.0166523
851.661	0.0166556
851.739	0.0166673
851.817	0.0168272
851.896	0.0168716
851.974	0.0168906
852.052	0.0168089
852.130	0.0167999
852.208	0.0168566
852.286	0.0169376
852.364	0.0171004
852.442	0.0168939
852.521	0.0168933
852.599	0.0171067
852.677	0.0169897
852.755	0.0170815
852.833	0.0169469
852.911	0.0170345
852.989	0.0171063
853.067	0.0169448
853.146	0.0169463
853.224	0.0168094
853.302	0.0168997
853.380	0.0169202
853.458	0.0168042
853.536	0.0168297
853.614	0.0166830
853.692	0.0166290
853.771	0.0166465
853.849	0.0167699
853.927	0.0166330
854.005	0.0165447
854.083	0.0165092
854.161	0.0166444
854.239	0.0165311
854.317	0.0164129
854.396	0.0164896
854.474	0.0163857
854.552	0.0163174
854.630	0.0163342
854.708	0.0164330
854.786	0.0164981
854.864	0.0161655
854.942	0.0162193
855.021	0.0162204
855.099	0.0163164
855.177	0.0162670
855.255	0.0162895
855.333	0.0163815
855.411	0.0166054
855.489	0.0165320
855.567	0.0165189
855.646	0.0164772
855.724	0.0165804
855.802	0.0166010
855.880	0.0167151
855.958	0.0168814
856.036	0.0168153
856.114	0.0168535
856.192	0.0167350
856.271	0.0167516
856.349	0.0168596
856.427	0.0169184
856.505	0.0169172
856.583	0.0167918
856.661	0.0169006
856.739	0.0168617
856.817	0.0169628
856.896	0.0168408
856.974	0.0168663
857.052	0.0169351
857.130	0.0168185
857.208	0.0166956
857.286	0.0168915
857.364	0.0168227
857.442	0.0165995
857.521	0.0166888
857.599	0.0167804
857.677	0.0167982
857.755	0.0166541
857.833	0.0166862
857.911	0.0168361
857.989	0.0167101
858.067	0.0165990
858.146	0.0167429
858.224	0.0167953
858.302	0.0165526
858.380	0.0165269
858.458	0.0166412
858.536	0.0166930
858.614	0.0165458
858.692	0.0166955
858.771	0.0167253
858.849	0.0166193
858.927	0.0166624
859.005	0.0165389
859.083	0.0166912
859.161	0.0166802
859.239	0.0165986
859.317	0.0165836
859.396	0.0165778
859.474	0.0167718
859.552	0.0167354
859.630	0.0167214
859.708	0.0166409
859.786	0.0167082
859.864	0.0166515
859.942	0.0166425
860.021	0.0166888
860.099	0.0166319
860.177	0.0168703
860.255	0.0167096
860.333	0.0165773
860.411	0.0166467
860.489	0.0168269
860.567	0.0166636
860.646	0.0166186
860.724	0.0167870
860.802	0.0167609
860.880	0.0167419
860.958	0.0168110
861.036	0.0166673
861.114	0.0168326
861.192	0.0168448
861.271	0.0168063
861.349	0.0168491
861.427	0.0168840
861.505	0.0168755
861.583	0.0167944
861.661	0.0166995
861.739	0.0168249
861.817	0.0167905
861.896	0.0167943
861.974	0.0167722
862.052	0.0168526
862.130	0.0167669
862.208	0.0166896
862.286	0.0167420
862.364	0.0166619
862.442	0.0167421
862.521	0.0167854
862.599	0.0166315
862.677	0.0167002
862.755	0.0167091
862.833	0.0167576
862.911	0.0169374
862.989	0.0166536
863.067	0.0167432
863.146	0.0167309
863.224	0.0167216
863.302	0.0167625
863.380	0.0167812
863.458	0.0168382
863.536	0.0167542
863.614	0.0167764
863.692	0.0167691
863.771	0.0167390
863.849	0.0166224
863.927	0.0166788
864.005	0.0166595
864.083	0.0166066
864.161	0.0166628
864.239	0.0166431
864.317	0.0167977
864.396	0.0166423
864.474	0.0167268
864.552	0.0167139
864.630	0.0167500
864.708	0.0168151
864.786	0.0168623
864.864	0.0168073
864.942	0.0167126
865.021	0.0167973
865.099	0.0167639
865.177	0.0167371
865.255	0.0167441
865.333	0.0167235
865.411	0.0167861
865.489	0.0167297
865.567	0.0166427
865.646	0.0169133
865.724	0.0168203
865.802	0.0169001
865.880	0.0166635
865.958	0.0166940
866.036	0.0167860
866.114	0.0167895
866.192	0.0169155
866.271	0.0169097
866.349	0.0169580
866.427	0.0168690
866.505	0.0167189
866.583	0.0168774
866.661	0.0170160
866.739	0.0169179
866.817	0.0167468
866.896	0.0169028
866.974	0.0167596
867.052	0.0168170
867.130	0.0168835
867.208	0.0167822
867.286	0.0167258
867.364	0.0167171
867.442	0.0168065
867.521	0.0168864
867.599	0.0166481
867.677	0.0166951
867.755	0.0168858
867.833	0.0168683
867.911	0.0166750
867.989	0.0168012
868.067	0.0167132
868.146	0.0166615
868.224	0.0168346
868.302	0.0167860
868.380	0.0168157
868.458	0.0166856
868.536	0.0166886
868.614	0.0167619
868.692	0.0167599
868.771	0.0169046
868.849	0.0167672
868.927	0.0167874
869.005	0.0167200
869.083	0.0167944
869.161	0.0168521
869.239	0.0168520
869.317	0.0168316
869.396	0.0167600
869.474	0.0166682
869.552	0.0167614
869.630	0.0168263
869.708	0.0166520
869.786	0.0166944
869.864	0.0167293
869.942	0.0167781
