06/03/2022	16:01:37	Ver.	4.1	UNKNOWN
Optical Delay	550.020508	Delta X		0.078125	Sweeps	1	Scan Rate	0/0
Coordinates	Axis 1	NaN	Axis 2	NaN	Axis 3	NaN	Axis 4	NaN	Axis 5	NaN	Axis 6	0.000000
TX Power	0.000000	RX Power	0.000000

550.021	0.0163384
550.099	0.0162935
550.177	0.0162891
550.255	0.0163889
550.333	0.0163551
550.411	0.0162478
550.489	0.0162194
550.567	0.0162431
550.646	0.0163026
550.724	0.0162508
550.802	0.0162050
550.880	0.0163953
550.958	0.0162644
551.036	0.0162754
551.114	0.0162856
551.192	0.0161790
551.271	0.0162350
551.349	0.0163387
551.427	0.0162948
551.505	0.0162699
551.583	0.0164096
551.661	0.0162649
551.739	0.0162827
551.817	0.0162468
551.896	0.0163142
551.974	0.0162920
552.052	0.0162323
552.130	0.0162381
552.208	0.0162116
552.286	0.0161187
552.364	0.0161544
552.442	0.0163052
552.521	0.0162619
552.599	0.0162787
552.677	0.0162829
552.755	0.0161652
552.833	0.0162499
552.911	0.0161625
552.989	0.0161314
553.067	0.0161469
553.146	0.0162708
553.224	0.0162672
553.302	0.0163396
553.380	0.0164326
553.458	0.0162772
553.536	0.0162295
553.614	0.0162886
553.692	0.0164190
553.771	0.0162228
553.849	0.0162347
553.927	0.0162630
554.005	0.0163847
554.083	0.0163100
554.161	0.0162408
554.239	0.0163420
554.317	0.0162954
554.396	0.0162805
554.474	0.0161707
554.552	0.0162435
554.630	0.0162128
554.708	0.0163493
554.786	0.0162402
554.864	0.0162417
554.942	0.0164707
555.021	0.0162320
555.099	0.0163945
555.177	0.0163660
555.255	0.0161871
555.333	0.0163027
555.411	0.0163466
555.489	0.0163889
555.567	0.0164592
555.646	0.0164877
555.724	0.0163840
555.802	0.0164193
555.880	0.0163902
555.958	0.0163378
556.036	0.0164159
556.114	0.0163406
556.192	0.0162751
556.271	0.0162396
556.349	0.0162865
556.427	0.0164348
556.505	0.0162080
556.583	0.0162933
556.661	0.0162681
556.739	0.0163661
556.817	0.0162694
556.896	0.0163306
556.974	0.0164908
557.052	0.0163413
557.130	0.0163056
557.208	0.0164917
557.286	0.0163033
557.364	0.0162700
557.442	0.0164120
557.521	0.0163360
557.599	0.0163237
557.677	0.0164100
557.755	0.0163608
557.833	0.0163990
557.911	0.0162746
557.989	0.0163731
558.067	0.0162836
558.146	0.0163815
558.224	0.0163419
558.302	0.0163879
558.380	0.0163287
558.458	0.0164439
558.536	0.0163149
558.614	0.0164078
558.692	0.0163768
558.771	0.0163382
558.849	0.0162387
558.927	0.0162974
559.005	0.0162985
559.083	0.0162977
559.161	0.0163033
559.239	0.0163133
559.317	0.0162278
559.396	0.0161612
559.474	0.0162917
559.552	0.0163297
559.630	0.0163238
559.708	0.0161568
559.786	0.0161642
559.864	0.0162833
559.942	0.0162607
560.021	0.0163426
560.099	0.0163172
560.177	0.0161897
560.255	0.0163236
560.333	0.0162235
560.411	0.0163103
560.489	0.0164049
560.567	0.0162924
560.646	0.0162959
560.724	0.0163338
560.802	0.0162447
560.880	0.0160975
560.958	0.0162171
561.036	0.0163114
561.114	0.0162920
561.192	0.0161559
561.271	0.0161694
561.349	0.0163063
561.427	0.0161885
561.505	0.0162176
561.583	0.0163121
561.661	0.0163684
561.739	0.0161678
561.817	0.0162601
561.896	0.0162856
561.974	0.0162477
562.052	0.0162605
562.130	0.0162958
562.208	0.0163011
562.286	0.0162642
562.364	0.0162660
562.442	0.0162914
562.521	0.0163305
562.599	0.0163377
562.677	0.0162619
562.755	0.0162856
562.833	0.0162537
562.911	0.0162851
562.989	0.0163894
563.067	0.0164344
563.146	0.0162733
563.224	0.0163555
563.302	0.0164065
563.380	0.0162326
563.458	0.0162956
563.536	0.0164029
563.614	0.0164154
563.692	0.0163433
563.771	0.0162336
563.849	0.0163548
563.927	0.0162122
564.005	0.0163164
564.083	0.0162211
564.161	0.0162437
564.239	0.0162852
564.317	0.0164285
564.396	0.0164159
564.474	0.0163438
564.552	0.0163760
564.630	0.0163436
564.708	0.0164030
564.786	0.0164205
564.864	0.0163174
564.942	0.0162815
565.021	0.0164255
565.099	0.0164284
565.177	0.0163403
565.255	0.0161726
565.333	0.0163879
565.411	0.0163414
565.489	0.0162200
565.567	0.0162358
565.646	0.0163363
565.724	0.0162546
565.802	0.0163047
565.880	0.0163234
565.958	0.0163042
566.036	0.0164262
566.114	0.0162444
566.192	0.0162045
566.271	0.0164293
566.349	0.0163794
566.427	0.0162522
566.505	0.0163530
566.583	0.0162355
566.661	0.0165069
566.739	0.0162379
566.817	0.0162636
566.896	0.0162735
566.974	0.0163041
567.052	0.0163622
567.130	0.0163548
567.208	0.0162527
567.286	0.0163976
567.364	0.0164204
567.442	0.0161227
567.521	0.0164160
567.599	0.0164680
567.677	0.0162824
567.755	0.0163355
567.833	0.0164115
567.911	0.0162365
567.989	0.0164346
568.067	0.0164010
568.146	0.0164631
568.224	0.0164095
568.302	0.0164026
568.380	0.0162740
568.458	0.0163438
568.536	0.0164351
568.614	0.0162481
568.692	0.0162341
568.771	0.0163530
568.849	0.0163582
568.927	0.0163071
569.005	0.0161945
569.083	0.0163470
569.161	0.0163903
569.239	0.0162978
569.317	0.0163339
569.396	0.0164384
569.474	0.0163000
569.552	0.0163810
569.630	0.0163235
569.708	0.0162158
569.786	0.0163483
569.864	0.0161816
569.942	0.0163213
570.021	0.0163999
570.099	0.0163065
570.177	0.0163339
570.255	0.0163117
570.333	0.0163546
570.411	0.0163658
570.489	0.0163128
570.567	0.0163849
570.646	0.0162706
570.724	0.0163586
570.802	0.0163241
570.880	0.0163858
570.958	0.0163436
571.036	0.0163268
571.114	0.0163127
571.192	0.0164561
571.271	0.0163956
571.349	0.0162937
571.427	0.0163598
571.505	0.0162175
571.583	0.0163492
571.661	0.0163962
571.739	0.0163645
571.817	0.0163230
571.896	0.0161933
571.974	0.0162778
572.052	0.0162447
572.130	0.0163303
572.208	0.0164398
572.286	0.0163623
572.364	0.0162484
572.442	0.0162614
572.521	0.0163325
572.599	0.0163972
572.677	0.0164307
572.755	0.0163878
572.833	0.0162770
572.911	0.0162337
572.989	0.0163634
573.067	0.0164815
573.146	0.0163156
573.224	0.0163266
573.302	0.0164661
573.380	0.0164567
573.458	0.0162988
573.536	0.0164258
573.614	0.0164223
573.692	0.0163644
573.771	0.0164225
573.849	0.0165706
573.927	0.0164379
574.005	0.0163838
574.083	0.0163882
574.161	0.0163824
574.239	0.0164790
574.317	0.0162913
574.396	0.0163686
574.474	0.0163773
574.552	0.0162791
574.630	0.0163016
574.708	0.0163844
574.786	0.0163901
574.864	0.0163610
574.942	0.0163833
575.021	0.0163532
575.099	0.0163617
575.177	0.0164581
575.255	0.0163253
575.333	0.0164621
575.411	0.0164651
575.489	0.0163847
575.567	0.0163075
575.646	0.0163560
575.724	0.0164413
575.802	0.0165324
575.880	0.0165420
575.958	0.0164227
576.036	0.0165293
576.114	0.0164566
576.192	0.0165181
576.271	0.0164597
576.349	0.0164717
576.427	0.0164288
576.505	0.0164831
576.583	0.0164070
576.661	0.0163351
576.739	0.0163867
576.817	0.0165524
576.896	0.0165123
576.974	0.0164141
577.052	0.0164468
577.130	0.0165213
577.208	0.0163802
577.286	0.0163724
577.364	0.0164653
577.442	0.0163006
577.521	0.0163148
577.599	0.0165981
577.677	0.0164365
577.755	0.0164204
577.833	0.0163631
577.911	0.0164001
577.989	0.0164375
578.067	0.0164529
578.146	0.0162939
578.224	0.0162419
578.302	0.0164285
578.380	0.0164039
578.458	0.0164130
578.536	0.0163277
578.614	0.0162655
578.692	0.0163143
578.771	0.0162207
578.849	0.0163992
578.927	0.0163043
579.005	0.0164429
579.083	0.0163747
579.161	0.0163577
579.239	0.0163149
579.317	0.0162350
579.396	0.0162224
579.474	0.0163968
579.552	0.0163373
579.630	0.0163419
579.708	0.0163206
579.786	0.0162708
579.864	0.0162437
579.942	0.0163165
580.021	0.0163227
580.099	0.0164715
580.177	0.0163884
580.255	0.0163737
580.333	0.0163133
580.411	0.0163055
580.489	0.0162771
580.567	0.0163644
580.646	0.0164509
580.724	0.0161935
580.802	0.0162993
580.880	0.0162416
580.958	0.0163315
581.036	0.0162792
581.114	0.0163856
581.192	0.0162889
581.271	0.0164632
581.349	0.0161760
581.427	0.0163943
581.505	0.0162632
581.583	0.0163939
581.661	0.0162888
581.739	0.0161572
581.817	0.0162427
581.896	0.0163992
581.974	0.0162222
582.052	0.0162755
582.130	0.0163933
582.208	0.0162858
582.286	0.0162950
582.364	0.0162416
582.442	0.0163603
582.521	0.0164063
582.599	0.0162311
582.677	0.0163219
582.755	0.0161823
582.833	0.0163449
582.911	0.0162415
582.989	0.0162134
583.067	0.0164218
583.146	0.0163234
583.224	0.0162435
583.302	0.0163172
583.380	0.0163200
583.458	0.0163320
583.536	0.0162288
583.614	0.0162646
583.692	0.0162928
583.771	0.0162168
583.849	0.0164033
583.927	0.0164999
584.005	0.0164053
584.083	0.0162318
584.161	0.0164156
584.239	0.0162242
584.317	0.0163066
584.396	0.0163470
584.474	0.0163947
584.552	0.0164446
584.630	0.0163084
584.708	0.0162783
584.786	0.0163952
584.864	0.0163927
584.942	0.0163150
585.021	0.0164384
585.099	0.0163780
585.177	0.0163929
585.255	0.0163453
585.333	0.0163224
585.411	0.0163351
585.489	0.0164015
585.567	0.0164207
585.646	0.0163457
585.724	0.0162471
585.802	0.0164062
585.880	0.0164749
585.958	0.0164826
586.036	0.0163065
586.114	0.0163639
586.192	0.0163641
586.271	0.0164880
586.349	0.0163451
586.427	0.0162934
586.505	0.0163612
586.583	0.0162844
586.661	0.0164294
586.739	0.0164520
586.817	0.0163698
586.896	0.0163396
586.974	0.0162718
587.052	0.0163611
587.130	0.0164035
587.208	0.0165106
587.286	0.0163545
587.364	0.0164050
587.442	0.0165260
587.521	0.0164404
587.599	0.0163629
587.677	0.0164149
587.755	0.0164084
587.833	0.0163478
587.911	0.0164933
587.989	0.0163506
588.067	0.0164674
588.146	0.0164361
588.224	0.0164567
588.302	0.0164986
588.380	0.0164580
588.458	0.0163591
588.536	0.0163307
588.614	0.0163723
588.692	0.0163718
588.771	0.0163628
588.849	0.0164123
588.927	0.0164143
589.005	0.0164609
589.083	0.0164094
589.161	0.0164156
589.239	0.0164008
589.317	0.0162638
589.396	0.0163216
589.474	0.0162228
589.552	0.0164334
589.630	0.0164536
589.708	0.0163448
589.786	0.0163380
589.864	0.0163190
589.942	0.0162971
590.021	0.0163692
590.099	0.0164401
590.177	0.0162514
590.255	0.0163144
590.333	0.0164697
590.411	0.0162910
590.489	0.0164061
590.567	0.0162952
590.646	0.0165094
590.724	0.0163998
590.802	0.0163954
590.880	0.0163985
590.958	0.0163921
591.036	0.0164850
591.114	0.0163218
591.192	0.0162626
591.271	0.0164234
591.349	0.0164011
591.427	0.0164227
591.505	0.0164105
591.583	0.0163697
591.661	0.0163916
591.739	0.0162984
591.817	0.0163255
591.896	0.0163240
591.974	0.0163405
592.052	0.0163612
592.130	0.0164387
592.208	0.0162830
592.286	0.0162455
592.364	0.0164064
592.442	0.0163352
592.521	0.0163193
592.599	0.0162810
592.677	0.0163119
592.755	0.0162561
592.833	0.0162792
592.911	0.0162482
592.989	0.0162589
593.067	0.0162911
593.146	0.0162075
593.224	0.0164156
593.302	0.0162498
593.380	0.0161433
593.458	0.0162898
593.536	0.0162280
593.614	0.0162151
593.692	0.0162304
593.771	0.0161357
593.849	0.0161543
593.927	0.0162228
594.005	0.0161621
594.083	0.0161713
594.161	0.0161444
594.239	0.0162082
594.317	0.0163232
594.396	0.0163600
594.474	0.0162383
594.552	0.0161855
594.630	0.0162531
594.708	0.0164134
594.786	0.0164202
594.864	0.0161884
594.942	0.0163519
595.021	0.0163393
595.099	0.0163805
595.177	0.0163078
595.255	0.0163573
595.333	0.0164168
595.411	0.0163132
595.489	0.0161639
595.567	0.0163762
595.646	0.0163290
595.724	0.0162987
595.802	0.0161817
595.880	0.0163457
595.958	0.0164304
596.036	0.0163253
596.114	0.0162280
596.192	0.0162833
596.271	0.0163309
596.349	0.0162663
596.427	0.0162201
596.505	0.0164026
596.583	0.0163000
596.661	0.0162760
596.739	0.0163536
596.817	0.0163808
596.896	0.0163507
596.974	0.0163071
597.052	0.0163831
597.130	0.0163361
597.208	0.0163437
597.286	0.0163338
597.364	0.0164433
597.442	0.0164001
597.521	0.0163911
597.599	0.0165192
597.677	0.0163708
597.755	0.0163007
597.833	0.0162064
597.911	0.0163817
597.989	0.0163618
598.067	0.0164729
598.146	0.0162547
598.224	0.0162525
598.302	0.0162484
598.380	0.0162523
598.458	0.0164552
598.536	0.0161832
598.614	0.0162945
598.692	0.0162586
598.771	0.0163522
598.849	0.0163283
598.927	0.0162626
599.005	0.0162571
599.083	0.0163921
599.161	0.0164238
599.239	0.0163685
599.317	0.0164788
599.396	0.0163776
599.474	0.0164485
599.552	0.0163348
599.630	0.0161774
599.708	0.0161529
599.786	0.0164120
599.864	0.0163886
599.942	0.0162260
600.021	0.0164071
600.099	0.0164471
600.177	0.0163725
600.255	0.0163893
600.333	0.0164778
600.411	0.0164630
600.489	0.0164606
600.567	0.0166218
600.646	0.0164265
600.724	0.0164159
600.802	0.0162837
600.880	0.0164869
600.958	0.0166531
601.036	0.0163066
601.114	0.0165665
601.192	0.0164771
601.271	0.0164090
601.349	0.0163891
601.427	0.0163714
601.505	0.0165562
601.583	0.0165894
601.661	0.0164780
601.739	0.0164210
601.817	0.0164853
601.896	0.0164137
601.974	0.0164379
602.052	0.0164367
602.130	0.0164452
602.208	0.0164890
602.286	0.0163141
602.364	0.0164610
602.442	0.0164454
602.521	0.0162881
602.599	0.0163963
602.677	0.0163232
602.755	0.0163386
602.833	0.0164074
602.911	0.0162839
602.989	0.0164481
603.067	0.0163715
603.146	0.0163548
603.224	0.0162415
603.302	0.0164256
603.380	0.0163911
603.458	0.0164040
603.536	0.0163238
603.614	0.0163765
603.692	0.0163103
603.771	0.0163996
603.849	0.0164436
603.927	0.0162211
604.005	0.0162310
604.083	0.0162457
604.161	0.0163482
604.239	0.0165533
604.317	0.0162616
604.396	0.0163491
604.474	0.0164150
604.552	0.0162600
604.630	0.0163702
604.708	0.0164470
604.786	0.0163020
604.864	0.0163585
604.942	0.0164616
605.021	0.0163318
605.099	0.0163072
605.177	0.0164192
605.255	0.0163183
605.333	0.0163922
605.411	0.0162639
605.489	0.0163515
605.567	0.0164178
605.646	0.0163437
605.724	0.0161974
605.802	0.0162663
605.880	0.0162648
605.958	0.0163333
606.036	0.0163171
606.114	0.0162164
606.192	0.0164529
606.271	0.0163233
606.349	0.0162550
606.427	0.0163992
606.505	0.0164094
606.583	0.0163129
606.661	0.0163176
606.739	0.0163194
606.817	0.0163168
606.896	0.0162722
606.974	0.0163116
607.052	0.0163507
607.130	0.0163749
607.208	0.0161700
607.286	0.0162270
607.364	0.0161971
607.442	0.0161917
607.521	0.0161651
607.599	0.0162242
607.677	0.0162643
607.755	0.0163459
607.833	0.0164871
607.911	0.0161774
607.989	0.0161736
608.067	0.0162380
608.146	0.0161504
608.224	0.0161814
608.302	0.0162700
608.380	0.0162947
608.458	0.0162513
608.536	0.0162093
608.614	0.0160545
608.692	0.0162050
608.771	0.0162010
608.849	0.0162513
608.927	0.0162470
609.005	0.0160302
609.083	0.0162218
609.161	0.0162908
609.239	0.0161584
609.317	0.0162074
609.396	0.0162346
609.474	0.0161080
609.552	0.0160054
609.630	0.0161478
609.708	0.0161171
609.786	0.0161985
609.864	0.0161612
609.942	0.0161346
610.021	0.0162235
610.099	0.0161784
610.177	0.0161765
610.255	0.0162849
610.333	0.0162136
610.411	0.0160257
610.489	0.0161056
610.567	0.0162594
610.646	0.0161220
610.724	0.0162312
610.802	0.0161494
610.880	0.0162426
610.958	0.0162187
611.036	0.0163126
611.114	0.0161591
611.192	0.0162433
611.271	0.0162476
611.349	0.0164338
611.427	0.0163898
611.505	0.0161364
611.583	0.0160638
611.661	0.0163020
611.739	0.0163515
611.817	0.0163643
611.896	0.0163647
611.974	0.0163274
612.052	0.0163542
612.130	0.0162830
612.208	0.0162601
612.286	0.0162819
612.364	0.0164007
612.442	0.0163393
612.521	0.0163249
612.599	0.0163608
612.677	0.0163453
612.755	0.0162989
612.833	0.0163369
612.911	0.0164005
612.989	0.0163644
613.067	0.0163433
613.146	0.0163017
613.224	0.0163969
613.302	0.0163678
613.380	0.0162494
613.458	0.0164577
613.536	0.0165863
613.614	0.0163115
613.692	0.0164364
613.771	0.0163728
613.849	0.0164040
613.927	0.0164585
614.005	0.0163369
614.083	0.0164107
614.161	0.0164650
614.239	0.0164312
614.317	0.0163274
614.396	0.0163898
614.474	0.0165401
614.552	0.0164183
614.630	0.0162823
614.708	0.0163956
614.786	0.0163444
614.864	0.0164732
614.942	0.0164366
615.021	0.0162887
615.099	0.0162156
615.177	0.0163979
615.255	0.0163574
615.333	0.0163792
615.411	0.0163598
615.489	0.0163349
615.567	0.0164091
615.646	0.0163022
615.724	0.0163237
615.802	0.0163278
615.880	0.0162663
615.958	0.0164721
616.036	0.0164630
616.114	0.0162394
616.192	0.0164306
616.271	0.0163125
616.349	0.0163337
616.427	0.0164214
616.505	0.0162699
616.583	0.0163046
616.661	0.0162477
616.739	0.0163131
616.817	0.0161897
616.896	0.0164101
616.974	0.0164143
617.052	0.0163221
617.130	0.0162288
617.208	0.0162280
617.286	0.0163208
617.364	0.0163757
617.442	0.0163348
617.521	0.0163640
617.599	0.0163416
617.677	0.0161424
617.755	0.0163139
617.833	0.0162705
617.911	0.0162975
617.989	0.0162222
618.067	0.0162677
618.146	0.0163338
618.224	0.0162041
618.302	0.0162074
618.380	0.0163004
618.458	0.0162191
618.536	0.0162444
618.614	0.0162903
618.692	0.0164565
618.771	0.0162452
618.849	0.0162132
618.927	0.0163242
619.005	0.0163641
619.083	0.0162075
619.161	0.0162887
619.239	0.0163830
619.317	0.0162781
619.396	0.0162148
619.474	0.0163901
619.552	0.0162785
619.630	0.0163968
619.708	0.0163565
619.786	0.0163280
619.864	0.0163358
619.942	0.0163452
620.021	0.0163396
620.099	0.0163466
620.177	0.0162128
620.255	0.0163962
620.333	0.0162588
620.411	0.0162718
620.489	0.0161790
620.567	0.0163589
620.646	0.0163072
620.724	0.0163161
620.802	0.0162373
620.880	0.0164481
620.958	0.0162478
621.036	0.0163177
621.114	0.0163266
621.192	0.0162798
621.271	0.0164558
621.349	0.0162453
621.427	0.0162529
621.505	0.0163644
621.583	0.0162508
621.661	0.0164120
621.739	0.0163071
621.817	0.0163181
621.896	0.0163856
621.974	0.0163396
622.052	0.0162292
622.130	0.0163114
622.208	0.0163208
622.286	0.0163656
622.364	0.0162775
622.442	0.0162758
622.521	0.0162312
622.599	0.0162312
622.677	0.0163428
622.755	0.0164317
622.833	0.0163780
622.911	0.0163320
622.989	0.0163940
623.067	0.0163660
623.146	0.0163954
623.224	0.0163199
623.302	0.0164153
623.380	0.0163825
623.458	0.0163139
623.536	0.0164209
623.614	0.0165642
623.692	0.0162922
623.771	0.0164056
623.849	0.0164195
623.927	0.0164178
624.005	0.0165606
624.083	0.0164689
624.161	0.0163693
624.239	0.0164426
624.317	0.0163758
624.396	0.0165397
624.474	0.0166627
624.552	0.0166004
624.630	0.0165244
624.708	0.0165125
624.786	0.0166232
624.864	0.0165408
624.942	0.0165666
625.021	0.0164521
625.099	0.0163950
625.177	0.0165991
625.255	0.0164796
625.333	0.0164478
625.411	0.0165588
625.489	0.0165086
625.567	0.0164157
625.646	0.0164644
625.724	0.0164467
625.802	0.0164935
625.880	0.0164333
625.958	0.0163480
626.036	0.0164407
626.114	0.0165203
626.192	0.0164256
626.271	0.0164803
626.349	0.0164690
626.427	0.0166344
626.505	0.0165335
626.583	0.0165500
626.661	0.0164301
626.739	0.0163798
626.817	0.0165228
626.896	0.0164714
626.974	0.0163655
627.052	0.0164635
627.130	0.0164906
627.208	0.0164637
627.286	0.0165316
627.364	0.0164716
627.442	0.0164707
627.521	0.0164165
627.599	0.0165235
627.677	0.0164826
627.755	0.0163633
627.833	0.0163477
627.911	0.0164015
627.989	0.0163086
628.067	0.0163024
628.146	0.0164482
628.224	0.0165058
628.302	0.0164004
628.380	0.0164845
628.458	0.0164689
628.536	0.0164211
628.614	0.0165207
628.692	0.0163662
628.771	0.0163780
628.849	0.0162988
628.927	0.0163156
629.005	0.0163745
629.083	0.0163451
629.161	0.0164048
629.239	0.0163528
629.317	0.0163182
629.396	0.0163682
629.474	0.0162578
629.552	0.0163410
629.630	0.0162719
629.708	0.0163330
629.786	0.0162971
629.864	0.0163147
629.942	0.0162017
630.021	0.0162471
630.099	0.0164025
630.177	0.0163361
630.255	0.0162624
630.333	0.0161609
630.411	0.0164095
630.489	0.0163741
630.567	0.0162549
630.646	0.0163484
630.724	0.0162946
630.802	0.0162601
630.880	0.0163334
630.958	0.0162688
631.036	0.0163692
631.114	0.0162864
631.192	0.0162612
631.271	0.0163086
631.349	0.0163334
631.427	0.0162774
631.505	0.0163580
631.583	0.0162498
631.661	0.0162579
631.739	0.0162525
631.817	0.0161580
631.896	0.0162694
631.974	0.0163549
632.052	0.0163956
632.130	0.0163806
632.208	0.0162674
632.286	0.0163068
632.364	0.0162688
632.442	0.0162273
632.521	0.0162124
632.599	0.0162784
632.677	0.0162836
632.755	0.0164222
632.833	0.0161993
632.911	0.0162704
632.989	0.0163076
633.067	0.0162740
633.146	0.0161784
633.224	0.0162717
633.302	0.0162437
633.380	0.0163122
633.458	0.0162918
633.536	0.0163290
633.614	0.0163224
633.692	0.0163300
633.771	0.0163512
633.849	0.0163618
633.927	0.0162994
634.005	0.0163855
634.083	0.0163329
634.161	0.0162351
634.239	0.0162399
634.317	0.0162847
634.396	0.0162241
634.474	0.0162184
634.552	0.0162852
634.630	0.0163280
634.708	0.0162582
634.786	0.0165060
634.864	0.0162739
634.942	0.0162302
635.021	0.0164080
635.099	0.0162473
635.177	0.0162637
635.255	0.0162966
635.333	0.0163156
635.411	0.0164078
635.489	0.0163655
635.567	0.0162276
635.646	0.0162514
635.724	0.0163126
635.802	0.0161400
635.880	0.0162041
635.958	0.0162959
636.036	0.0163563
636.114	0.0162271
636.192	0.0161794
636.271	0.0162714
636.349	0.0162264
636.427	0.0161929
636.505	0.0163983
636.583	0.0162741
636.661	0.0162637
636.739	0.0162428
636.817	0.0163232
636.896	0.0162484
636.974	0.0162832
637.052	0.0161718
637.130	0.0161691
637.208	0.0162667
637.286	0.0162750
637.364	0.0162659
637.442	0.0162631
637.521	0.0162644
637.599	0.0162236
637.677	0.0161897
637.755	0.0162395
637.833	0.0162155
637.911	0.0162768
637.989	0.0161231
638.067	0.0162421
638.146	0.0162000
638.224	0.0161553
638.302	0.0161356
638.380	0.0162212
638.458	0.0162656
638.536	0.0161777
638.614	0.0162247
638.692	0.0162106
638.771	0.0162835
638.849	0.0162575
638.927	0.0161995
639.005	0.0162741
639.083	0.0162753
639.161	0.0163715
639.239	0.0162717
639.317	0.0162452
639.396	0.0162083
639.474	0.0162205
639.552	0.0162276
639.630	0.0161943
639.708	0.0162682
639.786	0.0163945
639.864	0.0162774
639.942	0.0162865
640.021	0.0161831
640.099	0.0162071
640.177	0.0162370
640.255	0.0162352
640.333	0.0163031
640.411	0.0162595
640.489	0.0162160
640.567	0.0160909
640.646	0.0164441
640.724	0.0163546
640.802	0.0162103
640.880	0.0163032
640.958	0.0162809
641.036	0.0162510
641.114	0.0163665
641.192	0.0163470
641.271	0.0162700
641.349	0.0163773
641.427	0.0163089
641.505	0.0162252
641.583	0.0163789
641.661	0.0162804
641.739	0.0163002
641.817	0.0163801
641.896	0.0163748
641.974	0.0163351
642.052	0.0165526
642.130	0.0163958
642.208	0.0164219
642.286	0.0164486
642.364	0.0162498
642.442	0.0164198
642.521	0.0163751
642.599	0.0164876
642.677	0.0163322
642.755	0.0163883
642.833	0.0164769
642.911	0.0164043
642.989	0.0164279
643.067	0.0164156
643.146	0.0163186
643.224	0.0164005
643.302	0.0163565
643.380	0.0164890
643.458	0.0164220
643.536	0.0163931
643.614	0.0164575
643.692	0.0163470
643.771	0.0165339
643.849	0.0162912
643.927	0.0163596
644.005	0.0165226
644.083	0.0163306
644.161	0.0163159
644.239	0.0162576
644.317	0.0163601
644.396	0.0165156
644.474	0.0165138
644.552	0.0164111
644.630	0.0163071
644.708	0.0163625
644.786	0.0164000
644.864	0.0164024
644.942	0.0164697
645.021	0.0163421
645.099	0.0164779
645.177	0.0164886
645.255	0.0162791
645.333	0.0164645
645.411	0.0165427
645.489	0.0163554
645.567	0.0164306
645.646	0.0164430
645.724	0.0165234
645.802	0.0163800
645.880	0.0162830
645.958	0.0163761
646.036	0.0163106
646.114	0.0163336
646.192	0.0164349
646.271	0.0163859
646.349	0.0164773
646.427	0.0164766
646.505	0.0163666
646.583	0.0165839
646.661	0.0163401
646.739	0.0165047
646.817	0.0164803
646.896	0.0162901
646.974	0.0164704
647.052	0.0165216
647.130	0.0165347
647.208	0.0164480
647.286	0.0163242
647.364	0.0163441
647.442	0.0164207
647.521	0.0165192
647.599	0.0164529
647.677	0.0164403
647.755	0.0162400
647.833	0.0164405
647.911	0.0163850
647.989	0.0164352
648.067	0.0164713
648.146	0.0164975
648.224	0.0164082
648.302	0.0163754
648.380	0.0163918
648.458	0.0163676
648.536	0.0165194
648.614	0.0164820
648.692	0.0164465
648.771	0.0164697
648.849	0.0165023
648.927	0.0164444
649.005	0.0164510
649.083	0.0163824
649.161	0.0164578
649.239	0.0163453
649.317	0.0163911
649.396	0.0164908
649.474	0.0166063
649.552	0.0165002
649.630	0.0165021
649.708	0.0165370
649.786	0.0164877
649.864	0.0164745
649.942	0.0165928
650.021	0.0164030
650.099	0.0165199
650.177	0.0164381
650.255	0.0164429
650.333	0.0164613
650.411	0.0164713
650.489	0.0164395
650.567	0.0165513
650.646	0.0163220
650.724	0.0164218
650.802	0.0163673
650.880	0.0165147
650.958	0.0164399
651.036	0.0164568
651.114	0.0164976
651.192	0.0166134
651.271	0.0164634
651.349	0.0164339
651.427	0.0164139
651.505	0.0165656
651.583	0.0164523
651.661	0.0164140
651.739	0.0163509
651.817	0.0163749
651.896	0.0165132
651.974	0.0164945
652.052	0.0165220
652.130	0.0163727
652.208	0.0164014
652.286	0.0163152
652.364	0.0163679
652.442	0.0163719
652.521	0.0164456
652.599	0.0163017
652.677	0.0164271
652.755	0.0164658
652.833	0.0163413
652.911	0.0165146
652.989	0.0164357
653.067	0.0163933
653.146	0.0164511
653.224	0.0164669
653.302	0.0163811
653.380	0.0163256
653.458	0.0163828
653.536	0.0163223
653.614	0.0163717
653.692	0.0163178
653.771	0.0163519
653.849	0.0163313
653.927	0.0162581
654.005	0.0162642
654.083	0.0163884
654.161	0.0164535
654.239	0.0164510
654.317	0.0163356
654.396	0.0163195
654.474	0.0163023
654.552	0.0164416
654.630	0.0163882
654.708	0.0164104
654.786	0.0164696
654.864	0.0163718
654.942	0.0163435
655.021	0.0164797
655.099	0.0163024
655.177	0.0163528
655.255	0.0165022
655.333	0.0163203
655.411	0.0162856
655.489	0.0165001
655.567	0.0162656
655.646	0.0162847
655.724	0.0163878
655.802	0.0162772
655.880	0.0162841
655.958	0.0164219
656.036	0.0163438
656.114	0.0163594
656.192	0.0162522
656.271	0.0163669
656.349	0.0163718
656.427	0.0162381
656.505	0.0164291
656.583	0.0163702
656.661	0.0163756
656.739	0.0161903
656.817	0.0163039
656.896	0.0163620
656.974	0.0163367
657.052	0.0161997
657.130	0.0162510
657.208	0.0162527
657.286	0.0162876
657.364	0.0161327
657.442	0.0161652
657.521	0.0162112
657.599	0.0163604
657.677	0.0162899
657.755	0.0161450
657.833	0.0162495
657.911	0.0163130
657.989	0.0162647
658.067	0.0161991
658.146	0.0162259
658.224	0.0161740
658.302	0.0162106
658.380	0.0163094
658.458	0.0162925
658.536	0.0162212
658.614	0.0162836
658.692	0.0161313
658.771	0.0161481
658.849	0.0163129
658.927	0.0161680
659.005	0.0161270
659.083	0.0161325
659.161	0.0163172
659.239	0.0162247
659.317	0.0161049
659.396	0.0160701
659.474	0.0161443
659.552	0.0161427
659.630	0.0164146
659.708	0.0162700
659.786	0.0160395
659.864	0.0161780
659.942	0.0161214
660.021	0.0162215
660.099	0.0162074
660.177	0.0162199
660.255	0.0161331
660.333	0.0162182
660.411	0.0160938
660.489	0.0161324
660.567	0.0161513
660.646	0.0162919
660.724	0.0161380
660.802	0.0161855
660.880	0.0162325
660.958	0.0162167
661.036	0.0159681
661.114	0.0161619
661.192	0.0162359
661.271	0.0161690
661.349	0.0161071
661.427	0.0161520
661.505	0.0161036
661.583	0.0161232
661.661	0.0161758
661.739	0.0162032
661.817	0.0159467
661.896	0.0161703
661.974	0.0161928
662.052	0.0162442
662.130	0.0162983
662.208	0.0161602
662.286	0.0160842
662.364	0.0162927
662.442	0.0161814
662.521	0.0161413
662.599	0.0161317
662.677	0.0162878
662.755	0.0162118
662.833	0.0160207
662.911	0.0161646
662.989	0.0160732
663.067	0.0161202
663.146	0.0162173
663.224	0.0160307
663.302	0.0161147
663.380	0.0162555
663.458	0.0161951
663.536	0.0161426
663.614	0.0161668
663.692	0.0160958
663.771	0.0161478
663.849	0.0162061
663.927	0.0162010
664.005	0.0162432
664.083	0.0161704
664.161	0.0162347
664.239	0.0162013
664.317	0.0163367
664.396	0.0162661
664.474	0.0162865
664.552	0.0162503
664.630	0.0162630
664.708	0.0161264
664.786	0.0162676
664.864	0.0161784
664.942	0.0162284
665.021	0.0163485
665.099	0.0162682
665.177	0.0160756
665.255	0.0161654
665.333	0.0161604
665.411	0.0161211
665.489	0.0161935
665.567	0.0161530
665.646	0.0162598
665.724	0.0162186
665.802	0.0162921
665.880	0.0162556
665.958	0.0161512
666.036	0.0161933
666.114	0.0162880
666.192	0.0161624
666.271	0.0162521
666.349	0.0162603
666.427	0.0162494
666.505	0.0163055
666.583	0.0162365
666.661	0.0162395
666.739	0.0162856
666.817	0.0164388
666.896	0.0162279
666.974	0.0163465
667.052	0.0162292
667.130	0.0161908
667.208	0.0162201
667.286	0.0160720
667.364	0.0161999
667.442	0.0163524
667.521	0.0162839
667.599	0.0161828
667.677	0.0162103
667.755	0.0163593
667.833	0.0162482
667.911	0.0163381
667.989	0.0163551
668.067	0.0163176
668.146	0.0163893
668.224	0.0162830
668.302	0.0164069
668.380	0.0162662
668.458	0.0162933
668.536	0.0161954
668.614	0.0163538
668.692	0.0163460
668.771	0.0162276
668.849	0.0163636
668.927	0.0164005
669.005	0.0162991
669.083	0.0163252
669.161	0.0163688
669.239	0.0164831
669.317	0.0165178
669.396	0.0163923
669.474	0.0164913
669.552	0.0166061
669.630	0.0164986
669.708	0.0164480
669.786	0.0163908
669.864	0.0162805
669.942	0.0162988
670.021	0.0163587
670.099	0.0164571
670.177	0.0164400
670.255	0.0164442
670.333	0.0164883
670.411	0.0164496
670.489	0.0163468
670.567	0.0166025
670.646	0.0164889
670.724	0.0164214
670.802	0.0164220
670.880	0.0164141
670.958	0.0165257
671.036	0.0163792
671.114	0.0163352
671.192	0.0164230
671.271	0.0164843
671.349	0.0164649
671.427	0.0162783
671.505	0.0164090
671.583	0.0163871
671.661	0.0164179
671.739	0.0164112
671.817	0.0164029
671.896	0.0164021
671.974	0.0162668
672.052	0.0164597
672.130	0.0164407
672.208	0.0162386
672.286	0.0163100
672.364	0.0162976
672.442	0.0162920
672.521	0.0163454
672.599	0.0163915
672.677	0.0163142
672.755	0.0164014
672.833	0.0163180
672.911	0.0164030
672.989	0.0163560
673.067	0.0163160
673.146	0.0163280
673.224	0.0163889
673.302	0.0163818
673.380	0.0163481
673.458	0.0164813
673.536	0.0164415
673.614	0.0162964
673.692	0.0163629
673.771	0.0163050
673.849	0.0163236
673.927	0.0164565
674.005	0.0163194
674.083	0.0162847
674.161	0.0163272
674.239	0.0163953
674.317	0.0163234
674.396	0.0162360
674.474	0.0162667
674.552	0.0164272
674.630	0.0163643
674.708	0.0163132
674.786	0.0161456
674.864	0.0162964
674.942	0.0163733
675.021	0.0162064
675.099	0.0162974
675.177	0.0163937
675.255	0.0163680
675.333	0.0162312
675.411	0.0162836
675.489	0.0162811
675.567	0.0163968
675.646	0.0163225
675.724	0.0163010
675.802	0.0161707
675.880	0.0162223
675.958	0.0161968
676.036	0.0162066
676.114	0.0162773
676.192	0.0163545
676.271	0.0161803
676.349	0.0161327
676.427	0.0162946
676.505	0.0162519
676.583	0.0161907
676.661	0.0162563
676.739	0.0161604
676.817	0.0162485
676.896	0.0161663
676.974	0.0163152
677.052	0.0163008
677.130	0.0162904
677.208	0.0163567
677.286	0.0163481
677.364	0.0162799
677.442	0.0162510
677.521	0.0164807
677.599	0.0164021
677.677	0.0164050
677.755	0.0163538
677.833	0.0162774
677.911	0.0163375
677.989	0.0164060
678.067	0.0164630
678.146	0.0163029
678.224	0.0162435
678.302	0.0163885
678.380	0.0164653
678.458	0.0163439
678.536	0.0162693
678.614	0.0163119
678.692	0.0163873
678.771	0.0163272
678.849	0.0163348
678.927	0.0162720
679.005	0.0161668
679.083	0.0163072
679.161	0.0162791
679.239	0.0162003
679.317	0.0160945
679.396	0.0161919
679.474	0.0161408
679.552	0.0161816
679.630	0.0162990
679.708	0.0162334
679.786	0.0162434
679.864	0.0161531
679.942	0.0162823
680.021	0.0162477
680.099	0.0163222
680.177	0.0163146
680.255	0.0163211
680.333	0.0164226
680.411	0.0162885
680.489	0.0163409
680.567	0.0163731
680.646	0.0163508
680.724	0.0164420
680.802	0.0163800
680.880	0.0162880
680.958	0.0163163
681.036	0.0163501
681.114	0.0164929
681.192	0.0164060
681.271	0.0161667
681.349	0.0162311
681.427	0.0161937
681.505	0.0162724
681.583	0.0163738
681.661	0.0162843
681.739	0.0161515
681.817	0.0163297
681.896	0.0163638
681.974	0.0161897
682.052	0.0163214
682.130	0.0161883
682.208	0.0162516
682.286	0.0163014
682.364	0.0164851
682.442	0.0162596
682.521	0.0161591
682.599	0.0162621
682.677	0.0163698
682.755	0.0163831
682.833	0.0163150
682.911	0.0162595
682.989	0.0164030
683.067	0.0162875
683.146	0.0163469
683.224	0.0162819
683.302	0.0162374
683.380	0.0161823
683.458	0.0162492
683.536	0.0161958
683.614	0.0161544
683.692	0.0160736
683.771	0.0161005
683.849	0.0159519
683.927	0.0160179
684.005	0.0159927
684.083	0.0161399
684.161	0.0160194
684.239	0.0161225
684.317	0.0161157
684.396	0.0161031
684.474	0.0162028
684.552	0.0160384
684.630	0.0163249
684.708	0.0162399
684.786	0.0162245
684.864	0.0163474
684.942	0.0163960
685.021	0.0164767
685.099	0.0163112
685.177	0.0165098
685.255	0.0166196
685.333	0.0164894
685.411	0.0165005
685.489	0.0164464
685.567	0.0162377
685.646	0.0164956
685.724	0.0163507
685.802	0.0162271
685.880	0.0162067
685.958	0.0162395
686.036	0.0160598
686.114	0.0159507
686.192	0.0160783
686.271	0.0159660
686.349	0.0159151
686.427	0.0158746
686.505	0.0158173
686.583	0.0157320
686.661	0.0157340
686.739	0.0156052
686.817	0.0157442
686.896	0.0158602
686.974	0.0158051
687.052	0.0158681
687.130	0.0159220
687.208	0.0160291
687.286	0.0160465
687.364	0.0160583
687.442	0.0161769
687.521	0.0161595
687.599	0.0162061
687.677	0.0164393
687.755	0.0162878
687.833	0.0163198
687.911	0.0162530
687.989	0.0163486
688.067	0.0162996
688.146	0.0162946
688.224	0.0162897
688.302	0.0160668
688.380	0.0161921
688.458	0.0164011
688.536	0.0161736
688.614	0.0161489
688.692	0.0163784
688.771	0.0163046
688.849	0.0164121
688.927	0.0162872
689.005	0.0162724
689.083	0.0163744
689.161	0.0163461
689.239	0.0163220
689.317	0.0163009
689.396	0.0163421
689.474	0.0163766
689.552	0.0163503
689.630	0.0163009
689.708	0.0161223
689.786	0.0161138
689.864	0.0162054
689.942	0.0161893
690.021	0.0159778
690.099	0.0160145
690.177	0.0159504
690.255	0.0160840
690.333	0.0160529
690.411	0.0158763
690.489	0.0160651
690.567	0.0159455
690.646	0.0159137
690.724	0.0159622
690.802	0.0161766
690.880	0.0161282
690.958	0.0161323
691.036	0.0163007
691.114	0.0162671
691.192	0.0165104
691.271	0.0165186
691.349	0.0164219
691.427	0.0166494
691.505	0.0167535
691.583	0.0167505
691.661	0.0167350
691.739	0.0167753
691.817	0.0166726
691.896	0.0165689
691.974	0.0167191
692.052	0.0166544
692.130	0.0165485
692.208	0.0163923
692.286	0.0163501
692.364	0.0163774
692.442	0.0162560
692.521	0.0162305
692.599	0.0162533
692.677	0.0160756
692.755	0.0161679
692.833	0.0160670
692.911	0.0160230
692.989	0.0160108
693.067	0.0161426
693.146	0.0161050
693.224	0.0160936
693.302	0.0162099
693.380	0.0162715
693.458	0.0162408
693.536	0.0162103
693.614	0.0163689
693.692	0.0164011
693.771	0.0163399
693.849	0.0162846
693.927	0.0163840
694.005	0.0164260
694.083	0.0162531
694.161	0.0162353
694.239	0.0163921
694.317	0.0162753
694.396	0.0161823
694.474	0.0162336
694.552	0.0162511
694.630	0.0161265
694.708	0.0159567
694.786	0.0161589
694.864	0.0160667
694.942	0.0159992
695.021	0.0159740
695.099	0.0160778
695.177	0.0161649
695.255	0.0161282
695.333	0.0162213
695.411	0.0163603
695.489	0.0162361
695.567	0.0164514
695.646	0.0166033
695.724	0.0166521
695.802	0.0166855
695.880	0.0165762
695.958	0.0167089
696.036	0.0166850
696.114	0.0168215
696.192	0.0168510
696.271	0.0165489
696.349	0.0167316
696.427	0.0167313
696.505	0.0166239
696.583	0.0166740
696.661	0.0166219
696.739	0.0165284
696.817	0.0165795
696.896	0.0164374
696.974	0.0165129
697.052	0.0164890
697.130	0.0163712
697.208	0.0162791
697.286	0.0161744
697.364	0.0163108
697.442	0.0163492
697.521	0.0162707
697.599	0.0161398
697.677	0.0161602
697.755	0.0162615
697.833	0.0162261
697.911	0.0162297
697.989	0.0161940
698.067	0.0162609
698.146	0.0162737
698.224	0.0162258
698.302	0.0163644
698.380	0.0163248
698.458	0.0163676
698.536	0.0161694
698.614	0.0162403
698.692	0.0162363
698.771	0.0162029
698.849	0.0162318
698.927	0.0161332
699.005	0.0162321
699.083	0.0162231
699.161	0.0161705
699.239	0.0162076
699.317	0.0162066
699.396	0.0161127
699.474	0.0160139
699.552	0.0160857
699.630	0.0161670
699.708	0.0163638
699.786	0.0163722
699.864	0.0163217
699.942	0.0162645
700.021	0.0163624
700.099	0.0163717
700.177	0.0165480
700.255	0.0165440
700.333	0.0166583
700.411	0.0165255
700.489	0.0165265
700.567	0.0164215
700.646	0.0165915
700.724	0.0165802
700.802	0.0165347
700.880	0.0165164
700.958	0.0164581
701.036	0.0165968
701.114	0.0164488
701.192	0.0164986
701.271	0.0166070
701.349	0.0164439
701.427	0.0163564
701.505	0.0166094
701.583	0.0166794
701.661	0.0166173
701.739	0.0165818
701.817	0.0164788
701.896	0.0166110
701.974	0.0167049
702.052	0.0167350
702.130	0.0166756
702.208	0.0165951
702.286	0.0166026
702.364	0.0165028
702.442	0.0166029
702.521	0.0164497
702.599	0.0165053
702.677	0.0164704
702.755	0.0162639
702.833	0.0162666
702.911	0.0161581
702.989	0.0161217
703.067	0.0161060
703.146	0.0160255
703.224	0.0161437
703.302	0.0159762
703.380	0.0160614
703.458	0.0160380
703.536	0.0161024
703.614	0.0160718
703.692	0.0159763
703.771	0.0160760
703.849	0.0160209
703.927	0.0161325
704.005	0.0160712
704.083	0.0158930
704.161	0.0160601
704.239	0.0160770
704.317	0.0159545
704.396	0.0158138
704.474	0.0159254
704.552	0.0158593
704.630	0.0157470
704.708	0.0158599
704.786	0.0159542
704.864	0.0158773
704.942	0.0158491
705.021	0.0159499
705.099	0.0159921
705.177	0.0163123
705.255	0.0160449
705.333	0.0161876
705.411	0.0163466
705.489	0.0164909
705.567	0.0166039
705.646	0.0168201
705.724	0.0168015
705.802	0.0167538
705.880	0.0169431
705.958	0.0168785
706.036	0.0172124
706.114	0.0170465
706.192	0.0170999
706.271	0.0168423
706.349	0.0170232
706.427	0.0169736
706.505	0.0168729
706.583	0.0167838
706.661	0.0168323
706.739	0.0165048
706.817	0.0164480
706.896	0.0164365
706.974	0.0162300
707.052	0.0161446
707.130	0.0158966
707.208	0.0161657
707.286	0.0159691
707.364	0.0160311
707.442	0.0161500
707.521	0.0159654
707.599	0.0158091
707.677	0.0161240
707.755	0.0162267
707.833	0.0162849
707.911	0.0163361
707.989	0.0164447
708.067	0.0164902
708.146	0.0166698
708.224	0.0166579
708.302	0.0166018
708.380	0.0165861
708.458	0.0167563
708.536	0.0167628
708.614	0.0166828
708.692	0.0167950
708.771	0.0166795
708.849	0.0164688
708.927	0.0165983
709.005	0.0164323
709.083	0.0164793
709.161	0.0163349
709.239	0.0163587
709.317	0.0163369
709.396	0.0162708
709.474	0.0162119
709.552	0.0161271
709.630	0.0160899
709.708	0.0161482
709.786	0.0159065
709.864	0.0158817
709.942	0.0159966
710.021	0.0159879
710.099	0.0159698
710.177	0.0159360
710.255	0.0158959
710.333	0.0159796
710.411	0.0160122
710.489	0.0159129
710.567	0.0159911
710.646	0.0158338
710.724	0.0159032
710.802	0.0160311
710.880	0.0160767
710.958	0.0162715
711.036	0.0162991
711.114	0.0164404
711.192	0.0162962
711.271	0.0164026
711.349	0.0164429
711.427	0.0164745
711.505	0.0164023
711.583	0.0165475
711.661	0.0166077
711.739	0.0163895
711.817	0.0163644
711.896	0.0163987
711.974	0.0161630
712.052	0.0162855
712.130	0.0162154
712.208	0.0161337
712.286	0.0161436
712.364	0.0161622
712.442	0.0161250
712.521	0.0162869
712.599	0.0161823
712.677	0.0162501
712.755	0.0163983
712.833	0.0163025
712.911	0.0163930
712.989	0.0165176
713.067	0.0166013
713.146	0.0165263
713.224	0.0166330
713.302	0.0168012
713.380	0.0166795
713.458	0.0166724
713.536	0.0167069
713.614	0.0167534
713.692	0.0167883
713.771	0.0167279
713.849	0.0167361
713.927	0.0165128
714.005	0.0165815
714.083	0.0166241
714.161	0.0164008
714.239	0.0163456
714.317	0.0163610
714.396	0.0162077
714.474	0.0161346
714.552	0.0158535
714.630	0.0158263
714.708	0.0157545
714.786	0.0155122
714.864	0.0155403
714.942	0.0154762
715.021	0.0155323
715.099	0.0155733
715.177	0.0155201
715.255	0.0153824
715.333	0.0155759
715.411	0.0156696
715.489	0.0157044
715.567	0.0157027
715.646	0.0159276
715.724	0.0159655
715.802	0.0161607
715.880	0.0163496
715.958	0.0164231
716.036	0.0164966
716.114	0.0167268
716.192	0.0168620
716.271	0.0168159
716.349	0.0169852
716.427	0.0169939
716.505	0.0170223
716.583	0.0171873
716.661	0.0171470
716.739	0.0170090
716.817	0.0170470
716.896	0.0168614
716.974	0.0168523
717.052	0.0167197
717.130	0.0166508
717.208	0.0166113
717.286	0.0164228
717.364	0.0163650
717.442	0.0162950
717.521	0.0162331
717.599	0.0161181
717.677	0.0161168
717.755	0.0161604
717.833	0.0161932
717.911	0.0163762
717.989	0.0163902
718.067	0.0164690
718.146	0.0164056
718.224	0.0164977
718.302	0.0166628
718.380	0.0165081
718.458	0.0164862
718.536	0.0166286
718.614	0.0163773
718.692	0.0165196
718.771	0.0163894
718.849	0.0163817
718.927	0.0163921
719.005	0.0162450
719.083	0.0161517
719.161	0.0159917
719.239	0.0158928
719.317	0.0157782
719.396	0.0155470
719.474	0.0154413
719.552	0.0153548
719.630	0.0153718
719.708	0.0152857
719.786	0.0151565
719.864	0.0152943
719.942	0.0153549
720.021	0.0153584
720.099	0.0156744
720.177	0.0156387
720.255	0.0158644
720.333	0.0160778
720.411	0.0160992
720.489	0.0164153
720.567	0.0167793
720.646	0.0169172
720.724	0.0171484
720.802	0.0172485
720.880	0.0174780
720.958	0.0176477
721.036	0.0179086
721.114	0.0178813
721.192	0.0178548
721.271	0.0179730
721.349	0.0180103
721.427	0.0179784
721.505	0.0178022
721.583	0.0177215
721.661	0.0176460
721.739	0.0174622
721.817	0.0173755
721.896	0.0173106
721.974	0.0170664
722.052	0.0168633
722.130	0.0167031
722.208	0.0166431
722.286	0.0165778
722.364	0.0163608
722.442	0.0162428
722.521	0.0160358
722.599	0.0159927
722.677	0.0158730
722.755	0.0157674
722.833	0.0156763
722.911	0.0156779
722.989	0.0156059
723.067	0.0154576
723.146	0.0153606
723.224	0.0152947
723.302	0.0153429
723.380	0.0154013
723.458	0.0153728
723.536	0.0153889
723.614	0.0154425
723.692	0.0156701
723.771	0.0155591
723.849	0.0156456
723.927	0.0156339
724.005	0.0159165
724.083	0.0160139
724.161	0.0161003
724.239	0.0163183
724.317	0.0164305
724.396	0.0165691
724.474	0.0166304
724.552	0.0165655
724.630	0.0166418
724.708	0.0168087
724.786	0.0170317
724.864	0.0170120
724.942	0.0171656
725.021	0.0172254
725.099	0.0172733
725.177	0.0171336
725.255	0.0172779
725.333	0.0172756
725.411	0.0173040
725.489	0.0173518
725.567	0.0172177
725.646	0.0171624
725.724	0.0171826
725.802	0.0171780
725.880	0.0170620
725.958	0.0170150
726.036	0.0168505
726.114	0.0169063
726.192	0.0167281
726.271	0.0165038
726.349	0.0165132
726.427	0.0162341
726.505	0.0161310
726.583	0.0160480
726.661	0.0160623
726.739	0.0158746
726.817	0.0159302
726.896	0.0156416
726.974	0.0155018
727.052	0.0154253
727.130	0.0154395
727.208	0.0155219
727.286	0.0154574
727.364	0.0153600
727.442	0.0153639
727.521	0.0155537
727.599	0.0153156
727.677	0.0154162
727.755	0.0156225
727.833	0.0157265
727.911	0.0158546
727.989	0.0158563
728.067	0.0158690
728.146	0.0159957
728.224	0.0160150
728.302	0.0161829
728.380	0.0163048
728.458	0.0163056
728.536	0.0163448
728.614	0.0165086
728.692	0.0167110
728.771	0.0165807
728.849	0.0165992
728.927	0.0167543
729.005	0.0168451
729.083	0.0169818
729.161	0.0170738
729.239	0.0172739
729.317	0.0172525
729.396	0.0174335
729.474	0.0174500
729.552	0.0175423
729.630	0.0177016
729.708	0.0176539
729.786	0.0176115
729.864	0.0176443
729.942	0.0175335
730.021	0.0175949
730.099	0.0174048
730.177	0.0174514
730.255	0.0174319
730.333	0.0171575
730.411	0.0170148
730.489	0.0168354
730.567	0.0165788
730.646	0.0162879
730.724	0.0161275
730.802	0.0157357
730.880	0.0153460
730.958	0.0151615
731.036	0.0150014
731.114	0.0147539
731.192	0.0145168
731.271	0.0144322
731.349	0.0144953
731.427	0.0143757
731.505	0.0143086
731.583	0.0145092
731.661	0.0145726
731.739	0.0145382
731.817	0.0148154
731.896	0.0151827
731.974	0.0152354
732.052	0.0154224
732.130	0.0156896
732.208	0.0159101
732.286	0.0160347
732.364	0.0160163
732.442	0.0161134
732.521	0.0164483
732.599	0.0166320
732.677	0.0169241
732.755	0.0169607
732.833	0.0169677
732.911	0.0170950
732.989	0.0171399
733.067	0.0173676
733.146	0.0173052
733.224	0.0173834
733.302	0.0173933
733.380	0.0172596
733.458	0.0172796
733.536	0.0171579
733.614	0.0169249
733.692	0.0168683
733.771	0.0168173
733.849	0.0165376
733.927	0.0164615
734.005	0.0162123
734.083	0.0161396
734.161	0.0159138
734.239	0.0159558
734.317	0.0159148
734.396	0.0159258
734.474	0.0157679
734.552	0.0158946
734.630	0.0159221
734.708	0.0157684
734.786	0.0159492
734.864	0.0163364
734.942	0.0161858
735.021	0.0161865
735.099	0.0162171
735.177	0.0163112
735.255	0.0163456
735.333	0.0162939
735.411	0.0163683
735.489	0.0164206
735.567	0.0164667
735.646	0.0165557
735.724	0.0164851
735.802	0.0164766
735.880	0.0164894
735.958	0.0165126
736.036	0.0163676
736.114	0.0163420
736.192	0.0166165
736.271	0.0164295
736.349	0.0163541
736.427	0.0164735
736.505	0.0164514
736.583	0.0164760
736.661	0.0162548
736.739	0.0162050
736.817	0.0162018
736.896	0.0161044
736.974	0.0161549
737.052	0.0161091
737.130	0.0159704
737.208	0.0159850
737.286	0.0160526
737.364	0.0158850
737.442	0.0159889
737.521	0.0159415
737.599	0.0158730
737.677	0.0159213
737.755	0.0158350
737.833	0.0159614
737.911	0.0161193
737.989	0.0158106
738.067	0.0160279
738.146	0.0160172
738.224	0.0161568
738.302	0.0161745
738.380	0.0162946
738.458	0.0164644
738.536	0.0165675
738.614	0.0165644
738.692	0.0167136
738.771	0.0167220
738.849	0.0166989
738.927	0.0167554
739.005	0.0167896
739.083	0.0168109
739.161	0.0167545
739.239	0.0166602
739.317	0.0165948
739.396	0.0164861
739.474	0.0162939
739.552	0.0161177
739.630	0.0160163
739.708	0.0159698
739.786	0.0159218
739.864	0.0158570
739.942	0.0158941
740.021	0.0156740
740.099	0.0156819
740.177	0.0158874
740.255	0.0161920
740.333	0.0162379
740.411	0.0164155
740.489	0.0164143
740.567	0.0164925
740.646	0.0166543
740.724	0.0167428
740.802	0.0167881
740.880	0.0166290
740.958	0.0168224
741.036	0.0168899
741.114	0.0167863
741.192	0.0167735
741.271	0.0167449
741.349	0.0166624
741.427	0.0167117
741.505	0.0167941
741.583	0.0167814
741.661	0.0166123
741.739	0.0164494
741.817	0.0165923
741.896	0.0164373
741.974	0.0164249
742.052	0.0163027
742.130	0.0162556
742.208	0.0160818
742.286	0.0159770
742.364	0.0157471
742.442	0.0157351
742.521	0.0157224
742.599	0.0155020
742.677	0.0155357
742.755	0.0154660
742.833	0.0154944
742.911	0.0155031
742.989	0.0155892
743.067	0.0156391
743.146	0.0156464
743.224	0.0158164
743.302	0.0158749
743.380	0.0158482
743.458	0.0160669
743.536	0.0160630
743.614	0.0161404
743.692	0.0162822
743.771	0.0164252
743.849	0.0166490
743.927	0.0166793
744.005	0.0168110
744.083	0.0168182
744.161	0.0168222
744.239	0.0167769
744.317	0.0168848
744.396	0.0169181
744.474	0.0169135
744.552	0.0169846
744.630	0.0169788
744.708	0.0170855
744.786	0.0171294
744.864	0.0170681
744.942	0.0171754
745.021	0.0170539
745.099	0.0171252
745.177	0.0170725
745.255	0.0172487
745.333	0.0170564
745.411	0.0169773
745.489	0.0167327
745.567	0.0168510
745.646	0.0166077
745.724	0.0165528
745.802	0.0165187
745.880	0.0164529
745.958	0.0162909
746.036	0.0162195
746.114	0.0161048
746.192	0.0160725
746.271	0.0160695
746.349	0.0159439
746.427	0.0158389
746.505	0.0159718
746.583	0.0158537
746.661	0.0157476
746.739	0.0159898
746.817	0.0159210
746.896	0.0159138
746.974	0.0160861
747.052	0.0160991
747.130	0.0161225
747.208	0.0161421
747.286	0.0162527
747.364	0.0162824
747.442	0.0161743
747.521	0.0161604
747.599	0.0160534
747.677	0.0159756
747.755	0.0160113
747.833	0.0159483
747.911	0.0159748
747.989	0.0158295
748.067	0.0158083
748.146	0.0158735
748.224	0.0159010
748.302	0.0157509
748.380	0.0159161
748.458	0.0159720
748.536	0.0159357
748.614	0.0159912
748.692	0.0160010
748.771	0.0160978
748.849	0.0162098
748.927	0.0162375
749.005	0.0164766
749.083	0.0164225
749.161	0.0164121
749.239	0.0164480
749.317	0.0166415
749.396	0.0167447
749.474	0.0166780
749.552	0.0169086
749.630	0.0170499
749.708	0.0170047
749.786	0.0170828
749.864	0.0172285
749.942	0.0172525
750.021	0.0173942
750.099	0.0175375
750.177	0.0173760
750.255	0.0174818
750.333	0.0171741
750.411	0.0174390
750.489	0.0173605
750.567	0.0171590
750.646	0.0170587
750.724	0.0169721
750.802	0.0168668
750.880	0.0166310
750.958	0.0164505
751.036	0.0162862
751.114	0.0161068
751.192	0.0158630
751.271	0.0156335
751.349	0.0156124
751.427	0.0153654
751.505	0.0152042
751.583	0.0152592
751.661	0.0153213
751.739	0.0151335
751.817	0.0151964
751.896	0.0153870
751.974	0.0153691
752.052	0.0155220
752.130	0.0157188
752.208	0.0157621
752.286	0.0159319
752.364	0.0161562
752.442	0.0163399
752.521	0.0163001
752.599	0.0164758
752.677	0.0165829
752.755	0.0166898
752.833	0.0168024
752.911	0.0167622
752.989	0.0170174
753.067	0.0169334
753.146	0.0168961
753.224	0.0169500
753.302	0.0169625
753.380	0.0168678
753.458	0.0166808
753.536	0.0164107
753.614	0.0163418
753.692	0.0162353
753.771	0.0159998
753.849	0.0159701
753.927	0.0155472
754.005	0.0154599
754.083	0.0153814
754.161	0.0153472
754.239	0.0151306
754.317	0.0150030
754.396	0.0151120
754.474	0.0150532
754.552	0.0150217
754.630	0.0148927
754.708	0.0150661
754.786	0.0152940
754.864	0.0153080
754.942	0.0154494
755.021	0.0156166
755.099	0.0158978
755.177	0.0160288
755.255	0.0162376
755.333	0.0164671
755.411	0.0166893
755.489	0.0169089
755.567	0.0171307
755.646	0.0170936
755.724	0.0172119
755.802	0.0176401
755.880	0.0177541
755.958	0.0177040
756.036	0.0176340
756.114	0.0176915
756.192	0.0176075
756.271	0.0175803
756.349	0.0174865
756.427	0.0173219
756.505	0.0171931
756.583	0.0171187
756.661	0.0169881
756.739	0.0169046
756.817	0.0168491
756.896	0.0167544
756.974	0.0166199
757.052	0.0165084
757.130	0.0162902
757.208	0.0161928
757.286	0.0161852
757.364	0.0159982
757.442	0.0158273
757.521	0.0157510
757.599	0.0157215
757.677	0.0154294
757.755	0.0153968
757.833	0.0153794
757.911	0.0152777
757.989	0.0151467
758.067	0.0150797
758.146	0.0149319
758.224	0.0149683
758.302	0.0150710
758.380	0.0150182
758.458	0.0149969
758.536	0.0149789
758.614	0.0150512
758.692	0.0153372
758.771	0.0155119
758.849	0.0155802
758.927	0.0156837
759.005	0.0159320
759.083	0.0161054
759.161	0.0162659
759.239	0.0164273
759.317	0.0165426
759.396	0.0165385
759.474	0.0167519
759.552	0.0169173
759.630	0.0167376
759.708	0.0167863
759.786	0.0166840
759.864	0.0168328
759.942	0.0167632
760.021	0.0166132
760.099	0.0166927
760.177	0.0163657
760.255	0.0162929
760.333	0.0164061
760.411	0.0164071
760.489	0.0160910
760.567	0.0162167
760.646	0.0159906
760.724	0.0161697
760.802	0.0161155
760.880	0.0160507
760.958	0.0161688
761.036	0.0162384
761.114	0.0161118
761.192	0.0162760
761.271	0.0162653
761.349	0.0164004
761.427	0.0164848
761.505	0.0167226
761.583	0.0168117
761.661	0.0167766
761.739	0.0170088
761.817	0.0169067
761.896	0.0168755
761.974	0.0170433
762.052	0.0169866
762.130	0.0168822
762.208	0.0168463
762.286	0.0167345
762.364	0.0168238
762.442	0.0168098
762.521	0.0165467
762.599	0.0164797
762.677	0.0163599
762.755	0.0163274
762.833	0.0161067
762.911	0.0159790
762.989	0.0159745
763.067	0.0156902
763.146	0.0156106
763.224	0.0155979
763.302	0.0155053
763.380	0.0153813
763.458	0.0153345
763.536	0.0154532
763.614	0.0153905
763.692	0.0153492
763.771	0.0155086
763.849	0.0153414
763.927	0.0154855
764.005	0.0155450
764.083	0.0156712
764.161	0.0157614
764.239	0.0157330
764.317	0.0158894
764.396	0.0159220
764.474	0.0161791
764.552	0.0162187
764.630	0.0162360
764.708	0.0164198
764.786	0.0164232
764.864	0.0162763
764.942	0.0164565
765.021	0.0165222
765.099	0.0164848
765.177	0.0165841
765.255	0.0167251
765.333	0.0166564
765.411	0.0166582
765.489	0.0166161
765.567	0.0165849
765.646	0.0164842
765.724	0.0166407
765.802	0.0165852
765.880	0.0165608
765.958	0.0166018
766.036	0.0165384
766.114	0.0166455
766.192	0.0165345
766.271	0.0164550
766.349	0.0162925
766.427	0.0161951
766.505	0.0162518
766.583	0.0161885
766.661	0.0162635
766.739	0.0160195
766.817	0.0161324
766.896	0.0160298
766.974	0.0160244
767.052	0.0161537
767.130	0.0163082
767.208	0.0163472
767.286	0.0162121
767.364	0.0164660
767.442	0.0165885
767.521	0.0166267
767.599	0.0166399
767.677	0.0168465
767.755	0.0167368
767.833	0.0168530
767.911	0.0167155
767.989	0.0165834
768.067	0.0167902
768.146	0.0167485
768.224	0.0165059
768.302	0.0163412
768.380	0.0163059
768.458	0.0162175
768.536	0.0161807
768.614	0.0160278
768.692	0.0159546
768.771	0.0159736
768.849	0.0159671
768.927	0.0157203
769.005	0.0158874
769.083	0.0159026
769.161	0.0159092
769.239	0.0158900
769.317	0.0160497
769.396	0.0161465
769.474	0.0162042
769.552	0.0161739
769.630	0.0162563
769.708	0.0163976
769.786	0.0165107
769.864	0.0165018
769.942	0.0165257
770.021	0.0165283
770.099	0.0166665
770.177	0.0166833
770.255	0.0165863
770.333	0.0167709
770.411	0.0166372
770.489	0.0165930
770.567	0.0167007
770.646	0.0165594
770.724	0.0164838
770.802	0.0163936
770.880	0.0164268
770.958	0.0162340
771.036	0.0162919
771.114	0.0162965
771.192	0.0162448
771.271	0.0162159
771.349	0.0161472
771.427	0.0161221
771.505	0.0161702
771.583	0.0161565
771.661	0.0159896
771.739	0.0160725
771.817	0.0159145
771.896	0.0161027
771.974	0.0158675
772.052	0.0158919
772.130	0.0160438
772.208	0.0161026
772.286	0.0161149
772.364	0.0161006
772.442	0.0160586
772.521	0.0161520
772.599	0.0161749
772.677	0.0163307
772.755	0.0163336
772.833	0.0163007
772.911	0.0164043
772.989	0.0165811
773.067	0.0165032
773.146	0.0166355
773.224	0.0164952
773.302	0.0164868
773.380	0.0167107
773.458	0.0166834
773.536	0.0167765
773.614	0.0167510
773.692	0.0167312
773.771	0.0166572
773.849	0.0166523
773.927	0.0165863
774.005	0.0167174
774.083	0.0164468
774.161	0.0164099
774.239	0.0163713
774.317	0.0160888
774.396	0.0161069
774.474	0.0159936
774.552	0.0158719
774.630	0.0158374
774.708	0.0159045
774.786	0.0157475
774.864	0.0157671
774.942	0.0156734
775.021	0.0157533
775.099	0.0158465
775.177	0.0158767
775.255	0.0158759
775.333	0.0159528
775.411	0.0159447
775.489	0.0161629
775.567	0.0161829
775.646	0.0161887
775.724	0.0162703
775.802	0.0163727
775.880	0.0164413
775.958	0.0164677
776.036	0.0163769
776.114	0.0164904
776.192	0.0164304
776.271	0.0164357
776.349	0.0164574
776.427	0.0163914
776.505	0.0165617
776.583	0.0165389
776.661	0.0165076
776.739	0.0163754
776.817	0.0163081
776.896	0.0164080
776.974	0.0162495
777.052	0.0162453
777.130	0.0162121
777.208	0.0163155
777.286	0.0160654
777.364	0.0159767
777.442	0.0158870
777.521	0.0158321
777.599	0.0159475
777.677	0.0159297
777.755	0.0158237
777.833	0.0158709
777.911	0.0158218
777.989	0.0158490
778.067	0.0159431
778.146	0.0160081
778.224	0.0160271
778.302	0.0163309
778.380	0.0163062
778.458	0.0164627
778.536	0.0167223
778.614	0.0166940
778.692	0.0167751
778.771	0.0168375
778.849	0.0169225
778.927	0.0169968
779.005	0.0169769
779.083	0.0169046
779.161	0.0169199
779.239	0.0168604
779.317	0.0167848
779.396	0.0167342
779.474	0.0166142
779.552	0.0166242
779.630	0.0165497
779.708	0.0163835
779.786	0.0162079
779.864	0.0161102
779.942	0.0159857
780.021	0.0159737
780.099	0.0160173
780.177	0.0157300
780.255	0.0156956
780.333	0.0156983
780.411	0.0156525
780.489	0.0157369
780.567	0.0157301
780.646	0.0156162
780.724	0.0155209
780.802	0.0156391
780.880	0.0157102
780.958	0.0158100
781.036	0.0158994
781.114	0.0157141
781.192	0.0157761
781.271	0.0159144
781.349	0.0159332
781.427	0.0160811
781.505	0.0162800
781.583	0.0163038
781.661	0.0164643
781.739	0.0165680
781.817	0.0167645
781.896	0.0167596
781.974	0.0167778
782.052	0.0169240
782.130	0.0170029
782.208	0.0169592
782.286	0.0171760
782.364	0.0171029
782.442	0.0168328
782.521	0.0168733
782.599	0.0167719
782.677	0.0166846
782.755	0.0165640
782.833	0.0165990
782.911	0.0164928
782.989	0.0162561
783.067	0.0163889
783.146	0.0162819
783.224	0.0161297
783.302	0.0160738
783.380	0.0160031
783.458	0.0159428
783.536	0.0160308
783.614	0.0159034
783.692	0.0159319
783.771	0.0158376
783.849	0.0158900
783.927	0.0161278
784.005	0.0162083
784.083	0.0161758
784.161	0.0161926
784.239	0.0161839
784.317	0.0162448
784.396	0.0164101
784.474	0.0165820
784.552	0.0166277
784.630	0.0166985
784.708	0.0167119
784.786	0.0167012
784.864	0.0168931
784.942	0.0168385
785.021	0.0169147
785.099	0.0168723
785.177	0.0169315
785.255	0.0169842
785.333	0.0170837
785.411	0.0168817
785.489	0.0169224
785.567	0.0166910
785.646	0.0167697
785.724	0.0167822
785.802	0.0164094
785.880	0.0163879
785.958	0.0163982
786.036	0.0162904
786.114	0.0162757
786.192	0.0161134
786.271	0.0159805
786.349	0.0160330
786.427	0.0159235
786.505	0.0159985
786.583	0.0159605
786.661	0.0157977
786.739	0.0158037
786.817	0.0158083
786.896	0.0156667
786.974	0.0157661
787.052	0.0158597
787.130	0.0158658
787.208	0.0160339
787.286	0.0159912
787.364	0.0160825
787.442	0.0161617
787.521	0.0160952
787.599	0.0162856
787.677	0.0161336
787.755	0.0162254
787.833	0.0163258
787.911	0.0162927
787.989	0.0163343
788.067	0.0164114
788.146	0.0163433
788.224	0.0164553
788.302	0.0164460
788.380	0.0162822
788.458	0.0163528
788.536	0.0162772
788.614	0.0161700
788.692	0.0161552
788.771	0.0161137
788.849	0.0161419
788.927	0.0161847
789.005	0.0161979
789.083	0.0161665
789.161	0.0162972
789.239	0.0161810
789.317	0.0162919
789.396	0.0164137
789.474	0.0162374
789.552	0.0164794
789.630	0.0165756
789.708	0.0164540
789.786	0.0164870
789.864	0.0163408
789.942	0.0163609
790.021	0.0164016
790.099	0.0164369
790.177	0.0165363
790.255	0.0165960
790.333	0.0165417
790.411	0.0164746
790.489	0.0164874
790.567	0.0164256
790.646	0.0165296
790.724	0.0166297
790.802	0.0165094
790.880	0.0165189
790.958	0.0165433
791.036	0.0166724
791.114	0.0166381
791.192	0.0165379
791.271	0.0164799
791.349	0.0165132
791.427	0.0163824
791.505	0.0163845
791.583	0.0163013
791.661	0.0163497
791.739	0.0161807
791.817	0.0161074
791.896	0.0160778
791.974	0.0160171
792.052	0.0159676
792.130	0.0158870
792.208	0.0159492
792.286	0.0159187
792.364	0.0158784
792.442	0.0158223
792.521	0.0158807
792.599	0.0158135
792.677	0.0158858
792.755	0.0157756
792.833	0.0158624
792.911	0.0160713
792.989	0.0160143
793.067	0.0160513
793.146	0.0162756
793.224	0.0162775
793.302	0.0162647
793.380	0.0163076
793.458	0.0164590
793.536	0.0164963
793.614	0.0166928
793.692	0.0166576
793.771	0.0165925
793.849	0.0165831
793.927	0.0166547
794.005	0.0165655
794.083	0.0164915
794.161	0.0166975
794.239	0.0165461
794.317	0.0165049
794.396	0.0164211
794.474	0.0165134
794.552	0.0164304
794.630	0.0163885
794.708	0.0163851
794.786	0.0163324
794.864	0.0161815
794.942	0.0161407
795.021	0.0160934
795.099	0.0161162
795.177	0.0160852
795.255	0.0159472
795.333	0.0159541
795.411	0.0160214
795.489	0.0159322
795.567	0.0157849
795.646	0.0158668
795.724	0.0158266
795.802	0.0157722
795.880	0.0158547
795.958	0.0157700
796.036	0.0157842
796.114	0.0159416
796.192	0.0159730
796.271	0.0160841
796.349	0.0160259
796.427	0.0162810
796.505	0.0161234
796.583	0.0163299
796.661	0.0166093
796.739	0.0165577
796.817	0.0167222
796.896	0.0167668
796.974	0.0166332
797.052	0.0168638
797.130	0.0168919
797.208	0.0167669
797.286	0.0169146
797.364	0.0169692
797.442	0.0167293
797.521	0.0166999
797.599	0.0167239
797.677	0.0166678
797.755	0.0165257
797.833	0.0166386
797.911	0.0162671
797.989	0.0163431
798.067	0.0165347
798.146	0.0163679
798.224	0.0162385
798.302	0.0161129
798.380	0.0161169
798.458	0.0160239
798.536	0.0157962
798.614	0.0158631
798.692	0.0159213
798.771	0.0158923
798.849	0.0158049
798.927	0.0158450
799.005	0.0160613
799.083	0.0159576
799.161	0.0158234
799.239	0.0158920
799.317	0.0159187
799.396	0.0159860
799.474	0.0162688
799.552	0.0163159
799.630	0.0163035
799.708	0.0161304
799.786	0.0160687
799.864	0.0163604
799.942	0.0163815
800.021	0.0163810
800.099	0.0162198
800.177	0.0164978
800.255	0.0163607
800.333	0.0162586
800.411	0.0163374
800.489	0.0164648
800.567	0.0165354
800.646	0.0164155
800.724	0.0164067
800.802	0.0165195
800.880	0.0163286
800.958	0.0163853
801.036	0.0164815
801.114	0.0163390
801.192	0.0163969
801.271	0.0164962
801.349	0.0163937
801.427	0.0164385
801.505	0.0165032
801.583	0.0164690
801.661	0.0164777
801.739	0.0163266
801.817	0.0165564
801.896	0.0167412
801.974	0.0165312
802.052	0.0163644
802.130	0.0164256
802.208	0.0167026
802.286	0.0165287
802.364	0.0167329
802.442	0.0167540
802.521	0.0167067
802.599	0.0166776
802.677	0.0166908
802.755	0.0166742
802.833	0.0166842
802.911	0.0167345
802.989	0.0166579
803.067	0.0165861
803.146	0.0165377
803.224	0.0165139
803.302	0.0163826
803.380	0.0163916
803.458	0.0163471
803.536	0.0162160
803.614	0.0162627
803.692	0.0162329
803.771	0.0162560
803.849	0.0160908
803.927	0.0159786
804.005	0.0160242
804.083	0.0159550
804.161	0.0160087
804.239	0.0161091
804.317	0.0161138
804.396	0.0159591
804.474	0.0160420
804.552	0.0162775
804.630	0.0163296
804.708	0.0163091
804.786	0.0164510
804.864	0.0164504
804.942	0.0164755
805.021	0.0165560
805.099	0.0166631
805.177	0.0166775
805.255	0.0166611
805.333	0.0166061
805.411	0.0167952
805.489	0.0167751
805.567	0.0167426
805.646	0.0168130
805.724	0.0168885
805.802	0.0168475
805.880	0.0168340
805.958	0.0167432
806.036	0.0168053
806.114	0.0168492
806.192	0.0165716
806.271	0.0166766
806.349	0.0165040
806.427	0.0164316
806.505	0.0163828
806.583	0.0162685
806.661	0.0162449
806.739	0.0161957
806.817	0.0161761
806.896	0.0161725
806.974	0.0159816
807.052	0.0159383
807.130	0.0160213
807.208	0.0159162
807.286	0.0160157
807.364	0.0159499
807.442	0.0159741
807.521	0.0159734
807.599	0.0160677
807.677	0.0161394
807.755	0.0162155
807.833	0.0161663
807.911	0.0161680
807.989	0.0162668
808.067	0.0163000
808.146	0.0163116
808.224	0.0163481
808.302	0.0163445
808.380	0.0163740
808.458	0.0165216
808.536	0.0164480
808.614	0.0164513
808.692	0.0166615
808.771	0.0166349
808.849	0.0167494
808.927	0.0168682
809.005	0.0168436
809.083	0.0168070
809.161	0.0167786
809.239	0.0168392
809.317	0.0168319
809.396	0.0168474
809.474	0.0168713
809.552	0.0166103
809.630	0.0165308
809.708	0.0165330
809.786	0.0164175
809.864	0.0165035
809.942	0.0163686
810.021	0.0163062
810.099	0.0161965
810.177	0.0161044
810.255	0.0161122
810.333	0.0159908
810.411	0.0159986
810.489	0.0159661
810.567	0.0158478
810.646	0.0160886
810.724	0.0158828
810.802	0.0159383
810.880	0.0160648
810.958	0.0161656
811.036	0.0161060
811.114	0.0160909
811.192	0.0160155
811.271	0.0162073
811.349	0.0159624
811.427	0.0159591
811.505	0.0162006
811.583	0.0160846
811.661	0.0161154
811.739	0.0161427
811.817	0.0161680
811.896	0.0162321
811.974	0.0161758
812.052	0.0162083
812.130	0.0162718
812.208	0.0161351
812.286	0.0162635
812.364	0.0163910
812.442	0.0163570
812.521	0.0163562
812.599	0.0162928
812.677	0.0162742
812.755	0.0163604
812.833	0.0164130
812.911	0.0163309
812.989	0.0163728
813.067	0.0164121
813.146	0.0163549
813.224	0.0164533
813.302	0.0165183
813.380	0.0164461
813.458	0.0163194
813.536	0.0164449
813.614	0.0164674
813.692	0.0163362
813.771	0.0163072
813.849	0.0164693
813.927	0.0164655
814.005	0.0162428
814.083	0.0164589
814.161	0.0165499
814.239	0.0164402
814.317	0.0164900
814.396	0.0166465
814.474	0.0166553
814.552	0.0166521
814.630	0.0164547
814.708	0.0166020
814.786	0.0166525
814.864	0.0166293
814.942	0.0164716
815.021	0.0165049
815.099	0.0167065
815.177	0.0165294
815.255	0.0165292
815.333	0.0164902
815.411	0.0162815
815.489	0.0162506
815.567	0.0163828
815.646	0.0162253
815.724	0.0161324
815.802	0.0161610
815.880	0.0161414
815.958	0.0162138
816.036	0.0162040
816.114	0.0163014
816.192	0.0161222
816.271	0.0162312
816.349	0.0161662
816.427	0.0161687
816.505	0.0161745
816.583	0.0163048
816.661	0.0161506
816.739	0.0161870
816.817	0.0162894
816.896	0.0162374
816.974	0.0163109
817.052	0.0162542
817.130	0.0162423
817.208	0.0163320
817.286	0.0164323
817.364	0.0162395
817.442	0.0162307
817.521	0.0163647
817.599	0.0164117
817.677	0.0162323
817.755	0.0162369
817.833	0.0163637
817.911	0.0163923
817.989	0.0164039
818.067	0.0163869
818.146	0.0163895
818.224	0.0162946
818.302	0.0163100
818.380	0.0161777
818.458	0.0162912
818.536	0.0162514
818.614	0.0161570
818.692	0.0162954
818.771	0.0161858
818.849	0.0161555
818.927	0.0162266
819.005	0.0161234
819.083	0.0163336
819.161	0.0161428
819.239	0.0161707
819.317	0.0161886
819.396	0.0163197
819.474	0.0163130
819.552	0.0162739
819.630	0.0161600
819.708	0.0162418
819.786	0.0162607
819.864	0.0160680
819.942	0.0160947
820.021	0.0160956
820.099	0.0160539
820.177	0.0160296
820.255	0.0161099
820.333	0.0162205
820.411	0.0161480
820.489	0.0160390
820.567	0.0161924
820.646	0.0162077
820.724	0.0162300
820.802	0.0161246
820.880	0.0162511
820.958	0.0162676
821.036	0.0162312
821.114	0.0162563
821.192	0.0164441
821.271	0.0163116
821.349	0.0163798
821.427	0.0163517
821.505	0.0164027
821.583	0.0163496
821.661	0.0164370
821.739	0.0164552
821.817	0.0163908
821.896	0.0164739
821.974	0.0163736
822.052	0.0163135
822.130	0.0164243
822.208	0.0163740
822.286	0.0163862
822.364	0.0164806
822.442	0.0164461
822.521	0.0164797
822.599	0.0166409
822.677	0.0164365
822.755	0.0165543
822.833	0.0166102
822.911	0.0165188
822.989	0.0166048
823.067	0.0166161
823.146	0.0166449
823.224	0.0165601
823.302	0.0164797
823.380	0.0166003
823.458	0.0164212
823.536	0.0164093
823.614	0.0164704
823.692	0.0164397
823.771	0.0162035
823.849	0.0161892
823.927	0.0164410
824.005	0.0162096
824.083	0.0160725
824.161	0.0160210
824.239	0.0160338
824.317	0.0159461
824.396	0.0158016
824.474	0.0158749
824.552	0.0157184
824.630	0.0158920
824.708	0.0158607
824.786	0.0157203
824.864	0.0158447
824.942	0.0158940
825.021	0.0159493
825.099	0.0160080
825.177	0.0160557
825.255	0.0160159
825.333	0.0160279
825.411	0.0160169
825.489	0.0162348
825.567	0.0162121
825.646	0.0162350
825.724	0.0161590
825.802	0.0162560
825.880	0.0164497
825.958	0.0164262
826.036	0.0162686
826.114	0.0165285
826.192	0.0165614
826.271	0.0165900
826.349	0.0166019
826.427	0.0166485
826.505	0.0167809
826.583	0.0167012
826.661	0.0166972
826.739	0.0166710
826.817	0.0166042
826.896	0.0165867
826.974	0.0165779
827.052	0.0166377
827.130	0.0165473
827.208	0.0164633
827.286	0.0164578
827.364	0.0162424
827.442	0.0163332
827.521	0.0164455
827.599	0.0164391
827.677	0.0163461
827.755	0.0162950
827.833	0.0162633
827.911	0.0163863
827.989	0.0163609
828.067	0.0163495
828.146	0.0164371
828.224	0.0164705
828.302	0.0164863
828.380	0.0165010
828.458	0.0165501
828.536	0.0164593
828.614	0.0163752
828.692	0.0164548
828.771	0.0164777
828.849	0.0165597
828.927	0.0166140
829.005	0.0166771
829.083	0.0165217
829.161	0.0166014
829.239	0.0165571
829.317	0.0165945
829.396	0.0166348
829.474	0.0165965
829.552	0.0166308
829.630	0.0166437
829.708	0.0166787
829.786	0.0165965
829.864	0.0167159
829.942	0.0166640
830.021	0.0167431
830.099	0.0167267
830.177	0.0166457
830.255	0.0167843
830.333	0.0165679
830.411	0.0164881
830.489	0.0166458
830.567	0.0166345
830.646	0.0165762
830.724	0.0164048
830.802	0.0165308
830.880	0.0163826
830.958	0.0163882
831.036	0.0165168
831.114	0.0163404
831.192	0.0162170
831.271	0.0162479
831.349	0.0163201
831.427	0.0162597
831.505	0.0162209
831.583	0.0162249
831.661	0.0162178
831.739	0.0161902
831.817	0.0160780
831.896	0.0160767
831.974	0.0161584
832.052	0.0160422
832.130	0.0160002
832.208	0.0161118
832.286	0.0161736
832.364	0.0162791
832.442	0.0160649
832.521	0.0161375
832.599	0.0161408
832.677	0.0161954
832.755	0.0161765
832.833	0.0161876
832.911	0.0162997
832.989	0.0161492
833.067	0.0162357
833.146	0.0164202
833.224	0.0163550
833.302	0.0162500
833.380	0.0163262
833.458	0.0164712
833.536	0.0163862
833.614	0.0163223
833.692	0.0163998
833.771	0.0163584
833.849	0.0162469
833.927	0.0163345
834.005	0.0162680
834.083	0.0162547
834.161	0.0162936
834.239	0.0162349
834.317	0.0162634
834.396	0.0161295
834.474	0.0163246
834.552	0.0163094
834.630	0.0162467
834.708	0.0162881
834.786	0.0163310
834.864	0.0162954
834.942	0.0163377
835.021	0.0163552
835.099	0.0162441
835.177	0.0163700
835.255	0.0163749
835.333	0.0162554
835.411	0.0164167
835.489	0.0164619
835.567	0.0162553
835.646	0.0163095
835.724	0.0164523
835.802	0.0163411
835.880	0.0161945
835.958	0.0161694
836.036	0.0161470
836.114	0.0162785
836.192	0.0160950
836.271	0.0160143
836.349	0.0161711
836.427	0.0161763
836.505	0.0162513
836.583	0.0163428
836.661	0.0162687
836.739	0.0163791
836.817	0.0163764
836.896	0.0164681
836.974	0.0165273
837.052	0.0164117
837.130	0.0163951
837.208	0.0165749
837.286	0.0164619
837.364	0.0164307
837.442	0.0163435
837.521	0.0165200
837.599	0.0165208
837.677	0.0164937
837.755	0.0163962
837.833	0.0163550
837.911	0.0163807
837.989	0.0162591
838.067	0.0162701
838.146	0.0163310
838.224	0.0162566
838.302	0.0162376
838.380	0.0162257
838.458	0.0162380
838.536	0.0163183
838.614	0.0163031
838.692	0.0160561
838.771	0.0161937
838.849	0.0162698
838.927	0.0162614
839.005	0.0161459
839.083	0.0160867
839.161	0.0161380
839.239	0.0161848
839.317	0.0161411
839.396	0.0161702
839.474	0.0162462
839.552	0.0162086
839.630	0.0162049
839.708	0.0161260
839.786	0.0162649
839.864	0.0163864
839.942	0.0162670
840.021	0.0164410
840.099	0.0164796
840.177	0.0163715
840.255	0.0165060
840.333	0.0165343
840.411	0.0165169
840.489	0.0164690
840.567	0.0165088
840.646	0.0166223
840.724	0.0163795
840.802	0.0164780
840.880	0.0163870
840.958	0.0163695
841.036	0.0164634
841.114	0.0163683
841.192	0.0163082
841.271	0.0162144
841.349	0.0163852
841.427	0.0164244
841.505	0.0161673
841.583	0.0162991
841.661	0.0164223
841.739	0.0164504
841.817	0.0163830
841.896	0.0163282
841.974	0.0163435
842.052	0.0163670
842.130	0.0163599
842.208	0.0165239
842.286	0.0164839
842.364	0.0163789
842.442	0.0163782
842.521	0.0165597
842.599	0.0164506
842.677	0.0164609
842.755	0.0163993
842.833	0.0165924
842.911	0.0164277
842.989	0.0164796
843.067	0.0164399
843.146	0.0164751
843.224	0.0163673
843.302	0.0164751
843.380	0.0163762
843.458	0.0163211
843.536	0.0163017
843.614	0.0162620
843.692	0.0162878
843.771	0.0163962
843.849	0.0162726
843.927	0.0163560
844.005	0.0163541
844.083	0.0162568
844.161	0.0163402
844.239	0.0162890
844.317	0.0162708
844.396	0.0163468
844.474	0.0164173
844.552	0.0163279
844.630	0.0163826
844.708	0.0161825
844.786	0.0163992
844.864	0.0162474
844.942	0.0164553
845.021	0.0165193
845.099	0.0163911
845.177	0.0164700
845.255	0.0164294
845.333	0.0164614
845.411	0.0164468
845.489	0.0165656
845.567	0.0164152
845.646	0.0165771
845.724	0.0163803
845.802	0.0164926
845.880	0.0164990
845.958	0.0163445
846.036	0.0162889
846.114	0.0163933
846.192	0.0164270
846.271	0.0163665
846.349	0.0162707
846.427	0.0160512
846.505	0.0162469
846.583	0.0162974
846.661	0.0161626
846.739	0.0161254
846.817	0.0160660
846.896	0.0161880
846.974	0.0163212
847.052	0.0162447
847.130	0.0161742
847.208	0.0162666
847.286	0.0163875
847.364	0.0164171
847.442	0.0163321
847.521	0.0162615
847.599	0.0163145
847.677	0.0164454
847.755	0.0164038
847.833	0.0163747
847.911	0.0164139
847.989	0.0162582
848.067	0.0162237
848.146	0.0163156
848.224	0.0161185
848.302	0.0161701
848.380	0.0162051
848.458	0.0162118
848.536	0.0161451
848.614	0.0162108
848.692	0.0161549
848.771	0.0161934
848.849	0.0161873
848.927	0.0161108
849.005	0.0161591
849.083	0.0162097
849.161	0.0161810
849.239	0.0162062
849.317	0.0162514
849.396	0.0162177
849.474	0.0162506
849.552	0.0161406
849.630	0.0162819
849.708	0.0163018
849.786	0.0162830
849.864	0.0163708
849.942	0.0163498
850.021	0.0164935
850.099	0.0165098
850.177	0.0163217
850.255	0.0163318
850.333	0.0165823
850.411	0.0164482
850.489	0.0164954
850.567	0.0163581
850.646	0.0164368
850.724	0.0163112
850.802	0.0164190
850.880	0.0164558
850.958	0.0164283
851.036	0.0163770
851.114	0.0162473
851.192	0.0163705
851.271	0.0163422
851.349	0.0161768
851.427	0.0161677
851.505	0.0161507
851.583	0.0162155
851.661	0.0162723
851.739	0.0162360
851.817	0.0162183
851.896	0.0164448
851.974	0.0162814
852.052	0.0164013
852.130	0.0164265
852.208	0.0163840
852.286	0.0165228
852.364	0.0164195
852.442	0.0163005
852.521	0.0164323
852.599	0.0163765
852.677	0.0164414
852.755	0.0165265
852.833	0.0164746
852.911	0.0164760
852.989	0.0165548
853.067	0.0164986
853.146	0.0164642
853.224	0.0164658
853.302	0.0165401
853.380	0.0163674
853.458	0.0164341
853.536	0.0163532
853.614	0.0163035
853.692	0.0163441
853.771	0.0164758
853.849	0.0161656
853.927	0.0164104
854.005	0.0162748
854.083	0.0161678
854.161	0.0162782
854.239	0.0162126
854.317	0.0161266
854.396	0.0161352
854.474	0.0161751
854.552	0.0159823
854.630	0.0160884
854.708	0.0161575
854.786	0.0158967
854.864	0.0160381
854.942	0.0159325
855.021	0.0161913
855.099	0.0161126
855.177	0.0161184
855.255	0.0159935
855.333	0.0162074
855.411	0.0162630
855.489	0.0161028
855.567	0.0161061
855.646	0.0161414
855.724	0.0162884
855.802	0.0163514
855.880	0.0162527
855.958	0.0163198
856.036	0.0163293
856.114	0.0162891
856.192	0.0164204
856.271	0.0164452
856.349	0.0163194
856.427	0.0163738
856.505	0.0165829
856.583	0.0164219
856.661	0.0164698
856.739	0.0164025
856.817	0.0164854
856.896	0.0164856
856.974	0.0162810
857.052	0.0165140
857.130	0.0165501
857.208	0.0164171
857.286	0.0164841
857.364	0.0165800
857.442	0.0165179
857.521	0.0165450
857.599	0.0164462
857.677	0.0163739
857.755	0.0165266
857.833	0.0164082
857.911	0.0164737
857.989	0.0164564
858.067	0.0165069
858.146	0.0163215
858.224	0.0163708
858.302	0.0164375
858.380	0.0162964
858.458	0.0164097
858.536	0.0163337
858.614	0.0162386
858.692	0.0163329
858.771	0.0163184
858.849	0.0163400
858.927	0.0162061
859.005	0.0164385
859.083	0.0162841
859.161	0.0163184
859.239	0.0162244
859.317	0.0164129
859.396	0.0162782
859.474	0.0162592
859.552	0.0162553
859.630	0.0162268
859.708	0.0163509
859.786	0.0163481
859.864	0.0165319
859.942	0.0162514
860.021	0.0162608
860.099	0.0163351
860.177	0.0163528
860.255	0.0162794
860.333	0.0163336
860.411	0.0163809
860.489	0.0163984
860.567	0.0163435
860.646	0.0163109
860.724	0.0163547
860.802	0.0165339
860.880	0.0164674
860.958	0.0162733
861.036	0.0164043
861.114	0.0164861
861.192	0.0163087
861.271	0.0165180
861.349	0.0163761
861.427	0.0163037
861.505	0.0163474
861.583	0.0163994
861.661	0.0162201
861.739	0.0163686
861.817	0.0162707
861.896	0.0164169
861.974	0.0163759
862.052	0.0163526
862.130	0.0163305
862.208	0.0162067
862.286	0.0163356
862.364	0.0164072
862.442	0.0163987
862.521	0.0164493
862.599	0.0164882
862.677	0.0164153
862.755	0.0165257
862.833	0.0164045
862.911	0.0164300
862.989	0.0163544
863.067	0.0164993
863.146	0.0164291
863.224	0.0164500
863.302	0.0163787
863.380	0.0164217
863.458	0.0164594
863.536	0.0163815
863.614	0.0163555
863.692	0.0163503
863.771	0.0163253
863.849	0.0163557
863.927	0.0163275
864.005	0.0163940
864.083	0.0163203
864.161	0.0163366
864.239	0.0163927
864.317	0.0164445
864.396	0.0163821
864.474	0.0164193
864.552	0.0163506
864.630	0.0165450
864.708	0.0163757
864.786	0.0162827
864.864	0.0164157
864.942	0.0163035
865.021	0.0163055
865.099	0.0161861
865.177	0.0163366
865.255	0.0162876
865.333	0.0162500
865.411	0.0163297
865.489	0.0162830
865.567	0.0163437
865.646	0.0163197
865.724	0.0162080
865.802	0.0163353
865.880	0.0164456
865.958	0.0162926
866.036	0.0162270
866.114	0.0164384
866.192	0.0163526
866.271	0.0163818
866.349	0.0163577
866.427	0.0163103
866.505	0.0163827
866.583	0.0162466
866.661	0.0164050
866.739	0.0163377
866.817	0.0161494
866.896	0.0162008
866.974	0.0162596
867.052	0.0161978
867.130	0.0162320
867.208	0.0161411
867.286	0.0162483
867.364	0.0160976
867.442	0.0162790
867.521	0.0162293
867.599	0.0162616
867.677	0.0162228
867.755	0.0163107
867.833	0.0163793
867.911	0.0161990
867.989	0.0161864
868.067	0.0162032
868.146	0.0162103
868.224	0.0162108
868.302	0.0162946
868.380	0.0161649
868.458	0.0163506
868.536	0.0162681
868.614	0.0162598
868.692	0.0163387
868.771	0.0162994
868.849	0.0160840
868.927	0.0162593
869.005	0.0162507
869.083	0.0162965
869.161	0.0162389
869.239	0.0163326
869.317	0.0161710
869.396	0.0163750
869.474	0.0163178
869.552	0.0163654
869.630	0.0162160
869.708	0.0162705
869.786	0.0163698
869.864	0.0162051
869.942	0.0162141
