05/07/2022	16:58:11	Ver.	4.1	UNKNOWN
Optical Delay	639.989416	Delta X		0.078125	Sweeps	1	Scan Rate	0/0
Coordinates	Axis 1	NaN	Axis 2	NaN	Axis 3	NaN	Axis 4	NaN	Axis 5	NaN	Axis 6	0.000000
TX Power	0.000000	RX Power	0.000000

639.989	0.0123070
640.068	0.0123456
640.146	0.0124116
640.224	0.0123534
640.302	0.0122313
640.380	0.0123300
640.458	0.0123289
640.536	0.0123317
640.614	0.0122464
640.693	0.0122095
640.771	0.0122535
640.849	0.0122853
640.927	0.0123674
641.005	0.0123230
641.083	0.0122047
641.161	0.0123966
641.239	0.0123212
641.318	0.0121641
641.396	0.0121939
641.474	0.0122366
641.552	0.0123003
641.630	0.0123096
641.708	0.0122752
641.786	0.0122774
641.864	0.0122528
641.943	0.0122823
642.021	0.0123252
642.099	0.0122979
642.177	0.0121381
642.255	0.0122202
642.333	0.0122282
642.411	0.0122359
642.489	0.0122410
642.568	0.0122433
642.646	0.0123216
642.724	0.0121961
642.802	0.0121946
642.880	0.0123093
642.958	0.0122948
643.036	0.0123559
643.114	0.0122928
643.193	0.0122616
643.271	0.0123454
643.349	0.0122486
643.427	0.0122135
643.505	0.0123290
643.583	0.0123893
643.661	0.0122782
643.739	0.0121424
643.818	0.0122414
643.896	0.0122980
643.974	0.0122324
644.052	0.0122838
644.130	0.0121912
644.208	0.0122531
644.286	0.0122690
644.364	0.0123695
644.443	0.0123462
644.521	0.0122867
644.599	0.0123065
644.677	0.0124386
644.755	0.0123132
644.833	0.0122103
644.911	0.0123579
644.989	0.0123592
645.068	0.0122240
645.146	0.0122207
645.224	0.0122485
645.302	0.0123190
645.380	0.0121938
645.458	0.0122121
645.536	0.0123145
645.614	0.0122182
645.693	0.0123246
645.771	0.0122748
645.849	0.0122714
645.927	0.0123302
646.005	0.0121896
646.083	0.0122183
646.161	0.0122661
646.239	0.0122874
646.318	0.0122333
646.396	0.0121764
646.474	0.0122910
646.552	0.0122068
646.630	0.0122501
646.708	0.0121426
646.786	0.0120724
646.864	0.0121669
646.943	0.0122179
647.021	0.0121532
647.099	0.0120967
647.177	0.0121772
647.255	0.0121873
647.333	0.0123090
647.411	0.0121842
647.489	0.0122686
647.568	0.0123137
647.646	0.0121158
647.724	0.0122079
647.802	0.0123643
647.880	0.0122862
647.958	0.0122518
648.036	0.0122537
648.114	0.0124084
648.193	0.0122356
648.271	0.0121667
648.349	0.0122894
648.427	0.0123217
648.505	0.0121871
648.583	0.0122847
648.661	0.0122693
648.739	0.0121978
648.818	0.0122980
648.896	0.0122682
648.974	0.0122520
649.052	0.0122597
649.130	0.0122877
649.208	0.0122872
649.286	0.0121614
649.364	0.0124867
649.443	0.0122774
649.521	0.0123497
649.599	0.0123200
649.677	0.0122009
649.755	0.0123512
649.833	0.0121521
649.911	0.0121628
649.989	0.0122229
650.068	0.0121816
650.146	0.0123180
650.224	0.0121859
650.302	0.0122565
650.380	0.0123022
650.458	0.0121037
650.536	0.0122173
650.614	0.0122665
650.693	0.0122266
650.771	0.0124148
650.849	0.0121726
650.927	0.0122579
651.005	0.0123345
651.083	0.0122263
651.161	0.0122437
651.239	0.0122855
651.318	0.0123135
651.396	0.0122692
651.474	0.0123422
651.552	0.0122066
651.630	0.0122227
651.708	0.0123205
651.786	0.0122601
651.864	0.0122738
651.943	0.0122951
652.021	0.0122444
652.099	0.0122519
652.177	0.0122305
652.255	0.0122283
652.333	0.0122543
652.411	0.0122269
652.489	0.0123746
652.568	0.0122186
652.646	0.0121717
652.724	0.0121572
652.802	0.0121779
652.880	0.0123521
652.958	0.0122580
653.036	0.0122598
653.114	0.0120936
653.193	0.0122823
653.271	0.0123114
653.349	0.0123851
653.427	0.0121137
653.505	0.0121873
653.583	0.0122295
653.661	0.0122197
653.739	0.0122043
653.818	0.0120960
653.896	0.0122054
653.974	0.0121756
654.052	0.0121767
654.130	0.0122371
654.208	0.0122104
654.286	0.0123506
654.364	0.0122022
654.443	0.0122681
654.521	0.0122408
654.599	0.0122471
654.677	0.0122753
654.755	0.0121938
654.833	0.0122710
654.911	0.0122140
654.989	0.0122918
655.068	0.0122605
655.146	0.0122929
655.224	0.0120604
655.302	0.0121915
655.380	0.0123963
655.458	0.0122015
655.536	0.0122757
655.614	0.0123577
655.693	0.0122977
655.771	0.0122496
655.849	0.0121542
655.927	0.0122654
656.005	0.0123194
656.083	0.0122998
656.161	0.0121848
656.239	0.0122787
656.318	0.0122426
656.396	0.0121805
656.474	0.0122361
656.552	0.0122803
656.630	0.0123216
656.708	0.0120630
656.786	0.0121940
656.864	0.0122426
656.943	0.0121376
657.021	0.0123381
657.099	0.0123482
657.177	0.0123208
657.255	0.0120251
657.333	0.0120950
657.411	0.0122198
657.489	0.0123352
657.568	0.0122715
657.646	0.0121110
657.724	0.0123248
657.802	0.0123603
657.880	0.0121783
657.958	0.0122453
658.036	0.0123285
658.114	0.0123089
658.193	0.0123222
658.271	0.0122121
658.349	0.0122998
658.427	0.0122746
658.505	0.0124001
658.583	0.0122446
658.661	0.0123100
658.739	0.0122090
658.818	0.0122439
658.896	0.0123589
658.974	0.0123335
659.052	0.0121719
659.130	0.0121761
659.208	0.0121662
659.286	0.0121289
659.364	0.0122717
659.443	0.0121770
659.521	0.0122454
659.599	0.0122515
659.677	0.0121867
659.755	0.0122440
659.833	0.0122704
659.911	0.0122217
659.989	0.0121527
660.068	0.0122871
660.146	0.0123630
660.224	0.0124966
660.302	0.0123329
660.380	0.0121843
660.458	0.0122103
660.536	0.0122322
660.614	0.0123615
660.693	0.0123693
660.771	0.0123235
660.849	0.0122655
660.927	0.0123761
661.005	0.0122130
661.083	0.0122562
661.161	0.0121783
661.239	0.0121693
661.318	0.0122344
661.396	0.0122583
661.474	0.0123291
661.552	0.0123814
661.630	0.0122616
661.708	0.0122380
661.786	0.0123633
661.864	0.0122123
661.943	0.0123487
662.021	0.0122973
662.099	0.0122819
662.177	0.0121696
662.255	0.0122654
662.333	0.0122803
662.411	0.0122581
662.489	0.0122449
662.568	0.0121985
662.646	0.0122826
662.724	0.0122382
662.802	0.0122945
662.880	0.0123506
662.958	0.0123480
663.036	0.0123264
663.114	0.0121362
663.193	0.0121707
663.271	0.0123914
663.349	0.0123296
663.427	0.0122960
663.505	0.0123138
663.583	0.0122541
663.661	0.0122004
663.739	0.0123540
663.818	0.0124014
663.896	0.0121364
663.974	0.0123168
664.052	0.0123276
664.130	0.0123499
664.208	0.0124346
664.286	0.0123668
664.364	0.0122433
664.443	0.0122331
664.521	0.0122218
664.599	0.0122894
664.677	0.0122197
664.755	0.0121494
664.833	0.0122116
664.911	0.0123221
664.989	0.0123492
665.068	0.0123068
665.146	0.0122699
665.224	0.0122855
665.302	0.0122571
665.380	0.0122639
665.458	0.0123647
665.536	0.0122573
665.614	0.0122286
665.693	0.0122791
665.771	0.0123055
665.849	0.0122489
665.927	0.0123978
666.005	0.0122803
666.083	0.0122660
666.161	0.0124538
666.239	0.0125428
666.318	0.0123418
666.396	0.0123084
666.474	0.0123585
666.552	0.0124403
666.630	0.0124119
666.708	0.0122761
666.786	0.0123446
666.864	0.0123370
666.943	0.0122178
667.021	0.0122290
667.099	0.0121786
667.177	0.0123474
667.255	0.0122931
667.333	0.0121642
667.411	0.0122511
667.489	0.0122780
667.568	0.0122655
667.646	0.0121853
667.724	0.0122402
667.802	0.0122649
667.880	0.0121787
667.958	0.0122922
668.036	0.0121874
668.114	0.0122885
668.193	0.0121762
668.271	0.0123166
668.349	0.0122256
668.427	0.0122356
668.505	0.0122175
668.583	0.0121487
668.661	0.0122061
668.739	0.0122572
668.818	0.0123309
668.896	0.0121821
668.974	0.0121725
669.052	0.0122176
669.130	0.0122250
669.208	0.0121525
669.286	0.0122114
669.364	0.0122226
669.443	0.0121531
669.521	0.0121436
669.599	0.0121404
669.677	0.0121007
669.755	0.0121418
669.833	0.0121678
669.911	0.0121436
669.989	0.0121082
670.068	0.0121836
670.146	0.0122032
670.224	0.0121973
670.302	0.0119749
670.380	0.0121414
670.458	0.0121619
670.536	0.0122256
670.614	0.0120523
670.693	0.0121483
670.771	0.0120712
670.849	0.0119523
670.927	0.0121751
671.005	0.0121218
671.083	0.0120828
671.161	0.0121207
671.239	0.0121313
671.318	0.0121599
671.396	0.0121585
671.474	0.0122198
671.552	0.0122134
671.630	0.0120242
671.708	0.0120293
671.786	0.0120957
671.864	0.0121975
671.943	0.0121321
672.021	0.0121460
672.099	0.0119447
672.177	0.0121550
672.255	0.0121360
672.333	0.0120949
672.411	0.0121120
672.489	0.0121740
672.568	0.0121321
672.646	0.0121432
672.724	0.0121614
672.802	0.0120534
672.880	0.0121524
672.958	0.0120634
673.036	0.0121855
673.114	0.0121183
673.193	0.0120578
673.271	0.0121683
673.349	0.0121008
673.427	0.0121738
673.505	0.0122337
673.583	0.0121603
673.661	0.0121606
673.739	0.0122737
673.818	0.0123163
673.896	0.0121915
673.974	0.0122233
674.052	0.0121436
674.130	0.0123040
674.208	0.0122750
674.286	0.0122754
674.364	0.0122472
674.443	0.0122491
674.521	0.0123016
674.599	0.0123911
674.677	0.0123592
674.755	0.0123999
674.833	0.0123432
674.911	0.0124062
674.989	0.0123032
675.068	0.0124927
675.146	0.0123183
675.224	0.0122911
675.302	0.0124992
675.380	0.0124155
675.458	0.0125081
675.536	0.0124469
675.614	0.0123587
675.693	0.0123188
675.771	0.0124734
675.849	0.0123692
675.927	0.0124488
676.005	0.0124638
676.083	0.0123321
676.161	0.0123623
676.239	0.0123318
676.318	0.0125005
676.396	0.0124530
676.474	0.0124150
676.552	0.0124324
676.630	0.0123529
676.708	0.0125140
676.786	0.0123318
676.864	0.0123405
676.943	0.0123820
677.021	0.0123730
677.099	0.0123882
677.177	0.0124041
677.255	0.0124584
677.333	0.0123805
677.411	0.0123019
677.489	0.0124229
677.568	0.0124574
677.646	0.0124155
677.724	0.0123288
677.802	0.0125164
677.880	0.0124490
677.958	0.0124030
678.036	0.0122741
678.114	0.0122659
678.193	0.0123148
678.271	0.0125055
678.349	0.0123269
678.427	0.0124925
678.505	0.0123524
678.583	0.0125008
678.661	0.0125755
678.739	0.0124897
678.818	0.0122218
678.896	0.0123713
678.974	0.0125170
679.052	0.0124093
679.130	0.0125731
679.208	0.0123728
679.286	0.0124474
679.364	0.0123732
679.443	0.0123315
679.521	0.0123587
679.599	0.0123830
679.677	0.0121948
679.755	0.0123389
679.833	0.0123209
679.911	0.0121768
679.989	0.0123176
680.068	0.0124239
680.146	0.0124439
680.224	0.0122626
680.302	0.0122282
680.380	0.0121398
680.458	0.0122611
680.536	0.0123537
680.614	0.0122234
680.693	0.0120754
680.771	0.0121450
680.849	0.0121724
680.927	0.0122057
681.005	0.0123818
681.083	0.0121001
681.161	0.0121939
681.239	0.0121896
681.318	0.0121801
681.396	0.0121748
681.474	0.0120476
681.552	0.0121967
681.630	0.0122475
681.708	0.0122472
681.786	0.0121549
681.864	0.0122089
681.943	0.0123331
682.021	0.0122994
682.099	0.0120749
682.177	0.0122256
682.255	0.0122810
682.333	0.0121230
682.411	0.0122381
682.489	0.0121369
682.568	0.0121706
682.646	0.0122444
682.724	0.0121671
682.802	0.0122334
682.880	0.0121691
682.958	0.0121814
683.036	0.0122015
683.114	0.0121280
683.193	0.0122635
683.271	0.0122874
683.349	0.0122260
683.427	0.0122350
683.505	0.0123225
683.583	0.0123591
683.661	0.0121201
683.739	0.0121780
683.818	0.0122783
683.896	0.0123212
683.974	0.0122684
684.052	0.0121147
684.130	0.0122327
684.208	0.0121645
684.286	0.0121526
684.364	0.0122228
684.443	0.0121613
684.521	0.0122596
684.599	0.0121187
684.677	0.0121700
684.755	0.0125029
684.833	0.0123810
684.911	0.0121986
684.989	0.0123663
685.068	0.0122936
685.146	0.0122594
685.224	0.0121463
685.302	0.0122331
685.380	0.0123459
685.458	0.0123351
685.536	0.0122977
685.614	0.0122597
685.693	0.0121783
685.771	0.0122147
685.849	0.0123189
685.927	0.0123230
686.005	0.0123746
686.083	0.0122737
686.161	0.0121924
686.239	0.0123918
686.318	0.0123520
686.396	0.0123601
686.474	0.0123609
686.552	0.0122995
686.630	0.0122430
686.708	0.0122241
686.786	0.0122575
686.864	0.0122353
686.943	0.0122578
687.021	0.0121851
687.099	0.0122738
687.177	0.0122379
687.255	0.0123414
687.333	0.0121477
687.411	0.0121598
687.489	0.0122050
687.568	0.0122705
687.646	0.0122726
687.724	0.0122411
687.802	0.0122027
687.880	0.0122488
687.958	0.0123783
688.036	0.0121989
688.114	0.0122496
688.193	0.0122319
688.271	0.0121303
688.349	0.0123505
688.427	0.0123058
688.505	0.0122878
688.583	0.0122624
688.661	0.0123115
688.739	0.0122526
688.818	0.0123008
688.896	0.0121291
688.974	0.0122920
689.052	0.0122050
689.130	0.0122785
689.208	0.0124213
689.286	0.0124216
689.364	0.0123137
689.443	0.0121874
689.521	0.0123350
689.599	0.0122697
689.677	0.0122189
689.755	0.0123328
689.833	0.0123473
689.911	0.0124121
689.989	0.0123680
690.068	0.0123096
690.146	0.0123386
690.224	0.0121955
690.302	0.0123056
690.380	0.0122980
690.458	0.0123743
690.536	0.0124122
690.614	0.0121264
690.693	0.0122685
690.771	0.0122829
690.849	0.0122518
690.927	0.0122717
691.005	0.0124033
691.083	0.0123106
691.161	0.0123369
691.239	0.0123402
691.318	0.0123975
691.396	0.0122630
691.474	0.0122151
691.552	0.0123470
691.630	0.0123370
691.708	0.0122251
691.786	0.0122388
691.864	0.0123504
691.943	0.0123677
692.021	0.0122889
692.099	0.0122885
692.177	0.0122972
692.255	0.0123087
692.333	0.0123409
692.411	0.0124365
692.489	0.0122039
692.568	0.0122532
692.646	0.0123249
692.724	0.0122745
692.802	0.0122047
692.880	0.0122607
692.958	0.0122088
693.036	0.0122445
693.114	0.0121441
693.193	0.0121265
693.271	0.0121575
693.349	0.0120398
693.427	0.0122102
693.505	0.0120261
693.583	0.0120485
693.661	0.0122182
693.739	0.0121633
693.818	0.0122961
693.896	0.0119799
693.974	0.0120959
694.052	0.0123047
694.130	0.0123494
694.208	0.0122422
694.286	0.0123212
694.364	0.0124250
694.443	0.0122762
694.521	0.0123257
694.599	0.0123963
694.677	0.0124781
694.755	0.0125582
694.833	0.0124670
694.911	0.0124012
694.989	0.0125085
695.068	0.0124635
695.146	0.0124955
695.224	0.0124103
695.302	0.0125496
695.380	0.0124154
695.458	0.0123273
695.536	0.0124535
695.614	0.0125337
695.693	0.0121571
695.771	0.0121486
695.849	0.0123855
695.927	0.0123377
696.005	0.0122842
696.083	0.0121614
696.161	0.0122392
696.239	0.0122663
696.318	0.0121452
696.396	0.0120849
696.474	0.0122745
696.552	0.0120486
696.630	0.0122140
696.708	0.0121691
696.786	0.0120403
696.864	0.0122433
696.943	0.0120630
697.021	0.0120387
697.099	0.0121093
697.177	0.0121532
697.255	0.0121342
697.333	0.0119605
697.411	0.0121150
697.489	0.0120647
697.568	0.0119991
697.646	0.0122369
697.724	0.0120647
697.802	0.0120899
697.880	0.0120274
697.958	0.0121629
698.036	0.0121934
698.114	0.0122139
698.193	0.0121414
698.271	0.0122314
698.349	0.0121132
698.427	0.0122464
698.505	0.0122674
698.583	0.0122961
698.661	0.0121865
698.739	0.0123005
698.818	0.0122414
698.896	0.0122470
698.974	0.0122633
699.052	0.0122976
699.130	0.0122276
699.208	0.0122430
699.286	0.0121714
699.364	0.0122001
699.443	0.0122084
699.521	0.0123051
699.599	0.0122628
699.677	0.0121924
699.755	0.0123047
699.833	0.0122327
699.911	0.0122163
699.989	0.0123080
700.068	0.0122961
700.146	0.0122086
700.224	0.0121407
700.302	0.0122714
700.380	0.0122128
700.458	0.0121716
700.536	0.0122622
700.614	0.0122492
700.693	0.0120683
700.771	0.0121128
700.849	0.0120875
700.927	0.0121273
701.005	0.0121970
701.083	0.0121894
701.161	0.0122404
701.239	0.0122169
701.318	0.0122521
701.396	0.0121597
701.474	0.0121569
701.552	0.0124081
701.630	0.0121893
701.708	0.0122015
701.786	0.0123763
701.864	0.0123672
701.943	0.0122945
702.021	0.0123483
702.099	0.0124570
702.177	0.0122861
702.255	0.0123250
702.333	0.0124569
702.411	0.0124692
702.489	0.0124677
702.568	0.0124017
702.646	0.0124967
702.724	0.0124178
702.802	0.0123425
702.880	0.0125001
702.958	0.0123779
703.036	0.0122861
703.114	0.0125092
703.193	0.0124103
703.271	0.0124368
703.349	0.0123930
703.427	0.0123926
703.505	0.0122981
703.583	0.0124252
703.661	0.0124596
703.739	0.0124252
703.818	0.0124169
703.896	0.0125179
703.974	0.0123901
704.052	0.0122500
704.130	0.0124213
704.208	0.0123504
704.286	0.0124004
704.364	0.0123097
704.443	0.0125259
704.521	0.0124740
704.599	0.0123986
704.677	0.0124052
704.755	0.0124855
704.833	0.0124236
704.911	0.0124913
704.989	0.0124329
705.068	0.0124240
705.146	0.0124275
705.224	0.0124081
705.302	0.0124327
705.380	0.0125098
705.458	0.0123978
705.536	0.0124175
705.614	0.0124245
705.693	0.0124312
705.771	0.0123504
705.849	0.0123570
705.927	0.0123846
706.005	0.0124635
706.083	0.0121426
706.161	0.0123519
706.239	0.0123652
706.318	0.0123731
706.396	0.0122115
706.474	0.0121745
706.552	0.0123129
706.630	0.0122852
706.708	0.0121423
706.786	0.0121680
706.864	0.0120714
706.943	0.0119426
707.021	0.0119535
707.099	0.0121315
707.177	0.0120600
707.255	0.0119266
707.333	0.0119389
707.411	0.0120854
707.489	0.0119826
707.568	0.0120064
707.646	0.0120422
707.724	0.0120232
707.802	0.0119624
707.880	0.0120089
707.958	0.0121021
708.036	0.0122443
708.114	0.0121798
708.193	0.0119997
708.271	0.0120757
708.349	0.0122333
708.427	0.0122084
708.505	0.0121358
708.583	0.0122150
708.661	0.0120949
708.739	0.0122878
708.818	0.0122236
708.896	0.0122171
708.974	0.0123663
709.052	0.0123600
709.130	0.0122554
709.208	0.0122797
709.286	0.0122857
709.364	0.0121983
709.443	0.0121968
709.521	0.0123775
709.599	0.0122767
709.677	0.0123421
709.755	0.0121727
709.833	0.0122167
709.911	0.0124088
709.989	0.0122881
710.068	0.0122811
710.146	0.0123430
710.224	0.0122189
710.302	0.0123418
710.380	0.0122694
710.458	0.0122649
710.536	0.0123022
710.614	0.0122894
710.693	0.0124004
710.771	0.0123085
710.849	0.0123914
710.927	0.0123094
711.005	0.0123687
711.083	0.0123633
711.161	0.0122673
711.239	0.0123259
711.318	0.0123236
711.396	0.0122965
711.474	0.0123261
711.552	0.0122395
711.630	0.0122359
711.708	0.0123175
711.786	0.0122563
711.864	0.0123160
711.943	0.0122589
712.021	0.0122868
712.099	0.0123974
712.177	0.0123512
712.255	0.0123387
712.333	0.0123051
712.411	0.0122934
712.489	0.0124011
712.568	0.0123450
712.646	0.0122942
712.724	0.0123555
712.802	0.0123293
712.880	0.0123673
712.958	0.0123321
713.036	0.0123045
713.114	0.0123251
713.193	0.0122882
713.271	0.0123749
713.349	0.0122865
713.427	0.0122300
713.505	0.0123177
713.583	0.0123624
713.661	0.0124075
713.739	0.0121770
713.818	0.0122522
713.896	0.0125042
713.974	0.0123542
714.052	0.0122661
714.130	0.0122141
714.208	0.0124088
714.286	0.0123610
714.364	0.0123927
714.443	0.0122713
714.521	0.0123245
714.599	0.0123261
714.677	0.0121961
714.755	0.0123314
714.833	0.0122752
714.911	0.0123074
714.989	0.0123763
715.068	0.0121201
715.146	0.0121469
715.224	0.0120581
715.302	0.0122861
715.380	0.0122793
715.458	0.0122251
715.536	0.0122998
715.614	0.0121449
715.693	0.0121327
715.771	0.0120897
715.849	0.0121880
715.927	0.0122244
716.005	0.0123020
716.083	0.0121574
716.161	0.0121157
716.239	0.0122032
716.318	0.0123149
716.396	0.0123312
716.474	0.0122897
716.552	0.0122918
716.630	0.0122481
716.708	0.0121449
716.786	0.0122617
716.864	0.0121685
716.943	0.0121292
717.021	0.0121696
717.099	0.0121798
717.177	0.0122031
717.255	0.0120979
717.333	0.0121085
717.411	0.0121468
717.489	0.0121327
717.568	0.0121592
717.646	0.0122721
717.724	0.0121925
717.802	0.0122384
717.880	0.0122094
717.958	0.0122068
718.036	0.0122223
718.114	0.0123084
718.193	0.0122192
718.271	0.0122833
718.349	0.0123724
718.427	0.0122577
718.505	0.0122151
718.583	0.0121463
718.661	0.0121705
718.739	0.0122540
718.818	0.0122085
718.896	0.0123982
718.974	0.0124251
719.052	0.0123849
719.130	0.0122321
719.208	0.0122744
719.286	0.0123942
719.364	0.0121702
719.443	0.0123367
719.521	0.0123866
719.599	0.0122845
719.677	0.0123969
719.755	0.0123270
719.833	0.0123765
719.911	0.0122150
719.989	0.0124150
720.068	0.0122260
720.146	0.0123214
720.224	0.0123080
720.302	0.0122175
720.380	0.0123519
720.458	0.0121837
720.536	0.0123132
720.614	0.0123167
720.693	0.0122768
720.771	0.0121926
720.849	0.0120790
720.927	0.0122210
721.005	0.0122566
721.083	0.0120855
721.161	0.0122272
721.239	0.0122091
721.318	0.0121381
721.396	0.0122005
721.474	0.0121749
721.552	0.0121381
721.630	0.0121769
721.708	0.0123322
721.786	0.0121424
721.864	0.0122707
721.943	0.0120856
722.021	0.0121718
722.099	0.0122295
722.177	0.0121411
722.255	0.0122675
722.333	0.0122144
722.411	0.0123605
722.489	0.0122448
722.568	0.0121757
722.646	0.0122865
722.724	0.0123026
722.802	0.0122476
722.880	0.0121203
722.958	0.0123717
723.036	0.0122940
723.114	0.0122517
723.193	0.0122154
723.271	0.0122224
723.349	0.0122810
723.427	0.0122581
723.505	0.0122555
723.583	0.0121313
723.661	0.0122140
723.739	0.0122306
723.818	0.0121863
723.896	0.0122065
723.974	0.0121288
724.052	0.0121014
724.130	0.0121999
724.208	0.0121992
724.286	0.0121040
724.364	0.0120491
724.443	0.0121076
724.521	0.0121578
724.599	0.0122214
724.677	0.0122052
724.755	0.0121628
724.833	0.0122827
724.911	0.0121813
724.989	0.0121684
725.068	0.0121857
725.146	0.0122314
725.224	0.0123150
725.302	0.0121976
725.380	0.0123632
725.458	0.0123869
725.536	0.0123156
725.614	0.0123844
725.693	0.0122131
725.771	0.0124060
725.849	0.0123206
725.927	0.0123241
726.005	0.0124128
726.083	0.0123333
726.161	0.0123127
726.239	0.0124062
726.318	0.0123720
726.396	0.0123837
726.474	0.0123116
726.552	0.0123684
726.630	0.0124979
726.708	0.0123248
726.786	0.0121810
726.864	0.0122063
726.943	0.0122324
727.021	0.0123667
727.099	0.0123014
727.177	0.0121919
727.255	0.0123372
727.333	0.0121166
727.411	0.0122108
727.489	0.0123397
727.568	0.0121853
727.646	0.0121756
727.724	0.0120390
727.802	0.0122842
727.880	0.0122712
727.958	0.0122325
728.036	0.0121638
728.114	0.0121483
728.193	0.0123551
728.271	0.0123284
728.349	0.0122214
728.427	0.0122474
728.505	0.0122329
728.583	0.0122703
728.661	0.0124356
728.739	0.0124290
728.818	0.0122257
728.896	0.0123277
728.974	0.0124386
729.052	0.0123457
729.130	0.0123827
729.208	0.0123399
729.286	0.0122398
729.364	0.0121850
729.443	0.0123337
729.521	0.0122715
729.599	0.0122707
729.677	0.0124042
729.755	0.0123518
729.833	0.0122500
729.911	0.0122377
729.989	0.0123203
730.068	0.0122250
730.146	0.0122308
730.224	0.0121230
730.302	0.0121268
730.380	0.0120559
730.458	0.0121856
730.536	0.0123282
730.614	0.0120959
730.693	0.0120031
730.771	0.0119907
730.849	0.0121449
730.927	0.0121082
731.005	0.0121676
731.083	0.0120593
731.161	0.0120693
731.239	0.0120303
731.318	0.0121830
731.396	0.0120924
731.474	0.0121146
731.552	0.0121257
731.630	0.0121270
731.708	0.0120692
731.786	0.0122134
731.864	0.0121422
731.943	0.0122565
732.021	0.0122193
732.099	0.0122104
732.177	0.0121469
732.255	0.0122180
732.333	0.0121213
732.411	0.0122536
732.489	0.0122224
732.568	0.0121439
732.646	0.0121465
732.724	0.0122356
732.802	0.0122131
732.880	0.0121062
732.958	0.0121626
733.036	0.0121605
733.114	0.0122623
733.193	0.0122215
733.271	0.0122282
733.349	0.0123894
733.427	0.0123695
733.505	0.0121019
733.583	0.0123173
733.661	0.0124287
733.739	0.0123637
733.818	0.0122682
733.896	0.0123537
733.974	0.0124473
734.052	0.0122693
734.130	0.0124372
734.208	0.0124245
734.286	0.0123542
734.364	0.0123515
734.443	0.0123754
734.521	0.0124055
734.599	0.0123085
734.677	0.0122836
734.755	0.0122468
734.833	0.0123945
734.911	0.0123566
734.989	0.0122272
735.068	0.0122857
735.146	0.0124130
735.224	0.0122736
735.302	0.0123809
735.380	0.0122505
735.458	0.0122780
735.536	0.0121725
735.614	0.0120677
735.693	0.0121884
735.771	0.0121246
735.849	0.0122801
735.927	0.0122321
736.005	0.0122230
736.083	0.0121774
736.161	0.0122626
736.239	0.0123055
736.318	0.0122514
736.396	0.0120713
736.474	0.0121696
736.552	0.0122281
736.630	0.0121680
736.708	0.0122521
736.786	0.0123297
736.864	0.0123358
736.943	0.0123110
737.021	0.0123275
737.099	0.0123091
737.177	0.0122717
737.255	0.0121196
737.333	0.0123088
737.411	0.0123554
737.489	0.0124354
737.568	0.0122688
737.646	0.0123425
737.724	0.0122550
737.802	0.0121701
737.880	0.0121732
737.958	0.0121983
738.036	0.0121952
738.114	0.0121224
738.193	0.0121926
738.271	0.0122300
738.349	0.0121483
738.427	0.0121122
738.505	0.0121711
738.583	0.0122166
738.661	0.0121170
738.739	0.0119904
738.818	0.0121547
738.896	0.0122488
738.974	0.0122166
739.052	0.0121014
739.130	0.0122176
739.208	0.0121344
739.286	0.0121761
739.364	0.0121210
739.443	0.0120553
739.521	0.0121011
739.599	0.0120968
739.677	0.0122149
739.755	0.0122279
739.833	0.0122419
739.911	0.0123294
739.989	0.0120969
740.068	0.0121848
740.146	0.0123206
740.224	0.0123432
740.302	0.0121384
740.380	0.0122489
740.458	0.0122930
740.536	0.0122958
740.614	0.0121589
740.693	0.0122265
740.771	0.0122525
740.849	0.0122479
740.927	0.0121426
741.005	0.0122661
741.083	0.0121624
741.161	0.0123129
741.239	0.0121591
741.318	0.0122079
741.396	0.0121628
741.474	0.0122681
741.552	0.0122905
741.630	0.0122928
741.708	0.0122991
741.786	0.0123501
741.864	0.0122791
741.943	0.0122520
742.021	0.0122817
742.099	0.0123312
742.177	0.0123124
742.255	0.0123857
742.333	0.0121733
742.411	0.0121826
742.489	0.0123003
742.568	0.0122308
742.646	0.0123352
742.724	0.0122122
742.802	0.0123766
742.880	0.0124617
742.958	0.0124258
743.036	0.0122380
743.114	0.0124394
743.193	0.0125238
743.271	0.0124183
743.349	0.0122884
743.427	0.0122822
743.505	0.0122501
743.583	0.0123187
743.661	0.0123867
743.739	0.0123608
743.818	0.0122880
743.896	0.0123120
743.974	0.0122697
744.052	0.0122212
744.130	0.0123948
744.208	0.0122356
744.286	0.0122583
744.364	0.0122790
744.443	0.0122290
744.521	0.0122910
744.599	0.0122520
744.677	0.0122868
744.755	0.0122923
744.833	0.0122385
744.911	0.0122018
744.989	0.0123489
745.068	0.0123113
745.146	0.0123241
745.224	0.0122927
745.302	0.0122920
745.380	0.0122139
745.458	0.0121337
745.536	0.0122534
745.614	0.0120959
745.693	0.0119849
745.771	0.0121793
745.849	0.0122314
745.927	0.0121712
746.005	0.0122503
746.083	0.0122227
746.161	0.0122242
746.239	0.0122454
746.318	0.0122456
746.396	0.0122061
746.474	0.0121555
746.552	0.0120557
746.630	0.0121827
746.708	0.0120711
746.786	0.0121537
746.864	0.0121654
746.943	0.0120812
747.021	0.0121395
747.099	0.0122549
747.177	0.0121155
747.255	0.0121987
747.333	0.0122089
747.411	0.0122492
747.489	0.0122802
747.568	0.0122804
747.646	0.0121992
747.724	0.0122032
747.802	0.0122897
747.880	0.0122015
747.958	0.0122709
748.036	0.0122112
748.114	0.0122172
748.193	0.0123792
748.271	0.0123224
748.349	0.0123367
748.427	0.0122586
748.505	0.0122555
748.583	0.0123107
748.661	0.0122205
748.739	0.0124197
748.818	0.0123858
748.896	0.0122919
748.974	0.0122560
749.052	0.0123184
749.130	0.0123544
749.208	0.0122502
749.286	0.0123979
749.364	0.0124341
749.443	0.0121566
749.521	0.0123036
749.599	0.0122707
749.677	0.0122938
749.755	0.0122989
749.833	0.0122555
749.911	0.0122015
749.989	0.0121919
750.068	0.0121720
750.146	0.0121472
750.224	0.0123470
750.302	0.0123272
750.380	0.0122350
750.458	0.0121278
750.536	0.0120356
750.614	0.0121302
750.693	0.0122179
750.771	0.0121002
750.849	0.0121567
750.927	0.0122378
751.005	0.0121674
751.083	0.0121857
751.161	0.0121798
751.239	0.0121894
751.318	0.0121559
751.396	0.0121712
751.474	0.0123632
751.552	0.0122456
751.630	0.0122704
751.708	0.0123349
751.786	0.0121945
751.864	0.0122789
751.943	0.0122198
752.021	0.0124095
752.099	0.0122913
752.177	0.0123569
752.255	0.0123586
752.333	0.0123565
752.411	0.0123495
752.489	0.0122783
752.568	0.0123668
752.646	0.0122540
752.724	0.0123456
752.802	0.0124313
752.880	0.0123396
752.958	0.0123279
753.036	0.0123618
753.114	0.0124352
753.193	0.0122626
753.271	0.0122519
753.349	0.0123167
753.427	0.0121359
753.505	0.0122761
753.583	0.0122567
753.661	0.0122179
753.739	0.0120711
753.818	0.0123692
753.896	0.0122543
753.974	0.0121941
754.052	0.0123126
754.130	0.0121010
754.208	0.0122129
754.286	0.0121675
754.364	0.0122149
754.443	0.0122441
754.521	0.0121409
754.599	0.0121193
754.677	0.0122370
754.755	0.0122791
754.833	0.0121930
754.911	0.0121266
754.989	0.0122234
755.068	0.0121889
755.146	0.0121780
755.224	0.0122803
755.302	0.0122673
755.380	0.0121895
755.458	0.0122781
755.536	0.0122239
755.614	0.0121039
755.693	0.0122630
755.771	0.0122289
755.849	0.0121562
755.927	0.0122910
756.005	0.0122831
756.083	0.0121792
756.161	0.0121128
756.239	0.0122963
756.318	0.0123926
756.396	0.0122492
756.474	0.0121460
756.552	0.0122962
756.630	0.0124968
756.708	0.0122186
756.786	0.0121985
756.864	0.0123008
756.943	0.0121032
757.021	0.0121716
757.099	0.0123399
757.177	0.0123303
757.255	0.0123199
757.333	0.0120836
757.411	0.0123361
757.489	0.0123178
757.568	0.0121265
757.646	0.0122739
757.724	0.0121198
757.802	0.0123138
757.880	0.0122635
757.958	0.0122346
758.036	0.0122616
758.114	0.0122916
758.193	0.0124791
758.271	0.0121902
758.349	0.0122753
758.427	0.0122698
758.505	0.0122651
758.583	0.0123488
758.661	0.0122166
758.739	0.0123853
758.818	0.0123245
758.896	0.0122920
758.974	0.0122488
759.052	0.0121258
759.130	0.0121805
759.208	0.0123204
759.286	0.0122785
759.364	0.0121960
759.443	0.0121523
759.521	0.0120995
759.599	0.0121855
759.677	0.0121848
759.755	0.0123309
759.833	0.0122054
759.911	0.0121088
759.989	0.0122610
760.068	0.0122327
760.146	0.0121550
760.224	0.0122485
760.302	0.0122044
760.380	0.0122462
760.458	0.0121800
760.536	0.0122401
760.614	0.0121518
760.693	0.0122614
760.771	0.0123343
760.849	0.0123093
760.927	0.0124252
761.005	0.0123338
761.083	0.0121616
761.161	0.0123260
761.239	0.0123225
761.318	0.0122163
761.396	0.0123223
761.474	0.0123053
761.552	0.0122711
761.630	0.0123494
761.708	0.0123013
761.786	0.0122763
761.864	0.0123195
761.943	0.0122629
762.021	0.0123181
762.099	0.0120814
762.177	0.0123206
762.255	0.0123016
762.333	0.0121518
762.411	0.0122215
762.489	0.0122343
762.568	0.0121615
762.646	0.0123170
762.724	0.0121496
762.802	0.0121410
762.880	0.0122009
762.958	0.0121812
763.036	0.0121160
763.114	0.0120945
763.193	0.0121627
763.271	0.0121815
763.349	0.0122574
763.427	0.0121467
763.505	0.0121626
763.583	0.0121222
763.661	0.0120581
763.739	0.0122224
763.818	0.0121413
763.896	0.0122708
763.974	0.0121619
764.052	0.0121449
764.130	0.0122894
764.208	0.0122082
764.286	0.0120639
764.364	0.0121487
764.443	0.0122999
764.521	0.0122636
764.599	0.0122884
764.677	0.0121265
764.755	0.0121960
764.833	0.0123210
764.911	0.0122139
764.989	0.0121189
765.068	0.0122678
765.146	0.0121909
765.224	0.0122262
765.302	0.0121053
765.380	0.0121549
765.458	0.0120333
765.536	0.0121938
765.614	0.0123003
765.693	0.0122720
765.771	0.0121486
765.849	0.0121938
765.927	0.0122694
766.005	0.0122048
766.083	0.0123096
766.161	0.0122052
766.239	0.0122029
766.318	0.0121920
766.396	0.0121872
766.474	0.0122089
766.552	0.0122671
766.630	0.0122463
766.708	0.0123797
766.786	0.0124460
766.864	0.0122720
766.943	0.0122608
767.021	0.0122945
767.099	0.0123206
767.177	0.0121545
767.255	0.0122424
767.333	0.0123637
767.411	0.0122816
767.489	0.0123122
767.568	0.0122173
767.646	0.0122523
767.724	0.0123431
767.802	0.0122223
767.880	0.0122633
767.958	0.0123311
768.036	0.0122526
768.114	0.0122175
768.193	0.0121429
768.271	0.0121617
768.349	0.0121610
768.427	0.0122544
768.505	0.0121807
768.583	0.0120693
768.661	0.0122073
768.739	0.0122469
768.818	0.0120876
768.896	0.0120933
768.974	0.0120813
769.052	0.0121288
769.130	0.0122077
769.208	0.0121426
769.286	0.0120837
769.364	0.0121617
769.443	0.0120831
769.521	0.0120750
769.599	0.0122169
769.677	0.0121935
769.755	0.0121406
769.833	0.0122459
769.911	0.0121227
769.989	0.0121723
770.068	0.0121980
770.146	0.0121306
770.224	0.0121719
770.302	0.0121486
770.380	0.0122619
770.458	0.0121993
770.536	0.0121947
770.614	0.0121858
770.693	0.0122020
770.771	0.0123843
770.849	0.0123311
770.927	0.0122547
771.005	0.0124303
771.083	0.0123680
771.161	0.0123753
771.239	0.0124332
771.318	0.0123884
771.396	0.0124891
771.474	0.0125082
771.552	0.0123092
771.630	0.0123326
771.708	0.0123956
771.786	0.0124407
771.864	0.0124198
771.943	0.0123399
772.021	0.0124356
772.099	0.0123678
772.177	0.0124791
772.255	0.0124984
772.333	0.0123485
772.411	0.0124142
772.489	0.0123833
772.568	0.0123878
772.646	0.0122374
772.724	0.0122569
772.802	0.0124971
772.880	0.0123861
772.958	0.0122807
773.036	0.0123344
773.114	0.0122760
773.193	0.0123158
773.271	0.0122638
773.349	0.0122279
773.427	0.0123188
773.505	0.0121361
773.583	0.0122895
773.661	0.0122965
773.739	0.0122577
773.818	0.0121909
773.896	0.0122737
773.974	0.0122309
774.052	0.0123377
774.130	0.0122501
774.208	0.0121957
774.286	0.0123498
774.364	0.0123122
774.443	0.0122027
774.521	0.0124014
774.599	0.0123244
774.677	0.0123138
774.755	0.0122160
774.833	0.0123318
774.911	0.0122401
774.989	0.0123276
775.068	0.0122814
775.146	0.0123045
775.224	0.0123830
775.302	0.0123413
775.380	0.0123893
775.458	0.0122384
775.536	0.0122134
775.614	0.0123123
775.693	0.0123732
775.771	0.0121530
775.849	0.0123034
775.927	0.0123221
776.005	0.0123900
776.083	0.0123296
776.161	0.0122788
776.239	0.0123174
776.318	0.0123502
776.396	0.0124126
776.474	0.0122348
776.552	0.0123041
776.630	0.0122598
776.708	0.0123164
776.786	0.0123743
776.864	0.0123833
776.943	0.0123234
777.021	0.0124135
777.099	0.0122644
777.177	0.0123478
777.255	0.0122738
777.333	0.0123423
777.411	0.0123370
777.489	0.0121828
777.568	0.0122012
777.646	0.0121826
777.724	0.0122050
777.802	0.0122185
777.880	0.0121098
777.958	0.0120934
778.036	0.0122513
778.114	0.0122352
778.193	0.0121570
778.271	0.0121177
778.349	0.0122330
778.427	0.0120349
778.505	0.0121603
778.583	0.0121541
778.661	0.0123093
778.739	0.0122878
778.818	0.0121770
778.896	0.0121676
778.974	0.0121744
779.052	0.0123380
779.130	0.0121616
779.208	0.0121645
779.286	0.0123176
779.364	0.0121043
779.443	0.0122351
779.521	0.0121890
779.599	0.0122703
779.677	0.0121793
779.755	0.0120849
779.833	0.0121279
779.911	0.0122522
779.989	0.0122194
780.068	0.0121699
780.146	0.0122535
780.224	0.0121288
780.302	0.0121771
780.380	0.0122514
780.458	0.0124247
780.536	0.0122692
780.614	0.0123083
780.693	0.0123122
780.771	0.0122194
780.849	0.0123788
780.927	0.0122896
781.005	0.0123682
781.083	0.0122439
781.161	0.0123164
781.239	0.0123006
781.318	0.0123345
781.396	0.0121970
781.474	0.0123751
781.552	0.0123624
781.630	0.0122935
781.708	0.0123773
781.786	0.0123486
781.864	0.0123038
781.943	0.0122475
782.021	0.0122735
782.099	0.0123859
782.177	0.0123721
782.255	0.0123418
782.333	0.0122744
782.411	0.0121767
782.489	0.0122127
782.568	0.0121178
782.646	0.0121761
782.724	0.0122375
782.802	0.0122769
782.880	0.0122513
782.958	0.0121942
783.036	0.0121667
783.114	0.0121774
783.193	0.0122916
783.271	0.0122158
783.349	0.0123200
783.427	0.0122839
783.505	0.0122509
783.583	0.0121622
783.661	0.0120801
783.739	0.0121526
783.818	0.0120931
783.896	0.0121870
783.974	0.0120591
784.052	0.0121449
784.130	0.0121925
784.208	0.0120419
784.286	0.0121091
784.364	0.0121670
784.443	0.0122005
784.521	0.0122221
784.599	0.0121233
784.677	0.0123116
784.755	0.0121236
784.833	0.0122074
784.911	0.0121400
784.989	0.0122896
785.068	0.0122842
785.146	0.0122302
785.224	0.0121388
785.302	0.0122609
785.380	0.0122526
785.458	0.0121861
785.536	0.0121830
785.614	0.0124004
785.693	0.0123157
785.771	0.0122099
785.849	0.0121584
785.927	0.0122961
786.005	0.0123421
786.083	0.0123384
786.161	0.0121216
786.239	0.0120745
786.318	0.0122578
786.396	0.0122147
786.474	0.0122495
786.552	0.0121102
786.630	0.0122002
786.708	0.0121699
786.786	0.0121949
786.864	0.0121730
786.943	0.0122300
787.021	0.0121799
787.099	0.0121513
787.177	0.0121555
787.255	0.0122649
787.333	0.0122305
787.411	0.0121904
787.489	0.0122322
787.568	0.0120792
787.646	0.0121682
787.724	0.0122619
787.802	0.0121613
787.880	0.0120837
787.958	0.0121676
788.036	0.0122128
788.114	0.0121482
788.193	0.0121410
788.271	0.0121373
788.349	0.0121584
788.427	0.0122132
788.505	0.0122176
788.583	0.0120890
788.661	0.0120489
788.739	0.0121690
788.818	0.0122842
788.896	0.0121975
788.974	0.0121367
789.052	0.0122437
789.130	0.0121661
789.208	0.0122788
789.286	0.0123054
789.364	0.0125407
789.443	0.0121219
789.521	0.0121700
789.599	0.0123703
789.677	0.0123145
789.755	0.0121254
789.833	0.0122977
789.911	0.0123619
789.989	0.0121724
790.068	0.0121474
790.146	0.0123518
790.224	0.0121754
790.302	0.0121420
790.380	0.0122827
790.458	0.0122483
790.536	0.0122026
790.614	0.0123849
790.693	0.0122431
790.771	0.0121358
790.849	0.0123569
790.927	0.0122631
791.005	0.0121825
791.083	0.0122469
791.161	0.0122270
791.239	0.0122038
791.318	0.0122327
791.396	0.0124590
791.474	0.0122668
791.552	0.0121394
791.630	0.0122518
791.708	0.0121573
791.786	0.0122881
791.864	0.0122453
791.943	0.0122096
792.021	0.0123368
792.099	0.0122824
792.177	0.0121508
792.255	0.0120910
792.333	0.0120091
792.411	0.0122606
792.489	0.0120876
792.568	0.0121516
792.646	0.0122078
792.724	0.0121829
792.802	0.0120609
792.880	0.0121283
792.958	0.0122279
793.036	0.0121925
793.114	0.0121570
793.193	0.0122141
793.271	0.0120721
793.349	0.0120255
793.427	0.0122299
793.505	0.0121219
793.583	0.0121955
793.661	0.0121773
793.739	0.0121674
793.818	0.0121657
793.896	0.0121075
793.974	0.0120463
794.052	0.0122225
794.130	0.0122450
794.208	0.0121587
794.286	0.0122341
794.364	0.0122449
794.443	0.0121960
794.521	0.0122368
794.599	0.0123248
794.677	0.0121947
794.755	0.0122064
794.833	0.0123842
794.911	0.0123622
794.989	0.0122496
795.068	0.0121414
795.146	0.0122471
795.224	0.0122409
795.302	0.0122914
795.380	0.0122892
795.458	0.0122558
795.536	0.0123443
795.614	0.0123660
795.693	0.0122459
795.771	0.0123168
795.849	0.0122467
795.927	0.0122550
796.005	0.0122791
796.083	0.0123291
796.161	0.0123993
796.239	0.0122644
796.318	0.0122239
796.396	0.0123371
796.474	0.0123260
796.552	0.0122717
796.630	0.0121199
796.708	0.0121834
796.786	0.0123312
796.864	0.0123719
796.943	0.0122535
797.021	0.0121151
797.099	0.0122153
797.177	0.0122936
797.255	0.0122797
797.333	0.0123244
797.411	0.0123536
797.489	0.0122034
797.568	0.0121628
797.646	0.0123494
797.724	0.0124509
797.802	0.0122221
797.880	0.0122881
797.958	0.0122395
798.036	0.0122540
798.114	0.0123712
798.193	0.0124197
798.271	0.0123466
798.349	0.0123800
798.427	0.0122821
798.505	0.0123753
798.583	0.0123852
798.661	0.0122715
798.739	0.0124343
798.818	0.0124069
798.896	0.0123519
798.974	0.0122784
799.052	0.0124114
799.130	0.0123820
799.208	0.0123493
799.286	0.0123379
799.364	0.0123222
799.443	0.0124301
799.521	0.0123473
799.599	0.0123665
799.677	0.0122517
799.755	0.0122227
799.833	0.0125093
799.911	0.0123656
799.989	0.0123181
800.068	0.0123838
800.146	0.0123228
800.224	0.0122696
800.302	0.0121835
800.380	0.0123196
800.458	0.0123386
800.536	0.0122747
800.614	0.0121275
800.693	0.0122780
800.771	0.0122247
800.849	0.0122854
800.927	0.0123997
801.005	0.0121748
801.083	0.0121761
801.161	0.0122356
801.239	0.0123231
801.318	0.0123048
801.396	0.0121793
801.474	0.0123009
801.552	0.0123429
801.630	0.0122773
801.708	0.0121999
801.786	0.0122569
801.864	0.0123014
801.943	0.0122793
802.021	0.0121690
802.099	0.0122810
802.177	0.0121349
802.255	0.0121681
802.333	0.0121005
802.411	0.0121383
802.489	0.0121847
802.568	0.0121946
802.646	0.0122744
802.724	0.0119444
802.802	0.0121617
802.880	0.0121642
802.958	0.0119780
803.036	0.0121359
803.114	0.0121603
803.193	0.0121342
803.271	0.0120862
803.349	0.0121881
803.427	0.0121159
803.505	0.0120987
803.583	0.0121721
803.661	0.0121314
803.739	0.0120883
803.818	0.0122828
803.896	0.0121487
803.974	0.0121784
804.052	0.0122985
804.130	0.0121462
804.208	0.0120993
804.286	0.0122408
804.364	0.0121545
804.443	0.0121094
804.521	0.0122937
804.599	0.0123645
804.677	0.0122354
804.755	0.0120965
804.833	0.0121960
804.911	0.0122681
804.989	0.0121416
805.068	0.0122276
805.146	0.0122263
805.224	0.0122803
805.302	0.0122453
805.380	0.0124081
805.458	0.0122270
805.536	0.0122912
805.614	0.0123419
805.693	0.0122482
805.771	0.0122379
805.849	0.0123834
805.927	0.0123363
806.005	0.0123346
806.083	0.0122121
806.161	0.0123276
806.239	0.0122973
806.318	0.0122511
806.396	0.0122743
806.474	0.0121953
806.552	0.0122981
806.630	0.0123254
806.708	0.0121753
806.786	0.0122960
806.864	0.0122211
806.943	0.0122591
807.021	0.0120050
807.099	0.0119936
807.177	0.0120455
807.255	0.0121635
807.333	0.0122824
807.411	0.0122711
807.489	0.0122175
807.568	0.0122351
807.646	0.0121337
807.724	0.0120918
807.802	0.0122215
807.880	0.0121165
807.958	0.0122103
808.036	0.0121518
808.114	0.0121866
808.193	0.0121146
808.271	0.0121906
808.349	0.0121207
808.427	0.0121941
808.505	0.0121244
808.583	0.0121254
808.661	0.0121526
808.739	0.0121325
808.818	0.0121661
808.896	0.0120987
808.974	0.0122374
809.052	0.0121629
809.130	0.0122623
809.208	0.0122284
809.286	0.0122835
809.364	0.0121413
809.443	0.0122713
809.521	0.0121472
809.599	0.0120547
809.677	0.0121594
809.755	0.0121218
809.833	0.0122931
809.911	0.0123399
809.989	0.0122524
810.068	0.0123234
810.146	0.0123127
810.224	0.0122453
810.302	0.0122925
810.380	0.0122181
810.458	0.0123327
810.536	0.0123522
810.614	0.0123569
810.693	0.0123031
810.771	0.0121584
810.849	0.0123172
810.927	0.0122699
811.005	0.0123430
811.083	0.0123096
811.161	0.0123276
811.239	0.0122503
811.318	0.0122523
811.396	0.0123657
811.474	0.0122430
811.552	0.0122243
811.630	0.0121418
811.708	0.0121947
811.786	0.0120937
811.864	0.0123036
811.943	0.0122799
812.021	0.0121930
812.099	0.0121920
812.177	0.0122735
812.255	0.0121735
812.333	0.0121655
812.411	0.0121893
812.489	0.0123079
812.568	0.0121558
812.646	0.0122036
812.724	0.0120988
812.802	0.0121868
812.880	0.0121490
812.958	0.0123734
813.036	0.0122622
813.114	0.0122064
813.193	0.0121427
813.271	0.0121065
813.349	0.0122829
813.427	0.0121915
813.505	0.0122418
813.583	0.0123347
813.661	0.0120920
813.739	0.0120495
813.818	0.0121809
813.896	0.0122926
813.974	0.0121897
814.052	0.0122557
814.130	0.0121982
814.208	0.0121652
814.286	0.0121479
814.364	0.0120708
814.443	0.0121920
814.521	0.0122053
814.599	0.0120934
814.677	0.0121983
814.755	0.0122314
814.833	0.0123544
814.911	0.0122799
814.989	0.0123973
815.068	0.0120919
815.146	0.0122527
815.224	0.0123382
815.302	0.0123100
815.380	0.0125498
815.458	0.0123621
815.536	0.0122864
815.614	0.0121970
815.693	0.0123143
815.771	0.0123949
815.849	0.0123895
815.927	0.0123428
816.005	0.0123175
816.083	0.0123402
816.161	0.0123609
816.239	0.0123190
816.318	0.0122255
816.396	0.0123137
816.474	0.0122508
816.552	0.0122618
816.630	0.0122354
816.708	0.0123447
816.786	0.0122095
816.864	0.0122320
816.943	0.0121258
817.021	0.0121906
817.099	0.0121859
817.177	0.0121355
817.255	0.0121230
817.333	0.0120559
817.411	0.0120520
817.489	0.0120521
817.568	0.0122944
817.646	0.0122687
817.724	0.0120807
817.802	0.0121372
817.880	0.0120898
817.958	0.0121433
818.036	0.0121899
818.114	0.0120477
818.193	0.0121690
818.271	0.0122824
818.349	0.0121411
818.427	0.0120733
818.505	0.0120536
818.583	0.0121384
818.661	0.0120724
818.739	0.0121421
818.818	0.0120895
818.896	0.0121299
818.974	0.0122169
819.052	0.0123196
819.130	0.0122781
819.208	0.0120638
819.286	0.0122423
819.364	0.0122067
819.443	0.0122118
819.521	0.0121338
819.599	0.0121992
819.677	0.0121345
819.755	0.0122701
819.833	0.0122614
819.911	0.0122378
819.989	0.0121855
820.068	0.0123337
820.146	0.0123180
820.224	0.0123734
820.302	0.0123180
820.380	0.0123041
820.458	0.0121637
820.536	0.0122095
820.614	0.0122825
820.693	0.0122321
820.771	0.0122680
820.849	0.0121884
820.927	0.0121820
821.005	0.0122650
821.083	0.0123038
821.161	0.0121885
821.239	0.0121876
821.318	0.0119839
821.396	0.0122700
821.474	0.0122613
821.552	0.0121645
821.630	0.0120820
821.708	0.0121200
821.786	0.0122529
821.864	0.0122667
821.943	0.0121312
822.021	0.0121743
822.099	0.0122992
822.177	0.0121513
822.255	0.0120727
822.333	0.0121750
822.411	0.0123225
822.489	0.0122157
822.568	0.0121146
822.646	0.0122866
822.724	0.0121809
822.802	0.0121664
822.880	0.0122246
822.958	0.0124129
823.036	0.0122530
823.114	0.0121342
823.193	0.0121732
823.271	0.0122338
823.349	0.0123095
823.427	0.0122528
823.505	0.0121975
823.583	0.0122941
823.661	0.0122395
823.739	0.0123121
823.818	0.0121751
823.896	0.0121437
823.974	0.0122869
824.052	0.0123203
824.130	0.0121930
824.208	0.0121827
824.286	0.0123009
824.364	0.0122243
824.443	0.0121394
824.521	0.0123323
824.599	0.0123098
824.677	0.0122617
824.755	0.0121380
824.833	0.0121716
824.911	0.0120930
824.989	0.0121198
825.068	0.0121856
825.146	0.0121837
825.224	0.0122509
825.302	0.0120663
825.380	0.0121597
825.458	0.0119563
825.536	0.0120356
825.614	0.0121283
825.693	0.0121053
825.771	0.0120910
825.849	0.0121252
825.927	0.0121082
826.005	0.0119853
826.083	0.0121320
826.161	0.0123071
826.239	0.0121554
826.318	0.0121838
826.396	0.0121764
826.474	0.0121293
826.552	0.0121581
826.630	0.0122766
826.708	0.0122215
826.786	0.0122346
826.864	0.0123299
826.943	0.0120667
827.021	0.0122733
827.099	0.0123785
827.177	0.0123045
827.255	0.0121209
827.333	0.0122694
827.411	0.0122514
827.489	0.0122263
827.568	0.0122028
827.646	0.0122527
827.724	0.0121395
827.802	0.0121690
827.880	0.0122669
827.958	0.0122066
828.036	0.0121860
828.114	0.0121437
828.193	0.0123121
828.271	0.0121489
828.349	0.0122240
828.427	0.0121872
828.505	0.0122714
828.583	0.0122272
828.661	0.0121027
828.739	0.0123768
828.818	0.0120851
828.896	0.0122379
828.974	0.0123907
829.052	0.0123670
829.130	0.0122802
829.208	0.0121030
829.286	0.0122158
829.364	0.0121756
829.443	0.0122287
829.521	0.0122201
829.599	0.0121912
829.677	0.0121230
829.755	0.0122091
829.833	0.0121143
829.911	0.0121585
829.989	0.0121526
830.068	0.0120554
830.146	0.0121481
830.224	0.0121666
830.302	0.0120927
830.380	0.0121268
830.458	0.0119939
830.536	0.0121224
830.614	0.0120929
830.693	0.0119736
830.771	0.0120286
830.849	0.0120950
830.927	0.0120371
831.005	0.0122126
831.083	0.0122063
831.161	0.0121711
831.239	0.0120846
831.318	0.0120945
831.396	0.0121478
831.474	0.0123077
831.552	0.0121716
831.630	0.0122804
831.708	0.0121763
831.786	0.0120764
831.864	0.0123037
831.943	0.0122722
832.021	0.0121592
832.099	0.0122581
832.177	0.0122645
832.255	0.0121818
832.333	0.0121210
832.411	0.0122395
832.489	0.0122749
832.568	0.0121222
832.646	0.0121925
832.724	0.0120447
832.802	0.0121481
832.880	0.0121747
832.958	0.0122103
833.036	0.0121966
833.114	0.0122071
833.193	0.0122665
833.271	0.0122285
833.349	0.0122136
833.427	0.0122273
833.505	0.0124873
833.583	0.0123879
833.661	0.0121841
833.739	0.0122196
833.818	0.0123530
833.896	0.0123299
833.974	0.0124422
834.052	0.0122898
834.130	0.0123683
834.208	0.0124149
834.286	0.0124047
834.364	0.0123543
834.443	0.0123502
834.521	0.0121910
834.599	0.0123339
834.677	0.0122722
834.755	0.0123038
834.833	0.0122723
834.911	0.0122628
834.989	0.0123576
835.068	0.0122145
835.146	0.0120520
835.224	0.0120952
835.302	0.0120927
835.380	0.0121062
835.458	0.0120128
835.536	0.0119440
835.614	0.0120668
835.693	0.0120668
835.771	0.0120820
835.849	0.0120434
835.927	0.0121898
836.005	0.0120225
836.083	0.0120779
836.161	0.0120625
836.239	0.0119563
836.318	0.0120635
836.396	0.0120262
836.474	0.0121348
836.552	0.0121694
836.630	0.0120499
836.708	0.0122709
836.786	0.0121974
836.864	0.0121794
836.943	0.0121407
837.021	0.0121690
837.099	0.0121545
837.177	0.0123525
837.255	0.0123903
837.333	0.0122525
837.411	0.0122571
837.489	0.0122635
837.568	0.0123994
837.646	0.0122266
837.724	0.0123726
837.802	0.0123945
837.880	0.0123939
837.958	0.0123547
838.036	0.0123013
838.114	0.0123156
838.193	0.0123677
838.271	0.0123412
838.349	0.0124255
838.427	0.0123593
838.505	0.0124564
838.583	0.0124813
838.661	0.0123584
838.739	0.0124502
838.818	0.0123611
838.896	0.0124933
838.974	0.0124792
839.052	0.0124574
839.130	0.0125543
839.208	0.0125912
839.286	0.0125032
839.364	0.0124384
839.443	0.0124043
839.521	0.0123376
839.599	0.0122791
839.677	0.0122443
839.755	0.0122793
839.833	0.0121452
839.911	0.0122639
839.989	0.0121644
840.068	0.0120323
840.146	0.0120890
840.224	0.0120405
840.302	0.0120400
840.380	0.0119351
840.458	0.0119974
840.536	0.0120602
840.614	0.0120444
840.693	0.0119500
840.771	0.0118790
840.849	0.0119884
840.927	0.0120912
841.005	0.0119444
841.083	0.0120526
841.161	0.0120747
841.239	0.0120174
841.318	0.0118753
841.396	0.0121534
841.474	0.0121246
841.552	0.0121118
841.630	0.0121132
841.708	0.0121822
841.786	0.0122353
841.864	0.0121686
841.943	0.0122054
842.021	0.0122112
842.099	0.0122174
842.177	0.0123862
842.255	0.0121777
842.333	0.0123609
842.411	0.0123382
842.489	0.0122367
842.568	0.0123048
842.646	0.0123380
842.724	0.0123759
842.802	0.0122125
842.880	0.0122745
842.958	0.0122034
843.036	0.0124646
843.114	0.0122778
843.193	0.0123282
843.271	0.0124183
843.349	0.0123053
843.427	0.0123817
843.505	0.0124390
843.583	0.0121790
843.661	0.0122061
843.739	0.0123743
843.818	0.0121906
843.896	0.0122193
843.974	0.0123813
844.052	0.0121801
844.130	0.0122179
844.208	0.0123043
844.286	0.0122701
844.364	0.0123362
844.443	0.0123180
844.521	0.0121870
844.599	0.0121023
844.677	0.0122587
844.755	0.0122886
844.833	0.0123873
844.911	0.0121780
844.989	0.0121689
845.068	0.0122054
845.146	0.0120803
845.224	0.0121096
845.302	0.0121384
845.380	0.0121600
845.458	0.0120676
845.536	0.0121374
845.614	0.0121100
845.693	0.0119667
845.771	0.0120205
845.849	0.0121171
845.927	0.0122349
846.005	0.0120383
846.083	0.0120964
846.161	0.0120393
846.239	0.0120670
846.318	0.0121223
846.396	0.0121204
846.474	0.0120988
846.552	0.0120325
846.630	0.0120269
846.708	0.0122253
846.786	0.0122749
846.864	0.0121440
846.943	0.0122066
847.021	0.0123683
847.099	0.0122737
847.177	0.0122455
847.255	0.0122867
847.333	0.0122971
847.411	0.0122295
847.489	0.0122680
847.568	0.0123045
847.646	0.0124942
847.724	0.0123429
847.802	0.0125708
847.880	0.0123678
847.958	0.0123377
848.036	0.0125536
848.114	0.0124514
848.193	0.0123270
848.271	0.0123434
848.349	0.0124360
848.427	0.0123506
848.505	0.0123137
848.583	0.0123228
848.661	0.0123395
848.739	0.0123188
848.818	0.0124044
848.896	0.0124207
848.974	0.0124421
849.052	0.0124138
849.130	0.0123059
849.208	0.0123909
849.286	0.0124723
849.364	0.0124097
849.443	0.0123316
849.521	0.0123170
849.599	0.0124115
849.677	0.0123238
849.755	0.0123782
849.833	0.0122068
849.911	0.0122680
849.989	0.0121549
850.068	0.0122988
850.146	0.0123254
850.224	0.0123736
850.302	0.0121007
850.380	0.0121523
850.458	0.0122179
850.536	0.0121735
850.614	0.0121851
850.693	0.0121136
850.771	0.0120584
850.849	0.0121797
850.927	0.0121257
851.005	0.0121560
851.083	0.0120339
851.161	0.0121867
851.239	0.0120532
851.318	0.0121647
851.396	0.0122073
851.474	0.0121333
851.552	0.0121349
851.630	0.0121923
851.708	0.0123029
851.786	0.0122771
851.864	0.0122308
851.943	0.0121206
852.021	0.0123489
852.099	0.0124601
852.177	0.0122299
852.255	0.0123725
852.333	0.0123779
852.411	0.0123732
852.489	0.0123808
852.568	0.0122459
852.646	0.0121682
852.724	0.0124590
852.802	0.0123530
852.880	0.0122056
852.958	0.0124799
853.036	0.0123324
853.114	0.0123848
853.193	0.0124073
853.271	0.0124153
853.349	0.0125170
853.427	0.0123583
853.505	0.0123822
853.583	0.0124674
853.661	0.0122508
853.739	0.0122661
853.818	0.0122726
853.896	0.0122959
853.974	0.0123425
854.052	0.0122877
854.130	0.0121636
854.208	0.0122462
854.286	0.0122738
854.364	0.0122306
854.443	0.0122301
854.521	0.0122446
854.599	0.0120804
854.677	0.0121987
854.755	0.0122551
854.833	0.0123292
854.911	0.0123017
854.989	0.0122691
855.068	0.0121970
855.146	0.0121932
855.224	0.0122861
855.302	0.0122808
855.380	0.0121961
855.458	0.0123363
855.536	0.0123441
855.614	0.0123220
855.693	0.0122988
855.771	0.0122703
855.849	0.0123933
855.927	0.0123967
856.005	0.0123264
856.083	0.0122965
856.161	0.0123785
856.239	0.0123849
856.318	0.0122258
856.396	0.0122858
856.474	0.0122156
856.552	0.0122902
856.630	0.0124073
856.708	0.0124352
856.786	0.0122697
856.864	0.0123661
856.943	0.0122724
857.021	0.0121149
857.099	0.0122173
857.177	0.0122000
857.255	0.0122942
857.333	0.0121115
857.411	0.0121433
857.489	0.0122955
857.568	0.0121490
857.646	0.0122336
857.724	0.0121890
857.802	0.0122597
857.880	0.0120351
857.958	0.0121124
858.036	0.0120348
858.114	0.0120615
858.193	0.0121606
858.271	0.0121886
858.349	0.0121500
858.427	0.0123333
858.505	0.0122478
858.583	0.0121487
858.661	0.0121196
858.739	0.0121975
858.818	0.0120938
858.896	0.0122134
858.974	0.0121396
859.052	0.0121710
859.130	0.0122263
859.208	0.0122266
859.286	0.0123093
859.364	0.0122344
859.443	0.0121374
859.521	0.0122940
859.599	0.0123317
859.677	0.0122614
859.755	0.0122438
859.833	0.0122513
859.911	0.0121438
859.989	0.0122908
860.068	0.0122194
860.146	0.0121841
860.224	0.0122067
860.302	0.0123232
860.380	0.0122037
860.458	0.0123730
860.536	0.0121558
860.614	0.0121537
860.693	0.0122803
860.771	0.0122596
860.849	0.0122101
860.927	0.0123367
861.005	0.0123875
861.083	0.0122950
861.161	0.0122762
861.239	0.0121021
861.318	0.0123027
861.396	0.0122414
861.474	0.0122615
861.552	0.0122026
861.630	0.0123157
861.708	0.0122940
861.786	0.0122101
861.864	0.0122670
861.943	0.0120756
862.021	0.0122131
862.099	0.0120954
862.177	0.0122233
862.255	0.0121653
862.333	0.0122197
862.411	0.0121044
862.489	0.0121172
862.568	0.0120572
862.646	0.0121086
862.724	0.0120870
862.802	0.0121894
862.880	0.0121674
862.958	0.0120834
863.036	0.0121623
863.114	0.0122683
863.193	0.0123517
863.271	0.0121489
863.349	0.0121722
863.427	0.0122804
863.505	0.0122659
863.583	0.0121933
863.661	0.0121805
863.739	0.0122225
863.818	0.0121104
863.896	0.0122178
863.974	0.0122125
864.052	0.0122289
864.130	0.0122724
864.208	0.0122115
864.286	0.0123051
864.364	0.0123281
864.443	0.0123223
864.521	0.0122885
864.599	0.0122729
864.677	0.0123189
864.755	0.0121910
864.833	0.0123036
864.911	0.0123682
864.989	0.0124136
865.068	0.0122655
865.146	0.0122656
865.224	0.0121995
865.302	0.0122720
865.380	0.0123827
865.458	0.0122563
865.536	0.0123214
865.614	0.0121294
865.693	0.0122256
865.771	0.0122393
865.849	0.0122384
865.927	0.0122102
866.005	0.0122409
866.083	0.0123908
866.161	0.0121750
866.239	0.0121858
866.318	0.0122456
866.396	0.0121745
866.474	0.0121283
866.552	0.0121423
866.630	0.0120794
866.708	0.0121053
866.786	0.0122206
866.864	0.0121934
866.943	0.0121486
867.021	0.0122764
867.099	0.0121501
867.177	0.0120328
867.255	0.0121145
867.333	0.0122044
867.411	0.0122154
867.489	0.0123370
867.568	0.0122161
867.646	0.0122650
867.724	0.0121797
867.802	0.0122101
867.880	0.0123907
867.958	0.0123277
868.036	0.0123543
868.114	0.0122387
868.193	0.0122074
868.271	0.0123505
868.349	0.0124552
868.427	0.0123675
868.505	0.0122414
868.583	0.0123721
868.661	0.0123519
868.739	0.0124189
868.818	0.0123437
868.896	0.0124734
868.974	0.0123389
869.052	0.0124634
869.130	0.0124861
869.208	0.0124229
869.286	0.0125574
869.364	0.0124272
869.443	0.0122949
869.521	0.0124495
869.599	0.0124187
869.677	0.0123773
869.755	0.0124038
869.833	0.0123231
869.911	0.0123528
869.989	0.0121425
870.068	0.0122177
870.146	0.0122195
870.224	0.0121594
870.302	0.0121661
870.380	0.0122564
870.458	0.0123149
870.536	0.0121427
870.614	0.0120647
870.693	0.0121663
870.771	0.0122389
870.849	0.0122237
870.927	0.0122288
871.005	0.0121296
871.083	0.0121977
871.161	0.0120882
871.239	0.0122520
871.318	0.0120790
871.396	0.0121220
871.474	0.0121918
871.552	0.0122894
871.630	0.0121043
871.708	0.0121172
871.786	0.0122385
871.864	0.0122522
871.943	0.0122113
872.021	0.0122562
872.099	0.0123275
872.177	0.0121465
872.255	0.0124226
872.333	0.0123327
872.411	0.0122356
872.489	0.0122376
872.568	0.0122689
872.646	0.0124358
872.724	0.0124815
872.802	0.0123796
872.880	0.0123354
872.958	0.0124794
873.036	0.0124566
873.114	0.0125191
873.193	0.0124432
873.271	0.0123094
873.349	0.0125713
873.427	0.0125730
873.505	0.0123376
873.583	0.0125014
873.661	0.0124509
873.739	0.0124876
873.818	0.0125077
873.896	0.0125372
873.974	0.0125424
874.052	0.0125111
874.130	0.0122762
874.208	0.0123483
874.286	0.0125146
874.364	0.0125032
874.443	0.0123772
874.521	0.0122281
874.599	0.0123498
874.677	0.0123022
874.755	0.0123582
874.833	0.0123224
874.911	0.0123538
874.989	0.0123495
875.068	0.0123502
875.146	0.0122929
875.224	0.0122285
875.302	0.0124103
875.380	0.0123325
875.458	0.0121533
875.536	0.0122923
875.614	0.0122916
875.693	0.0122690
875.771	0.0122239
875.849	0.0123121
875.927	0.0121870
876.005	0.0120630
876.083	0.0121037
876.161	0.0121486
876.239	0.0121754
876.318	0.0122256
876.396	0.0121017
876.474	0.0121938
876.552	0.0120895
876.630	0.0122306
876.708	0.0121777
876.786	0.0121030
876.864	0.0121735
876.943	0.0121544
877.021	0.0120914
877.099	0.0121319
877.177	0.0121696
877.255	0.0121709
877.333	0.0122047
877.411	0.0121457
877.489	0.0122572
877.568	0.0122939
877.646	0.0122642
877.724	0.0120654
877.802	0.0121046
877.880	0.0122388
877.958	0.0122186
878.036	0.0121379
878.114	0.0122819
878.193	0.0122876
878.271	0.0122047
878.349	0.0123011
878.427	0.0121860
878.505	0.0121078
878.583	0.0123157
878.661	0.0122873
878.739	0.0123502
878.818	0.0123013
878.896	0.0123803
878.974	0.0123884
879.052	0.0124901
879.130	0.0123662
879.208	0.0124742
879.286	0.0123540
879.364	0.0123093
879.443	0.0124214
879.521	0.0124352
879.599	0.0123901
879.677	0.0123190
879.755	0.0122481
879.833	0.0124328
879.911	0.0123124
879.989	0.0123153
880.068	0.0122755
880.146	0.0122093
880.224	0.0122536
880.302	0.0123956
880.380	0.0122137
880.458	0.0122043
880.536	0.0122358
880.614	0.0123323
880.693	0.0122353
880.771	0.0122311
880.849	0.0122612
880.927	0.0121587
881.005	0.0121641
881.083	0.0121640
881.161	0.0122202
881.239	0.0123457
881.318	0.0121935
881.396	0.0121569
881.474	0.0120513
881.552	0.0121126
881.630	0.0122275
881.708	0.0120497
881.786	0.0121987
881.864	0.0121582
881.943	0.0122303
882.021	0.0120701
882.099	0.0119221
882.177	0.0121326
882.255	0.0121409
882.333	0.0119262
882.411	0.0119641
882.489	0.0120582
882.568	0.0120665
882.646	0.0120578
882.724	0.0120474
882.802	0.0121284
882.880	0.0120821
882.958	0.0120470
883.036	0.0121566
883.114	0.0120820
883.193	0.0121140
883.271	0.0121295
883.349	0.0120518
883.427	0.0120492
883.505	0.0121733
883.583	0.0122147
883.661	0.0122670
883.739	0.0120399
883.818	0.0121807
883.896	0.0121442
883.974	0.0121968
884.052	0.0120198
884.130	0.0121716
884.208	0.0123547
884.286	0.0123422
884.364	0.0123169
884.443	0.0121395
884.521	0.0121690
884.599	0.0122910
884.677	0.0122961
884.755	0.0122724
884.833	0.0122655
884.911	0.0123387
884.989	0.0122821
885.068	0.0124490
885.146	0.0124328
885.224	0.0124928
885.302	0.0125735
885.380	0.0125444
885.458	0.0124551
885.536	0.0122801
885.614	0.0124143
885.693	0.0124537
885.771	0.0123764
885.849	0.0124094
885.927	0.0121859
886.005	0.0122285
886.083	0.0121218
886.161	0.0121951
886.239	0.0121127
886.318	0.0121090
886.396	0.0121060
886.474	0.0122551
886.552	0.0121756
886.630	0.0121306
886.708	0.0120653
886.786	0.0121560
886.864	0.0120725
886.943	0.0120510
887.021	0.0121213
887.099	0.0121418
887.177	0.0121017
887.255	0.0120535
887.333	0.0120393
887.411	0.0121604
887.489	0.0120372
887.568	0.0121780
887.646	0.0121483
887.724	0.0119724
887.802	0.0120353
887.880	0.0120962
887.958	0.0119775
888.036	0.0118993
888.114	0.0119878
888.193	0.0119202
888.271	0.0119398
888.349	0.0119925
888.427	0.0118872
888.505	0.0120459
888.583	0.0119701
888.661	0.0119404
888.739	0.0120212
888.818	0.0121637
888.896	0.0120033
888.974	0.0119145
889.052	0.0121564
889.130	0.0120912
889.208	0.0122070
889.286	0.0121940
889.364	0.0122884
889.443	0.0121670
889.521	0.0121286
889.599	0.0123592
889.677	0.0123528
889.755	0.0123235
889.833	0.0123140
889.911	0.0124321
889.989	0.0123952
890.068	0.0124517
890.146	0.0122969
890.224	0.0121874
890.302	0.0123827
890.380	0.0126125
890.458	0.0125226
890.536	0.0124665
890.614	0.0122710
890.693	0.0123188
890.771	0.0123548
890.849	0.0123363
890.927	0.0124009
891.005	0.0123396
891.083	0.0123766
891.161	0.0122386
891.239	0.0124242
891.318	0.0124352
891.396	0.0124306
891.474	0.0124591
891.552	0.0124056
891.630	0.0123794
891.708	0.0124274
891.786	0.0122495
891.864	0.0123762
891.943	0.0123649
892.021	0.0123759
892.099	0.0124179
892.177	0.0122925
892.255	0.0124273
892.333	0.0122202
892.411	0.0122033
892.489	0.0123235
892.568	0.0123312
892.646	0.0121893
892.724	0.0121649
892.802	0.0121753
892.880	0.0121942
892.958	0.0122050
893.036	0.0121521
893.114	0.0122437
893.193	0.0121423
893.271	0.0122527
893.349	0.0120808
893.427	0.0120703
893.505	0.0121471
893.583	0.0121996
893.661	0.0121405
893.739	0.0121688
893.818	0.0121272
893.896	0.0121480
893.974	0.0121164
894.052	0.0122221
894.130	0.0121415
894.208	0.0122708
894.286	0.0121526
894.364	0.0121520
894.443	0.0120337
894.521	0.0121400
894.599	0.0121640
894.677	0.0122538
894.755	0.0122149
894.833	0.0120315
894.911	0.0120463
894.989	0.0122089
895.068	0.0120200
895.146	0.0120956
895.224	0.0122355
895.302	0.0122298
895.380	0.0121646
895.458	0.0122649
895.536	0.0122897
895.614	0.0122837
895.693	0.0121868
895.771	0.0123641
895.849	0.0121276
895.927	0.0123861
896.005	0.0122494
896.083	0.0123301
896.161	0.0124300
896.239	0.0123584
896.318	0.0122434
896.396	0.0123183
896.474	0.0123271
896.552	0.0122626
896.630	0.0123985
896.708	0.0123288
896.786	0.0123461
896.864	0.0123226
896.943	0.0123535
897.021	0.0123882
897.099	0.0123055
897.177	0.0122078
897.255	0.0124129
897.333	0.0121880
897.411	0.0122279
897.489	0.0122800
897.568	0.0121960
897.646	0.0123230
897.724	0.0123130
897.802	0.0121038
897.880	0.0122238
897.958	0.0122001
898.036	0.0122271
898.114	0.0121628
898.193	0.0121249
898.271	0.0121037
898.349	0.0121681
898.427	0.0121903
898.505	0.0120266
898.583	0.0122881
898.661	0.0121441
898.739	0.0122251
898.818	0.0122311
898.896	0.0122394
898.974	0.0121986
899.052	0.0121978
899.130	0.0121534
899.208	0.0121817
899.286	0.0120712
899.364	0.0121638
899.443	0.0122619
899.521	0.0122190
899.599	0.0121108
899.677	0.0121177
899.755	0.0121317
899.833	0.0120489
899.911	0.0122509
899.989	0.0123137
900.068	0.0122985
900.146	0.0121451
900.224	0.0122114
900.302	0.0121373
900.380	0.0120214
900.458	0.0121592
900.536	0.0121836
900.614	0.0122590
900.693	0.0121311
900.771	0.0121753
900.849	0.0121370
900.927	0.0121891
901.005	0.0122013
901.083	0.0121971
901.161	0.0121302
901.239	0.0121073
901.318	0.0121793
901.396	0.0122646
901.474	0.0121344
901.552	0.0120468
901.630	0.0121227
901.708	0.0122827
901.786	0.0123413
901.864	0.0122483
901.943	0.0121829
902.021	0.0122487
902.099	0.0122416
902.177	0.0122689
902.255	0.0120516
902.333	0.0121008
902.411	0.0123352
902.489	0.0122123
902.568	0.0122722
902.646	0.0122443
902.724	0.0120409
902.802	0.0123222
902.880	0.0121754
902.958	0.0122001
903.036	0.0122666
903.114	0.0121433
903.193	0.0122590
903.271	0.0122321
903.349	0.0121468
903.427	0.0122938
903.505	0.0124464
903.583	0.0121233
903.661	0.0122031
903.739	0.0121891
903.818	0.0123186
903.896	0.0121695
903.974	0.0121908
904.052	0.0123545
904.130	0.0121803
904.208	0.0121945
904.286	0.0122309
904.364	0.0123488
904.443	0.0121254
904.521	0.0121356
904.599	0.0122931
904.677	0.0122198
904.755	0.0121220
904.833	0.0121509
904.911	0.0121722
904.989	0.0121632
905.068	0.0121863
905.146	0.0122668
905.224	0.0121991
905.302	0.0121165
905.380	0.0121988
905.458	0.0122932
905.536	0.0122343
905.614	0.0121447
905.693	0.0121587
905.771	0.0122787
905.849	0.0123723
905.927	0.0121829
906.005	0.0121989
906.083	0.0121602
906.161	0.0122614
906.239	0.0122086
906.318	0.0121216
906.396	0.0121804
906.474	0.0122519
906.552	0.0122163
906.630	0.0120847
906.708	0.0121234
906.786	0.0123775
906.864	0.0123055
906.943	0.0121595
907.021	0.0120516
907.099	0.0120701
907.177	0.0121630
907.255	0.0124250
907.333	0.0122108
907.411	0.0120846
907.489	0.0123074
907.568	0.0121284
907.646	0.0122561
907.724	0.0121526
907.802	0.0120434
907.880	0.0121625
907.958	0.0121461
908.036	0.0121622
908.114	0.0122422
908.193	0.0123330
908.271	0.0121402
908.349	0.0121632
908.427	0.0122330
908.505	0.0122966
908.583	0.0122028
908.661	0.0121654
908.739	0.0121581
908.818	0.0121494
908.896	0.0120131
908.974	0.0121548
909.052	0.0123038
909.130	0.0122340
909.208	0.0120852
909.286	0.0121775
909.364	0.0120798
909.443	0.0121828
909.521	0.0120436
909.599	0.0121133
909.677	0.0122963
909.755	0.0123066
909.833	0.0120562
909.911	0.0120296
909.989	0.0121179
910.068	0.0121151
910.146	0.0120474
910.224	0.0122328
910.302	0.0121032
910.380	0.0120130
910.458	0.0120663
910.536	0.0122253
910.614	0.0121700
910.693	0.0121027
910.771	0.0121088
910.849	0.0122078
910.927	0.0121477
911.005	0.0122065
911.083	0.0120190
911.161	0.0120581
911.239	0.0121480
911.318	0.0122199
911.396	0.0121410
911.474	0.0122681
911.552	0.0123923
911.630	0.0122096
911.708	0.0122968
911.786	0.0122274
911.864	0.0122756
911.943	0.0122859
912.021	0.0123373
912.099	0.0122044
912.177	0.0123461
912.255	0.0123193
912.333	0.0122703
912.411	0.0123142
912.489	0.0122894
912.568	0.0122508
912.646	0.0123479
912.724	0.0122596
912.802	0.0122593
912.880	0.0122963
912.958	0.0122265
913.036	0.0122638
913.114	0.0122482
913.193	0.0122274
913.271	0.0121951
913.349	0.0122545
913.427	0.0124124
913.505	0.0122765
913.583	0.0123423
913.661	0.0123607
913.739	0.0123710
913.818	0.0122237
913.896	0.0121926
913.974	0.0123417
914.052	0.0123327
914.130	0.0123335
914.208	0.0123966
914.286	0.0122390
914.364	0.0123791
914.443	0.0122295
914.521	0.0123680
914.599	0.0123631
914.677	0.0123828
914.755	0.0123225
914.833	0.0123257
914.911	0.0123540
914.989	0.0122584
915.068	0.0123458
915.146	0.0122425
915.224	0.0123478
915.302	0.0121944
915.380	0.0123515
915.458	0.0122317
915.536	0.0121642
915.614	0.0123225
915.693	0.0124619
915.771	0.0123450
915.849	0.0123065
915.927	0.0123272
916.005	0.0123779
916.083	0.0123849
916.161	0.0122602
916.239	0.0123468
916.318	0.0123236
916.396	0.0124347
916.474	0.0123482
916.552	0.0124598
916.630	0.0122660
916.708	0.0123618
916.786	0.0123014
916.864	0.0124433
916.943	0.0123026
917.021	0.0123428
917.099	0.0122848
917.177	0.0121880
917.255	0.0123440
917.333	0.0122772
917.411	0.0122375
917.489	0.0122337
917.568	0.0123116
917.646	0.0123180
917.724	0.0122631
917.802	0.0121964
917.880	0.0122129
917.958	0.0123094
918.036	0.0123028
918.114	0.0121366
918.193	0.0120640
918.271	0.0121345
918.349	0.0121756
918.427	0.0120510
918.505	0.0119921
918.583	0.0120532
918.661	0.0121895
918.739	0.0121260
918.818	0.0121882
918.896	0.0121573
918.974	0.0121367
919.052	0.0119814
919.130	0.0121376
919.208	0.0121933
919.286	0.0120738
919.364	0.0121232
919.443	0.0120928
919.521	0.0120230
919.599	0.0122090
919.677	0.0119768
919.755	0.0119883
919.833	0.0121733
919.911	0.0120981
919.989	0.0120658
920.068	0.0121700
920.146	0.0121526
920.224	0.0120890
920.302	0.0119652
920.380	0.0121011
920.458	0.0121325
920.536	0.0121243
920.614	0.0120881
920.693	0.0120379
920.771	0.0122266
920.849	0.0121532
920.927	0.0121723
921.005	0.0121580
921.083	0.0121115
921.161	0.0121321
921.239	0.0120191
921.318	0.0121752
921.396	0.0122022
921.474	0.0120807
921.552	0.0120744
921.630	0.0120703
921.708	0.0119933
921.786	0.0121198
921.864	0.0120456
921.943	0.0121922
922.021	0.0121743
922.099	0.0121297
922.177	0.0122340
922.255	0.0122655
922.333	0.0122308
922.411	0.0121668
922.489	0.0121507
922.568	0.0121763
922.646	0.0122072
922.724	0.0122653
922.802	0.0121539
922.880	0.0119701
922.958	0.0122075
923.036	0.0121468
923.114	0.0122302
923.193	0.0123031
923.271	0.0122840
923.349	0.0122128
923.427	0.0123595
923.505	0.0123277
923.583	0.0122369
923.661	0.0121477
923.739	0.0120983
923.818	0.0122601
923.896	0.0122427
923.974	0.0121191
924.052	0.0121458
924.130	0.0121706
924.208	0.0123045
924.286	0.0121908
924.364	0.0121484
924.443	0.0120214
924.521	0.0122521
924.599	0.0121809
924.677	0.0121938
924.755	0.0122226
924.833	0.0121174
924.911	0.0120908
924.989	0.0121872
925.068	0.0122141
925.146	0.0121310
925.224	0.0121104
925.302	0.0120467
925.380	0.0121327
925.458	0.0123101
925.536	0.0122414
925.614	0.0121970
925.693	0.0122573
925.771	0.0121879
925.849	0.0122447
925.927	0.0122309
926.005	0.0123038
926.083	0.0122572
926.161	0.0122850
926.239	0.0123581
926.318	0.0122137
926.396	0.0121662
926.474	0.0122591
926.552	0.0121379
926.630	0.0122285
926.708	0.0122456
926.786	0.0123702
926.864	0.0124038
926.943	0.0122167
927.021	0.0121575
927.099	0.0122368
927.177	0.0121744
927.255	0.0122606
927.333	0.0122067
927.411	0.0121089
927.489	0.0121196
927.568	0.0121449
927.646	0.0123270
927.724	0.0122649
927.802	0.0120856
927.880	0.0121563
927.958	0.0122653
928.036	0.0121924
928.114	0.0123394
928.193	0.0121369
928.271	0.0121101
928.349	0.0121912
928.427	0.0121759
928.505	0.0122138
928.583	0.0121358
928.661	0.0120865
928.739	0.0121062
928.818	0.0121788
928.896	0.0122741
928.974	0.0121685
929.052	0.0121380
929.130	0.0122066
929.208	0.0121171
929.286	0.0122368
929.364	0.0122249
929.443	0.0122101
929.521	0.0121455
929.599	0.0121267
929.677	0.0123037
929.755	0.0123238
929.833	0.0122693
929.911	0.0121055
929.989	0.0123393
930.068	0.0123721
930.146	0.0121572
930.224	0.0121843
930.302	0.0123250
930.380	0.0123085
930.458	0.0122822
930.536	0.0123427
930.614	0.0124106
930.693	0.0123796
930.771	0.0122744
930.849	0.0122729
930.927	0.0123434
931.005	0.0123317
931.083	0.0123084
931.161	0.0123650
931.239	0.0123686
931.318	0.0122653
931.396	0.0120773
931.474	0.0120618
931.552	0.0123076
931.630	0.0121693
931.708	0.0122037
931.786	0.0120804
931.864	0.0122353
931.943	0.0123289
932.021	0.0122528
932.099	0.0121285
932.177	0.0121069
932.255	0.0121149
932.333	0.0123156
932.411	0.0121837
932.489	0.0122467
932.568	0.0122277
932.646	0.0122184
932.724	0.0122266
932.802	0.0122810
932.880	0.0122456
932.958	0.0123553
933.036	0.0124230
933.114	0.0122358
933.193	0.0120444
933.271	0.0121907
933.349	0.0123827
933.427	0.0123533
933.505	0.0124062
933.583	0.0122838
933.661	0.0122704
933.739	0.0122078
933.818	0.0122495
933.896	0.0123161
933.974	0.0123384
934.052	0.0123991
934.130	0.0124259
934.208	0.0122430
934.286	0.0123066
934.364	0.0123142
934.443	0.0123749
934.521	0.0123540
934.599	0.0122564
934.677	0.0123263
934.755	0.0122961
934.833	0.0125047
934.911	0.0121721
934.989	0.0122281
935.068	0.0122116
935.146	0.0122243
935.224	0.0121367
935.302	0.0121748
935.380	0.0121287
935.458	0.0122562
935.536	0.0122486
935.614	0.0122343
935.693	0.0123949
935.771	0.0121419
935.849	0.0122189
935.927	0.0122585
936.005	0.0122377
936.083	0.0123661
936.161	0.0122437
936.239	0.0121944
936.318	0.0122855
936.396	0.0123571
936.474	0.0124258
936.552	0.0123941
936.630	0.0123758
936.708	0.0123256
936.786	0.0121988
936.864	0.0121643
936.943	0.0123185
937.021	0.0123511
937.099	0.0122364
937.177	0.0123503
937.255	0.0122320
937.333	0.0122884
937.411	0.0123521
937.489	0.0122173
937.568	0.0122198
937.646	0.0122404
937.724	0.0122301
937.802	0.0122228
937.880	0.0122233
937.958	0.0122524
938.036	0.0123251
938.114	0.0123284
938.193	0.0121522
938.271	0.0121507
938.349	0.0121564
938.427	0.0121369
938.505	0.0122370
938.583	0.0121218
938.661	0.0122137
938.739	0.0121402
938.818	0.0121853
938.896	0.0122300
938.974	0.0122195
939.052	0.0121706
939.130	0.0122459
939.208	0.0123139
939.286	0.0122642
939.364	0.0121248
939.443	0.0120366
939.521	0.0123009
939.599	0.0122612
939.677	0.0121099
939.755	0.0122852
939.833	0.0122757
939.911	0.0122779
939.989	0.0123757
940.068	0.0123749
940.146	0.0122976
940.224	0.0122122
940.302	0.0122937
940.380	0.0122033
940.458	0.0122196
940.536	0.0122728
940.614	0.0122720
940.693	0.0123038
940.771	0.0124112
940.849	0.0122974
940.927	0.0122583
941.005	0.0123576
941.083	0.0122499
941.161	0.0123621
941.239	0.0122656
941.318	0.0123537
941.396	0.0123993
941.474	0.0123170
941.552	0.0123060
941.630	0.0122863
941.708	0.0124333
941.786	0.0122647
941.864	0.0122814
941.943	0.0122514
942.021	0.0123528
942.099	0.0122532
942.177	0.0122333
942.255	0.0121704
942.333	0.0122670
942.411	0.0121709
942.489	0.0121852
942.568	0.0122832
942.646	0.0122176
942.724	0.0120989
942.802	0.0122526
942.880	0.0122520
942.958	0.0122424
943.036	0.0122628
943.114	0.0122729
943.193	0.0122963
943.271	0.0122141
943.349	0.0122306
943.427	0.0122315
943.505	0.0123332
943.583	0.0123266
943.661	0.0124352
943.739	0.0122906
943.818	0.0123093
943.896	0.0123738
943.974	0.0122792
944.052	0.0122583
944.130	0.0124315
944.208	0.0123538
944.286	0.0124149
944.364	0.0123356
944.443	0.0122439
944.521	0.0122713
944.599	0.0122443
944.677	0.0122890
944.755	0.0122762
944.833	0.0122300
944.911	0.0122994
944.989	0.0123470
945.068	0.0122784
945.146	0.0122774
945.224	0.0121864
945.302	0.0121721
945.380	0.0122314
945.458	0.0123141
945.536	0.0122285
945.614	0.0122983
945.693	0.0123182
945.771	0.0123746
945.849	0.0122932
945.927	0.0120831
946.005	0.0121167
946.083	0.0122944
946.161	0.0121734
946.239	0.0120770
946.318	0.0121797
946.396	0.0121590
946.474	0.0122514
946.552	0.0121747
946.630	0.0122202
946.708	0.0121981
946.786	0.0121870
946.864	0.0121295
946.943	0.0121410
947.021	0.0121400
947.099	0.0122334
947.177	0.0122874
947.255	0.0122664
947.333	0.0122678
947.411	0.0122028
947.489	0.0120403
947.568	0.0122668
947.646	0.0122204
947.724	0.0122224
947.802	0.0122220
947.880	0.0122604
947.958	0.0121697
948.036	0.0123853
948.114	0.0122194
948.193	0.0122419
948.271	0.0121879
948.349	0.0121981
948.427	0.0121913
948.505	0.0122949
948.583	0.0121086
948.661	0.0122249
948.739	0.0123479
948.818	0.0123462
948.896	0.0121784
948.974	0.0122747
949.052	0.0122752
949.130	0.0123410
949.208	0.0122707
949.286	0.0123037
949.364	0.0123170
949.443	0.0122733
949.521	0.0123161
949.599	0.0122996
949.677	0.0123338
949.755	0.0123517
949.833	0.0122808
949.911	0.0123349
949.989	0.0122668
950.068	0.0121315
950.146	0.0123090
950.224	0.0122860
950.302	0.0122575
950.380	0.0123190
950.458	0.0123068
950.536	0.0122751
950.614	0.0123817
950.693	0.0122329
950.771	0.0122500
950.849	0.0122461
950.927	0.0122218
951.005	0.0121995
951.083	0.0122701
951.161	0.0122172
951.239	0.0121300
951.318	0.0121876
951.396	0.0123347
951.474	0.0122892
951.552	0.0121556
951.630	0.0122990
951.708	0.0123055
951.786	0.0123019
951.864	0.0122714
951.943	0.0122783
952.021	0.0122421
952.099	0.0124277
952.177	0.0123014
952.255	0.0123855
952.333	0.0122102
952.411	0.0123771
952.489	0.0123551
952.568	0.0123499
952.646	0.0123177
952.724	0.0123398
952.802	0.0123021
952.880	0.0123164
952.958	0.0124102
953.036	0.0123299
953.114	0.0123518
953.193	0.0124319
953.271	0.0123096
953.349	0.0123100
953.427	0.0123419
953.505	0.0122268
953.583	0.0123087
953.661	0.0122395
953.739	0.0122127
953.818	0.0121786
953.896	0.0123117
953.974	0.0121545
954.052	0.0122980
954.130	0.0122755
954.208	0.0123632
954.286	0.0123477
954.364	0.0123507
954.443	0.0123630
954.521	0.0121928
954.599	0.0122086
954.677	0.0122029
954.755	0.0122680
954.833	0.0123135
954.911	0.0123292
954.989	0.0121326
955.068	0.0123673
955.146	0.0122240
955.224	0.0121455
955.302	0.0122923
955.380	0.0123340
955.458	0.0121983
955.536	0.0121626
955.614	0.0121986
955.693	0.0122483
955.771	0.0122357
955.849	0.0121308
955.927	0.0122585
956.005	0.0122762
956.083	0.0121558
956.161	0.0122537
956.239	0.0122736
956.318	0.0122105
956.396	0.0122682
956.474	0.0123091
956.552	0.0122880
956.630	0.0122180
956.708	0.0123072
956.786	0.0122582
956.864	0.0123053
956.943	0.0121770
957.021	0.0122903
957.099	0.0122139
957.177	0.0122281
957.255	0.0124596
957.333	0.0123302
957.411	0.0122720
957.489	0.0122746
957.568	0.0123003
957.646	0.0121497
957.724	0.0122366
957.802	0.0121168
957.880	0.0122855
957.958	0.0123075
958.036	0.0122470
958.114	0.0122758
958.193	0.0122694
958.271	0.0121787
958.349	0.0122248
958.427	0.0123666
958.505	0.0121825
958.583	0.0122109
958.661	0.0122666
958.739	0.0123504
958.818	0.0122076
958.896	0.0122009
958.974	0.0124215
959.052	0.0122540
959.130	0.0122908
959.208	0.0123835
959.286	0.0121823
959.364	0.0122333
959.443	0.0122712
959.521	0.0122540
959.599	0.0122694
959.677	0.0121529
959.755	0.0122054
959.833	0.0123450
959.911	0.0124223
