05/07/2022	16:59:06	Ver.	4.1	UNKNOWN
Optical Delay	639.989416	Delta X		0.078125	Sweeps	1	Scan Rate	0/0
Coordinates	Axis 1	NaN	Axis 2	NaN	Axis 3	NaN	Axis 4	NaN	Axis 5	NaN	Axis 6	0.000000
TX Power	0.000000	RX Power	0.000000

639.989	0.0122109
640.068	0.0121864
640.146	0.0122560
640.224	0.0121295
640.302	0.0122128
640.380	0.0122124
640.458	0.0122984
640.536	0.0122385
640.614	0.0123023
640.693	0.0122213
640.771	0.0122594
640.849	0.0122626
640.927	0.0121935
641.005	0.0122758
641.083	0.0122170
641.161	0.0122012
641.239	0.0121594
641.318	0.0122321
641.396	0.0121581
641.474	0.0121995
641.552	0.0121224
641.630	0.0122578
641.708	0.0122182
641.786	0.0120437
641.864	0.0122424
641.943	0.0121653
642.021	0.0122292
642.099	0.0123212
642.177	0.0122712
642.255	0.0122375
642.333	0.0121465
642.411	0.0123873
642.489	0.0123030
642.568	0.0121768
642.646	0.0122279
642.724	0.0120861
642.802	0.0122473
642.880	0.0122725
642.958	0.0122672
643.036	0.0123244
643.114	0.0123366
643.193	0.0121527
643.271	0.0121596
643.349	0.0122669
643.427	0.0123120
643.505	0.0122175
643.583	0.0122732
643.661	0.0123771
643.739	0.0122911
643.818	0.0120879
643.896	0.0122007
643.974	0.0122384
644.052	0.0122721
644.130	0.0121897
644.208	0.0121362
644.286	0.0121494
644.364	0.0122392
644.443	0.0121951
644.521	0.0123370
644.599	0.0121429
644.677	0.0122825
644.755	0.0122739
644.833	0.0121606
644.911	0.0121205
644.989	0.0122378
645.068	0.0122292
645.146	0.0122907
645.224	0.0123512
645.302	0.0123640
645.380	0.0121952
645.458	0.0120910
645.536	0.0121954
645.614	0.0121375
645.693	0.0124078
645.771	0.0121891
645.849	0.0122228
645.927	0.0122177
646.005	0.0122177
646.083	0.0122461
646.161	0.0122427
646.239	0.0121918
646.318	0.0122102
646.396	0.0121608
646.474	0.0121103
646.552	0.0123544
646.630	0.0124129
646.708	0.0120602
646.786	0.0122707
646.864	0.0122367
646.943	0.0121539
647.021	0.0121864
647.099	0.0121049
647.177	0.0121364
647.255	0.0122832
647.333	0.0121411
647.411	0.0123211
647.489	0.0121988
647.568	0.0122297
647.646	0.0121801
647.724	0.0121229
647.802	0.0123103
647.880	0.0123155
647.958	0.0121256
648.036	0.0122115
648.114	0.0122977
648.193	0.0122857
648.271	0.0121475
648.349	0.0121275
648.427	0.0122161
648.505	0.0121170
648.583	0.0122727
648.661	0.0122988
648.739	0.0122540
648.818	0.0122049
648.896	0.0121910
648.974	0.0122290
649.052	0.0121558
649.130	0.0121914
649.208	0.0121443
649.286	0.0121270
649.364	0.0122561
649.443	0.0122596
649.521	0.0121661
649.599	0.0121911
649.677	0.0123283
649.755	0.0120879
649.833	0.0122308
649.911	0.0121646
649.989	0.0122157
650.068	0.0122081
650.146	0.0121244
650.224	0.0122340
650.302	0.0122421
650.380	0.0122926
650.458	0.0123102
650.536	0.0123502
650.614	0.0121764
650.693	0.0121808
650.771	0.0120924
650.849	0.0121756
650.927	0.0122304
651.005	0.0122405
651.083	0.0122616
651.161	0.0122501
651.239	0.0122574
651.318	0.0121870
651.396	0.0122382
651.474	0.0123046
651.552	0.0121935
651.630	0.0121465
651.708	0.0121422
651.786	0.0121844
651.864	0.0123652
651.943	0.0121859
652.021	0.0123292
652.099	0.0123437
652.177	0.0121603
652.255	0.0122713
652.333	0.0122851
652.411	0.0123059
652.489	0.0121902
652.568	0.0122465
652.646	0.0121917
652.724	0.0121899
652.802	0.0121921
652.880	0.0121462
652.958	0.0122292
653.036	0.0122497
653.114	0.0122707
653.193	0.0121523
653.271	0.0122204
653.349	0.0122789
653.427	0.0122294
653.505	0.0122160
653.583	0.0122423
653.661	0.0121395
653.739	0.0121888
653.818	0.0121365
653.896	0.0122852
653.974	0.0122594
654.052	0.0121609
654.130	0.0122108
654.208	0.0123827
654.286	0.0122708
654.364	0.0121620
654.443	0.0123000
654.521	0.0121243
654.599	0.0122839
654.677	0.0121352
654.755	0.0121996
654.833	0.0123289
654.911	0.0122449
654.989	0.0120166
655.068	0.0119772
655.146	0.0121349
655.224	0.0122377
655.302	0.0122892
655.380	0.0121804
655.458	0.0121889
655.536	0.0121125
655.614	0.0121762
655.693	0.0123448
655.771	0.0122627
655.849	0.0123132
655.927	0.0122436
656.005	0.0121191
656.083	0.0122732
656.161	0.0122314
656.239	0.0122805
656.318	0.0122705
656.396	0.0121559
656.474	0.0120709
656.552	0.0122379
656.630	0.0121920
656.708	0.0121722
656.786	0.0122354
656.864	0.0120383
656.943	0.0122697
657.021	0.0121928
657.099	0.0121287
657.177	0.0122670
657.255	0.0122240
657.333	0.0121271
657.411	0.0121808
657.489	0.0122063
657.568	0.0122101
657.646	0.0122406
657.724	0.0122024
657.802	0.0120927
657.880	0.0121130
657.958	0.0121853
658.036	0.0122269
658.114	0.0123560
658.193	0.0122355
658.271	0.0120966
658.349	0.0123167
658.427	0.0121506
658.505	0.0121795
658.583	0.0122256
658.661	0.0121897
658.739	0.0122676
658.818	0.0122709
658.896	0.0120692
658.974	0.0121334
659.052	0.0121461
659.130	0.0121201
659.208	0.0123223
659.286	0.0120712
659.364	0.0121753
659.443	0.0121966
659.521	0.0122625
659.599	0.0121754
659.677	0.0121864
659.755	0.0120873
659.833	0.0121270
659.911	0.0122654
659.989	0.0121815
660.068	0.0121677
660.146	0.0122573
660.224	0.0122509
660.302	0.0122035
660.380	0.0122566
660.458	0.0122695
660.536	0.0121994
660.614	0.0120934
660.693	0.0123094
660.771	0.0121279
660.849	0.0122565
660.927	0.0120789
661.005	0.0121485
661.083	0.0121410
661.161	0.0122701
661.239	0.0121445
661.318	0.0122661
661.396	0.0122695
661.474	0.0121047
661.552	0.0121835
661.630	0.0122644
661.708	0.0121784
661.786	0.0123066
661.864	0.0121999
661.943	0.0121622
662.021	0.0123315
662.099	0.0122385
662.177	0.0121694
662.255	0.0121576
662.333	0.0121749
662.411	0.0122292
662.489	0.0121899
662.568	0.0122063
662.646	0.0121159
662.724	0.0122344
662.802	0.0122488
662.880	0.0122842
662.958	0.0122000
663.036	0.0120409
663.114	0.0122092
663.193	0.0121947
663.271	0.0121602
663.349	0.0122206
663.427	0.0122166
663.505	0.0122630
663.583	0.0122417
663.661	0.0122665
663.739	0.0122335
663.818	0.0121587
663.896	0.0121298
663.974	0.0121536
664.052	0.0122254
664.130	0.0122073
664.208	0.0122651
664.286	0.0121721
664.364	0.0121168
664.443	0.0121143
664.521	0.0121663
664.599	0.0121477
664.677	0.0122286
664.755	0.0122135
664.833	0.0122578
664.911	0.0122739
664.989	0.0121250
665.068	0.0122733
665.146	0.0122134
665.224	0.0121468
665.302	0.0120983
665.380	0.0122769
665.458	0.0122077
665.536	0.0123029
665.614	0.0122609
665.693	0.0122448
665.771	0.0122960
665.849	0.0122682
665.927	0.0123601
666.005	0.0123230
666.083	0.0122455
666.161	0.0123222
666.239	0.0123701
666.318	0.0123024
666.396	0.0119905
666.474	0.0123209
666.552	0.0122610
666.630	0.0122475
666.708	0.0121560
666.786	0.0122020
666.864	0.0122083
666.943	0.0122858
667.021	0.0123100
667.099	0.0120567
667.177	0.0123440
667.255	0.0123125
667.333	0.0123223
667.411	0.0121973
667.489	0.0123343
667.568	0.0123566
667.646	0.0122336
667.724	0.0121504
667.802	0.0120822
667.880	0.0122919
667.958	0.0122753
668.036	0.0123327
668.114	0.0122980
668.193	0.0123671
668.271	0.0122523
668.349	0.0121747
668.427	0.0122369
668.505	0.0121475
668.583	0.0121494
668.661	0.0121903
668.739	0.0121681
668.818	0.0121787
668.896	0.0122003
668.974	0.0123035
669.052	0.0121521
669.130	0.0121565
669.208	0.0121529
669.286	0.0121617
669.364	0.0121971
669.443	0.0121541
669.521	0.0120482
669.599	0.0123000
669.677	0.0120920
669.755	0.0122010
669.833	0.0121854
669.911	0.0120083
669.989	0.0121375
670.068	0.0119592
670.146	0.0120972
670.224	0.0121758
670.302	0.0120010
670.380	0.0121259
670.458	0.0121276
670.536	0.0120586
670.614	0.0121338
670.693	0.0121587
670.771	0.0120658
670.849	0.0121468
670.927	0.0120066
671.005	0.0121923
671.083	0.0121759
671.161	0.0119402
671.239	0.0119756
671.318	0.0120797
671.396	0.0120834
671.474	0.0119862
671.552	0.0120805
671.630	0.0120523
671.708	0.0120669
671.786	0.0119312
671.864	0.0120175
671.943	0.0120946
672.021	0.0119446
672.099	0.0119453
672.177	0.0121650
672.255	0.0120822
672.333	0.0119512
672.411	0.0119932
672.489	0.0119759
672.568	0.0120465
672.646	0.0119711
672.724	0.0120433
672.802	0.0120004
672.880	0.0119238
672.958	0.0121712
673.036	0.0120100
673.114	0.0119514
673.193	0.0119725
673.271	0.0120937
673.349	0.0120766
673.427	0.0121578
673.505	0.0121215
673.583	0.0119182
673.661	0.0119451
673.739	0.0121236
673.818	0.0121443
673.896	0.0121252
673.974	0.0120482
674.052	0.0119279
674.130	0.0121788
674.208	0.0119422
674.286	0.0120262
674.364	0.0120925
674.443	0.0121620
674.521	0.0120555
674.599	0.0121616
674.677	0.0122731
674.755	0.0121857
674.833	0.0121270
674.911	0.0122398
674.989	0.0120046
675.068	0.0122085
675.146	0.0122565
675.224	0.0121542
675.302	0.0122394
675.380	0.0121739
675.458	0.0121629
675.536	0.0121626
675.614	0.0121980
675.693	0.0122093
675.771	0.0123297
675.849	0.0122746
675.927	0.0124021
676.005	0.0123121
676.083	0.0122362
676.161	0.0123843
676.239	0.0124810
676.318	0.0123264
676.396	0.0123187
676.474	0.0123187
676.552	0.0124583
676.630	0.0122906
676.708	0.0122701
676.786	0.0123637
676.864	0.0121716
676.943	0.0124059
677.021	0.0122976
677.099	0.0124584
677.177	0.0123593
677.255	0.0123197
677.333	0.0124976
677.411	0.0123878
677.489	0.0124493
677.568	0.0123628
677.646	0.0123599
677.724	0.0122830
677.802	0.0123385
677.880	0.0123698
677.958	0.0124013
678.036	0.0123343
678.114	0.0123888
678.193	0.0122492
678.271	0.0123990
678.349	0.0124063
678.427	0.0124371
678.505	0.0123001
678.583	0.0124570
678.661	0.0123555
678.739	0.0123366
678.818	0.0123966
678.896	0.0122979
678.974	0.0123481
679.052	0.0123059
679.130	0.0124860
679.208	0.0123549
679.286	0.0124310
679.364	0.0123864
679.443	0.0122948
679.521	0.0123212
679.599	0.0122520
679.677	0.0124082
679.755	0.0123549
679.833	0.0122192
679.911	0.0123100
679.989	0.0124060
680.068	0.0123649
680.146	0.0122451
680.224	0.0124374
680.302	0.0124158
680.380	0.0122780
680.458	0.0123240
680.536	0.0124075
680.614	0.0124123
680.693	0.0121721
680.771	0.0124010
680.849	0.0124355
680.927	0.0122275
681.005	0.0122557
681.083	0.0123235
681.161	0.0122845
681.239	0.0122153
681.318	0.0121999
681.396	0.0121701
681.474	0.0123033
681.552	0.0123210
681.630	0.0122536
681.708	0.0122436
681.786	0.0120681
681.864	0.0121381
681.943	0.0120936
682.021	0.0120511
682.099	0.0122311
682.177	0.0122224
682.255	0.0122180
682.333	0.0121004
682.411	0.0121758
682.489	0.0121681
682.568	0.0121719
682.646	0.0121732
682.724	0.0120407
682.802	0.0120521
682.880	0.0123161
682.958	0.0122785
683.036	0.0121572
683.114	0.0122095
683.193	0.0122082
683.271	0.0121089
683.349	0.0122842
683.427	0.0122997
683.505	0.0121326
683.583	0.0122263
683.661	0.0121478
683.739	0.0121154
683.818	0.0121510
683.896	0.0121157
683.974	0.0120155
684.052	0.0120798
684.130	0.0120929
684.208	0.0121407
684.286	0.0122301
684.364	0.0121321
684.443	0.0121638
684.521	0.0121423
684.599	0.0121606
684.677	0.0121611
684.755	0.0122163
684.833	0.0121320
684.911	0.0122070
684.989	0.0120892
685.068	0.0120423
685.146	0.0122480
685.224	0.0121329
685.302	0.0121429
685.380	0.0119655
685.458	0.0121813
685.536	0.0121923
685.614	0.0121609
685.693	0.0121403
685.771	0.0121568
685.849	0.0121471
685.927	0.0121293
686.005	0.0121539
686.083	0.0122142
686.161	0.0121835
686.239	0.0121810
686.318	0.0122102
686.396	0.0120863
686.474	0.0120763
686.552	0.0122388
686.630	0.0121244
686.708	0.0120389
686.786	0.0121432
686.864	0.0122372
686.943	0.0122648
687.021	0.0121785
687.099	0.0122913
687.177	0.0122169
687.255	0.0122915
687.333	0.0121542
687.411	0.0122598
687.489	0.0123782
687.568	0.0122832
687.646	0.0122100
687.724	0.0121468
687.802	0.0122451
687.880	0.0121426
687.958	0.0120842
688.036	0.0121275
688.114	0.0120206
688.193	0.0122749
688.271	0.0123103
688.349	0.0122552
688.427	0.0121707
688.505	0.0122073
688.583	0.0121284
688.661	0.0120575
688.739	0.0122768
688.818	0.0123284
688.896	0.0122238
688.974	0.0122681
689.052	0.0121668
689.130	0.0121171
689.208	0.0121354
689.286	0.0122954
689.364	0.0122835
689.443	0.0120750
689.521	0.0121636
689.599	0.0122070
689.677	0.0122933
689.755	0.0122855
689.833	0.0124718
689.911	0.0123232
689.989	0.0123904
690.068	0.0124011
690.146	0.0122627
690.224	0.0123137
690.302	0.0123253
690.380	0.0121986
690.458	0.0121650
690.536	0.0121568
690.614	0.0121638
690.693	0.0122070
690.771	0.0122316
690.849	0.0121799
690.927	0.0121555
691.005	0.0121863
691.083	0.0121849
691.161	0.0121880
691.239	0.0122861
691.318	0.0122189
691.396	0.0120739
691.474	0.0122385
691.552	0.0124123
691.630	0.0122256
691.708	0.0122763
691.786	0.0124043
691.864	0.0122745
691.943	0.0122308
692.021	0.0123843
692.099	0.0123594
692.177	0.0124197
692.255	0.0123195
692.333	0.0122566
692.411	0.0123019
692.489	0.0123120
692.568	0.0123181
692.646	0.0121585
692.724	0.0120966
692.802	0.0121178
692.880	0.0122028
692.958	0.0122157
693.036	0.0121212
693.114	0.0121210
693.193	0.0120367
693.271	0.0119646
693.349	0.0117496
693.427	0.0119389
693.505	0.0119868
693.583	0.0121384
693.661	0.0119997
693.739	0.0121127
693.818	0.0121039
693.896	0.0122649
693.974	0.0122533
694.052	0.0123505
694.130	0.0122287
694.208	0.0123707
694.286	0.0123049
694.364	0.0121969
694.443	0.0122303
694.521	0.0123088
694.599	0.0122582
694.677	0.0122249
694.755	0.0121985
694.833	0.0122088
694.911	0.0121806
694.989	0.0123897
695.068	0.0122186
695.146	0.0121227
695.224	0.0121305
695.302	0.0120958
695.380	0.0122495
695.458	0.0122141
695.536	0.0121955
695.614	0.0120074
695.693	0.0121744
695.771	0.0123164
695.849	0.0123032
695.927	0.0121725
696.005	0.0122429
696.083	0.0122636
696.161	0.0122111
696.239	0.0122870
696.318	0.0122023
696.396	0.0121626
696.474	0.0122334
696.552	0.0122392
696.630	0.0121078
696.708	0.0120860
696.786	0.0122295
696.864	0.0121416
696.943	0.0120409
697.021	0.0121626
697.099	0.0120975
697.177	0.0120844
697.255	0.0120466
697.333	0.0121046
697.411	0.0119324
697.489	0.0120193
697.568	0.0121456
697.646	0.0119527
697.724	0.0120110
697.802	0.0119756
697.880	0.0121162
697.958	0.0121039
698.036	0.0120430
698.114	0.0119327
698.193	0.0120679
698.271	0.0119881
698.349	0.0119682
698.427	0.0119967
698.505	0.0120786
698.583	0.0121791
698.661	0.0120421
698.739	0.0119930
698.818	0.0119820
698.896	0.0120756
698.974	0.0119415
699.052	0.0119291
699.130	0.0120502
699.208	0.0119924
699.286	0.0119786
699.364	0.0119830
699.443	0.0123087
699.521	0.0120644
699.599	0.0120490
699.677	0.0120360
699.755	0.0120405
699.833	0.0120776
699.911	0.0119747
699.989	0.0121817
700.068	0.0121857
700.146	0.0122350
700.224	0.0121666
700.302	0.0121935
700.380	0.0122300
700.458	0.0123157
700.536	0.0123149
700.614	0.0121921
700.693	0.0121805
700.771	0.0123323
700.849	0.0123967
700.927	0.0122340
701.005	0.0122622
701.083	0.0122330
701.161	0.0122640
701.239	0.0121987
701.318	0.0122169
701.396	0.0122241
701.474	0.0121799
701.552	0.0122454
701.630	0.0123405
701.708	0.0121389
701.786	0.0122611
701.864	0.0121745
701.943	0.0122265
702.021	0.0121886
702.099	0.0122374
702.177	0.0122871
702.255	0.0123414
702.333	0.0121596
702.411	0.0123418
702.489	0.0124038
702.568	0.0123643
702.646	0.0122861
702.724	0.0124749
702.802	0.0121910
702.880	0.0123717
702.958	0.0122373
703.036	0.0121436
703.114	0.0120856
703.193	0.0120556
703.271	0.0122667
703.349	0.0122073
703.427	0.0120648
703.505	0.0120267
703.583	0.0121477
703.661	0.0121659
703.739	0.0121990
703.818	0.0121037
703.896	0.0121064
703.974	0.0122176
704.052	0.0122128
704.130	0.0123211
704.208	0.0123837
704.286	0.0121827
704.364	0.0123322
704.443	0.0124557
704.521	0.0124979
704.599	0.0125108
704.677	0.0125488
704.755	0.0125797
704.833	0.0125362
704.911	0.0126506
704.989	0.0125533
705.068	0.0125803
705.146	0.0126324
705.224	0.0126199
705.302	0.0124889
705.380	0.0126446
705.458	0.0124349
705.536	0.0125702
705.614	0.0124693
705.693	0.0125095
705.771	0.0124342
705.849	0.0123618
705.927	0.0124128
706.005	0.0122906
706.083	0.0123123
706.161	0.0122823
706.239	0.0122060
706.318	0.0121386
706.396	0.0121502
706.474	0.0121538
706.552	0.0119784
706.630	0.0120112
706.708	0.0120528
706.786	0.0120879
706.864	0.0121436
706.943	0.0121091
707.021	0.0120603
707.099	0.0119518
707.177	0.0119254
707.255	0.0120654
707.333	0.0122465
707.411	0.0121883
707.489	0.0119392
707.568	0.0120055
707.646	0.0120699
707.724	0.0122926
707.802	0.0120303
707.880	0.0121928
707.958	0.0121378
708.036	0.0120489
708.114	0.0121178
708.193	0.0121206
708.271	0.0122651
708.349	0.0122092
708.427	0.0120897
708.505	0.0119820
708.583	0.0120934
708.661	0.0122044
708.739	0.0122482
708.818	0.0120978
708.896	0.0121392
708.974	0.0121574
709.052	0.0120998
709.130	0.0121049
709.208	0.0122570
709.286	0.0122935
709.364	0.0121911
709.443	0.0123284
709.521	0.0123734
709.599	0.0123447
709.677	0.0122306
709.755	0.0122150
709.833	0.0123691
709.911	0.0124084
709.989	0.0123956
710.068	0.0124177
710.146	0.0123202
710.224	0.0124249
710.302	0.0122762
710.380	0.0122559
710.458	0.0123251
710.536	0.0122549
710.614	0.0121663
710.693	0.0122274
710.771	0.0122679
710.849	0.0121908
710.927	0.0121629
711.005	0.0122128
711.083	0.0121080
711.161	0.0121046
711.239	0.0122984
711.318	0.0121320
711.396	0.0121703
711.474	0.0123048
711.552	0.0121915
711.630	0.0122445
711.708	0.0122706
711.786	0.0122652
711.864	0.0120792
711.943	0.0123181
712.021	0.0121598
712.099	0.0121854
712.177	0.0121764
712.255	0.0122189
712.333	0.0122887
712.411	0.0122893
712.489	0.0121158
712.568	0.0121998
712.646	0.0121104
712.724	0.0123386
712.802	0.0122631
712.880	0.0121274
712.958	0.0123831
713.036	0.0123460
713.114	0.0123176
713.193	0.0122123
713.271	0.0123051
713.349	0.0122648
713.427	0.0122279
713.505	0.0122829
713.583	0.0123074
713.661	0.0124828
713.739	0.0123460
713.818	0.0122765
713.896	0.0123246
713.974	0.0124226
714.052	0.0123013
714.130	0.0121896
714.208	0.0122247
714.286	0.0123148
714.364	0.0122358
714.443	0.0122149
714.521	0.0124321
714.599	0.0121822
714.677	0.0121535
714.755	0.0120869
714.833	0.0122545
714.911	0.0123087
714.989	0.0121462
715.068	0.0120976
715.146	0.0122193
715.224	0.0121964
715.302	0.0120372
715.380	0.0121770
715.458	0.0121402
715.536	0.0122613
715.614	0.0122003
715.693	0.0120235
715.771	0.0120509
715.849	0.0122525
715.927	0.0122024
716.005	0.0121090
716.083	0.0120354
716.161	0.0119152
716.239	0.0120775
716.318	0.0120927
716.396	0.0122084
716.474	0.0121074
716.552	0.0119527
716.630	0.0119046
716.708	0.0119956
716.786	0.0120237
716.864	0.0121907
716.943	0.0120215
717.021	0.0120769
717.099	0.0121133
717.177	0.0121868
717.255	0.0121866
717.333	0.0120195
717.411	0.0121329
717.489	0.0122701
717.568	0.0122139
717.646	0.0122582
717.724	0.0121397
717.802	0.0122009
717.880	0.0123700
717.958	0.0122586
718.036	0.0122494
718.114	0.0122997
718.193	0.0122628
718.271	0.0121434
718.349	0.0122768
718.427	0.0123876
718.505	0.0123254
718.583	0.0122717
718.661	0.0122387
718.739	0.0123136
718.818	0.0122394
718.896	0.0122222
718.974	0.0122125
719.052	0.0123199
719.130	0.0122317
719.208	0.0122612
719.286	0.0122496
719.364	0.0124147
719.443	0.0121948
719.521	0.0123444
719.599	0.0121741
719.677	0.0123453
719.755	0.0122810
719.833	0.0123488
719.911	0.0122783
719.989	0.0123056
720.068	0.0123425
720.146	0.0121793
720.224	0.0121727
720.302	0.0121922
720.380	0.0121329
720.458	0.0123190
720.536	0.0121696
720.614	0.0122146
720.693	0.0121683
720.771	0.0121900
720.849	0.0119923
720.927	0.0121484
721.005	0.0121211
721.083	0.0120144
721.161	0.0120570
721.239	0.0120832
721.318	0.0120376
721.396	0.0120792
721.474	0.0119286
721.552	0.0120522
721.630	0.0119689
721.708	0.0119801
721.786	0.0121185
721.864	0.0120531
721.943	0.0120778
722.021	0.0121324
722.099	0.0120249
722.177	0.0120937
722.255	0.0121835
722.333	0.0120023
722.411	0.0122672
722.489	0.0121658
722.568	0.0121887
722.646	0.0122196
722.724	0.0122247
722.802	0.0122375
722.880	0.0123080
722.958	0.0123676
723.036	0.0122340
723.114	0.0121848
723.193	0.0121077
723.271	0.0122104
723.349	0.0122804
723.427	0.0120309
723.505	0.0121475
723.583	0.0122008
723.661	0.0121591
723.739	0.0121586
723.818	0.0120541
723.896	0.0120232
723.974	0.0120747
724.052	0.0120891
724.130	0.0120481
724.208	0.0120983
724.286	0.0120415
724.364	0.0120624
724.443	0.0120589
724.521	0.0122314
724.599	0.0122759
724.677	0.0120879
724.755	0.0120902
724.833	0.0121289
724.911	0.0122887
724.989	0.0121192
725.068	0.0121421
725.146	0.0123528
725.224	0.0123425
725.302	0.0123577
725.380	0.0123724
725.458	0.0122806
725.536	0.0124988
725.614	0.0123167
725.693	0.0123207
725.771	0.0123566
725.849	0.0122249
725.927	0.0122427
726.005	0.0122315
726.083	0.0122639
726.161	0.0121804
726.239	0.0120270
726.318	0.0122610
726.396	0.0122543
726.474	0.0121196
726.552	0.0121587
726.630	0.0121156
726.708	0.0120701
726.786	0.0119637
726.864	0.0121170
726.943	0.0120653
727.021	0.0119532
727.099	0.0121491
727.177	0.0121592
727.255	0.0120457
727.333	0.0120087
727.411	0.0121727
727.489	0.0120889
727.568	0.0120770
727.646	0.0121505
727.724	0.0122368
727.802	0.0122952
727.880	0.0121295
727.958	0.0121273
728.036	0.0121777
728.114	0.0122846
728.193	0.0122610
728.271	0.0122952
728.349	0.0124117
728.427	0.0123605
728.505	0.0123069
728.583	0.0122593
728.661	0.0122722
728.739	0.0122756
728.818	0.0122697
728.896	0.0124014
728.974	0.0123358
729.052	0.0125526
729.130	0.0122826
729.208	0.0123400
729.286	0.0124258
729.364	0.0122869
729.443	0.0123730
729.521	0.0124134
729.599	0.0123357
729.677	0.0123597
729.755	0.0121492
729.833	0.0122073
729.911	0.0122810
729.989	0.0120875
730.068	0.0120607
730.146	0.0121442
730.224	0.0122903
730.302	0.0120763
730.380	0.0120912
730.458	0.0121520
730.536	0.0121099
730.614	0.0120757
730.693	0.0120816
730.771	0.0120824
730.849	0.0120468
730.927	0.0120165
731.005	0.0122139
731.083	0.0120369
731.161	0.0119913
731.239	0.0121494
731.318	0.0121064
731.396	0.0121275
731.474	0.0120629
731.552	0.0120514
731.630	0.0121718
731.708	0.0121806
731.786	0.0121898
731.864	0.0121740
731.943	0.0121542
732.021	0.0122750
732.099	0.0120751
732.177	0.0119535
732.255	0.0121181
732.333	0.0121600
732.411	0.0120864
732.489	0.0119585
732.568	0.0120478
732.646	0.0121683
732.724	0.0122202
732.802	0.0122555
732.880	0.0121385
732.958	0.0122356
733.036	0.0122005
733.114	0.0122842
733.193	0.0121863
733.271	0.0122412
733.349	0.0122886
733.427	0.0122778
733.505	0.0122891
733.583	0.0122736
733.661	0.0123555
733.739	0.0124041
733.818	0.0123884
733.896	0.0122546
733.974	0.0123576
734.052	0.0123908
734.130	0.0123510
734.208	0.0122648
734.286	0.0123347
734.364	0.0122126
734.443	0.0121621
734.521	0.0121374
734.599	0.0121699
734.677	0.0122076
734.755	0.0123250
734.833	0.0122045
734.911	0.0122001
734.989	0.0121615
735.068	0.0121317
735.146	0.0121491
735.224	0.0122645
735.302	0.0122159
735.380	0.0120347
735.458	0.0122085
735.536	0.0121602
735.614	0.0121204
735.693	0.0120879
735.771	0.0120890
735.849	0.0123021
735.927	0.0121790
736.005	0.0121859
736.083	0.0121998
736.161	0.0122305
736.239	0.0123507
736.318	0.0121774
736.396	0.0122610
736.474	0.0124345
736.552	0.0123557
736.630	0.0123174
736.708	0.0123056
736.786	0.0123483
736.864	0.0122832
736.943	0.0123379
737.021	0.0123200
737.099	0.0123637
737.177	0.0122688
737.255	0.0121055
737.333	0.0123068
737.411	0.0121857
737.489	0.0122938
737.568	0.0121787
737.646	0.0122648
737.724	0.0122197
737.802	0.0121410
737.880	0.0121806
737.958	0.0121127
738.036	0.0122930
738.114	0.0120985
738.193	0.0120419
738.271	0.0121742
738.349	0.0121937
738.427	0.0121429
738.505	0.0120676
738.583	0.0120210
738.661	0.0120048
738.739	0.0120242
738.818	0.0120979
738.896	0.0121951
738.974	0.0121146
739.052	0.0121258
739.130	0.0122176
739.208	0.0121094
739.286	0.0121384
739.364	0.0121334
739.443	0.0122524
739.521	0.0121378
739.599	0.0121790
739.677	0.0123280
739.755	0.0122135
739.833	0.0122803
739.911	0.0121906
739.989	0.0121876
740.068	0.0120938
740.146	0.0122095
740.224	0.0123007
740.302	0.0121437
740.380	0.0122600
740.458	0.0121510
740.536	0.0121522
740.614	0.0122666
740.693	0.0122261
740.771	0.0122159
740.849	0.0122747
740.927	0.0121109
741.005	0.0120593
741.083	0.0122883
741.161	0.0122690
741.239	0.0122101
741.318	0.0122103
741.396	0.0122398
741.474	0.0123561
741.552	0.0123135
741.630	0.0121650
741.708	0.0121707
741.786	0.0123411
741.864	0.0123947
741.943	0.0123567
742.021	0.0122489
742.099	0.0121381
742.177	0.0123749
742.255	0.0122910
742.333	0.0122672
742.411	0.0122103
742.489	0.0123699
742.568	0.0123854
742.646	0.0123202
742.724	0.0122838
742.802	0.0123563
742.880	0.0123135
742.958	0.0123586
743.036	0.0122232
743.114	0.0124298
743.193	0.0123424
743.271	0.0122887
743.349	0.0122845
743.427	0.0122409
743.505	0.0121859
743.583	0.0122421
743.661	0.0123994
743.739	0.0121274
743.818	0.0121721
743.896	0.0120628
743.974	0.0123384
744.052	0.0122637
744.130	0.0121919
744.208	0.0122087
744.286	0.0122256
744.364	0.0122816
744.443	0.0122626
744.521	0.0121822
744.599	0.0123225
744.677	0.0122565
744.755	0.0122336
744.833	0.0121615
744.911	0.0122351
744.989	0.0121939
745.068	0.0123499
745.146	0.0123209
745.224	0.0122639
745.302	0.0121051
745.380	0.0121167
745.458	0.0121552
745.536	0.0121359
745.614	0.0123074
745.693	0.0121577
745.771	0.0121259
745.849	0.0122245
745.927	0.0121530
746.005	0.0120425
746.083	0.0118988
746.161	0.0121462
746.239	0.0120696
746.318	0.0120885
746.396	0.0121100
746.474	0.0121693
746.552	0.0122755
746.630	0.0120960
746.708	0.0119967
746.786	0.0121365
746.864	0.0122576
746.943	0.0123244
747.021	0.0120934
747.099	0.0121133
747.177	0.0119962
747.255	0.0122133
747.333	0.0122897
747.411	0.0122732
747.489	0.0122211
747.568	0.0121130
747.646	0.0122777
747.724	0.0122843
747.802	0.0122672
747.880	0.0121979
747.958	0.0124165
748.036	0.0121781
748.114	0.0122408
748.193	0.0123464
748.271	0.0122983
748.349	0.0122312
748.427	0.0121866
748.505	0.0123252
748.583	0.0122802
748.661	0.0123057
748.739	0.0123387
748.818	0.0122684
748.896	0.0123027
748.974	0.0120837
749.052	0.0124014
749.130	0.0123697
749.208	0.0121461
749.286	0.0123174
749.364	0.0123719
749.443	0.0123772
749.521	0.0121877
749.599	0.0122898
749.677	0.0122208
749.755	0.0122188
749.833	0.0122353
749.911	0.0123500
749.989	0.0121709
750.068	0.0121056
750.146	0.0121677
750.224	0.0119831
750.302	0.0121844
750.380	0.0123410
750.458	0.0121989
750.536	0.0120679
750.614	0.0121078
750.693	0.0121940
750.771	0.0121726
750.849	0.0121930
750.927	0.0122377
751.005	0.0122987
751.083	0.0121676
751.161	0.0120713
751.239	0.0123106
751.318	0.0122701
751.396	0.0122965
751.474	0.0122643
751.552	0.0121701
751.630	0.0122142
751.708	0.0123660
751.786	0.0122644
751.864	0.0123328
751.943	0.0122879
752.021	0.0122553
752.099	0.0122575
752.177	0.0123491
752.255	0.0123017
752.333	0.0122837
752.411	0.0122605
752.489	0.0123629
752.568	0.0122981
752.646	0.0123851
752.724	0.0123290
752.802	0.0122736
752.880	0.0123222
752.958	0.0122873
753.036	0.0122060
753.114	0.0122607
753.193	0.0123643
753.271	0.0122607
753.349	0.0121406
753.427	0.0121954
753.505	0.0122370
753.583	0.0121665
753.661	0.0122396
753.739	0.0121897
753.818	0.0121619
753.896	0.0121986
753.974	0.0121830
754.052	0.0122012
754.130	0.0122169
754.208	0.0120758
754.286	0.0122421
754.364	0.0121573
754.443	0.0120155
754.521	0.0121321
754.599	0.0121964
754.677	0.0122649
754.755	0.0121771
754.833	0.0121518
754.911	0.0121080
754.989	0.0120588
755.068	0.0121866
755.146	0.0121891
755.224	0.0121957
755.302	0.0124209
755.380	0.0122469
755.458	0.0120277
755.536	0.0121217
755.614	0.0122488
755.693	0.0120741
755.771	0.0121523
755.849	0.0120609
755.927	0.0122244
756.005	0.0122215
756.083	0.0121604
756.161	0.0121433
756.239	0.0122564
756.318	0.0122099
756.396	0.0123794
756.474	0.0123164
756.552	0.0121560
756.630	0.0122017
756.708	0.0122375
756.786	0.0121163
756.864	0.0122107
756.943	0.0122153
757.021	0.0121360
757.099	0.0121044
757.177	0.0122478
757.255	0.0121037
757.333	0.0120813
757.411	0.0122404
757.489	0.0122825
757.568	0.0121136
757.646	0.0120670
757.724	0.0120532
757.802	0.0122755
757.880	0.0122644
757.958	0.0122547
758.036	0.0122060
758.114	0.0120852
758.193	0.0121941
758.271	0.0122630
758.349	0.0122617
758.427	0.0122350
758.505	0.0121566
758.583	0.0121703
758.661	0.0121271
758.739	0.0122099
758.818	0.0121312
758.896	0.0121233
758.974	0.0121120
759.052	0.0120770
759.130	0.0120697
759.208	0.0120420
759.286	0.0119585
759.364	0.0121992
759.443	0.0121129
759.521	0.0120277
759.599	0.0121387
759.677	0.0122289
759.755	0.0121984
759.833	0.0121082
759.911	0.0120976
759.989	0.0121455
760.068	0.0121981
760.146	0.0120924
760.224	0.0121782
760.302	0.0122334
760.380	0.0122128
760.458	0.0122552
760.536	0.0121944
760.614	0.0122389
760.693	0.0122538
760.771	0.0122417
760.849	0.0123978
760.927	0.0122913
761.005	0.0121850
761.083	0.0123652
761.161	0.0122084
761.239	0.0122669
761.318	0.0123095
761.396	0.0121915
761.474	0.0122942
761.552	0.0122705
761.630	0.0123128
761.708	0.0121918
761.786	0.0121956
761.864	0.0121202
761.943	0.0121929
762.021	0.0122576
762.099	0.0122558
762.177	0.0121361
762.255	0.0122531
762.333	0.0120737
762.411	0.0121146
762.489	0.0121272
762.568	0.0120425
762.646	0.0121777
762.724	0.0121131
762.802	0.0120605
762.880	0.0121346
762.958	0.0122404
763.036	0.0121227
763.114	0.0122191
763.193	0.0121308
763.271	0.0120986
763.349	0.0122202
763.427	0.0120688
763.505	0.0122008
763.583	0.0121681
763.661	0.0122446
763.739	0.0122531
763.818	0.0122655
763.896	0.0122253
763.974	0.0121799
764.052	0.0122246
764.130	0.0121025
764.208	0.0121624
764.286	0.0122104
764.364	0.0121874
764.443	0.0121794
764.521	0.0122365
764.599	0.0123265
764.677	0.0121068
764.755	0.0122888
764.833	0.0122752
764.911	0.0122454
764.989	0.0121999
765.068	0.0121568
765.146	0.0121004
765.224	0.0121915
765.302	0.0121482
765.380	0.0122658
765.458	0.0122750
765.536	0.0121887
765.614	0.0121852
765.693	0.0122183
765.771	0.0122803
765.849	0.0121249
765.927	0.0122402
766.005	0.0121985
766.083	0.0122724
766.161	0.0123453
766.239	0.0122304
766.318	0.0122818
766.396	0.0122009
766.474	0.0123369
766.552	0.0123016
766.630	0.0123901
766.708	0.0123029
766.786	0.0122787
766.864	0.0123687
766.943	0.0121063
767.021	0.0123161
767.099	0.0123964
767.177	0.0121236
767.255	0.0121788
767.333	0.0121698
767.411	0.0121677
767.489	0.0121433
767.568	0.0122505
767.646	0.0122079
767.724	0.0121928
767.802	0.0122586
767.880	0.0121219
767.958	0.0121925
768.036	0.0120306
768.114	0.0121032
768.193	0.0122221
768.271	0.0121680
768.349	0.0121655
768.427	0.0120435
768.505	0.0121472
768.583	0.0120800
768.661	0.0121021
768.739	0.0120380
768.818	0.0121078
768.896	0.0120806
768.974	0.0121417
769.052	0.0120247
769.130	0.0120753
769.208	0.0120765
769.286	0.0120558
769.364	0.0121202
769.443	0.0121502
769.521	0.0121056
769.599	0.0120018
769.677	0.0121592
769.755	0.0122158
769.833	0.0121176
769.911	0.0121723
769.989	0.0120944
770.068	0.0121368
770.146	0.0121404
770.224	0.0121360
770.302	0.0121758
770.380	0.0121683
770.458	0.0121941
770.536	0.0122903
770.614	0.0122304
770.693	0.0123841
770.771	0.0122299
770.849	0.0122652
770.927	0.0123396
771.005	0.0124043
771.083	0.0123995
771.161	0.0124177
771.239	0.0122491
771.318	0.0124010
771.396	0.0124383
771.474	0.0122956
771.552	0.0122497
771.630	0.0123530
771.708	0.0124836
771.786	0.0124223
771.864	0.0124633
771.943	0.0123551
772.021	0.0123235
772.099	0.0123524
772.177	0.0122326
772.255	0.0122792
772.333	0.0122851
772.411	0.0122559
772.489	0.0123593
772.568	0.0123692
772.646	0.0123312
772.724	0.0123286
772.802	0.0121587
772.880	0.0121934
772.958	0.0122275
773.036	0.0122436
773.114	0.0122808
773.193	0.0122327
773.271	0.0122375
773.349	0.0121474
773.427	0.0122515
773.505	0.0122821
773.583	0.0123070
773.661	0.0122192
773.739	0.0121940
773.818	0.0121676
773.896	0.0122447
773.974	0.0122489
774.052	0.0122095
774.130	0.0122693
774.208	0.0122802
774.286	0.0121407
774.364	0.0123047
774.443	0.0121660
774.521	0.0122878
774.599	0.0123524
774.677	0.0121556
774.755	0.0124064
774.833	0.0122393
774.911	0.0122260
774.989	0.0122163
775.068	0.0122209
775.146	0.0122214
775.224	0.0122828
775.302	0.0122206
775.380	0.0122601
775.458	0.0122826
775.536	0.0123216
775.614	0.0123254
775.693	0.0121995
775.771	0.0122272
775.849	0.0123341
775.927	0.0123690
776.005	0.0122265
776.083	0.0122861
776.161	0.0122561
776.239	0.0123013
776.318	0.0122511
776.396	0.0121898
776.474	0.0122140
776.552	0.0122807
776.630	0.0124398
776.708	0.0122266
776.786	0.0123017
776.864	0.0124361
776.943	0.0122487
777.021	0.0122836
777.099	0.0121733
777.177	0.0123265
777.255	0.0122311
777.333	0.0123615
777.411	0.0122922
777.489	0.0123155
777.568	0.0121011
777.646	0.0122884
777.724	0.0121430
777.802	0.0121576
777.880	0.0121989
777.958	0.0121137
778.036	0.0122477
778.114	0.0121998
778.193	0.0121484
778.271	0.0121465
778.349	0.0121807
778.427	0.0122500
778.505	0.0122153
778.583	0.0122165
778.661	0.0120600
778.739	0.0121452
778.818	0.0121279
778.896	0.0120600
778.974	0.0121561
779.052	0.0122972
779.130	0.0122810
779.208	0.0121639
779.286	0.0122761
779.364	0.0121785
779.443	0.0121403
779.521	0.0120418
779.599	0.0122037
779.677	0.0123817
779.755	0.0124066
779.833	0.0121445
779.911	0.0122232
779.989	0.0122794
780.068	0.0122833
780.146	0.0121082
780.224	0.0122272
780.302	0.0123322
780.380	0.0121745
780.458	0.0121763
780.536	0.0123199
780.614	0.0121790
780.693	0.0122196
780.771	0.0122804
780.849	0.0122301
780.927	0.0123856
781.005	0.0123723
781.083	0.0122850
781.161	0.0123792
781.239	0.0122704
781.318	0.0123547
781.396	0.0123174
781.474	0.0123101
781.552	0.0122699
781.630	0.0122697
781.708	0.0123675
781.786	0.0121888
781.864	0.0121405
781.943	0.0123091
782.021	0.0123465
782.099	0.0123031
782.177	0.0123666
782.255	0.0122545
782.333	0.0121575
782.411	0.0121472
782.489	0.0120038
782.568	0.0122550
782.646	0.0122563
782.724	0.0120663
782.802	0.0121562
782.880	0.0122037
782.958	0.0121375
783.036	0.0119909
783.114	0.0121113
783.193	0.0121680
783.271	0.0120322
783.349	0.0121149
783.427	0.0121082
783.505	0.0119388
783.583	0.0121047
783.661	0.0121114
783.739	0.0121961
783.818	0.0120918
783.896	0.0120784
783.974	0.0120914
784.052	0.0121829
784.130	0.0121550
784.208	0.0122196
784.286	0.0121484
784.364	0.0122465
784.443	0.0122034
784.521	0.0122948
784.599	0.0120798
784.677	0.0121088
784.755	0.0123215
784.833	0.0121585
784.911	0.0123121
784.989	0.0123232
785.068	0.0122742
785.146	0.0122720
785.224	0.0124004
785.302	0.0123898
785.380	0.0123383
785.458	0.0122536
785.536	0.0122411
785.614	0.0122010
785.693	0.0121120
785.771	0.0121743
785.849	0.0122305
785.927	0.0123854
786.005	0.0121748
786.083	0.0121040
786.161	0.0122105
786.239	0.0122185
786.318	0.0122249
786.396	0.0122006
786.474	0.0120846
786.552	0.0121799
786.630	0.0120913
786.708	0.0122304
786.786	0.0122433
786.864	0.0120193
786.943	0.0121445
787.021	0.0120879
787.099	0.0121454
787.177	0.0121958
787.255	0.0120480
787.333	0.0121484
787.411	0.0120943
787.489	0.0121839
787.568	0.0120060
787.646	0.0121562
787.724	0.0122588
787.802	0.0120926
787.880	0.0121689
787.958	0.0120711
788.036	0.0120276
788.114	0.0121664
788.193	0.0121329
788.271	0.0121378
788.349	0.0120809
788.427	0.0121069
788.505	0.0122284
788.583	0.0121593
788.661	0.0123222
788.739	0.0122907
788.818	0.0122391
788.896	0.0122868
788.974	0.0122493
789.052	0.0123173
789.130	0.0122314
789.208	0.0122337
789.286	0.0121862
789.364	0.0122202
789.443	0.0121933
789.521	0.0121803
789.599	0.0123107
789.677	0.0123682
789.755	0.0121775
789.833	0.0122697
789.911	0.0123526
789.989	0.0120660
790.068	0.0121733
790.146	0.0123209
790.224	0.0121552
790.302	0.0121566
790.380	0.0122266
790.458	0.0122501
790.536	0.0122076
790.614	0.0121877
790.693	0.0121220
790.771	0.0121885
790.849	0.0121618
790.927	0.0121289
791.005	0.0122282
791.083	0.0121828
791.161	0.0123261
791.239	0.0122017
791.318	0.0121909
791.396	0.0121703
791.474	0.0121770
791.552	0.0120883
791.630	0.0122073
791.708	0.0121680
791.786	0.0121709
791.864	0.0121655
791.943	0.0122919
792.021	0.0122461
792.099	0.0120464
792.177	0.0121770
792.255	0.0122157
792.333	0.0121239
792.411	0.0122191
792.489	0.0121284
792.568	0.0120486
792.646	0.0120338
792.724	0.0121830
792.802	0.0122191
792.880	0.0120985
792.958	0.0121635
793.036	0.0121607
793.114	0.0121466
793.193	0.0121214
793.271	0.0119850
793.349	0.0120948
793.427	0.0122077
793.505	0.0121546
793.583	0.0121366
793.661	0.0121410
793.739	0.0121474
793.818	0.0121833
793.896	0.0120849
793.974	0.0121975
794.052	0.0121699
794.130	0.0120115
794.208	0.0121407
794.286	0.0120837
794.364	0.0122070
794.443	0.0121486
794.521	0.0121862
794.599	0.0121091
794.677	0.0122047
794.755	0.0121349
794.833	0.0120099
794.911	0.0120729
794.989	0.0121171
795.068	0.0122124
795.146	0.0122831
795.224	0.0122392
795.302	0.0121739
795.380	0.0121052
795.458	0.0121294
795.536	0.0121777
795.614	0.0121852
795.693	0.0121884
795.771	0.0122420
795.849	0.0122346
795.927	0.0121259
796.005	0.0123159
796.083	0.0121301
796.161	0.0121587
796.239	0.0122272
796.318	0.0121684
796.396	0.0122026
796.474	0.0122109
796.552	0.0122080
796.630	0.0121904
796.708	0.0122150
796.786	0.0121716
796.864	0.0122541
796.943	0.0122151
797.021	0.0123522
797.099	0.0123416
797.177	0.0123004
797.255	0.0122736
797.333	0.0122062
797.411	0.0122730
797.489	0.0123389
797.568	0.0122462
797.646	0.0121838
797.724	0.0121355
797.802	0.0123365
797.880	0.0123972
797.958	0.0122809
798.036	0.0123026
798.114	0.0122802
798.193	0.0123129
798.271	0.0124500
798.349	0.0122596
798.427	0.0122612
798.505	0.0123843
798.583	0.0124329
798.661	0.0123157
798.739	0.0123244
798.818	0.0123945
798.896	0.0123258
798.974	0.0122193
799.052	0.0123362
799.130	0.0123422
799.208	0.0123420
799.286	0.0123902
799.364	0.0123517
799.443	0.0122509
799.521	0.0122128
799.599	0.0121796
799.677	0.0121915
799.755	0.0123673
799.833	0.0123529
799.911	0.0123144
799.989	0.0122298
800.068	0.0122103
800.146	0.0122671
800.224	0.0122769
800.302	0.0123255
800.380	0.0121923
800.458	0.0122285
800.536	0.0123387
800.614	0.0122260
800.693	0.0122150
800.771	0.0122290
800.849	0.0122454
800.927	0.0122566
801.005	0.0123642
801.083	0.0123817
801.161	0.0121912
801.239	0.0122985
801.318	0.0122697
801.396	0.0122959
801.474	0.0123275
801.552	0.0123363
801.630	0.0123212
801.708	0.0123255
801.786	0.0122423
801.864	0.0122405
801.943	0.0122523
802.021	0.0122166
802.099	0.0120940
802.177	0.0120783
802.255	0.0120855
802.333	0.0122467
802.411	0.0122145
802.489	0.0120103
802.568	0.0121107
802.646	0.0122302
802.724	0.0122482
802.802	0.0121484
802.880	0.0121327
802.958	0.0121779
803.036	0.0121561
803.114	0.0121307
803.193	0.0121503
803.271	0.0121816
803.349	0.0121059
803.427	0.0121846
803.505	0.0122292
803.583	0.0123050
803.661	0.0120045
803.739	0.0121513
803.818	0.0123288
803.896	0.0120609
803.974	0.0122242
804.052	0.0121389
804.130	0.0122208
804.208	0.0120908
804.286	0.0120727
804.364	0.0120006
804.443	0.0121123
804.521	0.0121464
804.599	0.0123153
804.677	0.0121545
804.755	0.0121403
804.833	0.0122218
804.911	0.0122038
804.989	0.0122869
805.068	0.0122911
805.146	0.0121192
805.224	0.0121947
805.302	0.0122771
805.380	0.0124315
805.458	0.0120815
805.536	0.0122379
805.614	0.0122691
805.693	0.0121857
805.771	0.0122057
805.849	0.0122485
805.927	0.0123210
806.005	0.0121983
806.083	0.0121359
806.161	0.0122137
806.239	0.0120520
806.318	0.0122756
806.396	0.0120817
806.474	0.0120427
806.552	0.0121893
806.630	0.0122137
806.708	0.0123481
806.786	0.0121943
806.864	0.0122002
806.943	0.0123508
807.021	0.0121801
807.099	0.0121252
807.177	0.0123299
807.255	0.0122565
807.333	0.0122646
807.411	0.0122556
807.489	0.0121513
807.568	0.0120643
807.646	0.0121962
807.724	0.0122204
807.802	0.0121803
807.880	0.0121086
807.958	0.0120645
808.036	0.0121854
808.114	0.0122403
808.193	0.0120650
808.271	0.0119552
808.349	0.0120959
808.427	0.0122417
808.505	0.0122480
808.583	0.0120422
808.661	0.0121875
808.739	0.0123066
808.818	0.0121048
808.896	0.0120863
808.974	0.0121439
809.052	0.0123220
809.130	0.0121865
809.208	0.0122340
809.286	0.0123285
809.364	0.0122147
809.443	0.0122489
809.521	0.0123930
809.599	0.0123582
809.677	0.0121059
809.755	0.0122556
809.833	0.0122962
809.911	0.0123664
809.989	0.0122380
810.068	0.0122518
810.146	0.0121453
810.224	0.0123258
810.302	0.0122482
810.380	0.0123284
810.458	0.0123335
810.536	0.0122913
810.614	0.0121633
810.693	0.0122243
810.771	0.0123312
810.849	0.0121391
810.927	0.0122338
811.005	0.0122549
811.083	0.0122369
811.161	0.0121794
811.239	0.0123374
811.318	0.0122066
811.396	0.0120637
811.474	0.0122101
811.552	0.0122677
811.630	0.0121510
811.708	0.0121326
811.786	0.0122385
811.864	0.0121871
811.943	0.0121233
812.021	0.0121106
812.099	0.0123098
812.177	0.0121259
812.255	0.0120474
812.333	0.0121622
812.411	0.0121081
812.489	0.0121683
812.568	0.0122936
812.646	0.0122819
812.724	0.0121414
812.802	0.0122216
812.880	0.0122008
812.958	0.0121214
813.036	0.0121629
813.114	0.0122173
813.193	0.0123904
813.271	0.0124095
813.349	0.0121696
813.427	0.0121258
813.505	0.0122163
813.583	0.0123100
813.661	0.0121809
813.739	0.0122731
813.818	0.0121515
813.896	0.0123146
813.974	0.0121783
814.052	0.0122248
814.130	0.0122746
814.208	0.0122375
814.286	0.0122672
814.364	0.0122197
814.443	0.0123139
814.521	0.0121856
814.599	0.0122758
814.677	0.0123874
814.755	0.0123499
814.833	0.0122398
814.911	0.0121992
814.989	0.0123635
815.068	0.0122026
815.146	0.0122624
815.224	0.0122916
815.302	0.0123986
815.380	0.0121693
815.458	0.0121857
815.536	0.0123338
815.614	0.0122590
815.693	0.0122309
815.771	0.0122646
815.849	0.0122830
815.927	0.0122636
816.005	0.0121709
816.083	0.0122168
816.161	0.0120916
816.239	0.0121255
816.318	0.0120566
816.396	0.0121762
816.474	0.0122723
816.552	0.0122009
816.630	0.0121791
816.708	0.0122758
816.786	0.0122586
816.864	0.0121378
816.943	0.0122989
817.021	0.0121911
817.099	0.0121308
817.177	0.0121999
817.255	0.0122507
817.333	0.0122329
817.411	0.0122508
817.489	0.0121731
817.568	0.0121767
817.646	0.0121687
817.724	0.0120772
817.802	0.0123416
817.880	0.0121689
817.958	0.0120008
818.036	0.0121292
818.114	0.0122834
818.193	0.0121581
818.271	0.0122617
818.349	0.0122143
818.427	0.0121524
818.505	0.0122987
818.583	0.0122527
818.661	0.0120451
818.739	0.0122061
818.818	0.0121772
818.896	0.0121363
818.974	0.0122524
819.052	0.0122111
819.130	0.0121959
819.208	0.0121206
819.286	0.0122225
819.364	0.0121999
819.443	0.0122128
819.521	0.0122856
819.599	0.0122381
819.677	0.0121798
819.755	0.0122221
819.833	0.0122191
819.911	0.0121792
819.989	0.0121997
820.068	0.0122419
820.146	0.0121346
820.224	0.0122749
820.302	0.0121667
820.380	0.0123540
820.458	0.0122268
820.536	0.0124052
820.614	0.0122520
820.693	0.0121952
820.771	0.0122309
820.849	0.0122186
820.927	0.0121943
821.005	0.0122234
821.083	0.0122906
821.161	0.0121847
821.239	0.0120226
821.318	0.0120757
821.396	0.0122699
821.474	0.0121300
821.552	0.0121528
821.630	0.0121642
821.708	0.0121814
821.786	0.0121345
821.864	0.0121377
821.943	0.0124059
822.021	0.0120369
822.099	0.0121389
822.177	0.0122137
822.255	0.0122140
822.333	0.0123101
822.411	0.0123221
822.489	0.0122073
822.568	0.0122786
822.646	0.0121497
822.724	0.0122434
822.802	0.0123449
822.880	0.0122742
822.958	0.0122809
823.036	0.0122993
823.114	0.0122176
823.193	0.0123840
823.271	0.0122618
823.349	0.0122348
823.427	0.0123055
823.505	0.0122366
823.583	0.0121614
823.661	0.0122571
823.739	0.0122955
823.818	0.0123185
823.896	0.0122849
823.974	0.0121947
824.052	0.0122845
824.130	0.0122832
824.208	0.0120986
824.286	0.0123065
824.364	0.0121541
824.443	0.0121484
824.521	0.0120207
824.599	0.0121114
824.677	0.0121609
824.755	0.0121701
824.833	0.0121843
824.911	0.0120656
824.989	0.0119981
825.068	0.0120153
825.146	0.0120338
825.224	0.0120676
825.302	0.0120814
825.380	0.0122204
825.458	0.0120047
825.536	0.0120999
825.614	0.0120935
825.693	0.0119650
825.771	0.0120959
825.849	0.0120444
825.927	0.0120969
826.005	0.0122144
826.083	0.0121974
826.161	0.0121156
826.239	0.0121305
826.318	0.0120712
826.396	0.0121577
826.474	0.0120837
826.552	0.0122221
826.630	0.0122115
826.708	0.0122015
826.786	0.0122521
826.864	0.0121655
826.943	0.0121790
827.021	0.0121258
827.099	0.0120390
827.177	0.0122115
827.255	0.0121095
827.333	0.0120444
827.411	0.0122021
827.489	0.0122521
827.568	0.0122489
827.646	0.0122474
827.724	0.0121480
827.802	0.0122379
827.880	0.0123076
827.958	0.0123016
828.036	0.0122074
828.114	0.0124066
828.193	0.0122862
828.271	0.0122088
828.349	0.0124123
828.427	0.0121434
828.505	0.0121630
828.583	0.0122880
828.661	0.0122271
828.739	0.0122365
828.818	0.0121480
828.896	0.0120950
828.974	0.0122094
829.052	0.0122456
829.130	0.0121098
829.208	0.0121834
829.286	0.0121789
829.364	0.0121474
829.443	0.0122188
829.521	0.0121871
829.599	0.0119242
829.677	0.0120675
829.755	0.0120522
829.833	0.0121825
829.911	0.0122041
829.989	0.0120889
830.068	0.0121061
830.146	0.0121206
830.224	0.0121735
830.302	0.0121469
830.380	0.0120621
830.458	0.0120100
830.536	0.0122243
830.614	0.0120116
830.693	0.0122471
830.771	0.0122046
830.849	0.0119852
830.927	0.0119948
831.005	0.0120454
831.083	0.0121362
831.161	0.0121031
831.239	0.0121774
831.318	0.0122790
831.396	0.0120923
831.474	0.0121486
831.552	0.0122517
831.630	0.0120937
831.708	0.0121700
831.786	0.0121709
831.864	0.0119949
831.943	0.0122575
832.021	0.0122234
832.099	0.0122442
832.177	0.0120242
832.255	0.0121950
832.333	0.0122929
832.411	0.0122526
832.489	0.0122389
832.568	0.0122166
832.646	0.0121609
832.724	0.0122763
832.802	0.0121676
832.880	0.0122452
832.958	0.0122589
833.036	0.0123106
833.114	0.0124179
833.193	0.0122537
833.271	0.0122443
833.349	0.0122564
833.427	0.0124641
833.505	0.0123973
833.583	0.0122471
833.661	0.0123289
833.739	0.0123521
833.818	0.0121275
833.896	0.0122549
833.974	0.0123619
834.052	0.0123131
834.130	0.0122069
834.208	0.0120622
834.286	0.0122344
834.364	0.0122133
834.443	0.0121861
834.521	0.0119824
834.599	0.0121492
834.677	0.0120731
834.755	0.0121555
834.833	0.0119666
834.911	0.0121720
834.989	0.0120512
835.068	0.0119950
835.146	0.0119486
835.224	0.0118085
835.302	0.0119217
835.380	0.0119839
835.458	0.0119143
835.536	0.0120036
835.614	0.0119926
835.693	0.0120248
835.771	0.0121028
835.849	0.0119316
835.927	0.0121124
836.005	0.0119774
836.083	0.0120570
836.161	0.0120965
836.239	0.0123241
836.318	0.0121147
836.396	0.0122845
836.474	0.0122649
836.552	0.0122041
836.630	0.0122932
836.708	0.0123932
836.786	0.0123846
836.864	0.0122630
836.943	0.0122498
837.021	0.0123038
837.099	0.0123677
837.177	0.0124548
837.255	0.0124277
837.333	0.0126106
837.411	0.0124123
837.489	0.0123293
837.568	0.0124601
837.646	0.0125164
837.724	0.0125940
837.802	0.0124737
837.880	0.0125044
837.958	0.0125484
838.036	0.0125932
838.114	0.0124363
838.193	0.0125296
838.271	0.0124680
838.349	0.0125517
838.427	0.0125791
838.505	0.0125044
838.583	0.0124780
838.661	0.0123889
838.739	0.0124122
838.818	0.0124130
838.896	0.0124477
838.974	0.0123454
839.052	0.0122767
839.130	0.0123107
839.208	0.0121377
839.286	0.0121510
839.364	0.0121495
839.443	0.0120749
839.521	0.0120217
839.599	0.0121276
839.677	0.0120450
839.755	0.0120085
839.833	0.0120844
839.911	0.0120107
839.989	0.0118690
840.068	0.0121379
840.146	0.0119975
840.224	0.0119965
840.302	0.0120027
840.380	0.0119571
840.458	0.0120635
840.536	0.0120878
840.614	0.0121870
840.693	0.0121255
840.771	0.0120285
840.849	0.0121340
840.927	0.0122208
841.005	0.0122421
841.083	0.0120971
841.161	0.0122483
841.239	0.0122124
841.318	0.0121489
841.396	0.0122440
841.474	0.0124519
841.552	0.0122810
841.630	0.0121947
841.708	0.0123806
841.786	0.0124283
841.864	0.0124282
841.943	0.0123163
842.021	0.0123609
842.099	0.0124466
842.177	0.0122118
842.255	0.0123620
842.333	0.0126002
842.411	0.0123808
842.489	0.0122745
842.568	0.0124487
842.646	0.0124757
842.724	0.0123714
842.802	0.0123533
842.880	0.0123787
842.958	0.0124403
843.036	0.0123223
843.114	0.0125087
843.193	0.0124419
843.271	0.0122388
843.349	0.0123496
843.427	0.0123770
843.505	0.0124543
843.583	0.0123635
843.661	0.0123729
843.739	0.0123257
843.818	0.0122340
843.896	0.0122794
843.974	0.0122633
844.052	0.0122045
844.130	0.0121590
844.208	0.0121524
844.286	0.0121735
844.364	0.0121787
844.443	0.0120900
844.521	0.0121836
844.599	0.0120821
844.677	0.0121935
844.755	0.0121306
844.833	0.0120868
844.911	0.0120773
844.989	0.0120634
845.068	0.0119875
845.146	0.0120932
845.224	0.0119583
845.302	0.0120385
845.380	0.0120976
845.458	0.0120600
845.536	0.0120180
845.614	0.0120044
845.693	0.0120487
845.771	0.0121754
845.849	0.0121339
845.927	0.0121093
846.005	0.0120637
846.083	0.0121422
846.161	0.0120976
846.239	0.0119312
846.318	0.0121911
846.396	0.0121896
846.474	0.0121581
846.552	0.0123617
846.630	0.0121456
846.708	0.0121591
846.786	0.0122623
846.864	0.0122285
846.943	0.0122840
847.021	0.0122540
847.099	0.0122929
847.177	0.0123736
847.255	0.0123805
847.333	0.0124341
847.411	0.0125381
847.489	0.0124643
847.568	0.0125046
847.646	0.0123841
847.724	0.0124683
847.802	0.0125534
847.880	0.0125077
847.958	0.0124803
848.036	0.0122613
848.114	0.0123505
848.193	0.0124683
848.271	0.0124215
848.349	0.0125350
848.427	0.0123538
848.505	0.0124610
848.583	0.0123759
848.661	0.0124149
848.739	0.0123677
848.818	0.0122938
848.896	0.0124089
848.974	0.0123331
849.052	0.0122959
849.130	0.0122095
849.208	0.0121720
849.286	0.0122579
849.364	0.0122451
849.443	0.0121768
849.521	0.0122494
849.599	0.0121195
849.677	0.0121783
849.755	0.0121106
849.833	0.0121860
849.911	0.0121527
849.989	0.0121371
850.068	0.0120870
850.146	0.0121321
850.224	0.0120272
850.302	0.0121234
850.380	0.0121152
850.458	0.0120406
850.536	0.0119572
850.614	0.0122106
850.693	0.0120950
850.771	0.0120586
850.849	0.0121201
850.927	0.0121815
851.005	0.0121944
851.083	0.0120755
851.161	0.0121302
851.239	0.0122404
851.318	0.0121873
851.396	0.0123117
851.474	0.0122540
851.552	0.0124269
851.630	0.0124343
851.708	0.0122486
851.786	0.0122392
851.864	0.0123350
851.943	0.0123000
852.021	0.0123436
852.099	0.0123520
852.177	0.0123413
852.255	0.0123280
852.333	0.0123563
852.411	0.0125020
852.489	0.0122670
852.568	0.0123966
852.646	0.0124148
852.724	0.0123746
852.802	0.0123865
852.880	0.0123343
852.958	0.0124196
853.036	0.0123923
853.114	0.0122443
853.193	0.0124635
853.271	0.0121587
853.349	0.0124283
853.427	0.0121824
853.505	0.0122303
853.583	0.0122729
853.661	0.0122568
853.739	0.0122276
853.818	0.0122248
853.896	0.0122843
853.974	0.0121244
854.052	0.0121888
854.130	0.0121669
854.208	0.0120612
854.286	0.0122125
854.364	0.0121765
854.443	0.0120959
854.521	0.0121824
854.599	0.0121520
854.677	0.0122579
854.755	0.0121492
854.833	0.0122836
854.911	0.0123682
854.989	0.0122575
855.068	0.0124030
855.146	0.0122839
855.224	0.0123438
855.302	0.0122610
855.380	0.0122618
855.458	0.0123907
855.536	0.0123992
855.614	0.0122927
855.693	0.0122526
855.771	0.0124606
855.849	0.0122597
855.927	0.0123116
856.005	0.0122824
856.083	0.0122552
856.161	0.0122964
856.239	0.0121910
856.318	0.0123808
856.396	0.0123176
856.474	0.0121806
856.552	0.0123692
856.630	0.0123384
856.708	0.0121986
856.786	0.0121914
856.864	0.0121964
856.943	0.0121907
857.021	0.0122802
857.099	0.0121696
857.177	0.0122069
857.255	0.0122301
857.333	0.0122004
857.411	0.0120959
857.489	0.0121878
857.568	0.0121907
857.646	0.0120403
857.724	0.0123403
857.802	0.0121001
857.880	0.0122290
857.958	0.0121196
858.036	0.0122848
858.114	0.0123130
858.193	0.0121781
858.271	0.0120991
858.349	0.0122165
858.427	0.0123164
858.505	0.0122013
858.583	0.0122222
858.661	0.0122971
858.739	0.0121181
858.818	0.0123437
858.896	0.0122999
858.974	0.0123650
859.052	0.0123465
859.130	0.0122932
859.208	0.0122998
859.286	0.0123406
859.364	0.0121543
859.443	0.0123277
859.521	0.0123164
859.599	0.0123371
859.677	0.0123814
859.755	0.0122267
859.833	0.0123172
859.911	0.0122379
859.989	0.0122153
860.068	0.0122424
860.146	0.0123949
860.224	0.0123584
860.302	0.0123737
860.380	0.0124860
860.458	0.0122090
860.536	0.0122750
860.614	0.0123555
860.693	0.0122182
860.771	0.0122035
860.849	0.0122794
860.927	0.0123630
861.005	0.0122267
861.083	0.0122810
861.161	0.0121772
861.239	0.0121402
861.318	0.0120776
861.396	0.0120747
861.474	0.0121797
861.552	0.0123194
861.630	0.0121067
861.708	0.0119638
861.786	0.0120599
861.864	0.0120047
861.943	0.0121725
862.021	0.0120780
862.099	0.0121096
862.177	0.0120998
862.255	0.0120019
862.333	0.0121513
862.411	0.0120786
862.489	0.0120030
862.568	0.0121008
862.646	0.0120725
862.724	0.0121871
862.802	0.0121871
862.880	0.0123070
862.958	0.0122501
863.036	0.0121912
863.114	0.0123312
863.193	0.0120741
863.271	0.0122987
863.349	0.0122200
863.427	0.0123404
863.505	0.0123028
863.583	0.0123943
863.661	0.0123041
863.739	0.0123914
863.818	0.0122584
863.896	0.0124300
863.974	0.0124543
864.052	0.0123917
864.130	0.0123466
864.208	0.0123653
864.286	0.0124229
864.364	0.0124104
864.443	0.0123049
864.521	0.0124013
864.599	0.0123527
864.677	0.0122742
864.755	0.0123644
864.833	0.0124606
864.911	0.0122934
864.989	0.0123508
865.068	0.0121719
865.146	0.0122910
865.224	0.0123658
865.302	0.0123179
865.380	0.0123684
865.458	0.0122409
865.536	0.0121827
865.614	0.0121983
865.693	0.0122066
865.771	0.0122292
865.849	0.0122946
865.927	0.0121852
866.005	0.0122026
866.083	0.0122696
866.161	0.0121910
866.239	0.0122145
866.318	0.0122400
866.396	0.0122010
866.474	0.0122665
866.552	0.0122565
866.630	0.0122295
866.708	0.0121848
866.786	0.0122485
866.864	0.0121665
866.943	0.0122593
867.021	0.0123183
867.099	0.0122535
867.177	0.0122750
867.255	0.0123312
867.333	0.0123257
867.411	0.0123096
867.489	0.0122797
867.568	0.0123314
867.646	0.0122543
867.724	0.0123548
867.802	0.0124037
867.880	0.0124580
867.958	0.0123393
868.036	0.0124525
868.114	0.0123976
868.193	0.0124083
868.271	0.0122624
868.349	0.0124556
868.427	0.0125330
868.505	0.0123433
868.583	0.0124940
868.661	0.0124242
868.739	0.0124005
868.818	0.0124069
868.896	0.0123460
868.974	0.0122338
869.052	0.0122050
869.130	0.0123803
869.208	0.0122339
869.286	0.0122498
869.364	0.0122525
869.443	0.0120742
869.521	0.0121166
869.599	0.0121658
869.677	0.0121645
869.755	0.0122371
869.833	0.0121429
869.911	0.0121065
869.989	0.0120913
870.068	0.0120051
870.146	0.0120197
870.224	0.0121084
870.302	0.0119938
870.380	0.0120512
870.458	0.0121021
870.536	0.0120427
870.614	0.0120201
870.693	0.0120076
870.771	0.0119779
870.849	0.0119811
870.927	0.0121094
871.005	0.0120691
871.083	0.0121292
871.161	0.0119143
871.239	0.0120620
871.318	0.0121474
871.396	0.0122215
871.474	0.0120697
871.552	0.0122591
871.630	0.0121626
871.708	0.0122050
871.786	0.0122268
871.864	0.0122485
871.943	0.0124061
872.021	0.0123088
872.099	0.0123033
872.177	0.0123421
872.255	0.0123117
872.333	0.0122811
872.411	0.0121852
872.489	0.0124467
872.568	0.0123096
872.646	0.0124522
872.724	0.0124367
872.802	0.0123737
872.880	0.0123402
872.958	0.0122939
873.036	0.0124097
873.114	0.0123611
873.193	0.0125393
873.271	0.0124873
873.349	0.0123743
873.427	0.0123659
873.505	0.0123854
873.583	0.0123608
873.661	0.0123557
873.739	0.0124798
873.818	0.0124159
873.896	0.0123094
873.974	0.0123635
874.052	0.0124209
874.130	0.0122987
874.208	0.0122593
874.286	0.0123946
874.364	0.0123837
874.443	0.0123361
874.521	0.0122987
874.599	0.0122755
874.677	0.0123021
874.755	0.0124337
874.833	0.0121978
874.911	0.0123779
874.989	0.0122626
875.068	0.0123944
875.146	0.0123827
875.224	0.0122634
875.302	0.0122209
875.380	0.0123047
875.458	0.0121391
875.536	0.0121870
875.614	0.0122395
875.693	0.0123999
875.771	0.0121696
875.849	0.0120505
875.927	0.0121325
876.005	0.0122696
876.083	0.0121686
876.161	0.0123193
876.239	0.0121094
876.318	0.0121830
876.396	0.0121862
876.474	0.0121848
876.552	0.0121748
876.630	0.0121967
876.708	0.0123139
876.786	0.0122150
876.864	0.0121926
876.943	0.0122121
877.021	0.0122895
877.099	0.0122556
877.177	0.0122234
877.255	0.0121412
877.333	0.0121632
877.411	0.0122584
877.489	0.0121925
877.568	0.0123197
877.646	0.0123183
877.724	0.0122672
877.802	0.0122121
877.880	0.0123740
877.958	0.0123833
878.036	0.0123535
878.114	0.0122321
878.193	0.0123564
878.271	0.0123454
878.349	0.0123625
878.427	0.0123288
878.505	0.0122829
878.583	0.0123243
878.661	0.0122681
878.739	0.0124669
878.818	0.0124431
878.896	0.0124723
878.974	0.0124405
879.052	0.0123107
879.130	0.0123282
879.208	0.0125026
879.286	0.0123943
879.364	0.0122856
879.443	0.0122102
879.521	0.0124816
879.599	0.0122543
879.677	0.0123939
879.755	0.0123203
879.833	0.0122716
879.911	0.0122354
879.989	0.0120995
880.068	0.0123204
880.146	0.0123171
880.224	0.0123102
880.302	0.0122555
880.380	0.0122668
880.458	0.0122640
880.536	0.0122152
880.614	0.0121293
880.693	0.0121565
880.771	0.0121725
880.849	0.0121038
880.927	0.0120834
881.005	0.0120995
881.083	0.0120257
881.161	0.0122093
881.239	0.0120995
881.318	0.0119295
881.396	0.0120955
881.474	0.0120918
881.552	0.0120033
881.630	0.0120263
881.708	0.0120127
881.786	0.0121236
881.864	0.0120102
881.943	0.0119691
882.021	0.0120690
882.099	0.0119747
882.177	0.0119929
882.255	0.0121147
882.333	0.0120974
882.411	0.0121574
882.489	0.0119012
882.568	0.0119880
882.646	0.0120528
882.724	0.0120552
882.802	0.0121290
882.880	0.0122019
882.958	0.0121658
883.036	0.0121149
883.114	0.0121535
883.193	0.0122853
883.271	0.0122504
883.349	0.0121706
883.427	0.0123259
883.505	0.0123186
883.583	0.0123596
883.661	0.0123296
883.739	0.0123652
883.818	0.0122461
883.896	0.0123537
883.974	0.0123579
884.052	0.0123761
884.130	0.0124478
884.208	0.0123840
884.286	0.0123459
884.364	0.0124346
884.443	0.0125249
884.521	0.0124704
884.599	0.0123257
884.677	0.0123093
884.755	0.0124760
884.833	0.0125517
884.911	0.0123900
884.989	0.0124082
885.068	0.0124082
885.146	0.0122610
885.224	0.0122451
885.302	0.0122897
885.380	0.0123456
885.458	0.0121118
885.536	0.0122708
885.614	0.0122346
885.693	0.0122221
885.771	0.0122885
885.849	0.0120820
885.927	0.0122141
886.005	0.0122179
886.083	0.0122375
886.161	0.0121603
886.239	0.0121201
886.318	0.0121700
886.396	0.0121758
886.474	0.0121771
886.552	0.0122041
886.630	0.0120904
886.708	0.0120773
886.786	0.0121324
886.864	0.0121176
886.943	0.0120250
887.021	0.0119491
887.099	0.0119866
887.177	0.0121373
887.255	0.0120165
887.333	0.0120422
887.411	0.0119401
887.489	0.0119930
887.568	0.0119160
887.646	0.0118799
887.724	0.0119723
887.802	0.0120785
887.880	0.0120856
887.958	0.0121393
888.036	0.0119881
888.114	0.0120255
888.193	0.0120641
888.271	0.0119653
888.349	0.0120633
888.427	0.0121584
888.505	0.0121384
888.583	0.0121351
888.661	0.0121729
888.739	0.0122835
888.818	0.0121886
888.896	0.0121557
888.974	0.0122511
889.052	0.0121644
889.130	0.0122909
889.208	0.0122100
889.286	0.0121756
889.364	0.0122502
889.443	0.0122653
889.521	0.0123584
889.599	0.0123477
889.677	0.0122636
889.755	0.0122697
889.833	0.0123191
889.911	0.0123862
889.989	0.0124538
890.068	0.0122091
890.146	0.0123496
890.224	0.0123655
890.302	0.0124153
890.380	0.0124307
890.458	0.0124058
890.536	0.0122877
890.614	0.0124540
890.693	0.0123814
890.771	0.0123843
890.849	0.0124429
890.927	0.0123413
891.005	0.0124069
891.083	0.0124290
891.161	0.0123466
891.239	0.0123266
891.318	0.0123702
891.396	0.0124029
891.474	0.0123715
891.552	0.0123782
891.630	0.0122829
891.708	0.0123340
891.786	0.0123531
891.864	0.0122517
891.943	0.0122468
892.021	0.0121632
892.099	0.0121859
892.177	0.0121142
892.255	0.0123713
892.333	0.0121985
892.411	0.0121471
892.489	0.0122495
892.568	0.0121398
892.646	0.0121722
892.724	0.0124294
892.802	0.0122404
892.880	0.0120960
892.958	0.0122164
893.036	0.0122478
893.114	0.0121445
893.193	0.0120277
893.271	0.0122355
893.349	0.0122387
893.427	0.0122287
893.505	0.0121141
893.583	0.0121482
893.661	0.0120878
893.739	0.0120234
893.818	0.0121531
893.896	0.0120529
893.974	0.0120436
894.052	0.0121493
894.130	0.0120795
894.208	0.0121590
894.286	0.0120988
894.364	0.0122517
894.443	0.0120720
894.521	0.0121124
894.599	0.0121066
894.677	0.0121893
894.755	0.0122651
894.833	0.0121191
894.911	0.0122227
894.989	0.0122818
895.068	0.0119724
895.146	0.0121603
895.224	0.0122294
895.302	0.0122086
895.380	0.0122043
895.458	0.0120886
895.536	0.0123058
895.614	0.0123022
895.693	0.0122631
895.771	0.0121692
895.849	0.0121452
895.927	0.0121230
896.005	0.0122048
896.083	0.0120921
896.161	0.0123568
896.239	0.0123044
896.318	0.0121256
896.396	0.0121540
896.474	0.0122911
896.552	0.0122737
896.630	0.0122894
896.708	0.0123765
896.786	0.0122160
896.864	0.0123214
896.943	0.0122889
897.021	0.0121222
897.099	0.0122593
897.177	0.0122695
897.255	0.0122684
897.333	0.0122660
897.411	0.0120824
897.489	0.0120844
897.568	0.0120548
897.646	0.0122411
897.724	0.0121445
897.802	0.0120773
897.880	0.0121761
897.958	0.0121306
898.036	0.0119799
898.114	0.0121668
898.193	0.0121288
898.271	0.0121059
898.349	0.0124252
898.427	0.0121555
898.505	0.0121039
898.583	0.0120747
898.661	0.0121326
898.739	0.0121398
898.818	0.0121472
898.896	0.0120563
898.974	0.0121928
899.052	0.0120742
899.130	0.0122121
899.208	0.0121944
899.286	0.0122234
899.364	0.0122356
899.443	0.0120358
899.521	0.0121287
899.599	0.0120658
899.677	0.0121153
899.755	0.0121511
899.833	0.0121129
899.911	0.0121518
899.989	0.0121284
900.068	0.0121052
900.146	0.0121223
900.224	0.0122769
900.302	0.0121826
900.380	0.0120866
900.458	0.0120786
900.536	0.0123032
900.614	0.0121182
900.693	0.0121748
900.771	0.0120528
900.849	0.0122279
900.927	0.0121944
901.005	0.0121818
901.083	0.0121988
901.161	0.0122767
901.239	0.0123341
901.318	0.0122640
901.396	0.0123798
901.474	0.0123077
901.552	0.0121677
901.630	0.0121652
901.708	0.0122673
901.786	0.0122331
901.864	0.0123057
901.943	0.0123576
902.021	0.0123502
902.099	0.0122691
902.177	0.0123483
902.255	0.0122328
902.333	0.0120975
902.411	0.0122163
902.489	0.0121281
902.568	0.0121673
902.646	0.0123447
902.724	0.0122551
902.802	0.0121439
902.880	0.0120985
902.958	0.0121664
903.036	0.0121271
903.114	0.0121873
903.193	0.0122012
903.271	0.0122699
903.349	0.0121358
903.427	0.0121709
903.505	0.0123116
903.583	0.0122498
903.661	0.0122996
903.739	0.0122649
903.818	0.0121870
903.896	0.0122873
903.974	0.0122858
904.052	0.0123054
904.130	0.0122215
904.208	0.0122157
904.286	0.0122068
904.364	0.0122388
904.443	0.0122345
904.521	0.0122134
904.599	0.0121822
904.677	0.0123159
904.755	0.0122622
904.833	0.0122736
904.911	0.0120511
904.989	0.0120878
905.068	0.0122145
905.146	0.0121601
905.224	0.0121208
905.302	0.0119773
905.380	0.0120139
905.458	0.0122375
905.536	0.0121912
905.614	0.0121724
905.693	0.0121556
905.771	0.0119283
905.849	0.0120713
905.927	0.0121230
906.005	0.0121434
906.083	0.0121395
906.161	0.0120377
906.239	0.0120560
906.318	0.0122184
906.396	0.0120535
906.474	0.0121309
906.552	0.0123162
906.630	0.0122241
906.708	0.0121777
906.786	0.0121505
906.864	0.0122697
906.943	0.0123304
907.021	0.0122650
907.099	0.0122880
907.177	0.0122527
907.255	0.0122638
907.333	0.0123257
907.411	0.0122721
907.489	0.0122995
907.568	0.0122792
907.646	0.0123670
907.724	0.0122968
907.802	0.0123621
907.880	0.0122379
907.958	0.0122636
908.036	0.0122724
908.114	0.0123454
908.193	0.0120661
908.271	0.0123396
908.349	0.0123602
908.427	0.0121772
908.505	0.0120369
908.583	0.0121492
908.661	0.0122408
908.739	0.0121315
908.818	0.0122118
908.896	0.0119719
908.974	0.0121191
909.052	0.0120602
909.130	0.0121887
909.208	0.0120575
909.286	0.0121683
909.364	0.0120613
909.443	0.0120496
909.521	0.0121347
909.599	0.0122381
909.677	0.0121172
909.755	0.0120568
909.833	0.0120056
909.911	0.0121379
909.989	0.0120268
910.068	0.0120927
910.146	0.0120805
910.224	0.0121445
910.302	0.0120966
910.380	0.0121613
910.458	0.0121478
910.536	0.0119984
910.614	0.0121155
910.693	0.0121147
910.771	0.0122207
910.849	0.0121085
910.927	0.0121616
911.005	0.0120525
911.083	0.0121894
911.161	0.0122059
911.239	0.0122208
911.318	0.0122322
911.396	0.0122346
911.474	0.0122833
911.552	0.0123046
911.630	0.0122648
911.708	0.0122971
911.786	0.0122307
911.864	0.0121990
911.943	0.0122924
912.021	0.0122671
912.099	0.0122907
912.177	0.0121591
912.255	0.0123646
912.333	0.0122324
912.411	0.0122640
912.489	0.0123172
912.568	0.0123798
912.646	0.0123260
912.724	0.0122192
912.802	0.0123096
912.880	0.0123444
912.958	0.0122232
913.036	0.0123505
913.114	0.0123233
913.193	0.0123033
913.271	0.0122666
913.349	0.0123137
913.427	0.0123582
913.505	0.0121781
913.583	0.0122092
913.661	0.0122772
913.739	0.0122999
913.818	0.0122295
913.896	0.0123207
913.974	0.0124136
914.052	0.0121635
914.130	0.0122356
914.208	0.0122750
914.286	0.0121662
914.364	0.0123000
914.443	0.0122748
914.521	0.0122209
914.599	0.0123531
914.677	0.0122172
914.755	0.0123557
914.833	0.0123349
914.911	0.0122224
914.989	0.0122249
915.068	0.0123405
915.146	0.0122035
915.224	0.0122641
915.302	0.0121729
915.380	0.0122699
915.458	0.0122413
915.536	0.0121990
915.614	0.0122962
915.693	0.0122317
915.771	0.0122885
915.849	0.0123221
915.927	0.0123831
916.005	0.0124253
916.083	0.0123354
916.161	0.0124721
916.239	0.0122228
916.318	0.0122874
916.396	0.0123212
916.474	0.0123848
916.552	0.0124796
916.630	0.0122471
916.708	0.0122299
916.786	0.0123248
916.864	0.0124508
916.943	0.0124766
917.021	0.0122468
917.099	0.0123840
917.177	0.0122913
917.255	0.0123342
917.333	0.0122789
917.411	0.0122504
917.489	0.0123416
917.568	0.0122411
917.646	0.0122326
917.724	0.0122735
917.802	0.0120757
917.880	0.0121815
917.958	0.0122056
918.036	0.0121413
918.114	0.0122308
918.193	0.0123029
918.271	0.0122356
918.349	0.0121162
918.427	0.0123013
918.505	0.0121528
918.583	0.0120881
918.661	0.0121329
918.739	0.0121310
918.818	0.0121004
918.896	0.0120349
918.974	0.0122318
919.052	0.0120846
919.130	0.0121155
919.208	0.0122531
919.286	0.0120975
919.364	0.0121339
919.443	0.0121561
919.521	0.0120489
919.599	0.0121317
919.677	0.0122276
919.755	0.0121964
919.833	0.0120086
919.911	0.0120367
919.989	0.0122404
920.068	0.0121096
920.146	0.0121321
920.224	0.0121480
920.302	0.0120419
920.380	0.0120602
920.458	0.0122310
920.536	0.0121066
920.614	0.0121564
920.693	0.0121291
920.771	0.0120664
920.849	0.0121037
920.927	0.0122060
921.005	0.0121180
921.083	0.0121144
921.161	0.0120746
921.239	0.0122183
921.318	0.0122369
921.396	0.0120122
921.474	0.0120869
921.552	0.0121785
921.630	0.0120979
921.708	0.0121358
921.786	0.0121060
921.864	0.0120924
921.943	0.0120927
922.021	0.0121678
922.099	0.0121747
922.177	0.0120091
922.255	0.0121538
922.333	0.0121871
922.411	0.0122496
922.489	0.0121220
922.568	0.0121967
922.646	0.0120599
922.724	0.0119466
922.802	0.0121613
922.880	0.0123090
922.958	0.0122071
923.036	0.0121762
923.114	0.0122470
923.193	0.0121077
923.271	0.0121394
923.349	0.0121610
923.427	0.0120222
923.505	0.0122160
923.583	0.0121059
923.661	0.0121620
923.739	0.0121304
923.818	0.0122211
923.896	0.0121044
923.974	0.0121897
924.052	0.0121628
924.130	0.0121378
924.208	0.0122673
924.286	0.0121871
924.364	0.0121444
924.443	0.0121301
924.521	0.0121845
924.599	0.0121233
924.677	0.0121542
924.755	0.0121667
924.833	0.0121731
924.911	0.0120961
924.989	0.0122940
925.068	0.0122365
925.146	0.0120399
925.224	0.0121854
925.302	0.0121293
925.380	0.0122865
925.458	0.0121918
925.536	0.0121715
925.614	0.0121484
925.693	0.0122013
925.771	0.0122788
925.849	0.0122777
925.927	0.0121865
926.005	0.0122424
926.083	0.0123332
926.161	0.0123215
926.239	0.0122475
926.318	0.0121697
926.396	0.0122744
926.474	0.0122968
926.552	0.0122584
926.630	0.0121677
926.708	0.0122161
926.786	0.0122989
926.864	0.0122635
926.943	0.0121583
927.021	0.0121173
927.099	0.0121196
927.177	0.0121584
927.255	0.0121548
927.333	0.0121040
927.411	0.0121530
927.489	0.0121857
927.568	0.0120730
927.646	0.0121901
927.724	0.0122877
927.802	0.0121211
927.880	0.0121028
927.958	0.0121166
928.036	0.0121769
928.114	0.0120446
928.193	0.0123149
928.271	0.0120791
928.349	0.0120786
928.427	0.0121964
928.505	0.0120393
928.583	0.0121819
928.661	0.0121509
928.739	0.0121715
928.818	0.0120964
928.896	0.0121201
928.974	0.0122118
929.052	0.0122330
929.130	0.0120761
929.208	0.0120847
929.286	0.0121697
929.364	0.0122566
929.443	0.0124358
929.521	0.0120847
929.599	0.0122229
929.677	0.0122446
929.755	0.0123564
929.833	0.0122617
929.911	0.0124356
929.989	0.0123598
930.068	0.0122694
930.146	0.0123376
930.224	0.0122832
930.302	0.0122415
930.380	0.0122764
930.458	0.0123425
930.536	0.0123552
930.614	0.0122189
930.693	0.0122698
930.771	0.0123048
930.849	0.0123933
930.927	0.0121226
931.005	0.0121751
931.083	0.0121977
931.161	0.0121957
931.239	0.0122541
931.318	0.0120839
931.396	0.0122543
931.474	0.0121290
931.552	0.0122301
931.630	0.0123492
931.708	0.0120801
931.786	0.0120440
931.864	0.0122775
931.943	0.0122408
932.021	0.0121503
932.099	0.0121774
932.177	0.0121876
932.255	0.0122948
932.333	0.0122611
932.411	0.0121247
932.489	0.0122283
932.568	0.0122647
932.646	0.0122510
932.724	0.0120618
932.802	0.0122664
932.880	0.0122408
932.958	0.0122665
933.036	0.0121886
933.114	0.0123754
933.193	0.0122781
933.271	0.0122746
933.349	0.0123987
933.427	0.0122726
933.505	0.0122694
933.583	0.0122246
933.661	0.0122936
933.739	0.0123228
933.818	0.0122581
933.896	0.0123244
933.974	0.0123820
934.052	0.0122449
934.130	0.0122720
934.208	0.0123081
934.286	0.0122629
934.364	0.0122943
934.443	0.0123128
934.521	0.0122650
934.599	0.0121370
934.677	0.0122426
934.755	0.0121975
934.833	0.0121289
934.911	0.0122117
934.989	0.0122281
935.068	0.0121810
935.146	0.0122575
935.224	0.0122085
935.302	0.0121909
935.380	0.0122794
935.458	0.0122188
935.536	0.0123067
935.614	0.0122673
935.693	0.0123014
935.771	0.0122046
935.849	0.0123749
935.927	0.0123741
936.005	0.0122660
936.083	0.0122575
936.161	0.0123345
936.239	0.0124075
936.318	0.0124126
936.396	0.0124933
936.474	0.0122695
936.552	0.0121820
936.630	0.0122871
936.708	0.0123709
936.786	0.0122803
936.864	0.0123643
936.943	0.0122935
937.021	0.0122800
937.099	0.0122466
937.177	0.0122484
937.255	0.0122184
937.333	0.0122369
937.411	0.0122097
937.489	0.0121785
937.568	0.0120638
937.646	0.0122325
937.724	0.0122913
937.802	0.0121322
937.880	0.0121120
937.958	0.0121614
938.036	0.0121200
938.114	0.0121610
938.193	0.0121838
938.271	0.0122588
938.349	0.0121205
938.427	0.0121517
938.505	0.0120725
938.583	0.0121403
938.661	0.0122277
938.739	0.0121164
938.818	0.0120437
938.896	0.0122605
938.974	0.0121577
939.052	0.0120654
939.130	0.0121591
939.208	0.0121925
939.286	0.0123111
939.364	0.0121803
939.443	0.0122670
939.521	0.0122080
939.599	0.0123264
939.677	0.0123497
939.755	0.0121729
939.833	0.0122765
939.911	0.0122671
939.989	0.0123055
940.068	0.0122086
940.146	0.0121955
940.224	0.0123070
940.302	0.0122661
940.380	0.0122314
940.458	0.0123763
940.536	0.0122764
940.614	0.0123482
940.693	0.0122999
940.771	0.0121959
940.849	0.0122748
940.927	0.0122609
941.005	0.0123235
941.083	0.0122850
941.161	0.0122849
941.239	0.0123123
941.318	0.0124055
941.396	0.0124255
941.474	0.0122024
941.552	0.0121214
941.630	0.0122338
941.708	0.0123623
941.786	0.0121271
941.864	0.0123002
941.943	0.0122004
942.021	0.0121861
942.099	0.0121238
942.177	0.0120930
942.255	0.0120831
942.333	0.0122117
942.411	0.0122324
942.489	0.0122092
942.568	0.0122150
942.646	0.0120844
942.724	0.0121983
942.802	0.0122437
942.880	0.0122933
942.958	0.0122475
943.036	0.0122600
943.114	0.0122716
943.193	0.0123687
943.271	0.0122541
943.349	0.0123739
943.427	0.0123017
943.505	0.0122014
943.583	0.0122746
943.661	0.0123201
943.739	0.0122240
943.818	0.0123152
943.896	0.0122469
943.974	0.0123353
944.052	0.0123598
944.130	0.0123254
944.208	0.0121422
944.286	0.0123005
944.364	0.0123029
944.443	0.0122345
944.521	0.0123994
944.599	0.0123458
944.677	0.0122734
944.755	0.0122868
944.833	0.0125040
944.911	0.0122768
944.989	0.0122283
945.068	0.0122842
945.146	0.0122944
945.224	0.0121988
945.302	0.0122134
945.380	0.0121355
945.458	0.0122680
945.536	0.0122242
945.614	0.0121813
945.693	0.0120893
945.771	0.0120147
945.849	0.0121222
945.927	0.0120474
946.005	0.0120607
946.083	0.0121420
946.161	0.0120863
946.239	0.0120143
946.318	0.0120077
946.396	0.0120075
946.474	0.0122240
946.552	0.0121044
946.630	0.0120157
946.708	0.0120564
946.786	0.0121170
946.864	0.0122244
946.943	0.0121444
947.021	0.0121407
947.099	0.0121904
947.177	0.0121924
947.255	0.0123111
947.333	0.0122057
947.411	0.0121991
947.489	0.0121626
947.568	0.0122667
947.646	0.0123419
947.724	0.0122293
947.802	0.0123608
947.880	0.0123141
947.958	0.0122578
948.036	0.0122745
948.114	0.0122634
948.193	0.0123260
948.271	0.0122443
948.349	0.0124361
948.427	0.0122579
948.505	0.0122755
948.583	0.0123218
948.661	0.0122721
948.739	0.0123064
948.818	0.0123186
948.896	0.0122193
948.974	0.0122790
949.052	0.0125012
949.130	0.0122195
949.208	0.0122610
949.286	0.0122441
949.364	0.0122691
949.443	0.0122566
949.521	0.0122384
949.599	0.0124316
949.677	0.0123357
949.755	0.0122865
949.833	0.0122610
949.911	0.0123029
949.989	0.0123158
950.068	0.0123240
950.146	0.0122247
950.224	0.0122877
950.302	0.0121253
950.380	0.0122398
950.458	0.0122306
950.536	0.0122766
950.614	0.0123317
950.693	0.0121272
950.771	0.0122307
950.849	0.0120899
950.927	0.0121279
951.005	0.0120979
951.083	0.0123070
951.161	0.0122234
951.239	0.0123460
951.318	0.0122910
951.396	0.0123110
951.474	0.0123253
951.552	0.0123352
951.630	0.0123323
951.708	0.0123258
951.786	0.0123005
951.864	0.0123137
951.943	0.0123437
952.021	0.0123205
952.099	0.0123584
952.177	0.0123166
952.255	0.0122630
952.333	0.0123827
952.411	0.0123011
952.489	0.0123116
952.568	0.0123089
952.646	0.0123338
952.724	0.0122603
952.802	0.0122745
952.880	0.0122632
952.958	0.0123044
953.036	0.0122417
953.114	0.0122661
953.193	0.0123191
953.271	0.0122016
953.349	0.0121951
953.427	0.0122812
953.505	0.0122077
953.583	0.0122569
953.661	0.0121731
953.739	0.0122444
953.818	0.0122195
953.896	0.0121953
953.974	0.0122279
954.052	0.0122229
954.130	0.0120840
954.208	0.0122507
954.286	0.0120992
954.364	0.0122512
954.443	0.0121722
954.521	0.0121432
954.599	0.0121101
954.677	0.0120554
954.755	0.0122567
954.833	0.0121781
954.911	0.0121352
954.989	0.0122832
955.068	0.0122780
955.146	0.0120988
955.224	0.0122350
955.302	0.0122614
955.380	0.0121312
955.458	0.0122611
955.536	0.0123038
955.614	0.0122009
955.693	0.0120811
955.771	0.0122220
955.849	0.0121382
955.927	0.0121346
956.005	0.0122086
956.083	0.0121955
956.161	0.0120914
956.239	0.0121140
956.318	0.0123502
956.396	0.0121990
956.474	0.0121077
956.552	0.0122309
956.630	0.0121725
956.708	0.0121249
956.786	0.0123216
956.864	0.0121107
956.943	0.0122521
957.021	0.0122322
957.099	0.0121051
957.177	0.0121471
957.255	0.0121706
957.333	0.0122959
957.411	0.0124084
957.489	0.0121809
957.568	0.0121587
957.646	0.0122105
957.724	0.0121863
957.802	0.0122660
957.880	0.0122417
957.958	0.0123396
958.036	0.0122956
958.114	0.0122760
958.193	0.0122184
958.271	0.0123248
958.349	0.0123679
958.427	0.0123150
958.505	0.0120970
958.583	0.0122671
958.661	0.0124681
958.739	0.0123042
958.818	0.0122185
958.896	0.0122302
958.974	0.0123337
959.052	0.0123396
959.130	0.0123388
959.208	0.0122818
959.286	0.0123434
959.364	0.0122790
959.443	0.0123323
959.521	0.0123315
959.599	0.0122878
959.677	0.0122438
959.755	0.0122340
959.833	0.0122311
959.911	0.0122420
