05/07/2022	17:33:48	Ver.	4.1	UNKNOWN
Optical Delay	639.989416	Delta X		0.078125	Sweeps	1	Scan Rate	0/0
Coordinates	Axis 1	NaN	Axis 2	NaN	Axis 3	NaN	Axis 4	NaN	Axis 5	NaN	Axis 6	0.000000
TX Power	0.000000	RX Power	0.000000

639.989	0.0133577
640.068	0.0132428
640.146	0.0132658
640.224	0.0133502
640.302	0.0133672
640.380	0.0133554
640.458	0.0133085
640.536	0.0133622
640.614	0.0133588
640.693	0.0134566
640.771	0.0133514
640.849	0.0133218
640.927	0.0132161
641.005	0.0133419
641.083	0.0134308
641.161	0.0131618
641.239	0.0133585
641.318	0.0135196
641.396	0.0133858
641.474	0.0134766
641.552	0.0133150
641.630	0.0133574
641.708	0.0133813
641.786	0.0133837
641.864	0.0134402
641.943	0.0135937
642.021	0.0134573
642.099	0.0133592
642.177	0.0135135
642.255	0.0135020
642.333	0.0134844
642.411	0.0134246
642.489	0.0132363
642.568	0.0135193
642.646	0.0133434
642.724	0.0134319
642.802	0.0135014
642.880	0.0133127
642.958	0.0132439
643.036	0.0134505
643.114	0.0134042
643.193	0.0135014
643.271	0.0134789
643.349	0.0133531
643.427	0.0135450
643.505	0.0134942
643.583	0.0133985
643.661	0.0133204
643.739	0.0134968
643.818	0.0134742
643.896	0.0134818
643.974	0.0134676
644.052	0.0133595
644.130	0.0134406
644.208	0.0134973
644.286	0.0135026
644.364	0.0135077
644.443	0.0133297
644.521	0.0133689
644.599	0.0134442
644.677	0.0135136
644.755	0.0135371
644.833	0.0134689
644.911	0.0136195
644.989	0.0135456
645.068	0.0135706
645.146	0.0135865
645.224	0.0135258
645.302	0.0136537
645.380	0.0136635
645.458	0.0134840
645.536	0.0134432
645.614	0.0133342
645.693	0.0135179
645.771	0.0135319
645.849	0.0134502
645.927	0.0134388
646.005	0.0133966
646.083	0.0134432
646.161	0.0133258
646.239	0.0132664
646.318	0.0132555
646.396	0.0133543
646.474	0.0132601
646.552	0.0133875
646.630	0.0133909
646.708	0.0134494
646.786	0.0134493
646.864	0.0134982
646.943	0.0134220
647.021	0.0134572
647.099	0.0134751
647.177	0.0135403
647.255	0.0135478
647.333	0.0137142
647.411	0.0136973
647.489	0.0136895
647.568	0.0137284
647.646	0.0136724
647.724	0.0136432
647.802	0.0137698
647.880	0.0137099
647.958	0.0137004
648.036	0.0137559
648.114	0.0137569
648.193	0.0134906
648.271	0.0136232
648.349	0.0137223
648.427	0.0134981
648.505	0.0134932
648.583	0.0136586
648.661	0.0135665
648.739	0.0135638
648.818	0.0133355
648.896	0.0133782
648.974	0.0133773
649.052	0.0133389
649.130	0.0134885
649.208	0.0133225
649.286	0.0132491
649.364	0.0131078
649.443	0.0131334
649.521	0.0131284
649.599	0.0129860
649.677	0.0132518
649.755	0.0132013
649.833	0.0131197
649.911	0.0131741
649.989	0.0131522
650.068	0.0133031
650.146	0.0133496
650.224	0.0133414
650.302	0.0133559
650.380	0.0134350
650.458	0.0136115
650.536	0.0134747
650.614	0.0136750
650.693	0.0137310
650.771	0.0138097
650.849	0.0137681
650.927	0.0139237
651.005	0.0140449
651.083	0.0139208
651.161	0.0140938
651.239	0.0142142
651.318	0.0143374
651.396	0.0143670
651.474	0.0141503
651.552	0.0141234
651.630	0.0142953
651.708	0.0141484
651.786	0.0139394
651.864	0.0139391
651.943	0.0137144
652.021	0.0136802
652.099	0.0134193
652.177	0.0133643
652.255	0.0131435
652.333	0.0130443
652.411	0.0130333
652.489	0.0128323
652.568	0.0127209
652.646	0.0128039
652.724	0.0124783
652.802	0.0124299
652.880	0.0123855
652.958	0.0125191
653.036	0.0124930
653.114	0.0124049
653.193	0.0124375
653.271	0.0124786
653.349	0.0126445
653.427	0.0126295
653.505	0.0128480
653.583	0.0129066
653.661	0.0129816
653.739	0.0133367
653.818	0.0134887
653.896	0.0135922
653.974	0.0137671
654.052	0.0138239
654.130	0.0140266
654.208	0.0142470
654.286	0.0143419
654.364	0.0144973
654.443	0.0145312
654.521	0.0148477
654.599	0.0149580
654.677	0.0148521
654.755	0.0149783
654.833	0.0150346
654.911	0.0149683
654.989	0.0150420
655.068	0.0148314
655.146	0.0147013
655.224	0.0145359
655.302	0.0144547
655.380	0.0141455
655.458	0.0139741
655.536	0.0136847
655.614	0.0133356
655.693	0.0131446
655.771	0.0128665
655.849	0.0128284
655.927	0.0124995
656.005	0.0123571
656.083	0.0121702
656.161	0.0119258
656.239	0.0119477
656.318	0.0117500
656.396	0.0115643
656.474	0.0116302
656.552	0.0114695
656.630	0.0113499
656.708	0.0115779
656.786	0.0117165
656.864	0.0116110
656.943	0.0118169
657.021	0.0118992
657.099	0.0123000
657.177	0.0125082
657.255	0.0129222
657.333	0.0129586
657.411	0.0132629
657.489	0.0135526
657.568	0.0137572
657.646	0.0140776
657.724	0.0143581
657.802	0.0145650
657.880	0.0148470
657.958	0.0149334
658.036	0.0151762
658.114	0.0151460
658.193	0.0153201
658.271	0.0154630
658.349	0.0154537
658.427	0.0154833
658.505	0.0152930
658.583	0.0153178
658.661	0.0152341
658.739	0.0150334
658.818	0.0149268
658.896	0.0146818
658.974	0.0144044
659.052	0.0141866
659.130	0.0138830
659.208	0.0136227
659.286	0.0133276
659.364	0.0133078
659.443	0.0129630
659.521	0.0128774
659.599	0.0127589
659.677	0.0125607
659.755	0.0123815
659.833	0.0122308
659.911	0.0122462
659.989	0.0119368
660.068	0.0119319
660.146	0.0119257
660.224	0.0117928
660.302	0.0117574
660.380	0.0117986
660.458	0.0119411
660.536	0.0118597
660.614	0.0119361
660.693	0.0120726
660.771	0.0120318
660.849	0.0121266
660.927	0.0122297
661.005	0.0123254
661.083	0.0123656
661.161	0.0124271
661.239	0.0125898
661.318	0.0129182
661.396	0.0128693
661.474	0.0130126
661.552	0.0131650
661.630	0.0132841
661.708	0.0134431
661.786	0.0137529
661.864	0.0139814
661.943	0.0140097
662.021	0.0142439
662.099	0.0144522
662.177	0.0147253
662.255	0.0147720
662.333	0.0148534
662.411	0.0150986
662.489	0.0151646
662.568	0.0151884
662.646	0.0153282
662.724	0.0153138
662.802	0.0153173
662.880	0.0152958
662.958	0.0152387
663.036	0.0151086
663.114	0.0150533
663.193	0.0150472
663.271	0.0149209
663.349	0.0147289
663.427	0.0145982
663.505	0.0144402
663.583	0.0141898
663.661	0.0139867
663.739	0.0137428
663.818	0.0136081
663.896	0.0131670
663.974	0.0129766
664.052	0.0127414
664.130	0.0125522
664.208	0.0123303
664.286	0.0119520
664.364	0.0119285
664.443	0.0116609
664.521	0.0114930
664.599	0.0112054
664.677	0.0113134
664.755	0.0112108
664.833	0.0110358
664.911	0.0109542
664.989	0.0112068
665.068	0.0112253
665.146	0.0111874
665.224	0.0115833
665.302	0.0116660
665.380	0.0115205
665.458	0.0120145
665.536	0.0122639
665.614	0.0124513
665.693	0.0125830
665.771	0.0128608
665.849	0.0131744
665.927	0.0133808
666.005	0.0136974
666.083	0.0139225
666.161	0.0143114
666.239	0.0143985
666.318	0.0146021
666.396	0.0148380
666.474	0.0151727
666.552	0.0152872
666.630	0.0153592
666.708	0.0157373
666.786	0.0158163
666.864	0.0157586
666.943	0.0157224
667.021	0.0158163
667.099	0.0158888
667.177	0.0156820
667.255	0.0157624
667.333	0.0157565
667.411	0.0155770
667.489	0.0153873
667.568	0.0152715
667.646	0.0151763
667.724	0.0149072
667.802	0.0145986
667.880	0.0144186
667.958	0.0141963
668.036	0.0137921
668.114	0.0136669
668.193	0.0134155
668.271	0.0132291
668.349	0.0130109
668.427	0.0125533
668.505	0.0121995
668.583	0.0120713
668.661	0.0118867
668.739	0.0115782
668.818	0.0114716
668.896	0.0113551
668.974	0.0113173
669.052	0.0112051
669.130	0.0109938
669.208	0.0110899
669.286	0.0112132
669.364	0.0111665
669.443	0.0112608
669.521	0.0113441
669.599	0.0114678
669.677	0.0115678
669.755	0.0119726
669.833	0.0119437
669.911	0.0121346
669.989	0.0123456
670.068	0.0126276
670.146	0.0129433
670.224	0.0131957
670.302	0.0133827
670.380	0.0134992
670.458	0.0137823
670.536	0.0139599
670.614	0.0140440
670.693	0.0143035
670.771	0.0145274
670.849	0.0145955
670.927	0.0147168
671.005	0.0149201
671.083	0.0149543
671.161	0.0150066
671.239	0.0152130
671.318	0.0153716
671.396	0.0152458
671.474	0.0155331
671.552	0.0154670
671.630	0.0153703
671.708	0.0154426
671.786	0.0154339
671.864	0.0153613
671.943	0.0154060
672.021	0.0153011
672.099	0.0152042
672.177	0.0151477
672.255	0.0149969
672.333	0.0149899
672.411	0.0146542
672.489	0.0147016
672.568	0.0144546
672.646	0.0140829
672.724	0.0140306
672.802	0.0136811
672.880	0.0135978
672.958	0.0131695
673.036	0.0127583
673.114	0.0127535
673.193	0.0122666
673.271	0.0120200
673.349	0.0116849
673.427	0.0115362
673.505	0.0111726
673.583	0.0109087
673.661	0.0108263
673.739	0.0108818
673.818	0.0106028
673.896	0.0106202
673.974	0.0105592
674.052	0.0105541
674.130	0.0107652
674.208	0.0107974
674.286	0.0109637
674.364	0.0114530
674.443	0.0116091
674.521	0.0118158
674.599	0.0122239
674.677	0.0127448
674.755	0.0131980
674.833	0.0135316
674.911	0.0139088
674.989	0.0143608
675.068	0.0146977
675.146	0.0151667
675.224	0.0154787
675.302	0.0156667
675.380	0.0158720
675.458	0.0161369
675.536	0.0163534
675.614	0.0164614
675.693	0.0165067
675.771	0.0163968
675.849	0.0163918
675.927	0.0161621
676.005	0.0158282
676.083	0.0156118
676.161	0.0154000
676.239	0.0150690
676.318	0.0146296
676.396	0.0143538
676.474	0.0139538
676.552	0.0135689
676.630	0.0132658
676.708	0.0129021
676.786	0.0126515
676.864	0.0123429
676.943	0.0124182
677.021	0.0122024
677.099	0.0118558
677.177	0.0120102
677.255	0.0120499
677.333	0.0119167
677.411	0.0118689
677.489	0.0120790
677.568	0.0122765
677.646	0.0124548
677.724	0.0125053
677.802	0.0128265
677.880	0.0128557
677.958	0.0131248
678.036	0.0132867
678.114	0.0134019
678.193	0.0136478
678.271	0.0137521
678.349	0.0137868
678.427	0.0138811
678.505	0.0140203
678.583	0.0139670
678.661	0.0138224
678.739	0.0138201
678.818	0.0138905
678.896	0.0136975
678.974	0.0136230
679.052	0.0134450
679.130	0.0133820
679.208	0.0132983
679.286	0.0130864
679.364	0.0129688
679.443	0.0129832
679.521	0.0128429
679.599	0.0128684
679.677	0.0128046
679.755	0.0129308
679.833	0.0128739
679.911	0.0129534
679.989	0.0128904
680.068	0.0132235
680.146	0.0132941
680.224	0.0134554
680.302	0.0136974
680.380	0.0136810
680.458	0.0139526
680.536	0.0140887
680.614	0.0143915
680.693	0.0144888
680.771	0.0145582
680.849	0.0145491
680.927	0.0144647
681.005	0.0145663
681.083	0.0145570
681.161	0.0145379
681.239	0.0142210
681.318	0.0141871
681.396	0.0140462
681.474	0.0138035
681.552	0.0138552
681.630	0.0136703
681.708	0.0132437
681.786	0.0130358
681.864	0.0130026
681.943	0.0126338
682.021	0.0125346
682.099	0.0122172
682.177	0.0123144
682.255	0.0122728
682.333	0.0123120
682.411	0.0122624
682.489	0.0122786
682.568	0.0124896
682.646	0.0126255
682.724	0.0127342
682.802	0.0129177
682.880	0.0131870
682.958	0.0133981
683.036	0.0136990
683.114	0.0138130
683.193	0.0140695
683.271	0.0141635
683.349	0.0143398
683.427	0.0145393
683.505	0.0146152
683.583	0.0146817
683.661	0.0147047
683.739	0.0145656
683.818	0.0143595
683.896	0.0143778
683.974	0.0143572
684.052	0.0139561
684.130	0.0138068
684.208	0.0135535
684.286	0.0132680
684.364	0.0131351
684.443	0.0128207
684.521	0.0124809
684.599	0.0122535
684.677	0.0122369
684.755	0.0119802
684.833	0.0117570
684.911	0.0117781
684.989	0.0116870
685.068	0.0117408
685.146	0.0117726
685.224	0.0119710
685.302	0.0121017
685.380	0.0124595
685.458	0.0126994
685.536	0.0129116
685.614	0.0131776
685.693	0.0134890
685.771	0.0137923
685.849	0.0141341
685.927	0.0144622
686.005	0.0147530
686.083	0.0150253
686.161	0.0152630
686.239	0.0152719
686.318	0.0154321
686.396	0.0155081
686.474	0.0155035
686.552	0.0155791
686.630	0.0156318
686.708	0.0155182
686.786	0.0151105
686.864	0.0150022
686.943	0.0146426
687.021	0.0142178
687.099	0.0140445
687.177	0.0136001
687.255	0.0133585
687.333	0.0129748
687.411	0.0124589
687.489	0.0123251
687.568	0.0118254
687.646	0.0118839
687.724	0.0116681
687.802	0.0113653
687.880	0.0112325
687.958	0.0112228
688.036	0.0114024
688.114	0.0115472
688.193	0.0115028
688.271	0.0115684
688.349	0.0117810
688.427	0.0120057
688.505	0.0122695
688.583	0.0125834
688.661	0.0129065
688.739	0.0130954
688.818	0.0135781
688.896	0.0137956
688.974	0.0139650
689.052	0.0141592
689.130	0.0144787
689.208	0.0146507
689.286	0.0146971
689.364	0.0147529
689.443	0.0148980
689.521	0.0149101
689.599	0.0148598
689.677	0.0148502
689.755	0.0147268
689.833	0.0147072
689.911	0.0145856
689.989	0.0144983
690.068	0.0142763
690.146	0.0140932
690.224	0.0139399
690.302	0.0139561
690.380	0.0137226
690.458	0.0136081
690.536	0.0136340
690.614	0.0134278
690.693	0.0135049
690.771	0.0134924
690.849	0.0132284
690.927	0.0133660
691.005	0.0134691
691.083	0.0135188
691.161	0.0135665
691.239	0.0135488
691.318	0.0136494
691.396	0.0136246
691.474	0.0135558
691.552	0.0137874
691.630	0.0137931
691.708	0.0139439
691.786	0.0139635
691.864	0.0138444
691.943	0.0139951
692.021	0.0137783
692.099	0.0137447
692.177	0.0135961
692.255	0.0133932
692.333	0.0132900
692.411	0.0131950
692.489	0.0131017
692.568	0.0129397
692.646	0.0127743
692.724	0.0127254
692.802	0.0125092
692.880	0.0123462
692.958	0.0122586
693.036	0.0120679
693.114	0.0121229
693.193	0.0120699
693.271	0.0119322
693.349	0.0118265
693.427	0.0121609
693.505	0.0122130
693.583	0.0120334
693.661	0.0123101
693.739	0.0124531
693.818	0.0126695
693.896	0.0127631
693.974	0.0131180
694.052	0.0133103
694.130	0.0136142
694.208	0.0138087
694.286	0.0139394
694.364	0.0141414
694.443	0.0143598
694.521	0.0145695
694.599	0.0146750
694.677	0.0148125
694.755	0.0149323
694.833	0.0150867
694.911	0.0149929
694.989	0.0151242
695.068	0.0151102
695.146	0.0151785
695.224	0.0150542
695.302	0.0146732
695.380	0.0148026
695.458	0.0147585
695.536	0.0145705
695.614	0.0143947
695.693	0.0143074
695.771	0.0141291
695.849	0.0139801
695.927	0.0138316
696.005	0.0136288
696.083	0.0135061
696.161	0.0133768
696.239	0.0133108
696.318	0.0132722
696.396	0.0131026
696.474	0.0128818
696.552	0.0127451
696.630	0.0127544
696.708	0.0125698
696.786	0.0124559
696.864	0.0124185
696.943	0.0123897
697.021	0.0124976
697.099	0.0122775
697.177	0.0124255
697.255	0.0124912
697.333	0.0126050
697.411	0.0125784
697.489	0.0127385
697.568	0.0128534
697.646	0.0129006
697.724	0.0131151
697.802	0.0129948
697.880	0.0131025
697.958	0.0133263
698.036	0.0134397
698.114	0.0134332
698.193	0.0135146
698.271	0.0136553
698.349	0.0135051
698.427	0.0137246
698.505	0.0137105
698.583	0.0138614
698.661	0.0137630
698.739	0.0138054
698.818	0.0138287
698.896	0.0138759
698.974	0.0137561
699.052	0.0137577
699.130	0.0139095
699.208	0.0138599
699.286	0.0138217
699.364	0.0138648
699.443	0.0137095
699.521	0.0137992
699.599	0.0137475
699.677	0.0136337
699.755	0.0135463
699.833	0.0136292
699.911	0.0134991
699.989	0.0132507
700.068	0.0133015
700.146	0.0133083
700.224	0.0134536
700.302	0.0133955
700.380	0.0132874
700.458	0.0132748
700.536	0.0133810
700.614	0.0133659
700.693	0.0134238
700.771	0.0134914
700.849	0.0135757
700.927	0.0136630
701.005	0.0137779
701.083	0.0138155
701.161	0.0138461
701.239	0.0139960
701.318	0.0141931
701.396	0.0140927
701.474	0.0142904
701.552	0.0143229
701.630	0.0143527
701.708	0.0144714
701.786	0.0144511
701.864	0.0142542
701.943	0.0143526
702.021	0.0141808
702.099	0.0141866
702.177	0.0143216
702.255	0.0143329
702.333	0.0139349
702.411	0.0138836
702.489	0.0137830
702.568	0.0136234
702.646	0.0135869
702.724	0.0134959
702.802	0.0134319
702.880	0.0134240
702.958	0.0133056
703.036	0.0131668
703.114	0.0131393
703.193	0.0130608
703.271	0.0130096
703.349	0.0130026
703.427	0.0129175
703.505	0.0129114
703.583	0.0129002
703.661	0.0129133
703.739	0.0128426
703.818	0.0129482
703.896	0.0129065
703.974	0.0129350
704.052	0.0130243
704.130	0.0130615
704.208	0.0131887
704.286	0.0131326
704.364	0.0131410
704.443	0.0131345
704.521	0.0132195
704.599	0.0131433
704.677	0.0132225
704.755	0.0133476
704.833	0.0132402
704.911	0.0132560
704.989	0.0131614
705.068	0.0132034
705.146	0.0131725
705.224	0.0133353
705.302	0.0133211
705.380	0.0132761
705.458	0.0134052
705.536	0.0132287
705.614	0.0133071
705.693	0.0134848
705.771	0.0133353
705.849	0.0132638
705.927	0.0133496
706.005	0.0134328
706.083	0.0133260
706.161	0.0133949
706.239	0.0134943
706.318	0.0135555
706.396	0.0135959
706.474	0.0136066
706.552	0.0137612
706.630	0.0139377
706.708	0.0139400
706.786	0.0140448
706.864	0.0141251
706.943	0.0142860
707.021	0.0144241
707.099	0.0146077
707.177	0.0147768
707.255	0.0147785
707.333	0.0148808
707.411	0.0150247
707.489	0.0148184
707.568	0.0149047
707.646	0.0149648
707.724	0.0149449
707.802	0.0150112
707.880	0.0146199
707.958	0.0144234
708.036	0.0143839
708.114	0.0141989
708.193	0.0139519
708.271	0.0138400
708.349	0.0136724
708.427	0.0133739
708.505	0.0132444
708.583	0.0128999
708.661	0.0125004
708.739	0.0123377
708.818	0.0123399
708.896	0.0121434
708.974	0.0121770
709.052	0.0119437
709.130	0.0118997
709.208	0.0118140
709.286	0.0118145
709.364	0.0118209
709.443	0.0118962
709.521	0.0119145
709.599	0.0119127
709.677	0.0121476
709.755	0.0123013
709.833	0.0123392
709.911	0.0124378
709.989	0.0128029
710.068	0.0128808
710.146	0.0130042
710.224	0.0131522
710.302	0.0133624
710.380	0.0134841
710.458	0.0136226
710.536	0.0137574
710.614	0.0138194
710.693	0.0139246
710.771	0.0140825
710.849	0.0141010
710.927	0.0142037
711.005	0.0140873
711.083	0.0142761
711.161	0.0140711
711.239	0.0140910
711.318	0.0139889
711.396	0.0140789
711.474	0.0139262
711.552	0.0138742
711.630	0.0137324
711.708	0.0137553
711.786	0.0137105
711.864	0.0135898
711.943	0.0135002
712.021	0.0134369
712.099	0.0134319
712.177	0.0132043
712.255	0.0133466
712.333	0.0133408
712.411	0.0133575
712.489	0.0131821
712.568	0.0132437
712.646	0.0133459
712.724	0.0135241
712.802	0.0135247
712.880	0.0136851
712.958	0.0137073
713.036	0.0138786
713.114	0.0140204
713.193	0.0139815
713.271	0.0141055
713.349	0.0141956
713.427	0.0142669
713.505	0.0143288
713.583	0.0142826
713.661	0.0143388
713.739	0.0141375
713.818	0.0141000
713.896	0.0140266
713.974	0.0141695
714.052	0.0139366
714.130	0.0138670
714.208	0.0137785
714.286	0.0134615
714.364	0.0134230
714.443	0.0132970
714.521	0.0131898
714.599	0.0130367
714.677	0.0129321
714.755	0.0127851
714.833	0.0126828
714.911	0.0126342
714.989	0.0125930
715.068	0.0125087
715.146	0.0123055
715.224	0.0123158
715.302	0.0123583
715.380	0.0124245
715.458	0.0124580
715.536	0.0124947
715.614	0.0126078
715.693	0.0126250
715.771	0.0128764
715.849	0.0128113
715.927	0.0127156
716.005	0.0128554
716.083	0.0130280
716.161	0.0129861
716.239	0.0130864
716.318	0.0131590
716.396	0.0133262
716.474	0.0133630
716.552	0.0133188
716.630	0.0133897
716.708	0.0134440
716.786	0.0133587
716.864	0.0133612
716.943	0.0135426
717.021	0.0134828
717.099	0.0135180
717.177	0.0137421
717.255	0.0135336
717.333	0.0134670
717.411	0.0135820
717.489	0.0135267
717.568	0.0135957
717.646	0.0134882
717.724	0.0136079
717.802	0.0136267
717.880	0.0136474
717.958	0.0137560
718.036	0.0137249
718.114	0.0136835
718.193	0.0136921
718.271	0.0137820
718.349	0.0136882
718.427	0.0137939
718.505	0.0139491
718.583	0.0139129
718.661	0.0139024
718.739	0.0138649
718.818	0.0138033
718.896	0.0139072
718.974	0.0138507
719.052	0.0137915
719.130	0.0136356
719.208	0.0137508
719.286	0.0137640
719.364	0.0137170
719.443	0.0137172
719.521	0.0136913
719.599	0.0137730
719.677	0.0136845
719.755	0.0135563
719.833	0.0137227
719.911	0.0136411
719.989	0.0133923
720.068	0.0134878
720.146	0.0133879
720.224	0.0134360
720.302	0.0134119
720.380	0.0133987
720.458	0.0133878
720.536	0.0134341
720.614	0.0133105
720.693	0.0133522
720.771	0.0133894
720.849	0.0133618
720.927	0.0133488
721.005	0.0132619
721.083	0.0133937
721.161	0.0133221
721.239	0.0131812
721.318	0.0131338
721.396	0.0131890
721.474	0.0130787
721.552	0.0130591
721.630	0.0127715
721.708	0.0128311
721.786	0.0129015
721.864	0.0128492
721.943	0.0127914
722.021	0.0128865
722.099	0.0128546
722.177	0.0128234
722.255	0.0128881
722.333	0.0128781
722.411	0.0128792
722.489	0.0129451
722.568	0.0130825
722.646	0.0131068
722.724	0.0132488
722.802	0.0132201
722.880	0.0133518
722.958	0.0134835
723.036	0.0135244
723.114	0.0136114
723.193	0.0137377
723.271	0.0138143
723.349	0.0138693
723.427	0.0139839
723.505	0.0140514
723.583	0.0140568
723.661	0.0138697
723.739	0.0140820
723.818	0.0141206
723.896	0.0140700
723.974	0.0140416
724.052	0.0141570
724.130	0.0141140
724.208	0.0141143
724.286	0.0141550
724.364	0.0141399
724.443	0.0140084
724.521	0.0139182
724.599	0.0139095
724.677	0.0138372
724.755	0.0137918
724.833	0.0137535
724.911	0.0138204
724.989	0.0136707
725.068	0.0135355
725.146	0.0135993
725.224	0.0135966
725.302	0.0137066
725.380	0.0136407
725.458	0.0136806
725.536	0.0136128
725.614	0.0135905
725.693	0.0135184
725.771	0.0136113
725.849	0.0135174
725.927	0.0135744
726.005	0.0136939
726.083	0.0137254
726.161	0.0137376
726.239	0.0136288
726.318	0.0133646
726.396	0.0135597
726.474	0.0136466
726.552	0.0134605
726.630	0.0136032
726.708	0.0133092
726.786	0.0134129
726.864	0.0134209
726.943	0.0134314
727.021	0.0133456
727.099	0.0133180
727.177	0.0132891
727.255	0.0132124
727.333	0.0130995
727.411	0.0131295
727.489	0.0130702
727.568	0.0129826
727.646	0.0129872
727.724	0.0131239
727.802	0.0129002
727.880	0.0128752
727.958	0.0130074
728.036	0.0129895
728.114	0.0129617
728.193	0.0131332
728.271	0.0131396
728.349	0.0131815
728.427	0.0131444
728.505	0.0131500
728.583	0.0133073
728.661	0.0133144
728.739	0.0132661
728.818	0.0133496
728.896	0.0133440
728.974	0.0134191
729.052	0.0133527
729.130	0.0134654
729.208	0.0135090
729.286	0.0135464
729.364	0.0134534
729.443	0.0136823
729.521	0.0136842
729.599	0.0136770
729.677	0.0137621
729.755	0.0137460
729.833	0.0137216
729.911	0.0137922
729.989	0.0137300
730.068	0.0137546
730.146	0.0137383
730.224	0.0135530
730.302	0.0135851
730.380	0.0134476
730.458	0.0135330
730.536	0.0134256
730.614	0.0134544
730.693	0.0133624
730.771	0.0133944
730.849	0.0133243
730.927	0.0134509
731.005	0.0133533
731.083	0.0133600
731.161	0.0133291
731.239	0.0134204
731.318	0.0134107
731.396	0.0135817
731.474	0.0136344
731.552	0.0136190
731.630	0.0136109
731.708	0.0135275
731.786	0.0135133
731.864	0.0136059
731.943	0.0137456
732.021	0.0137167
732.099	0.0135427
732.177	0.0136046
732.255	0.0136799
732.333	0.0135915
732.411	0.0134881
732.489	0.0135353
732.568	0.0134388
732.646	0.0133803
732.724	0.0133217
732.802	0.0134832
732.880	0.0133054
732.958	0.0133076
733.036	0.0130273
733.114	0.0132797
733.193	0.0131392
733.271	0.0132184
733.349	0.0131479
733.427	0.0131435
733.505	0.0131951
733.583	0.0131187
733.661	0.0131883
733.739	0.0131384
733.818	0.0130930
733.896	0.0131277
733.974	0.0132817
734.052	0.0131705
734.130	0.0132404
734.208	0.0131503
734.286	0.0133154
734.364	0.0133689
734.443	0.0132587
734.521	0.0134383
734.599	0.0132996
734.677	0.0134003
734.755	0.0133562
734.833	0.0134108
734.911	0.0132683
734.989	0.0134325
735.068	0.0134905
735.146	0.0133665
735.224	0.0133818
735.302	0.0134114
735.380	0.0134075
735.458	0.0135334
735.536	0.0133506
735.614	0.0134983
735.693	0.0134315
735.771	0.0133796
735.849	0.0134473
735.927	0.0134934
736.005	0.0134844
736.083	0.0134521
736.161	0.0133854
736.239	0.0134123
736.318	0.0133807
736.396	0.0133605
736.474	0.0133290
736.552	0.0133447
736.630	0.0133177
736.708	0.0131909
736.786	0.0131617
736.864	0.0133524
736.943	0.0132756
737.021	0.0132716
737.099	0.0132993
737.177	0.0132888
737.255	0.0132126
737.333	0.0133686
737.411	0.0134465
737.489	0.0135423
737.568	0.0134625
737.646	0.0133461
737.724	0.0135667
737.802	0.0137463
737.880	0.0136129
737.958	0.0137189
738.036	0.0137673
738.114	0.0138494
738.193	0.0139110
738.271	0.0138989
738.349	0.0139296
738.427	0.0138235
738.505	0.0138639
738.583	0.0138618
738.661	0.0137910
738.739	0.0135772
738.818	0.0138340
738.896	0.0138026
738.974	0.0136954
739.052	0.0136168
739.130	0.0136890
739.208	0.0134551
739.286	0.0135396
739.364	0.0134588
739.443	0.0134672
739.521	0.0134528
739.599	0.0133909
739.677	0.0133145
739.755	0.0134589
739.833	0.0131975
739.911	0.0132265
739.989	0.0130901
740.068	0.0131281
740.146	0.0132310
740.224	0.0132415
740.302	0.0131717
740.380	0.0132335
740.458	0.0132372
740.536	0.0132155
740.614	0.0132590
740.693	0.0132381
740.771	0.0131998
740.849	0.0131928
740.927	0.0132285
741.005	0.0131573
741.083	0.0131631
741.161	0.0132870
741.239	0.0132711
741.318	0.0132743
741.396	0.0131057
741.474	0.0131200
741.552	0.0132057
741.630	0.0131374
741.708	0.0130798
741.786	0.0132378
741.864	0.0132070
741.943	0.0132037
742.021	0.0132628
742.099	0.0134094
742.177	0.0134522
742.255	0.0134621
742.333	0.0133688
742.411	0.0134523
742.489	0.0134974
742.568	0.0136263
742.646	0.0135310
742.724	0.0136185
742.802	0.0135972
742.880	0.0135394
742.958	0.0135355
743.036	0.0135913
743.114	0.0137966
743.193	0.0136338
743.271	0.0135117
743.349	0.0135509
743.427	0.0135669
743.505	0.0135397
743.583	0.0135020
743.661	0.0135778
743.739	0.0134689
743.818	0.0135760
743.896	0.0134757
743.974	0.0133195
744.052	0.0135915
744.130	0.0133908
744.208	0.0133562
744.286	0.0132823
744.364	0.0134464
744.443	0.0134671
744.521	0.0134293
744.599	0.0133766
744.677	0.0134110
744.755	0.0134953
744.833	0.0135217
744.911	0.0135248
744.989	0.0135969
745.068	0.0135327
745.146	0.0136369
745.224	0.0135930
745.302	0.0135652
745.380	0.0136240
745.458	0.0135252
745.536	0.0134951
745.614	0.0136564
745.693	0.0136514
745.771	0.0136472
745.849	0.0135349
745.927	0.0133990
746.005	0.0135165
746.083	0.0135428
746.161	0.0133862
746.239	0.0134530
746.318	0.0134326
746.396	0.0132664
746.474	0.0134314
746.552	0.0134485
746.630	0.0133782
746.708	0.0134873
746.786	0.0134791
746.864	0.0134243
746.943	0.0133488
747.021	0.0134579
747.099	0.0134748
747.177	0.0134407
747.255	0.0134161
747.333	0.0134634
747.411	0.0133818
747.489	0.0133296
747.568	0.0132716
747.646	0.0134155
747.724	0.0135190
747.802	0.0134657
747.880	0.0134780
747.958	0.0133579
748.036	0.0134029
748.114	0.0132693
748.193	0.0133424
748.271	0.0134863
748.349	0.0133308
748.427	0.0132666
748.505	0.0133972
748.583	0.0133096
748.661	0.0134841
748.739	0.0133132
748.818	0.0133016
748.896	0.0134197
748.974	0.0133177
749.052	0.0134290
749.130	0.0132706
749.208	0.0133989
749.286	0.0135635
749.364	0.0134671
749.443	0.0133488
749.521	0.0133303
749.599	0.0135110
749.677	0.0135201
749.755	0.0134983
749.833	0.0135583
749.911	0.0134568
749.989	0.0133727
750.068	0.0134473
750.146	0.0135648
750.224	0.0134995
750.302	0.0135188
750.380	0.0135525
750.458	0.0136507
750.536	0.0135900
750.614	0.0136628
750.693	0.0135670
750.771	0.0137569
750.849	0.0137486
750.927	0.0138103
751.005	0.0135169
751.083	0.0137933
751.161	0.0138843
751.239	0.0139901
751.318	0.0137029
751.396	0.0138630
751.474	0.0139849
751.552	0.0140216
751.630	0.0140231
751.708	0.0140388
751.786	0.0138318
751.864	0.0137441
751.943	0.0138558
752.021	0.0137651
752.099	0.0138351
752.177	0.0134467
752.255	0.0135075
752.333	0.0136237
752.411	0.0134921
752.489	0.0135093
752.568	0.0133981
752.646	0.0132677
752.724	0.0133112
752.802	0.0131290
752.880	0.0131942
752.958	0.0130743
753.036	0.0131400
753.114	0.0128872
753.193	0.0129802
753.271	0.0130290
753.349	0.0130748
753.427	0.0130691
753.505	0.0129659
753.583	0.0130607
753.661	0.0132304
753.739	0.0131628
753.818	0.0131165
753.896	0.0131246
753.974	0.0131467
754.052	0.0133044
754.130	0.0132883
754.208	0.0132457
754.286	0.0132371
754.364	0.0133097
754.443	0.0131618
754.521	0.0131939
754.599	0.0133095
754.677	0.0132409
754.755	0.0132790
754.833	0.0134396
754.911	0.0133672
754.989	0.0132587
755.068	0.0133585
755.146	0.0135613
755.224	0.0136733
755.302	0.0135525
755.380	0.0136188
755.458	0.0136791
755.536	0.0137502
755.614	0.0137865
755.693	0.0138026
755.771	0.0138211
755.849	0.0138937
755.927	0.0138099
756.005	0.0138154
756.083	0.0138095
756.161	0.0137189
756.239	0.0136917
756.318	0.0136589
756.396	0.0135825
756.474	0.0135609
756.552	0.0135548
756.630	0.0134909
756.708	0.0134454
756.786	0.0133399
756.864	0.0133820
756.943	0.0132481
757.021	0.0131369
757.099	0.0131930
757.177	0.0130451
757.255	0.0131741
757.333	0.0131817
757.411	0.0130112
757.489	0.0131416
757.568	0.0131969
757.646	0.0131516
757.724	0.0133318
757.802	0.0132110
757.880	0.0132603
757.958	0.0133173
758.036	0.0133688
758.114	0.0133744
758.193	0.0135252
758.271	0.0134412
758.349	0.0135409
758.427	0.0134579
758.505	0.0134720
758.583	0.0136127
758.661	0.0134875
758.739	0.0135458
758.818	0.0135790
758.896	0.0135191
758.974	0.0135810
759.052	0.0135910
759.130	0.0137740
759.208	0.0136568
759.286	0.0137386
759.364	0.0138706
759.443	0.0137728
759.521	0.0138554
759.599	0.0138857
759.677	0.0138710
759.755	0.0138772
759.833	0.0139269
759.911	0.0139099
759.989	0.0139054
760.068	0.0138896
760.146	0.0139101
760.224	0.0139248
760.302	0.0137172
760.380	0.0136118
760.458	0.0137359
760.536	0.0136211
760.614	0.0136845
760.693	0.0135085
760.771	0.0134792
760.849	0.0134445
760.927	0.0133345
761.005	0.0131363
761.083	0.0132841
761.161	0.0131064
761.239	0.0130376
761.318	0.0130872
761.396	0.0130341
761.474	0.0129171
761.552	0.0129552
761.630	0.0130550
761.708	0.0130132
761.786	0.0129184
761.864	0.0128088
761.943	0.0129493
762.021	0.0129178
762.099	0.0129777
762.177	0.0131050
762.255	0.0130383
762.333	0.0131553
762.411	0.0132412
762.489	0.0133911
762.568	0.0133199
762.646	0.0133923
762.724	0.0135130
762.802	0.0135094
762.880	0.0135868
762.958	0.0137547
763.036	0.0137128
763.114	0.0137194
763.193	0.0138010
763.271	0.0139949
763.349	0.0138409
763.427	0.0138969
763.505	0.0138926
763.583	0.0139083
763.661	0.0140154
763.739	0.0138332
763.818	0.0139989
763.896	0.0139371
763.974	0.0140163
764.052	0.0138319
764.130	0.0138032
764.208	0.0139729
764.286	0.0139146
764.364	0.0139808
764.443	0.0138439
764.521	0.0139458
764.599	0.0139777
764.677	0.0138761
764.755	0.0139465
764.833	0.0137421
764.911	0.0137675
764.989	0.0136897
765.068	0.0137097
765.146	0.0135442
765.224	0.0136124
765.302	0.0135146
765.380	0.0133116
765.458	0.0134774
765.536	0.0133672
765.614	0.0134234
765.693	0.0133419
765.771	0.0131585
765.849	0.0132571
765.927	0.0131305
766.005	0.0131920
766.083	0.0130782
766.161	0.0130355
766.239	0.0131084
766.318	0.0128852
766.396	0.0129472
766.474	0.0130846
766.552	0.0130580
766.630	0.0130024
766.708	0.0130988
766.786	0.0130424
766.864	0.0130786
766.943	0.0131716
767.021	0.0133140
767.099	0.0132845
767.177	0.0133804
767.255	0.0134426
767.333	0.0133788
767.411	0.0134439
767.489	0.0135352
767.568	0.0134644
767.646	0.0134708
767.724	0.0135056
767.802	0.0134447
767.880	0.0135645
767.958	0.0136745
768.036	0.0135881
768.114	0.0136005
768.193	0.0136340
768.271	0.0135468
768.349	0.0135797
768.427	0.0136781
768.505	0.0135064
768.583	0.0136024
768.661	0.0136233
768.739	0.0136352
768.818	0.0136523
768.896	0.0136893
768.974	0.0137280
769.052	0.0138286
769.130	0.0136031
769.208	0.0135585
769.286	0.0135900
769.364	0.0137736
769.443	0.0137564
769.521	0.0135320
769.599	0.0135388
769.677	0.0135806
769.755	0.0135456
769.833	0.0134724
769.911	0.0134457
769.989	0.0132642
770.068	0.0134020
770.146	0.0133564
770.224	0.0132599
770.302	0.0132666
770.380	0.0131606
770.458	0.0132391
770.536	0.0131691
770.614	0.0132858
770.693	0.0131710
770.771	0.0133698
770.849	0.0132548
770.927	0.0131818
771.005	0.0133601
771.083	0.0133457
771.161	0.0133361
771.239	0.0133764
771.318	0.0132875
771.396	0.0134439
771.474	0.0134687
771.552	0.0135075
771.630	0.0135024
771.708	0.0135952
771.786	0.0135372
771.864	0.0135840
771.943	0.0135562
772.021	0.0136086
772.099	0.0136613
772.177	0.0137093
772.255	0.0135666
772.333	0.0138305
772.411	0.0137629
772.489	0.0136642
772.568	0.0137270
772.646	0.0136932
772.724	0.0138049
772.802	0.0137321
772.880	0.0136529
772.958	0.0136705
773.036	0.0137094
773.114	0.0136768
773.193	0.0135315
773.271	0.0136058
773.349	0.0135651
773.427	0.0136352
773.505	0.0134953
773.583	0.0136462
773.661	0.0135331
773.739	0.0133475
773.818	0.0132442
773.896	0.0134622
773.974	0.0133447
774.052	0.0133382
774.130	0.0133836
774.208	0.0132738
774.286	0.0132560
774.364	0.0133728
774.443	0.0132676
774.521	0.0131886
774.599	0.0133212
774.677	0.0131585
774.755	0.0134144
774.833	0.0133618
774.911	0.0133537
774.989	0.0133888
775.068	0.0134214
775.146	0.0134951
775.224	0.0133633
775.302	0.0135361
775.380	0.0134519
775.458	0.0135582
775.536	0.0134914
775.614	0.0136562
775.693	0.0137137
775.771	0.0137634
775.849	0.0137237
775.927	0.0136972
776.005	0.0136224
776.083	0.0136909
776.161	0.0136663
776.239	0.0136288
776.318	0.0136497
776.396	0.0136008
776.474	0.0134579
776.552	0.0135863
776.630	0.0134348
776.708	0.0136369
776.786	0.0135686
776.864	0.0133773
776.943	0.0134652
777.021	0.0135696
777.099	0.0134361
777.177	0.0134162
777.255	0.0134637
777.333	0.0136337
777.411	0.0134913
777.489	0.0135984
777.568	0.0136037
777.646	0.0136043
777.724	0.0136404
777.802	0.0136889
777.880	0.0136553
777.958	0.0135403
778.036	0.0135452
778.114	0.0136259
778.193	0.0137392
778.271	0.0136301
778.349	0.0136547
778.427	0.0136816
778.505	0.0136365
778.583	0.0136155
778.661	0.0135580
778.739	0.0136990
778.818	0.0135588
778.896	0.0136238
778.974	0.0135732
779.052	0.0135174
779.130	0.0134885
779.208	0.0135675
779.286	0.0135006
779.364	0.0133614
779.443	0.0135107
779.521	0.0135338
779.599	0.0133656
779.677	0.0136106
779.755	0.0134292
779.833	0.0135625
779.911	0.0137519
779.989	0.0136475
780.068	0.0136581
780.146	0.0136150
780.224	0.0137540
780.302	0.0137434
780.380	0.0137016
780.458	0.0137996
780.536	0.0136784
780.614	0.0137969
780.693	0.0137409
780.771	0.0136929
780.849	0.0137215
780.927	0.0137366
781.005	0.0135686
781.083	0.0135164
781.161	0.0134639
781.239	0.0134699
781.318	0.0133041
781.396	0.0132352
781.474	0.0133847
781.552	0.0133968
781.630	0.0131825
781.708	0.0132364
781.786	0.0133255
781.864	0.0133195
781.943	0.0131978
782.021	0.0132169
782.099	0.0132976
782.177	0.0134170
782.255	0.0134361
782.333	0.0134571
782.411	0.0134306
782.489	0.0136064
782.568	0.0135937
782.646	0.0135027
782.724	0.0136780
782.802	0.0137231
782.880	0.0136908
782.958	0.0136146
783.036	0.0137418
783.114	0.0137754
783.193	0.0139540
783.271	0.0137317
783.349	0.0138634
783.427	0.0138206
783.505	0.0137650
783.583	0.0138479
783.661	0.0138451
783.739	0.0138361
783.818	0.0138716
783.896	0.0138581
783.974	0.0137789
784.052	0.0136942
784.130	0.0136871
784.208	0.0136817
784.286	0.0137821
784.364	0.0136716
784.443	0.0136050
784.521	0.0137072
784.599	0.0137379
784.677	0.0136637
784.755	0.0135753
784.833	0.0135332
784.911	0.0133396
784.989	0.0134483
785.068	0.0135708
785.146	0.0134179
785.224	0.0134907
785.302	0.0133924
785.380	0.0134000
785.458	0.0133912
785.536	0.0134923
785.614	0.0134943
785.693	0.0135732
785.771	0.0134837
785.849	0.0135300
785.927	0.0133987
786.005	0.0134249
786.083	0.0133775
786.161	0.0133581
786.239	0.0134706
786.318	0.0135679
786.396	0.0134064
786.474	0.0134170
786.552	0.0134711
786.630	0.0132791
786.708	0.0135361
786.786	0.0133815
786.864	0.0133266
786.943	0.0133746
787.021	0.0133479
787.099	0.0133194
787.177	0.0134071
787.255	0.0132368
787.333	0.0133428
787.411	0.0135825
787.489	0.0133636
787.568	0.0133688
787.646	0.0133761
787.724	0.0134604
787.802	0.0133927
787.880	0.0132514
787.958	0.0133292
788.036	0.0134580
788.114	0.0134290
788.193	0.0132788
788.271	0.0132836
788.349	0.0134034
788.427	0.0133720
788.505	0.0132897
788.583	0.0134600
788.661	0.0133920
788.739	0.0135414
788.818	0.0134014
788.896	0.0135190
788.974	0.0135252
789.052	0.0135308
789.130	0.0135300
789.208	0.0135387
789.286	0.0135246
789.364	0.0135142
789.443	0.0135097
789.521	0.0135199
789.599	0.0133198
789.677	0.0133688
789.755	0.0133649
789.833	0.0135467
789.911	0.0132276
789.989	0.0133093
790.068	0.0131499
790.146	0.0132709
790.224	0.0133155
790.302	0.0132767
790.380	0.0132094
790.458	0.0132584
790.536	0.0131711
790.614	0.0131695
790.693	0.0132373
790.771	0.0132672
790.849	0.0134055
790.927	0.0134137
791.005	0.0134652
791.083	0.0135091
791.161	0.0135462
791.239	0.0134954
791.318	0.0137637
791.396	0.0137679
791.474	0.0137452
791.552	0.0137315
791.630	0.0136880
791.708	0.0136127
791.786	0.0138015
791.864	0.0137478
791.943	0.0137711
792.021	0.0137744
792.099	0.0137607
792.177	0.0137703
792.255	0.0138012
792.333	0.0138036
792.411	0.0136661
792.489	0.0137048
792.568	0.0136644
792.646	0.0135649
792.724	0.0137193
792.802	0.0136745
792.880	0.0136608
792.958	0.0135101
793.036	0.0136102
793.114	0.0135827
793.193	0.0135065
793.271	0.0133458
793.349	0.0134692
793.427	0.0134151
793.505	0.0133932
793.583	0.0135078
793.661	0.0135346
793.739	0.0133881
793.818	0.0133714
793.896	0.0134862
793.974	0.0132526
794.052	0.0134684
794.130	0.0134634
794.208	0.0132789
794.286	0.0132700
794.364	0.0133323
794.443	0.0132664
794.521	0.0132295
794.599	0.0133211
794.677	0.0133797
794.755	0.0132339
794.833	0.0131620
794.911	0.0134258
794.989	0.0133613
795.068	0.0131432
795.146	0.0131654
795.224	0.0133667
795.302	0.0133833
795.380	0.0133373
795.458	0.0134036
795.536	0.0134287
795.614	0.0133867
795.693	0.0135571
795.771	0.0135985
795.849	0.0135380
795.927	0.0135520
796.005	0.0137081
796.083	0.0135339
796.161	0.0135160
796.239	0.0135252
796.318	0.0136968
796.396	0.0136946
796.474	0.0135571
796.552	0.0136290
796.630	0.0135574
796.708	0.0136765
796.786	0.0137315
796.864	0.0136947
796.943	0.0136954
797.021	0.0138175
797.099	0.0136546
797.177	0.0136610
797.255	0.0137821
797.333	0.0137134
797.411	0.0137022
797.489	0.0138795
797.568	0.0137921
797.646	0.0138061
797.724	0.0137469
797.802	0.0138074
797.880	0.0136722
797.958	0.0137898
798.036	0.0138605
798.114	0.0136862
798.193	0.0136835
798.271	0.0137965
798.349	0.0137418
798.427	0.0136551
798.505	0.0137148
798.583	0.0137617
798.661	0.0136637
798.739	0.0136822
798.818	0.0135917
798.896	0.0136420
798.974	0.0136404
799.052	0.0136160
799.130	0.0136161
799.208	0.0135235
799.286	0.0134333
799.364	0.0134361
799.443	0.0135295
799.521	0.0136249
799.599	0.0133573
799.677	0.0133877
799.755	0.0135013
799.833	0.0132573
799.911	0.0134160
799.989	0.0133353
800.068	0.0134324
800.146	0.0133945
800.224	0.0133073
800.302	0.0134635
800.380	0.0135574
800.458	0.0134730
800.536	0.0134639
800.614	0.0134509
800.693	0.0135877
800.771	0.0134493
800.849	0.0134845
800.927	0.0134882
801.005	0.0134371
801.083	0.0135399
801.161	0.0134498
801.239	0.0135294
801.318	0.0133790
801.396	0.0133771
801.474	0.0133698
801.552	0.0133401
801.630	0.0132954
801.708	0.0134162
801.786	0.0132990
801.864	0.0133700
801.943	0.0133755
802.021	0.0132286
802.099	0.0133506
802.177	0.0133284
802.255	0.0133476
802.333	0.0133242
802.411	0.0133035
802.489	0.0133815
802.568	0.0134137
802.646	0.0133884
802.724	0.0133659
802.802	0.0133254
802.880	0.0133938
802.958	0.0134625
803.036	0.0136739
803.114	0.0135915
803.193	0.0135684
803.271	0.0135183
803.349	0.0136321
803.427	0.0136626
803.505	0.0137184
803.583	0.0138415
803.661	0.0137962
803.739	0.0137984
803.818	0.0138312
803.896	0.0137868
803.974	0.0137311
804.052	0.0138356
804.130	0.0138554
804.208	0.0138811
804.286	0.0137891
804.364	0.0138699
804.443	0.0138553
804.521	0.0138315
804.599	0.0138165
804.677	0.0137803
804.755	0.0137456
804.833	0.0138583
804.911	0.0137358
804.989	0.0137518
805.068	0.0136553
805.146	0.0136654
805.224	0.0134872
805.302	0.0137518
805.380	0.0136138
805.458	0.0134212
805.536	0.0133002
805.614	0.0135639
805.693	0.0132686
805.771	0.0132291
805.849	0.0133413
805.927	0.0133331
806.005	0.0132512
806.083	0.0131789
806.161	0.0132315
806.239	0.0132264
806.318	0.0131015
806.396	0.0131393
806.474	0.0129527
806.552	0.0131497
806.630	0.0130986
806.708	0.0130237
806.786	0.0131664
806.864	0.0130106
806.943	0.0129777
807.021	0.0130821
807.099	0.0131947
807.177	0.0132745
807.255	0.0133141
807.333	0.0133264
807.411	0.0134500
807.489	0.0132896
807.568	0.0134358
807.646	0.0134549
807.724	0.0133425
807.802	0.0135757
807.880	0.0136261
807.958	0.0134661
808.036	0.0135546
808.114	0.0134689
808.193	0.0136921
808.271	0.0136580
808.349	0.0136331
808.427	0.0135376
808.505	0.0136933
808.583	0.0136135
808.661	0.0135492
808.739	0.0135444
808.818	0.0136415
808.896	0.0135019
808.974	0.0134745
809.052	0.0135684
809.130	0.0135049
809.208	0.0135300
809.286	0.0135593
809.364	0.0134801
809.443	0.0134139
809.521	0.0135580
809.599	0.0136282
809.677	0.0136780
809.755	0.0135557
809.833	0.0135177
809.911	0.0136375
809.989	0.0137234
810.068	0.0136519
810.146	0.0138995
810.224	0.0138451
810.302	0.0136731
810.380	0.0137057
810.458	0.0138120
810.536	0.0137250
810.614	0.0136424
810.693	0.0136049
810.771	0.0136295
810.849	0.0134399
810.927	0.0135145
811.005	0.0133511
811.083	0.0132637
811.161	0.0133750
811.239	0.0133569
811.318	0.0133164
811.396	0.0129063
811.474	0.0130556
811.552	0.0130690
811.630	0.0131182
811.708	0.0130586
811.786	0.0129762
811.864	0.0130207
811.943	0.0130817
812.021	0.0130180
812.099	0.0129124
812.177	0.0130157
812.255	0.0130774
812.333	0.0131250
812.411	0.0131359
812.489	0.0133035
812.568	0.0132666
812.646	0.0132448
812.724	0.0133147
812.802	0.0133688
812.880	0.0134539
812.958	0.0132941
813.036	0.0133601
813.114	0.0132990
813.193	0.0133278
813.271	0.0134844
813.349	0.0133218
813.427	0.0134997
813.505	0.0134641
813.583	0.0133738
813.661	0.0133598
813.739	0.0135024
813.818	0.0134238
813.896	0.0132981
813.974	0.0133706
814.052	0.0136079
814.130	0.0134615
814.208	0.0134236
814.286	0.0135696
814.364	0.0135631
814.443	0.0135347
814.521	0.0135454
814.599	0.0136412
814.677	0.0136930
814.755	0.0135979
814.833	0.0135527
814.911	0.0136845
814.989	0.0136499
815.068	0.0136024
815.146	0.0136484
815.224	0.0136870
815.302	0.0134721
815.380	0.0135995
815.458	0.0135513
815.536	0.0135805
815.614	0.0135780
815.693	0.0135222
815.771	0.0136226
815.849	0.0135892
815.927	0.0136905
816.005	0.0135255
816.083	0.0134016
816.161	0.0134868
816.239	0.0135716
816.318	0.0135058
816.396	0.0134029
816.474	0.0135356
816.552	0.0134299
816.630	0.0133298
816.708	0.0134013
816.786	0.0133842
816.864	0.0132886
816.943	0.0133829
817.021	0.0133582
817.099	0.0133002
817.177	0.0133685
817.255	0.0134016
817.333	0.0133897
817.411	0.0132121
817.489	0.0133197
817.568	0.0134274
817.646	0.0132738
817.724	0.0133387
817.802	0.0133630
817.880	0.0132256
817.958	0.0132949
818.036	0.0134212
818.114	0.0133772
818.193	0.0133108
818.271	0.0132981
818.349	0.0132163
818.427	0.0132865
818.505	0.0134728
818.583	0.0133921
818.661	0.0133805
818.739	0.0134801
818.818	0.0133273
818.896	0.0135094
818.974	0.0133806
819.052	0.0133524
819.130	0.0134583
819.208	0.0133469
819.286	0.0133717
819.364	0.0132409
819.443	0.0134114
819.521	0.0133002
819.599	0.0133220
819.677	0.0134157
819.755	0.0133147
819.833	0.0134000
819.911	0.0133852
819.989	0.0133980
820.068	0.0133871
820.146	0.0133698
820.224	0.0134455
820.302	0.0133841
820.380	0.0134521
820.458	0.0134866
820.536	0.0134605
820.614	0.0134624
820.693	0.0135516
820.771	0.0134859
820.849	0.0135362
820.927	0.0136885
821.005	0.0135232
821.083	0.0136983
821.161	0.0135538
821.239	0.0134895
821.318	0.0136881
821.396	0.0136467
821.474	0.0135319
821.552	0.0134991
821.630	0.0136472
821.708	0.0135276
821.786	0.0133541
821.864	0.0134667
821.943	0.0135963
822.021	0.0135210
822.099	0.0133830
822.177	0.0133442
822.255	0.0134633
822.333	0.0133127
822.411	0.0133121
822.489	0.0133047
822.568	0.0133690
822.646	0.0133186
822.724	0.0133244
822.802	0.0132948
822.880	0.0132507
822.958	0.0133677
823.036	0.0134505
823.114	0.0133968
823.193	0.0133221
823.271	0.0133588
823.349	0.0133301
823.427	0.0133844
823.505	0.0134344
823.583	0.0135393
823.661	0.0133354
823.739	0.0133087
823.818	0.0133950
823.896	0.0134267
823.974	0.0133726
824.052	0.0135175
824.130	0.0134679
824.208	0.0133425
824.286	0.0133700
824.364	0.0134354
824.443	0.0134457
824.521	0.0134467
824.599	0.0133051
824.677	0.0134437
824.755	0.0134042
824.833	0.0134775
824.911	0.0134567
824.989	0.0134106
825.068	0.0134233
825.146	0.0133675
825.224	0.0134384
825.302	0.0134185
825.380	0.0135226
825.458	0.0134126
825.536	0.0134742
825.614	0.0134109
825.693	0.0134934
825.771	0.0135735
825.849	0.0134696
825.927	0.0135876
826.005	0.0134706
826.083	0.0134769
826.161	0.0134322
826.239	0.0133996
826.318	0.0135532
826.396	0.0135360
826.474	0.0134295
826.552	0.0133879
826.630	0.0134568
826.708	0.0134924
826.786	0.0134511
826.864	0.0133245
826.943	0.0133793
827.021	0.0133789
827.099	0.0133801
827.177	0.0133612
827.255	0.0134328
827.333	0.0133727
827.411	0.0133936
827.489	0.0134173
827.568	0.0134278
827.646	0.0134686
827.724	0.0134134
827.802	0.0134126
827.880	0.0135051
827.958	0.0135463
828.036	0.0136560
828.114	0.0136412
828.193	0.0137276
828.271	0.0135837
828.349	0.0135986
828.427	0.0136388
828.505	0.0135957
828.583	0.0135928
828.661	0.0135194
828.739	0.0135070
828.818	0.0135276
828.896	0.0134502
828.974	0.0133105
829.052	0.0133970
829.130	0.0134669
829.208	0.0134860
829.286	0.0132517
829.364	0.0132616
829.443	0.0134425
829.521	0.0135474
829.599	0.0133910
829.677	0.0132512
829.755	0.0132764
829.833	0.0133980
829.911	0.0132981
829.989	0.0133776
830.068	0.0132744
830.146	0.0133981
830.224	0.0133301
830.302	0.0133459
830.380	0.0132553
830.458	0.0133085
830.536	0.0133053
830.614	0.0133623
830.693	0.0132880
830.771	0.0133646
830.849	0.0132982
830.927	0.0132767
831.005	0.0133571
831.083	0.0133979
831.161	0.0133052
831.239	0.0133557
831.318	0.0132893
831.396	0.0132323
831.474	0.0133123
831.552	0.0135152
831.630	0.0133851
831.708	0.0133517
831.786	0.0134682
831.864	0.0136093
831.943	0.0134085
832.021	0.0134742
832.099	0.0136103
832.177	0.0135863
832.255	0.0135692
832.333	0.0135200
832.411	0.0134084
832.489	0.0133608
832.568	0.0135226
832.646	0.0134297
832.724	0.0134496
832.802	0.0132999
832.880	0.0134542
832.958	0.0134068
833.036	0.0135775
833.114	0.0134377
833.193	0.0133408
833.271	0.0133663
833.349	0.0135787
833.427	0.0135447
833.505	0.0133794
833.583	0.0135638
833.661	0.0135424
833.739	0.0135715
833.818	0.0134292
833.896	0.0136698
833.974	0.0136639
834.052	0.0136102
834.130	0.0136576
834.208	0.0137153
834.286	0.0134960
834.364	0.0135700
834.443	0.0136745
834.521	0.0135382
834.599	0.0136124
834.677	0.0133340
834.755	0.0134122
834.833	0.0133996
834.911	0.0135822
834.989	0.0134489
835.068	0.0134021
835.146	0.0132445
835.224	0.0133147
835.302	0.0132927
835.380	0.0131821
835.458	0.0131957
835.536	0.0132364
835.614	0.0133115
835.693	0.0132049
835.771	0.0131327
835.849	0.0129985
835.927	0.0130969
836.005	0.0129852
836.083	0.0130052
836.161	0.0130648
836.239	0.0130168
836.318	0.0131951
836.396	0.0132040
836.474	0.0130539
836.552	0.0130652
836.630	0.0132141
836.708	0.0133427
836.786	0.0131714
836.864	0.0132974
836.943	0.0133416
837.021	0.0133353
837.099	0.0132966
837.177	0.0134055
837.255	0.0133932
837.333	0.0136561
837.411	0.0135247
837.489	0.0136413
837.568	0.0135857
837.646	0.0134663
837.724	0.0134374
837.802	0.0134408
837.880	0.0136343
837.958	0.0136226
838.036	0.0135519
838.114	0.0133779
838.193	0.0133777
838.271	0.0135371
838.349	0.0133907
838.427	0.0133724
838.505	0.0133208
838.583	0.0133432
838.661	0.0135000
838.739	0.0134509
838.818	0.0135047
838.896	0.0135564
838.974	0.0134864
839.052	0.0133974
839.130	0.0135290
839.208	0.0136121
839.286	0.0135541
839.364	0.0135167
839.443	0.0135634
839.521	0.0136306
839.599	0.0135576
839.677	0.0136120
839.755	0.0135571
839.833	0.0135891
839.911	0.0137324
839.989	0.0136655
840.068	0.0137158
840.146	0.0136726
840.224	0.0135929
840.302	0.0135593
840.380	0.0134261
840.458	0.0135996
840.536	0.0134459
840.614	0.0133231
840.693	0.0134084
840.771	0.0134158
840.849	0.0132763
840.927	0.0134332
841.005	0.0133432
841.083	0.0133675
841.161	0.0133932
841.239	0.0132063
841.318	0.0134094
841.396	0.0134435
841.474	0.0133605
841.552	0.0132195
841.630	0.0134237
841.708	0.0133873
841.786	0.0131719
841.864	0.0134012
841.943	0.0134394
842.021	0.0133201
842.099	0.0133958
842.177	0.0134215
842.255	0.0133858
842.333	0.0133930
842.411	0.0132543
842.489	0.0133481
842.568	0.0133037
842.646	0.0134708
842.724	0.0133774
842.802	0.0134291
842.880	0.0135381
842.958	0.0133667
843.036	0.0134305
843.114	0.0135255
843.193	0.0135065
843.271	0.0133478
843.349	0.0134845
843.427	0.0135402
843.505	0.0135017
843.583	0.0133892
843.661	0.0134994
843.739	0.0132958
843.818	0.0132943
843.896	0.0133967
843.974	0.0133056
844.052	0.0132834
844.130	0.0132485
844.208	0.0132275
844.286	0.0131980
844.364	0.0132694
844.443	0.0133321
844.521	0.0133022
844.599	0.0132053
844.677	0.0133432
844.755	0.0132779
844.833	0.0133212
844.911	0.0134222
844.989	0.0135751
845.068	0.0134818
845.146	0.0134354
845.224	0.0136250
845.302	0.0134376
845.380	0.0135762
845.458	0.0137332
845.536	0.0137030
845.614	0.0137227
845.693	0.0136632
845.771	0.0135983
845.849	0.0136460
845.927	0.0135485
846.005	0.0136393
846.083	0.0136354
846.161	0.0137177
846.239	0.0136421
846.318	0.0136026
846.396	0.0135403
846.474	0.0136111
846.552	0.0137334
846.630	0.0135143
846.708	0.0135101
846.786	0.0136745
846.864	0.0135036
846.943	0.0135414
847.021	0.0134481
847.099	0.0134818
847.177	0.0134727
847.255	0.0134396
847.333	0.0134190
847.411	0.0134923
847.489	0.0135841
847.568	0.0133784
847.646	0.0133418
847.724	0.0132889
847.802	0.0132944
847.880	0.0133017
847.958	0.0133246
848.036	0.0133379
848.114	0.0132677
848.193	0.0131050
848.271	0.0132915
848.349	0.0132780
848.427	0.0132907
848.505	0.0130911
848.583	0.0131741
848.661	0.0132759
848.739	0.0133289
848.818	0.0134241
848.896	0.0134495
848.974	0.0133547
849.052	0.0133676
849.130	0.0134599
849.208	0.0134691
849.286	0.0135366
849.364	0.0136276
849.443	0.0135258
849.521	0.0135184
849.599	0.0135621
849.677	0.0135648
849.755	0.0137173
849.833	0.0138532
849.911	0.0136022
849.989	0.0137914
850.068	0.0137333
850.146	0.0136879
850.224	0.0138132
850.302	0.0137177
850.380	0.0135802
850.458	0.0136568
850.536	0.0136151
850.614	0.0136488
850.693	0.0136733
850.771	0.0135622
850.849	0.0135341
850.927	0.0133556
851.005	0.0134582
851.083	0.0133458
851.161	0.0132870
851.239	0.0134623
851.318	0.0132702
851.396	0.0132774
851.474	0.0133006
851.552	0.0133498
851.630	0.0133999
851.708	0.0132368
851.786	0.0133485
851.864	0.0132701
851.943	0.0133106
852.021	0.0132954
852.099	0.0134301
852.177	0.0133997
852.255	0.0133574
852.333	0.0132832
852.411	0.0133999
852.489	0.0134475
852.568	0.0133503
852.646	0.0134013
852.724	0.0134364
852.802	0.0134102
852.880	0.0135572
852.958	0.0134702
853.036	0.0136203
853.114	0.0136868
853.193	0.0135481
853.271	0.0135011
853.349	0.0135595
853.427	0.0135479
853.505	0.0134953
853.583	0.0136119
853.661	0.0135501
853.739	0.0135598
853.818	0.0137309
853.896	0.0135283
853.974	0.0136837
854.052	0.0137415
854.130	0.0135725
854.208	0.0136170
854.286	0.0136187
854.364	0.0136585
854.443	0.0136484
854.521	0.0136720
854.599	0.0135266
854.677	0.0136330
854.755	0.0137064
854.833	0.0135686
854.911	0.0134625
854.989	0.0135770
855.068	0.0135832
855.146	0.0134135
855.224	0.0133318
855.302	0.0134084
855.380	0.0134380
855.458	0.0133982
855.536	0.0134771
855.614	0.0133135
855.693	0.0133377
855.771	0.0132996
855.849	0.0132783
855.927	0.0133847
856.005	0.0134809
856.083	0.0134414
856.161	0.0133465
856.239	0.0134243
856.318	0.0134008
856.396	0.0133952
856.474	0.0133865
856.552	0.0134087
856.630	0.0135069
856.708	0.0135740
856.786	0.0136066
856.864	0.0136369
856.943	0.0136393
857.021	0.0136531
857.099	0.0136413
857.177	0.0135587
857.255	0.0135516
857.333	0.0136308
857.411	0.0136430
857.489	0.0137383
857.568	0.0137718
857.646	0.0137522
857.724	0.0137489
857.802	0.0138390
857.880	0.0137934
857.958	0.0138062
858.036	0.0136148
858.114	0.0137093
858.193	0.0137701
858.271	0.0137076
858.349	0.0137219
858.427	0.0136945
858.505	0.0136893
858.583	0.0136379
858.661	0.0136481
858.739	0.0136205
858.818	0.0135078
858.896	0.0135789
858.974	0.0136157
859.052	0.0135804
859.130	0.0135743
859.208	0.0134999
859.286	0.0134607
859.364	0.0135444
859.443	0.0134325
859.521	0.0134028
859.599	0.0134646
859.677	0.0135169
859.755	0.0133795
859.833	0.0133253
859.911	0.0134843
859.989	0.0134981
860.068	0.0133047
860.146	0.0133394
860.224	0.0132662
860.302	0.0133314
860.380	0.0131919
860.458	0.0132885
860.536	0.0131827
860.614	0.0132668
860.693	0.0132169
860.771	0.0131489
860.849	0.0132465
860.927	0.0133530
861.005	0.0132730
861.083	0.0133495
861.161	0.0133434
861.239	0.0133760
861.318	0.0133253
861.396	0.0133463
861.474	0.0134792
861.552	0.0134692
861.630	0.0135276
861.708	0.0136201
861.786	0.0134769
861.864	0.0136723
861.943	0.0137052
862.021	0.0138002
862.099	0.0137309
862.177	0.0137910
862.255	0.0136329
862.333	0.0137276
862.411	0.0137386
862.489	0.0137742
862.568	0.0138877
862.646	0.0138811
862.724	0.0135854
862.802	0.0138084
862.880	0.0137530
862.958	0.0136600
863.036	0.0136985
863.114	0.0135633
863.193	0.0135965
863.271	0.0135325
863.349	0.0134012
863.427	0.0134640
863.505	0.0134868
863.583	0.0134232
863.661	0.0134621
863.739	0.0133704
863.818	0.0133218
863.896	0.0133463
863.974	0.0133216
864.052	0.0132440
864.130	0.0132420
864.208	0.0132285
864.286	0.0132829
864.364	0.0132697
864.443	0.0130753
864.521	0.0131548
864.599	0.0133408
864.677	0.0131705
864.755	0.0131229
864.833	0.0132642
864.911	0.0132732
864.989	0.0134196
865.068	0.0134850
865.146	0.0133273
865.224	0.0134586
865.302	0.0133625
865.380	0.0133592
865.458	0.0132970
865.536	0.0134160
865.614	0.0134467
865.693	0.0134885
865.771	0.0133679
865.849	0.0134064
865.927	0.0135064
866.005	0.0135601
866.083	0.0135771
866.161	0.0136169
866.239	0.0136372
866.318	0.0136302
866.396	0.0137752
866.474	0.0136764
866.552	0.0136954
866.630	0.0137233
866.708	0.0135690
866.786	0.0136677
866.864	0.0136544
866.943	0.0136288
867.021	0.0135271
867.099	0.0135694
867.177	0.0135972
867.255	0.0136382
867.333	0.0135289
867.411	0.0135696
867.489	0.0135505
867.568	0.0135125
867.646	0.0135119
867.724	0.0135640
867.802	0.0133060
867.880	0.0134232
867.958	0.0132732
868.036	0.0133344
868.114	0.0133477
868.193	0.0132292
868.271	0.0131384
868.349	0.0131719
868.427	0.0130633
868.505	0.0131751
868.583	0.0130912
868.661	0.0132626
868.739	0.0131187
868.818	0.0131306
868.896	0.0131984
868.974	0.0132603
869.052	0.0132101
869.130	0.0131351
869.208	0.0134195
869.286	0.0134819
869.364	0.0133823
869.443	0.0134454
869.521	0.0135051
869.599	0.0137018
869.677	0.0136298
869.755	0.0136606
869.833	0.0135442
869.911	0.0135956
869.989	0.0135712
870.068	0.0137273
870.146	0.0137103
870.224	0.0137458
870.302	0.0136688
870.380	0.0135195
870.458	0.0136111
870.536	0.0136710
870.614	0.0136046
870.693	0.0135564
870.771	0.0137711
870.849	0.0136644
870.927	0.0136206
871.005	0.0135703
871.083	0.0134328
871.161	0.0134802
871.239	0.0134138
871.318	0.0133371
871.396	0.0132726
871.474	0.0133109
871.552	0.0133443
871.630	0.0132974
871.708	0.0132278
871.786	0.0133408
871.864	0.0132961
871.943	0.0131293
872.021	0.0133669
872.099	0.0132559
872.177	0.0132799
872.255	0.0133945
872.333	0.0131343
872.411	0.0133999
872.489	0.0132863
872.568	0.0132664
872.646	0.0133310
872.724	0.0134283
872.802	0.0133379
872.880	0.0135401
872.958	0.0134388
873.036	0.0133849
873.114	0.0134892
873.193	0.0135880
873.271	0.0135851
873.349	0.0134549
873.427	0.0135488
873.505	0.0135819
873.583	0.0136320
873.661	0.0135592
873.739	0.0138137
873.818	0.0136858
873.896	0.0137225
873.974	0.0136271
874.052	0.0136020
874.130	0.0136366
874.208	0.0138849
874.286	0.0136865
874.364	0.0137506
874.443	0.0136825
874.521	0.0137730
874.599	0.0137901
874.677	0.0137043
874.755	0.0137510
874.833	0.0137254
874.911	0.0138012
874.989	0.0136782
875.068	0.0138103
875.146	0.0136097
875.224	0.0135886
875.302	0.0136118
875.380	0.0136247
875.458	0.0135523
875.536	0.0135371
875.614	0.0135081
875.693	0.0135556
875.771	0.0135108
875.849	0.0133723
875.927	0.0135085
876.005	0.0135121
876.083	0.0133612
876.161	0.0133436
876.239	0.0133297
876.318	0.0133780
876.396	0.0134431
876.474	0.0132800
876.552	0.0133571
876.630	0.0132821
876.708	0.0133343
876.786	0.0133385
876.864	0.0133760
876.943	0.0133916
877.021	0.0134687
877.099	0.0134130
877.177	0.0134171
877.255	0.0135194
877.333	0.0134425
877.411	0.0135237
877.489	0.0135145
877.568	0.0134889
877.646	0.0135560
877.724	0.0136385
877.802	0.0134666
877.880	0.0135211
877.958	0.0137688
878.036	0.0137508
878.114	0.0134463
878.193	0.0137490
878.271	0.0136120
878.349	0.0136621
878.427	0.0138271
878.505	0.0136667
878.583	0.0136298
878.661	0.0137602
878.739	0.0135754
878.818	0.0136969
878.896	0.0136888
878.974	0.0137293
879.052	0.0136018
879.130	0.0136832
879.208	0.0137246
879.286	0.0134297
879.364	0.0134251
879.443	0.0134719
879.521	0.0135693
879.599	0.0134963
879.677	0.0134360
879.755	0.0133000
879.833	0.0134348
879.911	0.0134437
879.989	0.0133122
880.068	0.0133742
880.146	0.0134780
880.224	0.0134111
880.302	0.0132670
880.380	0.0133575
880.458	0.0133766
880.536	0.0133365
880.614	0.0133432
880.693	0.0133993
880.771	0.0134570
880.849	0.0135630
880.927	0.0134431
881.005	0.0134227
881.083	0.0133573
881.161	0.0135098
881.239	0.0134486
881.318	0.0134393
881.396	0.0135267
881.474	0.0135165
881.552	0.0134527
881.630	0.0134193
881.708	0.0135727
881.786	0.0134635
881.864	0.0135778
881.943	0.0135890
882.021	0.0135150
882.099	0.0137074
882.177	0.0136083
882.255	0.0136526
882.333	0.0136443
882.411	0.0135683
882.489	0.0135614
882.568	0.0136777
882.646	0.0136227
882.724	0.0136979
882.802	0.0136131
882.880	0.0134936
882.958	0.0135873
883.036	0.0134785
883.114	0.0134034
883.193	0.0134417
883.271	0.0134421
883.349	0.0135011
883.427	0.0133801
883.505	0.0133432
883.583	0.0134003
883.661	0.0132766
883.739	0.0133609
883.818	0.0133209
883.896	0.0133198
883.974	0.0132024
884.052	0.0133736
884.130	0.0132314
884.208	0.0132787
884.286	0.0132623
884.364	0.0133511
884.443	0.0131582
884.521	0.0132657
884.599	0.0134476
884.677	0.0133317
884.755	0.0133651
884.833	0.0132986
884.911	0.0134119
884.989	0.0133558
885.068	0.0134072
885.146	0.0133218
885.224	0.0133643
885.302	0.0134381
885.380	0.0134227
885.458	0.0134042
885.536	0.0134870
885.614	0.0134986
885.693	0.0134449
885.771	0.0134693
885.849	0.0135162
885.927	0.0134974
886.005	0.0134220
886.083	0.0135195
886.161	0.0137470
886.239	0.0137218
886.318	0.0136137
886.396	0.0136314
886.474	0.0137681
886.552	0.0135825
886.630	0.0136837
886.708	0.0136180
886.786	0.0137928
886.864	0.0138118
886.943	0.0136297
887.021	0.0137107
887.099	0.0137723
887.177	0.0136552
887.255	0.0136775
887.333	0.0135455
887.411	0.0136317
887.489	0.0135515
887.568	0.0136772
887.646	0.0136259
887.724	0.0135355
887.802	0.0133839
887.880	0.0135467
887.958	0.0135990
888.036	0.0134205
888.114	0.0133829
888.193	0.0134357
888.271	0.0134895
888.349	0.0133984
888.427	0.0133223
888.505	0.0132600
888.583	0.0132800
888.661	0.0131596
888.739	0.0131974
888.818	0.0131800
888.896	0.0132224
888.974	0.0132822
889.052	0.0131703
889.130	0.0130917
889.208	0.0131406
889.286	0.0132599
889.364	0.0132343
889.443	0.0130998
889.521	0.0133252
889.599	0.0133191
889.677	0.0134001
889.755	0.0133578
889.833	0.0133835
889.911	0.0133305
889.989	0.0134150
890.068	0.0135513
890.146	0.0135800
890.224	0.0136486
890.302	0.0137619
890.380	0.0136354
890.458	0.0135927
890.536	0.0135127
890.614	0.0136669
890.693	0.0136844
890.771	0.0137045
890.849	0.0136426
890.927	0.0137019
891.005	0.0138116
891.083	0.0136445
891.161	0.0136880
891.239	0.0135950
891.318	0.0137933
891.396	0.0137502
891.474	0.0136122
891.552	0.0136229
891.630	0.0136370
891.708	0.0135741
891.786	0.0135915
891.864	0.0134918
891.943	0.0135561
892.021	0.0135417
892.099	0.0134274
892.177	0.0134238
892.255	0.0134273
892.333	0.0134268
892.411	0.0134686
892.489	0.0133717
892.568	0.0133978
892.646	0.0134053
892.724	0.0133840
892.802	0.0133243
892.880	0.0133705
892.958	0.0134818
893.036	0.0134312
893.114	0.0134241
893.193	0.0133904
893.271	0.0135210
893.349	0.0134549
893.427	0.0135856
893.505	0.0135068
893.583	0.0134804
893.661	0.0135036
893.739	0.0135027
893.818	0.0134515
893.896	0.0133056
893.974	0.0135245
894.052	0.0135641
894.130	0.0135017
894.208	0.0135094
894.286	0.0134489
894.364	0.0135590
894.443	0.0135686
894.521	0.0135759
894.599	0.0134377
894.677	0.0135574
894.755	0.0135676
894.833	0.0135410
894.911	0.0134578
894.989	0.0134634
895.068	0.0134618
895.146	0.0135033
895.224	0.0134525
895.302	0.0134600
895.380	0.0135101
895.458	0.0134327
895.536	0.0133657
895.614	0.0134850
895.693	0.0134782
895.771	0.0133318
895.849	0.0135359
895.927	0.0134632
896.005	0.0133731
896.083	0.0134205
896.161	0.0134245
896.239	0.0135482
896.318	0.0133875
896.396	0.0135390
896.474	0.0135981
896.552	0.0135069
896.630	0.0135559
896.708	0.0135688
896.786	0.0136315
896.864	0.0135402
896.943	0.0136656
897.021	0.0136420
897.099	0.0137027
897.177	0.0135798
897.255	0.0136637
897.333	0.0136414
897.411	0.0136180
897.489	0.0137021
897.568	0.0135244
897.646	0.0135947
897.724	0.0136432
897.802	0.0134743
897.880	0.0134395
897.958	0.0135196
898.036	0.0134052
898.114	0.0134895
898.193	0.0134345
898.271	0.0135512
898.349	0.0133347
898.427	0.0134216
898.505	0.0133586
898.583	0.0133304
898.661	0.0133961
898.739	0.0132975
898.818	0.0133196
898.896	0.0135130
898.974	0.0134172
899.052	0.0134855
899.130	0.0133829
899.208	0.0135261
899.286	0.0135006
899.364	0.0136185
899.443	0.0135590
899.521	0.0135136
899.599	0.0134615
899.677	0.0134439
899.755	0.0135346
899.833	0.0134137
899.911	0.0135199
899.989	0.0136400
900.068	0.0134024
900.146	0.0133991
900.224	0.0134454
900.302	0.0135441
900.380	0.0133882
900.458	0.0133949
900.536	0.0133936
900.614	0.0135284
900.693	0.0133944
900.771	0.0133300
900.849	0.0134212
900.927	0.0133998
901.005	0.0133280
901.083	0.0133356
901.161	0.0134240
901.239	0.0135620
901.318	0.0134929
901.396	0.0134112
901.474	0.0134390
901.552	0.0135750
901.630	0.0135347
901.708	0.0134116
901.786	0.0135873
901.864	0.0136599
901.943	0.0136174
902.021	0.0136489
902.099	0.0136331
902.177	0.0136778
902.255	0.0135425
902.333	0.0137830
902.411	0.0136176
902.489	0.0137642
902.568	0.0135910
902.646	0.0136276
902.724	0.0136140
902.802	0.0133901
902.880	0.0135815
902.958	0.0136396
903.036	0.0134916
903.114	0.0134503
903.193	0.0134785
903.271	0.0134933
903.349	0.0133496
903.427	0.0133710
903.505	0.0132672
903.583	0.0133501
903.661	0.0133643
903.739	0.0131812
903.818	0.0132014
903.896	0.0131924
903.974	0.0131332
904.052	0.0132237
904.130	0.0131438
904.208	0.0131751
904.286	0.0132823
904.364	0.0130909
904.443	0.0131973
904.521	0.0132102
904.599	0.0132442
904.677	0.0132643
904.755	0.0132568
904.833	0.0134421
904.911	0.0133807
904.989	0.0133410
905.068	0.0133270
905.146	0.0134560
905.224	0.0135954
905.302	0.0134961
905.380	0.0133771
905.458	0.0134270
905.536	0.0136960
905.614	0.0134137
905.693	0.0133057
905.771	0.0135876
905.849	0.0134894
905.927	0.0134978
906.005	0.0134093
906.083	0.0134093
906.161	0.0135264
906.239	0.0134523
906.318	0.0134424
906.396	0.0134457
906.474	0.0133675
906.552	0.0133299
906.630	0.0133702
906.708	0.0135386
906.786	0.0133064
906.864	0.0134009
906.943	0.0134843
907.021	0.0134170
907.099	0.0134144
907.177	0.0134456
907.255	0.0134338
907.333	0.0134248
907.411	0.0133434
907.489	0.0132864
907.568	0.0133331
907.646	0.0133143
907.724	0.0133256
907.802	0.0133261
907.880	0.0133871
907.958	0.0133463
908.036	0.0132780
908.114	0.0132736
908.193	0.0132811
908.271	0.0132143
908.349	0.0133134
908.427	0.0133743
908.505	0.0133347
908.583	0.0133534
908.661	0.0133536
908.739	0.0133154
908.818	0.0133869
908.896	0.0133617
908.974	0.0133968
909.052	0.0133656
909.130	0.0134118
909.208	0.0134010
909.286	0.0134900
909.364	0.0135053
909.443	0.0136209
909.521	0.0136503
909.599	0.0136710
909.677	0.0135388
909.755	0.0134651
909.833	0.0134651
909.911	0.0136012
909.989	0.0135306
910.068	0.0134462
910.146	0.0136143
910.224	0.0136948
910.302	0.0136142
910.380	0.0136274
910.458	0.0136249
910.536	0.0137453
910.614	0.0135622
910.693	0.0135320
910.771	0.0136491
910.849	0.0135358
910.927	0.0134443
911.005	0.0134286
911.083	0.0134645
911.161	0.0135165
911.239	0.0134380
911.318	0.0134074
911.396	0.0135322
911.474	0.0134601
911.552	0.0135034
911.630	0.0135067
911.708	0.0134190
911.786	0.0135092
911.864	0.0134418
911.943	0.0135728
912.021	0.0134586
912.099	0.0133980
912.177	0.0133427
912.255	0.0134280
912.333	0.0134053
912.411	0.0134401
912.489	0.0134649
912.568	0.0134807
912.646	0.0134445
912.724	0.0134174
912.802	0.0135590
912.880	0.0134308
912.958	0.0133936
913.036	0.0134277
913.114	0.0133261
913.193	0.0133624
913.271	0.0133976
913.349	0.0133559
913.427	0.0133311
913.505	0.0134042
913.583	0.0134116
913.661	0.0136079
913.739	0.0135257
913.818	0.0133312
913.896	0.0134953
913.974	0.0135182
914.052	0.0135033
914.130	0.0134329
914.208	0.0135973
914.286	0.0133696
914.364	0.0135325
914.443	0.0136237
914.521	0.0136433
914.599	0.0135093
914.677	0.0136318
914.755	0.0136890
914.833	0.0135683
914.911	0.0135287
914.989	0.0136530
915.068	0.0136460
915.146	0.0135085
915.224	0.0135628
915.302	0.0136659
915.380	0.0136349
915.458	0.0135472
915.536	0.0135344
915.614	0.0135598
915.693	0.0136415
915.771	0.0136411
915.849	0.0135873
915.927	0.0135075
916.005	0.0135074
916.083	0.0135616
916.161	0.0135802
916.239	0.0134210
916.318	0.0135202
916.396	0.0134321
916.474	0.0134427
916.552	0.0135410
916.630	0.0134385
916.708	0.0133491
916.786	0.0134498
916.864	0.0133327
916.943	0.0131979
917.021	0.0133856
917.099	0.0134301
917.177	0.0134037
917.255	0.0133347
917.333	0.0134017
917.411	0.0132307
917.489	0.0134376
917.568	0.0133348
917.646	0.0132761
917.724	0.0133363
917.802	0.0134505
917.880	0.0133955
917.958	0.0133466
918.036	0.0134566
918.114	0.0134010
918.193	0.0133572
918.271	0.0132713
918.349	0.0134438
918.427	0.0135179
918.505	0.0133717
918.583	0.0135630
918.661	0.0134161
918.739	0.0135052
918.818	0.0133996
918.896	0.0135919
918.974	0.0134334
919.052	0.0135715
919.130	0.0136799
919.208	0.0135844
919.286	0.0135477
919.364	0.0135436
919.443	0.0136434
919.521	0.0136036
919.599	0.0135594
919.677	0.0134247
919.755	0.0136301
919.833	0.0136095
919.911	0.0135521
919.989	0.0134766
920.068	0.0135522
920.146	0.0136270
920.224	0.0134271
920.302	0.0134952
920.380	0.0134311
920.458	0.0135052
920.536	0.0135329
920.614	0.0134692
920.693	0.0134361
920.771	0.0135326
920.849	0.0135416
920.927	0.0134419
921.005	0.0135955
921.083	0.0135231
921.161	0.0135085
921.239	0.0133894
921.318	0.0136098
921.396	0.0136098
921.474	0.0135706
921.552	0.0135416
921.630	0.0135559
921.708	0.0133913
921.786	0.0134806
921.864	0.0134698
921.943	0.0133900
922.021	0.0133920
922.099	0.0134254
922.177	0.0133140
922.255	0.0133508
922.333	0.0133611
922.411	0.0134537
922.489	0.0133872
922.568	0.0135133
922.646	0.0132949
922.724	0.0132878
922.802	0.0134280
922.880	0.0133805
922.958	0.0133359
923.036	0.0134399
923.114	0.0134245
923.193	0.0133770
923.271	0.0133397
923.349	0.0133131
923.427	0.0133366
923.505	0.0133339
923.583	0.0135094
923.661	0.0133554
923.739	0.0132131
923.818	0.0133800
923.896	0.0133635
923.974	0.0134529
924.052	0.0134386
924.130	0.0134681
924.208	0.0133986
924.286	0.0135619
924.364	0.0135564
924.443	0.0134453
924.521	0.0134900
924.599	0.0135727
924.677	0.0134291
924.755	0.0135531
924.833	0.0135880
924.911	0.0135001
924.989	0.0135085
925.068	0.0134703
925.146	0.0133809
925.224	0.0134883
925.302	0.0134071
925.380	0.0135281
925.458	0.0136794
925.536	0.0134901
925.614	0.0133637
925.693	0.0134616
925.771	0.0134076
925.849	0.0133578
925.927	0.0132368
926.005	0.0132987
926.083	0.0134202
926.161	0.0134852
926.239	0.0131931
926.318	0.0133843
926.396	0.0132790
926.474	0.0133122
926.552	0.0133317
926.630	0.0132535
926.708	0.0132413
926.786	0.0131215
926.864	0.0131796
926.943	0.0133471
927.021	0.0132815
927.099	0.0132013
927.177	0.0132342
927.255	0.0132604
927.333	0.0134153
927.411	0.0132925
927.489	0.0133166
927.568	0.0132397
927.646	0.0133666
927.724	0.0134587
927.802	0.0134304
927.880	0.0133205
927.958	0.0132950
928.036	0.0134350
928.114	0.0133276
928.193	0.0133302
928.271	0.0133942
928.349	0.0133773
928.427	0.0132982
928.505	0.0132233
928.583	0.0133086
928.661	0.0131650
928.739	0.0131483
928.818	0.0132266
928.896	0.0132852
928.974	0.0132909
929.052	0.0132104
929.130	0.0131818
929.208	0.0130193
929.286	0.0131676
929.364	0.0132450
929.443	0.0131592
929.521	0.0132284
929.599	0.0131001
929.677	0.0131955
929.755	0.0132883
929.833	0.0131427
929.911	0.0132886
929.989	0.0132850
930.068	0.0133479
930.146	0.0134138
930.224	0.0134206
930.302	0.0133318
930.380	0.0133734
930.458	0.0135542
930.536	0.0134535
930.614	0.0134598
930.693	0.0135275
930.771	0.0133598
930.849	0.0133051
930.927	0.0133842
931.005	0.0134801
931.083	0.0135070
931.161	0.0133229
931.239	0.0133262
931.318	0.0134187
931.396	0.0133991
931.474	0.0132560
931.552	0.0132039
931.630	0.0132812
931.708	0.0134037
931.786	0.0133350
931.864	0.0133795
931.943	0.0133810
932.021	0.0133862
932.099	0.0136560
932.177	0.0133957
932.255	0.0134704
932.333	0.0133583
932.411	0.0134929
932.489	0.0135359
932.568	0.0135066
932.646	0.0134237
932.724	0.0134319
932.802	0.0134324
932.880	0.0134430
932.958	0.0133893
933.036	0.0135138
933.114	0.0135293
933.193	0.0135155
933.271	0.0134469
933.349	0.0134135
933.427	0.0135077
933.505	0.0135118
933.583	0.0135493
933.661	0.0134558
933.739	0.0135972
933.818	0.0134952
933.896	0.0134940
933.974	0.0135242
934.052	0.0135327
934.130	0.0133585
934.208	0.0135246
934.286	0.0134982
934.364	0.0134161
934.443	0.0135089
934.521	0.0135217
934.599	0.0132744
934.677	0.0133957
934.755	0.0134155
934.833	0.0133554
934.911	0.0133764
934.989	0.0134388
935.068	0.0133006
935.146	0.0134107
935.224	0.0134518
935.302	0.0134698
935.380	0.0134248
935.458	0.0133829
935.536	0.0133992
935.614	0.0134566
935.693	0.0133368
935.771	0.0135118
935.849	0.0135022
935.927	0.0133475
936.005	0.0134547
936.083	0.0135408
936.161	0.0134870
936.239	0.0136160
936.318	0.0135291
936.396	0.0136465
936.474	0.0136111
936.552	0.0134845
936.630	0.0134773
936.708	0.0134952
936.786	0.0136665
936.864	0.0135342
936.943	0.0136873
937.021	0.0136759
937.099	0.0135374
937.177	0.0137241
937.255	0.0136278
937.333	0.0136461
937.411	0.0136976
937.489	0.0137227
937.568	0.0134943
937.646	0.0136082
937.724	0.0135693
937.802	0.0135830
937.880	0.0136560
937.958	0.0135182
938.036	0.0134898
938.114	0.0135971
938.193	0.0136324
938.271	0.0135733
938.349	0.0136420
938.427	0.0136039
938.505	0.0135542
938.583	0.0135606
938.661	0.0136847
938.739	0.0135184
938.818	0.0135785
938.896	0.0136467
938.974	0.0135816
939.052	0.0134073
939.130	0.0134548
939.208	0.0136237
939.286	0.0136257
939.364	0.0134738
939.443	0.0135452
939.521	0.0135496
939.599	0.0134085
939.677	0.0134336
939.755	0.0134117
939.833	0.0134449
939.911	0.0134235
939.989	0.0135017
940.068	0.0134007
940.146	0.0132446
940.224	0.0133069
940.302	0.0134039
940.380	0.0133833
940.458	0.0134287
940.536	0.0133340
940.614	0.0133025
940.693	0.0134122
940.771	0.0134306
940.849	0.0133434
940.927	0.0134222
941.005	0.0135455
941.083	0.0134731
941.161	0.0134275
941.239	0.0135357
941.318	0.0134860
941.396	0.0135004
941.474	0.0136370
941.552	0.0136273
941.630	0.0134280
941.708	0.0136143
941.786	0.0135728
941.864	0.0134460
941.943	0.0136155
942.021	0.0136195
942.099	0.0136437
942.177	0.0135996
942.255	0.0134596
942.333	0.0135940
942.411	0.0136690
942.489	0.0137401
942.568	0.0136094
942.646	0.0135190
942.724	0.0135869
942.802	0.0135606
942.880	0.0135485
942.958	0.0135325
943.036	0.0135697
943.114	0.0134454
943.193	0.0134462
943.271	0.0133667
943.349	0.0135050
943.427	0.0133646
943.505	0.0133633
943.583	0.0135184
943.661	0.0134309
943.739	0.0134299
943.818	0.0134323
943.896	0.0134241
943.974	0.0133597
944.052	0.0132520
944.130	0.0132245
944.208	0.0133772
944.286	0.0133412
944.364	0.0133418
944.443	0.0134833
944.521	0.0133453
944.599	0.0134164
944.677	0.0134145
944.755	0.0135007
944.833	0.0133237
944.911	0.0133600
944.989	0.0134422
945.068	0.0134494
945.146	0.0134255
945.224	0.0135941
945.302	0.0135612
945.380	0.0135177
945.458	0.0133594
945.536	0.0133379
945.614	0.0133829
945.693	0.0135558
945.771	0.0135606
945.849	0.0135817
945.927	0.0135369
946.005	0.0135074
946.083	0.0135036
946.161	0.0135281
946.239	0.0135770
946.318	0.0134678
946.396	0.0134999
946.474	0.0135545
946.552	0.0134472
946.630	0.0135725
946.708	0.0136407
946.786	0.0135390
946.864	0.0134740
946.943	0.0135930
947.021	0.0135970
947.099	0.0134866
947.177	0.0134853
947.255	0.0135071
947.333	0.0135422
947.411	0.0136551
947.489	0.0134889
947.568	0.0134875
947.646	0.0135989
947.724	0.0135553
947.802	0.0135526
947.880	0.0135181
947.958	0.0134962
948.036	0.0134919
948.114	0.0134247
948.193	0.0134221
948.271	0.0133292
948.349	0.0133656
948.427	0.0133611
948.505	0.0134492
948.583	0.0134197
948.661	0.0133962
948.739	0.0133086
948.818	0.0133170
948.896	0.0132610
948.974	0.0133029
949.052	0.0133502
949.130	0.0132476
949.208	0.0133072
949.286	0.0133902
949.364	0.0132494
949.443	0.0134314
949.521	0.0132825
949.599	0.0134686
949.677	0.0132027
949.755	0.0134176
949.833	0.0134073
949.911	0.0135231
949.989	0.0134766
950.068	0.0134142
950.146	0.0135880
950.224	0.0134701
950.302	0.0133611
950.380	0.0134810
950.458	0.0134886
950.536	0.0135741
950.614	0.0135690
950.693	0.0134327
950.771	0.0133814
950.849	0.0135141
950.927	0.0133994
951.005	0.0134790
951.083	0.0135464
951.161	0.0133819
951.239	0.0134166
951.318	0.0135833
951.396	0.0135201
951.474	0.0135437
951.552	0.0135756
951.630	0.0134278
951.708	0.0135345
951.786	0.0135439
951.864	0.0135777
951.943	0.0134535
952.021	0.0134567
952.099	0.0135002
952.177	0.0134473
952.255	0.0135469
952.333	0.0134099
952.411	0.0133461
952.489	0.0134324
952.568	0.0134549
952.646	0.0134608
952.724	0.0133515
952.802	0.0132762
952.880	0.0133450
952.958	0.0132981
953.036	0.0133102
953.114	0.0132334
953.193	0.0134185
953.271	0.0133270
953.349	0.0132561
953.427	0.0131943
953.505	0.0132367
953.583	0.0132639
953.661	0.0132970
953.739	0.0132265
953.818	0.0133682
953.896	0.0134108
953.974	0.0133532
954.052	0.0135089
954.130	0.0135557
954.208	0.0134467
954.286	0.0136072
954.364	0.0133994
954.443	0.0135400
954.521	0.0136018
954.599	0.0135439
954.677	0.0135066
954.755	0.0134784
954.833	0.0135301
954.911	0.0135624
954.989	0.0135473
955.068	0.0134795
955.146	0.0136298
955.224	0.0134939
955.302	0.0134721
955.380	0.0137580
955.458	0.0136452
955.536	0.0134851
955.614	0.0135828
955.693	0.0135608
955.771	0.0135096
955.849	0.0136411
955.927	0.0136488
956.005	0.0136738
956.083	0.0134924
956.161	0.0135555
956.239	0.0136141
956.318	0.0135772
956.396	0.0136115
956.474	0.0136012
956.552	0.0135263
956.630	0.0135119
956.708	0.0135258
956.786	0.0134636
956.864	0.0135079
956.943	0.0134703
957.021	0.0132625
957.099	0.0132857
957.177	0.0134000
957.255	0.0132161
957.333	0.0132999
957.411	0.0134200
957.489	0.0133784
957.568	0.0133587
957.646	0.0133892
957.724	0.0132736
957.802	0.0133727
957.880	0.0133160
957.958	0.0132465
958.036	0.0134740
958.114	0.0135154
958.193	0.0134418
958.271	0.0133848
958.349	0.0135466
958.427	0.0136046
958.505	0.0135709
958.583	0.0134468
958.661	0.0135945
958.739	0.0135575
958.818	0.0134647
958.896	0.0135031
958.974	0.0134692
959.052	0.0135738
959.130	0.0136051
959.208	0.0135287
959.286	0.0134985
959.364	0.0135728
959.443	0.0136384
959.521	0.0135859
959.599	0.0135872
959.677	0.0135496
959.755	0.0135597
959.833	0.0135722
959.911	0.0135812
