05/07/2022	17:42:13	Ver.	4.1	UNKNOWN
Optical Delay	639.989416	Delta X		0.078125	Sweeps	1	Scan Rate	0/0
Coordinates	Axis 1	NaN	Axis 2	NaN	Axis 3	NaN	Axis 4	NaN	Axis 5	NaN	Axis 6	0.000000
TX Power	0.000000	RX Power	0.000000

639.989	0.0137814
640.068	0.0137923
640.146	0.0138608
640.224	0.0138764
640.302	0.0137667
640.380	0.0137701
640.458	0.0137080
640.536	0.0137808
640.614	0.0138143
640.693	0.0138417
640.771	0.0137564
640.849	0.0137835
640.927	0.0137359
641.005	0.0136576
641.083	0.0135363
641.161	0.0136610
641.239	0.0135825
641.318	0.0137556
641.396	0.0135779
641.474	0.0136469
641.552	0.0136961
641.630	0.0137227
641.708	0.0136145
641.786	0.0136995
641.864	0.0137127
641.943	0.0136639
642.021	0.0136369
642.099	0.0137762
642.177	0.0138228
642.255	0.0137195
642.333	0.0136432
642.411	0.0137099
642.489	0.0137498
642.568	0.0136893
642.646	0.0136813
642.724	0.0136367
642.802	0.0136803
642.880	0.0137103
642.958	0.0137645
643.036	0.0135898
643.114	0.0137069
643.193	0.0136857
643.271	0.0137771
643.349	0.0136398
643.427	0.0137237
643.505	0.0136800
643.583	0.0136132
643.661	0.0135887
643.739	0.0135468
643.818	0.0136772
643.896	0.0136958
643.974	0.0137632
644.052	0.0136724
644.130	0.0137949
644.208	0.0136855
644.286	0.0138718
644.364	0.0137276
644.443	0.0138287
644.521	0.0139851
644.599	0.0138927
644.677	0.0139070
644.755	0.0138377
644.833	0.0139945
644.911	0.0137918
644.989	0.0138609
645.068	0.0137399
645.146	0.0136893
645.224	0.0136433
645.302	0.0135716
645.380	0.0136559
645.458	0.0135779
645.536	0.0136691
645.614	0.0135681
645.693	0.0135392
645.771	0.0134940
645.849	0.0134241
645.927	0.0134093
646.005	0.0134917
646.083	0.0134151
646.161	0.0134171
646.239	0.0135309
646.318	0.0136732
646.396	0.0135029
646.474	0.0135983
646.552	0.0136806
646.630	0.0135401
646.708	0.0138535
646.786	0.0139073
646.864	0.0137826
646.943	0.0139314
647.021	0.0140323
647.099	0.0141460
647.177	0.0140550
647.255	0.0142559
647.333	0.0142564
647.411	0.0142902
647.489	0.0144022
647.568	0.0144041
647.646	0.0143442
647.724	0.0144189
647.802	0.0143209
647.880	0.0144315
647.958	0.0145396
648.036	0.0144714
648.114	0.0143674
648.193	0.0143576
648.271	0.0143330
648.349	0.0142441
648.427	0.0142988
648.505	0.0140998
648.583	0.0139927
648.661	0.0139823
648.739	0.0139295
648.818	0.0138414
648.896	0.0139191
648.974	0.0135972
649.052	0.0137362
649.130	0.0135977
649.208	0.0134921
649.286	0.0134695
649.364	0.0134357
649.443	0.0133110
649.521	0.0132939
649.599	0.0132680
649.677	0.0132602
649.755	0.0132848
649.833	0.0133736
649.911	0.0134011
649.989	0.0133887
650.068	0.0135370
650.146	0.0134481
650.224	0.0135037
650.302	0.0134689
650.380	0.0137065
650.458	0.0136155
650.536	0.0137829
650.614	0.0138221
650.693	0.0137509
650.771	0.0140134
650.849	0.0141637
650.927	0.0141845
651.005	0.0141988
651.083	0.0142826
651.161	0.0143053
651.239	0.0144798
651.318	0.0146098
651.396	0.0145502
651.474	0.0147996
651.552	0.0146941
651.630	0.0147411
651.708	0.0147439
651.786	0.0148631
651.864	0.0148239
651.943	0.0145718
652.021	0.0145287
652.099	0.0143950
652.177	0.0142020
652.255	0.0141071
652.333	0.0139877
652.411	0.0136860
652.489	0.0136216
652.568	0.0135952
652.646	0.0133618
652.724	0.0132068
652.802	0.0130637
652.880	0.0128524
652.958	0.0127688
653.036	0.0127484
653.114	0.0126229
653.193	0.0124262
653.271	0.0124709
653.349	0.0123318
653.427	0.0123349
653.505	0.0124169
653.583	0.0123164
653.661	0.0125034
653.739	0.0124973
653.818	0.0125496
653.896	0.0127195
653.974	0.0128230
654.052	0.0130206
654.130	0.0132684
654.208	0.0133705
654.286	0.0136326
654.364	0.0139113
654.443	0.0140742
654.521	0.0143063
654.599	0.0145848
654.677	0.0147624
654.755	0.0149162
654.833	0.0151181
654.911	0.0152515
654.989	0.0154782
655.068	0.0153388
655.146	0.0155435
655.224	0.0156322
655.302	0.0157246
655.380	0.0156404
655.458	0.0156843
655.536	0.0156782
655.614	0.0157018
655.693	0.0155547
655.771	0.0153394
655.849	0.0152939
655.927	0.0149915
656.005	0.0147915
656.083	0.0146173
656.161	0.0142355
656.239	0.0140829
656.318	0.0139067
656.396	0.0134718
656.474	0.0131703
656.552	0.0126687
656.630	0.0127245
656.708	0.0124081
656.786	0.0121135
656.864	0.0119861
656.943	0.0118225
657.021	0.0117754
657.099	0.0116768
657.177	0.0114774
657.255	0.0115451
657.333	0.0115793
657.411	0.0114622
657.489	0.0115681
657.568	0.0115195
657.646	0.0118859
657.724	0.0118843
657.802	0.0120381
657.880	0.0123130
657.958	0.0123390
658.036	0.0127789
658.114	0.0129812
658.193	0.0132951
658.271	0.0136053
658.349	0.0139738
658.427	0.0142359
658.505	0.0145066
658.583	0.0147883
658.661	0.0151274
658.739	0.0154537
658.818	0.0157349
658.896	0.0161261
658.974	0.0161008
659.052	0.0163356
659.130	0.0164925
659.208	0.0166524
659.286	0.0167101
659.364	0.0166623
659.443	0.0165603
659.521	0.0164720
659.599	0.0164415
659.677	0.0164417
659.755	0.0161854
659.833	0.0159605
659.911	0.0156417
659.989	0.0153821
660.068	0.0150375
660.146	0.0149715
660.224	0.0144149
660.302	0.0141904
660.380	0.0137975
660.458	0.0135394
660.536	0.0130962
660.614	0.0127151
660.693	0.0124535
660.771	0.0120532
660.849	0.0117944
660.927	0.0115502
661.005	0.0110572
661.083	0.0110727
661.161	0.0108132
661.239	0.0106362
661.318	0.0105006
661.396	0.0104769
661.474	0.0105882
661.552	0.0106183
661.630	0.0106123
661.708	0.0107673
661.786	0.0109131
661.864	0.0110125
661.943	0.0114086
662.021	0.0117498
662.099	0.0120226
662.177	0.0123611
662.255	0.0126042
662.333	0.0128460
662.411	0.0133589
662.489	0.0138612
662.568	0.0143159
662.646	0.0146923
662.724	0.0149136
662.802	0.0153825
662.880	0.0156995
662.958	0.0160014
663.036	0.0162379
663.114	0.0163641
663.193	0.0165692
663.271	0.0167585
663.349	0.0167488
663.427	0.0167808
663.505	0.0167870
663.583	0.0167621
663.661	0.0167554
663.739	0.0165083
663.818	0.0163541
663.896	0.0163451
663.974	0.0161003
664.052	0.0158389
664.130	0.0154745
664.208	0.0153782
664.286	0.0151465
664.364	0.0147808
664.443	0.0144808
664.521	0.0141320
664.599	0.0139143
664.677	0.0135527
664.755	0.0131229
664.833	0.0128999
664.911	0.0126736
664.989	0.0124639
665.068	0.0121847
665.146	0.0118822
665.224	0.0116606
665.302	0.0113165
665.380	0.0113210
665.458	0.0110802
665.536	0.0110073
665.614	0.0109209
665.693	0.0108527
665.771	0.0110046
665.849	0.0110332
665.927	0.0110276
666.005	0.0112056
666.083	0.0113170
666.161	0.0115843
666.239	0.0116279
666.318	0.0118071
666.396	0.0121421
666.474	0.0125164
666.552	0.0128648
666.630	0.0129157
666.708	0.0132206
666.786	0.0135014
666.864	0.0139239
666.943	0.0142200
667.021	0.0142916
667.099	0.0148419
667.177	0.0150164
667.255	0.0152953
667.333	0.0156052
667.411	0.0156820
667.489	0.0158024
667.568	0.0159017
667.646	0.0160992
667.724	0.0162454
667.802	0.0160531
667.880	0.0161447
667.958	0.0162160
668.036	0.0159563
668.114	0.0157424
668.193	0.0156451
668.271	0.0154267
668.349	0.0152795
668.427	0.0153001
668.505	0.0150977
668.583	0.0147285
668.661	0.0146366
668.739	0.0143542
668.818	0.0142114
668.896	0.0142478
668.974	0.0140467
669.052	0.0138917
669.130	0.0136504
669.208	0.0137315
669.286	0.0136317
669.364	0.0134612
669.443	0.0132941
669.521	0.0132334
669.599	0.0132093
669.677	0.0129990
669.755	0.0129366
669.833	0.0128945
669.911	0.0128470
669.989	0.0127778
670.068	0.0127633
670.146	0.0126872
670.224	0.0126220
670.302	0.0125762
670.380	0.0125040
670.458	0.0126773
670.536	0.0124374
670.614	0.0124790
670.693	0.0126713
670.771	0.0126454
670.849	0.0126362
670.927	0.0126295
671.005	0.0126466
671.083	0.0127770
671.161	0.0126025
671.239	0.0127883
671.318	0.0129797
671.396	0.0130579
671.474	0.0132084
671.552	0.0133595
671.630	0.0134149
671.708	0.0135515
671.786	0.0137623
671.864	0.0138567
671.943	0.0139006
672.021	0.0143070
672.099	0.0143275
672.177	0.0145157
672.255	0.0145989
672.333	0.0146158
672.411	0.0146424
672.489	0.0147887
672.568	0.0148239
672.646	0.0147140
672.724	0.0146646
672.802	0.0147708
672.880	0.0147720
672.958	0.0146790
673.036	0.0146141
673.114	0.0145491
673.193	0.0143990
673.271	0.0143299
673.349	0.0143595
673.427	0.0142218
673.505	0.0143478
673.583	0.0141534
673.661	0.0140476
673.739	0.0140608
673.818	0.0140504
673.896	0.0140140
673.974	0.0140161
674.052	0.0139394
674.130	0.0141261
674.208	0.0141402
674.286	0.0139829
674.364	0.0141467
674.443	0.0140593
674.521	0.0140654
674.599	0.0141713
674.677	0.0142478
674.755	0.0142095
674.833	0.0142417
674.911	0.0143279
674.989	0.0143844
675.068	0.0142300
675.146	0.0141270
675.224	0.0140820
675.302	0.0140929
675.380	0.0140665
675.458	0.0139485
675.536	0.0137711
675.614	0.0136217
675.693	0.0134824
675.771	0.0132448
675.849	0.0131425
675.927	0.0130342
676.005	0.0127710
676.083	0.0126923
676.161	0.0125912
676.239	0.0124188
676.318	0.0122291
676.396	0.0121635
676.474	0.0121743
676.552	0.0121560
676.630	0.0121111
676.708	0.0122039
676.786	0.0122134
676.864	0.0122231
676.943	0.0123497
677.021	0.0123894
677.099	0.0125523
677.177	0.0127821
677.255	0.0129813
677.333	0.0131445
677.411	0.0131728
677.489	0.0135906
677.568	0.0138766
677.646	0.0139274
677.724	0.0140785
677.802	0.0143896
677.880	0.0147726
677.958	0.0146703
678.036	0.0149337
678.114	0.0151775
678.193	0.0151485
678.271	0.0153080
678.349	0.0153785
678.427	0.0154745
678.505	0.0155234
678.583	0.0157056
678.661	0.0154750
678.739	0.0156235
678.818	0.0156496
678.896	0.0155998
678.974	0.0155539
679.052	0.0154244
679.130	0.0154012
679.208	0.0152225
679.286	0.0150809
679.364	0.0149808
679.443	0.0149485
679.521	0.0148245
679.599	0.0145551
679.677	0.0144071
679.755	0.0142994
679.833	0.0141322
679.911	0.0141585
679.989	0.0138799
680.068	0.0137612
680.146	0.0136072
680.224	0.0135147
680.302	0.0132605
680.380	0.0132449
680.458	0.0132516
680.536	0.0130295
680.614	0.0126941
680.693	0.0127432
680.771	0.0127172
680.849	0.0125846
680.927	0.0123528
681.005	0.0122205
681.083	0.0120515
681.161	0.0119147
681.239	0.0119672
681.318	0.0119591
681.396	0.0116875
681.474	0.0119633
681.552	0.0119473
681.630	0.0118600
681.708	0.0119399
681.786	0.0118491
681.864	0.0119956
681.943	0.0121655
682.021	0.0120856
682.099	0.0124290
682.177	0.0125123
682.255	0.0127050
682.333	0.0130174
682.411	0.0131344
682.489	0.0134283
682.568	0.0137342
682.646	0.0138493
682.724	0.0141193
682.802	0.0145507
682.880	0.0148160
682.958	0.0149703
683.036	0.0152581
683.114	0.0156157
683.193	0.0159341
683.271	0.0159733
683.349	0.0159877
683.427	0.0162247
683.505	0.0165435
683.583	0.0163992
683.661	0.0163267
683.739	0.0163332
683.818	0.0161794
683.896	0.0160392
683.974	0.0158640
684.052	0.0156836
684.130	0.0152805
684.208	0.0150436
684.286	0.0148678
684.364	0.0145395
684.443	0.0143024
684.521	0.0139296
684.599	0.0137243
684.677	0.0133797
684.755	0.0132126
684.833	0.0129888
684.911	0.0126407
684.989	0.0125493
685.068	0.0124474
685.146	0.0123026
685.224	0.0123861
685.302	0.0123351
685.380	0.0120901
685.458	0.0122794
685.536	0.0124523
685.614	0.0124313
685.693	0.0124928
685.771	0.0127125
685.849	0.0127161
685.927	0.0131581
686.005	0.0131885
686.083	0.0134418
686.161	0.0136168
686.239	0.0137256
686.318	0.0137798
686.396	0.0139368
686.474	0.0139380
686.552	0.0139400
686.630	0.0140790
686.708	0.0141006
686.786	0.0139863
686.864	0.0139793
686.943	0.0139494
687.021	0.0137659
687.099	0.0136488
687.177	0.0136177
687.255	0.0136437
687.333	0.0134482
687.411	0.0133917
687.489	0.0132845
687.568	0.0132848
687.646	0.0132374
687.724	0.0132075
687.802	0.0134042
687.880	0.0132921
687.958	0.0132188
688.036	0.0133639
688.114	0.0133902
688.193	0.0133277
688.271	0.0135368
688.349	0.0135609
688.427	0.0137048
688.505	0.0137774
688.583	0.0138142
688.661	0.0141104
688.739	0.0140876
688.818	0.0142394
688.896	0.0144701
688.974	0.0144238
689.052	0.0146826
689.130	0.0146448
689.208	0.0147462
689.286	0.0147897
689.364	0.0148649
689.443	0.0147471
689.521	0.0147717
689.599	0.0148331
689.677	0.0146304
689.755	0.0143806
689.833	0.0142387
689.911	0.0141762
689.989	0.0140821
690.068	0.0139301
690.146	0.0138982
690.224	0.0137679
690.302	0.0136170
690.380	0.0135909
690.458	0.0134737
690.536	0.0133973
690.614	0.0133955
690.693	0.0133141
690.771	0.0134553
690.849	0.0135655
690.927	0.0136701
691.005	0.0135611
691.083	0.0136976
691.161	0.0139310
691.239	0.0138309
691.318	0.0139207
691.396	0.0139179
691.474	0.0139425
691.552	0.0140311
691.630	0.0141116
691.708	0.0140365
691.786	0.0138324
691.864	0.0141520
691.943	0.0139816
692.021	0.0140220
692.099	0.0140762
692.177	0.0138406
692.255	0.0138284
692.333	0.0137993
692.411	0.0137075
692.489	0.0135743
692.568	0.0133825
692.646	0.0133775
692.724	0.0132643
692.802	0.0133125
692.880	0.0130962
692.958	0.0129099
693.036	0.0130034
693.114	0.0129794
693.193	0.0127420
693.271	0.0127963
693.349	0.0126643
693.427	0.0127675
693.505	0.0126955
693.583	0.0128752
693.661	0.0128749
693.739	0.0128268
693.818	0.0129215
693.896	0.0129842
693.974	0.0131644
694.052	0.0132095
694.130	0.0133535
694.208	0.0134763
694.286	0.0136877
694.364	0.0137033
694.443	0.0139380
694.521	0.0141184
694.599	0.0142609
694.677	0.0145887
694.755	0.0145225
694.833	0.0147105
694.911	0.0149313
694.989	0.0150148
695.068	0.0151837
695.146	0.0153062
695.224	0.0153524
695.302	0.0154281
695.380	0.0155036
695.458	0.0153880
695.536	0.0152995
695.614	0.0152331
695.693	0.0152001
695.771	0.0149863
695.849	0.0147096
695.927	0.0146347
696.005	0.0145024
696.083	0.0143594
696.161	0.0139936
696.239	0.0138252
696.318	0.0135993
696.396	0.0135199
696.474	0.0133753
696.552	0.0132571
696.630	0.0130920
696.708	0.0128944
696.786	0.0128573
696.864	0.0126471
696.943	0.0127636
697.021	0.0128378
697.099	0.0126906
697.177	0.0128283
697.255	0.0128281
697.333	0.0128756
697.411	0.0129685
697.489	0.0129293
697.568	0.0130218
697.646	0.0132420
697.724	0.0133363
697.802	0.0134341
697.880	0.0133767
697.958	0.0135287
698.036	0.0137814
698.114	0.0138833
698.193	0.0141035
698.271	0.0139455
698.349	0.0140656
698.427	0.0141286
698.505	0.0141728
698.583	0.0141243
698.661	0.0140578
698.739	0.0140971
698.818	0.0139671
698.896	0.0140427
698.974	0.0138160
699.052	0.0137629
699.130	0.0137924
699.208	0.0138044
699.286	0.0137945
699.364	0.0138041
699.443	0.0137302
699.521	0.0134476
699.599	0.0135758
699.677	0.0135331
699.755	0.0136012
699.833	0.0136235
699.911	0.0137038
699.989	0.0136948
700.068	0.0139279
700.146	0.0138870
700.224	0.0140031
700.302	0.0139188
700.380	0.0141464
700.458	0.0142152
700.536	0.0144735
700.614	0.0144843
700.693	0.0145802
700.771	0.0147249
700.849	0.0147432
700.927	0.0147674
701.005	0.0147956
701.083	0.0148877
701.161	0.0147819
701.239	0.0148067
701.318	0.0148907
701.396	0.0148215
701.474	0.0147051
701.552	0.0146173
701.630	0.0145029
701.708	0.0143253
701.786	0.0145106
701.864	0.0142142
701.943	0.0142444
702.021	0.0139600
702.099	0.0140791
702.177	0.0139698
702.255	0.0136851
702.333	0.0136648
702.411	0.0135791
702.489	0.0134838
702.568	0.0133788
702.646	0.0133696
702.724	0.0131837
702.802	0.0131423
702.880	0.0130343
702.958	0.0129480
703.036	0.0130295
703.114	0.0129060
703.193	0.0129619
703.271	0.0130181
703.349	0.0131203
703.427	0.0129482
703.505	0.0130510
703.583	0.0131644
703.661	0.0132647
703.739	0.0134915
703.818	0.0134808
703.896	0.0135879
703.974	0.0137700
704.052	0.0137143
704.130	0.0137134
704.208	0.0139970
704.286	0.0140101
704.364	0.0140203
704.443	0.0140163
704.521	0.0142623
704.599	0.0141325
704.677	0.0141706
704.755	0.0142060
704.833	0.0142587
704.911	0.0142023
704.989	0.0141583
705.068	0.0142761
705.146	0.0140429
705.224	0.0140915
705.302	0.0140509
705.380	0.0140433
705.458	0.0138786
705.536	0.0137822
705.614	0.0140479
705.693	0.0139394
705.771	0.0138417
705.849	0.0136694
705.927	0.0137307
706.005	0.0136464
706.083	0.0137949
706.161	0.0138092
706.239	0.0137371
706.318	0.0137322
706.396	0.0136851
706.474	0.0138966
706.552	0.0140242
706.630	0.0140279
706.708	0.0138811
706.786	0.0139681
706.864	0.0139252
706.943	0.0140376
707.021	0.0140011
707.099	0.0141335
707.177	0.0141149
707.255	0.0142100
707.333	0.0143058
707.411	0.0142718
707.489	0.0141673
707.568	0.0141650
707.646	0.0142892
707.724	0.0142780
707.802	0.0142822
707.880	0.0142500
707.958	0.0142647
708.036	0.0142387
708.114	0.0140213
708.193	0.0139593
708.271	0.0140113
708.349	0.0139477
708.427	0.0137970
708.505	0.0136049
708.583	0.0135913
708.661	0.0136226
708.739	0.0135648
708.818	0.0134675
708.896	0.0133722
708.974	0.0134042
709.052	0.0133788
709.130	0.0133042
709.208	0.0132529
709.286	0.0132746
709.364	0.0134437
709.443	0.0133588
709.521	0.0134435
709.599	0.0133118
709.677	0.0135689
709.755	0.0136044
709.833	0.0136979
709.911	0.0137321
709.989	0.0140213
710.068	0.0140402
710.146	0.0141944
710.224	0.0143023
710.302	0.0144476
710.380	0.0144476
710.458	0.0145919
710.536	0.0147261
710.614	0.0146742
710.693	0.0146060
710.771	0.0146755
710.849	0.0147353
710.927	0.0146558
711.005	0.0145331
711.083	0.0145348
711.161	0.0143600
711.239	0.0144231
711.318	0.0143494
711.396	0.0140854
711.474	0.0140472
711.552	0.0139873
711.630	0.0137189
711.708	0.0137100
711.786	0.0137806
711.864	0.0133784
711.943	0.0133821
712.021	0.0133868
712.099	0.0132156
712.177	0.0132970
712.255	0.0131993
712.333	0.0132156
712.411	0.0132407
712.489	0.0132142
712.568	0.0131767
712.646	0.0132830
712.724	0.0134010
712.802	0.0134692
712.880	0.0134380
712.958	0.0136733
713.036	0.0136982
713.114	0.0137924
713.193	0.0138708
713.271	0.0140229
713.349	0.0142856
713.427	0.0143296
713.505	0.0144422
713.583	0.0143950
713.661	0.0145757
713.739	0.0146302
713.818	0.0147542
713.896	0.0148000
713.974	0.0147989
714.052	0.0147594
714.130	0.0146705
714.208	0.0146407
714.286	0.0144589
714.364	0.0144348
714.443	0.0142564
714.521	0.0141273
714.599	0.0141637
714.677	0.0138766
714.755	0.0137782
714.833	0.0136566
714.911	0.0135655
714.989	0.0133990
715.068	0.0132024
715.146	0.0131467
715.224	0.0131484
715.302	0.0130051
715.380	0.0130042
715.458	0.0130250
715.536	0.0130906
715.614	0.0130125
715.693	0.0130336
715.771	0.0130259
715.849	0.0131310
715.927	0.0131255
716.005	0.0132609
716.083	0.0132845
716.161	0.0134099
716.239	0.0135754
716.318	0.0136592
716.396	0.0136560
716.474	0.0139202
716.552	0.0139749
716.630	0.0141789
716.708	0.0143109
716.786	0.0143296
716.864	0.0142884
716.943	0.0144542
717.021	0.0144825
717.099	0.0144721
717.177	0.0145290
717.255	0.0145548
717.333	0.0144360
717.411	0.0144177
717.489	0.0142574
717.568	0.0142310
717.646	0.0142559
717.724	0.0142452
717.802	0.0139880
717.880	0.0140710
717.958	0.0138907
718.036	0.0138303
718.114	0.0138608
718.193	0.0137575
718.271	0.0137769
718.349	0.0137305
718.427	0.0136007
718.505	0.0136388
718.583	0.0135517
718.661	0.0135117
718.739	0.0135135
718.818	0.0136112
718.896	0.0136568
718.974	0.0136728
719.052	0.0139037
719.130	0.0137022
719.208	0.0137350
719.286	0.0137392
719.364	0.0138168
719.443	0.0140025
719.521	0.0139782
719.599	0.0141663
719.677	0.0141624
719.755	0.0141039
719.833	0.0140935
719.911	0.0139858
719.989	0.0139632
720.068	0.0141769
720.146	0.0139909
720.224	0.0140711
720.302	0.0140502
720.380	0.0140723
720.458	0.0138013
720.536	0.0138137
720.614	0.0138403
720.693	0.0138238
720.771	0.0137960
720.849	0.0137818
720.927	0.0138074
721.005	0.0137727
721.083	0.0137759
721.161	0.0136940
721.239	0.0137403
721.318	0.0137651
721.396	0.0136320
721.474	0.0136922
721.552	0.0137342
721.630	0.0138033
721.708	0.0136900
721.786	0.0135898
721.864	0.0136755
721.943	0.0136077
722.021	0.0136549
722.099	0.0136674
722.177	0.0137213
722.255	0.0135884
722.333	0.0137054
722.411	0.0137248
722.489	0.0138231
722.568	0.0138039
722.646	0.0139045
722.724	0.0139194
722.802	0.0140166
722.880	0.0140792
722.958	0.0142867
723.036	0.0142071
723.114	0.0142256
723.193	0.0142106
723.271	0.0143173
723.349	0.0142937
723.427	0.0142648
723.505	0.0142355
723.583	0.0143353
723.661	0.0142200
723.739	0.0141460
723.818	0.0142804
723.896	0.0143270
723.974	0.0141771
724.052	0.0142163
724.130	0.0141221
724.208	0.0140850
724.286	0.0142244
724.364	0.0141382
724.443	0.0139995
724.521	0.0141076
724.599	0.0140340
724.677	0.0140311
724.755	0.0140372
724.833	0.0140918
724.911	0.0138945
724.989	0.0137390
725.068	0.0139825
725.146	0.0139462
725.224	0.0139240
725.302	0.0138239
725.380	0.0139205
725.458	0.0138125
725.536	0.0138958
725.614	0.0139189
725.693	0.0137669
725.771	0.0138326
725.849	0.0137237
725.927	0.0136580
726.005	0.0137099
726.083	0.0137203
726.161	0.0136895
726.239	0.0137447
726.318	0.0136559
726.396	0.0136206
726.474	0.0136996
726.552	0.0136391
726.630	0.0135967
726.708	0.0136337
726.786	0.0136532
726.864	0.0136034
726.943	0.0136073
727.021	0.0135108
727.099	0.0137275
727.177	0.0137211
727.255	0.0137207
727.333	0.0136021
727.411	0.0136101
727.489	0.0137096
727.568	0.0137505
727.646	0.0138354
727.724	0.0136946
727.802	0.0138501
727.880	0.0138550
727.958	0.0139265
728.036	0.0139659
728.114	0.0139491
728.193	0.0141895
728.271	0.0141559
728.349	0.0142569
728.427	0.0142809
728.505	0.0142897
728.583	0.0143266
728.661	0.0145779
728.739	0.0143151
728.818	0.0143254
728.896	0.0142963
728.974	0.0143074
729.052	0.0143259
729.130	0.0143524
729.208	0.0142229
729.286	0.0141109
729.364	0.0139827
729.443	0.0141051
729.521	0.0140385
729.599	0.0139970
729.677	0.0138427
729.755	0.0138822
729.833	0.0138620
729.911	0.0137925
729.989	0.0137478
730.068	0.0138808
730.146	0.0138118
730.224	0.0136539
730.302	0.0137360
730.380	0.0137825
730.458	0.0137009
730.536	0.0137692
730.614	0.0137264
730.693	0.0136665
730.771	0.0136298
730.849	0.0137119
730.927	0.0134995
731.005	0.0135329
731.083	0.0136086
731.161	0.0135069
731.239	0.0132678
731.318	0.0135743
731.396	0.0133746
731.474	0.0133810
731.552	0.0136013
731.630	0.0134743
731.708	0.0134193
731.786	0.0136008
731.864	0.0135444
731.943	0.0134937
732.021	0.0136464
732.099	0.0136874
732.177	0.0135947
732.255	0.0136890
732.333	0.0137109
732.411	0.0138874
732.489	0.0139513
732.568	0.0138016
732.646	0.0138308
732.724	0.0138689
732.802	0.0139021
732.880	0.0138636
732.958	0.0138895
733.036	0.0137914
733.114	0.0139300
733.193	0.0139088
733.271	0.0139092
733.349	0.0138795
733.427	0.0138749
733.505	0.0137199
733.583	0.0139722
733.661	0.0138566
733.739	0.0137857
733.818	0.0137305
733.896	0.0137350
733.974	0.0136885
734.052	0.0136686
734.130	0.0136657
734.208	0.0137502
734.286	0.0137922
734.364	0.0137342
734.443	0.0137550
734.521	0.0138597
734.599	0.0136544
734.677	0.0137991
734.755	0.0137694
734.833	0.0135892
734.911	0.0136909
734.989	0.0136836
735.068	0.0137746
735.146	0.0136610
735.224	0.0137187
735.302	0.0137086
735.380	0.0136037
735.458	0.0136551
735.536	0.0136878
735.614	0.0138676
735.693	0.0138788
735.771	0.0138799
735.849	0.0139190
735.927	0.0139648
736.005	0.0139969
736.083	0.0141316
736.161	0.0141252
736.239	0.0142575
736.318	0.0141620
736.396	0.0140946
736.474	0.0140633
736.552	0.0141563
736.630	0.0141969
736.708	0.0140101
736.786	0.0140253
736.864	0.0140190
736.943	0.0138226
737.021	0.0138970
737.099	0.0138504
737.177	0.0138019
737.255	0.0138557
737.333	0.0137283
737.411	0.0137735
737.489	0.0138351
737.568	0.0136915
737.646	0.0137021
737.724	0.0136220
737.802	0.0136054
737.880	0.0137007
737.958	0.0136021
738.036	0.0136964
738.114	0.0137671
738.193	0.0136777
738.271	0.0136509
738.349	0.0136514
738.427	0.0136466
738.505	0.0135786
738.583	0.0136781
738.661	0.0137055
738.739	0.0136757
738.818	0.0138435
738.896	0.0138110
738.974	0.0137749
739.052	0.0140006
739.130	0.0139061
739.208	0.0139030
739.286	0.0141338
739.364	0.0140821
739.443	0.0142864
739.521	0.0142993
739.599	0.0142713
739.677	0.0143923
739.755	0.0143533
739.833	0.0143181
739.911	0.0143295
739.989	0.0143453
740.068	0.0143717
740.146	0.0144463
740.224	0.0143529
740.302	0.0143626
740.380	0.0143817
740.458	0.0143807
740.536	0.0142886
740.614	0.0141721
740.693	0.0143063
740.771	0.0143438
740.849	0.0141646
740.927	0.0141159
741.005	0.0139572
741.083	0.0139774
741.161	0.0140079
741.239	0.0139686
741.318	0.0138663
741.396	0.0138423
741.474	0.0138001
741.552	0.0136462
741.630	0.0135699
741.708	0.0135691
741.786	0.0135027
741.864	0.0135298
741.943	0.0135307
742.021	0.0135176
742.099	0.0136210
742.177	0.0135442
742.255	0.0134937
742.333	0.0135957
742.411	0.0135818
742.489	0.0136700
742.568	0.0138084
742.646	0.0138765
742.724	0.0137808
742.802	0.0137943
742.880	0.0137305
742.958	0.0139748
743.036	0.0140498
743.114	0.0138754
743.193	0.0140447
743.271	0.0141236
743.349	0.0140685
743.427	0.0140181
743.505	0.0141946
743.583	0.0141489
743.661	0.0142744
743.739	0.0141754
743.818	0.0140521
743.896	0.0141505
743.974	0.0142585
744.052	0.0140916
744.130	0.0140556
744.208	0.0140937
744.286	0.0141513
744.364	0.0140622
744.443	0.0140018
744.521	0.0139319
744.599	0.0139325
744.677	0.0138876
744.755	0.0139095
744.833	0.0138440
744.911	0.0136603
744.989	0.0135470
745.068	0.0137852
745.146	0.0136665
745.224	0.0137121
745.302	0.0136251
745.380	0.0134284
745.458	0.0135757
745.536	0.0136214
745.614	0.0136082
745.693	0.0137501
745.771	0.0136530
745.849	0.0136353
745.927	0.0135995
746.005	0.0137818
746.083	0.0138303
746.161	0.0137611
746.239	0.0138567
746.318	0.0140020
746.396	0.0138171
746.474	0.0139996
746.552	0.0139649
746.630	0.0138885
746.708	0.0139796
746.786	0.0139485
746.864	0.0140788
746.943	0.0139771
747.021	0.0141022
747.099	0.0141467
747.177	0.0141014
747.255	0.0140563
747.333	0.0139829
747.411	0.0139865
747.489	0.0140112
747.568	0.0140363
747.646	0.0139106
747.724	0.0140372
747.802	0.0137829
747.880	0.0138981
747.958	0.0139431
748.036	0.0138506
748.114	0.0136138
748.193	0.0137277
748.271	0.0136639
748.349	0.0137184
748.427	0.0137682
748.505	0.0136425
748.583	0.0135567
748.661	0.0135913
748.739	0.0135954
748.818	0.0135901
748.896	0.0135349
748.974	0.0136286
749.052	0.0136428
749.130	0.0136636
749.208	0.0136798
749.286	0.0135551
749.364	0.0137148
749.443	0.0137495
749.521	0.0136633
749.599	0.0137730
749.677	0.0137074
749.755	0.0137354
749.833	0.0137572
749.911	0.0136775
749.989	0.0137173
750.068	0.0137159
750.146	0.0138003
750.224	0.0138271
750.302	0.0138838
750.380	0.0138119
750.458	0.0137526
750.536	0.0136303
750.614	0.0137701
750.693	0.0137257
750.771	0.0139235
750.849	0.0137871
750.927	0.0139645
751.005	0.0137515
751.083	0.0136770
751.161	0.0138219
751.239	0.0138210
751.318	0.0137894
751.396	0.0139696
751.474	0.0138160
751.552	0.0137273
751.630	0.0139349
751.708	0.0140304
751.786	0.0140065
751.864	0.0139243
751.943	0.0139413
752.021	0.0139030
752.099	0.0138892
752.177	0.0139014
752.255	0.0138628
752.333	0.0138682
752.411	0.0138676
752.489	0.0139870
752.568	0.0139027
752.646	0.0139092
752.724	0.0137706
752.802	0.0138187
752.880	0.0138183
752.958	0.0138299
753.036	0.0138750
753.114	0.0138696
753.193	0.0135771
753.271	0.0139227
753.349	0.0138180
753.427	0.0137975
753.505	0.0138361
753.583	0.0137334
753.661	0.0135762
753.739	0.0136761
753.818	0.0135915
753.896	0.0134473
753.974	0.0134515
754.052	0.0132890
754.130	0.0133672
754.208	0.0133084
754.286	0.0132996
754.364	0.0132516
754.443	0.0133313
754.521	0.0134467
754.599	0.0133406
754.677	0.0132759
754.755	0.0134689
754.833	0.0133782
754.911	0.0134232
754.989	0.0135641
755.068	0.0135665
755.146	0.0135702
755.224	0.0136874
755.302	0.0137189
755.380	0.0136930
755.458	0.0139091
755.536	0.0138783
755.614	0.0140392
755.693	0.0141415
755.771	0.0141338
755.849	0.0142334
755.927	0.0142453
756.005	0.0142366
756.083	0.0142422
756.161	0.0142680
756.239	0.0144320
756.318	0.0144489
756.396	0.0143517
756.474	0.0143197
756.552	0.0143760
756.630	0.0143878
756.708	0.0142413
756.786	0.0142632
756.864	0.0141324
756.943	0.0141086
757.021	0.0140088
757.099	0.0140110
757.177	0.0138741
757.255	0.0137464
757.333	0.0135831
757.411	0.0135986
757.489	0.0136184
757.568	0.0136617
757.646	0.0135757
757.724	0.0133844
757.802	0.0132765
757.880	0.0134101
757.958	0.0132365
758.036	0.0132576
758.114	0.0131834
758.193	0.0133929
758.271	0.0132092
758.349	0.0131137
758.427	0.0132329
758.505	0.0133085
758.583	0.0132639
758.661	0.0133531
758.739	0.0132195
758.818	0.0134335
758.896	0.0134851
758.974	0.0136229
759.052	0.0136497
759.130	0.0136088
759.208	0.0136588
759.286	0.0137583
759.364	0.0139805
759.443	0.0139345
759.521	0.0140231
759.599	0.0140936
759.677	0.0141119
759.755	0.0141714
759.833	0.0140886
759.911	0.0140614
759.989	0.0141022
760.068	0.0141911
760.146	0.0141363
760.224	0.0143609
760.302	0.0142800
760.380	0.0141241
760.458	0.0140771
760.536	0.0141785
760.614	0.0143287
760.693	0.0141125
760.771	0.0140166
760.849	0.0140144
760.927	0.0140627
761.005	0.0140308
761.083	0.0139117
761.161	0.0138353
761.239	0.0139600
761.318	0.0138100
761.396	0.0137692
761.474	0.0138288
761.552	0.0138608
761.630	0.0138558
761.708	0.0137619
761.786	0.0137951
761.864	0.0137622
761.943	0.0137576
762.021	0.0137430
762.099	0.0136350
762.177	0.0136647
762.255	0.0136620
762.333	0.0136421
762.411	0.0136631
762.489	0.0136932
762.568	0.0135502
762.646	0.0137150
762.724	0.0135714
762.802	0.0135249
762.880	0.0136196
762.958	0.0136554
763.036	0.0137096
763.114	0.0136786
763.193	0.0137616
763.271	0.0137549
763.349	0.0137324
763.427	0.0136570
763.505	0.0138671
763.583	0.0139962
763.661	0.0138988
763.739	0.0138738
763.818	0.0137815
763.896	0.0140514
763.974	0.0140283
764.052	0.0140226
764.130	0.0141061
764.208	0.0140020
764.286	0.0140042
764.364	0.0140604
764.443	0.0140929
764.521	0.0141238
764.599	0.0139215
764.677	0.0139538
764.755	0.0139364
764.833	0.0139079
764.911	0.0138653
764.989	0.0140769
765.068	0.0140594
765.146	0.0140187
765.224	0.0139852
765.302	0.0140552
765.380	0.0139303
765.458	0.0138624
765.536	0.0138720
765.614	0.0139922
765.693	0.0140570
765.771	0.0141095
765.849	0.0140728
765.927	0.0138047
766.005	0.0140257
766.083	0.0140201
766.161	0.0139162
766.239	0.0138889
766.318	0.0138435
766.396	0.0139162
766.474	0.0138499
766.552	0.0139111
766.630	0.0138140
766.708	0.0138260
766.786	0.0137534
766.864	0.0137728
766.943	0.0137313
767.021	0.0137175
767.099	0.0137400
767.177	0.0136668
767.255	0.0135265
767.333	0.0136926
767.411	0.0136665
767.489	0.0135359
767.568	0.0135214
767.646	0.0136082
767.724	0.0135986
767.802	0.0134919
767.880	0.0135885
767.958	0.0135221
768.036	0.0135033
768.114	0.0134512
768.193	0.0137298
768.271	0.0135994
768.349	0.0134289
768.427	0.0134241
768.505	0.0135011
768.583	0.0135862
768.661	0.0134875
768.739	0.0135222
768.818	0.0136672
768.896	0.0136232
768.974	0.0136270
769.052	0.0135709
769.130	0.0137159
769.208	0.0138077
769.286	0.0136386
769.364	0.0138831
769.443	0.0137233
769.521	0.0139835
769.599	0.0140428
769.677	0.0138509
769.755	0.0139612
769.833	0.0139987
769.911	0.0139101
769.989	0.0138629
770.068	0.0140536
770.146	0.0139497
770.224	0.0140416
770.302	0.0139774
770.380	0.0139967
770.458	0.0138619
770.536	0.0138988
770.614	0.0140110
770.693	0.0139420
770.771	0.0139955
770.849	0.0139082
770.927	0.0140584
771.005	0.0138182
771.083	0.0138081
771.161	0.0138470
771.239	0.0137579
771.318	0.0138010
771.396	0.0137581
771.474	0.0137060
771.552	0.0137315
771.630	0.0137498
771.708	0.0136646
771.786	0.0136966
771.864	0.0138084
771.943	0.0138075
772.021	0.0137409
772.099	0.0137547
772.177	0.0137662
772.255	0.0136652
772.333	0.0135821
772.411	0.0137489
772.489	0.0136217
772.568	0.0136229
772.646	0.0136829
772.724	0.0136060
772.802	0.0136964
772.880	0.0135209
772.958	0.0136262
773.036	0.0136606
773.114	0.0136122
773.193	0.0134057
773.271	0.0134206
773.349	0.0136268
773.427	0.0134377
773.505	0.0134060
773.583	0.0135132
773.661	0.0132588
773.739	0.0134926
773.818	0.0133875
773.896	0.0132896
773.974	0.0133517
774.052	0.0134775
774.130	0.0136098
774.208	0.0135762
774.286	0.0135553
774.364	0.0135111
774.443	0.0135279
774.521	0.0136101
774.599	0.0135934
774.677	0.0138255
774.755	0.0137497
774.833	0.0136259
774.911	0.0137464
774.989	0.0139243
775.068	0.0137783
775.146	0.0138854
775.224	0.0138829
775.302	0.0139324
775.380	0.0139523
775.458	0.0140571
775.536	0.0140393
775.614	0.0140139
775.693	0.0140363
775.771	0.0141094
775.849	0.0142149
775.927	0.0140731
776.005	0.0141291
776.083	0.0141252
776.161	0.0141384
776.239	0.0140871
776.318	0.0141757
776.396	0.0141730
776.474	0.0140473
776.552	0.0141614
776.630	0.0142368
776.708	0.0140185
776.786	0.0139275
776.864	0.0141890
776.943	0.0141038
777.021	0.0138854
777.099	0.0139626
777.177	0.0139738
777.255	0.0139196
777.333	0.0137757
777.411	0.0138413
777.489	0.0137477
777.568	0.0137450
777.646	0.0137022
777.724	0.0136366
777.802	0.0135558
777.880	0.0137132
777.958	0.0135351
778.036	0.0135497
778.114	0.0133546
778.193	0.0135426
778.271	0.0135159
778.349	0.0134534
778.427	0.0134118
778.505	0.0132189
778.583	0.0133900
778.661	0.0133880
778.739	0.0134158
778.818	0.0133527
778.896	0.0133654
778.974	0.0134447
779.052	0.0134112
779.130	0.0135227
779.208	0.0134869
779.286	0.0136417
779.364	0.0136193
779.443	0.0137687
779.521	0.0137940
779.599	0.0140024
779.677	0.0139124
779.755	0.0140524
779.833	0.0140842
779.911	0.0142059
779.989	0.0141367
780.068	0.0141758
780.146	0.0143361
780.224	0.0144506
780.302	0.0145928
780.380	0.0144950
780.458	0.0145304
780.536	0.0144288
780.614	0.0144873
780.693	0.0144109
780.771	0.0143880
780.849	0.0144550
780.927	0.0143138
781.005	0.0142622
781.083	0.0142269
781.161	0.0142770
781.239	0.0141839
781.318	0.0140215
781.396	0.0139194
781.474	0.0140691
781.552	0.0138915
781.630	0.0137054
781.708	0.0135970
781.786	0.0135089
781.864	0.0136502
781.943	0.0136232
782.021	0.0135133
782.099	0.0134917
782.177	0.0134325
782.255	0.0133222
782.333	0.0133576
782.411	0.0133317
782.489	0.0133331
782.568	0.0134772
782.646	0.0134211
782.724	0.0134769
782.802	0.0135250
782.880	0.0135606
782.958	0.0134679
783.036	0.0135883
783.114	0.0136002
783.193	0.0136578
783.271	0.0136128
783.349	0.0136008
783.427	0.0137295
783.505	0.0136729
783.583	0.0137370
783.661	0.0137434
783.739	0.0137350
783.818	0.0137537
783.896	0.0136038
783.974	0.0136952
784.052	0.0137243
784.130	0.0138005
784.208	0.0138009
784.286	0.0137946
784.364	0.0136800
784.443	0.0136900
784.521	0.0137255
784.599	0.0137474
784.677	0.0138553
784.755	0.0138264
784.833	0.0137275
784.911	0.0138682
784.989	0.0139600
785.068	0.0139303
785.146	0.0141296
785.224	0.0140621
785.302	0.0139597
785.380	0.0140761
785.458	0.0140401
785.536	0.0140593
785.614	0.0141206
785.693	0.0141238
785.771	0.0140998
785.849	0.0140208
785.927	0.0139937
786.005	0.0141163
786.083	0.0141489
786.161	0.0141166
786.239	0.0140286
786.318	0.0139172
786.396	0.0138766
786.474	0.0140498
786.552	0.0140319
786.630	0.0139687
786.708	0.0139909
786.786	0.0139781
786.864	0.0138274
786.943	0.0139158
787.021	0.0136913
787.099	0.0138306
787.177	0.0138348
787.255	0.0136725
787.333	0.0137840
787.411	0.0136207
787.489	0.0135125
787.568	0.0137377
787.646	0.0136581
787.724	0.0136369
787.802	0.0137508
787.880	0.0137477
787.958	0.0137576
788.036	0.0137469
788.114	0.0137087
788.193	0.0136437
788.271	0.0136221
788.349	0.0137373
788.427	0.0137948
788.505	0.0139355
788.583	0.0136845
788.661	0.0137820
788.739	0.0138617
788.818	0.0138102
788.896	0.0137585
788.974	0.0140206
789.052	0.0138544
789.130	0.0140305
789.208	0.0137396
789.286	0.0138633
789.364	0.0139207
789.443	0.0139670
789.521	0.0138634
789.599	0.0139059
789.677	0.0139669
789.755	0.0139504
789.833	0.0139318
789.911	0.0139931
789.989	0.0138787
790.068	0.0139394
790.146	0.0138939
790.224	0.0137820
790.302	0.0137845
790.380	0.0139796
790.458	0.0138863
790.536	0.0139185
790.614	0.0140176
790.693	0.0139335
790.771	0.0138173
790.849	0.0139438
790.927	0.0139531
791.005	0.0140421
791.083	0.0139048
791.161	0.0140781
791.239	0.0140284
791.318	0.0140480
791.396	0.0140707
791.474	0.0141853
791.552	0.0141278
791.630	0.0141065
791.708	0.0140517
791.786	0.0140118
791.864	0.0139909
791.943	0.0141001
792.021	0.0141914
792.099	0.0141411
792.177	0.0138991
792.255	0.0140371
792.333	0.0140681
792.411	0.0140032
792.489	0.0139986
792.568	0.0141032
792.646	0.0140285
792.724	0.0141253
792.802	0.0139124
792.880	0.0139518
792.958	0.0140378
793.036	0.0138269
793.114	0.0138473
793.193	0.0138198
793.271	0.0138985
793.349	0.0137827
793.427	0.0137175
793.505	0.0138730
793.583	0.0137354
793.661	0.0137341
793.739	0.0137120
793.818	0.0137420
793.896	0.0136774
793.974	0.0136155
794.052	0.0137270
794.130	0.0136427
794.208	0.0136213
794.286	0.0136464
794.364	0.0135985
794.443	0.0136965
794.521	0.0136108
794.599	0.0136978
794.677	0.0136817
794.755	0.0136931
794.833	0.0137321
794.911	0.0136952
794.989	0.0136619
795.068	0.0137126
795.146	0.0137054
795.224	0.0137845
795.302	0.0137758
795.380	0.0138186
795.458	0.0137812
795.536	0.0137734
795.614	0.0138973
795.693	0.0138946
795.771	0.0138532
795.849	0.0137050
795.927	0.0138161
796.005	0.0137877
796.083	0.0138730
796.161	0.0138248
796.239	0.0139804
796.318	0.0139352
796.396	0.0138541
796.474	0.0138219
796.552	0.0137958
796.630	0.0138905
796.708	0.0138795
796.786	0.0138908
796.864	0.0140372
796.943	0.0141405
797.021	0.0139317
797.099	0.0140511
797.177	0.0141869
797.255	0.0138633
797.333	0.0138520
797.411	0.0140343
797.489	0.0139330
797.568	0.0139940
797.646	0.0139609
797.724	0.0138176
797.802	0.0137346
797.880	0.0139536
797.958	0.0139323
798.036	0.0138372
798.114	0.0138446
798.193	0.0138448
798.271	0.0138110
798.349	0.0137790
798.427	0.0137178
798.505	0.0136790
798.583	0.0137354
798.661	0.0137281
798.739	0.0134625
798.818	0.0135734
798.896	0.0136656
798.974	0.0135835
799.052	0.0135835
799.130	0.0134965
799.208	0.0134612
799.286	0.0135885
799.364	0.0134527
799.443	0.0135554
799.521	0.0134724
799.599	0.0134891
799.677	0.0137445
799.755	0.0137107
799.833	0.0137564
799.911	0.0136359
799.989	0.0137487
800.068	0.0138100
800.146	0.0138509
800.224	0.0137677
800.302	0.0138931
800.380	0.0139407
800.458	0.0137766
800.536	0.0138326
800.614	0.0137976
800.693	0.0139654
800.771	0.0140698
800.849	0.0138461
800.927	0.0139292
801.005	0.0139348
801.083	0.0140034
801.161	0.0138718
801.239	0.0141315
801.318	0.0138932
801.396	0.0139765
801.474	0.0139739
801.552	0.0140263
801.630	0.0142062
801.708	0.0140160
801.786	0.0140199
801.864	0.0140047
801.943	0.0141065
802.021	0.0139794
802.099	0.0140315
802.177	0.0141253
802.255	0.0139709
802.333	0.0139574
802.411	0.0139467
802.489	0.0141084
802.568	0.0141473
802.646	0.0141875
802.724	0.0140247
802.802	0.0140578
802.880	0.0140844
802.958	0.0140536
803.036	0.0140841
803.114	0.0140916
803.193	0.0140281
803.271	0.0140303
803.349	0.0139127
803.427	0.0138223
803.505	0.0139347
803.583	0.0139012
803.661	0.0139179
803.739	0.0139512
803.818	0.0138086
803.896	0.0138883
803.974	0.0138444
804.052	0.0139855
804.130	0.0140302
804.208	0.0141183
804.286	0.0141256
804.364	0.0140723
804.443	0.0142269
804.521	0.0141231
804.599	0.0140943
804.677	0.0141885
804.755	0.0142576
804.833	0.0141108
804.911	0.0140332
804.989	0.0141298
805.068	0.0141639
805.146	0.0140610
805.224	0.0140847
805.302	0.0139855
805.380	0.0139751
805.458	0.0140112
805.536	0.0138888
805.614	0.0137236
805.693	0.0138340
805.771	0.0138022
805.849	0.0137885
805.927	0.0137485
806.005	0.0138748
806.083	0.0138790
806.161	0.0138142
806.239	0.0139301
806.318	0.0139233
806.396	0.0136945
806.474	0.0137592
806.552	0.0137300
806.630	0.0137986
806.708	0.0139110
806.786	0.0139787
806.864	0.0140147
806.943	0.0140217
807.021	0.0139622
807.099	0.0139575
807.177	0.0140464
807.255	0.0142210
807.333	0.0141250
807.411	0.0141510
807.489	0.0142396
807.568	0.0141051
807.646	0.0140326
807.724	0.0142443
807.802	0.0140825
807.880	0.0139088
807.958	0.0141429
808.036	0.0140640
808.114	0.0139711
808.193	0.0139557
808.271	0.0138957
808.349	0.0139165
808.427	0.0138148
808.505	0.0137495
808.583	0.0138854
808.661	0.0138049
808.739	0.0137244
808.818	0.0137038
808.896	0.0135610
808.974	0.0137077
809.052	0.0135242
809.130	0.0136922
809.208	0.0136541
809.286	0.0137103
809.364	0.0137347
809.443	0.0135592
809.521	0.0136626
809.599	0.0136016
809.677	0.0137012
809.755	0.0137665
809.833	0.0139050
809.911	0.0138118
809.989	0.0137893
810.068	0.0137916
810.146	0.0138710
810.224	0.0138465
810.302	0.0138525
810.380	0.0138226
810.458	0.0139406
810.536	0.0139285
810.614	0.0138637
810.693	0.0137816
810.771	0.0136970
810.849	0.0139013
810.927	0.0138085
811.005	0.0137900
811.083	0.0138232
811.161	0.0137348
811.239	0.0137431
811.318	0.0137208
811.396	0.0137601
811.474	0.0137236
811.552	0.0136975
811.630	0.0136068
811.708	0.0136153
811.786	0.0136531
811.864	0.0135661
811.943	0.0135771
812.021	0.0136352
812.099	0.0136880
812.177	0.0136082
812.255	0.0136549
812.333	0.0137154
812.411	0.0135848
812.489	0.0136173
812.568	0.0135391
812.646	0.0136320
812.724	0.0137345
812.802	0.0136290
812.880	0.0136602
812.958	0.0138064
813.036	0.0137118
813.114	0.0138008
813.193	0.0138649
813.271	0.0137033
813.349	0.0137601
813.427	0.0136797
813.505	0.0136322
813.583	0.0137033
813.661	0.0137524
813.739	0.0136007
813.818	0.0135554
813.896	0.0136340
813.974	0.0136536
814.052	0.0134818
814.130	0.0135468
814.208	0.0135492
814.286	0.0135634
814.364	0.0136115
814.443	0.0135345
814.521	0.0135119
814.599	0.0136719
814.677	0.0136250
814.755	0.0136136
814.833	0.0137277
814.911	0.0137157
814.989	0.0137195
815.068	0.0137299
815.146	0.0136861
815.224	0.0138492
815.302	0.0139686
815.380	0.0141131
815.458	0.0140810
815.536	0.0140900
815.614	0.0142126
815.693	0.0143768
815.771	0.0143055
815.849	0.0141312
815.927	0.0142754
816.005	0.0143953
816.083	0.0143515
816.161	0.0143575
816.239	0.0142981
816.318	0.0144172
816.396	0.0143378
816.474	0.0141980
816.552	0.0141843
816.630	0.0140530
816.708	0.0141210
816.786	0.0140418
816.864	0.0139577
816.943	0.0141932
817.021	0.0141013
817.099	0.0140079
817.177	0.0139092
817.255	0.0139822
817.333	0.0136903
817.411	0.0138555
817.489	0.0139716
817.568	0.0139671
817.646	0.0138055
817.724	0.0138039
817.802	0.0138834
817.880	0.0139836
817.958	0.0138406
818.036	0.0138795
818.114	0.0138438
818.193	0.0137912
818.271	0.0139191
818.349	0.0138105
818.427	0.0139485
818.505	0.0138154
818.583	0.0138350
818.661	0.0138264
818.739	0.0138275
818.818	0.0138578
818.896	0.0139907
818.974	0.0139356
819.052	0.0138573
819.130	0.0138604
819.208	0.0137319
819.286	0.0139016
819.364	0.0138456
819.443	0.0137709
819.521	0.0137325
819.599	0.0139398
819.677	0.0138573
819.755	0.0138013
819.833	0.0137966
819.911	0.0138259
819.989	0.0137578
820.068	0.0137375
820.146	0.0138335
820.224	0.0137418
820.302	0.0137259
820.380	0.0138241
820.458	0.0137371
820.536	0.0137688
820.614	0.0138074
820.693	0.0137734
820.771	0.0138416
820.849	0.0136058
820.927	0.0137140
821.005	0.0138232
821.083	0.0138561
821.161	0.0139792
821.239	0.0137444
821.318	0.0138287
821.396	0.0138979
821.474	0.0139083
821.552	0.0138229
821.630	0.0138101
821.708	0.0140049
821.786	0.0139778
821.864	0.0138621
821.943	0.0137910
822.021	0.0140907
822.099	0.0139468
822.177	0.0138456
822.255	0.0138660
822.333	0.0138988
822.411	0.0139846
822.489	0.0138095
822.568	0.0137709
822.646	0.0138532
822.724	0.0139055
822.802	0.0138937
822.880	0.0137547
822.958	0.0137650
823.036	0.0138258
823.114	0.0139845
823.193	0.0138025
823.271	0.0138528
823.349	0.0138883
823.427	0.0138577
823.505	0.0139661
823.583	0.0141238
823.661	0.0139175
823.739	0.0138539
823.818	0.0140517
823.896	0.0139784
823.974	0.0139488
824.052	0.0139175
824.130	0.0138959
824.208	0.0139383
824.286	0.0140366
824.364	0.0139824
824.443	0.0139436
824.521	0.0138486
824.599	0.0139859
824.677	0.0139487
824.755	0.0139702
824.833	0.0138641
824.911	0.0138956
824.989	0.0139156
825.068	0.0140315
825.146	0.0140233
825.224	0.0139046
825.302	0.0138325
825.380	0.0139172
825.458	0.0137173
825.536	0.0139428
825.614	0.0138468
825.693	0.0137971
825.771	0.0139141
825.849	0.0138929
825.927	0.0138686
826.005	0.0139531
826.083	0.0139716
826.161	0.0140363
826.239	0.0139576
826.318	0.0139362
826.396	0.0140108
826.474	0.0140598
826.552	0.0140283
826.630	0.0141203
826.708	0.0142091
826.786	0.0140939
826.864	0.0140329
826.943	0.0139924
827.021	0.0139783
827.099	0.0140192
827.177	0.0140521
827.255	0.0140257
827.333	0.0139118
827.411	0.0137804
827.489	0.0137984
827.568	0.0138781
827.646	0.0136969
827.724	0.0136897
827.802	0.0136769
827.880	0.0135057
827.958	0.0136481
828.036	0.0136354
828.114	0.0134627
828.193	0.0135854
828.271	0.0134676
828.349	0.0135368
828.427	0.0134789
828.505	0.0135175
828.583	0.0136436
828.661	0.0136961
828.739	0.0135645
828.818	0.0136801
828.896	0.0136300
828.974	0.0138331
829.052	0.0139341
829.130	0.0138491
829.208	0.0138161
829.286	0.0139541
829.364	0.0140814
829.443	0.0140157
829.521	0.0140798
829.599	0.0140105
829.677	0.0138693
829.755	0.0140105
829.833	0.0140161
829.911	0.0141322
829.989	0.0140582
830.068	0.0142066
830.146	0.0142167
830.224	0.0141619
830.302	0.0140955
830.380	0.0140957
830.458	0.0142222
830.536	0.0141861
830.614	0.0140043
830.693	0.0139333
830.771	0.0139345
830.849	0.0139172
830.927	0.0137637
831.005	0.0137556
831.083	0.0137236
831.161	0.0136008
831.239	0.0136993
831.318	0.0136053
831.396	0.0137029
831.474	0.0136019
831.552	0.0133577
831.630	0.0133124
831.708	0.0134888
831.786	0.0133550
831.864	0.0134576
831.943	0.0135220
832.021	0.0134587
832.099	0.0135032
832.177	0.0135870
832.255	0.0135679
832.333	0.0137230
832.411	0.0134889
832.489	0.0135979
832.568	0.0136167
832.646	0.0137532
832.724	0.0137781
832.802	0.0137068
832.880	0.0137308
832.958	0.0138016
833.036	0.0136977
833.114	0.0138804
833.193	0.0140583
833.271	0.0138014
833.349	0.0140274
833.427	0.0140285
833.505	0.0139576
833.583	0.0138970
833.661	0.0139977
833.739	0.0140576
833.818	0.0140207
833.896	0.0141611
833.974	0.0141216
834.052	0.0140093
834.130	0.0140206
834.208	0.0140162
834.286	0.0139446
834.364	0.0139665
834.443	0.0140577
834.521	0.0140830
834.599	0.0139616
834.677	0.0138506
834.755	0.0139185
834.833	0.0138500
834.911	0.0138103
834.989	0.0137309
835.068	0.0139088
835.146	0.0135513
835.224	0.0136611
835.302	0.0136472
835.380	0.0135619
835.458	0.0136756
835.536	0.0136545
835.614	0.0135575
835.693	0.0136740
835.771	0.0135439
835.849	0.0136216
835.927	0.0136826
836.005	0.0136745
836.083	0.0136777
836.161	0.0137576
836.239	0.0137503
836.318	0.0137994
836.396	0.0138113
836.474	0.0139446
836.552	0.0138818
836.630	0.0139295
836.708	0.0139666
836.786	0.0139491
836.864	0.0140673
836.943	0.0140234
837.021	0.0140948
837.099	0.0141868
837.177	0.0141207
837.255	0.0140647
837.333	0.0139949
837.411	0.0140273
837.489	0.0142090
837.568	0.0140783
837.646	0.0140501
837.724	0.0140708
837.802	0.0140154
837.880	0.0139898
837.958	0.0140304
838.036	0.0139217
838.114	0.0137754
838.193	0.0137927
838.271	0.0137225
838.349	0.0138538
838.427	0.0137617
838.505	0.0135879
838.583	0.0138213
838.661	0.0134448
838.739	0.0135329
838.818	0.0136153
838.896	0.0134943
838.974	0.0135392
839.052	0.0134776
839.130	0.0134920
839.208	0.0135960
839.286	0.0134115
839.364	0.0134797
839.443	0.0135529
839.521	0.0135622
839.599	0.0135577
839.677	0.0134972
839.755	0.0137424
839.833	0.0136103
839.911	0.0135952
839.989	0.0136243
840.068	0.0136770
840.146	0.0139055
840.224	0.0138203
840.302	0.0137422
840.380	0.0139631
840.458	0.0138071
840.536	0.0138645
840.614	0.0137759
840.693	0.0139625
840.771	0.0139875
840.849	0.0139582
840.927	0.0139156
841.005	0.0140820
841.083	0.0141306
841.161	0.0140922
841.239	0.0140343
841.318	0.0141171
841.396	0.0140688
841.474	0.0142012
841.552	0.0141330
841.630	0.0141063
841.708	0.0140896
841.786	0.0140195
841.864	0.0139900
841.943	0.0140519
842.021	0.0140720
842.099	0.0140160
842.177	0.0139429
842.255	0.0139846
842.333	0.0138317
842.411	0.0139167
842.489	0.0139508
842.568	0.0138271
842.646	0.0137487
842.724	0.0138054
842.802	0.0137962
842.880	0.0138142
842.958	0.0137550
843.036	0.0136882
843.114	0.0136560
843.193	0.0136462
843.271	0.0136875
843.349	0.0137410
843.427	0.0137189
843.505	0.0136343
843.583	0.0136329
843.661	0.0136271
843.739	0.0135355
843.818	0.0134726
843.896	0.0135868
843.974	0.0136653
844.052	0.0135996
844.130	0.0134984
844.208	0.0134550
844.286	0.0133301
844.364	0.0134565
844.443	0.0134722
844.521	0.0134494
844.599	0.0132793
844.677	0.0133903
844.755	0.0133730
844.833	0.0133786
844.911	0.0135135
844.989	0.0134531
845.068	0.0135562
845.146	0.0135014
845.224	0.0134511
845.302	0.0134084
845.380	0.0135924
845.458	0.0136375
845.536	0.0136771
845.614	0.0136938
845.693	0.0136664
845.771	0.0136678
845.849	0.0138002
845.927	0.0138081
846.005	0.0138702
846.083	0.0137848
846.161	0.0139001
846.239	0.0138658
846.318	0.0139715
846.396	0.0141147
846.474	0.0139768
846.552	0.0140247
846.630	0.0141653
846.708	0.0140451
846.786	0.0140734
846.864	0.0141267
846.943	0.0140538
847.021	0.0141278
847.099	0.0142015
847.177	0.0140568
847.255	0.0139688
847.333	0.0141474
847.411	0.0139442
847.489	0.0141004
847.568	0.0141194
847.646	0.0139101
847.724	0.0139613
847.802	0.0140355
847.880	0.0140598
847.958	0.0138744
848.036	0.0137844
848.114	0.0139352
848.193	0.0138361
848.271	0.0139085
848.349	0.0138551
848.427	0.0137676
848.505	0.0136542
848.583	0.0137095
848.661	0.0137614
848.739	0.0137155
848.818	0.0136757
848.896	0.0136744
848.974	0.0137152
849.052	0.0136846
849.130	0.0137484
849.208	0.0136754
849.286	0.0138149
849.364	0.0137669
849.443	0.0136096
849.521	0.0137731
849.599	0.0138052
849.677	0.0137476
849.755	0.0139517
849.833	0.0138847
849.911	0.0141077
849.989	0.0140833
850.068	0.0139993
850.146	0.0139439
850.224	0.0138817
850.302	0.0139437
850.380	0.0141732
850.458	0.0141292
850.536	0.0141279
850.614	0.0141126
850.693	0.0140005
850.771	0.0141772
850.849	0.0141668
850.927	0.0141319
851.005	0.0141727
851.083	0.0141553
851.161	0.0142720
851.239	0.0140267
851.318	0.0140269
851.396	0.0140646
851.474	0.0139776
851.552	0.0140759
851.630	0.0139804
851.708	0.0138726
851.786	0.0138603
851.864	0.0138562
851.943	0.0137821
852.021	0.0137837
852.099	0.0136810
852.177	0.0136761
852.255	0.0137591
852.333	0.0139050
852.411	0.0135612
852.489	0.0134676
852.568	0.0137003
852.646	0.0136763
852.724	0.0136153
852.802	0.0136141
852.880	0.0135119
852.958	0.0135198
853.036	0.0136378
853.114	0.0136095
853.193	0.0138361
853.271	0.0137071
853.349	0.0136510
853.427	0.0138383
853.505	0.0137902
853.583	0.0135980
853.661	0.0137537
853.739	0.0138013
853.818	0.0139130
853.896	0.0138473
853.974	0.0139945
854.052	0.0139959
854.130	0.0139294
854.208	0.0139379
854.286	0.0140923
854.364	0.0140379
854.443	0.0141100
854.521	0.0140073
854.599	0.0140405
854.677	0.0141695
854.755	0.0141012
854.833	0.0140836
854.911	0.0141354
854.989	0.0140467
855.068	0.0140315
855.146	0.0140194
855.224	0.0140999
855.302	0.0141160
855.380	0.0142336
855.458	0.0140446
855.536	0.0138647
855.614	0.0140433
855.693	0.0140231
855.771	0.0139272
855.849	0.0137393
855.927	0.0137246
856.005	0.0138270
856.083	0.0138093
856.161	0.0137032
856.239	0.0136662
856.318	0.0136012
856.396	0.0135587
856.474	0.0136538
856.552	0.0135883
856.630	0.0135260
856.708	0.0136852
856.786	0.0136218
856.864	0.0136157
856.943	0.0136334
857.021	0.0134814
857.099	0.0135033
857.177	0.0136332
857.255	0.0136287
857.333	0.0136858
857.411	0.0136179
857.489	0.0137067
857.568	0.0137867
857.646	0.0136146
857.724	0.0138304
857.802	0.0138340
857.880	0.0137780
857.958	0.0137621
858.036	0.0138522
858.114	0.0138980
858.193	0.0139790
858.271	0.0140149
858.349	0.0140123
858.427	0.0140026
858.505	0.0139990
858.583	0.0141086
858.661	0.0140714
858.739	0.0141310
858.818	0.0140324
858.896	0.0140605
858.974	0.0142993
859.052	0.0141094
859.130	0.0140614
859.208	0.0141104
859.286	0.0140696
859.364	0.0140141
859.443	0.0140217
859.521	0.0140393
859.599	0.0140090
859.677	0.0140186
859.755	0.0139249
859.833	0.0139857
859.911	0.0138483
859.989	0.0136658
860.068	0.0137283
860.146	0.0137019
860.224	0.0137007
860.302	0.0137255
860.380	0.0135941
860.458	0.0135113
860.536	0.0135455
860.614	0.0136444
860.693	0.0136237
860.771	0.0134384
860.849	0.0135346
860.927	0.0134909
861.005	0.0136094
861.083	0.0135471
861.161	0.0135358
861.239	0.0136095
861.318	0.0136999
861.396	0.0134631
861.474	0.0136246
861.552	0.0135659
861.630	0.0137003
861.708	0.0136941
861.786	0.0138777
861.864	0.0139034
861.943	0.0138697
862.021	0.0137283
862.099	0.0139307
862.177	0.0139321
862.255	0.0138296
862.333	0.0139413
862.411	0.0139603
862.489	0.0137893
862.568	0.0137616
862.646	0.0138264
862.724	0.0140486
862.802	0.0140536
862.880	0.0138889
862.958	0.0138667
863.036	0.0139706
863.114	0.0140477
863.193	0.0137610
863.271	0.0139408
863.349	0.0138853
863.427	0.0137643
863.505	0.0138704
863.583	0.0137805
863.661	0.0139499
863.739	0.0137778
863.818	0.0138464
863.896	0.0137729
863.974	0.0136339
864.052	0.0139408
864.130	0.0139746
864.208	0.0137366
864.286	0.0137950
864.364	0.0139224
864.443	0.0138626
864.521	0.0137651
864.599	0.0137179
864.677	0.0138280
864.755	0.0138103
864.833	0.0138241
864.911	0.0136761
864.989	0.0137857
865.068	0.0139170
865.146	0.0138294
865.224	0.0137174
865.302	0.0137804
865.380	0.0138897
865.458	0.0139283
865.536	0.0139392
865.614	0.0137532
865.693	0.0138405
865.771	0.0138759
865.849	0.0137045
865.927	0.0139937
866.005	0.0139428
866.083	0.0137794
866.161	0.0139574
866.239	0.0138644
866.318	0.0140723
866.396	0.0139364
866.474	0.0139870
866.552	0.0140454
866.630	0.0140743
866.708	0.0140070
866.786	0.0140118
866.864	0.0139301
866.943	0.0140446
867.021	0.0141064
867.099	0.0138486
867.177	0.0137372
867.255	0.0139265
867.333	0.0138752
867.411	0.0139420
867.489	0.0137855
867.568	0.0136610
867.646	0.0138004
867.724	0.0138588
867.802	0.0136136
867.880	0.0136042
867.958	0.0136971
868.036	0.0136742
868.114	0.0134924
868.193	0.0136090
868.271	0.0136781
868.349	0.0136214
868.427	0.0134665
868.505	0.0136698
868.583	0.0135406
868.661	0.0136214
868.739	0.0135827
868.818	0.0134568
868.896	0.0134879
868.974	0.0136679
869.052	0.0135066
869.130	0.0134469
869.208	0.0136208
869.286	0.0137966
869.364	0.0134792
869.443	0.0136695
869.521	0.0137653
869.599	0.0136234
869.677	0.0137650
869.755	0.0139421
869.833	0.0138579
869.911	0.0138625
869.989	0.0138303
870.068	0.0138754
870.146	0.0138959
870.224	0.0138628
870.302	0.0140755
870.380	0.0140830
870.458	0.0140272
870.536	0.0138840
870.614	0.0139471
870.693	0.0139517
870.771	0.0138411
870.849	0.0140807
870.927	0.0139795
871.005	0.0139066
871.083	0.0139064
871.161	0.0139121
871.239	0.0138818
871.318	0.0140234
871.396	0.0139163
871.474	0.0138372
871.552	0.0136733
871.630	0.0136848
871.708	0.0137806
871.786	0.0135423
871.864	0.0137744
871.943	0.0138142
872.021	0.0135709
872.099	0.0134058
872.177	0.0135609
872.255	0.0136919
872.333	0.0136057
872.411	0.0136384
872.489	0.0136446
872.568	0.0136758
872.646	0.0137028
872.724	0.0135156
872.802	0.0136831
872.880	0.0136703
872.958	0.0136623
873.036	0.0136092
873.114	0.0136010
873.193	0.0135426
873.271	0.0136441
873.349	0.0135880
873.427	0.0136645
873.505	0.0136741
873.583	0.0136292
873.661	0.0137628
873.739	0.0138234
873.818	0.0139397
873.896	0.0136771
873.974	0.0139198
874.052	0.0139668
874.130	0.0140086
874.208	0.0138879
874.286	0.0141121
874.364	0.0141909
874.443	0.0140282
874.521	0.0138622
874.599	0.0140392
874.677	0.0140221
874.755	0.0141821
874.833	0.0140495
874.911	0.0140391
874.989	0.0140524
875.068	0.0140208
875.146	0.0140148
875.224	0.0138868
875.302	0.0139328
875.380	0.0139674
875.458	0.0138724
875.536	0.0139294
875.614	0.0138799
875.693	0.0137848
875.771	0.0139397
875.849	0.0140044
875.927	0.0138612
876.005	0.0136837
876.083	0.0138076
876.161	0.0136331
876.239	0.0136486
876.318	0.0137496
876.396	0.0136990
876.474	0.0136076
876.552	0.0136202
876.630	0.0136942
876.708	0.0137652
876.786	0.0137316
876.864	0.0137753
876.943	0.0136414
877.021	0.0136151
877.099	0.0137889
877.177	0.0139514
877.255	0.0137937
877.333	0.0138592
877.411	0.0138560
877.489	0.0138649
877.568	0.0139250
877.646	0.0139247
877.724	0.0138448
877.802	0.0139142
877.880	0.0139998
877.958	0.0140084
878.036	0.0139117
878.114	0.0139106
878.193	0.0138227
878.271	0.0140717
878.349	0.0139275
878.427	0.0139146
878.505	0.0139249
878.583	0.0138499
878.661	0.0138254
878.739	0.0138824
878.818	0.0138358
878.896	0.0137106
878.974	0.0138492
879.052	0.0138593
879.130	0.0139523
879.208	0.0138495
879.286	0.0136933
879.364	0.0138538
879.443	0.0138564
879.521	0.0141065
879.599	0.0139480
879.677	0.0139944
879.755	0.0140359
879.833	0.0139922
879.911	0.0138693
879.989	0.0139391
880.068	0.0140216
880.146	0.0140109
880.224	0.0140569
880.302	0.0140636
880.380	0.0139642
880.458	0.0140001
880.536	0.0140478
880.614	0.0139383
880.693	0.0139783
880.771	0.0138808
880.849	0.0139851
880.927	0.0139926
881.005	0.0139620
881.083	0.0138996
881.161	0.0139320
881.239	0.0140099
881.318	0.0139907
881.396	0.0139231
881.474	0.0140047
881.552	0.0135973
881.630	0.0137489
881.708	0.0139312
881.786	0.0137031
881.864	0.0137259
881.943	0.0137742
882.021	0.0138604
882.099	0.0137075
882.177	0.0137522
882.255	0.0137592
882.333	0.0136854
882.411	0.0137005
882.489	0.0139182
882.568	0.0138067
882.646	0.0137927
882.724	0.0138512
882.802	0.0139337
882.880	0.0139713
882.958	0.0138781
883.036	0.0140019
883.114	0.0139258
883.193	0.0140086
883.271	0.0140677
883.349	0.0139913
883.427	0.0139046
883.505	0.0139977
883.583	0.0139542
883.661	0.0140245
883.739	0.0139697
883.818	0.0140228
883.896	0.0138285
883.974	0.0140121
884.052	0.0140017
884.130	0.0140355
884.208	0.0139575
884.286	0.0138042
884.364	0.0137920
884.443	0.0139094
884.521	0.0139081
884.599	0.0136766
884.677	0.0138770
884.755	0.0138862
884.833	0.0137543
884.911	0.0139057
884.989	0.0138788
885.068	0.0139808
885.146	0.0139027
885.224	0.0137649
885.302	0.0137268
885.380	0.0137871
885.458	0.0137445
885.536	0.0137435
885.614	0.0138371
885.693	0.0137011
885.771	0.0137239
885.849	0.0138997
885.927	0.0137822
886.005	0.0137077
886.083	0.0137431
886.161	0.0137283
886.239	0.0137244
886.318	0.0138032
886.396	0.0137492
886.474	0.0137527
886.552	0.0138222
886.630	0.0136617
886.708	0.0135869
886.786	0.0137988
886.864	0.0137824
886.943	0.0136813
887.021	0.0138277
887.099	0.0139912
887.177	0.0138328
887.255	0.0137608
887.333	0.0136376
887.411	0.0137936
887.489	0.0137537
887.568	0.0136416
887.646	0.0137299
887.724	0.0136444
887.802	0.0136526
887.880	0.0136375
887.958	0.0136831
888.036	0.0138322
888.114	0.0137239
888.193	0.0137167
888.271	0.0136346
888.349	0.0137308
888.427	0.0137369
888.505	0.0137089
888.583	0.0137634
888.661	0.0137289
888.739	0.0138860
888.818	0.0136544
888.896	0.0136472
888.974	0.0138860
889.052	0.0137418
889.130	0.0136605
889.208	0.0137957
889.286	0.0138319
889.364	0.0138585
889.443	0.0139896
889.521	0.0139040
889.599	0.0138802
889.677	0.0138188
889.755	0.0137787
889.833	0.0137157
889.911	0.0137745
889.989	0.0139775
890.068	0.0139233
890.146	0.0138767
890.224	0.0139000
890.302	0.0138773
890.380	0.0140459
890.458	0.0139640
890.536	0.0139627
890.614	0.0138918
890.693	0.0139130
890.771	0.0137904
890.849	0.0139561
890.927	0.0139808
891.005	0.0138586
891.083	0.0138735
891.161	0.0139320
891.239	0.0137637
891.318	0.0137910
891.396	0.0137414
891.474	0.0138749
891.552	0.0137807
891.630	0.0138230
891.708	0.0137698
891.786	0.0136485
891.864	0.0136922
891.943	0.0137045
892.021	0.0138493
892.099	0.0136275
892.177	0.0137917
892.255	0.0138096
892.333	0.0138060
892.411	0.0138432
892.489	0.0138074
892.568	0.0138129
892.646	0.0137648
892.724	0.0138329
892.802	0.0136642
892.880	0.0136835
892.958	0.0138139
893.036	0.0138062
893.114	0.0138504
893.193	0.0137339
893.271	0.0138950
893.349	0.0136617
893.427	0.0137675
893.505	0.0138017
893.583	0.0137817
893.661	0.0137168
893.739	0.0136819
893.818	0.0137439
893.896	0.0137328
893.974	0.0136974
894.052	0.0137926
894.130	0.0136897
894.208	0.0136806
894.286	0.0135647
894.364	0.0135937
894.443	0.0136599
894.521	0.0136043
894.599	0.0136185
894.677	0.0136303
894.755	0.0135878
894.833	0.0138281
894.911	0.0137395
894.989	0.0135517
895.068	0.0135786
895.146	0.0136520
895.224	0.0135403
895.302	0.0136338
895.380	0.0137585
895.458	0.0136841
895.536	0.0136547
895.614	0.0137453
895.693	0.0135688
895.771	0.0137933
895.849	0.0139164
895.927	0.0138243
896.005	0.0137614
896.083	0.0137655
896.161	0.0139470
896.239	0.0138493
896.318	0.0137937
896.396	0.0138973
896.474	0.0140013
896.552	0.0139156
896.630	0.0139562
896.708	0.0138447
896.786	0.0138030
896.864	0.0138483
896.943	0.0139243
897.021	0.0139826
897.099	0.0139389
897.177	0.0138949
897.255	0.0139553
897.333	0.0138668
897.411	0.0138625
897.489	0.0139240
897.568	0.0138667
897.646	0.0138570
897.724	0.0140784
897.802	0.0139745
897.880	0.0139970
897.958	0.0139992
898.036	0.0140597
898.114	0.0140796
898.193	0.0140044
898.271	0.0140564
898.349	0.0140214
898.427	0.0139640
898.505	0.0140876
898.583	0.0139207
898.661	0.0140070
898.739	0.0138924
898.818	0.0140376
898.896	0.0139426
898.974	0.0140417
899.052	0.0138465
899.130	0.0140256
899.208	0.0139355
899.286	0.0139632
899.364	0.0140623
899.443	0.0139558
899.521	0.0141045
899.599	0.0139072
899.677	0.0140492
899.755	0.0139364
899.833	0.0139698
899.911	0.0138321
899.989	0.0137129
900.068	0.0139001
900.146	0.0139707
900.224	0.0139307
900.302	0.0140123
900.380	0.0138717
900.458	0.0138023
900.536	0.0138788
900.614	0.0137716
900.693	0.0137009
900.771	0.0137574
900.849	0.0137182
900.927	0.0135990
901.005	0.0136433
901.083	0.0136710
901.161	0.0136932
901.239	0.0136562
901.318	0.0135998
901.396	0.0136669
901.474	0.0137371
901.552	0.0137553
901.630	0.0136945
901.708	0.0137373
901.786	0.0138857
901.864	0.0139162
901.943	0.0138432
902.021	0.0139936
902.099	0.0139321
902.177	0.0139251
902.255	0.0138571
902.333	0.0139935
902.411	0.0139061
902.489	0.0139275
902.568	0.0140005
902.646	0.0141257
902.724	0.0138972
902.802	0.0138027
902.880	0.0139500
902.958	0.0139481
903.036	0.0139819
903.114	0.0137968
903.193	0.0137630
903.271	0.0139069
903.349	0.0139181
903.427	0.0138809
903.505	0.0137833
903.583	0.0137678
903.661	0.0139179
903.739	0.0139045
903.818	0.0138242
903.896	0.0138667
903.974	0.0138480
904.052	0.0138085
904.130	0.0137717
904.208	0.0138467
904.286	0.0138374
904.364	0.0138570
904.443	0.0138968
904.521	0.0138375
904.599	0.0138364
904.677	0.0138301
904.755	0.0138159
904.833	0.0137574
904.911	0.0136929
904.989	0.0138118
905.068	0.0137994
905.146	0.0138375
905.224	0.0139240
905.302	0.0138820
905.380	0.0137494
905.458	0.0137447
905.536	0.0136745
905.614	0.0137588
905.693	0.0137776
905.771	0.0138027
905.849	0.0136899
905.927	0.0137180
906.005	0.0137528
906.083	0.0137800
906.161	0.0136336
906.239	0.0135873
906.318	0.0137374
906.396	0.0136264
906.474	0.0135302
906.552	0.0137283
906.630	0.0136524
906.708	0.0137027
906.786	0.0136401
906.864	0.0137696
906.943	0.0135857
907.021	0.0136797
907.099	0.0138229
907.177	0.0137579
907.255	0.0138361
907.333	0.0138338
907.411	0.0137917
907.489	0.0138737
907.568	0.0138853
907.646	0.0139928
907.724	0.0139358
907.802	0.0139616
907.880	0.0140117
907.958	0.0139846
908.036	0.0138094
908.114	0.0139090
908.193	0.0140474
908.271	0.0141470
908.349	0.0140359
908.427	0.0140347
908.505	0.0140905
908.583	0.0140114
908.661	0.0140511
908.739	0.0140498
908.818	0.0141108
908.896	0.0140740
908.974	0.0139183
909.052	0.0140353
909.130	0.0140699
909.208	0.0138905
909.286	0.0138599
909.364	0.0139035
909.443	0.0139227
909.521	0.0137244
909.599	0.0137593
909.677	0.0137579
909.755	0.0138427
909.833	0.0137896
909.911	0.0137011
909.989	0.0136450
910.068	0.0136986
910.146	0.0137263
910.224	0.0138365
910.302	0.0137778
910.380	0.0137418
910.458	0.0137611
910.536	0.0137012
910.614	0.0137741
910.693	0.0139323
910.771	0.0138069
910.849	0.0138260
910.927	0.0138617
911.005	0.0139777
911.083	0.0139098
911.161	0.0137684
911.239	0.0138701
911.318	0.0139019
911.396	0.0139539
911.474	0.0138313
911.552	0.0138330
911.630	0.0137467
911.708	0.0138670
911.786	0.0138911
911.864	0.0137234
911.943	0.0139487
912.021	0.0139663
912.099	0.0137611
912.177	0.0138427
912.255	0.0138304
912.333	0.0139174
912.411	0.0138457
912.489	0.0139368
912.568	0.0139411
912.646	0.0140628
912.724	0.0138680
912.802	0.0139375
912.880	0.0140755
912.958	0.0139639
913.036	0.0138815
913.114	0.0137537
913.193	0.0138940
913.271	0.0138959
913.349	0.0139738
913.427	0.0138361
913.505	0.0135889
913.583	0.0138347
913.661	0.0138056
913.739	0.0137868
913.818	0.0137154
913.896	0.0138151
913.974	0.0137981
914.052	0.0137981
914.130	0.0137421
914.208	0.0137057
914.286	0.0137493
914.364	0.0136423
914.443	0.0136147
914.521	0.0136803
914.599	0.0136214
914.677	0.0137186
914.755	0.0136922
914.833	0.0136478
914.911	0.0136914
914.989	0.0136166
915.068	0.0138174
915.146	0.0137221
915.224	0.0137270
915.302	0.0136801
915.380	0.0136436
915.458	0.0136627
915.536	0.0135512
915.614	0.0137897
915.693	0.0137883
915.771	0.0136993
915.849	0.0137943
915.927	0.0137286
916.005	0.0137627
916.083	0.0138464
916.161	0.0136999
916.239	0.0138145
916.318	0.0138463
916.396	0.0137937
916.474	0.0137109
916.552	0.0138521
916.630	0.0137719
916.708	0.0137846
916.786	0.0137292
916.864	0.0137296
916.943	0.0137080
917.021	0.0136908
917.099	0.0136426
917.177	0.0137109
917.255	0.0136107
917.333	0.0136044
917.411	0.0136628
917.489	0.0137791
917.568	0.0136525
917.646	0.0136002
917.724	0.0136274
917.802	0.0136723
917.880	0.0137110
917.958	0.0137452
918.036	0.0137086
918.114	0.0136555
918.193	0.0136890
918.271	0.0138354
918.349	0.0137906
918.427	0.0138152
918.505	0.0138266
918.583	0.0138044
918.661	0.0137281
918.739	0.0138306
918.818	0.0137494
918.896	0.0138969
918.974	0.0138509
919.052	0.0137789
919.130	0.0137799
919.208	0.0136901
919.286	0.0137363
919.364	0.0138240
919.443	0.0137424
919.521	0.0138197
919.599	0.0136694
919.677	0.0136520
919.755	0.0136149
919.833	0.0136854
919.911	0.0135660
919.989	0.0137455
920.068	0.0136155
920.146	0.0136076
920.224	0.0135409
920.302	0.0136599
920.380	0.0136910
920.458	0.0136777
920.536	0.0136893
920.614	0.0138170
920.693	0.0135111
920.771	0.0136243
920.849	0.0136354
920.927	0.0137789
921.005	0.0137666
921.083	0.0137711
921.161	0.0137280
921.239	0.0137859
921.318	0.0137334
921.396	0.0136299
921.474	0.0137675
921.552	0.0138272
921.630	0.0137729
921.708	0.0137199
921.786	0.0138032
921.864	0.0137241
921.943	0.0138805
922.021	0.0138580
922.099	0.0137531
922.177	0.0137501
922.255	0.0137509
922.333	0.0137403
922.411	0.0138460
922.489	0.0139163
922.568	0.0137163
922.646	0.0138548
922.724	0.0137019
922.802	0.0136207
922.880	0.0137326
922.958	0.0138003
923.036	0.0136040
923.114	0.0136127
923.193	0.0136486
923.271	0.0136365
923.349	0.0135874
923.427	0.0136438
923.505	0.0137917
923.583	0.0137099
923.661	0.0137156
923.739	0.0136999
923.818	0.0137398
923.896	0.0138144
923.974	0.0138188
924.052	0.0138381
924.130	0.0137720
924.208	0.0138047
924.286	0.0138071
924.364	0.0139590
924.443	0.0138274
924.521	0.0138371
924.599	0.0138150
924.677	0.0137622
924.755	0.0137831
924.833	0.0139159
924.911	0.0138521
924.989	0.0139233
925.068	0.0139288
925.146	0.0140265
925.224	0.0139734
925.302	0.0140696
925.380	0.0139130
925.458	0.0139140
925.536	0.0140243
925.614	0.0138049
925.693	0.0139572
925.771	0.0139057
925.849	0.0140332
925.927	0.0140549
926.005	0.0138278
926.083	0.0139051
926.161	0.0139003
926.239	0.0139938
926.318	0.0139878
926.396	0.0138578
926.474	0.0139325
926.552	0.0139137
926.630	0.0139394
926.708	0.0139246
926.786	0.0138900
926.864	0.0137421
926.943	0.0139303
927.021	0.0138426
927.099	0.0140110
927.177	0.0138409
927.255	0.0139026
927.333	0.0138215
927.411	0.0138551
927.489	0.0139921
927.568	0.0138345
927.646	0.0138833
927.724	0.0139554
927.802	0.0139699
927.880	0.0138886
927.958	0.0138943
928.036	0.0138671
928.114	0.0139816
928.193	0.0139226
928.271	0.0138431
928.349	0.0139057
928.427	0.0139933
928.505	0.0139030
928.583	0.0140208
928.661	0.0138547
928.739	0.0138872
928.818	0.0139278
928.896	0.0137819
928.974	0.0139481
929.052	0.0139442
929.130	0.0138081
929.208	0.0138630
929.286	0.0138142
929.364	0.0138849
929.443	0.0138517
929.521	0.0138795
929.599	0.0138483
929.677	0.0139022
929.755	0.0137974
929.833	0.0138730
929.911	0.0139290
929.989	0.0138202
930.068	0.0139317
930.146	0.0138104
930.224	0.0138905
930.302	0.0138624
930.380	0.0139408
930.458	0.0140027
930.536	0.0139041
930.614	0.0139680
930.693	0.0139118
930.771	0.0138445
930.849	0.0138899
930.927	0.0139309
931.005	0.0139787
931.083	0.0139713
931.161	0.0137984
931.239	0.0137985
931.318	0.0137188
931.396	0.0137717
931.474	0.0138322
931.552	0.0139592
931.630	0.0138779
931.708	0.0137150
931.786	0.0136429
931.864	0.0136154
931.943	0.0137111
932.021	0.0137292
932.099	0.0137611
932.177	0.0137782
932.255	0.0136892
932.333	0.0137378
932.411	0.0136256
932.489	0.0138535
932.568	0.0139137
932.646	0.0138475
932.724	0.0137062
932.802	0.0137933
932.880	0.0138404
932.958	0.0136893
933.036	0.0137587
933.114	0.0138853
933.193	0.0137618
933.271	0.0138700
933.349	0.0137687
933.427	0.0137681
933.505	0.0137836
933.583	0.0138539
933.661	0.0138937
933.739	0.0139570
933.818	0.0138649
933.896	0.0137526
933.974	0.0138890
934.052	0.0138514
934.130	0.0138169
934.208	0.0138007
934.286	0.0138112
934.364	0.0137506
934.443	0.0138469
934.521	0.0137926
934.599	0.0136706
934.677	0.0137408
934.755	0.0137309
934.833	0.0138057
934.911	0.0138086
934.989	0.0137291
935.068	0.0137664
935.146	0.0137150
935.224	0.0136931
935.302	0.0136695
935.380	0.0136971
935.458	0.0136018
935.536	0.0137078
935.614	0.0136404
935.693	0.0136783
935.771	0.0137469
935.849	0.0137758
935.927	0.0136856
936.005	0.0136391
936.083	0.0137556
936.161	0.0137540
936.239	0.0137250
936.318	0.0137335
936.396	0.0136934
936.474	0.0137355
936.552	0.0137044
936.630	0.0136980
936.708	0.0137910
936.786	0.0137199
936.864	0.0137759
936.943	0.0138486
937.021	0.0138013
937.099	0.0138451
937.177	0.0138460
937.255	0.0138835
937.333	0.0138476
937.411	0.0138871
937.489	0.0139427
937.568	0.0139214
937.646	0.0139043
937.724	0.0139962
937.802	0.0139721
937.880	0.0140560
937.958	0.0140752
938.036	0.0141726
938.114	0.0139900
938.193	0.0141006
938.271	0.0140772
938.349	0.0142005
938.427	0.0141146
938.505	0.0141859
938.583	0.0139239
938.661	0.0141644
938.739	0.0142365
938.818	0.0141824
938.896	0.0140305
938.974	0.0141679
939.052	0.0141154
939.130	0.0139538
939.208	0.0141373
939.286	0.0140769
939.364	0.0140239
939.443	0.0140640
939.521	0.0140850
939.599	0.0139009
939.677	0.0138552
939.755	0.0139400
939.833	0.0137199
939.911	0.0138164
939.989	0.0137663
940.068	0.0136673
940.146	0.0137727
940.224	0.0138322
940.302	0.0137242
940.380	0.0137021
940.458	0.0134509
940.536	0.0135233
940.614	0.0136503
940.693	0.0137740
940.771	0.0136674
940.849	0.0136354
940.927	0.0135764
941.005	0.0135441
941.083	0.0136362
941.161	0.0136559
941.239	0.0135815
941.318	0.0135876
941.396	0.0136649
941.474	0.0137689
941.552	0.0137217
941.630	0.0137156
941.708	0.0136099
941.786	0.0137572
941.864	0.0136958
941.943	0.0137631
942.021	0.0137758
942.099	0.0138268
942.177	0.0137872
942.255	0.0137827
942.333	0.0136521
942.411	0.0137107
942.489	0.0138298
942.568	0.0138651
942.646	0.0137062
942.724	0.0137554
942.802	0.0139318
942.880	0.0137129
942.958	0.0137598
943.036	0.0138369
943.114	0.0138130
943.193	0.0138372
943.271	0.0139452
943.349	0.0138518
943.427	0.0139763
943.505	0.0137486
943.583	0.0138164
943.661	0.0139735
943.739	0.0138650
943.818	0.0138342
943.896	0.0138604
943.974	0.0139108
944.052	0.0139172
944.130	0.0140276
944.208	0.0140270
944.286	0.0139146
944.364	0.0138249
944.443	0.0140512
944.521	0.0137763
944.599	0.0139378
944.677	0.0139904
944.755	0.0139001
944.833	0.0138353
944.911	0.0138965
944.989	0.0138546
945.068	0.0138927
945.146	0.0137732
945.224	0.0137814
945.302	0.0138219
945.380	0.0137961
945.458	0.0138342
945.536	0.0137412
945.614	0.0137872
945.693	0.0138567
945.771	0.0136876
945.849	0.0136556
945.927	0.0136866
946.005	0.0137328
946.083	0.0138185
946.161	0.0137251
946.239	0.0136074
946.318	0.0137065
946.396	0.0136132
946.474	0.0138183
946.552	0.0138183
946.630	0.0136645
946.708	0.0138236
946.786	0.0137875
946.864	0.0138673
946.943	0.0138263
947.021	0.0136882
947.099	0.0137215
947.177	0.0138857
947.255	0.0137797
947.333	0.0138828
947.411	0.0138799
947.489	0.0138787
947.568	0.0140275
947.646	0.0139996
947.724	0.0139001
947.802	0.0139426
947.880	0.0140973
947.958	0.0140213
948.036	0.0141142
948.114	0.0139888
948.193	0.0139410
948.271	0.0139864
948.349	0.0139297
948.427	0.0140821
948.505	0.0139593
948.583	0.0138895
948.661	0.0139952
948.739	0.0139823
948.818	0.0139396
948.896	0.0139806
948.974	0.0138422
949.052	0.0137410
949.130	0.0138396
949.208	0.0139548
949.286	0.0138093
949.364	0.0137080
949.443	0.0137490
949.521	0.0137537
949.599	0.0136179
949.677	0.0136115
949.755	0.0136981
949.833	0.0136059
949.911	0.0136784
949.989	0.0136349
950.068	0.0136941
950.146	0.0137497
950.224	0.0137368
950.302	0.0137049
950.380	0.0138686
950.458	0.0136582
950.536	0.0137594
950.614	0.0137057
950.693	0.0138013
950.771	0.0137480
950.849	0.0138953
950.927	0.0138264
951.005	0.0136425
951.083	0.0136517
951.161	0.0138546
951.239	0.0138024
951.318	0.0138033
951.396	0.0139218
951.474	0.0137624
951.552	0.0138763
951.630	0.0138292
951.708	0.0137937
951.786	0.0137336
951.864	0.0138380
951.943	0.0138014
952.021	0.0137961
952.099	0.0139314
952.177	0.0138290
952.255	0.0138274
952.333	0.0140190
952.411	0.0137710
952.489	0.0138839
952.568	0.0139320
952.646	0.0136982
952.724	0.0139375
952.802	0.0137694
952.880	0.0138777
952.958	0.0139336
953.036	0.0137662
953.114	0.0138276
953.193	0.0138612
953.271	0.0138466
953.349	0.0137856
953.427	0.0139381
953.505	0.0137861
953.583	0.0138921
953.661	0.0138885
953.739	0.0138907
953.818	0.0138762
953.896	0.0137285
953.974	0.0139301
954.052	0.0139594
954.130	0.0139580
954.208	0.0139373
954.286	0.0139794
954.364	0.0140241
954.443	0.0139539
954.521	0.0139547
954.599	0.0139278
954.677	0.0140906
954.755	0.0139708
954.833	0.0139889
954.911	0.0141832
954.989	0.0141502
955.068	0.0139783
955.146	0.0140794
955.224	0.0141214
955.302	0.0141692
955.380	0.0141104
955.458	0.0141812
955.536	0.0140628
955.614	0.0140611
955.693	0.0140818
955.771	0.0140675
955.849	0.0139487
955.927	0.0141059
956.005	0.0139066
956.083	0.0140234
956.161	0.0140609
956.239	0.0138695
956.318	0.0138636
956.396	0.0140157
956.474	0.0138887
956.552	0.0139310
956.630	0.0139400
956.708	0.0138469
956.786	0.0138177
956.864	0.0137402
956.943	0.0137148
957.021	0.0137996
957.099	0.0138426
957.177	0.0137354
957.255	0.0138852
957.333	0.0138747
957.411	0.0137353
957.489	0.0138296
957.568	0.0137900
957.646	0.0138907
957.724	0.0137984
957.802	0.0137607
957.880	0.0138152
957.958	0.0138671
958.036	0.0137037
958.114	0.0138475
958.193	0.0137305
958.271	0.0137994
958.349	0.0136955
958.427	0.0138972
958.505	0.0138425
958.583	0.0137779
958.661	0.0138247
958.739	0.0138273
958.818	0.0138489
958.896	0.0137284
958.974	0.0137934
959.052	0.0138921
959.130	0.0138692
959.208	0.0137872
959.286	0.0137045
959.364	0.0138451
959.443	0.0139024
959.521	0.0136887
959.599	0.0137552
959.677	0.0137401
959.755	0.0138661
959.833	0.0137946
959.911	0.0136810
