05/07/2022	17:45:08	Ver.	4.1	UNKNOWN
Optical Delay	639.989416	Delta X		0.078125	Sweeps	1	Scan Rate	0/0
Coordinates	Axis 1	NaN	Axis 2	NaN	Axis 3	NaN	Axis 4	NaN	Axis 5	NaN	Axis 6	0.000000
TX Power	0.000000	RX Power	0.000000

639.989	0.0136855
640.068	0.0135937
640.146	0.0134323
640.224	0.0134115
640.302	0.0136942
640.380	0.0136561
640.458	0.0136961
640.536	0.0137878
640.614	0.0137363
640.693	0.0137672
640.771	0.0137365
640.849	0.0137136
640.927	0.0137658
641.005	0.0138114
641.083	0.0137751
641.161	0.0135760
641.239	0.0138296
641.318	0.0137852
641.396	0.0137367
641.474	0.0136713
641.552	0.0137272
641.630	0.0136624
641.708	0.0137955
641.786	0.0137170
641.864	0.0137255
641.943	0.0137351
642.021	0.0135859
642.099	0.0135467
642.177	0.0136261
642.255	0.0135303
642.333	0.0135587
642.411	0.0136665
642.489	0.0137408
642.568	0.0137719
642.646	0.0135268
642.724	0.0136969
642.802	0.0136520
642.880	0.0136547
642.958	0.0136468
643.036	0.0136587
643.114	0.0137624
643.193	0.0138795
643.271	0.0136111
643.349	0.0137304
643.427	0.0138557
643.505	0.0137392
643.583	0.0137414
643.661	0.0137258
643.739	0.0137786
643.818	0.0138578
643.896	0.0135852
643.974	0.0137019
644.052	0.0135218
644.130	0.0132965
644.208	0.0135454
644.286	0.0135811
644.364	0.0134394
644.443	0.0132515
644.521	0.0133684
644.599	0.0133292
644.677	0.0133335
644.755	0.0131856
644.833	0.0133043
644.911	0.0133447
644.989	0.0132880
645.068	0.0133151
645.146	0.0133395
645.224	0.0133606
645.302	0.0133752
645.380	0.0134591
645.458	0.0135491
645.536	0.0135638
645.614	0.0135810
645.693	0.0137396
645.771	0.0138569
645.849	0.0138075
645.927	0.0137903
646.005	0.0140094
646.083	0.0141089
646.161	0.0139822
646.239	0.0140530
646.318	0.0140642
646.396	0.0139345
646.474	0.0139305
646.552	0.0140305
646.630	0.0141560
646.708	0.0139101
646.786	0.0138781
646.864	0.0138983
646.943	0.0138537
647.021	0.0135642
647.099	0.0136248
647.177	0.0137080
647.255	0.0135418
647.333	0.0132765
647.411	0.0133035
647.489	0.0133061
647.568	0.0131947
647.646	0.0132469
647.724	0.0131689
647.802	0.0131155
647.880	0.0130652
647.958	0.0131972
648.036	0.0129839
648.114	0.0130579
648.193	0.0132915
648.271	0.0131657
648.349	0.0132554
648.427	0.0132963
648.505	0.0131966
648.583	0.0131801
648.661	0.0132203
648.739	0.0132263
648.818	0.0133243
648.896	0.0133972
648.974	0.0134421
649.052	0.0134606
649.130	0.0137313
649.208	0.0136731
649.286	0.0137720
649.364	0.0138586
649.443	0.0138712
649.521	0.0139864
649.599	0.0139639
649.677	0.0140188
649.755	0.0141415
649.833	0.0141579
649.911	0.0143348
649.989	0.0141909
650.068	0.0142286
650.146	0.0141915
650.224	0.0143061
650.302	0.0143827
650.380	0.0142059
650.458	0.0142692
650.536	0.0142088
650.614	0.0141560
650.693	0.0141057
650.771	0.0139199
650.849	0.0139750
650.927	0.0138451
651.005	0.0137888
651.083	0.0136941
651.161	0.0136018
651.239	0.0135400
651.318	0.0136147
651.396	0.0133276
651.474	0.0132407
651.552	0.0132023
651.630	0.0130976
651.708	0.0130167
651.786	0.0128355
651.864	0.0128543
651.943	0.0128461
652.021	0.0127618
652.099	0.0126351
652.177	0.0127113
652.255	0.0126824
652.333	0.0126073
652.411	0.0126265
652.489	0.0126662
652.568	0.0127412
652.646	0.0129343
652.724	0.0130136
652.802	0.0131396
652.880	0.0133000
652.958	0.0135020
653.036	0.0136454
653.114	0.0136622
653.193	0.0139561
653.271	0.0140568
653.349	0.0143753
653.427	0.0144361
653.505	0.0145494
653.583	0.0148664
653.661	0.0149735
653.739	0.0150791
653.818	0.0151461
653.896	0.0152940
653.974	0.0152720
654.052	0.0152418
654.130	0.0153696
654.208	0.0153487
654.286	0.0153062
654.364	0.0152672
654.443	0.0150317
654.521	0.0149544
654.599	0.0148763
654.677	0.0145757
654.755	0.0143903
654.833	0.0142815
654.911	0.0141570
654.989	0.0138366
655.068	0.0134976
655.146	0.0133503
655.224	0.0130545
655.302	0.0130049
655.380	0.0127362
655.458	0.0125365
655.536	0.0122916
655.614	0.0120922
655.693	0.0118852
655.771	0.0119789
655.849	0.0118366
655.927	0.0116848
656.005	0.0119484
656.083	0.0117536
656.161	0.0117230
656.239	0.0119675
656.318	0.0119891
656.396	0.0120193
656.474	0.0120937
656.552	0.0122514
656.630	0.0124702
656.708	0.0126096
656.786	0.0128774
656.864	0.0130315
656.943	0.0132653
657.021	0.0135070
657.099	0.0138048
657.177	0.0139020
657.255	0.0141946
657.333	0.0143649
657.411	0.0145268
657.489	0.0148533
657.568	0.0151598
657.646	0.0151885
657.724	0.0154937
657.802	0.0156078
657.880	0.0158361
657.958	0.0158633
658.036	0.0161176
658.114	0.0161657
658.193	0.0161641
658.271	0.0160809
658.349	0.0160297
658.427	0.0159223
658.505	0.0159174
658.583	0.0156687
658.661	0.0155074
658.739	0.0153604
658.818	0.0152789
658.896	0.0148716
658.974	0.0146204
659.052	0.0143015
659.130	0.0141421
659.208	0.0138002
659.286	0.0134295
659.364	0.0131673
659.443	0.0127402
659.521	0.0125363
659.599	0.0120409
659.677	0.0117963
659.755	0.0116565
659.833	0.0113400
659.911	0.0111700
659.989	0.0109614
660.068	0.0109544
660.146	0.0106841
660.224	0.0106905
660.302	0.0105458
660.380	0.0106293
660.458	0.0107219
660.536	0.0109970
660.614	0.0111035
660.693	0.0113635
660.771	0.0113636
660.849	0.0117116
660.927	0.0119679
661.005	0.0122533
661.083	0.0126317
661.161	0.0128823
661.239	0.0133643
661.318	0.0136729
661.396	0.0140263
661.474	0.0144915
661.552	0.0147369
661.630	0.0150910
661.708	0.0153919
661.786	0.0157021
661.864	0.0160340
661.943	0.0161326
662.021	0.0165369
662.099	0.0167375
662.177	0.0168221
662.255	0.0169433
662.333	0.0169813
662.411	0.0169400
662.489	0.0169961
662.568	0.0169129
662.646	0.0168861
662.724	0.0167725
662.802	0.0165094
662.880	0.0162409
662.958	0.0158912
663.036	0.0156739
663.114	0.0154221
663.193	0.0150475
663.271	0.0147614
663.349	0.0142948
663.427	0.0138783
663.505	0.0135822
663.583	0.0133022
663.661	0.0128609
663.739	0.0125217
663.818	0.0120033
663.896	0.0116445
663.974	0.0113008
664.052	0.0110042
664.130	0.0107025
664.208	0.0105013
664.286	0.0102047
664.364	0.0100452
664.443	0.0100542
664.521	0.0100192
664.599	0.00982391
664.677	0.00991478
664.755	0.0101521
664.833	0.0103333
664.911	0.0103081
664.989	0.0107208
665.068	0.0109985
665.146	0.0112556
665.224	0.0117191
665.302	0.0120628
665.380	0.0123302
665.458	0.0127091
665.536	0.0131590
665.614	0.0136749
665.693	0.0141933
665.771	0.0146305
665.849	0.0148602
665.927	0.0151338
666.005	0.0156736
666.083	0.0159280
666.161	0.0162498
666.239	0.0165147
666.318	0.0166297
666.396	0.0168630
666.474	0.0169955
666.552	0.0169270
666.630	0.0171156
666.708	0.0168297
666.786	0.0168770
666.864	0.0167872
666.943	0.0165610
667.021	0.0164539
667.099	0.0162469
667.177	0.0160491
667.255	0.0156960
667.333	0.0154173
667.411	0.0151074
667.489	0.0149342
667.568	0.0147318
667.646	0.0143333
667.724	0.0138963
667.802	0.0135798
667.880	0.0134430
667.958	0.0130388
668.036	0.0127861
668.114	0.0124508
668.193	0.0122357
668.271	0.0120572
668.349	0.0118156
668.427	0.0116986
668.505	0.0114186
668.583	0.0112487
668.661	0.0111893
668.739	0.0111840
668.818	0.0109908
668.896	0.0110511
668.974	0.0109867
669.052	0.0111229
669.130	0.0111081
669.208	0.0110825
669.286	0.0113999
669.364	0.0113482
669.443	0.0117543
669.521	0.0117339
669.599	0.0121613
669.677	0.0123164
669.755	0.0124854
669.833	0.0128217
669.911	0.0130524
669.989	0.0134260
670.068	0.0136798
670.146	0.0139738
670.224	0.0142989
670.302	0.0146883
670.380	0.0148696
670.458	0.0150742
670.536	0.0153257
670.614	0.0154217
670.693	0.0157129
670.771	0.0159054
670.849	0.0158923
670.927	0.0158906
671.005	0.0159573
671.083	0.0158535
671.161	0.0158308
671.239	0.0157497
671.318	0.0157281
671.396	0.0156240
671.474	0.0153476
671.552	0.0149854
671.630	0.0149948
671.708	0.0148087
671.786	0.0143814
671.864	0.0141884
671.943	0.0140923
672.021	0.0138061
672.099	0.0135160
672.177	0.0133190
672.255	0.0128912
672.333	0.0130563
672.411	0.0127476
672.489	0.0126171
672.568	0.0126694
672.646	0.0126462
672.724	0.0124487
672.802	0.0124922
672.880	0.0126764
672.958	0.0127316
673.036	0.0128355
673.114	0.0128495
673.193	0.0132343
673.271	0.0130828
673.349	0.0131889
673.427	0.0134436
673.505	0.0136270
673.583	0.0135885
673.661	0.0136053
673.739	0.0140084
673.818	0.0139998
673.896	0.0140531
673.974	0.0140224
674.052	0.0141837
674.130	0.0141904
674.208	0.0140663
674.286	0.0140362
674.364	0.0140493
674.443	0.0139917
674.521	0.0139931
674.599	0.0137917
674.677	0.0136150
674.755	0.0136753
674.833	0.0135880
674.911	0.0133535
674.989	0.0133542
675.068	0.0133192
675.146	0.0133385
675.224	0.0131939
675.302	0.0130846
675.380	0.0129218
675.458	0.0131715
675.536	0.0131440
675.614	0.0130898
675.693	0.0130833
675.771	0.0131818
675.849	0.0130532
675.927	0.0130574
676.005	0.0131212
676.083	0.0133015
676.161	0.0132732
676.239	0.0133907
676.318	0.0135011
676.396	0.0135349
676.474	0.0135744
676.552	0.0137283
676.630	0.0138715
676.708	0.0138283
676.786	0.0141714
676.864	0.0142080
676.943	0.0141873
677.021	0.0143756
677.099	0.0143964
677.177	0.0143705
677.255	0.0143862
677.333	0.0143967
677.411	0.0143929
677.489	0.0144046
677.568	0.0144427
677.646	0.0142059
677.724	0.0143452
677.802	0.0143129
677.880	0.0144099
677.958	0.0143034
678.036	0.0142229
678.114	0.0140903
678.193	0.0142314
678.271	0.0142220
678.349	0.0141664
678.427	0.0142790
678.505	0.0141068
678.583	0.0142197
678.661	0.0141113
678.739	0.0141036
678.818	0.0141290
678.896	0.0140836
678.974	0.0140482
679.052	0.0138960
679.130	0.0137720
679.208	0.0136548
679.286	0.0136546
679.364	0.0135623
679.443	0.0134798
679.521	0.0133715
679.599	0.0131586
679.677	0.0131364
679.755	0.0130903
679.833	0.0128038
679.911	0.0127975
679.989	0.0126080
680.068	0.0125098
680.146	0.0125539
680.224	0.0124339
680.302	0.0123087
680.380	0.0122701
680.458	0.0121967
680.536	0.0121310
680.614	0.0121732
680.693	0.0122736
680.771	0.0122528
680.849	0.0123109
680.927	0.0124194
681.005	0.0124012
681.083	0.0126273
681.161	0.0127788
681.239	0.0128008
681.318	0.0130549
681.396	0.0131910
681.474	0.0132548
681.552	0.0134447
681.630	0.0136291
681.708	0.0140089
681.786	0.0140260
681.864	0.0141544
681.943	0.0143005
682.021	0.0144826
682.099	0.0145824
682.177	0.0148426
682.255	0.0148080
682.333	0.0149456
682.411	0.0150217
682.489	0.0150659
682.568	0.0151042
682.646	0.0151251
682.724	0.0148740
682.802	0.0149749
682.880	0.0150860
682.958	0.0148393
683.036	0.0148151
683.114	0.0146860
683.193	0.0145088
683.271	0.0144522
683.349	0.0144027
683.427	0.0142002
683.505	0.0139850
683.583	0.0139610
683.661	0.0134924
683.739	0.0135146
683.818	0.0135901
683.896	0.0133581
683.974	0.0134436
684.052	0.0133225
684.130	0.0131880
684.208	0.0130421
684.286	0.0131835
684.364	0.0131812
684.443	0.0131548
684.521	0.0131091
684.599	0.0132162
684.677	0.0133255
684.755	0.0133285
684.833	0.0133449
684.911	0.0136043
684.989	0.0135999
685.068	0.0134922
685.146	0.0135503
685.224	0.0135937
685.302	0.0136201
685.380	0.0136077
685.458	0.0135309
685.536	0.0134109
685.614	0.0135257
685.693	0.0134592
685.771	0.0133511
685.849	0.0132045
685.927	0.0131326
686.005	0.0131848
686.083	0.0130470
686.161	0.0128902
686.239	0.0130178
686.318	0.0130370
686.396	0.0128143
686.474	0.0130036
686.552	0.0131615
686.630	0.0128843
686.708	0.0131486
686.786	0.0132472
686.864	0.0131563
686.943	0.0135054
687.021	0.0133282
687.099	0.0134157
687.177	0.0134700
687.255	0.0137179
687.333	0.0137843
687.411	0.0138181
687.489	0.0141849
687.568	0.0141063
687.646	0.0142544
687.724	0.0142414
687.802	0.0142858
687.880	0.0143746
687.958	0.0146275
688.036	0.0147575
688.114	0.0146210
688.193	0.0147562
688.271	0.0146680
688.349	0.0146984
688.427	0.0148190
688.505	0.0146072
688.583	0.0146448
688.661	0.0146325
688.739	0.0145438
688.818	0.0143678
688.896	0.0144689
688.974	0.0143858
689.052	0.0143030
689.130	0.0140933
689.208	0.0141686
689.286	0.0138714
689.364	0.0138370
689.443	0.0138381
689.521	0.0135783
689.599	0.0136074
689.677	0.0136369
689.755	0.0133858
689.833	0.0134909
689.911	0.0134979
689.989	0.0134541
690.068	0.0134966
690.146	0.0134203
690.224	0.0132944
690.302	0.0133823
690.380	0.0135065
690.458	0.0132783
690.536	0.0134550
690.614	0.0134245
690.693	0.0133555
690.771	0.0131891
690.849	0.0132237
690.927	0.0132246
691.005	0.0131152
691.083	0.0130795
691.161	0.0130070
691.239	0.0129056
691.318	0.0129037
691.396	0.0127613
691.474	0.0126605
691.552	0.0125056
691.630	0.0125678
691.708	0.0124532
691.786	0.0123994
691.864	0.0124391
691.943	0.0126106
692.021	0.0126247
692.099	0.0127180
692.177	0.0127379
692.255	0.0128778
692.333	0.0129318
692.411	0.0129509
692.489	0.0130162
692.568	0.0131255
692.646	0.0134971
692.724	0.0136404
692.802	0.0136707
692.880	0.0138017
692.958	0.0140420
693.036	0.0140727
693.114	0.0144299
693.193	0.0145340
693.271	0.0146796
693.349	0.0148225
693.427	0.0151466
693.505	0.0152409
693.583	0.0153106
693.661	0.0153614
693.739	0.0156516
693.818	0.0155666
693.896	0.0157637
693.974	0.0157473
694.052	0.0156145
694.130	0.0156695
694.208	0.0155825
694.286	0.0154919
694.364	0.0152818
694.443	0.0150496
694.521	0.0150555
694.599	0.0147786
694.677	0.0145219
694.755	0.0142805
694.833	0.0139418
694.911	0.0138917
694.989	0.0136578
695.068	0.0134470
695.146	0.0133286
695.224	0.0130362
695.302	0.0128071
695.380	0.0126239
695.458	0.0125702
695.536	0.0123843
695.614	0.0123155
695.693	0.0123379
695.771	0.0123209
695.849	0.0122727
695.927	0.0121422
696.005	0.0123022
696.083	0.0124313
696.161	0.0124918
696.239	0.0125699
696.318	0.0126141
696.396	0.0127905
696.474	0.0131129
696.552	0.0132392
696.630	0.0132587
696.708	0.0134728
696.786	0.0135867
696.864	0.0138109
696.943	0.0140287
697.021	0.0140517
697.099	0.0141154
697.177	0.0143327
697.255	0.0143693
697.333	0.0145690
697.411	0.0147523
697.489	0.0146437
697.568	0.0146813
697.646	0.0147498
697.724	0.0145298
697.802	0.0146885
697.880	0.0146958
697.958	0.0145709
698.036	0.0143794
698.114	0.0144743
698.193	0.0144024
698.271	0.0144429
698.349	0.0143098
698.427	0.0141512
698.505	0.0140762
698.583	0.0140237
698.661	0.0138492
698.739	0.0138030
698.818	0.0136686
698.896	0.0135897
698.974	0.0134460
699.052	0.0132893
699.130	0.0134190
699.208	0.0132242
699.286	0.0132162
699.364	0.0130595
699.443	0.0131163
699.521	0.0129568
699.599	0.0130381
699.677	0.0130382
699.755	0.0130836
699.833	0.0130533
699.911	0.0130659
699.989	0.0130459
700.068	0.0131590
700.146	0.0130293
700.224	0.0131266
700.302	0.0133495
700.380	0.0133595
700.458	0.0135162
700.536	0.0134566
700.614	0.0134880
700.693	0.0136418
700.771	0.0138873
700.849	0.0137592
700.927	0.0141047
701.005	0.0140790
701.083	0.0140430
701.161	0.0141551
701.239	0.0143336
701.318	0.0142866
701.396	0.0142172
701.474	0.0141860
701.552	0.0143232
701.630	0.0141866
701.708	0.0142734
701.786	0.0141496
701.864	0.0142068
701.943	0.0142738
702.021	0.0139895
702.099	0.0139433
702.177	0.0140079
702.255	0.0137128
702.333	0.0137828
702.411	0.0136801
702.489	0.0136523
702.568	0.0135141
702.646	0.0133576
702.724	0.0134087
702.802	0.0134214
702.880	0.0132689
702.958	0.0132600
703.036	0.0134275
703.114	0.0133431
703.193	0.0132439
703.271	0.0133321
703.349	0.0134398
703.427	0.0133290
703.505	0.0131689
703.583	0.0131213
703.661	0.0131681
703.739	0.0130663
703.818	0.0130334
703.896	0.0129316
703.974	0.0128613
704.052	0.0128080
704.130	0.0127247
704.208	0.0128539
704.286	0.0127158
704.364	0.0126749
704.443	0.0128089
704.521	0.0126550
704.599	0.0127835
704.677	0.0128177
704.755	0.0126816
704.833	0.0127881
704.911	0.0128274
704.989	0.0130344
705.068	0.0131539
705.146	0.0132381
705.224	0.0135075
705.302	0.0136117
705.380	0.0137556
705.458	0.0138664
705.536	0.0140155
705.614	0.0141703
705.693	0.0143752
705.771	0.0146056
705.849	0.0147558
705.927	0.0148363
706.005	0.0150603
706.083	0.0150610
706.161	0.0152075
706.239	0.0150383
706.318	0.0151375
706.396	0.0152421
706.474	0.0152647
706.552	0.0152132
706.630	0.0152515
706.708	0.0149787
706.786	0.0150222
706.864	0.0146875
706.943	0.0145213
707.021	0.0144579
707.099	0.0144513
707.177	0.0141983
707.255	0.0141496
707.333	0.0138929
707.411	0.0137338
707.489	0.0137029
707.568	0.0131870
707.646	0.0131766
707.724	0.0129450
707.802	0.0128638
707.880	0.0125698
707.958	0.0124656
708.036	0.0125153
708.114	0.0124374
708.193	0.0121636
708.271	0.0121729
708.349	0.0121480
708.427	0.0120503
708.505	0.0121445
708.583	0.0121247
708.661	0.0122311
708.739	0.0122859
708.818	0.0123732
708.896	0.0124717
708.974	0.0126659
709.052	0.0128979
709.130	0.0126707
709.208	0.0130362
709.286	0.0131212
709.364	0.0132520
709.443	0.0133675
709.521	0.0133953
709.599	0.0135889
709.677	0.0136481
709.755	0.0136436
709.833	0.0137160
709.911	0.0137009
709.989	0.0138219
710.068	0.0138148
710.146	0.0139476
710.224	0.0137679
710.302	0.0138145
710.380	0.0137986
710.458	0.0139288
710.536	0.0138316
710.614	0.0138939
710.693	0.0139906
710.771	0.0139511
710.849	0.0138961
710.927	0.0139286
711.005	0.0140589
711.083	0.0141801
711.161	0.0140336
711.239	0.0139811
711.318	0.0140891
711.396	0.0141817
711.474	0.0142739
711.552	0.0141874
711.630	0.0141137
711.708	0.0142755
711.786	0.0143580
711.864	0.0143121
711.943	0.0142020
712.021	0.0142288
712.099	0.0141736
712.177	0.0140829
712.255	0.0142375
712.333	0.0141622
712.411	0.0142809
712.489	0.0143169
712.568	0.0141738
712.646	0.0141193
712.724	0.0140131
712.802	0.0140623
712.880	0.0141102
712.958	0.0140103
713.036	0.0140277
713.114	0.0141198
713.193	0.0139456
713.271	0.0138689
713.349	0.0137171
713.427	0.0137682
713.505	0.0135490
713.583	0.0134961
713.661	0.0134852
713.739	0.0133119
713.818	0.0132413
713.896	0.0132935
713.974	0.0132905
714.052	0.0131405
714.130	0.0131818
714.208	0.0131586
714.286	0.0130495
714.364	0.0130650
714.443	0.0131094
714.521	0.0132202
714.599	0.0131446
714.677	0.0131749
714.755	0.0130606
714.833	0.0133284
714.911	0.0132944
714.989	0.0132553
715.068	0.0132500
715.146	0.0135347
715.224	0.0135140
715.302	0.0135502
715.380	0.0135738
715.458	0.0137064
715.536	0.0137614
715.614	0.0138462
715.693	0.0139679
715.771	0.0140237
715.849	0.0141378
715.927	0.0142318
716.005	0.0141712
716.083	0.0142140
716.161	0.0142405
716.239	0.0143087
716.318	0.0143320
716.396	0.0142654
716.474	0.0143951
716.552	0.0141821
716.630	0.0142472
716.708	0.0141478
716.786	0.0140952
716.864	0.0143191
716.943	0.0141669
717.021	0.0142228
717.099	0.0140047
717.177	0.0141505
717.255	0.0139574
717.333	0.0139967
717.411	0.0138513
717.489	0.0138087
717.568	0.0139100
717.646	0.0137918
717.724	0.0136221
717.802	0.0135266
717.880	0.0136944
717.958	0.0136269
718.036	0.0136305
718.114	0.0135172
718.193	0.0136334
718.271	0.0136215
718.349	0.0137703
718.427	0.0137910
718.505	0.0137246
718.583	0.0138554
718.661	0.0137148
718.739	0.0137686
718.818	0.0136765
718.896	0.0139185
718.974	0.0138733
719.052	0.0138519
719.130	0.0137021
719.208	0.0138169
719.286	0.0139534
719.364	0.0138607
719.443	0.0140437
719.521	0.0140334
719.599	0.0138758
719.677	0.0137379
719.755	0.0138695
719.833	0.0138223
719.911	0.0138352
719.989	0.0138127
720.068	0.0136658
720.146	0.0136040
720.224	0.0136660
720.302	0.0135946
720.380	0.0135091
720.458	0.0134324
720.536	0.0134262
720.614	0.0134480
720.693	0.0133574
720.771	0.0132774
720.849	0.0132607
720.927	0.0131538
721.005	0.0133498
721.083	0.0132565
721.161	0.0131421
721.239	0.0131383
721.318	0.0132758
721.396	0.0132764
721.474	0.0133203
721.552	0.0133447
721.630	0.0133110
721.708	0.0134556
721.786	0.0133415
721.864	0.0134106
721.943	0.0136648
722.021	0.0138132
722.099	0.0137395
722.177	0.0139174
722.255	0.0139175
722.333	0.0138412
722.411	0.0140368
722.489	0.0140306
722.568	0.0140378
722.646	0.0139749
722.724	0.0140195
722.802	0.0139740
722.880	0.0139687
722.958	0.0140410
723.036	0.0138746
723.114	0.0138665
723.193	0.0139696
723.271	0.0138171
723.349	0.0137885
723.427	0.0138206
723.505	0.0138461
723.583	0.0137592
723.661	0.0137105
723.739	0.0137556
723.818	0.0136446
723.896	0.0135756
723.974	0.0136834
724.052	0.0137697
724.130	0.0136435
724.208	0.0135199
724.286	0.0136034
724.364	0.0136693
724.443	0.0136423
724.521	0.0134850
724.599	0.0135586
724.677	0.0137411
724.755	0.0136573
724.833	0.0136987
724.911	0.0135269
724.989	0.0136785
725.068	0.0137086
725.146	0.0137589
725.224	0.0137610
725.302	0.0137655
725.380	0.0137970
725.458	0.0138360
725.536	0.0139009
725.614	0.0140944
725.693	0.0138602
725.771	0.0140236
725.849	0.0141022
725.927	0.0140995
726.005	0.0139957
726.083	0.0140401
726.161	0.0140710
726.239	0.0138892
726.318	0.0136033
726.396	0.0137926
726.474	0.0136324
726.552	0.0136922
726.630	0.0134718
726.708	0.0134467
726.786	0.0133354
726.864	0.0131936
726.943	0.0132101
727.021	0.0131373
727.099	0.0129821
727.177	0.0127935
727.255	0.0128134
727.333	0.0128104
727.411	0.0128724
727.489	0.0129243
727.568	0.0128988
727.646	0.0129766
727.724	0.0128394
727.802	0.0128139
727.880	0.0129935
727.958	0.0131490
728.036	0.0130998
728.114	0.0130486
728.193	0.0131937
728.271	0.0132414
728.349	0.0132928
728.427	0.0135457
728.505	0.0135280
728.583	0.0135036
728.661	0.0136844
728.739	0.0137937
728.818	0.0138632
728.896	0.0137439
728.974	0.0137962
729.052	0.0138060
729.130	0.0139563
729.208	0.0138821
729.286	0.0138906
729.364	0.0139887
729.443	0.0140202
729.521	0.0139118
729.599	0.0137289
729.677	0.0137431
729.755	0.0138778
729.833	0.0138812
729.911	0.0136658
729.989	0.0138095
730.068	0.0136765
730.146	0.0137022
730.224	0.0135478
730.302	0.0135719
730.380	0.0134748
730.458	0.0134616
730.536	0.0134807
730.614	0.0134717
730.693	0.0135111
730.771	0.0134956
730.849	0.0134934
730.927	0.0134795
731.005	0.0134201
731.083	0.0136088
731.161	0.0134718
731.239	0.0135566
731.318	0.0136357
731.396	0.0138034
731.474	0.0138057
731.552	0.0139020
731.630	0.0138976
731.708	0.0138168
731.786	0.0138497
731.864	0.0136829
731.943	0.0138938
732.021	0.0138596
732.099	0.0139778
732.177	0.0138990
732.255	0.0137828
732.333	0.0137946
732.411	0.0138155
732.489	0.0139217
732.568	0.0137048
732.646	0.0136994
732.724	0.0138126
732.802	0.0137939
732.880	0.0137781
732.958	0.0136761
733.036	0.0133789
733.114	0.0135645
733.193	0.0134665
733.271	0.0135252
733.349	0.0134709
733.427	0.0135233
733.505	0.0133598
733.583	0.0132417
733.661	0.0134097
733.739	0.0132432
733.818	0.0132318
733.896	0.0132479
733.974	0.0131600
734.052	0.0132407
734.130	0.0131522
734.208	0.0131533
734.286	0.0131679
734.364	0.0131071
734.443	0.0132642
734.521	0.0131299
734.599	0.0132606
734.677	0.0133955
734.755	0.0133104
734.833	0.0133436
734.911	0.0135384
734.989	0.0135918
735.068	0.0136770
735.146	0.0137479
735.224	0.0137192
735.302	0.0137814
735.380	0.0138074
735.458	0.0138689
735.536	0.0138862
735.614	0.0140002
735.693	0.0139460
735.771	0.0139880
735.849	0.0140652
735.927	0.0139442
736.005	0.0140294
736.083	0.0139799
736.161	0.0138904
736.239	0.0137776
736.318	0.0139841
736.396	0.0141120
736.474	0.0140804
736.552	0.0138654
736.630	0.0138873
736.708	0.0137521
736.786	0.0137544
736.864	0.0138488
736.943	0.0138931
737.021	0.0138400
737.099	0.0137670
737.177	0.0138205
737.255	0.0136864
737.333	0.0138746
737.411	0.0138137
737.489	0.0136902
737.568	0.0136979
737.646	0.0138481
737.724	0.0137992
737.802	0.0136269
737.880	0.0137148
737.958	0.0137389
738.036	0.0136790
738.114	0.0136507
738.193	0.0138197
738.271	0.0137347
738.349	0.0137427
738.427	0.0136888
738.505	0.0135050
738.583	0.0135596
738.661	0.0138239
738.739	0.0137357
738.818	0.0137078
738.896	0.0134834
738.974	0.0136519
739.052	0.0135214
739.130	0.0137378
739.208	0.0136745
739.286	0.0135349
739.364	0.0135737
739.443	0.0136789
739.521	0.0134858
739.599	0.0135605
739.677	0.0135708
739.755	0.0135201
739.833	0.0135452
739.911	0.0136398
739.989	0.0134451
740.068	0.0135126
740.146	0.0133191
740.224	0.0134673
740.302	0.0134568
740.380	0.0134075
740.458	0.0133948
740.536	0.0135864
740.614	0.0133471
740.693	0.0134328
740.771	0.0134270
740.849	0.0135979
740.927	0.0136964
741.005	0.0136163
741.083	0.0135955
741.161	0.0136672
741.239	0.0136665
741.318	0.0137488
741.396	0.0136858
741.474	0.0137094
741.552	0.0139909
741.630	0.0139343
741.708	0.0138364
741.786	0.0140190
741.864	0.0138902
741.943	0.0139483
742.021	0.0140072
742.099	0.0140865
742.177	0.0141108
742.255	0.0140270
742.333	0.0140529
742.411	0.0141785
742.489	0.0140585
742.568	0.0140952
742.646	0.0140252
742.724	0.0139702
742.802	0.0139494
742.880	0.0138715
742.958	0.0139938
743.036	0.0137685
743.114	0.0138582
743.193	0.0137430
743.271	0.0136472
743.349	0.0136510
743.427	0.0135764
743.505	0.0134749
743.583	0.0133801
743.661	0.0133506
743.739	0.0133490
743.818	0.0133076
743.896	0.0132899
743.974	0.0134519
744.052	0.0131800
744.130	0.0133407
744.208	0.0132471
744.286	0.0133718
744.364	0.0134246
744.443	0.0134064
744.521	0.0133344
744.599	0.0134570
744.677	0.0135482
744.755	0.0134098
744.833	0.0132575
744.911	0.0135204
744.989	0.0135719
745.068	0.0135859
745.146	0.0135413
745.224	0.0135986
745.302	0.0137381
745.380	0.0137213
745.458	0.0137329
745.536	0.0137303
745.614	0.0137630
745.693	0.0139059
745.771	0.0138638
745.849	0.0137962
745.927	0.0139392
746.005	0.0140070
746.083	0.0138554
746.161	0.0139014
746.239	0.0139862
746.318	0.0140852
746.396	0.0140559
746.474	0.0138306
746.552	0.0138110
746.630	0.0138724
746.708	0.0138710
746.786	0.0138601
746.864	0.0138208
746.943	0.0137817
747.021	0.0138628
747.099	0.0136652
747.177	0.0135448
747.255	0.0136919
747.333	0.0135827
747.411	0.0134614
747.489	0.0135539
747.568	0.0134771
747.646	0.0135145
747.724	0.0134966
747.802	0.0134564
747.880	0.0135287
747.958	0.0133897
748.036	0.0135484
748.114	0.0133597
748.193	0.0134841
748.271	0.0134438
748.349	0.0136091
748.427	0.0135495
748.505	0.0134286
748.583	0.0135275
748.661	0.0135628
748.739	0.0136048
748.818	0.0134747
748.896	0.0134561
748.974	0.0135666
749.052	0.0135677
749.130	0.0136559
749.208	0.0136854
749.286	0.0135321
749.364	0.0136263
749.443	0.0138210
749.521	0.0136985
749.599	0.0135234
749.677	0.0138013
749.755	0.0138097
749.833	0.0136477
749.911	0.0137294
749.989	0.0137897
750.068	0.0136516
750.146	0.0137871
750.224	0.0137823
750.302	0.0137581
750.380	0.0136867
750.458	0.0138461
750.536	0.0138555
750.614	0.0138670
750.693	0.0139023
750.771	0.0138988
750.849	0.0138480
750.927	0.0139331
751.005	0.0138033
751.083	0.0138647
751.161	0.0138356
751.239	0.0138805
751.318	0.0137803
751.396	0.0139185
751.474	0.0138597
751.552	0.0137328
751.630	0.0139484
751.708	0.0137831
751.786	0.0138396
751.864	0.0136698
751.943	0.0137179
752.021	0.0136946
752.099	0.0136414
752.177	0.0135512
752.255	0.0134805
752.333	0.0135535
752.411	0.0134673
752.489	0.0132960
752.568	0.0131871
752.646	0.0133566
752.724	0.0132635
752.802	0.0132020
752.880	0.0131188
752.958	0.0132843
753.036	0.0132193
753.114	0.0130589
753.193	0.0130901
753.271	0.0130463
753.349	0.0133286
753.427	0.0133006
753.505	0.0132348
753.583	0.0132150
753.661	0.0132687
753.739	0.0132459
753.818	0.0131831
753.896	0.0133186
753.974	0.0133642
754.052	0.0134242
754.130	0.0135525
754.208	0.0135571
754.286	0.0135578
754.364	0.0136897
754.443	0.0138390
754.521	0.0138003
754.599	0.0141154
754.677	0.0141061
754.755	0.0141926
754.833	0.0143273
754.911	0.0143201
754.989	0.0142615
755.068	0.0144245
755.146	0.0143857
755.224	0.0144822
755.302	0.0146296
755.380	0.0144936
755.458	0.0144501
755.536	0.0145575
755.614	0.0144765
755.693	0.0144413
755.771	0.0142326
755.849	0.0142064
755.927	0.0141984
756.005	0.0140316
756.083	0.0139438
756.161	0.0138498
756.239	0.0136150
756.318	0.0135741
756.396	0.0134317
756.474	0.0133958
756.552	0.0133491
756.630	0.0131811
756.708	0.0131927
756.786	0.0132620
756.864	0.0131977
756.943	0.0129951
757.021	0.0130590
757.099	0.0131243
757.177	0.0130028
757.255	0.0132006
757.333	0.0130803
757.411	0.0132267
757.489	0.0133627
757.568	0.0134017
757.646	0.0134463
757.724	0.0134203
757.802	0.0134016
757.880	0.0135668
757.958	0.0134601
758.036	0.0135960
758.114	0.0136660
758.193	0.0137009
758.271	0.0138706
758.349	0.0138570
758.427	0.0138058
758.505	0.0138377
758.583	0.0139137
758.661	0.0138471
758.739	0.0138396
758.818	0.0138342
758.896	0.0138188
758.974	0.0138764
759.052	0.0140248
759.130	0.0139838
759.208	0.0140049
759.286	0.0138849
759.364	0.0139732
759.443	0.0137926
759.521	0.0139183
759.599	0.0138834
759.677	0.0138367
759.755	0.0138086
759.833	0.0137380
759.911	0.0137383
759.989	0.0138018
760.068	0.0136551
760.146	0.0136356
760.224	0.0137361
760.302	0.0135508
760.380	0.0134783
760.458	0.0135471
760.536	0.0133077
760.614	0.0135110
760.693	0.0133768
760.771	0.0133186
760.849	0.0133375
760.927	0.0133773
761.005	0.0132331
761.083	0.0130761
761.161	0.0132831
761.239	0.0132519
761.318	0.0132418
761.396	0.0131799
761.474	0.0131753
761.552	0.0133358
761.630	0.0132864
761.708	0.0132168
761.786	0.0132965
761.864	0.0134554
761.943	0.0134040
762.021	0.0135128
762.099	0.0134481
762.177	0.0135235
762.255	0.0136356
762.333	0.0135982
762.411	0.0136686
762.489	0.0137577
762.568	0.0137558
762.646	0.0136346
762.724	0.0138253
762.802	0.0139393
762.880	0.0139330
762.958	0.0138696
763.036	0.0139740
763.114	0.0140496
763.193	0.0139766
763.271	0.0139779
763.349	0.0141521
763.427	0.0140659
763.505	0.0141506
763.583	0.0143730
763.661	0.0141293
763.739	0.0141525
763.818	0.0140675
763.896	0.0140393
763.974	0.0140421
764.052	0.0139277
764.130	0.0139526
764.208	0.0139174
764.286	0.0139687
764.364	0.0139280
764.443	0.0138026
764.521	0.0138151
764.599	0.0137670
764.677	0.0138448
764.755	0.0138106
764.833	0.0136909
764.911	0.0135818
764.989	0.0136971
765.068	0.0136189
765.146	0.0135663
765.224	0.0134551
765.302	0.0134155
765.380	0.0133463
765.458	0.0134451
765.536	0.0133458
765.614	0.0134959
765.693	0.0132988
765.771	0.0133547
765.849	0.0133664
765.927	0.0132124
766.005	0.0132121
766.083	0.0133139
766.161	0.0133646
766.239	0.0133427
766.318	0.0133248
766.396	0.0134828
766.474	0.0134785
766.552	0.0134180
766.630	0.0135845
766.708	0.0136372
766.786	0.0136416
766.864	0.0136729
766.943	0.0136692
767.021	0.0136828
767.099	0.0137225
767.177	0.0137572
767.255	0.0136652
767.333	0.0137408
767.411	0.0139105
767.489	0.0139695
767.568	0.0140056
767.646	0.0140034
767.724	0.0141215
767.802	0.0141046
767.880	0.0141507
767.958	0.0140108
768.036	0.0142131
768.114	0.0143340
768.193	0.0140536
768.271	0.0141363
768.349	0.0141582
768.427	0.0142072
768.505	0.0142823
768.583	0.0144260
768.661	0.0142280
768.739	0.0141850
768.818	0.0142668
768.896	0.0143301
768.974	0.0142109
769.052	0.0140544
769.130	0.0140845
769.208	0.0141527
769.286	0.0140594
769.364	0.0138761
769.443	0.0138972
769.521	0.0138230
769.599	0.0137877
769.677	0.0137363
769.755	0.0137148
769.833	0.0136588
769.911	0.0136219
769.989	0.0136619
770.068	0.0135586
770.146	0.0134927
770.224	0.0134668
770.302	0.0135796
770.380	0.0134988
770.458	0.0134330
770.536	0.0134698
770.614	0.0134657
770.693	0.0134066
770.771	0.0134021
770.849	0.0135815
770.927	0.0133707
771.005	0.0134896
771.083	0.0134029
771.161	0.0134074
771.239	0.0133253
771.318	0.0134228
771.396	0.0133864
771.474	0.0133584
771.552	0.0133563
771.630	0.0133467
771.708	0.0132979
771.786	0.0134352
771.864	0.0133176
771.943	0.0133299
772.021	0.0132606
772.099	0.0134151
772.177	0.0133347
772.255	0.0133031
772.333	0.0133774
772.411	0.0134036
772.489	0.0134785
772.568	0.0134897
772.646	0.0133025
772.724	0.0135354
772.802	0.0136218
772.880	0.0136450
772.958	0.0135984
773.036	0.0136870
773.114	0.0137439
773.193	0.0135303
773.271	0.0136668
773.349	0.0136137
773.427	0.0136314
773.505	0.0136933
773.583	0.0137758
773.661	0.0136941
773.739	0.0137534
773.818	0.0137139
773.896	0.0137029
773.974	0.0137100
774.052	0.0138365
774.130	0.0139043
774.208	0.0138946
774.286	0.0138699
774.364	0.0140071
774.443	0.0138868
774.521	0.0139780
774.599	0.0139287
774.677	0.0139791
774.755	0.0141116
774.833	0.0142220
774.911	0.0140810
774.989	0.0140672
775.068	0.0141729
775.146	0.0140484
775.224	0.0141959
775.302	0.0141045
775.380	0.0141445
775.458	0.0141255
775.536	0.0139867
775.614	0.0139964
775.693	0.0140168
775.771	0.0139546
775.849	0.0139900
775.927	0.0139394
776.005	0.0138880
776.083	0.0138954
776.161	0.0137379
776.239	0.0136877
776.318	0.0136775
776.396	0.0135741
776.474	0.0134850
776.552	0.0135989
776.630	0.0134620
776.708	0.0134476
776.786	0.0133534
776.864	0.0133360
776.943	0.0133916
777.021	0.0133366
777.099	0.0132082
777.177	0.0133458
777.255	0.0133160
777.333	0.0132126
777.411	0.0132954
777.489	0.0133218
777.568	0.0132317
777.646	0.0133862
777.724	0.0134148
777.802	0.0134448
777.880	0.0134393
777.958	0.0134391
778.036	0.0133864
778.114	0.0135128
778.193	0.0135974
778.271	0.0135977
778.349	0.0135968
778.427	0.0136904
778.505	0.0137950
778.583	0.0137440
778.661	0.0135720
778.739	0.0138847
778.818	0.0137404
778.896	0.0138548
778.974	0.0138783
779.052	0.0138371
779.130	0.0139939
779.208	0.0139988
779.286	0.0139917
779.364	0.0139947
779.443	0.0139443
779.521	0.0140444
779.599	0.0141219
779.677	0.0140136
779.755	0.0139887
779.833	0.0139896
779.911	0.0140075
779.989	0.0137908
780.068	0.0138263
780.146	0.0138589
780.224	0.0137106
780.302	0.0136312
780.380	0.0136497
780.458	0.0136983
780.536	0.0136478
780.614	0.0135127
780.693	0.0135446
780.771	0.0134008
780.849	0.0135399
780.927	0.0133813
781.005	0.0135014
781.083	0.0135026
781.161	0.0134013
781.239	0.0134061
781.318	0.0133661
781.396	0.0133300
781.474	0.0134226
781.552	0.0134089
781.630	0.0134631
781.708	0.0134055
781.786	0.0134333
781.864	0.0134715
781.943	0.0135836
782.021	0.0136032
782.099	0.0134528
782.177	0.0134245
782.255	0.0134310
782.333	0.0134965
782.411	0.0134995
782.489	0.0134870
782.568	0.0134687
782.646	0.0135845
782.724	0.0134714
782.802	0.0135438
782.880	0.0134631
782.958	0.0135626
783.036	0.0135555
783.114	0.0135175
783.193	0.0135670
783.271	0.0136890
783.349	0.0135986
783.427	0.0136591
783.505	0.0137618
783.583	0.0136809
783.661	0.0137141
783.739	0.0136483
783.818	0.0137372
783.896	0.0138181
783.974	0.0139034
784.052	0.0139008
784.130	0.0139185
784.208	0.0140406
784.286	0.0140284
784.364	0.0138752
784.443	0.0139523
784.521	0.0138757
784.599	0.0138213
784.677	0.0138862
784.755	0.0139417
784.833	0.0139987
784.911	0.0138387
784.989	0.0137601
785.068	0.0138863
785.146	0.0138429
785.224	0.0137067
785.302	0.0136238
785.380	0.0138114
785.458	0.0137684
785.536	0.0138215
785.614	0.0138012
785.693	0.0138264
785.771	0.0136469
785.849	0.0136375
785.927	0.0137330
786.005	0.0135741
786.083	0.0136916
786.161	0.0136401
786.239	0.0135537
786.318	0.0136997
786.396	0.0135876
786.474	0.0135545
786.552	0.0136366
786.630	0.0135899
786.708	0.0134800
786.786	0.0135593
786.864	0.0135593
786.943	0.0136335
787.021	0.0137326
787.099	0.0136377
787.177	0.0135389
787.255	0.0135359
787.333	0.0133653
787.411	0.0135841
787.489	0.0135561
787.568	0.0134135
787.646	0.0134599
787.724	0.0134859
787.802	0.0135074
787.880	0.0134909
787.958	0.0136265
788.036	0.0135099
788.114	0.0134330
788.193	0.0134432
788.271	0.0135034
788.349	0.0133075
788.427	0.0135785
788.505	0.0136877
788.583	0.0133385
788.661	0.0135740
788.739	0.0135875
788.818	0.0134550
788.896	0.0136678
788.974	0.0134741
789.052	0.0136183
789.130	0.0135292
789.208	0.0136437
789.286	0.0136518
789.364	0.0136857
789.443	0.0136745
789.521	0.0136329
789.599	0.0137810
789.677	0.0136129
789.755	0.0135347
789.833	0.0137541
789.911	0.0137758
789.989	0.0136688
790.068	0.0137238
790.146	0.0138138
790.224	0.0138166
790.302	0.0137369
790.380	0.0137762
790.458	0.0138635
790.536	0.0138134
790.614	0.0139408
790.693	0.0138830
790.771	0.0138596
790.849	0.0139387
790.927	0.0139213
791.005	0.0139121
791.083	0.0138993
791.161	0.0139912
791.239	0.0139565
791.318	0.0139036
791.396	0.0138455
791.474	0.0139864
791.552	0.0140472
791.630	0.0140338
791.708	0.0140161
791.786	0.0139566
791.864	0.0139372
791.943	0.0138026
792.021	0.0139632
792.099	0.0139054
792.177	0.0138441
792.255	0.0137039
792.333	0.0137103
792.411	0.0137685
792.489	0.0135112
792.568	0.0134688
792.646	0.0136549
792.724	0.0135356
792.802	0.0133741
792.880	0.0134677
792.958	0.0133613
793.036	0.0133489
793.114	0.0135712
793.193	0.0136253
793.271	0.0135191
793.349	0.0135358
793.427	0.0135383
793.505	0.0135838
793.583	0.0136129
793.661	0.0135506
793.739	0.0135679
793.818	0.0136771
793.896	0.0136308
793.974	0.0137038
794.052	0.0134653
794.130	0.0137201
794.208	0.0137582
794.286	0.0136645
794.364	0.0136551
794.443	0.0136324
794.521	0.0137897
794.599	0.0138032
794.677	0.0137882
794.755	0.0136355
794.833	0.0138512
794.911	0.0137346
794.989	0.0135746
795.068	0.0137566
795.146	0.0138570
795.224	0.0139181
795.302	0.0139542
795.380	0.0136990
795.458	0.0139011
795.536	0.0139038
795.614	0.0139187
795.693	0.0137844
795.771	0.0138281
795.849	0.0139856
795.927	0.0139407
796.005	0.0139280
796.083	0.0138658
796.161	0.0139127
796.239	0.0139349
796.318	0.0139886
796.396	0.0139037
796.474	0.0139777
796.552	0.0138873
796.630	0.0138823
796.708	0.0138367
796.786	0.0138463
796.864	0.0137378
796.943	0.0137283
797.021	0.0138606
797.099	0.0136456
797.177	0.0135445
797.255	0.0135342
797.333	0.0136315
797.411	0.0136291
797.489	0.0135531
797.568	0.0137228
797.646	0.0134507
797.724	0.0133733
797.802	0.0134558
797.880	0.0133965
797.958	0.0134409
798.036	0.0134656
798.114	0.0135573
798.193	0.0135918
798.271	0.0135523
798.349	0.0133118
798.427	0.0135231
798.505	0.0136603
798.583	0.0135732
798.661	0.0136337
798.739	0.0136179
798.818	0.0135854
798.896	0.0135129
798.974	0.0136497
799.052	0.0136781
799.130	0.0136109
799.208	0.0137469
799.286	0.0136137
799.364	0.0135371
799.443	0.0136327
799.521	0.0135451
799.599	0.0134814
799.677	0.0135647
799.755	0.0135508
799.833	0.0135885
799.911	0.0136530
799.989	0.0135464
800.068	0.0137224
800.146	0.0138239
800.224	0.0137389
800.302	0.0137721
800.380	0.0135968
800.458	0.0137126
800.536	0.0137384
800.614	0.0136942
800.693	0.0137186
800.771	0.0135998
800.849	0.0134964
800.927	0.0135736
801.005	0.0135456
801.083	0.0134106
801.161	0.0132922
801.239	0.0133452
801.318	0.0133071
801.396	0.0134042
801.474	0.0134182
801.552	0.0133868
801.630	0.0133248
801.708	0.0134702
801.786	0.0134446
801.864	0.0134968
801.943	0.0134635
802.021	0.0135819
802.099	0.0136497
802.177	0.0135756
802.255	0.0136328
802.333	0.0135940
802.411	0.0135462
802.489	0.0135823
802.568	0.0134081
802.646	0.0135569
802.724	0.0135723
802.802	0.0136205
802.880	0.0135115
802.958	0.0133327
803.036	0.0136158
803.114	0.0136445
803.193	0.0136620
803.271	0.0137092
803.349	0.0138321
803.427	0.0138602
803.505	0.0138183
803.583	0.0137547
803.661	0.0137598
803.739	0.0137940
803.818	0.0137245
803.896	0.0137954
803.974	0.0137788
804.052	0.0136098
804.130	0.0138899
804.208	0.0137074
804.286	0.0137090
804.364	0.0136504
804.443	0.0135776
804.521	0.0134622
804.599	0.0134302
804.677	0.0132829
804.755	0.0134054
804.833	0.0134151
804.911	0.0135660
804.989	0.0135022
805.068	0.0133630
805.146	0.0132947
805.224	0.0132066
805.302	0.0133718
805.380	0.0134490
805.458	0.0134303
805.536	0.0133605
805.614	0.0133246
805.693	0.0132403
805.771	0.0133797
805.849	0.0133544
805.927	0.0133468
806.005	0.0133016
806.083	0.0134167
806.161	0.0133245
806.239	0.0133237
806.318	0.0134627
806.396	0.0135459
806.474	0.0136398
806.552	0.0137094
806.630	0.0136666
806.708	0.0137833
806.786	0.0138572
806.864	0.0139054
806.943	0.0139950
807.021	0.0139756
807.099	0.0140046
807.177	0.0140431
807.255	0.0138811
807.333	0.0139391
807.411	0.0140770
807.489	0.0138894
807.568	0.0136719
807.646	0.0137896
807.724	0.0136880
807.802	0.0134761
807.880	0.0134286
807.958	0.0135760
808.036	0.0133890
808.114	0.0134452
808.193	0.0134920
808.271	0.0135571
808.349	0.0134763
808.427	0.0136150
808.505	0.0137078
808.583	0.0136252
808.661	0.0137184
808.739	0.0138820
808.818	0.0138599
808.896	0.0139909
808.974	0.0139535
809.052	0.0140416
809.130	0.0139489
809.208	0.0140504
809.286	0.0139990
809.364	0.0139390
809.443	0.0140179
809.521	0.0141859
809.599	0.0141047
809.677	0.0139223
809.755	0.0139368
809.833	0.0139808
809.911	0.0140215
809.989	0.0139001
810.068	0.0138486
810.146	0.0137817
810.224	0.0137557
810.302	0.0136449
810.380	0.0136845
810.458	0.0135865
810.536	0.0134304
810.614	0.0132873
810.693	0.0134129
810.771	0.0133699
810.849	0.0132624
810.927	0.0132927
811.005	0.0132166
811.083	0.0132739
811.161	0.0134162
811.239	0.0134106
811.318	0.0132642
811.396	0.0133970
811.474	0.0132773
811.552	0.0134499
811.630	0.0135555
811.708	0.0136303
811.786	0.0136279
811.864	0.0135042
811.943	0.0136948
812.021	0.0137161
812.099	0.0137650
812.177	0.0139585
812.255	0.0140380
812.333	0.0140185
812.411	0.0139561
812.489	0.0139053
812.568	0.0139832
812.646	0.0141496
812.724	0.0140656
812.802	0.0139674
812.880	0.0140205
812.958	0.0141325
813.036	0.0138824
813.114	0.0137798
813.193	0.0137377
813.271	0.0137160
813.349	0.0136823
813.427	0.0137703
813.505	0.0135741
813.583	0.0135098
813.661	0.0134660
813.739	0.0133741
813.818	0.0134089
813.896	0.0134884
813.974	0.0134700
814.052	0.0134368
814.130	0.0134172
814.208	0.0135039
814.286	0.0134026
814.364	0.0132961
814.443	0.0133416
814.521	0.0134616
814.599	0.0134779
814.677	0.0134705
814.755	0.0134825
814.833	0.0136460
814.911	0.0134808
814.989	0.0135523
815.068	0.0135895
815.146	0.0134885
815.224	0.0137322
815.302	0.0135201
815.380	0.0135883
815.458	0.0136433
815.536	0.0136094
815.614	0.0137350
815.693	0.0138371
815.771	0.0137045
815.849	0.0138609
815.927	0.0136955
816.005	0.0137781
816.083	0.0137331
816.161	0.0136635
816.239	0.0137547
816.318	0.0137733
816.396	0.0137271
816.474	0.0136917
816.552	0.0138082
816.630	0.0138173
816.708	0.0137107
816.786	0.0137538
816.864	0.0137598
816.943	0.0137036
817.021	0.0137582
817.099	0.0137672
817.177	0.0138470
817.255	0.0136215
817.333	0.0136588
817.411	0.0137361
817.489	0.0138002
817.568	0.0138857
817.646	0.0139822
817.724	0.0138457
817.802	0.0139327
817.880	0.0138884
817.958	0.0139119
818.036	0.0139264
818.114	0.0139112
818.193	0.0138826
818.271	0.0138115
818.349	0.0139502
818.427	0.0138136
818.505	0.0136540
818.583	0.0137209
818.661	0.0136952
818.739	0.0137878
818.818	0.0137594
818.896	0.0135563
818.974	0.0134779
819.052	0.0135101
819.130	0.0134388
819.208	0.0136489
819.286	0.0137434
819.364	0.0137247
819.443	0.0137158
819.521	0.0137698
819.599	0.0137302
819.677	0.0137730
819.755	0.0137456
819.833	0.0136565
819.911	0.0137427
819.989	0.0136418
820.068	0.0136481
820.146	0.0137774
820.224	0.0137191
820.302	0.0136544
820.380	0.0137316
820.458	0.0137732
820.536	0.0136438
820.614	0.0135824
820.693	0.0135371
820.771	0.0135624
820.849	0.0134849
820.927	0.0134484
821.005	0.0136433
821.083	0.0134890
821.161	0.0133762
821.239	0.0133497
821.318	0.0133891
821.396	0.0134115
821.474	0.0133035
821.552	0.0133386
821.630	0.0133830
821.708	0.0133820
821.786	0.0134076
821.864	0.0134196
821.943	0.0135641
822.021	0.0134555
822.099	0.0134228
822.177	0.0133765
822.255	0.0134663
822.333	0.0135414
822.411	0.0136204
822.489	0.0135088
822.568	0.0135459
822.646	0.0137331
822.724	0.0137033
822.802	0.0137425
822.880	0.0137385
822.958	0.0137549
823.036	0.0138434
823.114	0.0138798
823.193	0.0138578
823.271	0.0138807
823.349	0.0138320
823.427	0.0137434
823.505	0.0137563
823.583	0.0138683
823.661	0.0138701
823.739	0.0137628
823.818	0.0137929
823.896	0.0139944
823.974	0.0139035
824.052	0.0138071
824.130	0.0136858
824.208	0.0137720
824.286	0.0136031
824.364	0.0136174
824.443	0.0136011
824.521	0.0135366
824.599	0.0136057
824.677	0.0134909
824.755	0.0134418
824.833	0.0134653
824.911	0.0134371
824.989	0.0134422
825.068	0.0131620
825.146	0.0133566
825.224	0.0134596
825.302	0.0133296
825.380	0.0134716
825.458	0.0134355
825.536	0.0135007
825.614	0.0136076
825.693	0.0134377
825.771	0.0136053
825.849	0.0136140
825.927	0.0135826
826.005	0.0136147
826.083	0.0137442
826.161	0.0138009
826.239	0.0136907
826.318	0.0137843
826.396	0.0137449
826.474	0.0137791
826.552	0.0137431
826.630	0.0136363
826.708	0.0135857
826.786	0.0136074
826.864	0.0137560
826.943	0.0136360
827.021	0.0135815
827.099	0.0135934
827.177	0.0136257
827.255	0.0135807
827.333	0.0135690
827.411	0.0136246
827.489	0.0135495
827.568	0.0135465
827.646	0.0135544
827.724	0.0136646
827.802	0.0135618
827.880	0.0135529
827.958	0.0134204
828.036	0.0134206
828.114	0.0134440
828.193	0.0135021
828.271	0.0136549
828.349	0.0136118
828.427	0.0136584
828.505	0.0135102
828.583	0.0136484
828.661	0.0136375
828.739	0.0136983
828.818	0.0137150
828.896	0.0137471
828.974	0.0136334
829.052	0.0137513
829.130	0.0136427
829.208	0.0138261
829.286	0.0137750
829.364	0.0137817
829.443	0.0137293
829.521	0.0137355
829.599	0.0136818
829.677	0.0136674
829.755	0.0135778
829.833	0.0135515
829.911	0.0135948
829.989	0.0136085
830.068	0.0134315
830.146	0.0134393
830.224	0.0134428
830.302	0.0133267
830.380	0.0134046
830.458	0.0134903
830.536	0.0133600
830.614	0.0133131
830.693	0.0134612
830.771	0.0134171
830.849	0.0133849
830.927	0.0132765
831.005	0.0133603
831.083	0.0134818
831.161	0.0133233
831.239	0.0134956
831.318	0.0135288
831.396	0.0133904
831.474	0.0134759
831.552	0.0135597
831.630	0.0135891
831.708	0.0134505
831.786	0.0136793
831.864	0.0135551
831.943	0.0134850
832.021	0.0136469
832.099	0.0135782
832.177	0.0135772
832.255	0.0134654
832.333	0.0135439
832.411	0.0134713
832.489	0.0136254
832.568	0.0135410
832.646	0.0136204
832.724	0.0136326
832.802	0.0135681
832.880	0.0137966
832.958	0.0136786
833.036	0.0138565
833.114	0.0136174
833.193	0.0136592
833.271	0.0137561
833.349	0.0136487
833.427	0.0136455
833.505	0.0136258
833.583	0.0136843
833.661	0.0136906
833.739	0.0136904
833.818	0.0136939
833.896	0.0135696
833.974	0.0136366
834.052	0.0137625
834.130	0.0135474
834.208	0.0136136
834.286	0.0135893
834.364	0.0134834
834.443	0.0135113
834.521	0.0135983
834.599	0.0135211
834.677	0.0134915
834.755	0.0136001
834.833	0.0135185
834.911	0.0134580
834.989	0.0135976
835.068	0.0136423
835.146	0.0136226
835.224	0.0134626
835.302	0.0135726
835.380	0.0136327
835.458	0.0134991
835.536	0.0135817
835.614	0.0135640
835.693	0.0134815
835.771	0.0136951
835.849	0.0136797
835.927	0.0134814
836.005	0.0136041
836.083	0.0136320
836.161	0.0136632
836.239	0.0135635
836.318	0.0136087
836.396	0.0135969
836.474	0.0136098
836.552	0.0135635
836.630	0.0138293
836.708	0.0136383
836.786	0.0136124
836.864	0.0137634
836.943	0.0135672
837.021	0.0136480
837.099	0.0138678
837.177	0.0138625
837.255	0.0137296
837.333	0.0137479
837.411	0.0137659
837.489	0.0137135
837.568	0.0137127
837.646	0.0138499
837.724	0.0136060
837.802	0.0135390
837.880	0.0136121
837.958	0.0136198
838.036	0.0136621
838.114	0.0135316
838.193	0.0136735
838.271	0.0136985
838.349	0.0135341
838.427	0.0135486
838.505	0.0136700
838.583	0.0136227
838.661	0.0135195
838.739	0.0135184
838.818	0.0135847
838.896	0.0137254
838.974	0.0135536
839.052	0.0134944
839.130	0.0135728
839.208	0.0135860
839.286	0.0136106
839.364	0.0138262
839.443	0.0137316
839.521	0.0136639
839.599	0.0136600
839.677	0.0137266
839.755	0.0137636
839.833	0.0137405
839.911	0.0136653
839.989	0.0137035
840.068	0.0138094
840.146	0.0136547
840.224	0.0136867
840.302	0.0138483
840.380	0.0138007
840.458	0.0136939
840.536	0.0138071
840.614	0.0137515
840.693	0.0136842
840.771	0.0138154
840.849	0.0137738
840.927	0.0137950
841.005	0.0136849
841.083	0.0138304
841.161	0.0138561
841.239	0.0138021
841.318	0.0137573
841.396	0.0139867
841.474	0.0138982
841.552	0.0137510
841.630	0.0136761
841.708	0.0137543
841.786	0.0137061
841.864	0.0136814
841.943	0.0137974
842.021	0.0137393
842.099	0.0137903
842.177	0.0138935
842.255	0.0137849
842.333	0.0137032
842.411	0.0138026
842.489	0.0138082
842.568	0.0137995
842.646	0.0137099
842.724	0.0136798
842.802	0.0137075
842.880	0.0138487
842.958	0.0138878
843.036	0.0136478
843.114	0.0138660
843.193	0.0137790
843.271	0.0136551
843.349	0.0138829
843.427	0.0136964
843.505	0.0137722
843.583	0.0137724
843.661	0.0138584
843.739	0.0136410
843.818	0.0136719
843.896	0.0138530
843.974	0.0136277
844.052	0.0136170
844.130	0.0137825
844.208	0.0136495
844.286	0.0138179
844.364	0.0136909
844.443	0.0136831
844.521	0.0138275
844.599	0.0136892
844.677	0.0136616
844.755	0.0137727
844.833	0.0136492
844.911	0.0136528
844.989	0.0136422
845.068	0.0137572
845.146	0.0137524
845.224	0.0137348
845.302	0.0138335
845.380	0.0137380
845.458	0.0137392
845.536	0.0138135
845.614	0.0138243
845.693	0.0137579
845.771	0.0138951
845.849	0.0137407
845.927	0.0136681
846.005	0.0136874
846.083	0.0137653
846.161	0.0136996
846.239	0.0135682
846.318	0.0135729
846.396	0.0135087
846.474	0.0134023
846.552	0.0134872
846.630	0.0134103
846.708	0.0134984
846.786	0.0134469
846.864	0.0133175
846.943	0.0133986
847.021	0.0136084
847.099	0.0134836
847.177	0.0133536
847.255	0.0134066
847.333	0.0132984
847.411	0.0135345
847.489	0.0134344
847.568	0.0135506
847.646	0.0134221
847.724	0.0134276
847.802	0.0135367
847.880	0.0134279
847.958	0.0135558
848.036	0.0135754
848.114	0.0135482
848.193	0.0134723
848.271	0.0134119
848.349	0.0135567
848.427	0.0136687
848.505	0.0135822
848.583	0.0134496
848.661	0.0133606
848.739	0.0136633
848.818	0.0135928
848.896	0.0135350
848.974	0.0136626
849.052	0.0136308
849.130	0.0136891
849.208	0.0136716
849.286	0.0137035
849.364	0.0137270
849.443	0.0136667
849.521	0.0138413
849.599	0.0138191
849.677	0.0137019
849.755	0.0137662
849.833	0.0137468
849.911	0.0137880
849.989	0.0137347
850.068	0.0137083
850.146	0.0137370
850.224	0.0138050
850.302	0.0136608
850.380	0.0136646
850.458	0.0137022
850.536	0.0136646
850.614	0.0135828
850.693	0.0136347
850.771	0.0136448
850.849	0.0135818
850.927	0.0135701
851.005	0.0135770
851.083	0.0134600
851.161	0.0136322
851.239	0.0134766
851.318	0.0135287
851.396	0.0134955
851.474	0.0133926
851.552	0.0134776
851.630	0.0135270
851.708	0.0133915
851.786	0.0134741
851.864	0.0135258
851.943	0.0133494
852.021	0.0134053
852.099	0.0133038
852.177	0.0134490
852.255	0.0133884
852.333	0.0135271
852.411	0.0134671
852.489	0.0136028
852.568	0.0136483
852.646	0.0135505
852.724	0.0136221
852.802	0.0137902
852.880	0.0136617
852.958	0.0136623
853.036	0.0137177
853.114	0.0136252
853.193	0.0138308
853.271	0.0137051
853.349	0.0137390
853.427	0.0136306
853.505	0.0138169
853.583	0.0137585
853.661	0.0137731
853.739	0.0137521
853.818	0.0137545
853.896	0.0138377
853.974	0.0138368
854.052	0.0138389
854.130	0.0138773
854.208	0.0138169
854.286	0.0138705
854.364	0.0137979
854.443	0.0136973
854.521	0.0138380
854.599	0.0135996
854.677	0.0137858
854.755	0.0136935
854.833	0.0137267
854.911	0.0137241
854.989	0.0137599
855.068	0.0136693
855.146	0.0133768
855.224	0.0136070
855.302	0.0135571
855.380	0.0134458
855.458	0.0135957
855.536	0.0135498
855.614	0.0135625
855.693	0.0135307
855.771	0.0134827
855.849	0.0135432
855.927	0.0135494
856.005	0.0134975
856.083	0.0135492
856.161	0.0136218
856.239	0.0136681
856.318	0.0135912
856.396	0.0134757
856.474	0.0134869
856.552	0.0137008
856.630	0.0137376
856.708	0.0136326
856.786	0.0135870
856.864	0.0135562
856.943	0.0136217
857.021	0.0138383
857.099	0.0138029
857.177	0.0137386
857.255	0.0137574
857.333	0.0137476
857.411	0.0139656
857.489	0.0138824
857.568	0.0140620
857.646	0.0139165
857.724	0.0140662
857.802	0.0140034
857.880	0.0140670
857.958	0.0139867
858.036	0.0140470
858.114	0.0140230
858.193	0.0140424
858.271	0.0140077
858.349	0.0139520
858.427	0.0140929
858.505	0.0138559
858.583	0.0138995
858.661	0.0139332
858.739	0.0139644
858.818	0.0137283
858.896	0.0138761
858.974	0.0137374
859.052	0.0137415
859.130	0.0137026
859.208	0.0137359
859.286	0.0137518
859.364	0.0137698
859.443	0.0136198
859.521	0.0135789
859.599	0.0135496
859.677	0.0135980
859.755	0.0135329
859.833	0.0135571
859.911	0.0135645
859.989	0.0136079
860.068	0.0137757
860.146	0.0135590
860.224	0.0134690
860.302	0.0135149
860.380	0.0136665
860.458	0.0135745
860.536	0.0136214
860.614	0.0135164
860.693	0.0136029
860.771	0.0135660
860.849	0.0136306
860.927	0.0136395
861.005	0.0136434
861.083	0.0136369
861.161	0.0135820
861.239	0.0136863
861.318	0.0138994
861.396	0.0137405
861.474	0.0136398
861.552	0.0137650
861.630	0.0137870
861.708	0.0138774
861.786	0.0139352
861.864	0.0139001
861.943	0.0139697
862.021	0.0138893
862.099	0.0139170
862.177	0.0139133
862.255	0.0138638
862.333	0.0138440
862.411	0.0138245
862.489	0.0139324
862.568	0.0139539
862.646	0.0137431
862.724	0.0137746
862.802	0.0139352
862.880	0.0137171
862.958	0.0137147
863.036	0.0135894
863.114	0.0137054
863.193	0.0138107
863.271	0.0135055
863.349	0.0135310
863.427	0.0136298
863.505	0.0136781
863.583	0.0134297
863.661	0.0134881
863.739	0.0135231
863.818	0.0134962
863.896	0.0135281
863.974	0.0136072
864.052	0.0135503
864.130	0.0134230
864.208	0.0135463
864.286	0.0135542
864.364	0.0134597
864.443	0.0135349
864.521	0.0135456
864.599	0.0135926
864.677	0.0134930
864.755	0.0135379
864.833	0.0136378
864.911	0.0136729
864.989	0.0135892
865.068	0.0138812
865.146	0.0136253
865.224	0.0135503
865.302	0.0136888
865.380	0.0136178
865.458	0.0136877
865.536	0.0136607
865.614	0.0135373
865.693	0.0135307
865.771	0.0136913
865.849	0.0135941
865.927	0.0137102
866.005	0.0136231
866.083	0.0135661
866.161	0.0135941
866.239	0.0135594
866.318	0.0135418
866.396	0.0135918
866.474	0.0136059
866.552	0.0135468
866.630	0.0135532
866.708	0.0135149
866.786	0.0134780
866.864	0.0135339
866.943	0.0135735
867.021	0.0135362
867.099	0.0137384
867.177	0.0136768
867.255	0.0134862
867.333	0.0135285
867.411	0.0136858
867.489	0.0136756
867.568	0.0136173
867.646	0.0136111
867.724	0.0135559
867.802	0.0136543
867.880	0.0136906
867.958	0.0135934
868.036	0.0136440
868.114	0.0136384
868.193	0.0136813
868.271	0.0136277
868.349	0.0134846
868.427	0.0137092
868.505	0.0136124
868.583	0.0135892
868.661	0.0136583
868.739	0.0136419
868.818	0.0137273
868.896	0.0137508
868.974	0.0138212
869.052	0.0137469
869.130	0.0135528
869.208	0.0137726
869.286	0.0137109
869.364	0.0135951
869.443	0.0137379
869.521	0.0137859
869.599	0.0137781
869.677	0.0137853
869.755	0.0135728
869.833	0.0135729
869.911	0.0137655
869.989	0.0138969
870.068	0.0137204
870.146	0.0136008
870.224	0.0137034
870.302	0.0136125
870.380	0.0135738
870.458	0.0135865
870.536	0.0136530
870.614	0.0134746
870.693	0.0136627
870.771	0.0135509
870.849	0.0135612
870.927	0.0134335
871.005	0.0134625
871.083	0.0133801
871.161	0.0135269
871.239	0.0134696
871.318	0.0135695
871.396	0.0134156
871.474	0.0135306
871.552	0.0135082
871.630	0.0135398
871.708	0.0136383
871.786	0.0135959
871.864	0.0135834
871.943	0.0136401
872.021	0.0136264
872.099	0.0136527
872.177	0.0137297
872.255	0.0136160
872.333	0.0137883
872.411	0.0136778
872.489	0.0137798
872.568	0.0136777
872.646	0.0137646
872.724	0.0138307
872.802	0.0137529
872.880	0.0137028
872.958	0.0137544
873.036	0.0137917
873.114	0.0138106
873.193	0.0137231
873.271	0.0138182
873.349	0.0136372
873.427	0.0138036
873.505	0.0137773
873.583	0.0138622
873.661	0.0137316
873.739	0.0136681
873.818	0.0137408
873.896	0.0136845
873.974	0.0138161
874.052	0.0138536
874.130	0.0137041
874.208	0.0135522
874.286	0.0136956
874.364	0.0136079
874.443	0.0137528
874.521	0.0137154
874.599	0.0137109
874.677	0.0136278
874.755	0.0135620
874.833	0.0136623
874.911	0.0138335
874.989	0.0136314
875.068	0.0135832
875.146	0.0135513
875.224	0.0137806
875.302	0.0137451
875.380	0.0137225
875.458	0.0137706
875.536	0.0138842
875.614	0.0136527
875.693	0.0136797
875.771	0.0138319
875.849	0.0136402
875.927	0.0136306
876.005	0.0137894
876.083	0.0137395
876.161	0.0137543
876.239	0.0136578
876.318	0.0137859
876.396	0.0137862
876.474	0.0138802
876.552	0.0138588
876.630	0.0137425
876.708	0.0138675
876.786	0.0137523
876.864	0.0138297
876.943	0.0137993
877.021	0.0137904
877.099	0.0137074
877.177	0.0137243
877.255	0.0137261
877.333	0.0136739
877.411	0.0136469
877.489	0.0135187
877.568	0.0137381
877.646	0.0136665
877.724	0.0136353
877.802	0.0135743
877.880	0.0135739
877.958	0.0136085
878.036	0.0136613
878.114	0.0135902
878.193	0.0135241
878.271	0.0135033
878.349	0.0136833
878.427	0.0137181
878.505	0.0135662
878.583	0.0135726
878.661	0.0135950
878.739	0.0135210
878.818	0.0136751
878.896	0.0135944
878.974	0.0135649
879.052	0.0137130
879.130	0.0135433
879.208	0.0135030
879.286	0.0136911
879.364	0.0136726
879.443	0.0137572
879.521	0.0135519
879.599	0.0136989
879.677	0.0136379
879.755	0.0136654
879.833	0.0136856
879.911	0.0136700
879.989	0.0137614
880.068	0.0137823
880.146	0.0137302
880.224	0.0137271
880.302	0.0137507
880.380	0.0137351
880.458	0.0136171
880.536	0.0136599
880.614	0.0136769
880.693	0.0137817
880.771	0.0137548
880.849	0.0137198
880.927	0.0137615
881.005	0.0138343
881.083	0.0137446
881.161	0.0137907
881.239	0.0138099
881.318	0.0138520
881.396	0.0139279
881.474	0.0138475
881.552	0.0138138
881.630	0.0137258
881.708	0.0137876
881.786	0.0138340
881.864	0.0138328
881.943	0.0138335
882.021	0.0137575
882.099	0.0138192
882.177	0.0138470
882.255	0.0138966
882.333	0.0137539
882.411	0.0138141
882.489	0.0137383
882.568	0.0137775
882.646	0.0138173
882.724	0.0136993
882.802	0.0137252
882.880	0.0138132
882.958	0.0137647
883.036	0.0136025
883.114	0.0137253
883.193	0.0138760
883.271	0.0137388
883.349	0.0137216
883.427	0.0137698
883.505	0.0137897
883.583	0.0137132
883.661	0.0137424
883.739	0.0137405
883.818	0.0136866
883.896	0.0137019
883.974	0.0137041
884.052	0.0136158
884.130	0.0136340
884.208	0.0137363
884.286	0.0136633
884.364	0.0137268
884.443	0.0138226
884.521	0.0137415
884.599	0.0137630
884.677	0.0136517
884.755	0.0138257
884.833	0.0138038
884.911	0.0139603
884.989	0.0138290
885.068	0.0137650
885.146	0.0137894
885.224	0.0139076
885.302	0.0140536
885.380	0.0139989
885.458	0.0139207
885.536	0.0138721
885.614	0.0139801
885.693	0.0139438
885.771	0.0139883
885.849	0.0139333
885.927	0.0139194
886.005	0.0140107
886.083	0.0140268
886.161	0.0139937
886.239	0.0137757
886.318	0.0138136
886.396	0.0136761
886.474	0.0137040
886.552	0.0139215
886.630	0.0136204
886.708	0.0137504
886.786	0.0137530
886.864	0.0136102
886.943	0.0136008
887.021	0.0136626
887.099	0.0135332
887.177	0.0134561
887.255	0.0135845
887.333	0.0134496
887.411	0.0135613
887.489	0.0135763
887.568	0.0136065
887.646	0.0135094
887.724	0.0135052
887.802	0.0134251
887.880	0.0134641
887.958	0.0134395
888.036	0.0135350
888.114	0.0136491
888.193	0.0134245
888.271	0.0133034
888.349	0.0135729
888.427	0.0135085
888.505	0.0134079
888.583	0.0132946
888.661	0.0134900
888.739	0.0134122
888.818	0.0133647
888.896	0.0134966
888.974	0.0134747
889.052	0.0135534
889.130	0.0134093
889.208	0.0133892
889.286	0.0134660
889.364	0.0134045
889.443	0.0134148
889.521	0.0134403
889.599	0.0133885
889.677	0.0134896
889.755	0.0133463
889.833	0.0135469
889.911	0.0135267
889.989	0.0134234
890.068	0.0132417
890.146	0.0134857
890.224	0.0135065
890.302	0.0133771
890.380	0.0133220
890.458	0.0134619
890.536	0.0133440
890.614	0.0134078
890.693	0.0134157
890.771	0.0134246
890.849	0.0134717
890.927	0.0135542
891.005	0.0134599
891.083	0.0135097
891.161	0.0136008
891.239	0.0136839
891.318	0.0136062
891.396	0.0135043
891.474	0.0136048
891.552	0.0136826
891.630	0.0136418
891.708	0.0137233
891.786	0.0136116
891.864	0.0136179
891.943	0.0137791
892.021	0.0135979
892.099	0.0138180
892.177	0.0136913
892.255	0.0136992
892.333	0.0136497
892.411	0.0137966
892.489	0.0137317
892.568	0.0136913
892.646	0.0137517
892.724	0.0137534
892.802	0.0136787
892.880	0.0138165
892.958	0.0137218
893.036	0.0138960
893.114	0.0138139
893.193	0.0137926
893.271	0.0137683
893.349	0.0137220
893.427	0.0136401
893.505	0.0136777
893.583	0.0136270
893.661	0.0135249
893.739	0.0135900
893.818	0.0135780
893.896	0.0135847
893.974	0.0135193
894.052	0.0136025
894.130	0.0135517
894.208	0.0135080
894.286	0.0135689
894.364	0.0134037
894.443	0.0134367
894.521	0.0133789
894.599	0.0133246
894.677	0.0133987
894.755	0.0133151
894.833	0.0133954
894.911	0.0133868
894.989	0.0134793
895.068	0.0134759
895.146	0.0134185
895.224	0.0134572
895.302	0.0135361
895.380	0.0135034
895.458	0.0135484
895.536	0.0134480
895.614	0.0137037
895.693	0.0137112
895.771	0.0135780
895.849	0.0134958
895.927	0.0135151
896.005	0.0135773
896.083	0.0137427
896.161	0.0136986
896.239	0.0135863
896.318	0.0137038
896.396	0.0137224
896.474	0.0136699
896.552	0.0136317
896.630	0.0137720
896.708	0.0137101
896.786	0.0138793
896.864	0.0137743
896.943	0.0137158
897.021	0.0137859
897.099	0.0138154
897.177	0.0138673
897.255	0.0137347
897.333	0.0137262
897.411	0.0138039
897.489	0.0136803
897.568	0.0138706
897.646	0.0138428
897.724	0.0138314
897.802	0.0138384
897.880	0.0138232
897.958	0.0137451
898.036	0.0136368
898.114	0.0137768
898.193	0.0138884
898.271	0.0136835
898.349	0.0137897
898.427	0.0138569
898.505	0.0137303
898.583	0.0137671
898.661	0.0137999
898.739	0.0136197
898.818	0.0134469
898.896	0.0134769
898.974	0.0135944
899.052	0.0135535
899.130	0.0135412
899.208	0.0134672
899.286	0.0135072
899.364	0.0134694
899.443	0.0134589
899.521	0.0135492
899.599	0.0135333
899.677	0.0135308
899.755	0.0134973
899.833	0.0133607
899.911	0.0134441
899.989	0.0135290
900.068	0.0134685
900.146	0.0136686
900.224	0.0135697
900.302	0.0135484
900.380	0.0135928
900.458	0.0135539
900.536	0.0135304
900.614	0.0136966
900.693	0.0137026
900.771	0.0137498
900.849	0.0137464
900.927	0.0137387
901.005	0.0137095
901.083	0.0137067
901.161	0.0136554
901.239	0.0138779
901.318	0.0138726
901.396	0.0138250
901.474	0.0136977
901.552	0.0136528
901.630	0.0137444
901.708	0.0137933
901.786	0.0137428
901.864	0.0137575
901.943	0.0137804
902.021	0.0137652
902.099	0.0137277
902.177	0.0136830
902.255	0.0138362
902.333	0.0137186
902.411	0.0137976
902.489	0.0137130
902.568	0.0138094
902.646	0.0138222
902.724	0.0137306
902.802	0.0140001
902.880	0.0139610
902.958	0.0138978
903.036	0.0137609
903.114	0.0136948
903.193	0.0139314
903.271	0.0138086
903.349	0.0139175
903.427	0.0139043
903.505	0.0139109
903.583	0.0138203
903.661	0.0138033
903.739	0.0138692
903.818	0.0137789
903.896	0.0137312
903.974	0.0136997
904.052	0.0138136
904.130	0.0137971
904.208	0.0137763
904.286	0.0136970
904.364	0.0136758
904.443	0.0136570
904.521	0.0136446
904.599	0.0137894
904.677	0.0138496
904.755	0.0137425
904.833	0.0136956
904.911	0.0136589
904.989	0.0135589
905.068	0.0136536
905.146	0.0135359
905.224	0.0135780
905.302	0.0135046
905.380	0.0134748
905.458	0.0134907
905.536	0.0135398
905.614	0.0136301
905.693	0.0136231
905.771	0.0135467
905.849	0.0134592
905.927	0.0137309
906.005	0.0137209
906.083	0.0136279
906.161	0.0137616
906.239	0.0135825
906.318	0.0138020
906.396	0.0136917
906.474	0.0136909
906.552	0.0137377
906.630	0.0136822
906.708	0.0138937
906.786	0.0138817
906.864	0.0137931
906.943	0.0139130
907.021	0.0137247
907.099	0.0138444
907.177	0.0137370
907.255	0.0138407
907.333	0.0137737
907.411	0.0137782
907.489	0.0137376
907.568	0.0137212
907.646	0.0136909
907.724	0.0136186
907.802	0.0137617
907.880	0.0135314
907.958	0.0136356
908.036	0.0136924
908.114	0.0136587
908.193	0.0136095
908.271	0.0137284
908.349	0.0136969
908.427	0.0135634
908.505	0.0135535
908.583	0.0136407
908.661	0.0136401
908.739	0.0136101
908.818	0.0135825
908.896	0.0135712
908.974	0.0136958
909.052	0.0135873
909.130	0.0136212
909.208	0.0135469
909.286	0.0137279
909.364	0.0136050
909.443	0.0135773
909.521	0.0136152
909.599	0.0135909
909.677	0.0136909
909.755	0.0135929
909.833	0.0136573
909.911	0.0137588
909.989	0.0137564
910.068	0.0136385
910.146	0.0136739
910.224	0.0138214
910.302	0.0137370
910.380	0.0137229
910.458	0.0136801
910.536	0.0137982
910.614	0.0137463
910.693	0.0138023
910.771	0.0139798
910.849	0.0137064
910.927	0.0136517
911.005	0.0138499
911.083	0.0137473
911.161	0.0137325
911.239	0.0138399
911.318	0.0137311
911.396	0.0138126
911.474	0.0137816
911.552	0.0138068
911.630	0.0137461
911.708	0.0137811
911.786	0.0137008
911.864	0.0138109
911.943	0.0138658
912.021	0.0137527
912.099	0.0137894
912.177	0.0137260
912.255	0.0137680
912.333	0.0137138
912.411	0.0137357
912.489	0.0136396
912.568	0.0137805
912.646	0.0136765
912.724	0.0136346
912.802	0.0136292
912.880	0.0136079
912.958	0.0136060
913.036	0.0135452
913.114	0.0137349
913.193	0.0137359
913.271	0.0135316
913.349	0.0137029
913.427	0.0137543
913.505	0.0136878
913.583	0.0137334
913.661	0.0137701
913.739	0.0137968
913.818	0.0136440
913.896	0.0137250
913.974	0.0137826
914.052	0.0137296
914.130	0.0138187
914.208	0.0138172
914.286	0.0137179
914.364	0.0136890
914.443	0.0137136
914.521	0.0136362
914.599	0.0137069
914.677	0.0137218
914.755	0.0137247
914.833	0.0137899
914.911	0.0136900
914.989	0.0137011
915.068	0.0137303
915.146	0.0136314
915.224	0.0136269
915.302	0.0135944
915.380	0.0137018
915.458	0.0135084
915.536	0.0137027
915.614	0.0136143
915.693	0.0134029
915.771	0.0136501
915.849	0.0134725
915.927	0.0136440
916.005	0.0135295
916.083	0.0135281
916.161	0.0134756
916.239	0.0134991
916.318	0.0134723
916.396	0.0135355
916.474	0.0134911
916.552	0.0134444
916.630	0.0134206
916.708	0.0134055
916.786	0.0134237
916.864	0.0134702
916.943	0.0134959
917.021	0.0133801
917.099	0.0135001
917.177	0.0135509
917.255	0.0134066
917.333	0.0135620
917.411	0.0135437
917.489	0.0135631
917.568	0.0134986
917.646	0.0135521
917.724	0.0136040
917.802	0.0133981
917.880	0.0135455
917.958	0.0136465
918.036	0.0136188
918.114	0.0136349
918.193	0.0136309
918.271	0.0134859
918.349	0.0135404
918.427	0.0135299
918.505	0.0134863
918.583	0.0136362
918.661	0.0133470
918.739	0.0133444
918.818	0.0133875
918.896	0.0134451
918.974	0.0134744
919.052	0.0133711
919.130	0.0135410
919.208	0.0136211
919.286	0.0135848
919.364	0.0135918
919.443	0.0135696
919.521	0.0135089
919.599	0.0135694
919.677	0.0136091
919.755	0.0135865
919.833	0.0135619
919.911	0.0135773
919.989	0.0136012
920.068	0.0134552
920.146	0.0136610
920.224	0.0137582
920.302	0.0138569
920.380	0.0137736
920.458	0.0136959
920.536	0.0137191
920.614	0.0138644
920.693	0.0137743
920.771	0.0137772
920.849	0.0136967
920.927	0.0136073
921.005	0.0138406
921.083	0.0138094
921.161	0.0136661
921.239	0.0136865
921.318	0.0136569
921.396	0.0136333
921.474	0.0138593
921.552	0.0138866
921.630	0.0136470
921.708	0.0135811
921.786	0.0135715
921.864	0.0135769
921.943	0.0137404
922.021	0.0136915
922.099	0.0136556
922.177	0.0136937
922.255	0.0136835
922.333	0.0136818
922.411	0.0136879
922.489	0.0137160
922.568	0.0136444
922.646	0.0136369
922.724	0.0137720
922.802	0.0136487
922.880	0.0135405
922.958	0.0136584
923.036	0.0136969
923.114	0.0136790
923.193	0.0135431
923.271	0.0136320
923.349	0.0137710
923.427	0.0136266
923.505	0.0135358
923.583	0.0136381
923.661	0.0134301
923.739	0.0136329
923.818	0.0137689
923.896	0.0136551
923.974	0.0135842
924.052	0.0135435
924.130	0.0135431
924.208	0.0136859
924.286	0.0135641
924.364	0.0135693
924.443	0.0135871
924.521	0.0136507
924.599	0.0135440
924.677	0.0136664
924.755	0.0135465
924.833	0.0135870
924.911	0.0137193
924.989	0.0136646
925.068	0.0136108
925.146	0.0134299
925.224	0.0135558
925.302	0.0135298
925.380	0.0136534
925.458	0.0136275
925.536	0.0136372
925.614	0.0137169
925.693	0.0137245
925.771	0.0135972
925.849	0.0138507
925.927	0.0138979
926.005	0.0137917
926.083	0.0138509
926.161	0.0138268
926.239	0.0137696
926.318	0.0137121
926.396	0.0138050
926.474	0.0139124
926.552	0.0138708
926.630	0.0138977
926.708	0.0138628
926.786	0.0137682
926.864	0.0139074
926.943	0.0137541
927.021	0.0138291
927.099	0.0138375
927.177	0.0137675
927.255	0.0137904
927.333	0.0137333
927.411	0.0136769
927.489	0.0137895
927.568	0.0138200
927.646	0.0138142
927.724	0.0136971
927.802	0.0136644
927.880	0.0134966
927.958	0.0136608
928.036	0.0135659
928.114	0.0136010
928.193	0.0135890
928.271	0.0135679
928.349	0.0134017
928.427	0.0134338
928.505	0.0134697
928.583	0.0134124
928.661	0.0134301
928.739	0.0135377
928.818	0.0135737
928.896	0.0134834
928.974	0.0134844
929.052	0.0133681
929.130	0.0133764
929.208	0.0135488
929.286	0.0135743
929.364	0.0135501
929.443	0.0135049
929.521	0.0134129
929.599	0.0135697
929.677	0.0135843
929.755	0.0135503
929.833	0.0134341
929.911	0.0136149
929.989	0.0136350
930.068	0.0136771
930.146	0.0136473
930.224	0.0136118
930.302	0.0135153
930.380	0.0136024
930.458	0.0137754
930.536	0.0137228
930.614	0.0136093
930.693	0.0137933
930.771	0.0136873
930.849	0.0135942
930.927	0.0137462
931.005	0.0136908
931.083	0.0136246
931.161	0.0136761
931.239	0.0136835
931.318	0.0137013
931.396	0.0135801
931.474	0.0136427
931.552	0.0136851
931.630	0.0137441
931.708	0.0135291
931.786	0.0137797
931.864	0.0137076
931.943	0.0137840
932.021	0.0139027
932.099	0.0136831
932.177	0.0136387
932.255	0.0137828
932.333	0.0137269
932.411	0.0137458
932.489	0.0137041
932.568	0.0137483
932.646	0.0137024
932.724	0.0139072
932.802	0.0138084
932.880	0.0137064
932.958	0.0137904
933.036	0.0137452
933.114	0.0137133
933.193	0.0136760
933.271	0.0139265
933.349	0.0137856
933.427	0.0138306
933.505	0.0139399
933.583	0.0137900
933.661	0.0137957
933.739	0.0138150
933.818	0.0137937
933.896	0.0138501
933.974	0.0136687
934.052	0.0137687
934.130	0.0136980
934.208	0.0135557
934.286	0.0138999
934.364	0.0137625
934.443	0.0136970
934.521	0.0136403
934.599	0.0137502
934.677	0.0136734
934.755	0.0137382
934.833	0.0136806
934.911	0.0136925
934.989	0.0135648
935.068	0.0137397
935.146	0.0137573
935.224	0.0137478
935.302	0.0138196
935.380	0.0136616
935.458	0.0137305
935.536	0.0136987
935.614	0.0137695
935.693	0.0138055
935.771	0.0136996
935.849	0.0138468
935.927	0.0138925
936.005	0.0137553
936.083	0.0137547
936.161	0.0139014
936.239	0.0138467
936.318	0.0138262
936.396	0.0139136
936.474	0.0139262
936.552	0.0138919
936.630	0.0138533
936.708	0.0138037
936.786	0.0138715
936.864	0.0137740
936.943	0.0137544
937.021	0.0139494
937.099	0.0140087
937.177	0.0138136
937.255	0.0139200
937.333	0.0138721
937.411	0.0138328
937.489	0.0138884
937.568	0.0139371
937.646	0.0138717
937.724	0.0139489
937.802	0.0138770
937.880	0.0139465
937.958	0.0140099
938.036	0.0138700
938.114	0.0137167
938.193	0.0138040
938.271	0.0137088
938.349	0.0138028
938.427	0.0137404
938.505	0.0137885
938.583	0.0137240
938.661	0.0136805
938.739	0.0135715
938.818	0.0136771
938.896	0.0137828
938.974	0.0137278
939.052	0.0135434
939.130	0.0136423
939.208	0.0137192
939.286	0.0136406
939.364	0.0136156
939.443	0.0138093
939.521	0.0135652
939.599	0.0135424
939.677	0.0136654
939.755	0.0137863
939.833	0.0136094
939.911	0.0135818
939.989	0.0136588
940.068	0.0136813
940.146	0.0137195
940.224	0.0135301
940.302	0.0136106
940.380	0.0136929
940.458	0.0136836
940.536	0.0136236
940.614	0.0137123
940.693	0.0136510
940.771	0.0135990
940.849	0.0135675
940.927	0.0135812
941.005	0.0136576
941.083	0.0136916
941.161	0.0136262
941.239	0.0136843
941.318	0.0136947
941.396	0.0137961
941.474	0.0137384
941.552	0.0136455
941.630	0.0136886
941.708	0.0137617
941.786	0.0138677
941.864	0.0137487
941.943	0.0137231
942.021	0.0136678
942.099	0.0137663
942.177	0.0137415
942.255	0.0137875
942.333	0.0137982
942.411	0.0136112
942.489	0.0137963
942.568	0.0137378
942.646	0.0137540
942.724	0.0138317
942.802	0.0138205
942.880	0.0137694
942.958	0.0137064
943.036	0.0135801
943.114	0.0135916
943.193	0.0135608
943.271	0.0135690
943.349	0.0136152
943.427	0.0135757
943.505	0.0134796
943.583	0.0134105
943.661	0.0135753
943.739	0.0135740
943.818	0.0135674
943.896	0.0135255
943.974	0.0134544
944.052	0.0135406
944.130	0.0135455
944.208	0.0136362
944.286	0.0135389
944.364	0.0135528
944.443	0.0135028
944.521	0.0135490
944.599	0.0134396
944.677	0.0135648
944.755	0.0136385
944.833	0.0134525
944.911	0.0135096
944.989	0.0136527
945.068	0.0135947
945.146	0.0134417
945.224	0.0135450
945.302	0.0136327
945.380	0.0136098
945.458	0.0135568
945.536	0.0136877
945.614	0.0135903
945.693	0.0135468
945.771	0.0135453
945.849	0.0135886
945.927	0.0135631
946.005	0.0138024
946.083	0.0136658
946.161	0.0137879
946.239	0.0136855
946.318	0.0136203
946.396	0.0137228
946.474	0.0137009
946.552	0.0137472
946.630	0.0137679
946.708	0.0137325
946.786	0.0136277
946.864	0.0137390
946.943	0.0135330
947.021	0.0135861
947.099	0.0136469
947.177	0.0135556
947.255	0.0135152
947.333	0.0135807
947.411	0.0135775
947.489	0.0136728
947.568	0.0135175
947.646	0.0134769
947.724	0.0135595
947.802	0.0136118
947.880	0.0134972
947.958	0.0134100
948.036	0.0134548
948.114	0.0134267
948.193	0.0135428
948.271	0.0136413
948.349	0.0134611
948.427	0.0134441
948.505	0.0135358
948.583	0.0133708
948.661	0.0135175
948.739	0.0135361
948.818	0.0135336
948.896	0.0136421
948.974	0.0136471
949.052	0.0134589
949.130	0.0136520
949.208	0.0137315
949.286	0.0135707
949.364	0.0136510
949.443	0.0138134
949.521	0.0136317
949.599	0.0137962
949.677	0.0136778
949.755	0.0137975
949.833	0.0137292
949.911	0.0137100
949.989	0.0137524
950.068	0.0137555
950.146	0.0138718
950.224	0.0137933
950.302	0.0137450
950.380	0.0138306
950.458	0.0138807
950.536	0.0138513
950.614	0.0138847
950.693	0.0139329
950.771	0.0138664
950.849	0.0137881
950.927	0.0138757
951.005	0.0139021
951.083	0.0138105
951.161	0.0136981
951.239	0.0137340
951.318	0.0137653
951.396	0.0137673
951.474	0.0136229
951.552	0.0137247
951.630	0.0137078
951.708	0.0136374
951.786	0.0136747
951.864	0.0135427
951.943	0.0136746
952.021	0.0136678
952.099	0.0136151
952.177	0.0136602
952.255	0.0135319
952.333	0.0135468
952.411	0.0135594
952.489	0.0135366
952.568	0.0136047
952.646	0.0136165
952.724	0.0136561
952.802	0.0135738
952.880	0.0136172
952.958	0.0135757
953.036	0.0134788
953.114	0.0136530
953.193	0.0137698
953.271	0.0137366
953.349	0.0137849
953.427	0.0136806
953.505	0.0137480
953.583	0.0138377
953.661	0.0137653
953.739	0.0137890
953.818	0.0136858
953.896	0.0137043
953.974	0.0137141
954.052	0.0137935
954.130	0.0137821
954.208	0.0138277
954.286	0.0138309
954.364	0.0137879
954.443	0.0139513
954.521	0.0138944
954.599	0.0137965
954.677	0.0136906
954.755	0.0137139
954.833	0.0138989
954.911	0.0136863
954.989	0.0137394
955.068	0.0138441
955.146	0.0137967
955.224	0.0137013
955.302	0.0138532
955.380	0.0138290
955.458	0.0137991
955.536	0.0137419
955.614	0.0137478
955.693	0.0139241
955.771	0.0139254
955.849	0.0137695
955.927	0.0137311
956.005	0.0137680
956.083	0.0136570
956.161	0.0137964
956.239	0.0138364
956.318	0.0135715
956.396	0.0137302
956.474	0.0137618
956.552	0.0138435
956.630	0.0137325
956.708	0.0137218
956.786	0.0136284
956.864	0.0136856
956.943	0.0137584
957.021	0.0137137
957.099	0.0136922
957.177	0.0136092
957.255	0.0135568
957.333	0.0136657
957.411	0.0139080
957.489	0.0139302
957.568	0.0137061
957.646	0.0137389
957.724	0.0139048
957.802	0.0137868
957.880	0.0136723
957.958	0.0138741
958.036	0.0139320
958.114	0.0138889
958.193	0.0138741
958.271	0.0138178
958.349	0.0139415
958.427	0.0138828
958.505	0.0139088
958.583	0.0138969
958.661	0.0137308
958.739	0.0139764
958.818	0.0140134
958.896	0.0138223
958.974	0.0138904
959.052	0.0138932
959.130	0.0137987
959.208	0.0136749
959.286	0.0137677
959.364	0.0137566
959.443	0.0136272
959.521	0.0136359
959.599	0.0136526
959.677	0.0136343
959.755	0.0136669
959.833	0.0136055
959.911	0.0135445
