05/07/2022	17:03:06	Ver.	4.1	UNKNOWN
Optical Delay	639.989416	Delta X		0.078125	Sweeps	1	Scan Rate	0/0
Coordinates	Axis 1	NaN	Axis 2	NaN	Axis 3	NaN	Axis 4	NaN	Axis 5	NaN	Axis 6	0.000000
TX Power	0.000000	RX Power	0.000000

639.989	0.0124239
640.068	0.0123323
640.146	0.0123158
640.224	0.0124580
640.302	0.0125568
640.380	0.0123350
640.458	0.0123943
640.536	0.0124476
640.614	0.0123955
640.693	0.0125561
640.771	0.0124404
640.849	0.0122817
640.927	0.0123061
641.005	0.0125359
641.083	0.0124062
641.161	0.0122813
641.239	0.0124084
641.318	0.0123794
641.396	0.0123708
641.474	0.0124227
641.552	0.0123392
641.630	0.0123180
641.708	0.0124225
641.786	0.0124482
641.864	0.0124813
641.943	0.0124773
642.021	0.0122646
642.099	0.0122715
642.177	0.0123949
642.255	0.0123626
642.333	0.0124065
642.411	0.0123731
642.489	0.0124281
642.568	0.0123603
642.646	0.0123860
642.724	0.0123310
642.802	0.0124165
642.880	0.0125380
642.958	0.0123676
643.036	0.0123289
643.114	0.0124045
643.193	0.0124411
643.271	0.0123930
643.349	0.0124966
643.427	0.0124754
643.505	0.0124846
643.583	0.0125293
643.661	0.0124590
643.739	0.0124181
643.818	0.0123936
643.896	0.0124912
643.974	0.0124377
644.052	0.0124215
644.130	0.0123640
644.208	0.0123311
644.286	0.0122990
644.364	0.0122977
644.443	0.0123991
644.521	0.0123240
644.599	0.0124709
644.677	0.0124157
644.755	0.0124915
644.833	0.0125476
644.911	0.0123506
644.989	0.0124460
645.068	0.0124632
645.146	0.0124506
645.224	0.0123305
645.302	0.0123298
645.380	0.0124071
645.458	0.0123849
645.536	0.0125082
645.614	0.0124376
645.693	0.0122940
645.771	0.0124882
645.849	0.0124886
645.927	0.0124615
646.005	0.0123332
646.083	0.0124329
646.161	0.0124029
646.239	0.0124408
646.318	0.0123746
646.396	0.0125333
646.474	0.0122955
646.552	0.0123754
646.630	0.0124713
646.708	0.0123205
646.786	0.0123396
646.864	0.0125222
646.943	0.0123381
647.021	0.0124669
647.099	0.0125111
647.177	0.0122975
647.255	0.0122717
647.333	0.0123415
647.411	0.0123915
647.489	0.0124715
647.568	0.0123919
647.646	0.0123192
647.724	0.0124149
647.802	0.0123781
647.880	0.0124039
647.958	0.0124385
648.036	0.0125327
648.114	0.0124025
648.193	0.0122740
648.271	0.0123186
648.349	0.0124204
648.427	0.0125085
648.505	0.0123678
648.583	0.0122873
648.661	0.0124037
648.739	0.0123432
648.818	0.0124007
648.896	0.0124281
648.974	0.0123586
649.052	0.0124625
649.130	0.0125134
649.208	0.0124055
649.286	0.0123873
649.364	0.0125208
649.443	0.0124303
649.521	0.0123287
649.599	0.0124844
649.677	0.0123859
649.755	0.0123861
649.833	0.0124553
649.911	0.0124740
649.989	0.0123459
650.068	0.0123475
650.146	0.0122588
650.224	0.0124498
650.302	0.0124637
650.380	0.0125534
650.458	0.0124263
650.536	0.0124632
650.614	0.0123921
650.693	0.0124378
650.771	0.0125613
650.849	0.0125131
650.927	0.0124550
651.005	0.0124996
651.083	0.0123839
651.161	0.0124558
651.239	0.0125137
651.318	0.0125037
651.396	0.0123502
651.474	0.0124664
651.552	0.0124574
651.630	0.0123824
651.708	0.0123514
651.786	0.0125471
651.864	0.0124223
651.943	0.0123409
652.021	0.0124733
652.099	0.0124974
652.177	0.0125333
652.255	0.0123407
652.333	0.0124667
652.411	0.0123186
652.489	0.0123996
652.568	0.0124601
652.646	0.0123643
652.724	0.0123672
652.802	0.0123486
652.880	0.0124754
652.958	0.0122828
653.036	0.0123661
653.114	0.0123861
653.193	0.0123611
653.271	0.0124007
653.349	0.0123689
653.427	0.0124927
653.505	0.0123066
653.583	0.0123832
653.661	0.0125366
653.739	0.0122832
653.818	0.0124411
653.896	0.0124452
653.974	0.0123437
654.052	0.0125616
654.130	0.0124654
654.208	0.0124364
654.286	0.0122932
654.364	0.0125562
654.443	0.0123740
654.521	0.0124692
654.599	0.0122561
654.677	0.0125329
654.755	0.0125616
654.833	0.0125434
654.911	0.0123819
654.989	0.0122749
655.068	0.0124892
655.146	0.0124571
655.224	0.0124921
655.302	0.0125420
655.380	0.0123219
655.458	0.0122678
655.536	0.0124456
655.614	0.0124976
655.693	0.0124866
655.771	0.0124242
655.849	0.0123827
655.927	0.0123406
656.005	0.0124470
656.083	0.0125008
656.161	0.0123785
656.239	0.0124728
656.318	0.0125307
656.396	0.0124429
656.474	0.0124736
656.552	0.0124719
656.630	0.0124160
656.708	0.0126019
656.786	0.0123973
656.864	0.0124014
656.943	0.0125429
657.021	0.0124474
657.099	0.0123929
657.177	0.0126035
657.255	0.0124654
657.333	0.0123701
657.411	0.0124445
657.489	0.0123972
657.568	0.0124887
657.646	0.0123391
657.724	0.0125053
657.802	0.0126101
657.880	0.0124669
657.958	0.0124285
658.036	0.0124714
658.114	0.0122868
658.193	0.0124059
658.271	0.0123975
658.349	0.0122896
658.427	0.0123352
658.505	0.0124527
658.583	0.0125504
658.661	0.0122672
658.739	0.0124365
658.818	0.0124289
658.896	0.0123572
658.974	0.0122748
659.052	0.0123830
659.130	0.0124299
659.208	0.0123923
659.286	0.0124369
659.364	0.0124387
659.443	0.0123286
659.521	0.0123619
659.599	0.0123820
659.677	0.0123647
659.755	0.0125196
659.833	0.0124089
659.911	0.0123975
659.989	0.0124609
660.068	0.0124645
660.146	0.0125488
660.224	0.0124300
660.302	0.0122460
660.380	0.0123038
660.458	0.0123167
660.536	0.0124469
660.614	0.0124287
660.693	0.0124399
660.771	0.0124313
660.849	0.0123675
660.927	0.0123994
661.005	0.0123407
661.083	0.0124020
661.161	0.0122065
661.239	0.0123808
661.318	0.0123680
661.396	0.0123351
661.474	0.0123776
661.552	0.0123670
661.630	0.0124251
661.708	0.0122273
661.786	0.0122835
661.864	0.0123597
661.943	0.0123793
662.021	0.0124335
662.099	0.0124517
662.177	0.0123323
662.255	0.0124318
662.333	0.0123979
662.411	0.0123505
662.489	0.0123476
662.568	0.0123695
662.646	0.0123243
662.724	0.0123692
662.802	0.0123783
662.880	0.0123719
662.958	0.0124181
663.036	0.0123173
663.114	0.0123913
663.193	0.0122764
663.271	0.0123369
663.349	0.0123765
663.427	0.0123122
663.505	0.0122502
663.583	0.0123968
663.661	0.0124335
663.739	0.0123233
663.818	0.0123031
663.896	0.0124699
663.974	0.0123001
664.052	0.0123009
664.130	0.0122403
664.208	0.0124142
664.286	0.0124563
664.364	0.0122874
664.443	0.0123727
664.521	0.0123495
664.599	0.0123433
664.677	0.0124423
664.755	0.0125502
664.833	0.0123117
664.911	0.0123515
664.989	0.0123182
665.068	0.0124976
665.146	0.0123712
665.224	0.0124178
665.302	0.0123331
665.380	0.0121866
665.458	0.0123050
665.536	0.0123513
665.614	0.0123962
665.693	0.0123136
665.771	0.0125169
665.849	0.0124480
665.927	0.0122737
666.005	0.0123554
666.083	0.0124274
666.161	0.0123292
666.239	0.0124700
666.318	0.0123093
666.396	0.0123591
666.474	0.0124375
666.552	0.0123540
666.630	0.0123466
666.708	0.0123756
666.786	0.0123148
666.864	0.0123053
666.943	0.0123474
667.021	0.0122588
667.099	0.0123042
667.177	0.0123272
667.255	0.0124043
667.333	0.0124274
667.411	0.0123180
667.489	0.0122617
667.568	0.0123634
667.646	0.0123302
667.724	0.0124574
667.802	0.0124086
667.880	0.0123734
667.958	0.0122779
668.036	0.0123249
668.114	0.0124131
668.193	0.0123972
668.271	0.0125282
668.349	0.0122028
668.427	0.0123450
668.505	0.0123911
668.583	0.0124643
668.661	0.0123007
668.739	0.0123409
668.818	0.0123595
668.896	0.0124154
668.974	0.0123469
669.052	0.0123349
669.130	0.0122408
669.208	0.0123885
669.286	0.0122961
669.364	0.0123044
669.443	0.0122628
669.521	0.0124107
669.599	0.0124149
669.677	0.0123003
669.755	0.0123768
669.833	0.0124923
669.911	0.0123710
669.989	0.0123119
670.068	0.0123764
670.146	0.0122799
670.224	0.0123957
670.302	0.0124480
670.380	0.0125337
670.458	0.0124021
670.536	0.0123798
670.614	0.0124038
670.693	0.0122260
670.771	0.0122758
670.849	0.0123085
670.927	0.0124786
671.005	0.0124858
671.083	0.0124177
671.161	0.0123197
671.239	0.0123420
671.318	0.0122791
671.396	0.0123480
671.474	0.0123956
671.552	0.0123289
671.630	0.0124632
671.708	0.0123980
671.786	0.0122929
671.864	0.0125420
671.943	0.0125208
672.021	0.0122727
672.099	0.0124144
672.177	0.0124361
672.255	0.0124860
672.333	0.0125191
672.411	0.0123326
672.489	0.0125029
672.568	0.0124931
672.646	0.0125263
672.724	0.0124319
672.802	0.0124119
672.880	0.0126300
672.958	0.0124539
673.036	0.0123805
673.114	0.0125092
673.193	0.0125197
673.271	0.0123357
673.349	0.0124939
673.427	0.0124360
673.505	0.0123882
673.583	0.0124834
673.661	0.0126134
673.739	0.0125333
673.818	0.0124164
673.896	0.0123994
673.974	0.0124093
674.052	0.0124852
674.130	0.0125520
674.208	0.0124394
674.286	0.0122976
674.364	0.0125169
674.443	0.0124680
674.521	0.0123840
674.599	0.0125731
674.677	0.0126774
674.755	0.0126086
674.833	0.0125303
674.911	0.0124129
674.989	0.0124587
675.068	0.0124356
675.146	0.0125018
675.224	0.0124601
675.302	0.0124287
675.380	0.0124836
675.458	0.0124733
675.536	0.0124595
675.614	0.0125259
675.693	0.0124702
675.771	0.0123740
675.849	0.0124293
675.927	0.0124809
676.005	0.0124229
676.083	0.0125400
676.161	0.0123856
676.239	0.0124604
676.318	0.0124605
676.396	0.0124020
676.474	0.0125187
676.552	0.0125182
676.630	0.0124129
676.708	0.0125376
676.786	0.0126044
676.864	0.0123524
676.943	0.0124077
677.021	0.0124062
677.099	0.0124778
677.177	0.0123257
677.255	0.0123796
677.333	0.0124726
677.411	0.0123792
677.489	0.0123957
677.568	0.0123658
677.646	0.0124786
677.724	0.0123833
677.802	0.0123547
677.880	0.0124273
677.958	0.0122778
678.036	0.0123388
678.114	0.0123872
678.193	0.0124892
678.271	0.0124445
678.349	0.0122311
678.427	0.0122558
678.505	0.0122663
678.583	0.0123611
678.661	0.0123253
678.739	0.0123897
678.818	0.0123610
678.896	0.0124563
678.974	0.0124007
679.052	0.0123313
679.130	0.0122109
679.208	0.0124473
679.286	0.0123128
679.364	0.0123292
679.443	0.0122943
679.521	0.0123010
679.599	0.0122629
679.677	0.0122107
679.755	0.0123648
679.833	0.0124022
679.911	0.0123538
679.989	0.0123319
680.068	0.0122809
680.146	0.0124149
680.224	0.0123314
680.302	0.0124461
680.380	0.0123266
680.458	0.0123746
680.536	0.0123574
680.614	0.0123434
680.693	0.0122605
680.771	0.0122716
680.849	0.0122045
680.927	0.0123613
681.005	0.0124516
681.083	0.0122796
681.161	0.0123438
681.239	0.0123067
681.318	0.0123563
681.396	0.0122630
681.474	0.0123435
681.552	0.0122821
681.630	0.0122421
681.708	0.0123058
681.786	0.0124462
681.864	0.0124229
681.943	0.0122844
682.021	0.0123818
682.099	0.0124281
682.177	0.0124039
682.255	0.0124631
682.333	0.0123180
682.411	0.0123591
682.489	0.0123200
682.568	0.0124546
682.646	0.0123991
682.724	0.0123894
682.802	0.0125417
682.880	0.0124059
682.958	0.0123753
683.036	0.0124393
683.114	0.0124622
683.193	0.0124219
683.271	0.0124732
683.349	0.0122919
683.427	0.0124326
683.505	0.0125037
683.583	0.0125101
683.661	0.0124819
683.739	0.0125912
683.818	0.0124805
683.896	0.0125121
683.974	0.0122894
684.052	0.0124522
684.130	0.0124580
684.208	0.0124624
684.286	0.0124583
684.364	0.0124836
684.443	0.0124064
684.521	0.0124173
684.599	0.0124443
684.677	0.0124783
684.755	0.0126527
684.833	0.0125580
684.911	0.0126010
684.989	0.0125905
685.068	0.0126163
685.146	0.0124569
685.224	0.0123333
685.302	0.0125222
685.380	0.0122449
685.458	0.0122326
685.536	0.0122598
685.614	0.0122251
685.693	0.0121675
685.771	0.0122813
685.849	0.0123010
685.927	0.0123495
686.005	0.0124686
686.083	0.0126607
686.161	0.0128194
686.239	0.0129571
686.318	0.0129391
686.396	0.0129341
686.474	0.0130921
686.552	0.0130827
686.630	0.0130383
686.708	0.0128418
686.786	0.0126459
686.864	0.0123284
686.943	0.0121758
687.021	0.0118729
687.099	0.0116776
687.177	0.0115040
687.255	0.0115263
687.333	0.0115224
687.411	0.0114835
687.489	0.0117015
687.568	0.0118233
687.646	0.0120806
687.724	0.0123621
687.802	0.0125762
687.880	0.0130083
687.958	0.0133292
688.036	0.0133439
688.114	0.0135652
688.193	0.0136122
688.271	0.0135119
688.349	0.0132841
688.427	0.0132148
688.505	0.0129001
688.583	0.0128411
688.661	0.0124956
688.739	0.0120965
688.818	0.0116743
688.896	0.0115724
688.974	0.0114081
689.052	0.0112603
689.130	0.0113411
689.208	0.0112144
689.286	0.0113078
689.364	0.0114074
689.443	0.0115736
689.521	0.0116769
689.599	0.0118346
689.677	0.0120815
689.755	0.0119984
689.833	0.0120885
689.911	0.0123972
689.989	0.0125961
690.068	0.0127368
690.146	0.0128816
690.224	0.0130297
690.302	0.0131304
690.380	0.0133973
690.458	0.0134121
690.536	0.0134202
690.614	0.0134236
690.693	0.0134367
690.771	0.0134105
690.849	0.0132486
690.927	0.0130639
691.005	0.0129810
691.083	0.0128751
691.161	0.0127670
691.239	0.0126479
691.318	0.0123619
691.396	0.0120285
691.474	0.0118743
691.552	0.0117853
691.630	0.0116072
691.708	0.0117244
691.786	0.0114604
691.864	0.0113322
691.943	0.0114971
692.021	0.0114214
692.099	0.0114768
692.177	0.0115800
692.255	0.0116429
692.333	0.0118037
692.411	0.0118367
692.489	0.0119411
692.568	0.0120882
692.646	0.0121725
692.724	0.0120868
692.802	0.0121851
692.880	0.0123908
692.958	0.0123959
693.036	0.0124937
693.114	0.0126459
693.193	0.0128065
693.271	0.0128011
693.349	0.0129902
693.427	0.0132317
693.505	0.0131005
693.583	0.0131928
693.661	0.0132529
693.739	0.0131217
693.818	0.0130666
693.896	0.0130869
693.974	0.0128367
694.052	0.0128041
694.130	0.0126315
694.208	0.0124873
694.286	0.0121682
694.364	0.0121988
694.443	0.0119845
694.521	0.0118806
694.599	0.0118040
694.677	0.0117631
694.755	0.0116767
694.833	0.0115812
694.911	0.0114861
694.989	0.0115003
695.068	0.0114376
695.146	0.0115039
695.224	0.0115929
695.302	0.0117631
695.380	0.0118252
695.458	0.0119206
695.536	0.0121579
695.614	0.0122869
695.693	0.0124718
695.771	0.0125240
695.849	0.0126255
695.927	0.0127374
696.005	0.0129592
696.083	0.0129440
696.161	0.0129417
696.239	0.0130833
696.318	0.0130450
696.396	0.0131232
696.474	0.0130656
696.552	0.0131348
696.630	0.0130677
696.708	0.0130234
696.786	0.0128246
696.864	0.0126569
696.943	0.0124392
697.021	0.0123702
697.099	0.0122955
697.177	0.0121764
697.255	0.0121561
697.333	0.0122533
697.411	0.0121175
697.489	0.0121088
697.568	0.0120004
697.646	0.0120754
697.724	0.0119708
697.802	0.0121085
697.880	0.0121319
697.958	0.0122108
698.036	0.0123598
698.114	0.0123372
698.193	0.0125122
698.271	0.0124779
698.349	0.0124774
698.427	0.0126029
698.505	0.0127927
698.583	0.0126065
698.661	0.0127989
698.739	0.0126837
698.818	0.0127151
698.896	0.0126763
698.974	0.0125938
699.052	0.0125344
699.130	0.0124854
699.208	0.0123950
699.286	0.0124081
699.364	0.0122431
699.443	0.0120921
699.521	0.0118806
699.599	0.0118963
699.677	0.0119170
699.755	0.0118217
699.833	0.0119061
699.911	0.0117404
699.989	0.0117287
700.068	0.0116273
700.146	0.0117303
700.224	0.0116338
700.302	0.0117235
700.380	0.0118323
700.458	0.0117532
700.536	0.0119850
700.614	0.0121366
700.693	0.0123756
700.771	0.0125042
700.849	0.0127451
700.927	0.0127988
701.005	0.0130168
701.083	0.0131977
701.161	0.0134979
701.239	0.0135612
701.318	0.0136455
701.396	0.0135783
701.474	0.0137688
701.552	0.0136840
701.630	0.0136344
701.708	0.0136227
701.786	0.0134886
701.864	0.0133214
701.943	0.0131676
702.021	0.0129350
702.099	0.0126937
702.177	0.0126801
702.255	0.0123387
702.333	0.0121423
702.411	0.0119115
702.489	0.0119450
702.568	0.0117666
702.646	0.0116366
702.724	0.0115703
702.802	0.0115478
702.880	0.0114359
702.958	0.0115086
703.036	0.0113575
703.114	0.0113849
703.193	0.0112785
703.271	0.0112634
703.349	0.0113181
703.427	0.0113733
703.505	0.0112617
703.583	0.0114279
703.661	0.0115086
703.739	0.0115154
703.818	0.0115869
703.896	0.0117802
703.974	0.0118752
704.052	0.0120219
704.130	0.0120869
704.208	0.0122166
704.286	0.0124380
704.364	0.0124734
704.443	0.0125919
704.521	0.0127650
704.599	0.0126993
704.677	0.0128753
704.755	0.0129209
704.833	0.0129588
704.911	0.0130563
704.989	0.0131250
705.068	0.0131229
705.146	0.0130125
705.224	0.0131937
705.302	0.0130630
705.380	0.0130209
705.458	0.0131528
705.536	0.0131477
705.614	0.0129733
705.693	0.0129676
705.771	0.0129202
705.849	0.0128021
705.927	0.0125781
706.005	0.0126090
706.083	0.0125126
706.161	0.0123009
706.239	0.0123418
706.318	0.0122247
706.396	0.0122726
706.474	0.0120756
706.552	0.0119498
706.630	0.0120149
706.708	0.0120881
706.786	0.0120378
706.864	0.0120691
706.943	0.0120827
707.021	0.0121581
707.099	0.0120687
707.177	0.0120098
707.255	0.0119450
707.333	0.0120077
707.411	0.0120626
707.489	0.0119241
707.568	0.0119254
707.646	0.0118430
707.724	0.0117829
707.802	0.0117860
707.880	0.0118720
707.958	0.0118069
708.036	0.0117452
708.114	0.0119291
708.193	0.0119780
708.271	0.0120279
708.349	0.0120683
708.427	0.0120520
708.505	0.0121378
708.583	0.0123923
708.661	0.0123348
708.739	0.0124431
708.818	0.0125911
708.896	0.0126424
708.974	0.0129065
709.052	0.0126913
709.130	0.0126446
709.208	0.0128342
709.286	0.0128557
709.364	0.0129011
709.443	0.0130449
709.521	0.0129552
709.599	0.0131072
709.677	0.0128754
709.755	0.0130930
709.833	0.0130059
709.911	0.0132632
709.989	0.0131096
710.068	0.0131470
710.146	0.0131192
710.224	0.0132745
710.302	0.0132015
710.380	0.0130947
710.458	0.0131487
710.536	0.0131890
710.614	0.0129926
710.693	0.0130893
710.771	0.0128634
710.849	0.0128141
710.927	0.0129438
711.005	0.0128286
711.083	0.0124982
711.161	0.0125069
711.239	0.0124210
711.318	0.0122272
711.396	0.0121190
711.474	0.0121888
711.552	0.0119594
711.630	0.0119569
711.708	0.0121156
711.786	0.0120541
711.864	0.0120542
711.943	0.0118620
712.021	0.0120195
712.099	0.0118969
712.177	0.0119958
712.255	0.0119405
712.333	0.0120979
712.411	0.0120542
712.489	0.0119951
712.568	0.0120370
712.646	0.0120640
712.724	0.0121227
712.802	0.0118322
712.880	0.0120096
712.958	0.0120629
713.036	0.0121335
713.114	0.0121180
713.193	0.0122736
713.271	0.0123157
713.349	0.0122167
713.427	0.0124289
713.505	0.0123533
713.583	0.0123818
713.661	0.0125184
713.739	0.0127566
713.818	0.0126802
713.896	0.0127216
713.974	0.0126638
714.052	0.0128021
714.130	0.0128677
714.208	0.0128887
714.286	0.0128539
714.364	0.0128529
714.443	0.0128934
714.521	0.0129561
714.599	0.0129967
714.677	0.0129964
714.755	0.0131386
714.833	0.0131008
714.911	0.0130324
714.989	0.0129818
715.068	0.0129924
715.146	0.0129185
715.224	0.0129423
715.302	0.0129031
715.380	0.0127547
715.458	0.0128143
715.536	0.0125978
715.614	0.0125633
715.693	0.0125717
715.771	0.0125430
715.849	0.0124461
715.927	0.0122629
716.005	0.0123204
716.083	0.0120885
716.161	0.0122639
716.239	0.0121333
716.318	0.0121057
716.396	0.0120468
716.474	0.0118156
716.552	0.0119319
716.630	0.0117924
716.708	0.0117805
716.786	0.0115744
716.864	0.0116590
716.943	0.0118036
717.021	0.0117736
717.099	0.0117117
717.177	0.0116978
717.255	0.0118617
717.333	0.0118782
717.411	0.0118670
717.489	0.0120583
717.568	0.0119539
717.646	0.0119167
717.724	0.0119050
717.802	0.0120006
717.880	0.0119328
717.958	0.0120818
718.036	0.0121577
718.114	0.0120834
718.193	0.0121884
718.271	0.0122543
718.349	0.0123295
718.427	0.0123164
718.505	0.0125564
718.583	0.0123976
718.661	0.0125672
718.739	0.0127425
718.818	0.0127120
718.896	0.0126279
718.974	0.0128297
719.052	0.0129153
719.130	0.0129472
719.208	0.0130249
719.286	0.0129869
719.364	0.0130791
719.443	0.0130728
719.521	0.0129065
719.599	0.0131346
719.677	0.0131059
719.755	0.0130546
719.833	0.0130232
719.911	0.0129807
719.989	0.0130307
720.068	0.0127951
720.146	0.0126484
720.224	0.0125824
720.302	0.0124367
720.380	0.0123596
720.458	0.0123280
720.536	0.0121098
720.614	0.0119518
720.693	0.0119838
720.771	0.0117634
720.849	0.0116674
720.927	0.0117250
721.005	0.0116991
721.083	0.0116820
721.161	0.0118076
721.239	0.0118721
721.318	0.0117732
721.396	0.0120133
721.474	0.0120980
721.552	0.0121964
721.630	0.0122330
721.708	0.0124054
721.786	0.0124454
721.864	0.0124823
721.943	0.0125750
722.021	0.0126794
722.099	0.0126624
722.177	0.0127145
722.255	0.0128485
722.333	0.0127146
722.411	0.0126591
722.489	0.0125962
722.568	0.0125257
722.646	0.0124007
722.724	0.0123238
722.802	0.0123872
722.880	0.0122832
722.958	0.0119997
723.036	0.0121236
723.114	0.0120806
723.193	0.0119975
723.271	0.0120396
723.349	0.0119530
723.427	0.0118569
723.505	0.0119391
723.583	0.0119536
723.661	0.0119234
723.739	0.0119668
723.818	0.0119713
723.896	0.0120411
723.974	0.0120735
724.052	0.0122427
724.130	0.0123414
724.208	0.0124809
724.286	0.0126439
724.364	0.0127002
724.443	0.0128220
724.521	0.0128702
724.599	0.0129826
724.677	0.0130838
724.755	0.0131279
724.833	0.0130847
724.911	0.0130126
724.989	0.0133016
725.068	0.0131760
725.146	0.0131689
725.224	0.0130520
725.302	0.0130058
725.380	0.0129762
725.458	0.0128286
725.536	0.0127959
725.614	0.0126093
725.693	0.0124769
725.771	0.0123359
725.849	0.0122424
725.927	0.0122839
726.005	0.0121158
726.083	0.0119807
726.161	0.0120940
726.239	0.0119250
726.318	0.0117977
726.396	0.0118560
726.474	0.0119189
726.552	0.0118687
726.630	0.0119627
726.708	0.0119455
726.786	0.0120815
726.864	0.0120149
726.943	0.0121916
727.021	0.0123060
727.099	0.0124130
727.177	0.0124480
727.255	0.0126810
727.333	0.0127653
727.411	0.0125584
727.489	0.0126160
727.568	0.0126559
727.646	0.0125056
727.724	0.0125863
727.802	0.0125574
727.880	0.0122206
727.958	0.0124925
728.036	0.0124462
728.114	0.0122143
728.193	0.0122305
728.271	0.0122213
728.349	0.0120845
728.427	0.0119337
728.505	0.0120113
728.583	0.0119346
728.661	0.0119448
728.739	0.0118741
728.818	0.0119632
728.896	0.0118997
728.974	0.0119077
729.052	0.0119931
729.130	0.0120226
729.208	0.0121542
729.286	0.0121353
729.364	0.0123613
729.443	0.0123726
729.521	0.0126295
729.599	0.0125454
729.677	0.0128583
729.755	0.0128864
729.833	0.0127500
729.911	0.0130470
729.989	0.0130170
730.068	0.0130688
730.146	0.0130099
730.224	0.0129919
730.302	0.0130310
730.380	0.0130438
730.458	0.0128265
730.536	0.0128550
730.614	0.0127077
730.693	0.0125885
730.771	0.0124207
730.849	0.0124521
730.927	0.0122227
731.005	0.0121293
731.083	0.0121426
731.161	0.0118279
731.239	0.0118380
731.318	0.0118929
731.396	0.0117427
731.474	0.0116538
731.552	0.0116248
731.630	0.0117180
731.708	0.0116211
731.786	0.0118235
731.864	0.0117838
731.943	0.0119221
732.021	0.0120335
732.099	0.0121213
732.177	0.0121883
732.255	0.0123662
732.333	0.0122488
732.411	0.0125085
732.489	0.0126615
732.568	0.0127430
732.646	0.0129548
732.724	0.0129679
732.802	0.0131434
732.880	0.0131116
732.958	0.0130015
733.036	0.0131966
733.114	0.0130998
733.193	0.0130525
733.271	0.0131728
733.349	0.0128654
733.427	0.0128279
733.505	0.0127634
733.583	0.0125304
733.661	0.0126130
733.739	0.0124375
733.818	0.0123817
733.896	0.0121951
733.974	0.0121970
734.052	0.0121558
734.130	0.0119711
734.208	0.0120556
734.286	0.0120348
734.364	0.0118582
734.443	0.0119270
734.521	0.0119201
734.599	0.0119049
734.677	0.0119805
734.755	0.0120650
734.833	0.0119780
734.911	0.0120043
734.989	0.0119724
735.068	0.0120410
735.146	0.0121207
735.224	0.0122205
735.302	0.0124124
735.380	0.0123959
735.458	0.0125002
735.536	0.0124416
735.614	0.0125650
735.693	0.0127402
735.771	0.0127853
735.849	0.0128155
735.927	0.0128220
736.005	0.0129519
736.083	0.0129942
736.161	0.0129594
736.239	0.0128667
736.318	0.0130842
736.396	0.0129725
736.474	0.0128699
736.552	0.0128120
736.630	0.0128004
736.708	0.0127187
736.786	0.0128091
736.864	0.0127206
736.943	0.0127481
737.021	0.0125400
737.099	0.0125452
737.177	0.0124139
737.255	0.0124137
737.333	0.0124081
737.411	0.0123548
737.489	0.0123596
737.568	0.0122869
737.646	0.0122259
737.724	0.0122302
737.802	0.0123223
737.880	0.0122254
737.958	0.0123017
738.036	0.0122417
738.114	0.0122285
738.193	0.0121667
738.271	0.0122195
738.349	0.0123318
738.427	0.0124055
738.505	0.0123499
738.583	0.0123438
738.661	0.0124763
738.739	0.0123824
738.818	0.0125732
738.896	0.0125587
738.974	0.0126855
739.052	0.0126189
739.130	0.0126246
739.208	0.0127331
739.286	0.0126693
739.364	0.0125902
739.443	0.0126978
739.521	0.0127036
739.599	0.0125223
739.677	0.0125022
739.755	0.0123316
739.833	0.0124865
739.911	0.0125043
739.989	0.0121909
740.068	0.0122813
740.146	0.0122308
740.224	0.0123081
740.302	0.0122305
740.380	0.0120477
740.458	0.0123292
740.536	0.0124435
740.614	0.0122993
740.693	0.0122778
740.771	0.0123582
740.849	0.0123672
740.927	0.0124232
741.005	0.0121830
741.083	0.0123090
741.161	0.0122871
741.239	0.0124766
741.318	0.0125734
741.396	0.0123538
741.474	0.0124890
741.552	0.0125307
741.630	0.0125597
741.708	0.0125566
741.786	0.0125889
741.864	0.0125427
741.943	0.0125747
742.021	0.0126390
742.099	0.0126038
742.177	0.0124861
742.255	0.0126974
742.333	0.0125218
742.411	0.0125968
742.489	0.0125386
742.568	0.0125871
742.646	0.0124610
742.724	0.0125452
742.802	0.0125788
742.880	0.0124760
742.958	0.0124442
743.036	0.0123971
743.114	0.0123246
743.193	0.0123838
743.271	0.0124666
743.349	0.0122695
743.427	0.0121845
743.505	0.0123487
743.583	0.0122291
743.661	0.0123929
743.739	0.0123170
743.818	0.0122676
743.896	0.0123312
743.974	0.0122578
744.052	0.0122161
744.130	0.0124756
744.208	0.0123952
744.286	0.0123685
744.364	0.0123738
744.443	0.0124413
744.521	0.0124823
744.599	0.0123266
744.677	0.0123694
744.755	0.0126265
744.833	0.0125668
744.911	0.0125874
744.989	0.0126235
745.068	0.0125705
745.146	0.0126210
745.224	0.0126299
745.302	0.0126447
745.380	0.0126419
745.458	0.0124989
745.536	0.0124552
745.614	0.0124429
745.693	0.0124589
745.771	0.0123230
745.849	0.0122068
745.927	0.0122258
746.005	0.0121558
746.083	0.0120661
746.161	0.0120138
746.239	0.0122064
746.318	0.0120113
746.396	0.0119460
746.474	0.0119354
746.552	0.0121037
746.630	0.0119747
746.708	0.0120680
746.786	0.0120904
746.864	0.0119963
746.943	0.0120247
747.021	0.0121453
747.099	0.0120499
747.177	0.0121590
747.255	0.0122340
747.333	0.0122388
747.411	0.0122714
747.489	0.0123830
747.568	0.0124078
747.646	0.0125469
747.724	0.0125873
747.802	0.0127299
747.880	0.0126722
747.958	0.0127292
748.036	0.0128318
748.114	0.0127311
748.193	0.0128471
748.271	0.0127747
748.349	0.0129091
748.427	0.0128179
748.505	0.0128023
748.583	0.0127940
748.661	0.0127590
748.739	0.0126231
748.818	0.0124887
748.896	0.0126292
748.974	0.0126019
749.052	0.0125184
749.130	0.0124788
749.208	0.0123299
749.286	0.0123188
749.364	0.0123183
749.443	0.0122678
749.521	0.0120828
749.599	0.0122437
749.677	0.0121873
749.755	0.0121004
749.833	0.0121287
749.911	0.0122181
749.989	0.0121719
750.068	0.0122122
750.146	0.0121603
750.224	0.0122987
750.302	0.0122758
750.380	0.0121142
750.458	0.0123543
750.536	0.0124979
750.614	0.0124036
750.693	0.0124643
750.771	0.0124557
750.849	0.0125787
750.927	0.0125909
751.005	0.0127052
751.083	0.0128171
751.161	0.0127374
751.239	0.0128770
751.318	0.0128753
751.396	0.0128511
751.474	0.0130803
751.552	0.0127907
751.630	0.0126188
751.708	0.0127886
751.786	0.0128085
751.864	0.0125956
751.943	0.0124339
752.021	0.0124709
752.099	0.0124720
752.177	0.0123499
752.255	0.0123798
752.333	0.0123589
752.411	0.0122689
752.489	0.0120942
752.568	0.0121609
752.646	0.0121044
752.724	0.0119558
752.802	0.0120087
752.880	0.0119518
752.958	0.0118821
753.036	0.0119430
753.114	0.0120472
753.193	0.0120667
753.271	0.0119965
753.349	0.0121339
753.427	0.0121523
753.505	0.0121298
753.583	0.0121849
753.661	0.0122482
753.739	0.0123235
753.818	0.0123876
753.896	0.0125166
753.974	0.0125201
754.052	0.0125543
754.130	0.0127418
754.208	0.0126773
754.286	0.0126595
754.364	0.0127699
754.443	0.0127663
754.521	0.0125459
754.599	0.0126138
754.677	0.0125552
754.755	0.0125095
754.833	0.0124684
754.911	0.0124544
754.989	0.0123695
755.068	0.0123160
755.146	0.0122324
755.224	0.0121956
755.302	0.0124273
755.380	0.0124128
755.458	0.0122984
755.536	0.0122020
755.614	0.0121362
755.693	0.0122928
755.771	0.0121368
755.849	0.0121707
755.927	0.0122181
756.005	0.0122662
756.083	0.0123125
756.161	0.0123329
756.239	0.0123052
756.318	0.0125430
756.396	0.0124059
756.474	0.0124326
756.552	0.0127260
756.630	0.0126636
756.708	0.0126239
756.786	0.0127601
756.864	0.0127915
756.943	0.0127129
757.021	0.0126718
757.099	0.0126669
757.177	0.0125548
757.255	0.0126590
757.333	0.0126779
757.411	0.0126483
757.489	0.0126067
757.568	0.0126911
757.646	0.0125497
757.724	0.0124915
757.802	0.0124384
757.880	0.0124036
757.958	0.0123135
758.036	0.0123463
758.114	0.0124993
758.193	0.0123176
758.271	0.0120614
758.349	0.0121729
758.427	0.0121613
758.505	0.0119534
758.583	0.0119168
758.661	0.0119724
758.739	0.0120042
758.818	0.0119282
758.896	0.0118445
758.974	0.0117774
759.052	0.0118575
759.130	0.0121011
759.208	0.0120661
759.286	0.0121729
759.364	0.0121424
759.443	0.0121606
759.521	0.0122336
759.599	0.0124220
759.677	0.0124963
759.755	0.0125343
759.833	0.0125801
759.911	0.0125980
759.989	0.0127277
760.068	0.0126493
760.146	0.0126221
760.224	0.0126726
760.302	0.0127007
760.380	0.0126922
760.458	0.0128256
760.536	0.0127868
760.614	0.0128811
760.693	0.0127717
760.771	0.0126924
760.849	0.0128340
760.927	0.0129030
761.005	0.0129020
761.083	0.0127198
761.161	0.0126900
761.239	0.0126978
761.318	0.0127496
761.396	0.0126618
761.474	0.0127552
761.552	0.0127631
761.630	0.0127995
761.708	0.0127004
761.786	0.0127273
761.864	0.0126340
761.943	0.0126358
762.021	0.0126659
762.099	0.0126305
762.177	0.0125845
762.255	0.0124919
762.333	0.0126308
762.411	0.0125752
762.489	0.0124388
762.568	0.0123418
762.646	0.0124023
762.724	0.0124069
762.802	0.0123659
762.880	0.0124162
762.958	0.0123056
763.036	0.0123231
763.114	0.0122706
763.193	0.0123582
763.271	0.0124338
763.349	0.0122516
763.427	0.0123331
763.505	0.0124499
763.583	0.0124391
763.661	0.0123772
763.739	0.0123445
763.818	0.0123914
763.896	0.0124960
763.974	0.0124152
764.052	0.0123029
764.130	0.0123238
764.208	0.0122411
764.286	0.0122730
764.364	0.0123105
764.443	0.0123913
764.521	0.0122554
764.599	0.0121437
764.677	0.0122575
764.755	0.0122822
764.833	0.0120993
764.911	0.0121664
764.989	0.0120808
765.068	0.0118937
765.146	0.0121730
765.224	0.0121078
765.302	0.0120479
765.380	0.0119396
765.458	0.0120461
765.536	0.0121043
765.614	0.0120051
765.693	0.0120718
765.771	0.0120022
765.849	0.0119746
765.927	0.0120762
766.005	0.0120231
766.083	0.0122043
766.161	0.0122604
766.239	0.0123688
766.318	0.0122636
766.396	0.0125220
766.474	0.0125548
766.552	0.0125679
766.630	0.0126452
766.708	0.0127916
766.786	0.0129305
766.864	0.0130520
766.943	0.0129918
767.021	0.0130102
767.099	0.0130772
767.177	0.0130611
767.255	0.0131290
767.333	0.0130872
767.411	0.0130486
767.489	0.0130506
767.568	0.0128622
767.646	0.0129853
767.724	0.0128991
767.802	0.0127666
767.880	0.0127400
767.958	0.0125479
768.036	0.0124951
768.114	0.0124570
768.193	0.0124506
768.271	0.0121994
768.349	0.0121852
768.427	0.0123035
768.505	0.0121964
768.583	0.0121502
768.661	0.0120413
768.739	0.0120145
768.818	0.0119913
768.896	0.0120009
768.974	0.0120071
769.052	0.0120116
769.130	0.0119781
769.208	0.0120185
769.286	0.0120099
769.364	0.0120276
769.443	0.0121721
769.521	0.0121773
769.599	0.0122242
769.677	0.0122316
769.755	0.0123119
769.833	0.0122430
769.911	0.0123549
769.989	0.0123566
770.068	0.0125381
770.146	0.0123586
770.224	0.0124101
770.302	0.0124230
770.380	0.0126147
770.458	0.0126308
770.536	0.0125101
770.614	0.0127011
770.693	0.0124776
770.771	0.0126138
770.849	0.0125213
770.927	0.0124530
771.005	0.0124540
771.083	0.0125086
771.161	0.0125079
771.239	0.0124064
771.318	0.0124406
771.396	0.0124093
771.474	0.0125677
771.552	0.0125470
771.630	0.0125466
771.708	0.0125157
771.786	0.0125748
771.864	0.0125329
771.943	0.0126209
772.021	0.0125591
772.099	0.0125379
772.177	0.0126881
772.255	0.0125970
772.333	0.0127982
772.411	0.0126268
772.489	0.0126904
772.568	0.0127222
772.646	0.0127447
772.724	0.0127304
772.802	0.0128207
772.880	0.0126752
772.958	0.0126927
773.036	0.0124454
773.114	0.0127222
773.193	0.0127217
773.271	0.0126520
773.349	0.0124605
773.427	0.0125921
773.505	0.0124456
773.583	0.0124223
773.661	0.0123355
773.739	0.0123254
773.818	0.0121900
773.896	0.0123147
773.974	0.0121105
774.052	0.0121478
774.130	0.0120887
774.208	0.0121779
774.286	0.0120831
774.364	0.0121646
774.443	0.0120495
774.521	0.0120599
774.599	0.0122130
774.677	0.0122070
774.755	0.0121535
774.833	0.0122369
774.911	0.0120895
774.989	0.0121781
775.068	0.0122882
775.146	0.0123769
775.224	0.0122784
775.302	0.0122704
775.380	0.0123000
775.458	0.0124082
775.536	0.0125285
775.614	0.0124998
775.693	0.0124729
775.771	0.0125323
775.849	0.0125990
775.927	0.0125758
776.005	0.0126022
776.083	0.0125635
776.161	0.0124769
776.239	0.0126453
776.318	0.0125852
776.396	0.0125452
776.474	0.0127237
776.552	0.0126173
776.630	0.0126512
776.708	0.0126244
776.786	0.0125809
776.864	0.0123872
776.943	0.0124268
777.021	0.0123342
777.099	0.0123982
777.177	0.0123507
777.255	0.0121703
777.333	0.0123389
777.411	0.0123241
777.489	0.0121711
777.568	0.0122074
777.646	0.0122258
777.724	0.0122501
777.802	0.0123369
777.880	0.0123739
777.958	0.0123357
778.036	0.0124030
778.114	0.0123481
778.193	0.0123414
778.271	0.0123387
778.349	0.0122861
778.427	0.0124932
778.505	0.0123927
778.583	0.0123936
778.661	0.0123749
778.739	0.0122999
778.818	0.0123717
778.896	0.0123074
778.974	0.0123805
779.052	0.0123066
779.130	0.0123916
779.208	0.0123661
779.286	0.0124950
779.364	0.0123967
779.443	0.0124380
779.521	0.0123712
779.599	0.0124144
779.677	0.0125286
779.755	0.0124561
779.833	0.0125229
779.911	0.0123652
779.989	0.0123804
780.068	0.0125094
780.146	0.0126250
780.224	0.0124442
780.302	0.0124599
780.380	0.0126032
780.458	0.0125287
780.536	0.0124834
780.614	0.0125033
780.693	0.0125349
780.771	0.0126301
780.849	0.0124878
780.927	0.0124973
781.005	0.0126506
781.083	0.0125197
781.161	0.0125776
781.239	0.0125185
781.318	0.0125278
781.396	0.0125530
781.474	0.0125384
781.552	0.0125267
781.630	0.0123421
781.708	0.0125412
781.786	0.0124955
781.864	0.0124374
781.943	0.0125405
782.021	0.0124369
782.099	0.0124510
782.177	0.0124296
782.255	0.0125009
782.333	0.0124818
782.411	0.0126119
782.489	0.0124702
782.568	0.0125099
782.646	0.0126096
782.724	0.0123553
782.802	0.0123283
782.880	0.0125261
782.958	0.0124318
783.036	0.0124696
783.114	0.0122446
783.193	0.0122832
783.271	0.0123743
783.349	0.0124092
783.427	0.0124831
783.505	0.0123351
783.583	0.0122615
783.661	0.0123750
783.739	0.0122147
783.818	0.0122249
783.896	0.0123250
783.974	0.0123644
784.052	0.0123682
784.130	0.0123658
784.208	0.0122374
784.286	0.0123399
784.364	0.0125047
784.443	0.0125105
784.521	0.0123621
784.599	0.0124392
784.677	0.0124532
784.755	0.0124355
784.833	0.0124633
784.911	0.0124204
784.989	0.0125041
785.068	0.0124519
785.146	0.0125636
785.224	0.0124925
785.302	0.0125593
785.380	0.0124942
785.458	0.0123590
785.536	0.0124413
785.614	0.0126196
785.693	0.0126011
785.771	0.0124467
785.849	0.0125085
785.927	0.0126466
786.005	0.0125224
786.083	0.0122832
786.161	0.0124545
786.239	0.0124744
786.318	0.0123038
786.396	0.0124771
786.474	0.0124447
786.552	0.0121883
786.630	0.0123243
786.708	0.0123056
786.786	0.0123553
786.864	0.0124142
786.943	0.0125349
787.021	0.0123737
787.099	0.0124307
787.177	0.0123755
787.255	0.0123286
787.333	0.0123898
787.411	0.0122926
787.489	0.0121925
787.568	0.0121449
787.646	0.0124419
787.724	0.0123678
787.802	0.0122943
787.880	0.0122729
787.958	0.0121954
788.036	0.0123373
788.114	0.0123331
788.193	0.0121398
788.271	0.0121864
788.349	0.0122432
788.427	0.0122688
788.505	0.0123850
788.583	0.0123782
788.661	0.0123708
788.739	0.0124275
788.818	0.0125339
788.896	0.0123883
788.974	0.0123429
789.052	0.0124596
789.130	0.0124316
789.208	0.0124737
789.286	0.0124850
789.364	0.0126941
789.443	0.0126297
789.521	0.0125613
789.599	0.0126392
789.677	0.0126889
789.755	0.0125754
789.833	0.0125225
789.911	0.0126716
789.989	0.0127520
790.068	0.0125991
790.146	0.0125512
790.224	0.0126341
790.302	0.0125903
790.380	0.0124802
790.458	0.0124973
790.536	0.0125520
790.614	0.0123366
790.693	0.0122154
790.771	0.0122586
790.849	0.0124237
790.927	0.0121687
791.005	0.0121889
791.083	0.0122292
791.161	0.0121221
791.239	0.0121246
791.318	0.0122384
791.396	0.0122088
791.474	0.0121581
791.552	0.0120160
791.630	0.0121008
791.708	0.0120174
791.786	0.0121163
791.864	0.0122611
791.943	0.0122408
792.021	0.0123108
792.099	0.0124107
792.177	0.0122799
792.255	0.0124678
792.333	0.0123160
792.411	0.0124273
792.489	0.0123734
792.568	0.0124927
792.646	0.0125585
792.724	0.0124140
792.802	0.0124128
792.880	0.0125933
792.958	0.0126833
793.036	0.0126135
793.114	0.0127031
793.193	0.0127837
793.271	0.0127018
793.349	0.0125703
793.427	0.0127363
793.505	0.0127534
793.583	0.0126158
793.661	0.0127664
793.739	0.0127877
793.818	0.0126717
793.896	0.0125955
793.974	0.0126640
794.052	0.0126020
794.130	0.0126015
794.208	0.0125396
794.286	0.0125358
794.364	0.0124564
794.443	0.0123708
794.521	0.0125584
794.599	0.0124027
794.677	0.0124271
794.755	0.0124056
794.833	0.0122770
794.911	0.0123990
794.989	0.0124725
795.068	0.0123918
795.146	0.0122453
795.224	0.0124355
795.302	0.0124582
795.380	0.0122792
795.458	0.0123044
795.536	0.0122061
795.614	0.0123167
795.693	0.0123128
795.771	0.0123447
795.849	0.0123147
795.927	0.0124295
796.005	0.0123252
796.083	0.0123516
796.161	0.0123779
796.239	0.0125158
796.318	0.0122571
796.396	0.0121880
796.474	0.0121990
796.552	0.0122422
796.630	0.0120925
796.708	0.0122495
796.786	0.0120489
796.864	0.0120651
796.943	0.0119118
797.021	0.0119363
797.099	0.0118305
797.177	0.0118059
797.255	0.0118777
797.333	0.0119427
797.411	0.0118852
797.489	0.0120752
797.568	0.0118902
797.646	0.0119237
797.724	0.0121356
797.802	0.0121156
797.880	0.0121045
797.958	0.0122939
798.036	0.0123222
798.114	0.0122903
798.193	0.0124110
798.271	0.0125142
798.349	0.0126566
798.427	0.0125990
798.505	0.0128158
798.583	0.0127212
798.661	0.0127162
798.739	0.0128678
798.818	0.0128664
798.896	0.0128494
798.974	0.0128276
799.052	0.0127175
799.130	0.0128821
799.208	0.0127836
799.286	0.0128568
799.364	0.0127966
799.443	0.0127888
799.521	0.0127247
799.599	0.0128441
799.677	0.0127071
799.755	0.0126788
799.833	0.0126538
799.911	0.0125146
799.989	0.0125355
800.068	0.0124251
800.146	0.0125494
800.224	0.0124982
800.302	0.0124388
800.380	0.0124136
800.458	0.0124670
800.536	0.0122542
800.614	0.0124258
800.693	0.0123907
800.771	0.0124191
800.849	0.0124878
800.927	0.0124785
801.005	0.0124799
801.083	0.0125729
801.161	0.0124549
801.239	0.0124258
801.318	0.0124815
801.396	0.0124129
801.474	0.0123306
801.552	0.0123497
801.630	0.0124700
801.708	0.0124367
801.786	0.0123932
801.864	0.0123196
801.943	0.0123146
802.021	0.0122462
802.099	0.0124230
802.177	0.0123462
802.255	0.0121930
802.333	0.0123771
802.411	0.0124471
802.489	0.0124757
802.568	0.0122858
802.646	0.0122998
802.724	0.0122168
802.802	0.0122685
802.880	0.0123141
802.958	0.0123447
803.036	0.0123527
803.114	0.0122043
803.193	0.0124130
803.271	0.0124089
803.349	0.0122545
803.427	0.0124271
803.505	0.0124447
803.583	0.0123860
803.661	0.0123115
803.739	0.0122770
803.818	0.0123768
803.896	0.0122973
803.974	0.0122071
804.052	0.0124130
804.130	0.0123839
804.208	0.0122484
804.286	0.0123763
804.364	0.0125170
804.443	0.0123666
804.521	0.0123205
804.599	0.0124210
804.677	0.0123280
804.755	0.0123023
804.833	0.0124185
804.911	0.0124883
804.989	0.0124288
805.068	0.0122999
805.146	0.0123077
805.224	0.0123866
805.302	0.0124098
805.380	0.0123466
805.458	0.0124051
805.536	0.0124545
805.614	0.0123623
805.693	0.0125343
805.771	0.0125049
805.849	0.0122475
805.927	0.0125260
806.005	0.0126026
806.083	0.0124558
806.161	0.0126772
806.239	0.0126268
806.318	0.0125409
806.396	0.0126436
806.474	0.0125286
806.552	0.0125442
806.630	0.0124992
806.708	0.0123833
806.786	0.0125392
806.864	0.0126157
806.943	0.0124522
807.021	0.0124338
807.099	0.0125802
807.177	0.0126089
807.255	0.0125124
807.333	0.0124546
807.411	0.0124112
807.489	0.0123897
807.568	0.0123547
807.646	0.0124121
807.724	0.0123416
807.802	0.0123619
807.880	0.0123730
807.958	0.0123315
808.036	0.0122636
808.114	0.0121815
808.193	0.0123558
808.271	0.0122134
808.349	0.0122192
808.427	0.0123186
808.505	0.0122350
808.583	0.0123248
808.661	0.0122659
808.739	0.0123566
808.818	0.0123023
808.896	0.0123328
808.974	0.0123434
809.052	0.0123226
809.130	0.0124007
809.208	0.0123862
809.286	0.0124194
809.364	0.0122938
809.443	0.0122260
809.521	0.0124188
809.599	0.0123498
809.677	0.0123557
809.755	0.0124604
809.833	0.0123994
809.911	0.0123228
809.989	0.0125197
810.068	0.0124660
810.146	0.0124241
810.224	0.0125670
810.302	0.0125877
810.380	0.0124230
810.458	0.0124760
810.536	0.0125813
810.614	0.0125085
810.693	0.0125947
810.771	0.0125588
810.849	0.0125124
810.927	0.0126516
811.005	0.0125087
811.083	0.0125933
811.161	0.0126876
811.239	0.0125394
811.318	0.0126926
811.396	0.0125837
811.474	0.0125568
811.552	0.0125575
811.630	0.0124369
811.708	0.0123087
811.786	0.0122775
811.864	0.0123249
811.943	0.0125163
812.021	0.0122127
812.099	0.0122552
812.177	0.0123569
812.255	0.0123129
812.333	0.0121315
812.411	0.0121068
812.489	0.0122243
812.568	0.0121320
812.646	0.0123058
812.724	0.0122270
812.802	0.0121636
812.880	0.0123328
812.958	0.0122932
813.036	0.0121979
813.114	0.0123690
813.193	0.0125012
813.271	0.0123325
813.349	0.0124623
813.427	0.0123013
813.505	0.0123285
813.583	0.0124966
813.661	0.0125093
813.739	0.0123493
813.818	0.0125278
813.896	0.0124041
813.974	0.0124052
814.052	0.0124722
814.130	0.0124207
814.208	0.0124795
814.286	0.0124583
814.364	0.0123407
814.443	0.0124029
814.521	0.0124348
814.599	0.0124189
814.677	0.0123901
814.755	0.0124268
814.833	0.0122949
814.911	0.0123846
814.989	0.0125156
815.068	0.0124825
815.146	0.0126389
815.224	0.0125544
815.302	0.0125408
815.380	0.0124168
815.458	0.0125228
815.536	0.0125655
815.614	0.0125440
815.693	0.0123438
815.771	0.0123969
815.849	0.0124692
815.927	0.0125101
816.005	0.0123262
816.083	0.0123009
816.161	0.0122596
816.239	0.0122795
816.318	0.0124108
816.396	0.0123220
816.474	0.0123991
816.552	0.0122034
816.630	0.0122422
816.708	0.0122141
816.786	0.0123431
816.864	0.0122317
816.943	0.0121972
817.021	0.0123336
817.099	0.0122775
817.177	0.0122633
817.255	0.0121152
817.333	0.0121288
817.411	0.0121610
817.489	0.0120341
817.568	0.0121024
817.646	0.0121216
817.724	0.0120514
817.802	0.0121554
817.880	0.0123122
817.958	0.0122089
818.036	0.0121218
818.114	0.0122762
818.193	0.0122514
818.271	0.0120828
818.349	0.0122845
818.427	0.0123615
818.505	0.0124073
818.583	0.0125330
818.661	0.0122884
818.739	0.0125623
818.818	0.0126040
818.896	0.0124007
818.974	0.0125571
819.052	0.0127839
819.130	0.0125535
819.208	0.0123895
819.286	0.0126138
819.364	0.0128323
819.443	0.0127269
819.521	0.0127184
819.599	0.0126378
819.677	0.0126650
819.755	0.0127098
819.833	0.0126457
819.911	0.0126508
819.989	0.0126458
820.068	0.0127044
820.146	0.0125781
820.224	0.0125223
820.302	0.0124606
820.380	0.0124149
820.458	0.0125392
820.536	0.0125618
820.614	0.0124297
820.693	0.0122754
820.771	0.0123540
820.849	0.0123360
820.927	0.0124265
821.005	0.0121691
821.083	0.0122241
821.161	0.0123362
821.239	0.0122578
821.318	0.0121328
821.396	0.0123014
821.474	0.0122740
821.552	0.0121253
821.630	0.0120291
821.708	0.0119860
821.786	0.0121814
821.864	0.0122363
821.943	0.0121530
822.021	0.0120105
822.099	0.0122476
822.177	0.0121983
822.255	0.0120995
822.333	0.0121125
822.411	0.0120690
822.489	0.0121226
822.568	0.0121513
822.646	0.0122745
822.724	0.0121593
822.802	0.0122946
822.880	0.0123365
822.958	0.0121378
823.036	0.0122549
823.114	0.0123289
823.193	0.0123676
823.271	0.0124171
823.349	0.0125195
823.427	0.0124725
823.505	0.0123096
823.583	0.0123816
823.661	0.0124658
823.739	0.0125945
823.818	0.0124555
823.896	0.0124413
823.974	0.0125390
824.052	0.0125605
824.130	0.0126654
824.208	0.0123933
824.286	0.0124953
824.364	0.0126579
824.443	0.0126649
824.521	0.0126932
824.599	0.0126355
824.677	0.0126075
824.755	0.0125586
824.833	0.0125638
824.911	0.0126440
824.989	0.0126453
825.068	0.0125829
825.146	0.0125753
825.224	0.0126555
825.302	0.0126533
825.380	0.0124786
825.458	0.0126115
825.536	0.0125001
825.614	0.0125363
825.693	0.0124022
825.771	0.0124850
825.849	0.0125108
825.927	0.0124819
826.005	0.0125802
826.083	0.0125317
826.161	0.0124839
826.239	0.0123996
826.318	0.0124575
826.396	0.0123847
826.474	0.0122262
826.552	0.0122704
826.630	0.0122868
826.708	0.0122318
826.786	0.0121088
826.864	0.0121363
826.943	0.0122845
827.021	0.0120801
827.099	0.0119762
827.177	0.0120243
827.255	0.0118919
827.333	0.0119203
827.411	0.0119608
827.489	0.0118953
827.568	0.0118446
827.646	0.0120264
827.724	0.0120276
827.802	0.0119190
827.880	0.0118572
827.958	0.0120634
828.036	0.0119769
828.114	0.0121505
828.193	0.0121795
828.271	0.0122471
828.349	0.0122808
828.427	0.0122241
828.505	0.0122979
828.583	0.0126054
828.661	0.0125164
828.739	0.0125114
828.818	0.0126192
828.896	0.0126704
828.974	0.0127259
829.052	0.0129132
829.130	0.0129220
829.208	0.0129450
829.286	0.0128836
829.364	0.0129288
829.443	0.0128983
829.521	0.0129006
829.599	0.0129870
829.677	0.0128870
829.755	0.0128320
829.833	0.0127600
829.911	0.0127776
829.989	0.0126896
830.068	0.0127187
830.146	0.0127072
830.224	0.0126297
830.302	0.0125523
830.380	0.0124439
830.458	0.0124062
830.536	0.0124191
830.614	0.0124378
830.693	0.0123259
830.771	0.0124119
830.849	0.0125412
830.927	0.0122720
831.005	0.0122490
831.083	0.0123290
831.161	0.0122913
831.239	0.0122491
831.318	0.0122260
831.396	0.0122309
831.474	0.0121984
831.552	0.0122535
831.630	0.0122233
831.708	0.0122025
831.786	0.0121481
831.864	0.0122140
831.943	0.0121784
832.021	0.0122517
832.099	0.0122345
832.177	0.0123326
832.255	0.0121147
832.333	0.0122064
832.411	0.0122395
832.489	0.0121577
832.568	0.0121265
832.646	0.0121737
832.724	0.0121852
832.802	0.0122662
832.880	0.0123936
832.958	0.0123093
833.036	0.0123173
833.114	0.0123978
833.193	0.0124525
833.271	0.0123112
833.349	0.0125539
833.427	0.0125515
833.505	0.0125105
833.583	0.0125543
833.661	0.0125911
833.739	0.0126665
833.818	0.0125880
833.896	0.0127073
833.974	0.0128276
834.052	0.0128144
834.130	0.0128207
834.208	0.0128624
834.286	0.0128603
834.364	0.0129244
834.443	0.0127610
834.521	0.0127470
834.599	0.0128915
834.677	0.0129246
834.755	0.0126743
834.833	0.0126803
834.911	0.0127471
834.989	0.0127079
835.068	0.0126127
835.146	0.0126423
835.224	0.0127007
835.302	0.0124976
835.380	0.0125135
835.458	0.0125840
835.536	0.0124115
835.614	0.0124393
835.693	0.0124248
835.771	0.0123360
835.849	0.0122961
835.927	0.0123158
836.005	0.0123566
836.083	0.0122729
836.161	0.0121449
836.239	0.0122897
836.318	0.0121914
836.396	0.0121847
836.474	0.0120946
836.552	0.0121649
836.630	0.0121729
836.708	0.0120992
836.786	0.0121799
836.864	0.0121449
836.943	0.0120325
837.021	0.0120580
837.099	0.0121740
837.177	0.0122771
837.255	0.0121239
837.333	0.0121713
837.411	0.0121927
837.489	0.0121788
837.568	0.0124027
837.646	0.0122548
837.724	0.0122153
837.802	0.0121564
837.880	0.0123881
837.958	0.0123482
838.036	0.0122745
838.114	0.0124831
838.193	0.0124469
838.271	0.0125046
838.349	0.0125414
838.427	0.0125684
838.505	0.0127045
838.583	0.0123763
838.661	0.0126033
838.739	0.0126213
838.818	0.0126271
838.896	0.0125954
838.974	0.0127619
839.052	0.0128150
839.130	0.0126560
839.208	0.0128059
839.286	0.0127050
839.364	0.0128246
839.443	0.0127090
839.521	0.0127806
839.599	0.0127541
839.677	0.0128067
839.755	0.0127632
839.833	0.0126739
839.911	0.0127788
839.989	0.0128018
840.068	0.0126919
840.146	0.0126494
840.224	0.0126688
840.302	0.0125768
840.380	0.0127163
840.458	0.0124081
840.536	0.0124915
840.614	0.0125014
840.693	0.0125011
840.771	0.0126158
840.849	0.0124977
840.927	0.0123650
841.005	0.0123275
841.083	0.0123200
841.161	0.0122662
841.239	0.0122349
841.318	0.0122546
841.396	0.0123219
841.474	0.0122079
841.552	0.0122390
841.630	0.0121955
841.708	0.0121220
841.786	0.0122765
841.864	0.0121438
841.943	0.0121195
842.021	0.0123178
842.099	0.0123588
842.177	0.0123109
842.255	0.0123509
842.333	0.0122096
842.411	0.0122763
842.489	0.0120918
842.568	0.0121314
842.646	0.0123123
842.724	0.0124047
842.802	0.0122507
842.880	0.0122697
842.958	0.0122498
843.036	0.0123278
843.114	0.0123747
843.193	0.0124979
843.271	0.0122901
843.349	0.0125494
843.427	0.0123875
843.505	0.0124858
843.583	0.0123853
843.661	0.0124601
843.739	0.0124341
843.818	0.0125448
843.896	0.0125023
843.974	0.0124613
844.052	0.0125092
844.130	0.0125456
844.208	0.0124277
844.286	0.0125574
844.364	0.0125687
844.443	0.0123736
844.521	0.0125732
844.599	0.0124980
844.677	0.0124757
844.755	0.0124207
844.833	0.0125480
844.911	0.0123199
844.989	0.0123695
845.068	0.0124454
845.146	0.0123326
845.224	0.0123402
845.302	0.0123768
845.380	0.0124670
845.458	0.0123106
845.536	0.0123408
845.614	0.0123164
845.693	0.0124471
845.771	0.0122062
845.849	0.0121950
845.927	0.0123352
846.005	0.0123811
846.083	0.0123061
846.161	0.0123929
846.239	0.0124370
846.318	0.0124383
846.396	0.0124483
846.474	0.0124124
846.552	0.0123829
846.630	0.0124615
846.708	0.0124174
846.786	0.0125377
846.864	0.0124187
846.943	0.0126417
847.021	0.0124766
847.099	0.0125561
847.177	0.0126562
847.255	0.0125764
847.333	0.0124345
847.411	0.0124588
847.489	0.0125452
847.568	0.0125574
847.646	0.0126238
847.724	0.0125684
847.802	0.0124770
847.880	0.0124342
847.958	0.0124757
848.036	0.0124903
848.114	0.0125475
848.193	0.0124413
848.271	0.0123366
848.349	0.0124422
848.427	0.0122856
848.505	0.0121367
848.583	0.0122762
848.661	0.0122794
848.739	0.0123097
848.818	0.0123532
848.896	0.0122701
848.974	0.0121159
849.052	0.0122213
849.130	0.0121622
849.208	0.0122787
849.286	0.0122377
849.364	0.0123358
849.443	0.0122666
849.521	0.0121805
849.599	0.0122533
849.677	0.0122613
849.755	0.0122868
849.833	0.0122057
849.911	0.0120993
849.989	0.0121452
850.068	0.0121738
850.146	0.0122018
850.224	0.0121758
850.302	0.0122578
850.380	0.0122664
850.458	0.0122720
850.536	0.0123691
850.614	0.0123876
850.693	0.0123370
850.771	0.0123557
850.849	0.0123582
850.927	0.0124978
851.005	0.0123537
851.083	0.0125217
851.161	0.0124749
851.239	0.0125553
851.318	0.0125119
851.396	0.0125291
851.474	0.0126307
851.552	0.0127968
851.630	0.0126754
851.708	0.0128106
851.786	0.0127292
851.864	0.0126945
851.943	0.0127370
852.021	0.0125399
852.099	0.0126900
852.177	0.0125805
852.255	0.0126990
852.333	0.0126637
852.411	0.0126227
852.489	0.0126823
852.568	0.0126831
852.646	0.0126183
852.724	0.0125822
852.802	0.0125799
852.880	0.0124523
852.958	0.0125732
853.036	0.0125354
853.114	0.0126649
853.193	0.0124379
853.271	0.0124435
853.349	0.0124829
853.427	0.0126185
853.505	0.0125585
853.583	0.0125208
853.661	0.0123656
853.739	0.0124490
853.818	0.0124925
853.896	0.0123682
853.974	0.0123685
854.052	0.0124342
854.130	0.0123048
854.208	0.0122832
854.286	0.0122572
854.364	0.0122994
854.443	0.0122207
854.521	0.0122684
854.599	0.0122659
854.677	0.0122689
854.755	0.0121589
854.833	0.0121586
854.911	0.0122039
854.989	0.0121738
855.068	0.0123049
855.146	0.0122011
855.224	0.0123138
855.302	0.0120853
855.380	0.0122156
855.458	0.0122205
855.536	0.0123139
855.614	0.0122659
855.693	0.0123583
855.771	0.0123980
855.849	0.0122830
855.927	0.0124444
856.005	0.0124535
856.083	0.0125267
856.161	0.0125508
856.239	0.0125390
856.318	0.0125356
856.396	0.0126751
856.474	0.0124377
856.552	0.0126468
856.630	0.0126495
856.708	0.0126588
856.786	0.0126247
856.864	0.0124232
856.943	0.0124297
857.021	0.0124508
857.099	0.0125280
857.177	0.0124818
857.255	0.0124703
857.333	0.0123508
857.411	0.0123358
857.489	0.0123767
857.568	0.0124356
857.646	0.0124330
857.724	0.0123292
857.802	0.0122531
857.880	0.0123569
857.958	0.0123691
858.036	0.0123528
858.114	0.0122693
858.193	0.0122946
858.271	0.0124397
858.349	0.0125414
858.427	0.0123958
858.505	0.0123837
858.583	0.0122990
858.661	0.0123569
858.739	0.0123392
858.818	0.0122569
858.896	0.0124773
858.974	0.0124570
859.052	0.0125344
859.130	0.0124313
859.208	0.0124643
859.286	0.0123433
859.364	0.0125481
859.443	0.0124278
859.521	0.0123641
859.599	0.0124857
859.677	0.0124430
859.755	0.0124434
859.833	0.0125598
859.911	0.0124874
859.989	0.0124522
860.068	0.0125453
860.146	0.0125445
860.224	0.0126487
860.302	0.0126604
860.380	0.0125827
860.458	0.0126074
860.536	0.0125418
860.614	0.0125619
860.693	0.0125588
860.771	0.0124116
860.849	0.0125053
860.927	0.0124846
861.005	0.0124284
861.083	0.0125636
861.161	0.0123803
861.239	0.0124496
861.318	0.0124442
861.396	0.0125160
861.474	0.0122968
861.552	0.0122823
861.630	0.0123075
861.708	0.0121967
861.786	0.0122749
861.864	0.0124020
861.943	0.0124124
862.021	0.0122470
862.099	0.0121710
862.177	0.0121546
862.255	0.0123049
862.333	0.0120464
862.411	0.0120924
862.489	0.0120883
862.568	0.0121752
862.646	0.0121025
862.724	0.0122322
862.802	0.0122050
862.880	0.0121215
862.958	0.0122719
863.036	0.0123620
863.114	0.0123074
863.193	0.0123834
863.271	0.0123445
863.349	0.0123848
863.427	0.0124069
863.505	0.0126496
863.583	0.0123988
863.661	0.0124652
863.739	0.0125329
863.818	0.0124786
863.896	0.0124596
863.974	0.0124326
864.052	0.0125374
864.130	0.0125918
864.208	0.0124926
864.286	0.0124648
864.364	0.0126420
864.443	0.0126614
864.521	0.0126205
864.599	0.0126006
864.677	0.0126892
864.755	0.0126028
864.833	0.0125968
864.911	0.0124384
864.989	0.0126134
865.068	0.0126354
865.146	0.0124546
865.224	0.0124902
865.302	0.0125542
865.380	0.0125968
865.458	0.0125810
865.536	0.0124131
865.614	0.0124318
865.693	0.0124712
865.771	0.0124657
865.849	0.0124981
865.927	0.0124361
866.005	0.0122990
866.083	0.0124646
866.161	0.0122347
866.239	0.0123011
866.318	0.0122540
866.396	0.0122180
866.474	0.0122183
866.552	0.0123329
866.630	0.0122050
866.708	0.0123438
866.786	0.0121457
866.864	0.0121790
866.943	0.0121358
867.021	0.0122051
867.099	0.0120574
867.177	0.0121642
867.255	0.0120897
867.333	0.0122118
867.411	0.0121519
867.489	0.0122308
867.568	0.0121584
867.646	0.0122659
867.724	0.0121140
867.802	0.0120519
867.880	0.0122983
867.958	0.0121260
868.036	0.0123091
868.114	0.0122537
868.193	0.0122900
868.271	0.0122447
868.349	0.0122717
868.427	0.0121624
868.505	0.0122156
868.583	0.0123385
868.661	0.0123349
868.739	0.0124017
868.818	0.0124463
868.896	0.0125344
868.974	0.0123796
869.052	0.0121617
869.130	0.0125344
869.208	0.0125257
869.286	0.0125906
869.364	0.0125224
869.443	0.0124899
869.521	0.0126176
869.599	0.0126458
869.677	0.0125528
869.755	0.0126745
869.833	0.0126136
869.911	0.0126303
869.989	0.0125748
870.068	0.0127828
870.146	0.0126652
870.224	0.0127092
870.302	0.0125673
870.380	0.0126170
870.458	0.0125558
870.536	0.0126549
870.614	0.0125581
870.693	0.0126450
870.771	0.0125790
870.849	0.0125518
870.927	0.0124775
871.005	0.0124186
871.083	0.0124665
871.161	0.0125381
871.239	0.0125121
871.318	0.0125766
871.396	0.0124752
871.474	0.0124893
871.552	0.0124189
871.630	0.0124623
871.708	0.0123212
871.786	0.0124454
871.864	0.0124240
871.943	0.0123624
872.021	0.0123293
872.099	0.0123634
872.177	0.0124696
872.255	0.0124268
872.333	0.0124707
872.411	0.0122930
872.489	0.0123895
872.568	0.0124160
872.646	0.0122770
872.724	0.0123421
872.802	0.0123763
872.880	0.0123876
872.958	0.0123265
873.036	0.0122570
873.114	0.0122483
873.193	0.0122382
873.271	0.0123395
873.349	0.0122537
873.427	0.0122561
873.505	0.0123245
873.583	0.0121588
873.661	0.0122436
873.739	0.0121152
873.818	0.0122313
873.896	0.0122572
873.974	0.0122105
874.052	0.0121042
874.130	0.0121499
874.208	0.0121526
874.286	0.0121056
874.364	0.0120701
874.443	0.0122497
874.521	0.0121998
874.599	0.0122321
874.677	0.0121797
874.755	0.0122401
874.833	0.0123503
874.911	0.0124420
874.989	0.0121989
875.068	0.0122271
875.146	0.0122054
875.224	0.0122585
875.302	0.0123449
875.380	0.0124545
875.458	0.0123843
875.536	0.0124244
875.614	0.0124439
875.693	0.0124000
875.771	0.0124464
875.849	0.0125232
875.927	0.0124165
876.005	0.0125621
876.083	0.0125871
876.161	0.0125141
876.239	0.0126299
876.318	0.0127239
876.396	0.0124662
876.474	0.0126583
876.552	0.0125505
876.630	0.0126553
876.708	0.0126736
876.786	0.0125907
876.864	0.0127568
876.943	0.0125897
877.021	0.0126781
877.099	0.0125853
877.177	0.0125395
877.255	0.0125867
877.333	0.0124110
877.411	0.0124574
877.489	0.0125074
877.568	0.0125430
877.646	0.0124777
877.724	0.0125567
877.802	0.0124869
877.880	0.0124491
877.958	0.0125056
878.036	0.0124355
878.114	0.0124079
878.193	0.0123604
878.271	0.0123701
878.349	0.0123499
878.427	0.0123265
878.505	0.0122803
878.583	0.0121613
878.661	0.0122810
878.739	0.0122342
878.818	0.0120216
878.896	0.0119040
878.974	0.0120655
879.052	0.0120805
879.130	0.0120966
879.208	0.0120953
879.286	0.0122639
879.364	0.0121909
879.443	0.0120295
879.521	0.0120892
879.599	0.0122562
879.677	0.0122540
879.755	0.0123160
879.833	0.0122555
879.911	0.0122735
879.989	0.0122535
880.068	0.0122175
880.146	0.0123170
880.224	0.0122192
880.302	0.0122002
880.380	0.0122746
880.458	0.0122432
880.536	0.0121308
880.614	0.0121211
880.693	0.0122302
880.771	0.0121899
880.849	0.0122120
880.927	0.0122728
881.005	0.0123975
881.083	0.0124073
881.161	0.0123286
881.239	0.0122815
881.318	0.0125310
881.396	0.0125662
881.474	0.0124715
881.552	0.0125795
881.630	0.0127198
881.708	0.0126283
881.786	0.0125995
881.864	0.0127322
881.943	0.0126868
882.021	0.0126681
882.099	0.0126797
882.177	0.0127384
882.255	0.0127055
882.333	0.0127573
882.411	0.0127465
882.489	0.0126063
882.568	0.0126463
882.646	0.0125433
882.724	0.0126981
882.802	0.0125211
882.880	0.0124602
882.958	0.0123811
883.036	0.0124434
883.114	0.0124413
883.193	0.0124428
883.271	0.0123397
883.349	0.0124161
883.427	0.0123378
883.505	0.0124249
883.583	0.0123021
883.661	0.0124014
883.739	0.0124668
883.818	0.0123682
883.896	0.0123566
883.974	0.0123512
884.052	0.0122982
884.130	0.0124827
884.208	0.0123627
884.286	0.0123360
884.364	0.0123546
884.443	0.0122695
884.521	0.0121724
884.599	0.0122806
884.677	0.0123125
884.755	0.0122380
884.833	0.0123345
884.911	0.0122528
884.989	0.0123603
885.068	0.0122311
885.146	0.0123135
885.224	0.0121735
885.302	0.0124019
885.380	0.0121682
885.458	0.0121863
885.536	0.0122908
885.614	0.0122950
885.693	0.0123325
885.771	0.0122665
885.849	0.0122397
885.927	0.0124335
886.005	0.0122961
886.083	0.0121623
886.161	0.0122338
886.239	0.0122236
886.318	0.0123156
886.396	0.0122665
886.474	0.0123109
886.552	0.0122379
886.630	0.0123710
886.708	0.0123024
886.786	0.0121378
886.864	0.0123220
886.943	0.0122888
887.021	0.0124202
887.099	0.0123940
887.177	0.0121751
887.255	0.0124046
887.333	0.0125192
887.411	0.0124216
887.489	0.0124397
887.568	0.0125719
887.646	0.0125687
887.724	0.0125172
887.802	0.0125336
887.880	0.0125945
887.958	0.0126254
888.036	0.0124619
888.114	0.0126031
888.193	0.0126427
888.271	0.0125382
888.349	0.0126153
888.427	0.0126498
888.505	0.0124976
888.583	0.0125166
888.661	0.0124900
888.739	0.0125157
888.818	0.0125320
888.896	0.0124715
888.974	0.0124043
889.052	0.0122769
889.130	0.0123771
889.208	0.0123950
889.286	0.0122031
889.364	0.0122075
889.443	0.0123387
889.521	0.0122696
889.599	0.0122244
889.677	0.0121317
889.755	0.0122916
889.833	0.0123104
889.911	0.0122689
889.989	0.0123495
890.068	0.0124294
890.146	0.0123364
890.224	0.0124722
890.302	0.0123870
890.380	0.0123776
890.458	0.0123447
890.536	0.0124528
890.614	0.0123154
890.693	0.0124622
890.771	0.0122707
890.849	0.0123012
890.927	0.0121196
891.005	0.0123106
891.083	0.0123817
891.161	0.0121736
891.239	0.0122203
891.318	0.0122411
891.396	0.0122226
891.474	0.0122095
891.552	0.0122427
891.630	0.0121670
891.708	0.0121966
891.786	0.0122086
891.864	0.0123090
891.943	0.0123061
892.021	0.0122648
892.099	0.0122065
892.177	0.0123254
892.255	0.0122618
892.333	0.0123783
892.411	0.0122527
892.489	0.0123883
892.568	0.0123700
892.646	0.0124535
892.724	0.0123563
892.802	0.0125337
892.880	0.0124483
892.958	0.0124059
893.036	0.0124702
893.114	0.0124934
893.193	0.0126488
893.271	0.0125046
893.349	0.0125550
893.427	0.0124818
893.505	0.0124643
893.583	0.0124044
893.661	0.0125217
893.739	0.0124792
893.818	0.0124150
893.896	0.0123042
893.974	0.0125091
894.052	0.0125706
894.130	0.0125897
894.208	0.0124908
894.286	0.0125014
894.364	0.0124841
894.443	0.0124960
894.521	0.0124624
894.599	0.0124309
894.677	0.0126166
894.755	0.0126854
894.833	0.0125545
894.911	0.0125592
894.989	0.0125455
895.068	0.0125932
895.146	0.0127437
895.224	0.0127991
895.302	0.0127670
895.380	0.0127918
895.458	0.0127157
895.536	0.0127217
895.614	0.0126890
895.693	0.0127306
895.771	0.0126174
895.849	0.0127225
895.927	0.0126701
896.005	0.0126011
896.083	0.0125257
896.161	0.0126518
896.239	0.0126284
896.318	0.0125249
896.396	0.0125166
896.474	0.0126455
896.552	0.0124554
896.630	0.0124615
896.708	0.0122816
896.786	0.0124877
896.864	0.0124750
896.943	0.0121869
897.021	0.0125691
897.099	0.0123643
897.177	0.0123128
897.255	0.0123624
897.333	0.0123132
897.411	0.0123370
897.489	0.0122408
897.568	0.0122377
897.646	0.0122059
897.724	0.0121615
897.802	0.0121523
897.880	0.0122786
897.958	0.0120802
898.036	0.0121194
898.114	0.0121510
898.193	0.0119358
898.271	0.0121349
898.349	0.0121304
898.427	0.0121815
898.505	0.0121765
898.583	0.0122456
898.661	0.0121517
898.739	0.0121861
898.818	0.0121284
898.896	0.0122832
898.974	0.0122673
899.052	0.0122456
899.130	0.0122164
899.208	0.0122401
899.286	0.0121804
899.364	0.0122348
899.443	0.0123025
899.521	0.0121069
899.599	0.0123212
899.677	0.0122775
899.755	0.0120715
899.833	0.0121889
899.911	0.0121733
899.989	0.0121361
900.068	0.0122644
900.146	0.0123508
900.224	0.0123330
900.302	0.0122623
900.380	0.0121986
900.458	0.0123560
900.536	0.0124424
900.614	0.0125150
900.693	0.0124888
900.771	0.0123648
900.849	0.0122832
900.927	0.0123155
901.005	0.0125281
901.083	0.0124422
901.161	0.0125246
901.239	0.0125639
901.318	0.0124586
901.396	0.0122874
901.474	0.0122365
901.552	0.0123703
901.630	0.0124813
901.708	0.0122787
901.786	0.0122245
901.864	0.0122017
901.943	0.0122964
902.021	0.0122635
902.099	0.0123138
902.177	0.0121666
902.255	0.0121860
902.333	0.0122369
902.411	0.0122663
902.489	0.0121618
902.568	0.0122876
902.646	0.0123804
902.724	0.0122577
902.802	0.0122758
902.880	0.0122050
902.958	0.0123276
903.036	0.0123553
903.114	0.0122884
903.193	0.0122070
903.271	0.0123218
903.349	0.0124486
903.427	0.0122881
903.505	0.0122649
903.583	0.0125061
903.661	0.0124330
903.739	0.0124138
903.818	0.0123039
903.896	0.0122237
903.974	0.0123907
904.052	0.0124194
904.130	0.0125020
904.208	0.0123788
904.286	0.0124586
904.364	0.0124858
904.443	0.0124696
904.521	0.0124636
904.599	0.0124840
904.677	0.0123647
904.755	0.0123864
904.833	0.0124901
904.911	0.0124187
904.989	0.0124286
905.068	0.0124569
905.146	0.0123954
905.224	0.0124645
905.302	0.0124146
905.380	0.0125144
905.458	0.0125773
905.536	0.0124323
905.614	0.0123106
905.693	0.0124168
905.771	0.0124615
905.849	0.0126311
905.927	0.0124805
906.005	0.0124686
906.083	0.0124388
906.161	0.0124805
906.239	0.0124738
906.318	0.0124561
906.396	0.0123277
906.474	0.0122624
906.552	0.0123421
906.630	0.0124377
906.708	0.0123140
906.786	0.0123215
906.864	0.0123953
906.943	0.0122320
907.021	0.0121835
907.099	0.0121911
907.177	0.0123268
907.255	0.0122315
907.333	0.0122595
907.411	0.0123402
907.489	0.0123100
907.568	0.0121725
907.646	0.0122593
907.724	0.0122571
907.802	0.0124007
907.880	0.0123396
907.958	0.0123870
908.036	0.0124081
908.114	0.0122896
908.193	0.0124295
908.271	0.0125974
908.349	0.0124622
908.427	0.0123888
908.505	0.0125972
908.583	0.0126382
908.661	0.0126348
908.739	0.0125908
908.818	0.0126376
908.896	0.0124937
908.974	0.0124369
909.052	0.0124847
909.130	0.0125955
909.208	0.0125381
909.286	0.0125418
909.364	0.0125787
909.443	0.0125886
909.521	0.0124426
909.599	0.0123911
909.677	0.0124423
909.755	0.0123207
909.833	0.0123339
909.911	0.0124363
909.989	0.0123500
910.068	0.0122745
910.146	0.0122480
910.224	0.0121976
910.302	0.0122472
910.380	0.0121826
910.458	0.0122348
910.536	0.0122155
910.614	0.0123730
910.693	0.0122758
910.771	0.0122745
910.849	0.0122297
910.927	0.0122222
911.005	0.0123712
911.083	0.0123572
911.161	0.0124460
911.239	0.0125473
911.318	0.0125542
911.396	0.0123457
911.474	0.0124702
911.552	0.0124779
911.630	0.0124799
911.708	0.0124671
911.786	0.0124284
911.864	0.0123613
911.943	0.0124780
912.021	0.0124258
912.099	0.0123101
912.177	0.0124005
912.255	0.0123027
912.333	0.0122588
912.411	0.0123873
912.489	0.0123410
912.568	0.0123211
912.646	0.0123605
912.724	0.0123156
912.802	0.0123120
912.880	0.0123267
912.958	0.0123570
913.036	0.0122465
913.114	0.0125266
913.193	0.0123814
913.271	0.0123399
913.349	0.0123510
913.427	0.0124720
913.505	0.0124086
913.583	0.0122658
913.661	0.0122963
913.739	0.0124450
913.818	0.0125739
913.896	0.0125937
913.974	0.0125427
914.052	0.0125436
914.130	0.0125261
914.208	0.0125042
914.286	0.0124907
914.364	0.0125361
914.443	0.0125208
914.521	0.0124961
914.599	0.0125328
914.677	0.0125698
914.755	0.0125404
914.833	0.0123528
914.911	0.0124036
914.989	0.0123561
915.068	0.0124154
915.146	0.0124749
915.224	0.0124875
915.302	0.0124907
915.380	0.0124955
915.458	0.0123981
915.536	0.0124693
915.614	0.0123057
915.693	0.0123643
915.771	0.0124732
915.849	0.0122976
915.927	0.0126115
916.005	0.0124485
916.083	0.0124064
916.161	0.0125108
916.239	0.0124696
916.318	0.0123870
916.396	0.0124302
916.474	0.0124746
916.552	0.0125478
916.630	0.0124671
916.708	0.0125460
916.786	0.0125516
916.864	0.0124260
916.943	0.0124133
917.021	0.0125980
917.099	0.0123735
917.177	0.0125936
917.255	0.0124127
917.333	0.0125439
917.411	0.0123297
917.489	0.0124607
917.568	0.0125113
917.646	0.0123221
917.724	0.0124568
917.802	0.0123916
917.880	0.0123853
917.958	0.0124748
918.036	0.0124579
918.114	0.0124526
918.193	0.0123783
918.271	0.0123826
918.349	0.0123629
918.427	0.0124918
918.505	0.0124974
918.583	0.0124864
918.661	0.0123209
918.739	0.0122791
918.818	0.0123112
918.896	0.0123318
918.974	0.0124049
919.052	0.0122614
919.130	0.0121468
919.208	0.0124416
919.286	0.0124181
919.364	0.0122893
919.443	0.0123206
919.521	0.0123057
919.599	0.0123862
919.677	0.0122522
919.755	0.0123605
919.833	0.0123064
919.911	0.0123740
919.989	0.0124136
920.068	0.0123490
920.146	0.0123614
920.224	0.0123702
920.302	0.0123901
920.380	0.0124423
920.458	0.0124736
920.536	0.0123313
920.614	0.0124000
920.693	0.0123700
920.771	0.0123729
920.849	0.0122081
920.927	0.0123354
921.005	0.0124011
921.083	0.0123323
921.161	0.0123318
921.239	0.0122932
921.318	0.0123326
921.396	0.0124626
921.474	0.0123880
921.552	0.0124390
921.630	0.0123183
921.708	0.0122765
921.786	0.0123708
921.864	0.0123640
921.943	0.0124728
922.021	0.0126031
922.099	0.0124939
922.177	0.0124273
922.255	0.0124909
922.333	0.0124261
922.411	0.0124071
922.489	0.0123766
922.568	0.0123938
922.646	0.0124246
922.724	0.0124353
922.802	0.0124020
922.880	0.0124422
922.958	0.0124700
923.036	0.0123167
923.114	0.0123280
923.193	0.0122598
923.271	0.0122716
923.349	0.0121977
923.427	0.0124316
923.505	0.0122556
923.583	0.0122894
923.661	0.0122331
923.739	0.0122508
923.818	0.0121169
923.896	0.0122084
923.974	0.0121729
924.052	0.0121715
924.130	0.0122417
924.208	0.0123077
924.286	0.0121101
924.364	0.0122697
924.443	0.0124162
924.521	0.0124062
924.599	0.0122630
924.677	0.0124269
924.755	0.0122633
924.833	0.0123286
924.911	0.0123782
924.989	0.0123188
925.068	0.0123154
925.146	0.0123574
925.224	0.0125213
925.302	0.0123666
925.380	0.0123425
925.458	0.0120659
925.536	0.0123224
925.614	0.0123360
925.693	0.0123572
925.771	0.0123260
925.849	0.0123564
925.927	0.0123196
926.005	0.0124749
926.083	0.0123540
926.161	0.0123985
926.239	0.0125444
926.318	0.0123469
926.396	0.0124343
926.474	0.0124255
926.552	0.0123183
926.630	0.0123941
926.708	0.0123508
926.786	0.0125262
926.864	0.0125873
926.943	0.0123528
927.021	0.0124101
927.099	0.0124912
927.177	0.0123203
927.255	0.0123992
927.333	0.0123464
927.411	0.0123275
927.489	0.0123739
927.568	0.0123946
927.646	0.0123576
927.724	0.0121753
927.802	0.0123631
927.880	0.0124715
927.958	0.0124198
928.036	0.0124969
928.114	0.0124137
928.193	0.0123576
928.271	0.0123345
928.349	0.0124230
928.427	0.0124511
928.505	0.0125108
928.583	0.0123028
928.661	0.0122723
928.739	0.0124569
928.818	0.0123779
928.896	0.0123680
928.974	0.0123024
929.052	0.0124899
929.130	0.0124118
929.208	0.0124279
929.286	0.0123491
929.364	0.0122805
929.443	0.0124858
929.521	0.0123628
929.599	0.0122192
929.677	0.0123029
929.755	0.0123352
929.833	0.0122755
929.911	0.0122538
929.989	0.0123257
930.068	0.0123191
930.146	0.0124769
930.224	0.0123328
930.302	0.0122611
930.380	0.0122141
930.458	0.0122593
930.536	0.0123404
930.614	0.0122840
930.693	0.0123306
930.771	0.0123206
930.849	0.0123282
930.927	0.0123737
931.005	0.0124734
931.083	0.0124393
931.161	0.0122646
931.239	0.0124918
931.318	0.0124561
931.396	0.0124889
931.474	0.0124038
931.552	0.0124377
931.630	0.0123483
931.708	0.0123875
931.786	0.0123350
931.864	0.0123137
931.943	0.0124744
932.021	0.0124496
932.099	0.0124335
932.177	0.0125541
932.255	0.0124542
932.333	0.0124013
932.411	0.0125828
932.489	0.0123794
932.568	0.0124361
932.646	0.0124824
932.724	0.0124582
932.802	0.0124841
932.880	0.0125455
932.958	0.0125719
933.036	0.0125379
933.114	0.0125803
933.193	0.0124527
933.271	0.0125330
933.349	0.0125194
933.427	0.0123963
933.505	0.0124532
933.583	0.0124467
933.661	0.0125669
933.739	0.0124895
933.818	0.0123922
933.896	0.0124146
933.974	0.0125830
934.052	0.0125483
934.130	0.0124904
934.208	0.0123363
934.286	0.0124728
934.364	0.0124776
934.443	0.0125764
934.521	0.0124534
934.599	0.0124191
934.677	0.0123652
934.755	0.0124825
934.833	0.0125192
934.911	0.0123894
934.989	0.0122364
935.068	0.0123570
935.146	0.0123540
935.224	0.0123510
935.302	0.0123750
935.380	0.0124507
935.458	0.0124117
935.536	0.0122978
935.614	0.0124512
935.693	0.0123821
935.771	0.0122942
935.849	0.0124803
935.927	0.0124853
936.005	0.0123086
936.083	0.0123572
936.161	0.0124610
936.239	0.0124268
936.318	0.0125264
936.396	0.0124420
936.474	0.0124655
936.552	0.0124246
936.630	0.0125665
936.708	0.0125685
936.786	0.0124842
936.864	0.0125775
936.943	0.0125652
937.021	0.0126067
937.099	0.0125967
937.177	0.0124988
937.255	0.0124583
937.333	0.0126146
937.411	0.0126298
937.489	0.0124594
937.568	0.0123821
937.646	0.0123705
937.724	0.0125230
937.802	0.0125609
937.880	0.0124826
937.958	0.0124391
938.036	0.0124226
938.114	0.0124567
938.193	0.0123937
938.271	0.0124684
938.349	0.0123389
938.427	0.0123265
938.505	0.0123566
938.583	0.0123759
938.661	0.0123477
938.739	0.0123461
938.818	0.0122663
938.896	0.0122588
938.974	0.0123271
939.052	0.0123061
939.130	0.0123502
939.208	0.0122838
939.286	0.0122247
939.364	0.0123132
939.443	0.0122723
939.521	0.0122909
939.599	0.0122779
939.677	0.0123840
939.755	0.0123703
939.833	0.0123956
939.911	0.0125115
939.989	0.0124120
940.068	0.0125080
940.146	0.0124968
940.224	0.0124046
940.302	0.0124141
940.380	0.0124274
940.458	0.0124100
940.536	0.0125835
940.614	0.0126381
940.693	0.0124746
940.771	0.0124383
940.849	0.0125535
940.927	0.0123833
941.005	0.0121747
941.083	0.0123493
941.161	0.0124271
941.239	0.0122794
941.318	0.0122292
941.396	0.0122693
941.474	0.0122304
941.552	0.0124386
941.630	0.0123654
941.708	0.0122487
941.786	0.0122861
941.864	0.0124495
941.943	0.0123396
942.021	0.0124255
942.099	0.0123610
942.177	0.0123824
942.255	0.0124818
942.333	0.0124549
942.411	0.0124535
942.489	0.0124162
942.568	0.0125248
942.646	0.0124641
942.724	0.0123632
942.802	0.0125711
942.880	0.0125822
942.958	0.0125751
943.036	0.0126039
943.114	0.0125219
943.193	0.0125367
943.271	0.0125369
943.349	0.0126553
943.427	0.0126943
943.505	0.0124531
943.583	0.0124900
943.661	0.0123183
943.739	0.0123663
943.818	0.0124271
943.896	0.0125140
943.974	0.0124767
944.052	0.0123513
944.130	0.0124462
944.208	0.0125872
944.286	0.0124705
944.364	0.0124406
944.443	0.0124132
944.521	0.0124819
944.599	0.0124932
944.677	0.0123522
944.755	0.0124434
944.833	0.0125909
944.911	0.0124519
944.989	0.0124482
945.068	0.0124332
945.146	0.0124906
945.224	0.0124625
945.302	0.0125717
945.380	0.0125187
945.458	0.0125413
945.536	0.0126511
945.614	0.0125215
945.693	0.0123301
945.771	0.0124493
945.849	0.0125515
945.927	0.0124731
946.005	0.0124516
946.083	0.0124458
946.161	0.0125887
946.239	0.0124917
946.318	0.0125010
946.396	0.0124879
946.474	0.0125513
946.552	0.0123409
946.630	0.0123875
946.708	0.0124680
946.786	0.0122425
946.864	0.0123710
946.943	0.0123479
947.021	0.0124657
947.099	0.0123639
947.177	0.0124780
947.255	0.0123683
947.333	0.0123589
947.411	0.0123765
947.489	0.0123278
947.568	0.0123050
947.646	0.0123739
947.724	0.0124026
947.802	0.0124009
947.880	0.0124482
947.958	0.0124346
948.036	0.0123589
948.114	0.0124838
948.193	0.0125870
948.271	0.0123992
948.349	0.0123753
948.427	0.0125092
948.505	0.0124412
948.583	0.0124750
948.661	0.0124998
948.739	0.0125868
948.818	0.0125356
948.896	0.0124250
948.974	0.0124559
949.052	0.0126298
949.130	0.0126182
949.208	0.0125986
949.286	0.0126432
949.364	0.0124830
949.443	0.0124061
949.521	0.0124359
949.599	0.0125497
949.677	0.0124485
949.755	0.0124709
949.833	0.0123825
949.911	0.0122757
949.989	0.0123875
950.068	0.0122671
950.146	0.0123785
950.224	0.0123066
950.302	0.0123644
950.380	0.0123271
950.458	0.0122401
950.536	0.0121699
950.614	0.0122241
950.693	0.0122179
950.771	0.0122569
950.849	0.0123093
950.927	0.0122062
951.005	0.0122137
951.083	0.0123803
951.161	0.0123428
951.239	0.0122147
951.318	0.0123252
951.396	0.0123102
951.474	0.0123811
951.552	0.0123245
951.630	0.0124680
951.708	0.0122279
951.786	0.0122047
951.864	0.0122620
951.943	0.0123008
952.021	0.0123428
952.099	0.0122487
952.177	0.0122784
952.255	0.0123662
952.333	0.0124026
952.411	0.0122488
952.489	0.0122549
952.568	0.0121851
952.646	0.0123762
952.724	0.0124760
952.802	0.0122604
952.880	0.0123918
952.958	0.0123845
953.036	0.0123874
953.114	0.0124049
953.193	0.0124974
953.271	0.0122666
953.349	0.0123215
953.427	0.0123666
953.505	0.0125181
953.583	0.0123634
953.661	0.0124361
953.739	0.0124705
953.818	0.0124893
953.896	0.0124181
953.974	0.0124615
954.052	0.0124891
954.130	0.0125230
954.208	0.0124415
954.286	0.0124191
954.364	0.0124792
954.443	0.0123435
954.521	0.0123251
954.599	0.0123576
954.677	0.0124035
954.755	0.0123961
954.833	0.0124277
954.911	0.0123212
954.989	0.0124540
955.068	0.0124384
955.146	0.0124682
955.224	0.0125180
955.302	0.0126181
955.380	0.0125095
955.458	0.0127126
955.536	0.0126823
955.614	0.0125820
955.693	0.0126546
955.771	0.0125488
955.849	0.0124760
955.927	0.0125556
956.005	0.0123888
956.083	0.0122905
956.161	0.0123038
956.239	0.0122018
956.318	0.0122029
956.396	0.0121877
956.474	0.0123596
956.552	0.0124861
956.630	0.0122850
956.708	0.0123174
956.786	0.0124339
956.864	0.0124147
956.943	0.0125127
957.021	0.0125166
957.099	0.0124680
957.177	0.0124564
957.255	0.0125652
957.333	0.0123394
957.411	0.0124310
957.489	0.0124723
957.568	0.0122640
957.646	0.0122591
957.724	0.0124998
957.802	0.0123392
957.880	0.0123135
957.958	0.0123740
958.036	0.0122442
958.114	0.0122095
958.193	0.0123967
958.271	0.0122736
958.349	0.0122338
958.427	0.0123451
958.505	0.0124944
958.583	0.0124863
958.661	0.0124480
958.739	0.0125751
958.818	0.0125660
958.896	0.0126788
958.974	0.0126164
959.052	0.0124417
959.130	0.0123014
959.208	0.0124434
959.286	0.0124783
959.364	0.0124350
959.443	0.0123458
959.521	0.0123232
959.599	0.0123110
959.677	0.0122845
959.755	0.0123011
959.833	0.0120917
959.911	0.0122766
