05/07/2022	17:45:23	Ver.	4.1	UNKNOWN
Optical Delay	639.989416	Delta X		0.078125	Sweeps	1	Scan Rate	0/0
Coordinates	Axis 1	NaN	Axis 2	NaN	Axis 3	NaN	Axis 4	NaN	Axis 5	NaN	Axis 6	0.000000
TX Power	0.000000	RX Power	0.000000

639.989	0.0132491
640.068	0.0132727
640.146	0.0131454
640.224	0.0133412
640.302	0.0134353
640.380	0.0133516
640.458	0.0133146
640.536	0.0131982
640.614	0.0134473
640.693	0.0133926
640.771	0.0132966
640.849	0.0133468
640.927	0.0133131
641.005	0.0134724
641.083	0.0132552
641.161	0.0133324
641.239	0.0134049
641.318	0.0132687
641.396	0.0132728
641.474	0.0131661
641.552	0.0133206
641.630	0.0132661
641.708	0.0132327
641.786	0.0132745
641.864	0.0132174
641.943	0.0132246
642.021	0.0131479
642.099	0.0131361
642.177	0.0132446
642.255	0.0131126
642.333	0.0132182
642.411	0.0130836
642.489	0.0129335
642.568	0.0129990
642.646	0.0131216
642.724	0.0131075
642.802	0.0130862
642.880	0.0132185
642.958	0.0133379
643.036	0.0133144
643.114	0.0132072
643.193	0.0131492
643.271	0.0132425
643.349	0.0133527
643.427	0.0133824
643.505	0.0134093
643.583	0.0133581
643.661	0.0132565
643.739	0.0133601
643.818	0.0133412
643.896	0.0132614
643.974	0.0130999
644.052	0.0130855
644.130	0.0132700
644.208	0.0131474
644.286	0.0132128
644.364	0.0131195
644.443	0.0130473
644.521	0.0130733
644.599	0.0129034
644.677	0.0128746
644.755	0.0128107
644.833	0.0129646
644.911	0.0128938
644.989	0.0128932
645.068	0.0129258
645.146	0.0129424
645.224	0.0129381
645.302	0.0129111
645.380	0.0129966
645.458	0.0131419
645.536	0.0131223
645.614	0.0131328
645.693	0.0131828
645.771	0.0132584
645.849	0.0133166
645.927	0.0131963
646.005	0.0134648
646.083	0.0132623
646.161	0.0135323
646.239	0.0134860
646.318	0.0134837
646.396	0.0135339
646.474	0.0135374
646.552	0.0135939
646.630	0.0136169
646.708	0.0136677
646.786	0.0135900
646.864	0.0137328
646.943	0.0134808
647.021	0.0135000
647.099	0.0134593
647.177	0.0133912
647.255	0.0132485
647.333	0.0132845
647.411	0.0131240
647.489	0.0130190
647.568	0.0129571
647.646	0.0129186
647.724	0.0128863
647.802	0.0128838
647.880	0.0128030
647.958	0.0128321
648.036	0.0127556
648.114	0.0128029
648.193	0.0130040
648.271	0.0130347
648.349	0.0128201
648.427	0.0129064
648.505	0.0130977
648.583	0.0129226
648.661	0.0129465
648.739	0.0130245
648.818	0.0130270
648.896	0.0131731
648.974	0.0131735
649.052	0.0132394
649.130	0.0133215
649.208	0.0134748
649.286	0.0135750
649.364	0.0136687
649.443	0.0137136
649.521	0.0135953
649.599	0.0137601
649.677	0.0138415
649.755	0.0139846
649.833	0.0139334
649.911	0.0139391
649.989	0.0142562
650.068	0.0139265
650.146	0.0139992
650.224	0.0138703
650.302	0.0139993
650.380	0.0140050
650.458	0.0139137
650.536	0.0139886
650.614	0.0138653
650.693	0.0137838
650.771	0.0137513
650.849	0.0136666
650.927	0.0135463
651.005	0.0135130
651.083	0.0134782
651.161	0.0133196
651.239	0.0132708
651.318	0.0132044
651.396	0.0131631
651.474	0.0130179
651.552	0.0130301
651.630	0.0128739
651.708	0.0128068
651.786	0.0127465
651.864	0.0128580
651.943	0.0127069
652.021	0.0125410
652.099	0.0125780
652.177	0.0124787
652.255	0.0124196
652.333	0.0124941
652.411	0.0124622
652.489	0.0123637
652.568	0.0123927
652.646	0.0123631
652.724	0.0125474
652.802	0.0127102
652.880	0.0127192
652.958	0.0128265
653.036	0.0130092
653.114	0.0131732
653.193	0.0133438
653.271	0.0136200
653.349	0.0136766
653.427	0.0137643
653.505	0.0139619
653.583	0.0141392
653.661	0.0142605
653.739	0.0144044
653.818	0.0145051
653.896	0.0146848
653.974	0.0145834
654.052	0.0146616
654.130	0.0147510
654.208	0.0148573
654.286	0.0149832
654.364	0.0148058
654.443	0.0146791
654.521	0.0147529
654.599	0.0147622
654.677	0.0145385
654.755	0.0143882
654.833	0.0141087
654.911	0.0140582
654.989	0.0138338
655.068	0.0135801
655.146	0.0134995
655.224	0.0131603
655.302	0.0128772
655.380	0.0125479
655.458	0.0124827
655.536	0.0122905
655.614	0.0121958
655.693	0.0120262
655.771	0.0119254
655.849	0.0117669
655.927	0.0115963
656.005	0.0115856
656.083	0.0115072
656.161	0.0114883
656.239	0.0114674
656.318	0.0114340
656.396	0.0115795
656.474	0.0116576
656.552	0.0117117
656.630	0.0117251
656.708	0.0119183
656.786	0.0122735
656.864	0.0122915
656.943	0.0125191
657.021	0.0126426
657.099	0.0130148
657.177	0.0133625
657.255	0.0133987
657.333	0.0136330
657.411	0.0139188
657.489	0.0142068
657.568	0.0142743
657.646	0.0145683
657.724	0.0148199
657.802	0.0149525
657.880	0.0151206
657.958	0.0151600
658.036	0.0154311
658.114	0.0155396
658.193	0.0155266
658.271	0.0155949
658.349	0.0156821
658.427	0.0157552
658.505	0.0155979
658.583	0.0153758
658.661	0.0153571
658.739	0.0151099
658.818	0.0151028
658.896	0.0149030
658.974	0.0145446
659.052	0.0144114
659.130	0.0141246
659.208	0.0138926
659.286	0.0133663
659.364	0.0132829
659.443	0.0130858
659.521	0.0126931
659.599	0.0122655
659.677	0.0121108
659.755	0.0117513
659.833	0.0113380
659.911	0.0110204
659.989	0.0109486
660.068	0.0108111
660.146	0.0107095
660.224	0.0105087
660.302	0.0104644
660.380	0.0104662
660.458	0.0104668
660.536	0.0105453
660.614	0.0105364
660.693	0.0107257
660.771	0.0108018
660.849	0.0110273
660.927	0.0113043
661.005	0.0116411
661.083	0.0118176
661.161	0.0121679
661.239	0.0124841
661.318	0.0127739
661.396	0.0130373
661.474	0.0133750
661.552	0.0139037
661.630	0.0140887
661.708	0.0143308
661.786	0.0146775
661.864	0.0149973
661.943	0.0151390
662.021	0.0155026
662.099	0.0157563
662.177	0.0161277
662.255	0.0160960
662.333	0.0162173
662.411	0.0163258
662.489	0.0163954
662.568	0.0164329
662.646	0.0163371
662.724	0.0162383
662.802	0.0161786
662.880	0.0162028
662.958	0.0159023
663.036	0.0156533
663.114	0.0152692
663.193	0.0152080
663.271	0.0147678
663.349	0.0145069
663.427	0.0141619
663.505	0.0136951
663.583	0.0133424
663.661	0.0130050
663.739	0.0126520
663.818	0.0122909
663.896	0.0120576
663.974	0.0114999
664.052	0.0112643
664.130	0.0110884
664.208	0.0107055
664.286	0.0103625
664.364	0.0101015
664.443	0.00994019
664.521	0.00976906
664.599	0.00967476
664.677	0.00962471
664.755	0.00977524
664.833	0.00959694
664.911	0.00975662
664.989	0.0102476
665.068	0.0101195
665.146	0.0102932
665.224	0.0108858
665.302	0.0110660
665.380	0.0114211
665.458	0.0118934
665.536	0.0122308
665.614	0.0125600
665.693	0.0131455
665.771	0.0135809
665.849	0.0138566
665.927	0.0142705
666.005	0.0146317
666.083	0.0149197
666.161	0.0151354
666.239	0.0154501
666.318	0.0157894
666.396	0.0160838
666.474	0.0163289
666.552	0.0164890
666.630	0.0165125
666.708	0.0164503
666.786	0.0165320
666.864	0.0165273
666.943	0.0164542
667.021	0.0162249
667.099	0.0161429
667.177	0.0160651
667.255	0.0159496
667.333	0.0155743
667.411	0.0152258
667.489	0.0149483
667.568	0.0147770
667.646	0.0143996
667.724	0.0141893
667.802	0.0137056
667.880	0.0133868
667.958	0.0131741
668.036	0.0129714
668.114	0.0127154
668.193	0.0124188
668.271	0.0122065
668.349	0.0118411
668.427	0.0117072
668.505	0.0114344
668.583	0.0111964
668.661	0.0109953
668.739	0.0108552
668.818	0.0108900
668.896	0.0107043
668.974	0.0107521
669.052	0.0106547
669.130	0.0105006
669.208	0.0107542
669.286	0.0107314
669.364	0.0108720
669.443	0.0109863
669.521	0.0110357
669.599	0.0112584
669.677	0.0116113
669.755	0.0117365
669.833	0.0119890
669.911	0.0121672
669.989	0.0125713
670.068	0.0128298
670.146	0.0131441
670.224	0.0133275
670.302	0.0137488
670.380	0.0141629
670.458	0.0143044
670.536	0.0146581
670.614	0.0148173
670.693	0.0150370
670.771	0.0152965
670.849	0.0155632
670.927	0.0154997
671.005	0.0156257
671.083	0.0157373
671.161	0.0157446
671.239	0.0157265
671.318	0.0156606
671.396	0.0156035
671.474	0.0153963
671.552	0.0152462
671.630	0.0150676
671.708	0.0148759
671.786	0.0146894
671.864	0.0144977
671.943	0.0142259
672.021	0.0138568
672.099	0.0136202
672.177	0.0133662
672.255	0.0133176
672.333	0.0129630
672.411	0.0126605
672.489	0.0126033
672.568	0.0123917
672.646	0.0120688
672.724	0.0120914
672.802	0.0120987
672.880	0.0119867
672.958	0.0119261
673.036	0.0119195
673.114	0.0120007
673.193	0.0120300
673.271	0.0121199
673.349	0.0122273
673.427	0.0122102
673.505	0.0126299
673.583	0.0126283
673.661	0.0126761
673.739	0.0129845
673.818	0.0130841
673.896	0.0132517
673.974	0.0133557
674.052	0.0134637
674.130	0.0135648
674.208	0.0136497
674.286	0.0136347
674.364	0.0136831
674.443	0.0137355
674.521	0.0137350
674.599	0.0137131
674.677	0.0136230
674.755	0.0137214
674.833	0.0135284
674.911	0.0134370
674.989	0.0134018
675.068	0.0133954
675.146	0.0132999
675.224	0.0132030
675.302	0.0131375
675.380	0.0131400
675.458	0.0130093
675.536	0.0128756
675.614	0.0129763
675.693	0.0130854
675.771	0.0129245
675.849	0.0130252
675.927	0.0128506
676.005	0.0128695
676.083	0.0129526
676.161	0.0127719
676.239	0.0128452
676.318	0.0129731
676.396	0.0130150
676.474	0.0129840
676.552	0.0130122
676.630	0.0131244
676.708	0.0131165
676.786	0.0133148
676.864	0.0133648
676.943	0.0134259
677.021	0.0134543
677.099	0.0135635
677.177	0.0137100
677.255	0.0136481
677.333	0.0137034
677.411	0.0137787
677.489	0.0138231
677.568	0.0137981
677.646	0.0138235
677.724	0.0138200
677.802	0.0139600
677.880	0.0139153
677.958	0.0139089
678.036	0.0138966
678.114	0.0139594
678.193	0.0138855
678.271	0.0138548
678.349	0.0138967
678.427	0.0138560
678.505	0.0138102
678.583	0.0139768
678.661	0.0138612
678.739	0.0138209
678.818	0.0140267
678.896	0.0138159
678.974	0.0137822
679.052	0.0138485
679.130	0.0137200
679.208	0.0135646
679.286	0.0135647
679.364	0.0135323
679.443	0.0134379
679.521	0.0133595
679.599	0.0132284
679.677	0.0131432
679.755	0.0130288
679.833	0.0129678
679.911	0.0127639
679.989	0.0126112
680.068	0.0125107
680.146	0.0125620
680.224	0.0123834
680.302	0.0121435
680.380	0.0120583
680.458	0.0120318
680.536	0.0117905
680.614	0.0119410
680.693	0.0118546
680.771	0.0118845
680.849	0.0118830
680.927	0.0119110
681.005	0.0120679
681.083	0.0121513
681.161	0.0120794
681.239	0.0123423
681.318	0.0124524
681.396	0.0126664
681.474	0.0127303
681.552	0.0128857
681.630	0.0130864
681.708	0.0131884
681.786	0.0134840
681.864	0.0136577
681.943	0.0137910
682.021	0.0141081
682.099	0.0140983
682.177	0.0144220
682.255	0.0144663
682.333	0.0145947
682.411	0.0147286
682.489	0.0147009
682.568	0.0148337
682.646	0.0148583
682.724	0.0148173
682.802	0.0149001
682.880	0.0147444
682.958	0.0147713
683.036	0.0147552
683.114	0.0144444
683.193	0.0144267
683.271	0.0144080
683.349	0.0142629
683.427	0.0140430
683.505	0.0139645
683.583	0.0136529
683.661	0.0134868
683.739	0.0136600
683.818	0.0135572
683.896	0.0134467
683.974	0.0132949
684.052	0.0132664
684.130	0.0130341
684.208	0.0128935
684.286	0.0129321
684.364	0.0129824
684.443	0.0128521
684.521	0.0129878
684.599	0.0129365
684.677	0.0129853
684.755	0.0131234
684.833	0.0130207
684.911	0.0131355
684.989	0.0131012
685.068	0.0131582
685.146	0.0133183
685.224	0.0133105
685.302	0.0133961
685.380	0.0132517
685.458	0.0133200
685.536	0.0132300
685.614	0.0132298
685.693	0.0132286
685.771	0.0130423
685.849	0.0128999
685.927	0.0128418
686.005	0.0128085
686.083	0.0126675
686.161	0.0125696
686.239	0.0124982
686.318	0.0126530
686.396	0.0125674
686.474	0.0124120
686.552	0.0123423
686.630	0.0122929
686.708	0.0122733
686.786	0.0124634
686.864	0.0125684
686.943	0.0126189
687.021	0.0127830
687.099	0.0127499
687.177	0.0128039
687.255	0.0129393
687.333	0.0131428
687.411	0.0131632
687.489	0.0132274
687.568	0.0132460
687.646	0.0135155
687.724	0.0135806
687.802	0.0137177
687.880	0.0139783
687.958	0.0138023
688.036	0.0140370
688.114	0.0141739
688.193	0.0142531
688.271	0.0143056
688.349	0.0144874
688.427	0.0143279
688.505	0.0142751
688.583	0.0142119
688.661	0.0142136
688.739	0.0142515
688.818	0.0142852
688.896	0.0142069
688.974	0.0139866
689.052	0.0140379
689.130	0.0141254
689.208	0.0139648
689.286	0.0137936
689.364	0.0137774
689.443	0.0138708
689.521	0.0138342
689.599	0.0137161
689.677	0.0137217
689.755	0.0135687
689.833	0.0135512
689.911	0.0135912
689.989	0.0135304
690.068	0.0134051
690.146	0.0133245
690.224	0.0133928
690.302	0.0133329
690.380	0.0134132
690.458	0.0132808
690.536	0.0131688
690.614	0.0132347
690.693	0.0131290
690.771	0.0130026
690.849	0.0129004
690.927	0.0129189
691.005	0.0128409
691.083	0.0128693
691.161	0.0128131
691.239	0.0127102
691.318	0.0127112
691.396	0.0126840
691.474	0.0126191
691.552	0.0125859
691.630	0.0125189
691.708	0.0125381
691.786	0.0123340
691.864	0.0122050
691.943	0.0122928
692.021	0.0122342
692.099	0.0122511
692.177	0.0122135
692.255	0.0121976
692.333	0.0123007
692.411	0.0123873
692.489	0.0124030
692.568	0.0125690
692.646	0.0126053
692.724	0.0126856
692.802	0.0128616
692.880	0.0131209
692.958	0.0133003
693.036	0.0134449
693.114	0.0136887
693.193	0.0138198
693.271	0.0139059
693.349	0.0141608
693.427	0.0143167
693.505	0.0145023
693.583	0.0146925
693.661	0.0147891
693.739	0.0151730
693.818	0.0152061
693.896	0.0153249
693.974	0.0153316
694.052	0.0153912
694.130	0.0154674
694.208	0.0155265
694.286	0.0153096
694.364	0.0152740
694.443	0.0153310
694.521	0.0151390
694.599	0.0150150
694.677	0.0148775
694.755	0.0145378
694.833	0.0143940
694.911	0.0141378
694.989	0.0139767
695.068	0.0137571
695.146	0.0133669
695.224	0.0131488
695.302	0.0128706
695.380	0.0127504
695.458	0.0124787
695.536	0.0124082
695.614	0.0123242
695.693	0.0121981
695.771	0.0120757
695.849	0.0119601
695.927	0.0120897
696.005	0.0117820
696.083	0.0119592
696.161	0.0118942
696.239	0.0119582
696.318	0.0118546
696.396	0.0120004
696.474	0.0121423
696.552	0.0120969
696.630	0.0122023
696.708	0.0122994
696.786	0.0126005
696.864	0.0126853
696.943	0.0127301
697.021	0.0128205
697.099	0.0131767
697.177	0.0132333
697.255	0.0133585
697.333	0.0135686
697.411	0.0135925
697.489	0.0135346
697.568	0.0137969
697.646	0.0137728
697.724	0.0139587
697.802	0.0139694
697.880	0.0139909
697.958	0.0138160
698.036	0.0139732
698.114	0.0140186
698.193	0.0139108
698.271	0.0138594
698.349	0.0137154
698.427	0.0136677
698.505	0.0137772
698.583	0.0135571
698.661	0.0134721
698.739	0.0135243
698.818	0.0133580
698.896	0.0133156
698.974	0.0132433
699.052	0.0131647
699.130	0.0132185
699.208	0.0131715
699.286	0.0129632
699.364	0.0128755
699.443	0.0129049
699.521	0.0129872
699.599	0.0128072
699.677	0.0129290
699.755	0.0128664
699.833	0.0129215
699.911	0.0127864
699.989	0.0128662
700.068	0.0129080
700.146	0.0129201
700.224	0.0130705
700.302	0.0130236
700.380	0.0130646
700.458	0.0131207
700.536	0.0130507
700.614	0.0132180
700.693	0.0133447
700.771	0.0132543
700.849	0.0132732
700.927	0.0133462
701.005	0.0134740
701.083	0.0135223
701.161	0.0135724
701.239	0.0136219
701.318	0.0134727
701.396	0.0136519
701.474	0.0136884
701.552	0.0136850
701.630	0.0137931
701.708	0.0137423
701.786	0.0138302
701.864	0.0136877
701.943	0.0135292
702.021	0.0137084
702.099	0.0137553
702.177	0.0136909
702.255	0.0135843
702.333	0.0136032
702.411	0.0135387
702.489	0.0135749
702.568	0.0134142
702.646	0.0132906
702.724	0.0131480
702.802	0.0133436
702.880	0.0133267
702.958	0.0132768
703.036	0.0131835
703.114	0.0131758
703.193	0.0131081
703.271	0.0130212
703.349	0.0128890
703.427	0.0130420
703.505	0.0128931
703.583	0.0129582
703.661	0.0130370
703.739	0.0127584
703.818	0.0127760
703.896	0.0127739
703.974	0.0127743
704.052	0.0126093
704.130	0.0127126
704.208	0.0124133
704.286	0.0124197
704.364	0.0124968
704.443	0.0124383
704.521	0.0123673
704.599	0.0122728
704.677	0.0124246
704.755	0.0122713
704.833	0.0124332
704.911	0.0124485
704.989	0.0125599
705.068	0.0126257
705.146	0.0127067
705.224	0.0127415
705.302	0.0127728
705.380	0.0128042
705.458	0.0130254
705.536	0.0130394
705.614	0.0131380
705.693	0.0133776
705.771	0.0135023
705.849	0.0134940
705.927	0.0135706
706.005	0.0139680
706.083	0.0139928
706.161	0.0141582
706.239	0.0142773
706.318	0.0143519
706.396	0.0144465
706.474	0.0145951
706.552	0.0146545
706.630	0.0145779
706.708	0.0147081
706.786	0.0146334
706.864	0.0146218
706.943	0.0145574
707.021	0.0144750
707.099	0.0145925
707.177	0.0144159
707.255	0.0141415
707.333	0.0139946
707.411	0.0139923
707.489	0.0137901
707.568	0.0136520
707.646	0.0133069
707.724	0.0130772
707.802	0.0130225
707.880	0.0128291
707.958	0.0126984
708.036	0.0125818
708.114	0.0123817
708.193	0.0123095
708.271	0.0123664
708.349	0.0122534
708.427	0.0122098
708.505	0.0121130
708.583	0.0120701
708.661	0.0121767
708.739	0.0120799
708.818	0.0121053
708.896	0.0121799
708.974	0.0122832
709.052	0.0123482
709.130	0.0125193
709.208	0.0126358
709.286	0.0127782
709.364	0.0127666
709.443	0.0130020
709.521	0.0130107
709.599	0.0132039
709.677	0.0133131
709.755	0.0132996
709.833	0.0134346
709.911	0.0135926
709.989	0.0135464
710.068	0.0134847
710.146	0.0135730
710.224	0.0137167
710.302	0.0136398
710.380	0.0136910
710.458	0.0138037
710.536	0.0138193
710.614	0.0138137
710.693	0.0138545
710.771	0.0139719
710.849	0.0139519
710.927	0.0138638
711.005	0.0137819
711.083	0.0138888
711.161	0.0138085
711.239	0.0136832
711.318	0.0138435
711.396	0.0138840
711.474	0.0139055
711.552	0.0139633
711.630	0.0137817
711.708	0.0138937
711.786	0.0140490
711.864	0.0140331
711.943	0.0140238
712.021	0.0139936
712.099	0.0139999
712.177	0.0142507
712.255	0.0141117
712.333	0.0140335
712.411	0.0141596
712.489	0.0141919
712.568	0.0142066
712.646	0.0141966
712.724	0.0141908
712.802	0.0141653
712.880	0.0140517
712.958	0.0138975
713.036	0.0138891
713.114	0.0139453
713.193	0.0137869
713.271	0.0137131
713.349	0.0135733
713.427	0.0134844
713.505	0.0133921
713.583	0.0133330
713.661	0.0131871
713.739	0.0129785
713.818	0.0128206
713.896	0.0128940
713.974	0.0128460
714.052	0.0126421
714.130	0.0125468
714.208	0.0126038
714.286	0.0124413
714.364	0.0125552
714.443	0.0125889
714.521	0.0125328
714.599	0.0126208
714.677	0.0126716
714.755	0.0125428
714.833	0.0125755
714.911	0.0127499
714.989	0.0129121
715.068	0.0129063
715.146	0.0131218
715.224	0.0129893
715.302	0.0130608
715.380	0.0131553
715.458	0.0132227
715.536	0.0133026
715.614	0.0133004
715.693	0.0133581
715.771	0.0134398
715.849	0.0135771
715.927	0.0135554
716.005	0.0136491
716.083	0.0135540
716.161	0.0136161
716.239	0.0138943
716.318	0.0138532
716.396	0.0137727
716.474	0.0136576
716.552	0.0138474
716.630	0.0138290
716.708	0.0137487
716.786	0.0140244
716.864	0.0137914
716.943	0.0136047
717.021	0.0135597
717.099	0.0136436
717.177	0.0135387
717.255	0.0135205
717.333	0.0135316
717.411	0.0134244
717.489	0.0133770
717.568	0.0133060
717.646	0.0134203
717.724	0.0133810
717.802	0.0132257
717.880	0.0131858
717.958	0.0132003
718.036	0.0131445
718.114	0.0131621
718.193	0.0130442
718.271	0.0130797
718.349	0.0131493
718.427	0.0130998
718.505	0.0131966
718.583	0.0132681
718.661	0.0132106
718.739	0.0131496
718.818	0.0133368
718.896	0.0133031
718.974	0.0133383
719.052	0.0135022
719.130	0.0134125
719.208	0.0134164
719.286	0.0133889
719.364	0.0133318
719.443	0.0133701
719.521	0.0133994
719.599	0.0134555
719.677	0.0135865
719.755	0.0134992
719.833	0.0132600
719.911	0.0133469
719.989	0.0135009
720.068	0.0133592
720.146	0.0132571
720.224	0.0134234
720.302	0.0133688
720.380	0.0134203
720.458	0.0132427
720.536	0.0132073
720.614	0.0133352
720.693	0.0133734
720.771	0.0131636
720.849	0.0131677
720.927	0.0130634
721.005	0.0130996
721.083	0.0129654
721.161	0.0130747
721.239	0.0130904
721.318	0.0131522
721.396	0.0130701
721.474	0.0129831
721.552	0.0130284
721.630	0.0130511
721.708	0.0128883
721.786	0.0130603
721.864	0.0131863
721.943	0.0130557
722.021	0.0130923
722.099	0.0131916
722.177	0.0133324
722.255	0.0133148
722.333	0.0132821
722.411	0.0134100
722.489	0.0133925
722.568	0.0134907
722.646	0.0134495
722.724	0.0135092
722.802	0.0135165
722.880	0.0136324
722.958	0.0135029
723.036	0.0133278
723.114	0.0135171
723.193	0.0134093
723.271	0.0133295
723.349	0.0134936
723.427	0.0132656
723.505	0.0132694
723.583	0.0133575
723.661	0.0131927
723.739	0.0132989
723.818	0.0130418
723.896	0.0129596
723.974	0.0130564
724.052	0.0130847
724.130	0.0131307
724.208	0.0129034
724.286	0.0127174
724.364	0.0128287
724.443	0.0128581
724.521	0.0129638
724.599	0.0128728
724.677	0.0128946
724.755	0.0129256
724.833	0.0128720
724.911	0.0129363
724.989	0.0131171
725.068	0.0131465
725.146	0.0131243
725.224	0.0132652
725.302	0.0133443
725.380	0.0133938
725.458	0.0133949
725.536	0.0134052
725.614	0.0135204
725.693	0.0134523
725.771	0.0136138
725.849	0.0137096
725.927	0.0137257
726.005	0.0138150
726.083	0.0137356
726.161	0.0137006
726.239	0.0136530
726.318	0.0135960
726.396	0.0136820
726.474	0.0135981
726.552	0.0134953
726.630	0.0134238
726.708	0.0133672
726.786	0.0132756
726.864	0.0132558
726.943	0.0131262
727.021	0.0130366
727.099	0.0129350
727.177	0.0129494
727.255	0.0127505
727.333	0.0127827
727.411	0.0128324
727.489	0.0126353
727.568	0.0126464
727.646	0.0126441
727.724	0.0126945
727.802	0.0126909
727.880	0.0126961
727.958	0.0127345
728.036	0.0129003
728.114	0.0127345
728.193	0.0126923
728.271	0.0129051
728.349	0.0130009
728.427	0.0130046
728.505	0.0129362
728.583	0.0131676
728.661	0.0131815
728.739	0.0132872
728.818	0.0132202
728.896	0.0132819
728.974	0.0132765
729.052	0.0134533
729.130	0.0132938
729.208	0.0134692
729.286	0.0134491
729.364	0.0135902
729.443	0.0135806
729.521	0.0136944
729.599	0.0134830
729.677	0.0135128
729.755	0.0136127
729.833	0.0135909
729.911	0.0136842
729.989	0.0135500
730.068	0.0136626
730.146	0.0135837
730.224	0.0136983
730.302	0.0134837
730.380	0.0134421
730.458	0.0133120
730.536	0.0134894
730.614	0.0134288
730.693	0.0133353
730.771	0.0132771
730.849	0.0133777
730.927	0.0132932
731.005	0.0131067
731.083	0.0131727
731.161	0.0133048
731.239	0.0133216
731.318	0.0131541
731.396	0.0131380
731.474	0.0133382
731.552	0.0133324
731.630	0.0134478
731.708	0.0133181
731.786	0.0133770
731.864	0.0134468
731.943	0.0134633
732.021	0.0135165
732.099	0.0135085
732.177	0.0135085
732.255	0.0135297
732.333	0.0134345
732.411	0.0136120
732.489	0.0135169
732.568	0.0132613
732.646	0.0134061
732.724	0.0133600
732.802	0.0132731
732.880	0.0133826
732.958	0.0133292
733.036	0.0131342
733.114	0.0132085
733.193	0.0131885
733.271	0.0129582
733.349	0.0130812
733.427	0.0129189
733.505	0.0129253
733.583	0.0130142
733.661	0.0130630
733.739	0.0129575
733.818	0.0128503
733.896	0.0129120
733.974	0.0128945
734.052	0.0128297
734.130	0.0128325
734.208	0.0128880
734.286	0.0130019
734.364	0.0130101
734.443	0.0130891
734.521	0.0131094
734.599	0.0131955
734.677	0.0132258
734.755	0.0132651
734.833	0.0132921
734.911	0.0133265
734.989	0.0132517
735.068	0.0132845
735.146	0.0134062
735.224	0.0134096
735.302	0.0135430
735.380	0.0134749
735.458	0.0135448
735.536	0.0135597
735.614	0.0135940
735.693	0.0136533
735.771	0.0137154
735.849	0.0136108
735.927	0.0134590
736.005	0.0135212
736.083	0.0137747
736.161	0.0136491
736.239	0.0136730
736.318	0.0136217
736.396	0.0134666
736.474	0.0134052
736.552	0.0134921
736.630	0.0135102
736.708	0.0134207
736.786	0.0134900
736.864	0.0134034
736.943	0.0134332
737.021	0.0134492
737.099	0.0133173
737.177	0.0131450
737.255	0.0133855
737.333	0.0132192
737.411	0.0132745
737.489	0.0133659
737.568	0.0133349
737.646	0.0133646
737.724	0.0134522
737.802	0.0133694
737.880	0.0133743
737.958	0.0134040
738.036	0.0134905
738.114	0.0133456
738.193	0.0135271
738.271	0.0134741
738.349	0.0135527
738.427	0.0135809
738.505	0.0134524
738.583	0.0135298
738.661	0.0134286
738.739	0.0134753
738.818	0.0134769
738.896	0.0135361
738.974	0.0134802
739.052	0.0134541
739.130	0.0132745
739.208	0.0134404
739.286	0.0132821
739.364	0.0132709
739.443	0.0132776
739.521	0.0131164
739.599	0.0132431
739.677	0.0130930
739.755	0.0131679
739.833	0.0131254
739.911	0.0131513
739.989	0.0129960
740.068	0.0131112
740.146	0.0130569
740.224	0.0130015
740.302	0.0129968
740.380	0.0129233
740.458	0.0129160
740.536	0.0129908
740.614	0.0129173
740.693	0.0129408
740.771	0.0128452
740.849	0.0129567
740.927	0.0129211
741.005	0.0129601
741.083	0.0130185
741.161	0.0130013
741.239	0.0130818
741.318	0.0129960
741.396	0.0130255
741.474	0.0132542
741.552	0.0131345
741.630	0.0130660
741.708	0.0133380
741.786	0.0133069
741.864	0.0134461
741.943	0.0134984
742.021	0.0135344
742.099	0.0135663
742.177	0.0136252
742.255	0.0137547
742.333	0.0136819
742.411	0.0138189
742.489	0.0135889
742.568	0.0136191
742.646	0.0137585
742.724	0.0138783
742.802	0.0137930
742.880	0.0138240
742.958	0.0138752
743.036	0.0136672
743.114	0.0136652
743.193	0.0136241
743.271	0.0136533
743.349	0.0134310
743.427	0.0135315
743.505	0.0134751
743.583	0.0133871
743.661	0.0132355
743.739	0.0132725
743.818	0.0131369
743.896	0.0130941
743.974	0.0130568
744.052	0.0130733
744.130	0.0130156
744.208	0.0131722
744.286	0.0129826
744.364	0.0130522
744.443	0.0131032
744.521	0.0130752
744.599	0.0131100
744.677	0.0130402
744.755	0.0131784
744.833	0.0131347
744.911	0.0130865
744.989	0.0129748
745.068	0.0131487
745.146	0.0131885
745.224	0.0131490
745.302	0.0132110
745.380	0.0131336
745.458	0.0131644
745.536	0.0131538
745.614	0.0131037
745.693	0.0132707
745.771	0.0132554
745.849	0.0131866
745.927	0.0131829
746.005	0.0133662
746.083	0.0132986
746.161	0.0133605
746.239	0.0133968
746.318	0.0133387
746.396	0.0135040
746.474	0.0134180
746.552	0.0134098
746.630	0.0134241
746.708	0.0133741
746.786	0.0134502
746.864	0.0133276
746.943	0.0133674
747.021	0.0133949
747.099	0.0134253
747.177	0.0133376
747.255	0.0133009
747.333	0.0131577
747.411	0.0133372
747.489	0.0132710
747.568	0.0130387
747.646	0.0130489
747.724	0.0130828
747.802	0.0131979
747.880	0.0130090
747.958	0.0130793
748.036	0.0131269
748.114	0.0130730
748.193	0.0131893
748.271	0.0131579
748.349	0.0131388
748.427	0.0131119
748.505	0.0130682
748.583	0.0131351
748.661	0.0132680
748.739	0.0131834
748.818	0.0131754
748.896	0.0132112
748.974	0.0131554
749.052	0.0132278
749.130	0.0133428
749.208	0.0133515
749.286	0.0132243
749.364	0.0130566
749.443	0.0133768
749.521	0.0133244
749.599	0.0132812
749.677	0.0133227
749.755	0.0132640
749.833	0.0133591
749.911	0.0132424
749.989	0.0134185
750.068	0.0133477
750.146	0.0131910
750.224	0.0133680
750.302	0.0134670
750.380	0.0134476
750.458	0.0135604
750.536	0.0135076
750.614	0.0136453
750.693	0.0137515
750.771	0.0135908
750.849	0.0135922
750.927	0.0136239
751.005	0.0137383
751.083	0.0136481
751.161	0.0135902
751.239	0.0134932
751.318	0.0136572
751.396	0.0137186
751.474	0.0136158
751.552	0.0134856
751.630	0.0135619
751.708	0.0135872
751.786	0.0133925
751.864	0.0135734
751.943	0.0135533
752.021	0.0134261
752.099	0.0133072
752.177	0.0134140
752.255	0.0135056
752.333	0.0133113
752.411	0.0132826
752.489	0.0131927
752.568	0.0131769
752.646	0.0131451
752.724	0.0131285
752.802	0.0129607
752.880	0.0130627
752.958	0.0128857
753.036	0.0128077
753.114	0.0129192
753.193	0.0128241
753.271	0.0129510
753.349	0.0129028
753.427	0.0129554
753.505	0.0129006
753.583	0.0127376
753.661	0.0126892
753.739	0.0128024
753.818	0.0128190
753.896	0.0129960
753.974	0.0129664
754.052	0.0130135
754.130	0.0130862
754.208	0.0131129
754.286	0.0132597
754.364	0.0132074
754.443	0.0132598
754.521	0.0132014
754.599	0.0133913
754.677	0.0135156
754.755	0.0135338
754.833	0.0136884
754.911	0.0135781
754.989	0.0136427
755.068	0.0137730
755.146	0.0138100
755.224	0.0137765
755.302	0.0138345
755.380	0.0139273
755.458	0.0138055
755.536	0.0138147
755.614	0.0139241
755.693	0.0138860
755.771	0.0139085
755.849	0.0138340
755.927	0.0137341
756.005	0.0136113
756.083	0.0135640
756.161	0.0133058
756.239	0.0133790
756.318	0.0133454
756.396	0.0131713
756.474	0.0130202
756.552	0.0129249
756.630	0.0127921
756.708	0.0129180
756.786	0.0128350
756.864	0.0127807
756.943	0.0127276
757.021	0.0127151
757.099	0.0127152
757.177	0.0127473
757.255	0.0127956
757.333	0.0127794
757.411	0.0128302
757.489	0.0128107
757.568	0.0129340
757.646	0.0130466
757.724	0.0130687
757.802	0.0131843
757.880	0.0132494
757.958	0.0133372
758.036	0.0133302
758.114	0.0133041
758.193	0.0134087
758.271	0.0135341
758.349	0.0135581
758.427	0.0134351
758.505	0.0135121
758.583	0.0135270
758.661	0.0135647
758.739	0.0134149
758.818	0.0133722
758.896	0.0134201
758.974	0.0134201
759.052	0.0134145
759.130	0.0133492
759.208	0.0134834
759.286	0.0134634
759.364	0.0134727
759.443	0.0133266
759.521	0.0132839
759.599	0.0133987
759.677	0.0133391
759.755	0.0133477
759.833	0.0132616
759.911	0.0133989
759.989	0.0132545
760.068	0.0132506
760.146	0.0131989
760.224	0.0131223
760.302	0.0131512
760.380	0.0130901
760.458	0.0130773
760.536	0.0131030
760.614	0.0132216
760.693	0.0130710
760.771	0.0130335
760.849	0.0129607
760.927	0.0129506
761.005	0.0128693
761.083	0.0129945
761.161	0.0129856
761.239	0.0129771
761.318	0.0129644
761.396	0.0131155
761.474	0.0131626
761.552	0.0131519
761.630	0.0131831
761.708	0.0133569
761.786	0.0133128
761.864	0.0132521
761.943	0.0132896
762.021	0.0133887
762.099	0.0134241
762.177	0.0135316
762.255	0.0136119
762.333	0.0135282
762.411	0.0136240
762.489	0.0137508
762.568	0.0136891
762.646	0.0137230
762.724	0.0136125
762.802	0.0137151
762.880	0.0136549
762.958	0.0138015
763.036	0.0136681
763.114	0.0137182
763.193	0.0138335
763.271	0.0137175
763.349	0.0138091
763.427	0.0138393
763.505	0.0137860
763.583	0.0138146
763.661	0.0138525
763.739	0.0138216
763.818	0.0139258
763.896	0.0138136
763.974	0.0135796
764.052	0.0136732
764.130	0.0137242
764.208	0.0136206
764.286	0.0135921
764.364	0.0134255
764.443	0.0134624
764.521	0.0135927
764.599	0.0135512
764.677	0.0134726
764.755	0.0133983
764.833	0.0133350
764.911	0.0133273
764.989	0.0134044
765.068	0.0134204
765.146	0.0132671
765.224	0.0131985
765.302	0.0131296
765.380	0.0131303
765.458	0.0131840
765.536	0.0130795
765.614	0.0132199
765.693	0.0130616
765.771	0.0131311
765.849	0.0130216
765.927	0.0131197
766.005	0.0130929
766.083	0.0129065
766.161	0.0130552
766.239	0.0131575
766.318	0.0128677
766.396	0.0129967
766.474	0.0131818
766.552	0.0131805
766.630	0.0131420
766.708	0.0131222
766.786	0.0133016
766.864	0.0130079
766.943	0.0131561
767.021	0.0132547
767.099	0.0132486
767.177	0.0133600
767.255	0.0131702
767.333	0.0133115
767.411	0.0133931
767.489	0.0134707
767.568	0.0133342
767.646	0.0135137
767.724	0.0135336
767.802	0.0134905
767.880	0.0134387
767.958	0.0135007
768.036	0.0135479
768.114	0.0136230
768.193	0.0136742
768.271	0.0135541
768.349	0.0135719
768.427	0.0137240
768.505	0.0135859
768.583	0.0135806
768.661	0.0136774
768.739	0.0137297
768.818	0.0135755
768.896	0.0136610
768.974	0.0136412
769.052	0.0135182
769.130	0.0135107
769.208	0.0135888
769.286	0.0135777
769.364	0.0135310
769.443	0.0134701
769.521	0.0134372
769.599	0.0133372
769.677	0.0132738
769.755	0.0132960
769.833	0.0131457
769.911	0.0130777
769.989	0.0130839
770.068	0.0131059
770.146	0.0131682
770.224	0.0131116
770.302	0.0130964
770.380	0.0130546
770.458	0.0131650
770.536	0.0131470
770.614	0.0132485
770.693	0.0131287
770.771	0.0131516
770.849	0.0131189
770.927	0.0131261
771.005	0.0131589
771.083	0.0132018
771.161	0.0130331
771.239	0.0132390
771.318	0.0132663
771.396	0.0132140
771.474	0.0132430
771.552	0.0131934
771.630	0.0132487
771.708	0.0131272
771.786	0.0132829
771.864	0.0134217
771.943	0.0134272
772.021	0.0135051
772.099	0.0134029
772.177	0.0134193
772.255	0.0134296
772.333	0.0132640
772.411	0.0134683
772.489	0.0134568
772.568	0.0133626
772.646	0.0134967
772.724	0.0133856
772.802	0.0134757
772.880	0.0132939
772.958	0.0133440
773.036	0.0133904
773.114	0.0133432
773.193	0.0134158
773.271	0.0134521
773.349	0.0134483
773.427	0.0134747
773.505	0.0135720
773.583	0.0133651
773.661	0.0134212
773.739	0.0133961
773.818	0.0134190
773.896	0.0133943
773.974	0.0132561
774.052	0.0132890
774.130	0.0133247
774.208	0.0133018
774.286	0.0132970
774.364	0.0133454
774.443	0.0133344
774.521	0.0134773
774.599	0.0134152
774.677	0.0134210
774.755	0.0135529
774.833	0.0135818
774.911	0.0135851
774.989	0.0136365
775.068	0.0136425
775.146	0.0136714
775.224	0.0136027
775.302	0.0136386
775.380	0.0136659
775.458	0.0135641
775.536	0.0136842
775.614	0.0133814
775.693	0.0135709
775.771	0.0136198
775.849	0.0135193
775.927	0.0135371
776.005	0.0134982
776.083	0.0134729
776.161	0.0134469
776.239	0.0133493
776.318	0.0133012
776.396	0.0132903
776.474	0.0132858
776.552	0.0132637
776.630	0.0131529
776.708	0.0131459
776.786	0.0131393
776.864	0.0129985
776.943	0.0129382
777.021	0.0129838
777.099	0.0130226
777.177	0.0128420
777.255	0.0127901
777.333	0.0128799
777.411	0.0128038
777.489	0.0127728
777.568	0.0128145
777.646	0.0128488
777.724	0.0128139
777.802	0.0127871
777.880	0.0127440
777.958	0.0127603
778.036	0.0129572
778.114	0.0128395
778.193	0.0128970
778.271	0.0129771
778.349	0.0130470
778.427	0.0130881
778.505	0.0131039
778.583	0.0132656
778.661	0.0131366
778.739	0.0132175
778.818	0.0132719
778.896	0.0133110
778.974	0.0134890
779.052	0.0134489
779.130	0.0134788
779.208	0.0135062
779.286	0.0134512
779.364	0.0134908
779.443	0.0136620
779.521	0.0136658
779.599	0.0136855
779.677	0.0135703
779.755	0.0135703
779.833	0.0137544
779.911	0.0137994
779.989	0.0137563
780.068	0.0137057
780.146	0.0137784
780.224	0.0136304
780.302	0.0137091
780.380	0.0135640
780.458	0.0136697
780.536	0.0135834
780.614	0.0135891
780.693	0.0135632
780.771	0.0135318
780.849	0.0135445
780.927	0.0133606
781.005	0.0132204
781.083	0.0134959
781.161	0.0134456
781.239	0.0133472
781.318	0.0133176
781.396	0.0132844
781.474	0.0133284
781.552	0.0133356
781.630	0.0133428
781.708	0.0133546
781.786	0.0133908
781.864	0.0133172
781.943	0.0133516
782.021	0.0133706
782.099	0.0132781
782.177	0.0132394
782.255	0.0135181
782.333	0.0133082
782.411	0.0132953
782.489	0.0133060
782.568	0.0132696
782.646	0.0133552
782.724	0.0133838
782.802	0.0132956
782.880	0.0132516
782.958	0.0133614
783.036	0.0133504
783.114	0.0133924
783.193	0.0132182
783.271	0.0132346
783.349	0.0132536
783.427	0.0133897
783.505	0.0132993
783.583	0.0132800
783.661	0.0132757
783.739	0.0133633
783.818	0.0132587
783.896	0.0133964
783.974	0.0133791
784.052	0.0132571
784.130	0.0133322
784.208	0.0132655
784.286	0.0134405
784.364	0.0133061
784.443	0.0134400
784.521	0.0133173
784.599	0.0132996
784.677	0.0134732
784.755	0.0134827
784.833	0.0134970
784.911	0.0135443
784.989	0.0134918
785.068	0.0134090
785.146	0.0134930
785.224	0.0135045
785.302	0.0134942
785.380	0.0135207
785.458	0.0136789
785.536	0.0135320
785.614	0.0133827
785.693	0.0133965
785.771	0.0133221
785.849	0.0134200
785.927	0.0133739
786.005	0.0132622
786.083	0.0133498
786.161	0.0133728
786.239	0.0133501
786.318	0.0133080
786.396	0.0133533
786.474	0.0132357
786.552	0.0132357
786.630	0.0133305
786.708	0.0132574
786.786	0.0133643
786.864	0.0133010
786.943	0.0134415
787.021	0.0133691
787.099	0.0134293
787.177	0.0134611
787.255	0.0133317
787.333	0.0136243
787.411	0.0134485
787.489	0.0135186
787.568	0.0135623
787.646	0.0134840
787.724	0.0135302
787.802	0.0133968
787.880	0.0135838
787.958	0.0136283
788.036	0.0136021
788.114	0.0135788
788.193	0.0135506
788.271	0.0135874
788.349	0.0135095
788.427	0.0134847
788.505	0.0134098
788.583	0.0131808
788.661	0.0132630
788.739	0.0133333
788.818	0.0133189
788.896	0.0132633
788.974	0.0131918
789.052	0.0131990
789.130	0.0132421
789.208	0.0132691
789.286	0.0131504
789.364	0.0132507
789.443	0.0133856
789.521	0.0133341
789.599	0.0133473
789.677	0.0132552
789.755	0.0133202
789.833	0.0132322
789.911	0.0133269
789.989	0.0133697
790.068	0.0133525
790.146	0.0135629
790.224	0.0133099
790.302	0.0133199
790.380	0.0134031
790.458	0.0134531
790.536	0.0133214
790.614	0.0133931
790.693	0.0135058
790.771	0.0132535
790.849	0.0133017
790.927	0.0135127
791.005	0.0134202
791.083	0.0133237
791.161	0.0133929
791.239	0.0133797
791.318	0.0134382
791.396	0.0133232
791.474	0.0133646
791.552	0.0136681
791.630	0.0134814
791.708	0.0133424
791.786	0.0135496
791.864	0.0135148
791.943	0.0135269
792.021	0.0135804
792.099	0.0135130
792.177	0.0134892
792.255	0.0134704
792.333	0.0133165
792.411	0.0134220
792.489	0.0136258
792.568	0.0134166
792.646	0.0133155
792.724	0.0133064
792.802	0.0134128
792.880	0.0133125
792.958	0.0132642
793.036	0.0132498
793.114	0.0133044
793.193	0.0130376
793.271	0.0130589
793.349	0.0129758
793.427	0.0132055
793.505	0.0131749
793.583	0.0131048
793.661	0.0131567
793.739	0.0131525
793.818	0.0132567
793.896	0.0131660
793.974	0.0131626
794.052	0.0133120
794.130	0.0132540
794.208	0.0132054
794.286	0.0131813
794.364	0.0131608
794.443	0.0132263
794.521	0.0133027
794.599	0.0134357
794.677	0.0134167
794.755	0.0133848
794.833	0.0132989
794.911	0.0133250
794.989	0.0133836
795.068	0.0133658
795.146	0.0132588
795.224	0.0134720
795.302	0.0135074
795.380	0.0135188
795.458	0.0133361
795.536	0.0134098
795.614	0.0133572
795.693	0.0134766
795.771	0.0133488
795.849	0.0134955
795.927	0.0134769
796.005	0.0134724
796.083	0.0135683
796.161	0.0134837
796.239	0.0134634
796.318	0.0135291
796.396	0.0134604
796.474	0.0134753
796.552	0.0135368
796.630	0.0135575
796.708	0.0135438
796.786	0.0133588
796.864	0.0133060
796.943	0.0133327
797.021	0.0133814
797.099	0.0131821
797.177	0.0131956
797.255	0.0132529
797.333	0.0131863
797.411	0.0131024
797.489	0.0132458
797.568	0.0131797
797.646	0.0132412
797.724	0.0130293
797.802	0.0130094
797.880	0.0130141
797.958	0.0129509
798.036	0.0130767
798.114	0.0130890
798.193	0.0129555
798.271	0.0128616
798.349	0.0128882
798.427	0.0128684
798.505	0.0129818
798.583	0.0129298
798.661	0.0132198
798.739	0.0130225
798.818	0.0130321
798.896	0.0130846
798.974	0.0130660
799.052	0.0132960
799.130	0.0132842
799.208	0.0133162
799.286	0.0131952
799.364	0.0131335
799.443	0.0133864
799.521	0.0133047
799.599	0.0132331
799.677	0.0133097
799.755	0.0133119
799.833	0.0132110
799.911	0.0132938
799.989	0.0132545
800.068	0.0134805
800.146	0.0133265
800.224	0.0135134
800.302	0.0133375
800.380	0.0133521
800.458	0.0133281
800.536	0.0133958
800.614	0.0132507
800.693	0.0132162
800.771	0.0133674
800.849	0.0132618
800.927	0.0133222
801.005	0.0133508
801.083	0.0133289
801.161	0.0131113
801.239	0.0132092
801.318	0.0131924
801.396	0.0132258
801.474	0.0130752
801.552	0.0130597
801.630	0.0130775
801.708	0.0131017
801.786	0.0131020
801.864	0.0131099
801.943	0.0130167
802.021	0.0130950
802.099	0.0131121
802.177	0.0130543
802.255	0.0131461
802.333	0.0131944
802.411	0.0132291
802.489	0.0132416
802.568	0.0132260
802.646	0.0132747
802.724	0.0132046
802.802	0.0132642
802.880	0.0131783
802.958	0.0134243
803.036	0.0133451
803.114	0.0133103
803.193	0.0133484
803.271	0.0132719
803.349	0.0133593
803.427	0.0133074
803.505	0.0134245
803.583	0.0133984
803.661	0.0134782
803.739	0.0135455
803.818	0.0133704
803.896	0.0134798
803.974	0.0133874
804.052	0.0134383
804.130	0.0133974
804.208	0.0135499
804.286	0.0134949
804.364	0.0135077
804.443	0.0134978
804.521	0.0134089
804.599	0.0134809
804.677	0.0134251
804.755	0.0134763
804.833	0.0134335
804.911	0.0133779
804.989	0.0133388
805.068	0.0133516
805.146	0.0133167
805.224	0.0132378
805.302	0.0131540
805.380	0.0131525
805.458	0.0130910
805.536	0.0129604
805.614	0.0130693
805.693	0.0130238
805.771	0.0129675
805.849	0.0130236
805.927	0.0131332
806.005	0.0129893
806.083	0.0130043
806.161	0.0130284
806.239	0.0131389
806.318	0.0130647
806.396	0.0131698
806.474	0.0131726
806.552	0.0131923
806.630	0.0130515
806.708	0.0133183
806.786	0.0134265
806.864	0.0134963
806.943	0.0133806
807.021	0.0134411
807.099	0.0134804
807.177	0.0134137
807.255	0.0136409
807.333	0.0135532
807.411	0.0135385
807.489	0.0135803
807.568	0.0134979
807.646	0.0135481
807.724	0.0134515
807.802	0.0136572
807.880	0.0135429
807.958	0.0133671
808.036	0.0133131
808.114	0.0132635
808.193	0.0133443
808.271	0.0132219
808.349	0.0130965
808.427	0.0131866
808.505	0.0133533
808.583	0.0132089
808.661	0.0132879
808.739	0.0133027
808.818	0.0133315
808.896	0.0133160
808.974	0.0133746
809.052	0.0135032
809.130	0.0135100
809.208	0.0136336
809.286	0.0137354
809.364	0.0137548
809.443	0.0138448
809.521	0.0137360
809.599	0.0138162
809.677	0.0137897
809.755	0.0137735
809.833	0.0138503
809.911	0.0138978
809.989	0.0136661
810.068	0.0136685
810.146	0.0136468
810.224	0.0136175
810.302	0.0136848
810.380	0.0134113
810.458	0.0134232
810.536	0.0132195
810.614	0.0131243
810.693	0.0131690
810.771	0.0130587
810.849	0.0128936
810.927	0.0128861
811.005	0.0127487
811.083	0.0128145
811.161	0.0127782
811.239	0.0128429
811.318	0.0126197
811.396	0.0129581
811.474	0.0128635
811.552	0.0127500
811.630	0.0130229
811.708	0.0129097
811.786	0.0129457
811.864	0.0129678
811.943	0.0130016
812.021	0.0130743
812.099	0.0130698
812.177	0.0131245
812.255	0.0131141
812.333	0.0130303
812.411	0.0131462
812.489	0.0132908
812.568	0.0132443
812.646	0.0132325
812.724	0.0132092
812.802	0.0133245
812.880	0.0135654
812.958	0.0134628
813.036	0.0133988
813.114	0.0133550
813.193	0.0133719
813.271	0.0135314
813.349	0.0134160
813.427	0.0132967
813.505	0.0134028
813.583	0.0132593
813.661	0.0133968
813.739	0.0131548
813.818	0.0131238
813.896	0.0132449
813.974	0.0132228
814.052	0.0131177
814.130	0.0132293
814.208	0.0132133
814.286	0.0132293
814.364	0.0132908
814.443	0.0133428
814.521	0.0132584
814.599	0.0134817
814.677	0.0135252
814.755	0.0135417
814.833	0.0135157
814.911	0.0134850
814.989	0.0137458
815.068	0.0137601
815.146	0.0137823
815.224	0.0138171
815.302	0.0137437
815.380	0.0138027
815.458	0.0135770
815.536	0.0136981
815.614	0.0137458
815.693	0.0135924
815.771	0.0135418
815.849	0.0135613
815.927	0.0135587
816.005	0.0135985
816.083	0.0133185
816.161	0.0135224
816.239	0.0134354
816.318	0.0133327
816.396	0.0133893
816.474	0.0134680
816.552	0.0131038
816.630	0.0132719
816.708	0.0133662
816.786	0.0132538
816.864	0.0132925
816.943	0.0132094
817.021	0.0131844
817.099	0.0132590
817.177	0.0131709
817.255	0.0131564
817.333	0.0131884
817.411	0.0132401
817.489	0.0132713
817.568	0.0130776
817.646	0.0132695
817.724	0.0131165
817.802	0.0130769
817.880	0.0130933
817.958	0.0131482
818.036	0.0131480
818.114	0.0131314
818.193	0.0130686
818.271	0.0129776
818.349	0.0130620
818.427	0.0129932
818.505	0.0130280
818.583	0.0130057
818.661	0.0128875
818.739	0.0130033
818.818	0.0128534
818.896	0.0128988
818.974	0.0129069
819.052	0.0128413
819.130	0.0128702
819.208	0.0127309
819.286	0.0129325
819.364	0.0129534
819.443	0.0129751
819.521	0.0129570
819.599	0.0131762
819.677	0.0132500
819.755	0.0131590
819.833	0.0133582
819.911	0.0132781
819.989	0.0132092
820.068	0.0134134
820.146	0.0133862
820.224	0.0135391
820.302	0.0134196
820.380	0.0136127
820.458	0.0134052
820.536	0.0134050
820.614	0.0134623
820.693	0.0136629
820.771	0.0135730
820.849	0.0134901
820.927	0.0134457
821.005	0.0136147
821.083	0.0134071
821.161	0.0134696
821.239	0.0135073
821.318	0.0135709
821.396	0.0134825
821.474	0.0132882
821.552	0.0134376
821.630	0.0134297
821.708	0.0132630
821.786	0.0132802
821.864	0.0132220
821.943	0.0132169
822.021	0.0132904
822.099	0.0130919
822.177	0.0131618
822.255	0.0132440
822.333	0.0131986
822.411	0.0132294
822.489	0.0132851
822.568	0.0132229
822.646	0.0134618
822.724	0.0133587
822.802	0.0133598
822.880	0.0134534
822.958	0.0135119
823.036	0.0135086
823.114	0.0134968
823.193	0.0134249
823.271	0.0135728
823.349	0.0135618
823.427	0.0135246
823.505	0.0134480
823.583	0.0133926
823.661	0.0133972
823.739	0.0135348
823.818	0.0134663
823.896	0.0134000
823.974	0.0134290
824.052	0.0133234
824.130	0.0134186
824.208	0.0133903
824.286	0.0132262
824.364	0.0131690
824.443	0.0132057
824.521	0.0132561
824.599	0.0129630
824.677	0.0130534
824.755	0.0130025
824.833	0.0131606
824.911	0.0129254
824.989	0.0130409
825.068	0.0130176
825.146	0.0130564
825.224	0.0129073
825.302	0.0129440
825.380	0.0129123
825.458	0.0129828
825.536	0.0130106
825.614	0.0129564
825.693	0.0128522
825.771	0.0131326
825.849	0.0130795
825.927	0.0131126
826.005	0.0131910
826.083	0.0131992
826.161	0.0132288
826.239	0.0133383
826.318	0.0133840
826.396	0.0133485
826.474	0.0133923
826.552	0.0134470
826.630	0.0133961
826.708	0.0134569
826.786	0.0135104
826.864	0.0133826
826.943	0.0135509
827.021	0.0134949
827.099	0.0134256
827.177	0.0134503
827.255	0.0133733
827.333	0.0133939
827.411	0.0133006
827.489	0.0132401
827.568	0.0132904
827.646	0.0132262
827.724	0.0133672
827.802	0.0131634
827.880	0.0132272
827.958	0.0131258
828.036	0.0132633
828.114	0.0131075
828.193	0.0130517
828.271	0.0131647
828.349	0.0130473
828.427	0.0131480
828.505	0.0130830
828.583	0.0130968
828.661	0.0130659
828.739	0.0131024
828.818	0.0131870
828.896	0.0131960
828.974	0.0132650
829.052	0.0132405
829.130	0.0132914
829.208	0.0131413
829.286	0.0133508
829.364	0.0132657
829.443	0.0133883
829.521	0.0134834
829.599	0.0133810
829.677	0.0133673
829.755	0.0134409
829.833	0.0133788
829.911	0.0133445
829.989	0.0132809
830.068	0.0132055
830.146	0.0130708
830.224	0.0130891
830.302	0.0131493
830.380	0.0130356
830.458	0.0131337
830.536	0.0129309
830.614	0.0128425
830.693	0.0128823
830.771	0.0129491
830.849	0.0127738
830.927	0.0129121
831.005	0.0130034
831.083	0.0132018
831.161	0.0131291
831.239	0.0131568
831.318	0.0131476
831.396	0.0130833
831.474	0.0133173
831.552	0.0133045
831.630	0.0131587
831.708	0.0133088
831.786	0.0133113
831.864	0.0132938
831.943	0.0133434
832.021	0.0133229
832.099	0.0133542
832.177	0.0133990
832.255	0.0134211
832.333	0.0134538
832.411	0.0133379
832.489	0.0134020
832.568	0.0134240
832.646	0.0134317
832.724	0.0133068
832.802	0.0134391
832.880	0.0134130
832.958	0.0133439
833.036	0.0133466
833.114	0.0134160
833.193	0.0134399
833.271	0.0132874
833.349	0.0132690
833.427	0.0134052
833.505	0.0133434
833.583	0.0134443
833.661	0.0134832
833.739	0.0134465
833.818	0.0133900
833.896	0.0134041
833.974	0.0134925
834.052	0.0133455
834.130	0.0134696
834.208	0.0134686
834.286	0.0134159
834.364	0.0133909
834.443	0.0134066
834.521	0.0134392
834.599	0.0134711
834.677	0.0135239
834.755	0.0132967
834.833	0.0133091
834.911	0.0133380
834.989	0.0133727
835.068	0.0133260
835.146	0.0132548
835.224	0.0133318
835.302	0.0133329
835.380	0.0131384
835.458	0.0131808
835.536	0.0130997
835.614	0.0132678
835.693	0.0131449
835.771	0.0132018
835.849	0.0131647
835.927	0.0131037
836.005	0.0131602
836.083	0.0132622
836.161	0.0132201
836.239	0.0131646
836.318	0.0134447
836.396	0.0132480
836.474	0.0132558
836.552	0.0132431
836.630	0.0133605
836.708	0.0132876
836.786	0.0133808
836.864	0.0133628
836.943	0.0133666
837.021	0.0132716
837.099	0.0134131
837.177	0.0134982
837.255	0.0133753
837.333	0.0133860
837.411	0.0136871
837.489	0.0133354
837.568	0.0135468
837.646	0.0135794
837.724	0.0134891
837.802	0.0135226
837.880	0.0135065
837.958	0.0133974
838.036	0.0135133
838.114	0.0135548
838.193	0.0134307
838.271	0.0134788
838.349	0.0134443
838.427	0.0132906
838.505	0.0132632
838.583	0.0133890
838.661	0.0134495
838.739	0.0134586
838.818	0.0132844
838.896	0.0132988
838.974	0.0134969
839.052	0.0134535
839.130	0.0134103
839.208	0.0134542
839.286	0.0133826
839.364	0.0133194
839.443	0.0133904
839.521	0.0135324
839.599	0.0134716
839.677	0.0135342
839.755	0.0135522
839.833	0.0134573
839.911	0.0133122
839.989	0.0134056
840.068	0.0133595
840.146	0.0134295
840.224	0.0133781
840.302	0.0133912
840.380	0.0133652
840.458	0.0133308
840.536	0.0133674
840.614	0.0132001
840.693	0.0133002
840.771	0.0132056
840.849	0.0132163
840.927	0.0131757
841.005	0.0133335
841.083	0.0132386
841.161	0.0131458
841.239	0.0132282
841.318	0.0132919
841.396	0.0132280
841.474	0.0132097
841.552	0.0131593
841.630	0.0133632
841.708	0.0132468
841.786	0.0133949
841.864	0.0133933
841.943	0.0132823
842.021	0.0133526
842.099	0.0135498
842.177	0.0133910
842.255	0.0133814
842.333	0.0134111
842.411	0.0132845
842.489	0.0133167
842.568	0.0131785
842.646	0.0131921
842.724	0.0132458
842.802	0.0132663
842.880	0.0129956
842.958	0.0130886
843.036	0.0133061
843.114	0.0131653
843.193	0.0131631
843.271	0.0132028
843.349	0.0131294
843.427	0.0132621
843.505	0.0133240
843.583	0.0132592
843.661	0.0131911
843.739	0.0133018
843.818	0.0131541
843.896	0.0132115
843.974	0.0132998
844.052	0.0133539
844.130	0.0133521
844.208	0.0131673
844.286	0.0131691
844.364	0.0133327
844.443	0.0134109
844.521	0.0133118
844.599	0.0133446
844.677	0.0133215
844.755	0.0133378
844.833	0.0133077
844.911	0.0134000
844.989	0.0134262
845.068	0.0134798
845.146	0.0134847
845.224	0.0133636
845.302	0.0133971
845.380	0.0134081
845.458	0.0133077
845.536	0.0133892
845.614	0.0133730
845.693	0.0134261
845.771	0.0133625
845.849	0.0134620
845.927	0.0134165
846.005	0.0132417
846.083	0.0133868
846.161	0.0133594
846.239	0.0134296
846.318	0.0132277
846.396	0.0132811
846.474	0.0133329
846.552	0.0132746
846.630	0.0131773
846.708	0.0132216
846.786	0.0132635
846.864	0.0131297
846.943	0.0131326
847.021	0.0132409
847.099	0.0132514
847.177	0.0131250
847.255	0.0130473
847.333	0.0130971
847.411	0.0131033
847.489	0.0130863
847.568	0.0130668
847.646	0.0129706
847.724	0.0129524
847.802	0.0131631
847.880	0.0131484
847.958	0.0130557
848.036	0.0131847
848.114	0.0131488
848.193	0.0132434
848.271	0.0133003
848.349	0.0131542
848.427	0.0132850
848.505	0.0132344
848.583	0.0134592
848.661	0.0133450
848.739	0.0133878
848.818	0.0134239
848.896	0.0134013
848.974	0.0135759
849.052	0.0134516
849.130	0.0134861
849.208	0.0134735
849.286	0.0134699
849.364	0.0134291
849.443	0.0134431
849.521	0.0134577
849.599	0.0135954
849.677	0.0134552
849.755	0.0135064
849.833	0.0135023
849.911	0.0135290
849.989	0.0134697
850.068	0.0133309
850.146	0.0134145
850.224	0.0134058
850.302	0.0134251
850.380	0.0133538
850.458	0.0133958
850.536	0.0134691
850.614	0.0133572
850.693	0.0134317
850.771	0.0132948
850.849	0.0134807
850.927	0.0133686
851.005	0.0131670
851.083	0.0132449
851.161	0.0132675
851.239	0.0132130
851.318	0.0132785
851.396	0.0133191
851.474	0.0132315
851.552	0.0132343
851.630	0.0130877
851.708	0.0131013
851.786	0.0130251
851.864	0.0131219
851.943	0.0131978
852.021	0.0132083
852.099	0.0131889
852.177	0.0132553
852.255	0.0131020
852.333	0.0130354
852.411	0.0131795
852.489	0.0131677
852.568	0.0130527
852.646	0.0131696
852.724	0.0131493
852.802	0.0132001
852.880	0.0132690
852.958	0.0133968
853.036	0.0133613
853.114	0.0132594
853.193	0.0133658
853.271	0.0133911
853.349	0.0134573
853.427	0.0134505
853.505	0.0134010
853.583	0.0135301
853.661	0.0134801
853.739	0.0133749
853.818	0.0134298
853.896	0.0136074
853.974	0.0136475
854.052	0.0134571
854.130	0.0133620
854.208	0.0135893
854.286	0.0135829
854.364	0.0134193
854.443	0.0136423
854.521	0.0136216
854.599	0.0135551
854.677	0.0134925
854.755	0.0135476
854.833	0.0133691
854.911	0.0134663
854.989	0.0134118
855.068	0.0134467
855.146	0.0132061
855.224	0.0133516
855.302	0.0133273
855.380	0.0133717
855.458	0.0132201
855.536	0.0131573
855.614	0.0132504
855.693	0.0132009
855.771	0.0131770
855.849	0.0131187
855.927	0.0131175
856.005	0.0131464
856.083	0.0132447
856.161	0.0130934
856.239	0.0132217
856.318	0.0131036
856.396	0.0131488
856.474	0.0132230
856.552	0.0134646
856.630	0.0131827
856.708	0.0132629
856.786	0.0134087
856.864	0.0133437
856.943	0.0132507
857.021	0.0132110
857.099	0.0134850
857.177	0.0133959
857.255	0.0134714
857.333	0.0135526
857.411	0.0134363
857.489	0.0135011
857.568	0.0135870
857.646	0.0135905
857.724	0.0134972
857.802	0.0136020
857.880	0.0137950
857.958	0.0136621
858.036	0.0135318
858.114	0.0136611
858.193	0.0137924
858.271	0.0135432
858.349	0.0137251
858.427	0.0137261
858.505	0.0135460
858.583	0.0135398
858.661	0.0135146
858.739	0.0135940
858.818	0.0135725
858.896	0.0135239
858.974	0.0135155
859.052	0.0135481
859.130	0.0134812
859.208	0.0134056
859.286	0.0135023
859.364	0.0133295
859.443	0.0132587
859.521	0.0134035
859.599	0.0134034
859.677	0.0133666
859.755	0.0132719
859.833	0.0132122
859.911	0.0133051
859.989	0.0132804
860.068	0.0131731
860.146	0.0132011
860.224	0.0132378
860.302	0.0131279
860.380	0.0131647
860.458	0.0132737
860.536	0.0130939
860.614	0.0131593
860.693	0.0131672
860.771	0.0131644
860.849	0.0132164
860.927	0.0132008
861.005	0.0132581
861.083	0.0131778
861.161	0.0132177
861.239	0.0131125
861.318	0.0131874
861.396	0.0132866
861.474	0.0131497
861.552	0.0133062
861.630	0.0131867
861.708	0.0133087
861.786	0.0133480
861.864	0.0133434
861.943	0.0131918
862.021	0.0133534
862.099	0.0133049
862.177	0.0134384
862.255	0.0134072
862.333	0.0134511
862.411	0.0133147
862.489	0.0133898
862.568	0.0133862
862.646	0.0134345
862.724	0.0134440
862.802	0.0134415
862.880	0.0133972
862.958	0.0133280
863.036	0.0133495
863.114	0.0132264
863.193	0.0132266
863.271	0.0133291
863.349	0.0132547
863.427	0.0131039
863.505	0.0130956
863.583	0.0132536
863.661	0.0132130
863.739	0.0131237
863.818	0.0131602
863.896	0.0131482
863.974	0.0130424
864.052	0.0130582
864.130	0.0130388
864.208	0.0131425
864.286	0.0130305
864.364	0.0131059
864.443	0.0131570
864.521	0.0131582
864.599	0.0130706
864.677	0.0131525
864.755	0.0131632
864.833	0.0130067
864.911	0.0133653
864.989	0.0133089
865.068	0.0133250
865.146	0.0133798
865.224	0.0134429
865.302	0.0133287
865.380	0.0132946
865.458	0.0133251
865.536	0.0135204
865.614	0.0133641
865.693	0.0132953
865.771	0.0134106
865.849	0.0134873
865.927	0.0133041
866.005	0.0133909
866.083	0.0133389
866.161	0.0133325
866.239	0.0133526
866.318	0.0131918
866.396	0.0133527
866.474	0.0132617
866.552	0.0132794
866.630	0.0132870
866.708	0.0132237
866.786	0.0133449
866.864	0.0132560
866.943	0.0130229
867.021	0.0131554
867.099	0.0130926
867.177	0.0131445
867.255	0.0132291
867.333	0.0129513
867.411	0.0131541
867.489	0.0132838
867.568	0.0131566
867.646	0.0130508
867.724	0.0131878
867.802	0.0132473
867.880	0.0131322
867.958	0.0130887
868.036	0.0131731
868.114	0.0131901
868.193	0.0132365
868.271	0.0133733
868.349	0.0132072
868.427	0.0132545
868.505	0.0132279
868.583	0.0133083
868.661	0.0132259
868.739	0.0132196
868.818	0.0133750
868.896	0.0133156
868.974	0.0133184
869.052	0.0134196
869.130	0.0134740
869.208	0.0134740
869.286	0.0135382
869.364	0.0133457
869.443	0.0134940
869.521	0.0135732
869.599	0.0135335
869.677	0.0134842
869.755	0.0135400
869.833	0.0135983
869.911	0.0135215
869.989	0.0135364
870.068	0.0135845
870.146	0.0135210
870.224	0.0134187
870.302	0.0136283
870.380	0.0136044
870.458	0.0134978
870.536	0.0133727
870.614	0.0135567
870.693	0.0135080
870.771	0.0134035
870.849	0.0133572
870.927	0.0133411
871.005	0.0132794
871.083	0.0132747
871.161	0.0132286
871.239	0.0131834
871.318	0.0132617
871.396	0.0132928
871.474	0.0132652
871.552	0.0131628
871.630	0.0132958
871.708	0.0133170
871.786	0.0131627
871.864	0.0132096
871.943	0.0131876
872.021	0.0132556
872.099	0.0132387
872.177	0.0132430
872.255	0.0131778
872.333	0.0132138
872.411	0.0132947
872.489	0.0133577
872.568	0.0135242
872.646	0.0133697
872.724	0.0132500
872.802	0.0132861
872.880	0.0133765
872.958	0.0135065
873.036	0.0134623
873.114	0.0134402
873.193	0.0134565
873.271	0.0134187
873.349	0.0134364
873.427	0.0134845
873.505	0.0134435
873.583	0.0133651
873.661	0.0133891
873.739	0.0133598
873.818	0.0133562
873.896	0.0134611
873.974	0.0134108
874.052	0.0133981
874.130	0.0133278
874.208	0.0132928
874.286	0.0134145
874.364	0.0133936
874.443	0.0134811
874.521	0.0133925
874.599	0.0134056
874.677	0.0134696
874.755	0.0132828
874.833	0.0133308
874.911	0.0131931
874.989	0.0132512
875.068	0.0131576
875.146	0.0132129
875.224	0.0131728
875.302	0.0132592
875.380	0.0131677
875.458	0.0132125
875.536	0.0132275
875.614	0.0130302
875.693	0.0131649
875.771	0.0132402
875.849	0.0132477
875.927	0.0132742
876.005	0.0131726
876.083	0.0132322
876.161	0.0132777
876.239	0.0132704
876.318	0.0132363
876.396	0.0133791
876.474	0.0134312
876.552	0.0133766
876.630	0.0133970
876.708	0.0134457
876.786	0.0136090
876.864	0.0134877
876.943	0.0135863
877.021	0.0135068
877.099	0.0135662
877.177	0.0134198
877.255	0.0134863
877.333	0.0135587
877.411	0.0133637
877.489	0.0134370
877.568	0.0135419
877.646	0.0134018
877.724	0.0134890
877.802	0.0133738
877.880	0.0132516
877.958	0.0133785
878.036	0.0131656
878.114	0.0133425
878.193	0.0134118
878.271	0.0134438
878.349	0.0132986
878.427	0.0132493
878.505	0.0133485
878.583	0.0133846
878.661	0.0132983
878.739	0.0133128
878.818	0.0133541
878.896	0.0133530
878.974	0.0133990
879.052	0.0133469
879.130	0.0133904
879.208	0.0132409
879.286	0.0131956
879.364	0.0135323
879.443	0.0133833
879.521	0.0133009
879.599	0.0133118
879.677	0.0132991
879.755	0.0133178
879.833	0.0133561
879.911	0.0132919
879.989	0.0132835
880.068	0.0134029
880.146	0.0133829
880.224	0.0134095
880.302	0.0132892
880.380	0.0133090
880.458	0.0132620
880.536	0.0133871
880.614	0.0134454
880.693	0.0134786
880.771	0.0133227
880.849	0.0135264
880.927	0.0134512
881.005	0.0134323
881.083	0.0134914
881.161	0.0133582
881.239	0.0135117
881.318	0.0133395
881.396	0.0134524
881.474	0.0133377
881.552	0.0134299
881.630	0.0133713
881.708	0.0133868
881.786	0.0132195
881.864	0.0133987
881.943	0.0133932
882.021	0.0133114
882.099	0.0133568
882.177	0.0132867
882.255	0.0133247
882.333	0.0132627
882.411	0.0133571
882.489	0.0134299
882.568	0.0133474
882.646	0.0133704
882.724	0.0134762
882.802	0.0134025
882.880	0.0133862
882.958	0.0134785
883.036	0.0134967
883.114	0.0135015
883.193	0.0133490
883.271	0.0135151
883.349	0.0134881
883.427	0.0134599
883.505	0.0133307
883.583	0.0134058
883.661	0.0134543
883.739	0.0133817
883.818	0.0134054
883.896	0.0132667
883.974	0.0134049
884.052	0.0132983
884.130	0.0135090
884.208	0.0134398
884.286	0.0133513
884.364	0.0133507
884.443	0.0134220
884.521	0.0135386
884.599	0.0136981
884.677	0.0135893
884.755	0.0134735
884.833	0.0133597
884.911	0.0135475
884.989	0.0134873
885.068	0.0134438
885.146	0.0134411
885.224	0.0135133
885.302	0.0134582
885.380	0.0135535
885.458	0.0132806
885.536	0.0133506
885.614	0.0133144
885.693	0.0135587
885.771	0.0132185
885.849	0.0134805
885.927	0.0133703
886.005	0.0133093
886.083	0.0132354
886.161	0.0132016
886.239	0.0132826
886.318	0.0131993
886.396	0.0132417
886.474	0.0131419
886.552	0.0130442
886.630	0.0130947
886.708	0.0130939
886.786	0.0130579
886.864	0.0130158
886.943	0.0130450
887.021	0.0129121
887.099	0.0128550
887.177	0.0128694
887.255	0.0129750
887.333	0.0130035
887.411	0.0128783
887.489	0.0130021
887.568	0.0128320
887.646	0.0129147
887.724	0.0129327
887.802	0.0129480
887.880	0.0130695
887.958	0.0130363
888.036	0.0130210
888.114	0.0130404
888.193	0.0131277
888.271	0.0130109
888.349	0.0132418
888.427	0.0131536
888.505	0.0131542
888.583	0.0132080
888.661	0.0131256
888.739	0.0133224
888.818	0.0132416
888.896	0.0131721
888.974	0.0132967
889.052	0.0132687
889.130	0.0132514
889.208	0.0134584
889.286	0.0134290
889.364	0.0131680
889.443	0.0132652
889.521	0.0133022
889.599	0.0133537
889.677	0.0133484
889.755	0.0133003
889.833	0.0133611
889.911	0.0134108
889.989	0.0133501
890.068	0.0134164
890.146	0.0134147
890.224	0.0133706
890.302	0.0133547
890.380	0.0132060
890.458	0.0133085
890.536	0.0135194
890.614	0.0133711
890.693	0.0132640
890.771	0.0133253
890.849	0.0132960
890.927	0.0133042
891.005	0.0132529
891.083	0.0133305
891.161	0.0132302
891.239	0.0132601
891.318	0.0132602
891.396	0.0132789
891.474	0.0133011
891.552	0.0132968
891.630	0.0131482
891.708	0.0133791
891.786	0.0133075
891.864	0.0132486
891.943	0.0133299
892.021	0.0132867
892.099	0.0132031
892.177	0.0132732
892.255	0.0131548
892.333	0.0130505
892.411	0.0132553
892.489	0.0131053
892.568	0.0131624
892.646	0.0132417
892.724	0.0131779
892.802	0.0130291
892.880	0.0131347
892.958	0.0132150
893.036	0.0132604
893.114	0.0130429
893.193	0.0132031
893.271	0.0132979
893.349	0.0132199
893.427	0.0131984
893.505	0.0131173
893.583	0.0132043
893.661	0.0131444
893.739	0.0130636
893.818	0.0131291
893.896	0.0130475
893.974	0.0130338
894.052	0.0131515
894.130	0.0131363
894.208	0.0130666
894.286	0.0130116
894.364	0.0131288
894.443	0.0131389
894.521	0.0130849
894.599	0.0131357
894.677	0.0132800
894.755	0.0131324
894.833	0.0131270
894.911	0.0130683
894.989	0.0132167
895.068	0.0131302
895.146	0.0132497
895.224	0.0132651
895.302	0.0132594
895.380	0.0133119
895.458	0.0132635
895.536	0.0133728
895.614	0.0132383
895.693	0.0133672
895.771	0.0134972
895.849	0.0134093
895.927	0.0134111
896.005	0.0134125
896.083	0.0133501
896.161	0.0133175
896.239	0.0134048
896.318	0.0133929
896.396	0.0133218
896.474	0.0133482
896.552	0.0134378
896.630	0.0134617
896.708	0.0134017
896.786	0.0133479
896.864	0.0135178
896.943	0.0134879
897.021	0.0134969
897.099	0.0134496
897.177	0.0133909
897.255	0.0135055
897.333	0.0133990
897.411	0.0133457
897.489	0.0135645
897.568	0.0133659
897.646	0.0133941
897.724	0.0133521
897.802	0.0133986
897.880	0.0134575
897.958	0.0136353
898.036	0.0134410
898.114	0.0133230
898.193	0.0133562
898.271	0.0134306
898.349	0.0133057
898.427	0.0132705
898.505	0.0134091
898.583	0.0133749
898.661	0.0131524
898.739	0.0133417
898.818	0.0132783
898.896	0.0132661
898.974	0.0132954
899.052	0.0132851
899.130	0.0133016
899.208	0.0131703
899.286	0.0131989
899.364	0.0132043
899.443	0.0131080
899.521	0.0131116
899.599	0.0130740
899.677	0.0133306
899.755	0.0133092
899.833	0.0132242
899.911	0.0132307
899.989	0.0132663
900.068	0.0132511
900.146	0.0132151
900.224	0.0132087
900.302	0.0133362
900.380	0.0133186
900.458	0.0133258
900.536	0.0133331
900.614	0.0134000
900.693	0.0134593
900.771	0.0134422
900.849	0.0133892
900.927	0.0135608
901.005	0.0134964
901.083	0.0134869
901.161	0.0134998
901.239	0.0136629
901.318	0.0136008
901.396	0.0135923
901.474	0.0136053
901.552	0.0136036
901.630	0.0136335
901.708	0.0136787
901.786	0.0135861
901.864	0.0136142
901.943	0.0134836
902.021	0.0134926
902.099	0.0134586
902.177	0.0136040
902.255	0.0135381
902.333	0.0134050
902.411	0.0133120
902.489	0.0133826
902.568	0.0134489
902.646	0.0133527
902.724	0.0133326
902.802	0.0134282
902.880	0.0134273
902.958	0.0132515
903.036	0.0133190
903.114	0.0132008
903.193	0.0132921
903.271	0.0134393
903.349	0.0134786
903.427	0.0133018
903.505	0.0132642
903.583	0.0132298
903.661	0.0132951
903.739	0.0132994
903.818	0.0133932
903.896	0.0133566
903.974	0.0131986
904.052	0.0132719
904.130	0.0132860
904.208	0.0133726
904.286	0.0133186
904.364	0.0132533
904.443	0.0132788
904.521	0.0132747
904.599	0.0130803
904.677	0.0132249
904.755	0.0134327
904.833	0.0133162
904.911	0.0132559
904.989	0.0132365
905.068	0.0131546
905.146	0.0131805
905.224	0.0132132
905.302	0.0133677
905.380	0.0132992
905.458	0.0131365
905.536	0.0132694
905.614	0.0132986
905.693	0.0130973
905.771	0.0130811
905.849	0.0132936
905.927	0.0133266
906.005	0.0131910
906.083	0.0132800
906.161	0.0133431
906.239	0.0133070
906.318	0.0132371
906.396	0.0133113
906.474	0.0135085
906.552	0.0133702
906.630	0.0133602
906.708	0.0135666
906.786	0.0136026
906.864	0.0135709
906.943	0.0136671
907.021	0.0134222
907.099	0.0134690
907.177	0.0136596
907.255	0.0135947
907.333	0.0137135
907.411	0.0135333
907.489	0.0134844
907.568	0.0136137
907.646	0.0135347
907.724	0.0135809
907.802	0.0135990
907.880	0.0133394
907.958	0.0134861
908.036	0.0135035
908.114	0.0134994
908.193	0.0134573
908.271	0.0133595
908.349	0.0133593
908.427	0.0134747
908.505	0.0132812
908.583	0.0133942
908.661	0.0133321
908.739	0.0133949
908.818	0.0132783
908.896	0.0132735
908.974	0.0134672
909.052	0.0134039
909.130	0.0133551
909.208	0.0133328
909.286	0.0133275
909.364	0.0133950
909.443	0.0132773
909.521	0.0132841
909.599	0.0133099
909.677	0.0134481
909.755	0.0132616
909.833	0.0132927
909.911	0.0133749
909.989	0.0134274
910.068	0.0132119
910.146	0.0133091
910.224	0.0133152
910.302	0.0134116
910.380	0.0134083
910.458	0.0133724
910.536	0.0133067
910.614	0.0132912
910.693	0.0131806
910.771	0.0133099
910.849	0.0131975
910.927	0.0132557
911.005	0.0133509
911.083	0.0132875
911.161	0.0132704
911.239	0.0133299
911.318	0.0132154
911.396	0.0133347
911.474	0.0134093
911.552	0.0133427
911.630	0.0132873
911.708	0.0131704
911.786	0.0132909
911.864	0.0133100
911.943	0.0133130
912.021	0.0134427
912.099	0.0134291
912.177	0.0133447
912.255	0.0131836
912.333	0.0132854
912.411	0.0133582
912.489	0.0133601
912.568	0.0132184
912.646	0.0133639
912.724	0.0133710
912.802	0.0133139
912.880	0.0133549
912.958	0.0131802
913.036	0.0132176
913.114	0.0132778
913.193	0.0130935
913.271	0.0132133
913.349	0.0132031
913.427	0.0130943
913.505	0.0132186
913.583	0.0131523
913.661	0.0131866
913.739	0.0130523
913.818	0.0130646
913.896	0.0130112
913.974	0.0130766
914.052	0.0131224
914.130	0.0130519
914.208	0.0131597
914.286	0.0130948
914.364	0.0131396
914.443	0.0132488
914.521	0.0130865
914.599	0.0133555
914.677	0.0132348
914.755	0.0132595
914.833	0.0133996
914.911	0.0133102
914.989	0.0132661
915.068	0.0132665
915.146	0.0132874
915.224	0.0133331
915.302	0.0132363
915.380	0.0132912
915.458	0.0132989
915.536	0.0132646
915.614	0.0131357
915.693	0.0131346
915.771	0.0132234
915.849	0.0131516
915.927	0.0130580
916.005	0.0131721
916.083	0.0129916
916.161	0.0131486
916.239	0.0131582
916.318	0.0130504
916.396	0.0130348
916.474	0.0131370
916.552	0.0131512
916.630	0.0130890
916.708	0.0131235
916.786	0.0131743
916.864	0.0131151
916.943	0.0131757
917.021	0.0131865
917.099	0.0132492
917.177	0.0129913
917.255	0.0131362
917.333	0.0132370
917.411	0.0130621
917.489	0.0132838
917.568	0.0133463
917.646	0.0133472
917.724	0.0134044
917.802	0.0134319
917.880	0.0133068
917.958	0.0134280
918.036	0.0134325
918.114	0.0133272
918.193	0.0132533
918.271	0.0134412
918.349	0.0134234
918.427	0.0134323
918.505	0.0134654
918.583	0.0132741
918.661	0.0135161
918.739	0.0134623
918.818	0.0133504
918.896	0.0135301
918.974	0.0134332
919.052	0.0133215
919.130	0.0134010
919.208	0.0134346
919.286	0.0134406
919.364	0.0133270
919.443	0.0133889
919.521	0.0133688
919.599	0.0133319
919.677	0.0134958
919.755	0.0133186
919.833	0.0134734
919.911	0.0134158
919.989	0.0133308
920.068	0.0133654
920.146	0.0134808
920.224	0.0134435
920.302	0.0134147
920.380	0.0133878
920.458	0.0133517
920.536	0.0133614
920.614	0.0133229
920.693	0.0133820
920.771	0.0134467
920.849	0.0133591
920.927	0.0133909
921.005	0.0133751
921.083	0.0133440
921.161	0.0132686
921.239	0.0133369
921.318	0.0132398
921.396	0.0133835
921.474	0.0134149
921.552	0.0133658
921.630	0.0131971
921.708	0.0132581
921.786	0.0133475
921.864	0.0132893
921.943	0.0132762
922.021	0.0134629
922.099	0.0133997
922.177	0.0133929
922.255	0.0134471
922.333	0.0132687
922.411	0.0133309
922.489	0.0132911
922.568	0.0133772
922.646	0.0132507
922.724	0.0132764
922.802	0.0132909
922.880	0.0133467
922.958	0.0133959
923.036	0.0131157
923.114	0.0133026
923.193	0.0133976
923.271	0.0132417
923.349	0.0133142
923.427	0.0133117
923.505	0.0132274
923.583	0.0132722
923.661	0.0132910
923.739	0.0133588
923.818	0.0132477
923.896	0.0135668
923.974	0.0133086
924.052	0.0133717
924.130	0.0133159
924.208	0.0133499
924.286	0.0132685
924.364	0.0132353
924.443	0.0133525
924.521	0.0134090
924.599	0.0133244
924.677	0.0132104
924.755	0.0134303
924.833	0.0133264
924.911	0.0132050
924.989	0.0133198
925.068	0.0133293
925.146	0.0133776
925.224	0.0134140
925.302	0.0133364
925.380	0.0132558
925.458	0.0133305
925.536	0.0134988
925.614	0.0135009
925.693	0.0133642
925.771	0.0133620
925.849	0.0135265
925.927	0.0134321
926.005	0.0132761
926.083	0.0133213
926.161	0.0133158
926.239	0.0134476
926.318	0.0134237
926.396	0.0133319
926.474	0.0133504
926.552	0.0133164
926.630	0.0134249
926.708	0.0132438
926.786	0.0134364
926.864	0.0134682
926.943	0.0132707
927.021	0.0132895
927.099	0.0133403
927.177	0.0134109
927.255	0.0133375
927.333	0.0134483
927.411	0.0133624
927.489	0.0133737
927.568	0.0133340
927.646	0.0132803
927.724	0.0134110
927.802	0.0132821
927.880	0.0133392
927.958	0.0133577
928.036	0.0132588
928.114	0.0132411
928.193	0.0131815
928.271	0.0131644
928.349	0.0132649
928.427	0.0131877
928.505	0.0130944
928.583	0.0132008
928.661	0.0131374
928.739	0.0131876
928.818	0.0132223
928.896	0.0131754
928.974	0.0131218
929.052	0.0131358
929.130	0.0131693
929.208	0.0131055
929.286	0.0131461
929.364	0.0131140
929.443	0.0131939
929.521	0.0131780
929.599	0.0131573
929.677	0.0132100
929.755	0.0132224
929.833	0.0132132
929.911	0.0131960
929.989	0.0131437
930.068	0.0131764
930.146	0.0132536
930.224	0.0132410
930.302	0.0132754
930.380	0.0133125
930.458	0.0132312
930.536	0.0133572
930.614	0.0132373
930.693	0.0134550
930.771	0.0134868
930.849	0.0133775
930.927	0.0134737
931.005	0.0133022
931.083	0.0135331
931.161	0.0134427
931.239	0.0134219
931.318	0.0134209
931.396	0.0134492
931.474	0.0135174
931.552	0.0135500
931.630	0.0134096
931.708	0.0133648
931.786	0.0134949
931.864	0.0134268
931.943	0.0134699
932.021	0.0134212
932.099	0.0135717
932.177	0.0134196
932.255	0.0134132
932.333	0.0135288
932.411	0.0134063
932.489	0.0134920
932.568	0.0133636
932.646	0.0133038
932.724	0.0135170
932.802	0.0137077
932.880	0.0135677
932.958	0.0134959
933.036	0.0134925
933.114	0.0134338
933.193	0.0134822
933.271	0.0135651
933.349	0.0134825
933.427	0.0135279
933.505	0.0136187
933.583	0.0134845
933.661	0.0133862
933.739	0.0135108
933.818	0.0135043
933.896	0.0134643
933.974	0.0134933
934.052	0.0133659
934.130	0.0134027
934.208	0.0133961
934.286	0.0133136
934.364	0.0133487
934.443	0.0134248
934.521	0.0133941
934.599	0.0132246
934.677	0.0133730
934.755	0.0134553
934.833	0.0133540
934.911	0.0133722
934.989	0.0134283
935.068	0.0133910
935.146	0.0131715
935.224	0.0133107
935.302	0.0133228
935.380	0.0133735
935.458	0.0132951
935.536	0.0132974
935.614	0.0132433
935.693	0.0132581
935.771	0.0133778
935.849	0.0134029
935.927	0.0132711
936.005	0.0131847
936.083	0.0133473
936.161	0.0132327
936.239	0.0132895
936.318	0.0133010
936.396	0.0133284
936.474	0.0132565
936.552	0.0133076
936.630	0.0133234
936.708	0.0133376
936.786	0.0133820
936.864	0.0133699
936.943	0.0133059
937.021	0.0134097
937.099	0.0133722
937.177	0.0134531
937.255	0.0134357
937.333	0.0134790
937.411	0.0134861
937.489	0.0134866
937.568	0.0135421
937.646	0.0135444
937.724	0.0133827
937.802	0.0133804
937.880	0.0136163
937.958	0.0135194
938.036	0.0135416
938.114	0.0133923
938.193	0.0133726
938.271	0.0133546
938.349	0.0133607
938.427	0.0133769
938.505	0.0132830
938.583	0.0132705
938.661	0.0132360
938.739	0.0133440
938.818	0.0133321
938.896	0.0133463
938.974	0.0132725
939.052	0.0131698
939.130	0.0132759
939.208	0.0133272
939.286	0.0133190
939.364	0.0133799
939.443	0.0133624
939.521	0.0131374
939.599	0.0132284
939.677	0.0132513
939.755	0.0133167
939.833	0.0131055
939.911	0.0131635
939.989	0.0133722
940.068	0.0131854
940.146	0.0129250
940.224	0.0130759
940.302	0.0131586
940.380	0.0131359
940.458	0.0130141
940.536	0.0133378
940.614	0.0132092
940.693	0.0130329
940.771	0.0131637
940.849	0.0131758
940.927	0.0131455
941.005	0.0131738
941.083	0.0131251
941.161	0.0132047
941.239	0.0131969
941.318	0.0131225
941.396	0.0131489
941.474	0.0131921
941.552	0.0132621
941.630	0.0131226
941.708	0.0132041
941.786	0.0131470
941.864	0.0130788
941.943	0.0131194
942.021	0.0133296
942.099	0.0131610
942.177	0.0131406
942.255	0.0133416
942.333	0.0132005
942.411	0.0131409
942.489	0.0133173
942.568	0.0132648
942.646	0.0132341
942.724	0.0132848
942.802	0.0133138
942.880	0.0134337
942.958	0.0132705
943.036	0.0133562
943.114	0.0133720
943.193	0.0133945
943.271	0.0132397
943.349	0.0132298
943.427	0.0132978
943.505	0.0131551
943.583	0.0132048
943.661	0.0131380
943.739	0.0131152
943.818	0.0132006
943.896	0.0131226
943.974	0.0132146
944.052	0.0132041
944.130	0.0131666
944.208	0.0131889
944.286	0.0132678
944.364	0.0132314
944.443	0.0132446
944.521	0.0131905
944.599	0.0131255
944.677	0.0132365
944.755	0.0132963
944.833	0.0132440
944.911	0.0131936
944.989	0.0132346
945.068	0.0132185
945.146	0.0132526
945.224	0.0133505
945.302	0.0131390
945.380	0.0131654
945.458	0.0132894
945.536	0.0132713
945.614	0.0132307
945.693	0.0132465
945.771	0.0133437
945.849	0.0133450
945.927	0.0134696
946.005	0.0134161
946.083	0.0133104
946.161	0.0133526
946.239	0.0133501
946.318	0.0134975
946.396	0.0135099
946.474	0.0133937
946.552	0.0134624
946.630	0.0134327
946.708	0.0134319
946.786	0.0133623
946.864	0.0133538
946.943	0.0135031
947.021	0.0134850
947.099	0.0133766
947.177	0.0133742
947.255	0.0132767
947.333	0.0132310
947.411	0.0133637
947.489	0.0133315
947.568	0.0133175
947.646	0.0132831
947.724	0.0132632
947.802	0.0132191
947.880	0.0131745
947.958	0.0133023
948.036	0.0133836
948.114	0.0131202
948.193	0.0131087
948.271	0.0132818
948.349	0.0132915
948.427	0.0131754
948.505	0.0131704
948.583	0.0132973
948.661	0.0131918
948.739	0.0132663
948.818	0.0132079
948.896	0.0132835
948.974	0.0133038
949.052	0.0132323
949.130	0.0132624
949.208	0.0133063
949.286	0.0133996
949.364	0.0134393
949.443	0.0132413
949.521	0.0132927
949.599	0.0134286
949.677	0.0134105
949.755	0.0133559
949.833	0.0133456
949.911	0.0134792
949.989	0.0135081
950.068	0.0133408
950.146	0.0135761
950.224	0.0135274
950.302	0.0134407
950.380	0.0136508
950.458	0.0136063
950.536	0.0135321
950.614	0.0136913
950.693	0.0135650
950.771	0.0134849
950.849	0.0135748
950.927	0.0134943
951.005	0.0135397
951.083	0.0135158
951.161	0.0134258
951.239	0.0133966
951.318	0.0134940
951.396	0.0134868
951.474	0.0134457
951.552	0.0133555
951.630	0.0134152
951.708	0.0134004
951.786	0.0134201
951.864	0.0132796
951.943	0.0134061
952.021	0.0133608
952.099	0.0133797
952.177	0.0134023
952.255	0.0134197
952.333	0.0133372
952.411	0.0132687
952.489	0.0134664
952.568	0.0132894
952.646	0.0132286
952.724	0.0133127
952.802	0.0134181
952.880	0.0133865
952.958	0.0131285
953.036	0.0132867
953.114	0.0133289
953.193	0.0134850
953.271	0.0133482
953.349	0.0134395
953.427	0.0134620
953.505	0.0134872
953.583	0.0134521
953.661	0.0133019
953.739	0.0133852
953.818	0.0134029
953.896	0.0134492
953.974	0.0134760
954.052	0.0133740
954.130	0.0134899
954.208	0.0135446
954.286	0.0133755
954.364	0.0133376
954.443	0.0134927
954.521	0.0133125
954.599	0.0134218
954.677	0.0134052
954.755	0.0134214
954.833	0.0134307
954.911	0.0134843
954.989	0.0132485
955.068	0.0133984
955.146	0.0134851
955.224	0.0134919
955.302	0.0136337
955.380	0.0135284
955.458	0.0132780
955.536	0.0134667
955.614	0.0134503
955.693	0.0134015
955.771	0.0134256
955.849	0.0135242
955.927	0.0134027
956.005	0.0134392
956.083	0.0133814
956.161	0.0134494
956.239	0.0134394
956.318	0.0133565
956.396	0.0133246
956.474	0.0132993
956.552	0.0133676
956.630	0.0133643
956.708	0.0132909
956.786	0.0134019
956.864	0.0132104
956.943	0.0133968
957.021	0.0132799
957.099	0.0131205
957.177	0.0132384
957.255	0.0134438
957.333	0.0133759
957.411	0.0131150
957.489	0.0132378
957.568	0.0133901
957.646	0.0131931
957.724	0.0132100
957.802	0.0133018
957.880	0.0132440
957.958	0.0132516
958.036	0.0134654
958.114	0.0133509
958.193	0.0132091
958.271	0.0132729
958.349	0.0133390
958.427	0.0133939
958.505	0.0134110
958.583	0.0134145
958.661	0.0132940
958.739	0.0134035
958.818	0.0133625
958.896	0.0133367
958.974	0.0134828
959.052	0.0133330
959.130	0.0134978
959.208	0.0133990
959.286	0.0134418
959.364	0.0133581
959.443	0.0133436
959.521	0.0134019
959.599	0.0134244
959.677	0.0132906
959.755	0.0133024
959.833	0.0133921
959.911	0.0132910
