05/07/2022	17:46:18	Ver.	4.1	UNKNOWN
Optical Delay	639.989416	Delta X		0.078125	Sweeps	1	Scan Rate	0/0
Coordinates	Axis 1	NaN	Axis 2	NaN	Axis 3	NaN	Axis 4	NaN	Axis 5	NaN	Axis 6	0.000000
TX Power	0.000000	RX Power	0.000000

639.989	0.0134608
640.068	0.0136212
640.146	0.0136034
640.224	0.0136340
640.302	0.0136227
640.380	0.0136570
640.458	0.0136301
640.536	0.0135336
640.614	0.0135677
640.693	0.0135390
640.771	0.0135243
640.849	0.0134251
640.927	0.0134448
641.005	0.0134876
641.083	0.0134174
641.161	0.0135048
641.239	0.0134116
641.318	0.0133632
641.396	0.0133484
641.474	0.0133393
641.552	0.0133521
641.630	0.0132952
641.708	0.0133232
641.786	0.0132571
641.864	0.0134365
641.943	0.0135203
642.021	0.0133940
642.099	0.0135091
642.177	0.0135170
642.255	0.0135016
642.333	0.0135183
642.411	0.0136069
642.489	0.0136876
642.568	0.0135937
642.646	0.0136589
642.724	0.0135280
642.802	0.0134295
642.880	0.0134830
642.958	0.0135010
643.036	0.0135575
643.114	0.0134270
643.193	0.0133904
643.271	0.0132307
643.349	0.0132901
643.427	0.0133289
643.505	0.0131921
643.583	0.0132079
643.661	0.0131252
643.739	0.0131144
643.818	0.0130637
643.896	0.0131149
643.974	0.0131672
644.052	0.0130534
644.130	0.0132066
644.208	0.0132068
644.286	0.0131196
644.364	0.0131374
644.443	0.0133602
644.521	0.0134580
644.599	0.0133385
644.677	0.0134920
644.755	0.0135375
644.833	0.0135672
644.911	0.0135605
644.989	0.0136562
645.068	0.0137861
645.146	0.0137840
645.224	0.0138153
645.302	0.0139449
645.380	0.0138754
645.458	0.0139966
645.536	0.0139223
645.614	0.0139060
645.693	0.0138717
645.771	0.0139676
645.849	0.0138522
645.927	0.0136462
646.005	0.0134635
646.083	0.0135577
646.161	0.0134239
646.239	0.0132503
646.318	0.0131998
646.396	0.0131557
646.474	0.0132308
646.552	0.0129620
646.630	0.0129749
646.708	0.0130634
646.786	0.0129623
646.864	0.0129990
646.943	0.0128064
647.021	0.0129026
647.099	0.0127779
647.177	0.0127813
647.255	0.0130802
647.333	0.0132310
647.411	0.0131534
647.489	0.0130828
647.568	0.0131120
647.646	0.0133003
647.724	0.0133426
647.802	0.0132788
647.880	0.0133929
647.958	0.0135589
648.036	0.0136463
648.114	0.0137297
648.193	0.0137430
648.271	0.0137766
648.349	0.0137846
648.427	0.0138013
648.505	0.0138056
648.583	0.0138330
648.661	0.0137120
648.739	0.0138093
648.818	0.0139640
648.896	0.0138668
648.974	0.0137099
649.052	0.0138302
649.130	0.0137340
649.208	0.0137513
649.286	0.0138248
649.364	0.0138387
649.443	0.0138557
649.521	0.0137745
649.599	0.0136067
649.677	0.0135237
649.755	0.0136067
649.833	0.0135584
649.911	0.0134897
649.989	0.0133444
650.068	0.0133080
650.146	0.0133136
650.224	0.0131361
650.302	0.0131860
650.380	0.0132246
650.458	0.0129572
650.536	0.0129646
650.614	0.0130560
650.693	0.0129314
650.771	0.0127718
650.849	0.0128722
650.927	0.0128315
651.005	0.0126345
651.083	0.0127397
651.161	0.0126547
651.239	0.0126085
651.318	0.0124307
651.396	0.0126525
651.474	0.0125599
651.552	0.0125050
651.630	0.0125608
651.708	0.0127066
651.786	0.0126691
651.864	0.0127591
651.943	0.0128784
652.021	0.0129813
652.099	0.0131312
652.177	0.0133108
652.255	0.0133282
652.333	0.0134055
652.411	0.0135799
652.489	0.0136736
652.568	0.0138614
652.646	0.0140842
652.724	0.0141669
652.802	0.0142761
652.880	0.0143757
652.958	0.0144518
653.036	0.0145039
653.114	0.0144870
653.193	0.0146238
653.271	0.0147079
653.349	0.0146599
653.427	0.0146464
653.505	0.0145905
653.583	0.0144051
653.661	0.0142973
653.739	0.0142252
653.818	0.0140665
653.896	0.0139504
653.974	0.0137869
654.052	0.0135464
654.130	0.0133822
654.208	0.0132667
654.286	0.0130007
654.364	0.0127750
654.443	0.0126258
654.521	0.0124026
654.599	0.0122971
654.677	0.0121228
654.755	0.0119537
654.833	0.0119108
654.911	0.0117161
654.989	0.0117024
655.068	0.0114854
655.146	0.0116589
655.224	0.0118251
655.302	0.0115423
655.380	0.0118079
655.458	0.0116964
655.536	0.0118344
655.614	0.0118576
655.693	0.0122330
655.771	0.0123296
655.849	0.0124184
655.927	0.0127155
656.005	0.0131448
656.083	0.0130516
656.161	0.0132934
656.239	0.0134592
656.318	0.0136253
656.396	0.0139983
656.474	0.0142527
656.552	0.0143177
656.630	0.0146225
656.708	0.0147805
656.786	0.0149796
656.864	0.0150224
656.943	0.0151179
657.021	0.0153152
657.099	0.0153550
657.177	0.0153532
657.255	0.0153719
657.333	0.0154619
657.411	0.0152401
657.489	0.0150996
657.568	0.0151736
657.646	0.0151058
657.724	0.0149138
657.802	0.0147340
657.880	0.0145892
657.958	0.0142650
658.036	0.0142058
658.114	0.0140115
658.193	0.0138081
658.271	0.0133451
658.349	0.0132301
658.427	0.0131235
658.505	0.0127103
658.583	0.0124062
658.661	0.0122781
658.739	0.0120853
658.818	0.0117393
658.896	0.0116528
658.974	0.0113978
659.052	0.0112777
659.130	0.0112334
659.208	0.0111764
659.286	0.0110565
659.364	0.0111045
659.443	0.0110514
659.521	0.0112395
659.599	0.0112999
659.677	0.0112771
659.755	0.0113730
659.833	0.0116344
659.911	0.0117557
659.989	0.0119225
660.068	0.0120174
660.146	0.0123649
660.224	0.0126496
660.302	0.0128029
660.380	0.0129990
660.458	0.0132816
660.536	0.0135264
660.614	0.0137782
660.693	0.0139726
660.771	0.0142350
660.849	0.0145965
660.927	0.0147582
661.005	0.0149510
661.083	0.0153127
661.161	0.0154182
661.239	0.0155791
661.318	0.0157800
661.396	0.0158868
661.474	0.0161442
661.552	0.0162030
661.630	0.0162292
661.708	0.0163898
661.786	0.0162049
661.864	0.0160458
661.943	0.0158961
662.021	0.0158138
662.099	0.0158020
662.177	0.0153719
662.255	0.0152358
662.333	0.0150732
662.411	0.0146918
662.489	0.0142526
662.568	0.0139891
662.646	0.0137685
662.724	0.0134887
662.802	0.0130794
662.880	0.0125420
662.958	0.0121776
663.036	0.0118066
663.114	0.0117065
663.193	0.0113335
663.271	0.0109209
663.349	0.0105472
663.427	0.0103558
663.505	0.0101337
663.583	0.00991760
663.661	0.00984077
663.739	0.00984024
663.818	0.00997108
663.896	0.00985786
663.974	0.00989883
664.052	0.0100494
664.130	0.0103318
664.208	0.0106015
664.286	0.0107852
664.364	0.0111343
664.443	0.0114909
664.521	0.0118729
664.599	0.0122667
664.677	0.0127135
664.755	0.0130827
664.833	0.0135223
664.911	0.0139110
664.989	0.0141637
665.068	0.0145361
665.146	0.0149261
665.224	0.0150322
665.302	0.0153236
665.380	0.0155726
665.458	0.0156810
665.536	0.0159325
665.614	0.0161040
665.693	0.0160809
665.771	0.0160870
665.849	0.0161435
665.927	0.0161814
666.005	0.0162415
666.083	0.0160340
666.161	0.0158373
666.239	0.0157369
666.318	0.0157597
666.396	0.0154787
666.474	0.0153045
666.552	0.0151935
666.630	0.0148823
666.708	0.0146246
666.786	0.0143298
666.864	0.0141261
666.943	0.0139993
667.021	0.0136465
667.099	0.0132737
667.177	0.0129841
667.255	0.0127528
667.333	0.0126774
667.411	0.0121770
667.489	0.0120905
667.568	0.0118198
667.646	0.0114764
667.724	0.0113050
667.802	0.0111884
667.880	0.0107469
667.958	0.0107175
668.036	0.0106931
668.114	0.0106776
668.193	0.0105701
668.271	0.0106962
668.349	0.0104873
668.427	0.0107090
668.505	0.0108183
668.583	0.0108820
668.661	0.0111275
668.739	0.0113071
668.818	0.0115121
668.896	0.0117387
668.974	0.0119946
669.052	0.0122488
669.130	0.0125637
669.208	0.0130420
669.286	0.0133568
669.364	0.0135725
669.443	0.0139919
669.521	0.0142858
669.599	0.0145682
669.677	0.0148473
669.755	0.0149893
669.833	0.0154395
669.911	0.0154201
669.989	0.0154558
670.068	0.0155898
670.146	0.0156666
670.224	0.0157058
670.302	0.0156240
670.380	0.0155993
670.458	0.0156072
670.536	0.0154505
670.614	0.0152846
670.693	0.0150179
670.771	0.0147971
670.849	0.0145498
670.927	0.0142729
671.005	0.0142043
671.083	0.0139741
671.161	0.0137930
671.239	0.0135135
671.318	0.0133117
671.396	0.0133338
671.474	0.0129490
671.552	0.0128584
671.630	0.0128123
671.708	0.0126145
671.786	0.0125483
671.864	0.0124899
671.943	0.0125001
672.021	0.0123134
672.099	0.0124632
672.177	0.0125697
672.255	0.0125484
672.333	0.0126288
672.411	0.0125428
672.489	0.0126919
672.568	0.0126631
672.646	0.0128812
672.724	0.0128761
672.802	0.0129027
672.880	0.0130193
672.958	0.0131010
673.036	0.0131696
673.114	0.0131676
673.193	0.0132870
673.271	0.0134261
673.349	0.0132519
673.427	0.0134948
673.505	0.0135123
673.583	0.0135684
673.661	0.0135902
673.739	0.0135822
673.818	0.0134995
673.896	0.0134758
673.974	0.0133974
674.052	0.0135134
674.130	0.0133517
674.208	0.0134340
674.286	0.0132832
674.364	0.0132967
674.443	0.0131750
674.521	0.0132610
674.599	0.0132263
674.677	0.0133373
674.755	0.0132551
674.833	0.0131723
674.911	0.0130910
674.989	0.0132694
675.068	0.0131762
675.146	0.0130947
675.224	0.0131054
675.302	0.0132040
675.380	0.0130525
675.458	0.0129839
675.536	0.0130357
675.614	0.0130642
675.693	0.0130656
675.771	0.0130072
675.849	0.0131142
675.927	0.0130537
676.005	0.0132630
676.083	0.0132528
676.161	0.0132985
676.239	0.0134696
676.318	0.0135096
676.396	0.0135105
676.474	0.0135228
676.552	0.0136332
676.630	0.0136881
676.708	0.0138783
676.786	0.0139175
676.864	0.0141247
676.943	0.0141844
677.021	0.0142158
677.099	0.0142788
677.177	0.0142863
677.255	0.0144397
677.333	0.0142237
677.411	0.0144846
677.489	0.0146229
677.568	0.0145029
677.646	0.0144771
677.724	0.0145219
677.802	0.0144946
677.880	0.0144118
677.958	0.0141927
678.036	0.0141753
678.114	0.0141821
678.193	0.0140582
678.271	0.0139805
678.349	0.0137577
678.427	0.0136600
678.505	0.0135703
678.583	0.0133773
678.661	0.0132265
678.739	0.0130559
678.818	0.0127953
678.896	0.0126385
678.974	0.0125092
679.052	0.0124150
679.130	0.0121127
679.208	0.0121362
679.286	0.0119814
679.364	0.0117779
679.443	0.0117249
679.521	0.0115739
679.599	0.0116657
679.677	0.0116010
679.755	0.0116759
679.833	0.0115713
679.911	0.0117730
679.989	0.0118291
680.068	0.0118773
680.146	0.0120925
680.224	0.0121022
680.302	0.0123129
680.380	0.0124520
680.458	0.0127271
680.536	0.0128986
680.614	0.0130588
680.693	0.0135002
680.771	0.0136941
680.849	0.0137093
680.927	0.0139545
681.005	0.0143211
681.083	0.0144416
681.161	0.0144456
681.239	0.0147684
681.318	0.0148982
681.396	0.0149414
681.474	0.0149841
681.552	0.0151283
681.630	0.0151568
681.708	0.0150543
681.786	0.0151141
681.864	0.0151188
681.943	0.0151147
682.021	0.0149589
682.099	0.0147785
682.177	0.0148003
682.255	0.0145763
682.333	0.0144724
682.411	0.0144086
682.489	0.0140385
682.568	0.0139423
682.646	0.0138094
682.724	0.0137493
682.802	0.0135600
682.880	0.0133360
682.958	0.0131900
683.036	0.0133329
683.114	0.0130990
683.193	0.0130389
683.271	0.0130948
683.349	0.0130888
683.427	0.0130911
683.505	0.0131440
683.583	0.0131350
683.661	0.0130184
683.739	0.0130689
683.818	0.0132197
683.896	0.0131748
683.974	0.0132758
684.052	0.0133051
684.130	0.0131489
684.208	0.0133765
684.286	0.0133030
684.364	0.0133093
684.443	0.0133242
684.521	0.0131648
684.599	0.0131747
684.677	0.0130854
684.755	0.0130313
684.833	0.0131316
684.911	0.0128875
684.989	0.0128261
685.068	0.0127441
685.146	0.0126624
685.224	0.0125533
685.302	0.0125740
685.380	0.0123601
685.458	0.0125112
685.536	0.0125291
685.614	0.0125082
685.693	0.0125481
685.771	0.0125143
685.849	0.0124646
685.927	0.0125813
686.005	0.0129104
686.083	0.0127827
686.161	0.0128580
686.239	0.0129628
686.318	0.0130713
686.396	0.0132550
686.474	0.0133066
686.552	0.0133647
686.630	0.0134866
686.708	0.0134888
686.786	0.0135317
686.864	0.0136945
686.943	0.0137048
687.021	0.0137874
687.099	0.0139108
687.177	0.0138169
687.255	0.0140294
687.333	0.0139886
687.411	0.0140424
687.489	0.0142481
687.568	0.0143492
687.646	0.0142190
687.724	0.0141749
687.802	0.0141444
687.880	0.0142493
687.958	0.0141168
688.036	0.0141039
688.114	0.0141574
688.193	0.0138840
688.271	0.0139593
688.349	0.0138395
688.427	0.0138885
688.505	0.0139171
688.583	0.0137504
688.661	0.0136228
688.739	0.0137476
688.818	0.0136395
688.896	0.0136198
688.974	0.0134526
689.052	0.0135413
689.130	0.0137304
689.208	0.0136012
689.286	0.0134694
689.364	0.0134447
689.443	0.0135677
689.521	0.0133311
689.599	0.0133305
689.677	0.0133014
689.755	0.0132858
689.833	0.0132583
689.911	0.0130401
689.989	0.0130043
690.068	0.0129985
690.146	0.0127667
690.224	0.0126390
690.302	0.0126797
690.380	0.0125507
690.458	0.0123676
690.536	0.0122785
690.614	0.0121127
690.693	0.0119738
690.771	0.0119142
690.849	0.0118821
690.927	0.0117928
691.005	0.0116372
691.083	0.0117400
691.161	0.0117306
691.239	0.0117938
691.318	0.0118974
691.396	0.0118586
691.474	0.0119446
691.552	0.0119839
691.630	0.0120747
691.708	0.0123828
691.786	0.0124910
691.864	0.0125784
691.943	0.0126488
692.021	0.0129232
692.099	0.0130938
692.177	0.0132100
692.255	0.0135416
692.333	0.0137666
692.411	0.0140182
692.489	0.0140844
692.568	0.0142219
692.646	0.0144950
692.724	0.0145821
692.802	0.0147334
692.880	0.0148498
692.958	0.0149525
693.036	0.0150811
693.114	0.0150646
693.193	0.0150439
693.271	0.0150760
693.349	0.0151294
693.427	0.0151515
693.505	0.0151358
693.583	0.0150387
693.661	0.0148905
693.739	0.0147581
693.818	0.0146704
693.896	0.0145587
693.974	0.0143333
694.052	0.0142293
694.130	0.0139256
694.208	0.0136671
694.286	0.0136165
694.364	0.0134291
694.443	0.0130743
694.521	0.0128635
694.599	0.0128455
694.677	0.0126343
694.755	0.0123604
694.833	0.0123072
694.911	0.0122578
694.989	0.0120419
695.068	0.0119691
695.146	0.0118710
695.224	0.0120345
695.302	0.0120236
695.380	0.0118729
695.458	0.0119113
695.536	0.0120393
695.614	0.0119218
695.693	0.0119331
695.771	0.0121436
695.849	0.0121325
695.927	0.0121949
696.005	0.0121899
696.083	0.0124567
696.161	0.0125751
696.239	0.0126311
696.318	0.0127371
696.396	0.0129357
696.474	0.0128611
696.552	0.0128270
696.630	0.0132320
696.708	0.0131833
696.786	0.0133580
696.864	0.0133954
696.943	0.0132269
697.021	0.0134357
697.099	0.0135616
697.177	0.0135134
697.255	0.0135699
697.333	0.0136813
697.411	0.0137215
697.489	0.0136028
697.568	0.0136501
697.646	0.0138638
697.724	0.0138825
697.802	0.0139799
697.880	0.0138206
697.958	0.0140282
698.036	0.0140441
698.114	0.0139199
698.193	0.0139415
698.271	0.0141785
698.349	0.0140895
698.427	0.0139308
698.505	0.0138985
698.583	0.0140649
698.661	0.0139316
698.739	0.0140315
698.818	0.0140121
698.896	0.0139130
698.974	0.0137900
699.052	0.0138663
699.130	0.0138669
699.208	0.0137371
699.286	0.0138557
699.364	0.0137754
699.443	0.0136011
699.521	0.0137418
699.599	0.0136587
699.677	0.0135385
699.755	0.0134756
699.833	0.0133183
699.911	0.0132281
699.989	0.0132488
700.068	0.0132594
700.146	0.0131480
700.224	0.0130941
700.302	0.0131916
700.380	0.0130785
700.458	0.0130614
700.536	0.0130144
700.614	0.0129337
700.693	0.0130087
700.771	0.0129848
700.849	0.0130928
700.927	0.0131574
701.005	0.0132205
701.083	0.0133519
701.161	0.0133522
701.239	0.0134200
701.318	0.0134360
701.396	0.0132990
701.474	0.0136456
701.552	0.0136382
701.630	0.0137501
701.708	0.0137935
701.786	0.0138702
701.864	0.0136635
701.943	0.0137539
702.021	0.0139423
702.099	0.0138050
702.177	0.0138353
702.255	0.0139079
702.333	0.0138524
702.411	0.0137178
702.489	0.0138260
702.568	0.0136913
702.646	0.0135253
702.724	0.0135316
702.802	0.0133823
702.880	0.0133574
702.958	0.0133671
703.036	0.0132814
703.114	0.0132156
703.193	0.0131269
703.271	0.0130220
703.349	0.0129743
703.427	0.0126807
703.505	0.0127440
703.583	0.0127604
703.661	0.0127274
703.739	0.0128228
703.818	0.0128248
703.896	0.0128015
703.974	0.0127744
704.052	0.0128625
704.130	0.0127806
704.208	0.0128491
704.286	0.0129704
704.364	0.0130813
704.443	0.0131490
704.521	0.0132632
704.599	0.0134212
704.677	0.0134548
704.755	0.0132681
704.833	0.0133729
704.911	0.0139130
704.989	0.0138556
705.068	0.0139186
705.146	0.0141212
705.224	0.0139391
705.302	0.0141083
705.380	0.0143051
705.458	0.0142654
705.536	0.0144138
705.614	0.0143520
705.693	0.0144521
705.771	0.0142655
705.849	0.0144077
705.927	0.0144591
706.005	0.0143872
706.083	0.0143122
706.161	0.0143054
706.239	0.0142735
706.318	0.0141879
706.396	0.0141135
706.474	0.0140192
706.552	0.0139169
706.630	0.0137808
706.708	0.0138492
706.786	0.0136620
706.864	0.0136427
706.943	0.0134843
707.021	0.0132931
707.099	0.0132427
707.177	0.0130376
707.255	0.0129836
707.333	0.0129391
707.411	0.0128674
707.489	0.0127238
707.568	0.0126318
707.646	0.0125462
707.724	0.0125309
707.802	0.0124476
707.880	0.0124762
707.958	0.0124127
708.036	0.0124252
708.114	0.0124044
708.193	0.0124043
708.271	0.0124530
708.349	0.0124250
708.427	0.0124828
708.505	0.0127637
708.583	0.0126651
708.661	0.0127364
708.739	0.0127517
708.818	0.0128789
708.896	0.0128825
708.974	0.0129517
709.052	0.0129572
709.130	0.0129323
709.208	0.0130679
709.286	0.0129868
709.364	0.0129359
709.443	0.0129960
709.521	0.0131383
709.599	0.0130636
709.677	0.0130881
709.755	0.0131600
709.833	0.0131532
709.911	0.0130641
709.989	0.0131660
710.068	0.0132622
710.146	0.0131236
710.224	0.0133915
710.302	0.0133193
710.380	0.0132088
710.458	0.0133544
710.536	0.0132796
710.614	0.0133478
710.693	0.0136211
710.771	0.0136549
710.849	0.0135065
710.927	0.0137398
711.005	0.0138895
711.083	0.0137814
711.161	0.0139264
711.239	0.0142210
711.318	0.0140559
711.396	0.0142796
711.474	0.0144331
711.552	0.0145162
711.630	0.0145656
711.708	0.0145798
711.786	0.0146162
711.864	0.0146223
711.943	0.0144700
712.021	0.0143388
712.099	0.0143426
712.177	0.0144179
712.255	0.0142525
712.333	0.0140879
712.411	0.0140060
712.489	0.0138722
712.568	0.0137978
712.646	0.0136264
712.724	0.0133942
712.802	0.0133069
712.880	0.0132552
712.958	0.0130405
713.036	0.0129032
713.114	0.0127818
713.193	0.0126776
713.271	0.0126019
713.349	0.0124908
713.427	0.0124284
713.505	0.0124414
713.583	0.0122746
713.661	0.0122714
713.739	0.0124113
713.818	0.0123450
713.896	0.0123955
713.974	0.0124463
714.052	0.0125420
714.130	0.0126237
714.208	0.0126062
714.286	0.0126679
714.364	0.0126345
714.443	0.0129285
714.521	0.0128506
714.599	0.0129025
714.677	0.0130752
714.755	0.0131799
714.833	0.0130769
714.911	0.0130345
714.989	0.0132529
715.068	0.0133854
715.146	0.0131406
715.224	0.0133468
715.302	0.0133530
715.380	0.0134702
715.458	0.0134464
715.536	0.0135044
715.614	0.0135003
715.693	0.0134293
715.771	0.0134538
715.849	0.0134827
715.927	0.0134653
716.005	0.0135260
716.083	0.0134664
716.161	0.0134667
716.239	0.0135078
716.318	0.0133895
716.396	0.0135393
716.474	0.0134696
716.552	0.0134992
716.630	0.0135495
716.708	0.0135535
716.786	0.0134452
716.864	0.0132397
716.943	0.0133870
717.021	0.0132503
717.099	0.0135012
717.177	0.0134262
717.255	0.0135099
717.333	0.0133822
717.411	0.0133984
717.489	0.0134611
717.568	0.0134977
717.646	0.0134496
717.724	0.0136302
717.802	0.0136432
717.880	0.0135951
717.958	0.0136418
718.036	0.0135562
718.114	0.0135828
718.193	0.0137212
718.271	0.0135446
718.349	0.0136244
718.427	0.0136697
718.505	0.0135416
718.583	0.0135429
718.661	0.0134890
718.739	0.0134193
718.818	0.0135863
718.896	0.0134186
718.974	0.0133663
719.052	0.0133029
719.130	0.0132702
719.208	0.0134029
719.286	0.0132976
719.364	0.0132375
719.443	0.0131495
719.521	0.0131098
719.599	0.0131524
719.677	0.0130510
719.755	0.0129841
719.833	0.0128497
719.911	0.0128797
719.989	0.0129585
720.068	0.0129163
720.146	0.0128102
720.224	0.0127982
720.302	0.0127085
720.380	0.0125341
720.458	0.0126994
720.536	0.0126046
720.614	0.0126595
720.693	0.0127048
720.771	0.0126814
720.849	0.0126449
720.927	0.0128069
721.005	0.0128081
721.083	0.0127660
721.161	0.0129589
721.239	0.0129057
721.318	0.0131048
721.396	0.0132249
721.474	0.0132905
721.552	0.0131817
721.630	0.0132710
721.708	0.0133317
721.786	0.0134121
721.864	0.0133207
721.943	0.0132739
722.021	0.0133192
722.099	0.0134234
722.177	0.0134338
722.255	0.0133582
722.333	0.0134965
722.411	0.0135381
722.489	0.0134004
722.568	0.0134615
722.646	0.0134758
722.724	0.0135027
722.802	0.0134600
722.880	0.0133416
722.958	0.0133144
723.036	0.0134222
723.114	0.0133136
723.193	0.0132544
723.271	0.0131865
723.349	0.0132880
723.427	0.0132530
723.505	0.0134215
723.583	0.0132487
723.661	0.0132632
723.739	0.0133195
723.818	0.0132951
723.896	0.0134743
723.974	0.0134119
724.052	0.0133169
724.130	0.0134538
724.208	0.0135924
724.286	0.0136307
724.364	0.0136109
724.443	0.0136258
724.521	0.0138619
724.599	0.0136868
724.677	0.0138033
724.755	0.0139211
724.833	0.0137399
724.911	0.0137939
724.989	0.0140197
725.068	0.0140737
725.146	0.0138976
725.224	0.0138510
725.302	0.0138482
725.380	0.0137414
725.458	0.0137138
725.536	0.0136117
725.614	0.0135600
725.693	0.0134592
725.771	0.0133015
725.849	0.0132909
725.927	0.0132573
726.005	0.0130042
726.083	0.0131556
726.161	0.0132065
726.239	0.0129466
726.318	0.0130358
726.396	0.0128639
726.474	0.0128752
726.552	0.0128983
726.630	0.0128386
726.708	0.0128555
726.786	0.0128770
726.864	0.0129820
726.943	0.0130580
727.021	0.0129711
727.099	0.0129550
727.177	0.0128893
727.255	0.0129250
727.333	0.0129750
727.411	0.0130668
727.489	0.0131228
727.568	0.0131471
727.646	0.0132447
727.724	0.0132645
727.802	0.0131691
727.880	0.0132766
727.958	0.0131728
728.036	0.0134552
728.114	0.0135442
728.193	0.0133507
728.271	0.0133340
728.349	0.0134436
728.427	0.0135582
728.505	0.0134948
728.583	0.0135958
728.661	0.0135613
728.739	0.0136015
728.818	0.0136378
728.896	0.0135893
728.974	0.0136170
729.052	0.0136758
729.130	0.0136783
729.208	0.0134356
729.286	0.0135691
729.364	0.0136014
729.443	0.0137537
729.521	0.0136252
729.599	0.0135223
729.677	0.0137247
729.755	0.0135341
729.833	0.0136385
729.911	0.0136535
729.989	0.0137704
730.068	0.0136795
730.146	0.0137692
730.224	0.0137180
730.302	0.0136870
730.380	0.0136756
730.458	0.0137476
730.536	0.0138782
730.614	0.0138696
730.693	0.0136574
730.771	0.0138012
730.849	0.0137713
730.927	0.0137207
731.005	0.0138531
731.083	0.0138023
731.161	0.0138149
731.239	0.0136076
731.318	0.0136676
731.396	0.0136530
731.474	0.0137012
731.552	0.0137189
731.630	0.0135441
731.708	0.0135287
731.786	0.0134077
731.864	0.0133372
731.943	0.0132307
732.021	0.0133888
732.099	0.0132432
732.177	0.0131686
732.255	0.0129773
732.333	0.0128839
732.411	0.0129787
732.489	0.0130205
732.568	0.0129435
732.646	0.0129511
732.724	0.0130423
732.802	0.0128917
732.880	0.0129042
732.958	0.0128394
733.036	0.0128448
733.114	0.0129375
733.193	0.0128242
733.271	0.0128355
733.349	0.0129248
733.427	0.0130830
733.505	0.0130139
733.583	0.0129722
733.661	0.0130070
733.739	0.0130772
733.818	0.0131212
733.896	0.0131567
733.974	0.0130557
734.052	0.0133424
734.130	0.0134373
734.208	0.0134834
734.286	0.0134184
734.364	0.0136611
734.443	0.0135779
734.521	0.0137104
734.599	0.0138098
734.677	0.0137754
734.755	0.0138319
734.833	0.0137250
734.911	0.0138032
734.989	0.0137433
735.068	0.0136904
735.146	0.0137281
735.224	0.0137148
735.302	0.0136958
735.380	0.0135983
735.458	0.0135175
735.536	0.0136672
735.614	0.0134478
735.693	0.0134277
735.771	0.0135320
735.849	0.0134184
735.927	0.0132761
736.005	0.0131787
736.083	0.0132708
736.161	0.0132863
736.239	0.0131374
736.318	0.0134161
736.396	0.0133663
736.474	0.0134226
736.552	0.0133650
736.630	0.0133286
736.708	0.0133983
736.786	0.0134621
736.864	0.0134219
736.943	0.0134896
737.021	0.0134222
737.099	0.0135400
737.177	0.0136910
737.255	0.0136684
737.333	0.0136701
737.411	0.0136155
737.489	0.0136797
737.568	0.0137231
737.646	0.0135686
737.724	0.0135036
737.802	0.0135495
737.880	0.0135190
737.958	0.0135519
738.036	0.0135680
738.114	0.0134779
738.193	0.0133701
738.271	0.0131905
738.349	0.0132893
738.427	0.0131369
738.505	0.0131864
738.583	0.0131197
738.661	0.0132057
738.739	0.0132500
738.818	0.0130976
738.896	0.0130368
738.974	0.0129910
739.052	0.0131617
739.130	0.0130560
739.208	0.0130464
739.286	0.0129752
739.364	0.0129992
739.443	0.0130399
739.521	0.0128520
739.599	0.0127942
739.677	0.0128333
739.755	0.0129886
739.833	0.0130459
739.911	0.0128382
739.989	0.0128017
740.068	0.0128134
740.146	0.0130093
740.224	0.0129662
740.302	0.0131552
740.380	0.0130997
740.458	0.0131518
740.536	0.0131731
740.614	0.0131423
740.693	0.0132197
740.771	0.0133680
740.849	0.0133101
740.927	0.0133446
741.005	0.0134528
741.083	0.0135497
741.161	0.0136689
741.239	0.0135398
741.318	0.0135240
741.396	0.0137691
741.474	0.0136823
741.552	0.0137733
741.630	0.0138659
741.708	0.0137842
741.786	0.0138043
741.864	0.0139944
741.943	0.0139862
742.021	0.0137380
742.099	0.0137865
742.177	0.0138905
742.255	0.0137675
742.333	0.0137847
742.411	0.0138332
742.489	0.0138193
742.568	0.0136024
742.646	0.0136579
742.724	0.0135493
742.802	0.0135226
742.880	0.0136217
742.958	0.0135326
743.036	0.0133147
743.114	0.0133691
743.193	0.0134554
743.271	0.0132499
743.349	0.0132365
743.427	0.0133215
743.505	0.0132669
743.583	0.0132390
743.661	0.0131419
743.739	0.0130394
743.818	0.0130396
743.896	0.0132639
743.974	0.0131337
744.052	0.0131573
744.130	0.0130038
744.208	0.0130022
744.286	0.0131410
744.364	0.0132018
744.443	0.0130856
744.521	0.0132366
744.599	0.0130730
744.677	0.0130292
744.755	0.0130148
744.833	0.0129850
744.911	0.0131341
744.989	0.0130273
745.068	0.0131134
745.146	0.0130244
745.224	0.0130414
745.302	0.0130592
745.380	0.0130951
745.458	0.0131704
745.536	0.0132015
745.614	0.0131490
745.693	0.0130922
745.771	0.0130959
745.849	0.0131196
745.927	0.0131739
746.005	0.0131562
746.083	0.0129601
746.161	0.0130080
746.239	0.0129674
746.318	0.0129501
746.396	0.0130839
746.474	0.0130576
746.552	0.0129356
746.630	0.0131907
746.708	0.0130968
746.786	0.0132370
746.864	0.0131030
746.943	0.0131888
747.021	0.0131616
747.099	0.0131795
747.177	0.0132323
747.255	0.0134620
747.333	0.0133836
747.411	0.0132536
747.489	0.0132625
747.568	0.0133385
747.646	0.0133825
747.724	0.0134083
747.802	0.0134854
747.880	0.0134259
747.958	0.0133382
748.036	0.0133710
748.114	0.0133714
748.193	0.0133942
748.271	0.0133448
748.349	0.0133917
748.427	0.0132745
748.505	0.0135226
748.583	0.0134002
748.661	0.0133099
748.739	0.0132400
748.818	0.0133125
748.896	0.0132468
748.974	0.0133323
749.052	0.0133784
749.130	0.0132341
749.208	0.0131531
749.286	0.0132516
749.364	0.0134286
749.443	0.0133566
749.521	0.0134576
749.599	0.0134745
749.677	0.0134754
749.755	0.0134217
749.833	0.0135130
749.911	0.0134190
749.989	0.0134328
750.068	0.0135268
750.146	0.0136127
750.224	0.0135220
750.302	0.0134783
750.380	0.0135369
750.458	0.0136794
750.536	0.0135513
750.614	0.0134447
750.693	0.0135063
750.771	0.0136229
750.849	0.0136348
750.927	0.0136419
751.005	0.0136153
751.083	0.0136698
751.161	0.0135963
751.239	0.0135667
751.318	0.0133853
751.396	0.0134113
751.474	0.0134529
751.552	0.0135004
751.630	0.0135006
751.708	0.0133966
751.786	0.0132576
751.864	0.0131439
751.943	0.0133617
752.021	0.0132237
752.099	0.0132571
752.177	0.0129902
752.255	0.0132028
752.333	0.0131954
752.411	0.0130499
752.489	0.0128761
752.568	0.0130068
752.646	0.0130392
752.724	0.0130651
752.802	0.0128791
752.880	0.0128941
752.958	0.0130481
753.036	0.0131213
753.114	0.0131187
753.193	0.0131756
753.271	0.0131770
753.349	0.0132923
753.427	0.0132301
753.505	0.0134470
753.583	0.0134102
753.661	0.0136686
753.739	0.0135741
753.818	0.0135448
753.896	0.0137547
753.974	0.0137483
754.052	0.0137679
754.130	0.0138206
754.208	0.0140144
754.286	0.0140744
754.364	0.0139874
754.443	0.0139825
754.521	0.0140154
754.599	0.0140588
754.677	0.0139498
754.755	0.0140309
754.833	0.0141070
754.911	0.0139322
754.989	0.0139105
755.068	0.0137935
755.146	0.0139301
755.224	0.0137582
755.302	0.0136822
755.380	0.0135738
755.458	0.0134686
755.536	0.0134111
755.614	0.0132742
755.693	0.0132040
755.771	0.0132509
755.849	0.0131445
755.927	0.0130043
756.005	0.0130221
756.083	0.0130716
756.161	0.0129351
756.239	0.0129150
756.318	0.0130307
756.396	0.0130989
756.474	0.0130490
756.552	0.0130878
756.630	0.0130051
756.708	0.0130855
756.786	0.0131525
756.864	0.0131915
756.943	0.0132429
757.021	0.0134715
757.099	0.0135080
757.177	0.0134570
757.255	0.0135244
757.333	0.0137212
757.411	0.0137362
757.489	0.0135530
757.568	0.0136427
757.646	0.0137664
757.724	0.0136922
757.802	0.0138332
757.880	0.0137476
757.958	0.0137553
758.036	0.0137711
758.114	0.0137090
758.193	0.0139147
758.271	0.0138586
758.349	0.0138508
758.427	0.0138171
758.505	0.0136797
758.583	0.0136759
758.661	0.0135714
758.739	0.0135154
758.818	0.0136195
758.896	0.0135133
758.974	0.0133856
759.052	0.0133625
759.130	0.0134273
759.208	0.0133192
759.286	0.0131979
759.364	0.0130899
759.443	0.0131131
759.521	0.0130421
759.599	0.0130662
759.677	0.0130305
759.755	0.0129944
759.833	0.0127911
759.911	0.0128230
759.989	0.0128481
760.068	0.0128423
760.146	0.0127764
760.224	0.0129422
760.302	0.0129350
760.380	0.0129336
760.458	0.0129812
760.536	0.0130025
760.614	0.0131062
760.693	0.0129973
760.771	0.0130424
760.849	0.0132342
760.927	0.0134438
761.005	0.0133621
761.083	0.0134054
761.161	0.0135440
761.239	0.0134966
761.318	0.0135808
761.396	0.0136343
761.474	0.0135952
761.552	0.0136378
761.630	0.0137180
761.708	0.0137025
761.786	0.0137543
761.864	0.0138155
761.943	0.0138587
762.021	0.0138707
762.099	0.0138621
762.177	0.0137173
762.255	0.0138716
762.333	0.0138756
762.411	0.0137041
762.489	0.0138522
762.568	0.0138191
762.646	0.0136600
762.724	0.0138583
762.802	0.0138248
762.880	0.0135436
762.958	0.0136275
763.036	0.0137254
763.114	0.0136468
763.193	0.0135444
763.271	0.0135705
763.349	0.0135099
763.427	0.0135704
763.505	0.0136416
763.583	0.0135539
763.661	0.0136127
763.739	0.0135000
763.818	0.0135211
763.896	0.0133961
763.974	0.0133749
764.052	0.0133493
764.130	0.0133311
764.208	0.0133034
764.286	0.0132527
764.364	0.0132579
764.443	0.0133383
764.521	0.0132592
764.599	0.0132346
764.677	0.0132062
764.755	0.0130627
764.833	0.0131651
764.911	0.0129868
764.989	0.0130012
765.068	0.0130139
765.146	0.0130714
765.224	0.0129150
765.302	0.0129417
765.380	0.0129536
765.458	0.0129504
765.536	0.0129800
765.614	0.0130719
765.693	0.0129737
765.771	0.0131145
765.849	0.0130289
765.927	0.0131434
766.005	0.0131181
766.083	0.0132246
766.161	0.0132732
766.239	0.0132818
766.318	0.0130238
766.396	0.0132544
766.474	0.0133097
766.552	0.0132935
766.630	0.0133988
766.708	0.0133820
766.786	0.0132889
766.864	0.0132330
766.943	0.0134434
767.021	0.0135242
767.099	0.0134674
767.177	0.0134802
767.255	0.0135761
767.333	0.0135548
767.411	0.0135313
767.489	0.0135945
767.568	0.0135240
767.646	0.0135298
767.724	0.0136071
767.802	0.0135143
767.880	0.0135291
767.958	0.0135071
768.036	0.0135843
768.114	0.0136730
768.193	0.0135044
768.271	0.0134683
768.349	0.0134403
768.427	0.0134618
768.505	0.0133775
768.583	0.0135100
768.661	0.0134613
768.739	0.0134469
768.818	0.0134941
768.896	0.0132964
768.974	0.0133566
769.052	0.0132986
769.130	0.0132084
769.208	0.0132649
769.286	0.0131646
769.364	0.0131487
769.443	0.0130857
769.521	0.0131628
769.599	0.0132159
769.677	0.0132014
769.755	0.0131942
769.833	0.0132350
769.911	0.0130505
769.989	0.0131918
770.068	0.0131400
770.146	0.0131313
770.224	0.0131971
770.302	0.0131128
770.380	0.0132246
770.458	0.0132206
770.536	0.0132352
770.614	0.0132794
770.693	0.0133401
770.771	0.0132263
770.849	0.0133434
770.927	0.0133251
771.005	0.0134024
771.083	0.0133273
771.161	0.0134408
771.239	0.0132564
771.318	0.0133448
771.396	0.0132844
771.474	0.0132258
771.552	0.0133311
771.630	0.0133358
771.708	0.0133853
771.786	0.0132362
771.864	0.0134996
771.943	0.0133943
772.021	0.0133389
772.099	0.0133454
772.177	0.0132997
772.255	0.0132637
772.333	0.0133785
772.411	0.0132281
772.489	0.0132709
772.568	0.0132177
772.646	0.0132205
772.724	0.0132908
772.802	0.0132820
772.880	0.0132724
772.958	0.0132316
773.036	0.0131455
773.114	0.0133325
773.193	0.0132794
773.271	0.0131909
773.349	0.0134197
773.427	0.0134233
773.505	0.0134217
773.583	0.0134271
773.661	0.0135754
773.739	0.0137010
773.818	0.0136263
773.896	0.0135715
773.974	0.0137517
774.052	0.0135568
774.130	0.0138349
774.208	0.0136596
774.286	0.0137253
774.364	0.0137846
774.443	0.0137740
774.521	0.0137209
774.599	0.0137814
774.677	0.0137915
774.755	0.0138600
774.833	0.0137094
774.911	0.0136773
774.989	0.0136981
775.068	0.0136021
775.146	0.0135478
775.224	0.0134731
775.302	0.0134187
775.380	0.0135776
775.458	0.0133134
775.536	0.0133356
775.614	0.0132054
775.693	0.0130852
775.771	0.0131166
775.849	0.0131664
775.927	0.0131009
776.005	0.0130484
776.083	0.0130386
776.161	0.0128291
776.239	0.0129572
776.318	0.0130102
776.396	0.0127863
776.474	0.0129291
776.552	0.0129664
776.630	0.0128076
776.708	0.0128681
776.786	0.0129301
776.864	0.0130170
776.943	0.0130007
777.021	0.0131452
777.099	0.0133067
777.177	0.0132813
777.255	0.0131337
777.333	0.0133082
777.411	0.0134261
777.489	0.0132954
777.568	0.0134256
777.646	0.0136112
777.724	0.0134838
777.802	0.0134428
777.880	0.0136441
777.958	0.0137359
778.036	0.0136404
778.114	0.0138180
778.193	0.0137430
778.271	0.0138361
778.349	0.0138780
778.427	0.0137291
778.505	0.0137941
778.583	0.0139510
778.661	0.0139543
778.739	0.0138563
778.818	0.0139000
778.896	0.0138618
778.974	0.0138575
779.052	0.0139410
779.130	0.0138557
779.208	0.0139265
779.286	0.0137937
779.364	0.0138452
779.443	0.0137570
779.521	0.0137178
779.599	0.0136560
779.677	0.0136298
779.755	0.0135385
779.833	0.0136063
779.911	0.0136427
779.989	0.0135240
780.068	0.0134925
780.146	0.0134637
780.224	0.0134925
780.302	0.0134948
780.380	0.0133711
780.458	0.0134200
780.536	0.0134444
780.614	0.0134495
780.693	0.0134759
780.771	0.0133928
780.849	0.0134161
780.927	0.0133318
781.005	0.0133408
781.083	0.0132822
781.161	0.0132848
781.239	0.0132872
781.318	0.0132634
781.396	0.0131367
781.474	0.0132520
781.552	0.0133282
781.630	0.0132525
781.708	0.0132038
781.786	0.0133747
781.864	0.0133592
781.943	0.0133902
782.021	0.0130124
782.099	0.0132270
782.177	0.0132589
782.255	0.0132811
782.333	0.0133685
782.411	0.0132539
782.489	0.0132430
782.568	0.0133131
782.646	0.0134226
782.724	0.0133771
782.802	0.0134348
782.880	0.0133015
782.958	0.0135508
783.036	0.0135175
783.114	0.0135226
783.193	0.0136660
783.271	0.0136864
783.349	0.0135691
783.427	0.0136639
783.505	0.0136852
783.583	0.0136311
783.661	0.0139076
783.739	0.0137126
783.818	0.0138217
783.896	0.0137465
783.974	0.0137036
784.052	0.0136340
784.130	0.0135641
784.208	0.0137653
784.286	0.0136864
784.364	0.0136892
784.443	0.0135633
784.521	0.0136035
784.599	0.0136398
784.677	0.0135396
784.755	0.0134614
784.833	0.0134669
784.911	0.0133990
784.989	0.0134354
785.068	0.0133369
785.146	0.0133940
785.224	0.0132444
785.302	0.0132513
785.380	0.0132415
785.458	0.0133424
785.536	0.0131843
785.614	0.0130522
785.693	0.0131860
785.771	0.0132594
785.849	0.0132614
785.927	0.0132117
786.005	0.0131722
786.083	0.0132237
786.161	0.0131998
786.239	0.0133564
786.318	0.0132167
786.396	0.0132151
786.474	0.0134695
786.552	0.0134402
786.630	0.0132888
786.708	0.0134259
786.786	0.0132527
786.864	0.0133211
786.943	0.0132121
787.021	0.0133909
787.099	0.0132978
787.177	0.0134080
787.255	0.0132760
787.333	0.0131091
787.411	0.0131441
787.489	0.0131000
787.568	0.0132107
787.646	0.0133131
787.724	0.0132359
787.802	0.0131223
787.880	0.0133027
787.958	0.0132384
788.036	0.0132320
788.114	0.0131120
788.193	0.0130976
788.271	0.0132796
788.349	0.0132349
788.427	0.0133698
788.505	0.0133625
788.583	0.0133710
788.661	0.0133627
788.739	0.0133114
788.818	0.0133850
788.896	0.0132709
788.974	0.0131749
789.052	0.0132287
789.130	0.0133302
789.208	0.0133397
789.286	0.0133252
789.364	0.0132735
789.443	0.0132358
789.521	0.0133157
789.599	0.0132400
789.677	0.0132656
789.755	0.0133660
789.833	0.0133709
789.911	0.0132832
789.989	0.0133689
790.068	0.0133569
790.146	0.0133913
790.224	0.0134794
790.302	0.0134861
790.380	0.0134452
790.458	0.0134516
790.536	0.0134404
790.614	0.0134383
790.693	0.0135361
790.771	0.0134194
790.849	0.0133681
790.927	0.0133955
791.005	0.0135056
791.083	0.0135368
791.161	0.0133948
791.239	0.0133756
791.318	0.0132906
791.396	0.0133189
791.474	0.0132375
791.552	0.0131799
791.630	0.0132767
791.708	0.0132642
791.786	0.0131861
791.864	0.0133630
791.943	0.0133031
792.021	0.0131591
792.099	0.0133993
792.177	0.0132745
792.255	0.0131766
792.333	0.0132128
792.411	0.0131824
792.489	0.0131757
792.568	0.0131791
792.646	0.0132619
792.724	0.0129937
792.802	0.0132456
792.880	0.0130846
792.958	0.0130357
793.036	0.0130362
793.114	0.0130754
793.193	0.0129089
793.271	0.0129691
793.349	0.0129266
793.427	0.0130111
793.505	0.0130668
793.583	0.0130644
793.661	0.0129972
793.739	0.0131297
793.818	0.0131042
793.896	0.0133218
793.974	0.0133165
794.052	0.0135228
794.130	0.0133936
794.208	0.0133298
794.286	0.0133713
794.364	0.0136348
794.443	0.0135103
794.521	0.0134886
794.599	0.0137255
794.677	0.0136837
794.755	0.0136797
794.833	0.0138294
794.911	0.0138214
794.989	0.0137576
795.068	0.0137494
795.146	0.0136631
795.224	0.0135918
795.302	0.0137107
795.380	0.0136935
795.458	0.0136108
795.536	0.0136744
795.614	0.0135870
795.693	0.0137358
795.771	0.0136015
795.849	0.0135150
795.927	0.0136410
796.005	0.0133663
796.083	0.0135027
796.161	0.0135181
796.239	0.0134516
796.318	0.0134732
796.396	0.0133461
796.474	0.0133934
796.552	0.0133551
796.630	0.0134869
796.708	0.0134161
796.786	0.0133495
796.864	0.0133309
796.943	0.0133400
797.021	0.0133907
797.099	0.0132045
797.177	0.0131379
797.255	0.0131036
797.333	0.0131853
797.411	0.0130685
797.489	0.0130600
797.568	0.0131300
797.646	0.0132267
797.724	0.0130675
797.802	0.0130151
797.880	0.0130869
797.958	0.0130317
798.036	0.0131315
798.114	0.0131293
798.193	0.0133661
798.271	0.0132819
798.349	0.0133722
798.427	0.0133163
798.505	0.0134371
798.583	0.0132804
798.661	0.0133562
798.739	0.0134430
798.818	0.0136082
798.896	0.0136313
798.974	0.0135178
799.052	0.0134446
799.130	0.0135332
799.208	0.0134595
799.286	0.0137340
799.364	0.0135345
799.443	0.0136276
799.521	0.0136442
799.599	0.0135201
799.677	0.0136633
799.755	0.0134682
799.833	0.0135284
799.911	0.0133547
799.989	0.0134538
800.068	0.0134621
800.146	0.0134006
800.224	0.0133758
800.302	0.0131967
800.380	0.0131877
800.458	0.0132832
800.536	0.0132733
800.614	0.0132833
800.693	0.0131937
800.771	0.0131361
800.849	0.0132869
800.927	0.0131697
801.005	0.0131178
801.083	0.0131555
801.161	0.0132909
801.239	0.0132873
801.318	0.0132090
801.396	0.0132328
801.474	0.0133839
801.552	0.0134219
801.630	0.0135923
801.708	0.0134901
801.786	0.0134389
801.864	0.0136113
801.943	0.0135465
802.021	0.0135925
802.099	0.0135258
802.177	0.0133825
802.255	0.0135036
802.333	0.0133847
802.411	0.0133961
802.489	0.0133578
802.568	0.0134036
802.646	0.0133005
802.724	0.0132894
802.802	0.0134560
802.880	0.0133128
802.958	0.0132536
803.036	0.0134267
803.114	0.0134122
803.193	0.0134634
803.271	0.0135827
803.349	0.0135112
803.427	0.0134942
803.505	0.0133934
803.583	0.0133737
803.661	0.0134052
803.739	0.0134025
803.818	0.0134094
803.896	0.0134476
803.974	0.0133245
804.052	0.0133056
804.130	0.0132636
804.208	0.0134348
804.286	0.0133159
804.364	0.0135004
804.443	0.0135265
804.521	0.0135201
804.599	0.0135019
804.677	0.0133878
804.755	0.0133273
804.833	0.0133962
804.911	0.0135175
804.989	0.0133778
805.068	0.0133045
805.146	0.0132562
805.224	0.0132007
805.302	0.0132310
805.380	0.0133010
805.458	0.0130133
805.536	0.0130758
805.614	0.0131676
805.693	0.0130600
805.771	0.0131185
805.849	0.0130893
805.927	0.0132746
806.005	0.0132419
806.083	0.0132751
806.161	0.0134100
806.239	0.0133689
806.318	0.0133796
806.396	0.0133586
806.474	0.0135144
806.552	0.0135245
806.630	0.0136686
806.708	0.0136134
806.786	0.0136552
806.864	0.0136172
806.943	0.0136839
807.021	0.0135954
807.099	0.0136021
807.177	0.0137203
807.255	0.0134479
807.333	0.0135024
807.411	0.0135291
807.489	0.0134617
807.568	0.0135371
807.646	0.0135709
807.724	0.0134618
807.802	0.0134980
807.880	0.0134494
807.958	0.0134943
808.036	0.0136225
808.114	0.0136222
808.193	0.0136416
808.271	0.0135026
808.349	0.0135071
808.427	0.0135236
808.505	0.0134767
808.583	0.0135699
808.661	0.0136021
808.739	0.0134594
808.818	0.0134548
808.896	0.0134723
808.974	0.0136207
809.052	0.0135407
809.130	0.0135201
809.208	0.0134634
809.286	0.0133608
809.364	0.0134129
809.443	0.0135352
809.521	0.0135347
809.599	0.0133766
809.677	0.0134400
809.755	0.0134257
809.833	0.0134386
809.911	0.0135390
809.989	0.0133556
810.068	0.0132375
810.146	0.0133256
810.224	0.0133627
810.302	0.0131807
810.380	0.0131427
810.458	0.0131186
810.536	0.0130800
810.614	0.0129794
810.693	0.0129877
810.771	0.0130242
810.849	0.0128167
810.927	0.0128272
811.005	0.0129806
811.083	0.0129073
811.161	0.0129128
811.239	0.0127202
811.318	0.0129324
811.396	0.0128915
811.474	0.0129346
811.552	0.0130547
811.630	0.0132665
811.708	0.0131712
811.786	0.0132816
811.864	0.0134270
811.943	0.0133172
812.021	0.0134225
812.099	0.0134289
812.177	0.0133754
812.255	0.0135600
812.333	0.0135737
812.411	0.0135089
812.489	0.0134715
812.568	0.0135509
812.646	0.0137175
812.724	0.0135736
812.802	0.0135651
812.880	0.0135747
812.958	0.0135889
813.036	0.0134935
813.114	0.0135712
813.193	0.0134846
813.271	0.0133837
813.349	0.0135415
813.427	0.0133661
813.505	0.0133070
813.583	0.0133701
813.661	0.0133771
813.739	0.0134423
813.818	0.0133649
813.896	0.0132922
813.974	0.0133508
814.052	0.0132423
814.130	0.0133508
814.208	0.0133819
814.286	0.0132486
814.364	0.0133216
814.443	0.0133278
814.521	0.0132842
814.599	0.0133724
814.677	0.0134794
814.755	0.0133456
814.833	0.0134309
814.911	0.0135310
814.989	0.0135631
815.068	0.0135807
815.146	0.0135566
815.224	0.0136943
815.302	0.0136104
815.380	0.0134822
815.458	0.0135291
815.536	0.0134715
815.614	0.0134287
815.693	0.0133424
815.771	0.0132388
815.849	0.0134169
815.927	0.0133149
816.005	0.0131944
816.083	0.0131709
816.161	0.0131425
816.239	0.0131824
816.318	0.0131328
816.396	0.0132793
816.474	0.0133043
816.552	0.0129987
816.630	0.0131873
816.708	0.0131921
816.786	0.0133254
816.864	0.0132116
816.943	0.0131292
817.021	0.0131329
817.099	0.0132092
817.177	0.0131712
817.255	0.0130364
817.333	0.0131116
817.411	0.0130667
817.489	0.0130658
817.568	0.0131015
817.646	0.0130025
817.724	0.0129377
817.802	0.0130943
817.880	0.0132717
817.958	0.0131365
818.036	0.0131295
818.114	0.0132842
818.193	0.0132523
818.271	0.0130965
818.349	0.0132099
818.427	0.0132687
818.505	0.0133834
818.583	0.0133674
818.661	0.0132966
818.739	0.0134280
818.818	0.0134673
818.896	0.0134441
818.974	0.0135236
819.052	0.0135531
819.130	0.0135939
819.208	0.0134691
819.286	0.0135131
819.364	0.0133269
819.443	0.0132422
819.521	0.0133318
819.599	0.0133196
819.677	0.0134550
819.755	0.0133218
819.833	0.0133207
819.911	0.0133249
819.989	0.0133331
820.068	0.0133417
820.146	0.0132739
820.224	0.0134140
820.302	0.0134798
820.380	0.0135484
820.458	0.0134180
820.536	0.0134297
820.614	0.0133982
820.693	0.0134756
820.771	0.0132594
820.849	0.0132944
820.927	0.0134329
821.005	0.0134403
821.083	0.0133501
821.161	0.0133125
821.239	0.0133366
821.318	0.0133656
821.396	0.0132751
821.474	0.0132706
821.552	0.0133208
821.630	0.0133140
821.708	0.0131929
821.786	0.0133346
821.864	0.0132220
821.943	0.0131844
822.021	0.0133845
822.099	0.0134197
822.177	0.0132654
822.255	0.0132726
822.333	0.0133110
822.411	0.0132703
822.489	0.0133381
822.568	0.0132656
822.646	0.0132635
822.724	0.0131048
822.802	0.0133064
822.880	0.0132971
822.958	0.0132533
823.036	0.0132630
823.114	0.0132649
823.193	0.0133876
823.271	0.0133573
823.349	0.0133784
823.427	0.0133916
823.505	0.0134209
823.583	0.0133827
823.661	0.0134966
823.739	0.0133936
823.818	0.0134370
823.896	0.0134221
823.974	0.0133054
824.052	0.0134769
824.130	0.0135377
824.208	0.0132461
824.286	0.0133135
824.364	0.0133279
824.443	0.0134859
824.521	0.0133325
824.599	0.0132246
824.677	0.0132692
824.755	0.0132919
824.833	0.0132575
824.911	0.0133730
824.989	0.0131906
825.068	0.0131351
825.146	0.0130673
825.224	0.0133733
825.302	0.0134853
825.380	0.0132917
825.458	0.0133261
825.536	0.0132689
825.614	0.0133210
825.693	0.0133689
825.771	0.0133417
825.849	0.0133960
825.927	0.0134857
826.005	0.0133612
826.083	0.0134818
826.161	0.0135115
826.239	0.0133417
826.318	0.0133680
826.396	0.0134124
826.474	0.0133910
826.552	0.0135074
826.630	0.0134919
826.708	0.0134216
826.786	0.0135055
826.864	0.0134185
826.943	0.0134764
827.021	0.0135566
827.099	0.0135957
827.177	0.0135847
827.255	0.0136509
827.333	0.0134796
827.411	0.0135856
827.489	0.0138676
827.568	0.0135854
827.646	0.0135744
827.724	0.0135892
827.802	0.0135910
827.880	0.0137067
827.958	0.0136500
828.036	0.0134712
828.114	0.0135330
828.193	0.0135415
828.271	0.0135069
828.349	0.0136404
828.427	0.0135979
828.505	0.0136169
828.583	0.0136165
828.661	0.0135038
828.739	0.0135534
828.818	0.0135474
828.896	0.0134607
828.974	0.0135738
829.052	0.0135659
829.130	0.0134221
829.208	0.0133970
829.286	0.0133679
829.364	0.0133194
829.443	0.0133332
829.521	0.0132785
829.599	0.0133739
829.677	0.0132576
829.755	0.0132413
829.833	0.0133096
829.911	0.0133961
829.989	0.0134859
830.068	0.0133490
830.146	0.0132722
830.224	0.0132079
830.302	0.0132215
830.380	0.0133350
830.458	0.0132606
830.536	0.0132561
830.614	0.0133076
830.693	0.0132826
830.771	0.0133459
830.849	0.0132700
830.927	0.0133183
831.005	0.0134322
831.083	0.0133883
831.161	0.0134917
831.239	0.0134735
831.318	0.0134512
831.396	0.0136487
831.474	0.0136601
831.552	0.0134627
831.630	0.0135306
831.708	0.0134164
831.786	0.0134421
831.864	0.0135655
831.943	0.0134417
832.021	0.0132127
832.099	0.0134104
832.177	0.0135141
832.255	0.0132374
832.333	0.0132811
832.411	0.0133501
832.489	0.0131944
832.568	0.0132040
832.646	0.0132471
832.724	0.0131773
832.802	0.0132668
832.880	0.0132641
832.958	0.0132990
833.036	0.0132878
833.114	0.0133752
833.193	0.0134165
833.271	0.0134104
833.349	0.0133929
833.427	0.0133711
833.505	0.0132549
833.583	0.0132593
833.661	0.0133032
833.739	0.0132755
833.818	0.0134151
833.896	0.0133560
833.974	0.0131854
834.052	0.0134141
834.130	0.0133810
834.208	0.0133749
834.286	0.0133934
834.364	0.0133849
834.443	0.0134048
834.521	0.0132661
834.599	0.0131849
834.677	0.0132346
834.755	0.0133560
834.833	0.0132088
834.911	0.0133282
834.989	0.0131666
835.068	0.0131885
835.146	0.0130711
835.224	0.0131671
835.302	0.0132471
835.380	0.0132126
835.458	0.0133075
835.536	0.0131402
835.614	0.0133382
835.693	0.0133435
835.771	0.0133963
835.849	0.0133656
835.927	0.0134809
836.005	0.0133241
836.083	0.0133395
836.161	0.0133936
836.239	0.0133765
836.318	0.0134566
836.396	0.0135564
836.474	0.0135292
836.552	0.0133617
836.630	0.0134660
836.708	0.0134505
836.786	0.0134869
836.864	0.0136273
836.943	0.0134280
837.021	0.0132922
837.099	0.0135701
837.177	0.0134378
837.255	0.0132468
837.333	0.0134397
837.411	0.0134173
837.489	0.0132571
837.568	0.0133120
837.646	0.0132883
837.724	0.0130772
837.802	0.0130997
837.880	0.0132511
837.958	0.0133213
838.036	0.0132124
838.114	0.0132764
838.193	0.0131921
838.271	0.0132018
838.349	0.0132865
838.427	0.0133364
838.505	0.0133057
838.583	0.0132981
838.661	0.0133469
838.739	0.0135046
838.818	0.0133748
838.896	0.0133833
838.974	0.0135288
839.052	0.0134470
839.130	0.0133726
839.208	0.0134867
839.286	0.0134312
839.364	0.0135237
839.443	0.0135790
839.521	0.0133078
839.599	0.0134474
839.677	0.0136607
839.755	0.0135856
839.833	0.0133467
839.911	0.0132139
839.989	0.0134053
840.068	0.0135363
840.146	0.0134425
840.224	0.0134342
840.302	0.0133293
840.380	0.0132285
840.458	0.0132852
840.536	0.0134155
840.614	0.0133884
840.693	0.0132981
840.771	0.0134676
840.849	0.0134191
840.927	0.0134158
841.005	0.0132571
841.083	0.0134262
841.161	0.0134570
841.239	0.0133923
841.318	0.0133233
841.396	0.0133869
841.474	0.0134285
841.552	0.0133714
841.630	0.0133629
841.708	0.0132658
841.786	0.0132618
841.864	0.0132189
841.943	0.0132765
842.021	0.0132709
842.099	0.0132979
842.177	0.0132383
842.255	0.0131769
842.333	0.0132403
842.411	0.0132526
842.489	0.0132250
842.568	0.0131496
842.646	0.0131134
842.724	0.0132133
842.802	0.0131021
842.880	0.0131081
842.958	0.0132127
843.036	0.0133238
843.114	0.0132844
843.193	0.0130341
843.271	0.0131304
843.349	0.0133312
843.427	0.0133479
843.505	0.0133257
843.583	0.0132912
843.661	0.0133106
843.739	0.0132754
843.818	0.0134142
843.896	0.0134403
843.974	0.0135705
844.052	0.0135814
844.130	0.0135137
844.208	0.0135596
844.286	0.0135773
844.364	0.0135443
844.443	0.0134354
844.521	0.0134896
844.599	0.0135172
844.677	0.0134940
844.755	0.0136483
844.833	0.0134993
844.911	0.0133589
844.989	0.0135560
845.068	0.0133641
845.146	0.0134502
845.224	0.0133441
845.302	0.0132628
845.380	0.0133223
845.458	0.0134584
845.536	0.0133176
845.614	0.0131335
845.693	0.0133929
845.771	0.0132894
845.849	0.0132579
845.927	0.0131741
846.005	0.0132307
846.083	0.0131431
846.161	0.0131376
846.239	0.0132729
846.318	0.0132507
846.396	0.0131377
846.474	0.0131345
846.552	0.0132132
846.630	0.0133245
846.708	0.0131016
846.786	0.0131273
846.864	0.0132266
846.943	0.0132404
847.021	0.0131895
847.099	0.0133797
847.177	0.0133646
847.255	0.0132872
847.333	0.0133372
847.411	0.0134124
847.489	0.0133595
847.568	0.0134814
847.646	0.0133427
847.724	0.0133833
847.802	0.0133617
847.880	0.0135211
847.958	0.0134121
848.036	0.0135440
848.114	0.0136282
848.193	0.0134436
848.271	0.0134313
848.349	0.0135682
848.427	0.0134183
848.505	0.0135213
848.583	0.0135251
848.661	0.0137380
848.739	0.0134956
848.818	0.0134423
848.896	0.0134618
848.974	0.0135873
849.052	0.0135374
849.130	0.0133456
849.208	0.0134963
849.286	0.0135170
849.364	0.0134037
849.443	0.0134627
849.521	0.0134262
849.599	0.0132650
849.677	0.0133787
849.755	0.0133035
849.833	0.0133731
849.911	0.0133764
849.989	0.0133057
850.068	0.0132515
850.146	0.0132980
850.224	0.0133452
850.302	0.0133713
850.380	0.0131116
850.458	0.0132916
850.536	0.0133608
850.614	0.0133010
850.693	0.0133734
850.771	0.0133679
850.849	0.0133066
850.927	0.0134091
851.005	0.0133311
851.083	0.0133847
851.161	0.0133613
851.239	0.0133735
851.318	0.0134892
851.396	0.0133585
851.474	0.0133692
851.552	0.0133525
851.630	0.0133702
851.708	0.0134454
851.786	0.0134072
851.864	0.0134031
851.943	0.0133094
852.021	0.0133020
852.099	0.0133305
852.177	0.0133745
852.255	0.0134179
852.333	0.0133887
852.411	0.0134866
852.489	0.0132284
852.568	0.0133888
852.646	0.0133195
852.724	0.0132538
852.802	0.0133288
852.880	0.0132619
852.958	0.0132405
853.036	0.0133962
853.114	0.0134442
853.193	0.0133109
853.271	0.0133502
853.349	0.0133270
853.427	0.0134340
853.505	0.0134895
853.583	0.0132710
853.661	0.0133260
853.739	0.0134962
853.818	0.0134624
853.896	0.0132922
853.974	0.0133234
854.052	0.0133843
854.130	0.0133211
854.208	0.0133636
854.286	0.0134674
854.364	0.0135361
854.443	0.0134306
854.521	0.0133395
854.599	0.0133365
854.677	0.0133600
854.755	0.0132607
854.833	0.0132680
854.911	0.0133392
854.989	0.0132539
855.068	0.0132544
855.146	0.0131512
855.224	0.0131830
855.302	0.0131841
855.380	0.0132822
855.458	0.0132001
855.536	0.0132025
855.614	0.0132183
855.693	0.0131974
855.771	0.0132909
855.849	0.0132825
855.927	0.0131529
856.005	0.0132563
856.083	0.0133907
856.161	0.0134464
856.239	0.0133265
856.318	0.0133316
856.396	0.0135682
856.474	0.0134934
856.552	0.0135606
856.630	0.0135077
856.708	0.0136935
856.786	0.0135156
856.864	0.0136027
856.943	0.0137270
857.021	0.0136469
857.099	0.0138475
857.177	0.0137255
857.255	0.0136902
857.333	0.0136523
857.411	0.0135410
857.489	0.0137036
857.568	0.0135616
857.646	0.0134366
857.724	0.0135025
857.802	0.0136334
857.880	0.0134534
857.958	0.0134199
858.036	0.0134785
858.114	0.0133512
858.193	0.0134253
858.271	0.0134140
858.349	0.0133794
858.427	0.0132349
858.505	0.0131950
858.583	0.0133077
858.661	0.0133344
858.739	0.0132009
858.818	0.0130945
858.896	0.0132520
858.974	0.0132449
859.052	0.0131531
859.130	0.0131271
859.208	0.0131844
859.286	0.0132473
859.364	0.0132723
859.443	0.0131792
859.521	0.0131367
859.599	0.0133288
859.677	0.0131790
859.755	0.0131517
859.833	0.0131183
859.911	0.0132372
859.989	0.0132406
860.068	0.0131669
860.146	0.0132034
860.224	0.0131731
860.302	0.0132543
860.380	0.0133923
860.458	0.0134145
860.536	0.0134257
860.614	0.0132285
860.693	0.0133760
860.771	0.0134349
860.849	0.0134547
860.927	0.0133451
861.005	0.0134704
861.083	0.0135592
861.161	0.0135659
861.239	0.0135481
861.318	0.0134332
861.396	0.0135209
861.474	0.0135745
861.552	0.0135184
861.630	0.0135393
861.708	0.0134875
861.786	0.0135081
861.864	0.0134205
861.943	0.0134304
862.021	0.0134917
862.099	0.0134357
862.177	0.0133943
862.255	0.0134676
862.333	0.0133386
862.411	0.0134021
862.489	0.0132685
862.568	0.0132730
862.646	0.0134200
862.724	0.0133859
862.802	0.0133817
862.880	0.0132828
862.958	0.0133352
863.036	0.0132584
863.114	0.0132767
863.193	0.0132420
863.271	0.0134409
863.349	0.0133117
863.427	0.0133425
863.505	0.0133286
863.583	0.0133794
863.661	0.0133815
863.739	0.0134039
863.818	0.0134674
863.896	0.0133591
863.974	0.0135243
864.052	0.0134982
864.130	0.0134344
864.208	0.0134457
864.286	0.0135089
864.364	0.0135043
864.443	0.0135765
864.521	0.0134795
864.599	0.0134365
864.677	0.0134898
864.755	0.0135075
864.833	0.0134350
864.911	0.0134200
864.989	0.0133363
865.068	0.0133707
865.146	0.0134506
865.224	0.0136392
865.302	0.0134322
865.380	0.0133553
865.458	0.0134805
865.536	0.0134887
865.614	0.0134818
865.693	0.0134512
865.771	0.0134750
865.849	0.0135068
865.927	0.0133149
866.005	0.0133962
866.083	0.0132835
866.161	0.0133849
866.239	0.0132363
866.318	0.0133956
866.396	0.0133593
866.474	0.0134330
866.552	0.0132890
866.630	0.0134034
866.708	0.0133144
866.786	0.0132850
866.864	0.0134830
866.943	0.0132389
867.021	0.0132970
867.099	0.0133647
867.177	0.0132814
867.255	0.0132869
867.333	0.0132362
867.411	0.0132780
867.489	0.0131413
867.568	0.0132175
867.646	0.0131405
867.724	0.0132211
867.802	0.0132556
867.880	0.0132471
867.958	0.0134264
868.036	0.0135329
868.114	0.0134418
868.193	0.0133054
868.271	0.0135181
868.349	0.0133827
868.427	0.0134058
868.505	0.0134818
868.583	0.0135562
868.661	0.0135582
868.739	0.0136080
868.818	0.0136476
868.896	0.0135172
868.974	0.0135091
869.052	0.0136195
869.130	0.0135590
869.208	0.0135264
869.286	0.0136260
869.364	0.0135462
869.443	0.0136333
869.521	0.0134682
869.599	0.0136179
869.677	0.0135298
869.755	0.0135814
869.833	0.0134921
869.911	0.0133829
869.989	0.0134532
870.068	0.0134638
870.146	0.0133577
870.224	0.0133386
870.302	0.0134320
870.380	0.0133707
870.458	0.0132243
870.536	0.0134408
870.614	0.0133311
870.693	0.0133032
870.771	0.0132500
870.849	0.0134400
870.927	0.0132894
871.005	0.0132258
871.083	0.0133980
871.161	0.0133419
871.239	0.0131979
871.318	0.0133916
871.396	0.0133823
871.474	0.0133366
871.552	0.0132607
871.630	0.0132693
871.708	0.0132393
871.786	0.0133387
871.864	0.0133875
871.943	0.0134672
872.021	0.0132685
872.099	0.0133775
872.177	0.0133770
872.255	0.0133749
872.333	0.0132996
872.411	0.0133763
872.489	0.0136455
872.568	0.0132607
872.646	0.0132781
872.724	0.0133351
872.802	0.0134187
872.880	0.0134631
872.958	0.0134870
873.036	0.0134525
873.114	0.0133995
873.193	0.0134880
873.271	0.0133821
873.349	0.0133430
873.427	0.0132983
873.505	0.0134608
873.583	0.0133472
873.661	0.0134430
873.739	0.0132975
873.818	0.0133983
873.896	0.0133270
873.974	0.0132953
874.052	0.0133109
874.130	0.0134345
874.208	0.0134238
874.286	0.0134739
874.364	0.0133269
874.443	0.0132880
874.521	0.0133853
874.599	0.0132411
874.677	0.0133348
874.755	0.0133478
874.833	0.0132053
874.911	0.0133203
874.989	0.0133583
875.068	0.0131598
875.146	0.0132233
875.224	0.0132861
875.302	0.0132145
875.380	0.0133871
875.458	0.0132873
875.536	0.0132781
875.614	0.0133342
875.693	0.0133830
875.771	0.0133940
875.849	0.0133138
875.927	0.0132262
876.005	0.0133667
876.083	0.0133652
876.161	0.0132240
876.239	0.0132740
876.318	0.0133985
876.396	0.0132018
876.474	0.0132958
876.552	0.0133504
876.630	0.0131688
876.708	0.0132456
876.786	0.0134087
876.864	0.0132912
876.943	0.0132911
877.021	0.0132870
877.099	0.0131974
877.177	0.0132150
877.255	0.0134851
877.333	0.0133646
877.411	0.0133628
877.489	0.0133255
877.568	0.0132903
877.646	0.0133553
877.724	0.0132275
877.802	0.0132619
877.880	0.0133998
877.958	0.0132321
878.036	0.0132523
878.114	0.0132287
878.193	0.0131164
878.271	0.0131481
878.349	0.0132426
878.427	0.0132999
878.505	0.0132247
878.583	0.0132984
878.661	0.0132131
878.739	0.0131899
878.818	0.0132166
878.896	0.0133717
878.974	0.0133218
879.052	0.0131415
879.130	0.0131900
879.208	0.0131992
879.286	0.0132324
879.364	0.0131705
879.443	0.0132712
879.521	0.0131781
879.599	0.0131918
879.677	0.0131898
879.755	0.0131686
879.833	0.0132491
879.911	0.0131873
879.989	0.0132582
880.068	0.0133978
880.146	0.0131940
880.224	0.0133475
880.302	0.0134097
880.380	0.0132600
880.458	0.0134145
880.536	0.0134734
880.614	0.0134243
880.693	0.0134237
880.771	0.0134483
880.849	0.0134933
880.927	0.0135426
881.005	0.0134145
881.083	0.0134217
881.161	0.0132883
881.239	0.0133817
881.318	0.0135101
881.396	0.0135014
881.474	0.0132994
881.552	0.0133723
881.630	0.0133768
881.708	0.0133495
881.786	0.0132743
881.864	0.0135184
881.943	0.0133302
882.021	0.0132325
882.099	0.0132519
882.177	0.0134328
882.255	0.0132083
882.333	0.0131548
882.411	0.0131657
882.489	0.0132230
882.568	0.0132028
882.646	0.0132288
882.724	0.0132477
882.802	0.0131519
882.880	0.0131307
882.958	0.0132539
883.036	0.0131688
883.114	0.0132803
883.193	0.0133198
883.271	0.0132384
883.349	0.0132925
883.427	0.0133479
883.505	0.0133371
883.583	0.0132988
883.661	0.0133904
883.739	0.0134328
883.818	0.0133697
883.896	0.0134959
883.974	0.0133082
884.052	0.0134776
884.130	0.0133900
884.208	0.0134800
884.286	0.0135146
884.364	0.0134689
884.443	0.0136159
884.521	0.0136829
884.599	0.0135710
884.677	0.0135918
884.755	0.0135283
884.833	0.0136202
884.911	0.0135899
884.989	0.0135527
885.068	0.0135985
885.146	0.0136369
885.224	0.0134987
885.302	0.0134757
885.380	0.0135303
885.458	0.0133835
885.536	0.0133913
885.614	0.0133628
885.693	0.0134196
885.771	0.0134348
885.849	0.0134013
885.927	0.0133217
886.005	0.0133946
886.083	0.0133570
886.161	0.0133259
886.239	0.0132395
886.318	0.0134743
886.396	0.0134538
886.474	0.0133564
886.552	0.0134061
886.630	0.0132869
886.708	0.0133159
886.786	0.0133451
886.864	0.0132732
886.943	0.0133251
887.021	0.0133416
887.099	0.0133231
887.177	0.0133570
887.255	0.0132637
887.333	0.0133717
887.411	0.0133297
887.489	0.0132082
887.568	0.0133779
887.646	0.0132478
887.724	0.0135155
887.802	0.0133295
887.880	0.0134460
887.958	0.0133932
888.036	0.0133194
888.114	0.0133603
888.193	0.0134410
888.271	0.0134596
888.349	0.0135482
888.427	0.0133173
888.505	0.0134491
888.583	0.0133105
888.661	0.0133419
888.739	0.0134031
888.818	0.0134835
888.896	0.0133558
888.974	0.0132735
889.052	0.0133759
889.130	0.0133869
889.208	0.0133973
889.286	0.0134391
889.364	0.0133809
889.443	0.0134509
889.521	0.0133443
889.599	0.0133548
889.677	0.0134523
889.755	0.0134501
889.833	0.0134015
889.911	0.0134091
889.989	0.0136005
890.068	0.0134335
890.146	0.0133847
890.224	0.0134815
890.302	0.0134983
890.380	0.0134995
890.458	0.0135114
890.536	0.0135828
890.614	0.0135446
890.693	0.0135630
890.771	0.0137077
890.849	0.0134690
890.927	0.0134432
891.005	0.0136745
891.083	0.0134991
891.161	0.0135609
891.239	0.0134972
891.318	0.0134436
891.396	0.0135603
891.474	0.0135287
891.552	0.0134753
891.630	0.0134658
891.708	0.0134863
891.786	0.0135133
891.864	0.0134818
891.943	0.0133630
892.021	0.0133801
892.099	0.0134679
892.177	0.0133461
892.255	0.0133717
892.333	0.0134921
892.411	0.0132758
892.489	0.0133904
892.568	0.0132232
892.646	0.0131802
892.724	0.0133405
892.802	0.0133284
892.880	0.0131992
892.958	0.0132171
893.036	0.0131165
893.114	0.0131230
893.193	0.0131744
893.271	0.0131763
893.349	0.0130816
893.427	0.0132460
893.505	0.0132764
893.583	0.0132359
893.661	0.0131342
893.739	0.0132493
893.818	0.0132955
893.896	0.0134410
893.974	0.0133414
894.052	0.0134112
894.130	0.0132701
894.208	0.0132876
894.286	0.0133365
894.364	0.0132257
894.443	0.0133280
894.521	0.0134441
894.599	0.0134015
894.677	0.0134329
894.755	0.0133975
894.833	0.0133749
894.911	0.0134049
894.989	0.0134755
895.068	0.0134092
895.146	0.0133460
895.224	0.0135151
895.302	0.0133293
895.380	0.0132673
895.458	0.0135049
895.536	0.0133758
895.614	0.0134616
895.693	0.0133882
895.771	0.0133554
895.849	0.0134236
895.927	0.0134612
896.005	0.0134041
896.083	0.0133779
896.161	0.0134478
896.239	0.0133827
896.318	0.0133871
896.396	0.0134976
896.474	0.0134107
896.552	0.0134899
896.630	0.0135357
896.708	0.0135017
896.786	0.0134811
896.864	0.0135099
896.943	0.0133773
897.021	0.0134631
897.099	0.0134610
897.177	0.0134811
897.255	0.0133363
897.333	0.0134200
897.411	0.0133517
897.489	0.0134301
897.568	0.0132649
897.646	0.0131950
897.724	0.0133409
897.802	0.0134050
897.880	0.0132081
897.958	0.0131713
898.036	0.0131857
898.114	0.0131097
898.193	0.0131496
898.271	0.0131316
898.349	0.0131081
898.427	0.0131908
898.505	0.0131324
898.583	0.0131595
898.661	0.0131748
898.739	0.0131745
898.818	0.0131882
898.896	0.0131106
898.974	0.0131043
899.052	0.0131275
899.130	0.0130972
899.208	0.0132147
899.286	0.0133373
899.364	0.0131137
899.443	0.0132188
899.521	0.0132128
899.599	0.0134220
899.677	0.0133627
899.755	0.0133167
899.833	0.0133751
899.911	0.0133409
899.989	0.0135516
900.068	0.0133694
900.146	0.0134959
900.224	0.0136698
900.302	0.0134902
900.380	0.0134933
900.458	0.0134971
900.536	0.0136284
900.614	0.0135719
900.693	0.0136428
900.771	0.0134766
900.849	0.0134620
900.927	0.0134965
901.005	0.0135276
901.083	0.0134592
901.161	0.0133458
901.239	0.0134174
901.318	0.0135168
901.396	0.0134785
901.474	0.0134671
901.552	0.0135247
901.630	0.0133407
901.708	0.0133916
901.786	0.0134348
901.864	0.0133195
901.943	0.0134100
902.021	0.0133781
902.099	0.0132944
902.177	0.0133679
902.255	0.0133691
902.333	0.0133077
902.411	0.0134248
902.489	0.0133289
902.568	0.0133340
902.646	0.0134591
902.724	0.0134327
902.802	0.0133574
902.880	0.0133304
902.958	0.0133305
903.036	0.0131557
903.114	0.0132535
903.193	0.0133315
903.271	0.0132351
903.349	0.0133559
903.427	0.0132482
903.505	0.0130966
903.583	0.0132260
903.661	0.0132943
903.739	0.0133470
903.818	0.0132563
903.896	0.0131554
903.974	0.0132098
904.052	0.0132092
904.130	0.0130689
904.208	0.0132314
904.286	0.0132172
904.364	0.0132102
904.443	0.0131837
904.521	0.0131280
904.599	0.0130640
904.677	0.0130923
904.755	0.0131888
904.833	0.0130687
904.911	0.0130465
904.989	0.0132316
905.068	0.0131649
905.146	0.0133793
905.224	0.0132265
905.302	0.0132625
905.380	0.0133378
905.458	0.0132008
905.536	0.0134077
905.614	0.0133305
905.693	0.0132513
905.771	0.0133739
905.849	0.0134575
905.927	0.0133620
906.005	0.0133017
906.083	0.0134297
906.161	0.0133730
906.239	0.0133744
906.318	0.0133302
906.396	0.0133458
906.474	0.0134408
906.552	0.0134976
906.630	0.0134966
906.708	0.0134505
906.786	0.0133994
906.864	0.0133807
906.943	0.0133920
907.021	0.0133639
907.099	0.0133888
907.177	0.0133515
907.255	0.0134182
907.333	0.0133553
907.411	0.0134049
907.489	0.0133285
907.568	0.0133710
907.646	0.0133572
907.724	0.0133984
907.802	0.0133688
907.880	0.0134693
907.958	0.0134978
908.036	0.0133755
908.114	0.0134470
908.193	0.0134238
908.271	0.0133944
908.349	0.0134368
908.427	0.0133608
908.505	0.0134489
908.583	0.0133373
908.661	0.0132911
908.739	0.0132333
908.818	0.0133708
908.896	0.0134019
908.974	0.0133667
909.052	0.0133756
909.130	0.0133657
909.208	0.0133905
909.286	0.0133530
909.364	0.0133101
909.443	0.0134209
909.521	0.0134428
909.599	0.0132993
909.677	0.0134419
909.755	0.0133917
909.833	0.0134863
909.911	0.0134282
909.989	0.0133016
910.068	0.0133546
910.146	0.0134414
910.224	0.0134054
910.302	0.0135011
910.380	0.0134917
910.458	0.0132944
910.536	0.0132898
910.614	0.0134040
910.693	0.0133110
910.771	0.0134907
910.849	0.0135053
910.927	0.0133386
911.005	0.0133621
911.083	0.0135470
911.161	0.0134760
911.239	0.0134617
911.318	0.0134207
911.396	0.0135038
911.474	0.0133833
911.552	0.0134165
911.630	0.0134258
911.708	0.0133607
911.786	0.0134271
911.864	0.0133246
911.943	0.0134134
912.021	0.0134503
912.099	0.0135119
912.177	0.0133342
912.255	0.0133717
912.333	0.0133587
912.411	0.0134783
912.489	0.0133120
912.568	0.0132833
912.646	0.0133867
912.724	0.0134010
912.802	0.0133221
912.880	0.0133489
912.958	0.0133244
913.036	0.0133694
913.114	0.0134541
913.193	0.0134250
913.271	0.0134570
913.349	0.0134032
913.427	0.0132450
913.505	0.0133530
913.583	0.0133279
913.661	0.0134093
913.739	0.0133287
913.818	0.0134510
913.896	0.0133293
913.974	0.0133998
914.052	0.0132932
914.130	0.0131882
914.208	0.0132999
914.286	0.0133953
914.364	0.0133850
914.443	0.0133445
914.521	0.0134399
914.599	0.0134431
914.677	0.0134531
914.755	0.0134029
914.833	0.0132781
914.911	0.0132941
914.989	0.0134106
915.068	0.0133155
915.146	0.0133919
915.224	0.0133222
915.302	0.0133677
915.380	0.0133746
915.458	0.0131741
915.536	0.0132629
915.614	0.0133495
915.693	0.0133205
915.771	0.0133115
915.849	0.0132327
915.927	0.0132305
916.005	0.0133398
916.083	0.0132235
916.161	0.0132282
916.239	0.0133066
916.318	0.0133490
916.396	0.0134033
916.474	0.0132116
916.552	0.0133764
916.630	0.0133080
916.708	0.0132928
916.786	0.0131734
916.864	0.0132535
916.943	0.0133827
917.021	0.0133595
917.099	0.0131599
917.177	0.0132875
917.255	0.0134181
917.333	0.0133575
917.411	0.0132699
917.489	0.0132693
917.568	0.0132250
917.646	0.0133099
917.724	0.0132969
917.802	0.0132499
917.880	0.0132494
917.958	0.0131210
918.036	0.0133135
918.114	0.0131656
918.193	0.0131995
918.271	0.0132590
918.349	0.0132887
918.427	0.0133084
918.505	0.0133140
918.583	0.0132005
918.661	0.0130761
918.739	0.0132903
918.818	0.0132832
918.896	0.0132326
918.974	0.0132933
919.052	0.0132789
919.130	0.0132942
919.208	0.0133379
919.286	0.0134663
919.364	0.0133030
919.443	0.0133620
919.521	0.0133707
919.599	0.0134956
919.677	0.0134447
919.755	0.0134013
919.833	0.0134309
919.911	0.0134995
919.989	0.0134078
920.068	0.0133710
920.146	0.0135011
920.224	0.0133221
920.302	0.0133881
920.380	0.0132387
920.458	0.0133270
920.536	0.0134093
920.614	0.0134457
920.693	0.0132901
920.771	0.0132976
920.849	0.0132344
920.927	0.0132901
921.005	0.0133214
921.083	0.0133923
921.161	0.0133262
921.239	0.0134052
921.318	0.0133469
921.396	0.0133437
921.474	0.0133828
921.552	0.0134485
921.630	0.0134225
921.708	0.0134415
921.786	0.0133581
921.864	0.0133372
921.943	0.0133399
922.021	0.0134893
922.099	0.0133882
922.177	0.0133800
922.255	0.0134590
922.333	0.0133832
922.411	0.0133056
922.489	0.0134651
922.568	0.0135135
922.646	0.0133253
922.724	0.0133379
922.802	0.0131676
922.880	0.0133488
922.958	0.0133099
923.036	0.0134373
923.114	0.0134164
923.193	0.0130454
923.271	0.0133018
923.349	0.0133534
923.427	0.0132468
923.505	0.0130900
923.583	0.0132354
923.661	0.0132595
923.739	0.0133125
923.818	0.0132892
923.896	0.0131827
923.974	0.0132460
924.052	0.0133755
924.130	0.0132648
924.208	0.0133070
924.286	0.0133440
924.364	0.0133418
924.443	0.0132791
924.521	0.0133942
924.599	0.0134377
924.677	0.0134077
924.755	0.0133630
924.833	0.0134688
924.911	0.0134528
924.989	0.0135191
925.068	0.0134838
925.146	0.0134171
925.224	0.0134061
925.302	0.0133575
925.380	0.0135829
925.458	0.0134845
925.536	0.0134087
925.614	0.0135584
925.693	0.0134254
925.771	0.0133715
925.849	0.0135831
925.927	0.0134936
926.005	0.0135340
926.083	0.0136645
926.161	0.0135253
926.239	0.0135151
926.318	0.0135013
926.396	0.0134915
926.474	0.0133706
926.552	0.0133472
926.630	0.0134492
926.708	0.0134661
926.786	0.0134283
926.864	0.0134713
926.943	0.0134018
927.021	0.0133615
927.099	0.0134104
927.177	0.0133533
927.255	0.0133302
927.333	0.0134190
927.411	0.0133847
927.489	0.0134442
927.568	0.0134093
927.646	0.0134409
927.724	0.0134785
927.802	0.0134129
927.880	0.0133557
927.958	0.0133529
928.036	0.0133562
928.114	0.0135546
928.193	0.0132273
928.271	0.0132260
928.349	0.0131557
928.427	0.0131879
928.505	0.0133933
928.583	0.0132723
928.661	0.0132829
928.739	0.0132191
928.818	0.0133596
928.896	0.0132092
928.974	0.0132331
929.052	0.0132455
929.130	0.0133224
929.208	0.0132783
929.286	0.0132693
929.364	0.0133440
929.443	0.0133628
929.521	0.0134481
929.599	0.0133062
929.677	0.0132665
929.755	0.0132774
929.833	0.0132635
929.911	0.0134918
929.989	0.0134578
930.068	0.0135149
930.146	0.0133727
930.224	0.0134497
930.302	0.0135023
930.380	0.0134124
930.458	0.0134288
930.536	0.0135564
930.614	0.0134509
930.693	0.0135450
930.771	0.0135699
930.849	0.0134610
930.927	0.0134256
931.005	0.0134722
931.083	0.0136758
931.161	0.0135317
931.239	0.0134892
931.318	0.0135764
931.396	0.0135173
931.474	0.0134821
931.552	0.0133812
931.630	0.0135762
931.708	0.0134621
931.786	0.0134609
931.864	0.0135328
931.943	0.0133875
932.021	0.0134469
932.099	0.0133583
932.177	0.0135023
932.255	0.0132949
932.333	0.0133194
932.411	0.0132713
932.489	0.0134120
932.568	0.0133700
932.646	0.0133524
932.724	0.0133335
932.802	0.0133690
932.880	0.0133221
932.958	0.0132135
933.036	0.0132555
933.114	0.0133154
933.193	0.0132002
933.271	0.0132526
933.349	0.0133382
933.427	0.0133257
933.505	0.0132207
933.583	0.0131101
933.661	0.0131490
933.739	0.0133606
933.818	0.0133416
933.896	0.0132252
933.974	0.0132497
934.052	0.0132502
934.130	0.0132845
934.208	0.0132687
934.286	0.0132487
934.364	0.0133122
934.443	0.0131458
934.521	0.0131270
934.599	0.0132171
934.677	0.0132527
934.755	0.0132198
934.833	0.0131892
934.911	0.0133039
934.989	0.0133151
935.068	0.0132433
935.146	0.0132746
935.224	0.0132207
935.302	0.0131343
935.380	0.0132720
935.458	0.0132432
935.536	0.0132896
935.614	0.0134319
935.693	0.0133766
935.771	0.0133978
935.849	0.0133313
935.927	0.0133326
936.005	0.0133079
936.083	0.0134616
936.161	0.0134016
936.239	0.0133427
936.318	0.0134325
936.396	0.0134274
936.474	0.0134318
936.552	0.0133602
936.630	0.0133527
936.708	0.0134709
936.786	0.0133681
936.864	0.0134261
936.943	0.0132410
937.021	0.0133516
937.099	0.0134222
937.177	0.0134447
937.255	0.0133671
937.333	0.0133421
937.411	0.0135155
937.489	0.0133009
937.568	0.0133584
937.646	0.0133650
937.724	0.0133660
937.802	0.0133283
937.880	0.0133876
937.958	0.0134081
938.036	0.0133379
938.114	0.0133865
938.193	0.0133433
938.271	0.0134714
938.349	0.0133472
938.427	0.0133392
938.505	0.0133488
938.583	0.0133799
938.661	0.0133619
938.739	0.0133362
938.818	0.0132772
938.896	0.0134318
938.974	0.0133810
939.052	0.0132318
939.130	0.0134698
939.208	0.0133449
939.286	0.0133078
939.364	0.0133469
939.443	0.0133837
939.521	0.0133370
939.599	0.0132514
939.677	0.0131345
939.755	0.0133350
939.833	0.0131600
939.911	0.0132426
939.989	0.0132989
940.068	0.0132001
940.146	0.0131323
940.224	0.0132090
940.302	0.0132082
940.380	0.0133578
940.458	0.0132638
940.536	0.0133739
940.614	0.0133727
940.693	0.0133794
940.771	0.0134574
940.849	0.0134424
940.927	0.0134609
941.005	0.0135248
941.083	0.0134258
941.161	0.0135017
941.239	0.0135150
941.318	0.0135360
941.396	0.0134763
941.474	0.0136230
941.552	0.0135102
941.630	0.0135827
941.708	0.0135320
941.786	0.0137229
941.864	0.0136531
941.943	0.0135355
942.021	0.0136107
942.099	0.0136316
942.177	0.0135625
942.255	0.0135896
942.333	0.0134656
942.411	0.0133871
942.489	0.0135648
942.568	0.0135246
942.646	0.0134900
942.724	0.0134766
942.802	0.0135234
942.880	0.0135622
942.958	0.0134409
943.036	0.0134484
943.114	0.0135157
943.193	0.0134089
943.271	0.0135149
943.349	0.0135764
943.427	0.0134547
943.505	0.0135146
943.583	0.0135680
943.661	0.0133784
943.739	0.0134559
943.818	0.0133997
943.896	0.0135340
943.974	0.0134573
944.052	0.0133820
944.130	0.0133994
944.208	0.0134728
944.286	0.0136285
944.364	0.0135107
944.443	0.0134077
944.521	0.0134372
944.599	0.0132764
944.677	0.0134580
944.755	0.0134639
944.833	0.0134282
944.911	0.0134506
944.989	0.0133727
945.068	0.0132786
945.146	0.0133630
945.224	0.0134101
945.302	0.0132825
945.380	0.0134134
945.458	0.0134222
945.536	0.0133095
945.614	0.0133382
945.693	0.0133862
945.771	0.0133448
945.849	0.0132184
945.927	0.0133379
946.005	0.0133223
946.083	0.0133358
946.161	0.0133239
946.239	0.0133858
946.318	0.0133054
946.396	0.0132021
946.474	0.0132583
946.552	0.0133831
946.630	0.0133828
946.708	0.0132972
946.786	0.0132973
946.864	0.0133943
946.943	0.0133543
947.021	0.0133110
947.099	0.0132836
947.177	0.0133985
947.255	0.0132365
947.333	0.0132242
947.411	0.0133201
947.489	0.0133479
947.568	0.0133032
947.646	0.0132983
947.724	0.0133546
947.802	0.0132459
947.880	0.0133350
947.958	0.0133614
948.036	0.0131683
948.114	0.0133488
948.193	0.0134003
948.271	0.0133547
948.349	0.0135676
948.427	0.0135140
948.505	0.0133636
948.583	0.0133112
948.661	0.0134970
948.739	0.0135097
948.818	0.0134606
948.896	0.0134806
948.974	0.0134464
949.052	0.0133650
949.130	0.0135112
949.208	0.0135917
949.286	0.0134804
949.364	0.0133221
949.443	0.0135265
949.521	0.0134866
949.599	0.0135262
949.677	0.0136174
949.755	0.0134059
949.833	0.0134911
949.911	0.0133768
949.989	0.0135071
950.068	0.0135856
950.146	0.0134032
950.224	0.0135601
950.302	0.0135034
950.380	0.0135074
950.458	0.0135373
950.536	0.0135348
950.614	0.0134238
950.693	0.0135277
950.771	0.0135490
950.849	0.0134518
950.927	0.0134460
951.005	0.0134240
951.083	0.0135732
951.161	0.0134648
951.239	0.0133673
951.318	0.0133001
951.396	0.0133579
951.474	0.0133977
951.552	0.0134727
951.630	0.0134590
951.708	0.0134291
951.786	0.0133100
951.864	0.0134531
951.943	0.0134931
952.021	0.0134181
952.099	0.0133692
952.177	0.0135205
952.255	0.0134165
952.333	0.0132311
952.411	0.0135140
952.489	0.0134275
952.568	0.0133796
952.646	0.0133633
952.724	0.0132526
952.802	0.0133356
952.880	0.0135195
952.958	0.0134513
953.036	0.0134170
953.114	0.0133832
953.193	0.0134814
953.271	0.0135236
953.349	0.0133843
953.427	0.0134777
953.505	0.0133441
953.583	0.0134007
953.661	0.0135221
953.739	0.0134872
953.818	0.0134254
953.896	0.0133783
953.974	0.0134601
954.052	0.0134185
954.130	0.0133656
954.208	0.0133134
954.286	0.0134508
954.364	0.0133721
954.443	0.0134218
954.521	0.0132969
954.599	0.0133769
954.677	0.0134988
954.755	0.0133559
954.833	0.0134474
954.911	0.0134206
954.989	0.0133683
955.068	0.0133099
955.146	0.0132862
955.224	0.0132630
955.302	0.0134435
955.380	0.0133982
955.458	0.0133006
955.536	0.0132333
955.614	0.0133186
955.693	0.0133031
955.771	0.0132009
955.849	0.0133051
955.927	0.0132942
956.005	0.0133464
956.083	0.0131603
956.161	0.0133284
956.239	0.0132743
956.318	0.0133853
956.396	0.0132947
956.474	0.0131344
956.552	0.0132253
956.630	0.0133092
956.708	0.0133509
956.786	0.0132436
956.864	0.0132356
956.943	0.0133064
957.021	0.0133060
957.099	0.0132561
957.177	0.0133469
957.255	0.0133701
957.333	0.0132893
957.411	0.0134058
957.489	0.0133683
957.568	0.0134408
957.646	0.0135925
957.724	0.0133339
957.802	0.0131657
957.880	0.0133146
957.958	0.0134419
958.036	0.0133893
958.114	0.0133170
958.193	0.0132417
958.271	0.0133185
958.349	0.0133688
958.427	0.0134533
958.505	0.0133958
958.583	0.0133276
958.661	0.0132256
958.739	0.0133183
958.818	0.0134526
958.896	0.0133579
958.974	0.0132698
959.052	0.0132862
959.130	0.0132422
959.208	0.0133492
959.286	0.0133591
959.364	0.0133538
959.443	0.0132837
959.521	0.0134222
959.599	0.0133577
959.677	0.0133542
959.755	0.0133415
959.833	0.0134238
959.911	0.0134603
