05/07/2022	17:46:54	Ver.	4.1	UNKNOWN
Optical Delay	639.989416	Delta X		0.078125	Sweeps	1	Scan Rate	0/0
Coordinates	Axis 1	NaN	Axis 2	NaN	Axis 3	NaN	Axis 4	NaN	Axis 5	NaN	Axis 6	0.000000
TX Power	0.000000	RX Power	0.000000

639.989	0.0132004
640.068	0.0132780
640.146	0.0132845
640.224	0.0132320
640.302	0.0132056
640.380	0.0133347
640.458	0.0133692
640.536	0.0132782
640.614	0.0132592
640.693	0.0132490
640.771	0.0132042
640.849	0.0133101
640.927	0.0133318
641.005	0.0132104
641.083	0.0132095
641.161	0.0132704
641.239	0.0131727
641.318	0.0132207
641.396	0.0130917
641.474	0.0131521
641.552	0.0131799
641.630	0.0131525
641.708	0.0131860
641.786	0.0131932
641.864	0.0132922
641.943	0.0132823
642.021	0.0132937
642.099	0.0134059
642.177	0.0134563
642.255	0.0133425
642.333	0.0134457
642.411	0.0134222
642.489	0.0134654
642.568	0.0133972
642.646	0.0134093
642.724	0.0134321
642.802	0.0135659
642.880	0.0134103
642.958	0.0134062
643.036	0.0133950
643.114	0.0134138
643.193	0.0133594
643.271	0.0133600
643.349	0.0132357
643.427	0.0132778
643.505	0.0133009
643.583	0.0131474
643.661	0.0131641
643.739	0.0130122
643.818	0.0131344
643.896	0.0131052
643.974	0.0131201
644.052	0.0128570
644.130	0.0128417
644.208	0.0129939
644.286	0.0129997
644.364	0.0130212
644.443	0.0130032
644.521	0.0128386
644.599	0.0129423
644.677	0.0130770
644.755	0.0131859
644.833	0.0133064
644.911	0.0132281
644.989	0.0132920
645.068	0.0134513
645.146	0.0134763
645.224	0.0135840
645.302	0.0136666
645.380	0.0135986
645.458	0.0136578
645.536	0.0137421
645.614	0.0137371
645.693	0.0136944
645.771	0.0136097
645.849	0.0137364
645.927	0.0136354
646.005	0.0136909
646.083	0.0137199
646.161	0.0135702
646.239	0.0135175
646.318	0.0133884
646.396	0.0133134
646.474	0.0132683
646.552	0.0129294
646.630	0.0128255
646.708	0.0129314
646.786	0.0129955
646.864	0.0129438
646.943	0.0126605
647.021	0.0126839
647.099	0.0128293
647.177	0.0126664
647.255	0.0126521
647.333	0.0128313
647.411	0.0127502
647.489	0.0126784
647.568	0.0127638
647.646	0.0129298
647.724	0.0129928
647.802	0.0129873
647.880	0.0129752
647.958	0.0131226
648.036	0.0131928
648.114	0.0132245
648.193	0.0133279
648.271	0.0130936
648.349	0.0133408
648.427	0.0133940
648.505	0.0135220
648.583	0.0135050
648.661	0.0135580
648.739	0.0134451
648.818	0.0135539
648.896	0.0135641
648.974	0.0135540
649.052	0.0135217
649.130	0.0135371
649.208	0.0135734
649.286	0.0135132
649.364	0.0134969
649.443	0.0135278
649.521	0.0135484
649.599	0.0136397
649.677	0.0134428
649.755	0.0134130
649.833	0.0133544
649.911	0.0134163
649.989	0.0133366
650.068	0.0133276
650.146	0.0134361
650.224	0.0134175
650.302	0.0131248
650.380	0.0131241
650.458	0.0131281
650.536	0.0130849
650.614	0.0130031
650.693	0.0130265
650.771	0.0129357
650.849	0.0128712
650.927	0.0129918
651.005	0.0129245
651.083	0.0128569
651.161	0.0128875
651.239	0.0127404
651.318	0.0125854
651.396	0.0127481
651.474	0.0124804
651.552	0.0126812
651.630	0.0125047
651.708	0.0125532
651.786	0.0126342
651.864	0.0126189
651.943	0.0126579
652.021	0.0127043
652.099	0.0128637
652.177	0.0130056
652.255	0.0130301
652.333	0.0130975
652.411	0.0132847
652.489	0.0133331
652.568	0.0133760
652.646	0.0135624
652.724	0.0136716
652.802	0.0138240
652.880	0.0140002
652.958	0.0142240
653.036	0.0142929
653.114	0.0143877
653.193	0.0143795
653.271	0.0144169
653.349	0.0144122
653.427	0.0144418
653.505	0.0144438
653.583	0.0145050
653.661	0.0144834
653.739	0.0145194
653.818	0.0142359
653.896	0.0142213
653.974	0.0141020
654.052	0.0138880
654.130	0.0136776
654.208	0.0136726
654.286	0.0134679
654.364	0.0133916
654.443	0.0130984
654.521	0.0130464
654.599	0.0126614
654.677	0.0125246
654.755	0.0123404
654.833	0.0123164
654.911	0.0120840
654.989	0.0117822
655.068	0.0117484
655.146	0.0116650
655.224	0.0116621
655.302	0.0115177
655.380	0.0114697
655.458	0.0115086
655.536	0.0114607
655.614	0.0115157
655.693	0.0116732
655.771	0.0118302
655.849	0.0118660
655.927	0.0119955
656.005	0.0120788
656.083	0.0122072
656.161	0.0125597
656.239	0.0127023
656.318	0.0129002
656.396	0.0131982
656.474	0.0134094
656.552	0.0134721
656.630	0.0138070
656.708	0.0141074
656.786	0.0142065
656.864	0.0146692
656.943	0.0146410
657.021	0.0147488
657.099	0.0150608
657.177	0.0150575
657.255	0.0151572
657.333	0.0153236
657.411	0.0151635
657.489	0.0151885
657.568	0.0151983
657.646	0.0150558
657.724	0.0150388
657.802	0.0149954
657.880	0.0149184
657.958	0.0146717
658.036	0.0145548
658.114	0.0143578
658.193	0.0142410
658.271	0.0138182
658.349	0.0138306
658.427	0.0135882
658.505	0.0131004
658.583	0.0130042
658.661	0.0128149
658.739	0.0125198
658.818	0.0122830
658.896	0.0121292
658.974	0.0120119
659.052	0.0116747
659.130	0.0114346
659.208	0.0112752
659.286	0.0112474
659.364	0.0110976
659.443	0.0110640
659.521	0.0111307
659.599	0.0109392
659.677	0.0109427
659.755	0.0109274
659.833	0.0109571
659.911	0.0111855
659.989	0.0111812
660.068	0.0113177
660.146	0.0115536
660.224	0.0117265
660.302	0.0118610
660.380	0.0120669
660.458	0.0122033
660.536	0.0124828
660.614	0.0126365
660.693	0.0129793
660.771	0.0132407
660.849	0.0132909
660.927	0.0135780
661.005	0.0138025
661.083	0.0140050
661.161	0.0143987
661.239	0.0147044
661.318	0.0148270
661.396	0.0149612
661.474	0.0151694
661.552	0.0153129
661.630	0.0155882
661.708	0.0156175
661.786	0.0157770
661.864	0.0158823
661.943	0.0158623
662.021	0.0158185
662.099	0.0156734
662.177	0.0157688
662.255	0.0156735
662.333	0.0155872
662.411	0.0154159
662.489	0.0150906
662.568	0.0150748
662.646	0.0146191
662.724	0.0143082
662.802	0.0140863
662.880	0.0137271
662.958	0.0133926
663.036	0.0131007
663.114	0.0128611
663.193	0.0122881
663.271	0.0119768
663.349	0.0117045
663.427	0.0111018
663.505	0.0109801
663.583	0.0106352
663.661	0.0104173
663.739	0.0101836
663.818	0.00997292
663.896	0.00978577
663.974	0.00982681
664.052	0.00977150
664.130	0.00987114
664.208	0.00983490
664.286	0.00998894
664.364	0.00994522
664.443	0.0103596
664.521	0.0105923
664.599	0.0109490
664.677	0.0112912
664.755	0.0115441
664.833	0.0119475
664.911	0.0123663
664.989	0.0126614
665.068	0.0131000
665.146	0.0136211
665.224	0.0139643
665.302	0.0142820
665.380	0.0147382
665.458	0.0150541
665.536	0.0152463
665.614	0.0154934
665.693	0.0155133
665.771	0.0157700
665.849	0.0160292
665.927	0.0160712
666.005	0.0160661
666.083	0.0161319
666.161	0.0161283
666.239	0.0161752
666.318	0.0159905
666.396	0.0159479
666.474	0.0160116
666.552	0.0156725
666.630	0.0154955
666.708	0.0154526
666.786	0.0153482
666.864	0.0150084
666.943	0.0147598
667.021	0.0144272
667.099	0.0143324
667.177	0.0140171
667.255	0.0137725
667.333	0.0136256
667.411	0.0133673
667.489	0.0130270
667.568	0.0126921
667.646	0.0124377
667.724	0.0120300
667.802	0.0119921
667.880	0.0116783
667.958	0.0112849
668.036	0.0110999
668.114	0.0108968
668.193	0.0107560
668.271	0.0105583
668.349	0.0105401
668.427	0.0103838
668.505	0.0103416
668.583	0.0103913
668.661	0.0104449
668.739	0.0103924
668.818	0.0106071
668.896	0.0107116
668.974	0.0109564
669.052	0.0111334
669.130	0.0114154
669.208	0.0116724
669.286	0.0120930
669.364	0.0122765
669.443	0.0126970
669.521	0.0130615
669.599	0.0132307
669.677	0.0137881
669.755	0.0139761
669.833	0.0141293
669.911	0.0144231
669.989	0.0148277
670.068	0.0151660
670.146	0.0152441
670.224	0.0155103
670.302	0.0154738
670.380	0.0156776
670.458	0.0155509
670.536	0.0156279
670.614	0.0157001
670.693	0.0157180
670.771	0.0154383
670.849	0.0152357
670.927	0.0152171
671.005	0.0151210
671.083	0.0148069
671.161	0.0145255
671.239	0.0143649
671.318	0.0141638
671.396	0.0138931
671.474	0.0138443
671.552	0.0134501
671.630	0.0133112
671.708	0.0131814
671.786	0.0129851
671.864	0.0127924
671.943	0.0126109
672.021	0.0125744
672.099	0.0124538
672.177	0.0122882
672.255	0.0123975
672.333	0.0122412
672.411	0.0122519
672.489	0.0123986
672.568	0.0122562
672.646	0.0122780
672.724	0.0123320
672.802	0.0123798
672.880	0.0122488
672.958	0.0124174
673.036	0.0123998
673.114	0.0123290
673.193	0.0124572
673.271	0.0125887
673.349	0.0124540
673.427	0.0125775
673.505	0.0125603
673.583	0.0127390
673.661	0.0127400
673.739	0.0127643
673.818	0.0128398
673.896	0.0129143
673.974	0.0128590
674.052	0.0128425
674.130	0.0129305
674.208	0.0129448
674.286	0.0130401
674.364	0.0130080
674.443	0.0132243
674.521	0.0131583
674.599	0.0131185
674.677	0.0131084
674.755	0.0130640
674.833	0.0132171
674.911	0.0132172
674.989	0.0132590
675.068	0.0132784
675.146	0.0133073
675.224	0.0134647
675.302	0.0134914
675.380	0.0133691
675.458	0.0134654
675.536	0.0134231
675.614	0.0133788
675.693	0.0133890
675.771	0.0135226
675.849	0.0132520
675.927	0.0133952
676.005	0.0131994
676.083	0.0132541
676.161	0.0133766
676.239	0.0134049
676.318	0.0133607
676.396	0.0132638
676.474	0.0132649
676.552	0.0134769
676.630	0.0134856
676.708	0.0135703
676.786	0.0135078
676.864	0.0136460
676.943	0.0136253
677.021	0.0136269
677.099	0.0136992
677.177	0.0138139
677.255	0.0138476
677.333	0.0140257
677.411	0.0140009
677.489	0.0140237
677.568	0.0141270
677.646	0.0141193
677.724	0.0142581
677.802	0.0142696
677.880	0.0142839
677.958	0.0141629
678.036	0.0141960
678.114	0.0141258
678.193	0.0140159
678.271	0.0139929
678.349	0.0138515
678.427	0.0137663
678.505	0.0138005
678.583	0.0136789
678.661	0.0134501
678.739	0.0132851
678.818	0.0131178
678.896	0.0130302
678.974	0.0128721
679.052	0.0127151
679.130	0.0124848
679.208	0.0123019
679.286	0.0123868
679.364	0.0121494
679.443	0.0120518
679.521	0.0118441
679.599	0.0119118
679.677	0.0117044
679.755	0.0116025
679.833	0.0117368
679.911	0.0116045
679.989	0.0115650
680.068	0.0116559
680.146	0.0116644
680.224	0.0118150
680.302	0.0118315
680.380	0.0120902
680.458	0.0122738
680.536	0.0121455
680.614	0.0123074
680.693	0.0126298
680.771	0.0127632
680.849	0.0130235
680.927	0.0131956
681.005	0.0134223
681.083	0.0137273
681.161	0.0139554
681.239	0.0140158
681.318	0.0142682
681.396	0.0143102
681.474	0.0145763
681.552	0.0147356
681.630	0.0147520
681.708	0.0148320
681.786	0.0149281
681.864	0.0148019
681.943	0.0150155
682.021	0.0149832
682.099	0.0148071
682.177	0.0146136
682.255	0.0146824
682.333	0.0146671
682.411	0.0144413
682.489	0.0143995
682.568	0.0142377
682.646	0.0140347
682.724	0.0137016
682.802	0.0136214
682.880	0.0135295
682.958	0.0133465
683.036	0.0132095
683.114	0.0129671
683.193	0.0129159
683.271	0.0128306
683.349	0.0128014
683.427	0.0126472
683.505	0.0125526
683.583	0.0125079
683.661	0.0124541
683.739	0.0125438
683.818	0.0124790
683.896	0.0124534
683.974	0.0124453
684.052	0.0126132
684.130	0.0125744
684.208	0.0125402
684.286	0.0125572
684.364	0.0126842
684.443	0.0127015
684.521	0.0127438
684.599	0.0127202
684.677	0.0126755
684.755	0.0125846
684.833	0.0126616
684.911	0.0127900
684.989	0.0124700
685.068	0.0126464
685.146	0.0125161
685.224	0.0125372
685.302	0.0123993
685.380	0.0124411
685.458	0.0124679
685.536	0.0125826
685.614	0.0126047
685.693	0.0125038
685.771	0.0123583
685.849	0.0125574
685.927	0.0125992
686.005	0.0126231
686.083	0.0126455
686.161	0.0127202
686.239	0.0127943
686.318	0.0129007
686.396	0.0129949
686.474	0.0131039
686.552	0.0131499
686.630	0.0132784
686.708	0.0133220
686.786	0.0134693
686.864	0.0134470
686.943	0.0134186
687.021	0.0134510
687.099	0.0135149
687.177	0.0137836
687.255	0.0136544
687.333	0.0135461
687.411	0.0136207
687.489	0.0137420
687.568	0.0137893
687.646	0.0136840
687.724	0.0135692
687.802	0.0137080
687.880	0.0137178
687.958	0.0138563
688.036	0.0137965
688.114	0.0136455
688.193	0.0136782
688.271	0.0138165
688.349	0.0136954
688.427	0.0135518
688.505	0.0136776
688.583	0.0136324
688.661	0.0136436
688.739	0.0136776
688.818	0.0136117
688.896	0.0136150
688.974	0.0135778
689.052	0.0134745
689.130	0.0135387
689.208	0.0136073
689.286	0.0135189
689.364	0.0136867
689.443	0.0135458
689.521	0.0137563
689.599	0.0136340
689.677	0.0136208
689.755	0.0136604
689.833	0.0134714
689.911	0.0134561
689.989	0.0136031
690.068	0.0134832
690.146	0.0133028
690.224	0.0132790
690.302	0.0131200
690.380	0.0129919
690.458	0.0127348
690.536	0.0126177
690.614	0.0125154
690.693	0.0123084
690.771	0.0122089
690.849	0.0119234
690.927	0.0118562
691.005	0.0117374
691.083	0.0115704
691.161	0.0116196
691.239	0.0116737
691.318	0.0115775
691.396	0.0114743
691.474	0.0113574
691.552	0.0113762
691.630	0.0114381
691.708	0.0116952
691.786	0.0116720
691.864	0.0118362
691.943	0.0119623
692.021	0.0120351
692.099	0.0123610
692.177	0.0124064
692.255	0.0125230
692.333	0.0128648
692.411	0.0129967
692.489	0.0133479
692.568	0.0135679
692.646	0.0136824
692.724	0.0138841
692.802	0.0140128
692.880	0.0140858
692.958	0.0144563
693.036	0.0144215
693.114	0.0146246
693.193	0.0147356
693.271	0.0149230
693.349	0.0148816
693.427	0.0148450
693.505	0.0149527
693.583	0.0150052
693.661	0.0148669
693.739	0.0148988
693.818	0.0149131
693.896	0.0148071
693.974	0.0148116
694.052	0.0147160
694.130	0.0147054
694.208	0.0145901
694.286	0.0143918
694.364	0.0142054
694.443	0.0140205
694.521	0.0138094
694.599	0.0134531
694.677	0.0136003
694.755	0.0132973
694.833	0.0130346
694.911	0.0129221
694.989	0.0128654
695.068	0.0127283
695.146	0.0124707
695.224	0.0123347
695.302	0.0122253
695.380	0.0120763
695.458	0.0120640
695.536	0.0120162
695.614	0.0120710
695.693	0.0118884
695.771	0.0118683
695.849	0.0118348
695.927	0.0119811
696.005	0.0121472
696.083	0.0121246
696.161	0.0121898
696.239	0.0122341
696.318	0.0122098
696.396	0.0123109
696.474	0.0123644
696.552	0.0124368
696.630	0.0125297
696.708	0.0127990
696.786	0.0128946
696.864	0.0129037
696.943	0.0129388
697.021	0.0129389
697.099	0.0130355
697.177	0.0130707
697.255	0.0132820
697.333	0.0133079
697.411	0.0133807
697.489	0.0134698
697.568	0.0135892
697.646	0.0135903
697.724	0.0134651
697.802	0.0135902
697.880	0.0137374
697.958	0.0137679
698.036	0.0137904
698.114	0.0138721
698.193	0.0138437
698.271	0.0139277
698.349	0.0140770
698.427	0.0138882
698.505	0.0140806
698.583	0.0140725
698.661	0.0139635
698.739	0.0141779
698.818	0.0141015
698.896	0.0140931
698.974	0.0140162
699.052	0.0138878
699.130	0.0140567
699.208	0.0139360
699.286	0.0139367
699.364	0.0138516
699.443	0.0140244
699.521	0.0139014
699.599	0.0139162
699.677	0.0136989
699.755	0.0136609
699.833	0.0136429
699.911	0.0136640
699.989	0.0136985
700.068	0.0134743
700.146	0.0133413
700.224	0.0132906
700.302	0.0130973
700.380	0.0130709
700.458	0.0129468
700.536	0.0129828
700.614	0.0127451
700.693	0.0128020
700.771	0.0126318
700.849	0.0126477
700.927	0.0125940
701.005	0.0124332
701.083	0.0125214
701.161	0.0125990
701.239	0.0125298
701.318	0.0125825
701.396	0.0127164
701.474	0.0129043
701.552	0.0127509
701.630	0.0128481
701.708	0.0128880
701.786	0.0129802
701.864	0.0130669
701.943	0.0131300
702.021	0.0132202
702.099	0.0132625
702.177	0.0132820
702.255	0.0132379
702.333	0.0133259
702.411	0.0135188
702.489	0.0133716
702.568	0.0133427
702.646	0.0133889
702.724	0.0133357
702.802	0.0132759
702.880	0.0133450
702.958	0.0132614
703.036	0.0131499
703.114	0.0133060
703.193	0.0131683
703.271	0.0130822
703.349	0.0130951
703.427	0.0130038
703.505	0.0128280
703.583	0.0126730
703.661	0.0128986
703.739	0.0126817
703.818	0.0126265
703.896	0.0126459
703.974	0.0126856
704.052	0.0127148
704.130	0.0125753
704.208	0.0126202
704.286	0.0127478
704.364	0.0127917
704.443	0.0127795
704.521	0.0128617
704.599	0.0128868
704.677	0.0130226
704.755	0.0130907
704.833	0.0131892
704.911	0.0132627
704.989	0.0132360
705.068	0.0133673
705.146	0.0134675
705.224	0.0134309
705.302	0.0135815
705.380	0.0135128
705.458	0.0137061
705.536	0.0138638
705.614	0.0138329
705.693	0.0137607
705.771	0.0138695
705.849	0.0139051
705.927	0.0138353
706.005	0.0139674
706.083	0.0140092
706.161	0.0139729
706.239	0.0139879
706.318	0.0141517
706.396	0.0141367
706.474	0.0139576
706.552	0.0140147
706.630	0.0139674
706.708	0.0138438
706.786	0.0137095
706.864	0.0137454
706.943	0.0137985
707.021	0.0135283
707.099	0.0136061
707.177	0.0135365
707.255	0.0134648
707.333	0.0134704
707.411	0.0133820
707.489	0.0132053
707.568	0.0131140
707.646	0.0130627
707.724	0.0130904
707.802	0.0128500
707.880	0.0127350
707.958	0.0127480
708.036	0.0127460
708.114	0.0125687
708.193	0.0125193
708.271	0.0126438
708.349	0.0123668
708.427	0.0126950
708.505	0.0126156
708.583	0.0125645
708.661	0.0125040
708.739	0.0125938
708.818	0.0126514
708.896	0.0126845
708.974	0.0126718
709.052	0.0126130
709.130	0.0126620
709.208	0.0126553
709.286	0.0125381
709.364	0.0126375
709.443	0.0126333
709.521	0.0128306
709.599	0.0126564
709.677	0.0126399
709.755	0.0127122
709.833	0.0126118
709.911	0.0124801
709.989	0.0126432
710.068	0.0129353
710.146	0.0128579
710.224	0.0127664
710.302	0.0128286
710.380	0.0130427
710.458	0.0130396
710.536	0.0129040
710.614	0.0129463
710.693	0.0130132
710.771	0.0130441
710.849	0.0132159
710.927	0.0131508
711.005	0.0131210
711.083	0.0134426
711.161	0.0133742
711.239	0.0136110
711.318	0.0135270
711.396	0.0137089
711.474	0.0136415
711.552	0.0137109
711.630	0.0136736
711.708	0.0139833
711.786	0.0140318
711.864	0.0140830
711.943	0.0141820
712.021	0.0140321
712.099	0.0141315
712.177	0.0142776
712.255	0.0142059
712.333	0.0141608
712.411	0.0141391
712.489	0.0140626
712.568	0.0139606
712.646	0.0139462
712.724	0.0137897
712.802	0.0136184
712.880	0.0135387
712.958	0.0135886
713.036	0.0132709
713.114	0.0132171
713.193	0.0130322
713.271	0.0128641
713.349	0.0127332
713.427	0.0126860
713.505	0.0125312
713.583	0.0125066
713.661	0.0124157
713.739	0.0123468
713.818	0.0122261
713.896	0.0121565
713.974	0.0122523
714.052	0.0123196
714.130	0.0121648
714.208	0.0120930
714.286	0.0122703
714.364	0.0123824
714.443	0.0122418
714.521	0.0123914
714.599	0.0125386
714.677	0.0125364
714.755	0.0125758
714.833	0.0126436
714.911	0.0126698
714.989	0.0128425
715.068	0.0129171
715.146	0.0128858
715.224	0.0129710
715.302	0.0128908
715.380	0.0129697
715.458	0.0132025
715.536	0.0131139
715.614	0.0132131
715.693	0.0130805
715.771	0.0130385
715.849	0.0131647
715.927	0.0131611
716.005	0.0131410
716.083	0.0131187
716.161	0.0133327
716.239	0.0132469
716.318	0.0132117
716.396	0.0132366
716.474	0.0132451
716.552	0.0133295
716.630	0.0133447
716.708	0.0133324
716.786	0.0132781
716.864	0.0133249
716.943	0.0132970
717.021	0.0133125
717.099	0.0133709
717.177	0.0134440
717.255	0.0134647
717.333	0.0134084
717.411	0.0134375
717.489	0.0134510
717.568	0.0134020
717.646	0.0135132
717.724	0.0133474
717.802	0.0134399
717.880	0.0133979
717.958	0.0135903
718.036	0.0133801
718.114	0.0134958
718.193	0.0134543
718.271	0.0134644
718.349	0.0134949
718.427	0.0132943
718.505	0.0133829
718.583	0.0135064
718.661	0.0133678
718.739	0.0133314
718.818	0.0133379
718.896	0.0132285
718.974	0.0133958
719.052	0.0132889
719.130	0.0133297
719.208	0.0132887
719.286	0.0131479
719.364	0.0129594
719.443	0.0130115
719.521	0.0130754
719.599	0.0130011
719.677	0.0130363
719.755	0.0128981
719.833	0.0127604
719.911	0.0129382
719.989	0.0127905
720.068	0.0128576
720.146	0.0127588
720.224	0.0126231
720.302	0.0128321
720.380	0.0127925
720.458	0.0126564
720.536	0.0127641
720.614	0.0126604
720.693	0.0127814
720.771	0.0126846
720.849	0.0126394
720.927	0.0127357
721.005	0.0126509
721.083	0.0128411
721.161	0.0128078
721.239	0.0129127
721.318	0.0129436
721.396	0.0129015
721.474	0.0130354
721.552	0.0130936
721.630	0.0131149
721.708	0.0134586
721.786	0.0133076
721.864	0.0134225
721.943	0.0135290
722.021	0.0135513
722.099	0.0135253
722.177	0.0135465
722.255	0.0135323
722.333	0.0136769
722.411	0.0136082
722.489	0.0136421
722.568	0.0135452
722.646	0.0135522
722.724	0.0136308
722.802	0.0136014
722.880	0.0136607
722.958	0.0136194
723.036	0.0135639
723.114	0.0135468
723.193	0.0134541
723.271	0.0134648
723.349	0.0136800
723.427	0.0134866
723.505	0.0134499
723.583	0.0134734
723.661	0.0134897
723.739	0.0135904
723.818	0.0134866
723.896	0.0135181
723.974	0.0135629
724.052	0.0135339
724.130	0.0134733
724.208	0.0134943
724.286	0.0135691
724.364	0.0135746
724.443	0.0137403
724.521	0.0137930
724.599	0.0136398
724.677	0.0136485
724.755	0.0137658
724.833	0.0136556
724.911	0.0137327
724.989	0.0138193
725.068	0.0138567
725.146	0.0138265
725.224	0.0136934
725.302	0.0137208
725.380	0.0136551
725.458	0.0137318
725.536	0.0135072
725.614	0.0135402
725.693	0.0135300
725.771	0.0133620
725.849	0.0133871
725.927	0.0131632
726.005	0.0131120
726.083	0.0131060
726.161	0.0130718
726.239	0.0128877
726.318	0.0129491
726.396	0.0127430
726.474	0.0127213
726.552	0.0128072
726.630	0.0127455
726.708	0.0127112
726.786	0.0126826
726.864	0.0126438
726.943	0.0126388
727.021	0.0126082
727.099	0.0126900
727.177	0.0126550
727.255	0.0127328
727.333	0.0127878
727.411	0.0128255
727.489	0.0128956
727.568	0.0130133
727.646	0.0129897
727.724	0.0130183
727.802	0.0129524
727.880	0.0129735
727.958	0.0131191
728.036	0.0132763
728.114	0.0131631
728.193	0.0131008
728.271	0.0130361
728.349	0.0132762
728.427	0.0131167
728.505	0.0131035
728.583	0.0132170
728.661	0.0133034
728.739	0.0132926
728.818	0.0132661
728.896	0.0133170
728.974	0.0133222
729.052	0.0132190
729.130	0.0134293
729.208	0.0134243
729.286	0.0133180
729.364	0.0133621
729.443	0.0135038
729.521	0.0134716
729.599	0.0135961
729.677	0.0133839
729.755	0.0134209
729.833	0.0133353
729.911	0.0134888
729.989	0.0135427
730.068	0.0134881
730.146	0.0134131
730.224	0.0135757
730.302	0.0136887
730.380	0.0136629
730.458	0.0135739
730.536	0.0136064
730.614	0.0136354
730.693	0.0136701
730.771	0.0136044
730.849	0.0136960
730.927	0.0137429
731.005	0.0137233
731.083	0.0135851
731.161	0.0137377
731.239	0.0135892
731.318	0.0136818
731.396	0.0136664
731.474	0.0135654
731.552	0.0135623
731.630	0.0135857
731.708	0.0134784
731.786	0.0134473
731.864	0.0135175
731.943	0.0133900
732.021	0.0132076
732.099	0.0131998
732.177	0.0131017
732.255	0.0131568
732.333	0.0130204
732.411	0.0130524
732.489	0.0130562
732.568	0.0129033
732.646	0.0127689
732.724	0.0126719
732.802	0.0127069
732.880	0.0127736
732.958	0.0125603
733.036	0.0126350
733.114	0.0125474
733.193	0.0124397
733.271	0.0123936
733.349	0.0125592
733.427	0.0123928
733.505	0.0124869
733.583	0.0124447
733.661	0.0126176
733.739	0.0125462
733.818	0.0125528
733.896	0.0125760
733.974	0.0127143
734.052	0.0126208
734.130	0.0127238
734.208	0.0128329
734.286	0.0129953
734.364	0.0129904
734.443	0.0130022
734.521	0.0130700
734.599	0.0131423
734.677	0.0132338
734.755	0.0132577
734.833	0.0132260
734.911	0.0134599
734.989	0.0135059
735.068	0.0133433
735.146	0.0134350
735.224	0.0134917
735.302	0.0135258
735.380	0.0136539
735.458	0.0134392
735.536	0.0135465
735.614	0.0134901
735.693	0.0133863
735.771	0.0134648
735.849	0.0134283
735.927	0.0133600
736.005	0.0134048
736.083	0.0131833
736.161	0.0133556
736.239	0.0135435
736.318	0.0133043
736.396	0.0131451
736.474	0.0132028
736.552	0.0132501
736.630	0.0133904
736.708	0.0134106
736.786	0.0134205
736.864	0.0132826
736.943	0.0131453
737.021	0.0132565
737.099	0.0133077
737.177	0.0133224
737.255	0.0133669
737.333	0.0133516
737.411	0.0132504
737.489	0.0132306
737.568	0.0133820
737.646	0.0133874
737.724	0.0132902
737.802	0.0132740
737.880	0.0132898
737.958	0.0133241
738.036	0.0132422
738.114	0.0131444
738.193	0.0132454
738.271	0.0131589
738.349	0.0131560
738.427	0.0131969
738.505	0.0132307
738.583	0.0131562
738.661	0.0133547
738.739	0.0130785
738.818	0.0130322
738.896	0.0130073
738.974	0.0129774
739.052	0.0129875
739.130	0.0129736
739.208	0.0130451
739.286	0.0130347
739.364	0.0130079
739.443	0.0128300
739.521	0.0128591
739.599	0.0129482
739.677	0.0129404
739.755	0.0130037
739.833	0.0129190
739.911	0.0128290
739.989	0.0128277
740.068	0.0128100
740.146	0.0128027
740.224	0.0128181
740.302	0.0128088
740.380	0.0127269
740.458	0.0129157
740.536	0.0128889
740.614	0.0129194
740.693	0.0127610
740.771	0.0129160
740.849	0.0129083
740.927	0.0129334
741.005	0.0130669
741.083	0.0131351
741.161	0.0130830
741.239	0.0128481
741.318	0.0131640
741.396	0.0131401
741.474	0.0131120
741.552	0.0131590
741.630	0.0133276
741.708	0.0134438
741.786	0.0133495
741.864	0.0133540
741.943	0.0134516
742.021	0.0134008
742.099	0.0134493
742.177	0.0134859
742.255	0.0133456
742.333	0.0134695
742.411	0.0135167
742.489	0.0135104
742.568	0.0134653
742.646	0.0133267
742.724	0.0133887
742.802	0.0134236
742.880	0.0134069
742.958	0.0133263
743.036	0.0132908
743.114	0.0133176
743.193	0.0133710
743.271	0.0133084
743.349	0.0131882
743.427	0.0132351
743.505	0.0132684
743.583	0.0132085
743.661	0.0132566
743.739	0.0132001
743.818	0.0131918
743.896	0.0132676
743.974	0.0132057
744.052	0.0131942
744.130	0.0132867
744.208	0.0132323
744.286	0.0131876
744.364	0.0130824
744.443	0.0131820
744.521	0.0132314
744.599	0.0131139
744.677	0.0130910
744.755	0.0132923
744.833	0.0131758
744.911	0.0131760
744.989	0.0131627
745.068	0.0131807
745.146	0.0132109
745.224	0.0131918
745.302	0.0131458
745.380	0.0130556
745.458	0.0130822
745.536	0.0130450
745.614	0.0129246
745.693	0.0130484
745.771	0.0130811
745.849	0.0129472
745.927	0.0130691
746.005	0.0129874
746.083	0.0129867
746.161	0.0130552
746.239	0.0131121
746.318	0.0129243
746.396	0.0129319
746.474	0.0130947
746.552	0.0129890
746.630	0.0131158
746.708	0.0131590
746.786	0.0129116
746.864	0.0130898
746.943	0.0129999
747.021	0.0130421
747.099	0.0130794
747.177	0.0132220
747.255	0.0132626
747.333	0.0131962
747.411	0.0131916
747.489	0.0133113
747.568	0.0133793
747.646	0.0133816
747.724	0.0133472
747.802	0.0134395
747.880	0.0136423
747.958	0.0133241
748.036	0.0134948
748.114	0.0135594
748.193	0.0135979
748.271	0.0134788
748.349	0.0133098
748.427	0.0135242
748.505	0.0134137
748.583	0.0134338
748.661	0.0135320
748.739	0.0134823
748.818	0.0134026
748.896	0.0133936
748.974	0.0133423
749.052	0.0134425
749.130	0.0134525
749.208	0.0135057
749.286	0.0131963
749.364	0.0133866
749.443	0.0134356
749.521	0.0133508
749.599	0.0133255
749.677	0.0134267
749.755	0.0133416
749.833	0.0134542
749.911	0.0132937
749.989	0.0134277
750.068	0.0134673
750.146	0.0134163
750.224	0.0135096
750.302	0.0135154
750.380	0.0134439
750.458	0.0134949
750.536	0.0135091
750.614	0.0136491
750.693	0.0134907
750.771	0.0134888
750.849	0.0135327
750.927	0.0136740
751.005	0.0135403
751.083	0.0136100
751.161	0.0135490
751.239	0.0134393
751.318	0.0136696
751.396	0.0135741
751.474	0.0133124
751.552	0.0134846
751.630	0.0133645
751.708	0.0132909
751.786	0.0131651
751.864	0.0130949
751.943	0.0130338
752.021	0.0130080
752.099	0.0130841
752.177	0.0129739
752.255	0.0129411
752.333	0.0128893
752.411	0.0128758
752.489	0.0129335
752.568	0.0128506
752.646	0.0128334
752.724	0.0127491
752.802	0.0127762
752.880	0.0127496
752.958	0.0127388
753.036	0.0127784
753.114	0.0128275
753.193	0.0129174
753.271	0.0128496
753.349	0.0129602
753.427	0.0130061
753.505	0.0129496
753.583	0.0130967
753.661	0.0130618
753.739	0.0132215
753.818	0.0131510
753.896	0.0131992
753.974	0.0133425
754.052	0.0135236
754.130	0.0135691
754.208	0.0135852
754.286	0.0136406
754.364	0.0134698
754.443	0.0136082
754.521	0.0137973
754.599	0.0137383
754.677	0.0137947
754.755	0.0137384
754.833	0.0136312
754.911	0.0137971
754.989	0.0137970
755.068	0.0136997
755.146	0.0136536
755.224	0.0137646
755.302	0.0135497
755.380	0.0134476
755.458	0.0133748
755.536	0.0134850
755.614	0.0133237
755.693	0.0132642
755.771	0.0130863
755.849	0.0131314
755.927	0.0130338
756.005	0.0130029
756.083	0.0129919
756.161	0.0128656
756.239	0.0128159
756.318	0.0129344
756.396	0.0128124
756.474	0.0128455
756.552	0.0128499
756.630	0.0128657
756.708	0.0128075
756.786	0.0128278
756.864	0.0128822
756.943	0.0128822
757.021	0.0129555
757.099	0.0130795
757.177	0.0130246
757.255	0.0131309
757.333	0.0133481
757.411	0.0132226
757.489	0.0131962
757.568	0.0133405
757.646	0.0134593
757.724	0.0133838
757.802	0.0135450
757.880	0.0135780
757.958	0.0136253
758.036	0.0135209
758.114	0.0136315
758.193	0.0136067
758.271	0.0134949
758.349	0.0136494
758.427	0.0137005
758.505	0.0136457
758.583	0.0137402
758.661	0.0135781
758.739	0.0136156
758.818	0.0134518
758.896	0.0135366
758.974	0.0135528
759.052	0.0134003
759.130	0.0134400
759.208	0.0134219
759.286	0.0131900
759.364	0.0133144
759.443	0.0132600
759.521	0.0131855
759.599	0.0130848
759.677	0.0131087
759.755	0.0131129
759.833	0.0129523
759.911	0.0129441
759.989	0.0128551
760.068	0.0129064
760.146	0.0128983
760.224	0.0127811
760.302	0.0127473
760.380	0.0128733
760.458	0.0127911
760.536	0.0129100
760.614	0.0127156
760.693	0.0129662
760.771	0.0126604
760.849	0.0128161
760.927	0.0128599
761.005	0.0129373
761.083	0.0130310
761.161	0.0131515
761.239	0.0130693
761.318	0.0130013
761.396	0.0133266
761.474	0.0132121
761.552	0.0132048
761.630	0.0134531
761.708	0.0134637
761.786	0.0135854
761.864	0.0134199
761.943	0.0133710
762.021	0.0135885
762.099	0.0136127
762.177	0.0136057
762.255	0.0135648
762.333	0.0136443
762.411	0.0135896
762.489	0.0135827
762.568	0.0137054
762.646	0.0136627
762.724	0.0136756
762.802	0.0136309
762.880	0.0136959
762.958	0.0135064
763.036	0.0135762
763.114	0.0136769
763.193	0.0135564
763.271	0.0134912
763.349	0.0135820
763.427	0.0135346
763.505	0.0133225
763.583	0.0132777
763.661	0.0133939
763.739	0.0134928
763.818	0.0134492
763.896	0.0133980
763.974	0.0132292
764.052	0.0131720
764.130	0.0132052
764.208	0.0133167
764.286	0.0132776
764.364	0.0131749
764.443	0.0130344
764.521	0.0130797
764.599	0.0131268
764.677	0.0130033
764.755	0.0129572
764.833	0.0129645
764.911	0.0130560
764.989	0.0128741
765.068	0.0127380
765.146	0.0127940
765.224	0.0126299
765.302	0.0127316
765.380	0.0127436
765.458	0.0126801
765.536	0.0126663
765.614	0.0126937
765.693	0.0128195
765.771	0.0126724
765.849	0.0128072
765.927	0.0127795
766.005	0.0126938
766.083	0.0129905
766.161	0.0129057
766.239	0.0128710
766.318	0.0129832
766.396	0.0130188
766.474	0.0130956
766.552	0.0132658
766.630	0.0132878
766.708	0.0131686
766.786	0.0133098
766.864	0.0132382
766.943	0.0134115
767.021	0.0134480
767.099	0.0135092
767.177	0.0134605
767.255	0.0134310
767.333	0.0134771
767.411	0.0136118
767.489	0.0135484
767.568	0.0135197
767.646	0.0135754
767.724	0.0135797
767.802	0.0136554
767.880	0.0136683
767.958	0.0135533
768.036	0.0136153
768.114	0.0135375
768.193	0.0137061
768.271	0.0135939
768.349	0.0134447
768.427	0.0135580
768.505	0.0134705
768.583	0.0133498
768.661	0.0133841
768.739	0.0134206
768.818	0.0134607
768.896	0.0133839
768.974	0.0132288
769.052	0.0133396
769.130	0.0132513
769.208	0.0131999
769.286	0.0131105
769.364	0.0131979
769.443	0.0129017
769.521	0.0130062
769.599	0.0130122
769.677	0.0130821
769.755	0.0130228
769.833	0.0128815
769.911	0.0127967
769.989	0.0128764
770.068	0.0128630
770.146	0.0129381
770.224	0.0129022
770.302	0.0129749
770.380	0.0129826
770.458	0.0127541
770.536	0.0129083
770.614	0.0129314
770.693	0.0128983
770.771	0.0129498
770.849	0.0129020
770.927	0.0130379
771.005	0.0128766
771.083	0.0130115
771.161	0.0129488
771.239	0.0129610
771.318	0.0130822
771.396	0.0130267
771.474	0.0130312
771.552	0.0131141
771.630	0.0131836
771.708	0.0130419
771.786	0.0129109
771.864	0.0130379
771.943	0.0131324
772.021	0.0131416
772.099	0.0131413
772.177	0.0130538
772.255	0.0129930
772.333	0.0129840
772.411	0.0129366
772.489	0.0129961
772.568	0.0129886
772.646	0.0130021
772.724	0.0128848
772.802	0.0130007
772.880	0.0131443
772.958	0.0130510
773.036	0.0129790
773.114	0.0130590
773.193	0.0131863
773.271	0.0131525
773.349	0.0132275
773.427	0.0131772
773.505	0.0133071
773.583	0.0132734
773.661	0.0132814
773.739	0.0133419
773.818	0.0133675
773.896	0.0135271
773.974	0.0133614
774.052	0.0134967
774.130	0.0136275
774.208	0.0135484
774.286	0.0135884
774.364	0.0136396
774.443	0.0135315
774.521	0.0136169
774.599	0.0135213
774.677	0.0137608
774.755	0.0137139
774.833	0.0135505
774.911	0.0137059
774.989	0.0135641
775.068	0.0135543
775.146	0.0135617
775.224	0.0134742
775.302	0.0136412
775.380	0.0134892
775.458	0.0134259
775.536	0.0133039
775.614	0.0133434
775.693	0.0132151
775.771	0.0133087
775.849	0.0132252
775.927	0.0130795
776.005	0.0130257
776.083	0.0131512
776.161	0.0131859
776.239	0.0130949
776.318	0.0131630
776.396	0.0129729
776.474	0.0129115
776.552	0.0128710
776.630	0.0129900
776.708	0.0129433
776.786	0.0128590
776.864	0.0128807
776.943	0.0129737
777.021	0.0130634
777.099	0.0129745
777.177	0.0128895
777.255	0.0131289
777.333	0.0130103
777.411	0.0131997
777.489	0.0131187
777.568	0.0131732
777.646	0.0132131
777.724	0.0133057
777.802	0.0133611
777.880	0.0133646
777.958	0.0134684
778.036	0.0133488
778.114	0.0134645
778.193	0.0135683
778.271	0.0135017
778.349	0.0135557
778.427	0.0134667
778.505	0.0136201
778.583	0.0136153
778.661	0.0135455
778.739	0.0136572
778.818	0.0136498
778.896	0.0134219
778.974	0.0136091
779.052	0.0134921
779.130	0.0136626
779.208	0.0135976
779.286	0.0135412
779.364	0.0136064
779.443	0.0136330
779.521	0.0135627
779.599	0.0134716
779.677	0.0134951
779.755	0.0136195
779.833	0.0135252
779.911	0.0135283
779.989	0.0133229
780.068	0.0135133
780.146	0.0133549
780.224	0.0132097
780.302	0.0132662
780.380	0.0134026
780.458	0.0131438
780.536	0.0132818
780.614	0.0132805
780.693	0.0132095
780.771	0.0133078
780.849	0.0131183
780.927	0.0132669
781.005	0.0131623
781.083	0.0131474
781.161	0.0133368
781.239	0.0133582
781.318	0.0131931
781.396	0.0131596
781.474	0.0132067
781.552	0.0133784
781.630	0.0131930
781.708	0.0132566
781.786	0.0132076
781.864	0.0130225
781.943	0.0129787
782.021	0.0132148
782.099	0.0130759
782.177	0.0130477
782.255	0.0131432
782.333	0.0131853
782.411	0.0130663
782.489	0.0129820
782.568	0.0128309
782.646	0.0131158
782.724	0.0130289
782.802	0.0131058
782.880	0.0130667
782.958	0.0131150
783.036	0.0133270
783.114	0.0133592
783.193	0.0132566
783.271	0.0133386
783.349	0.0134615
783.427	0.0133509
783.505	0.0133447
783.583	0.0133849
783.661	0.0133298
783.739	0.0135262
783.818	0.0135375
783.896	0.0134287
783.974	0.0134851
784.052	0.0136176
784.130	0.0134557
784.208	0.0134066
784.286	0.0135633
784.364	0.0134129
784.443	0.0133748
784.521	0.0133385
784.599	0.0133531
784.677	0.0133933
784.755	0.0133008
784.833	0.0132855
784.911	0.0132704
784.989	0.0132072
785.068	0.0131979
785.146	0.0131248
785.224	0.0131978
785.302	0.0132150
785.380	0.0131384
785.458	0.0130938
785.536	0.0130962
785.614	0.0130544
785.693	0.0131284
785.771	0.0131087
785.849	0.0130318
785.927	0.0129849
786.005	0.0131269
786.083	0.0130073
786.161	0.0128806
786.239	0.0129301
786.318	0.0131436
786.396	0.0129298
786.474	0.0128377
786.552	0.0128516
786.630	0.0128759
786.708	0.0127555
786.786	0.0128645
786.864	0.0129746
786.943	0.0129809
787.021	0.0129890
787.099	0.0129458
787.177	0.0131448
787.255	0.0131329
787.333	0.0132047
787.411	0.0130759
787.489	0.0131902
787.568	0.0133312
787.646	0.0132740
787.724	0.0132590
787.802	0.0133075
787.880	0.0132949
787.958	0.0132373
788.036	0.0132116
788.114	0.0132369
788.193	0.0131747
788.271	0.0132100
788.349	0.0132625
788.427	0.0132439
788.505	0.0128919
788.583	0.0130224
788.661	0.0131153
788.739	0.0130111
788.818	0.0129583
788.896	0.0131249
788.974	0.0129989
789.052	0.0130440
789.130	0.0131273
789.208	0.0131063
789.286	0.0131142
789.364	0.0132245
789.443	0.0132198
789.521	0.0131725
789.599	0.0131456
789.677	0.0132967
789.755	0.0131836
789.833	0.0133165
789.911	0.0131781
789.989	0.0133567
790.068	0.0134268
790.146	0.0133424
790.224	0.0132266
790.302	0.0133678
790.380	0.0134067
790.458	0.0133292
790.536	0.0133354
790.614	0.0134081
790.693	0.0133662
790.771	0.0134013
790.849	0.0132964
790.927	0.0133062
791.005	0.0134920
791.083	0.0134169
791.161	0.0133878
791.239	0.0133923
791.318	0.0134497
791.396	0.0132438
791.474	0.0133188
791.552	0.0134192
791.630	0.0132854
791.708	0.0132160
791.786	0.0131766
791.864	0.0132829
791.943	0.0131454
792.021	0.0131149
792.099	0.0130421
792.177	0.0129792
792.255	0.0131332
792.333	0.0129999
792.411	0.0128796
792.489	0.0129340
792.568	0.0130051
792.646	0.0129155
792.724	0.0128856
792.802	0.0128635
792.880	0.0129594
792.958	0.0128281
793.036	0.0129205
793.114	0.0130131
793.193	0.0129728
793.271	0.0130209
793.349	0.0129389
793.427	0.0131593
793.505	0.0130101
793.583	0.0130495
793.661	0.0131715
793.739	0.0130869
793.818	0.0130665
793.896	0.0130151
793.974	0.0129720
794.052	0.0130599
794.130	0.0130200
794.208	0.0131023
794.286	0.0130873
794.364	0.0130396
794.443	0.0131531
794.521	0.0132621
794.599	0.0132642
794.677	0.0133164
794.755	0.0133012
794.833	0.0134516
794.911	0.0134109
794.989	0.0134485
795.068	0.0135238
795.146	0.0134408
795.224	0.0134405
795.302	0.0134708
795.380	0.0136230
795.458	0.0135544
795.536	0.0136381
795.614	0.0136088
795.693	0.0134247
795.771	0.0136567
795.849	0.0134802
795.927	0.0135346
796.005	0.0135113
796.083	0.0136198
796.161	0.0134699
796.239	0.0135402
796.318	0.0135261
796.396	0.0134259
796.474	0.0134429
796.552	0.0133193
796.630	0.0133808
796.708	0.0132858
796.786	0.0132002
796.864	0.0130663
796.943	0.0130876
797.021	0.0130756
797.099	0.0129511
797.177	0.0129337
797.255	0.0130820
797.333	0.0129591
797.411	0.0128517
797.489	0.0127906
797.568	0.0127692
797.646	0.0128755
797.724	0.0128534
797.802	0.0129129
797.880	0.0129630
797.958	0.0128276
798.036	0.0128197
798.114	0.0129330
798.193	0.0128382
798.271	0.0129634
798.349	0.0127640
798.427	0.0128745
798.505	0.0128953
798.583	0.0130199
798.661	0.0130071
798.739	0.0128742
798.818	0.0130209
798.896	0.0129323
798.974	0.0130427
799.052	0.0130595
799.130	0.0131122
799.208	0.0131261
799.286	0.0132484
799.364	0.0132413
799.443	0.0132837
799.521	0.0133402
799.599	0.0133782
799.677	0.0133763
799.755	0.0132993
799.833	0.0134415
799.911	0.0133866
799.989	0.0134494
800.068	0.0133872
800.146	0.0134499
800.224	0.0132726
800.302	0.0131889
800.380	0.0133178
800.458	0.0132504
800.536	0.0132129
800.614	0.0132051
800.693	0.0131805
800.771	0.0131180
800.849	0.0130583
800.927	0.0131376
801.005	0.0132325
801.083	0.0132410
801.161	0.0132381
801.239	0.0133124
801.318	0.0131929
801.396	0.0133038
801.474	0.0134908
801.552	0.0134683
801.630	0.0134669
801.708	0.0134419
801.786	0.0133574
801.864	0.0134583
801.943	0.0134576
802.021	0.0133890
802.099	0.0134838
802.177	0.0134917
802.255	0.0136530
802.333	0.0136845
802.411	0.0134942
802.489	0.0136338
802.568	0.0136799
802.646	0.0136106
802.724	0.0136823
802.802	0.0136295
802.880	0.0135615
802.958	0.0135458
803.036	0.0135263
803.114	0.0133372
803.193	0.0134664
803.271	0.0133032
803.349	0.0133266
803.427	0.0134758
803.505	0.0133318
803.583	0.0132454
803.661	0.0131863
803.739	0.0131523
803.818	0.0132953
803.896	0.0132939
803.974	0.0132826
804.052	0.0131736
804.130	0.0131838
804.208	0.0133949
804.286	0.0133544
804.364	0.0134969
804.443	0.0133673
804.521	0.0133948
804.599	0.0133246
804.677	0.0134885
804.755	0.0132653
804.833	0.0134003
804.911	0.0132806
804.989	0.0131367
805.068	0.0130994
805.146	0.0131908
805.224	0.0130661
805.302	0.0130327
805.380	0.0129892
805.458	0.0129649
805.536	0.0127365
805.614	0.0127276
805.693	0.0127338
805.771	0.0127420
805.849	0.0128385
805.927	0.0127150
806.005	0.0128078
806.083	0.0127872
806.161	0.0127705
806.239	0.0127166
806.318	0.0127551
806.396	0.0127364
806.474	0.0127937
806.552	0.0129628
806.630	0.0128729
806.708	0.0129083
806.786	0.0130134
806.864	0.0129783
806.943	0.0130328
807.021	0.0132313
807.099	0.0131254
807.177	0.0131635
807.255	0.0132633
807.333	0.0133596
807.411	0.0133492
807.489	0.0134816
807.568	0.0133318
807.646	0.0132738
807.724	0.0133259
807.802	0.0132881
807.880	0.0133048
807.958	0.0131893
808.036	0.0132217
808.114	0.0132690
808.193	0.0132542
808.271	0.0132272
808.349	0.0133257
808.427	0.0132193
808.505	0.0132308
808.583	0.0133007
808.661	0.0131505
808.739	0.0133343
808.818	0.0132762
808.896	0.0133160
808.974	0.0131464
809.052	0.0132302
809.130	0.0133075
809.208	0.0133662
809.286	0.0133543
809.364	0.0133584
809.443	0.0132389
809.521	0.0133802
809.599	0.0133086
809.677	0.0132112
809.755	0.0134978
809.833	0.0132948
809.911	0.0133149
809.989	0.0134863
810.068	0.0133779
810.146	0.0132063
810.224	0.0133070
810.302	0.0133505
810.380	0.0132491
810.458	0.0131815
810.536	0.0132872
810.614	0.0131503
810.693	0.0130961
810.771	0.0130784
810.849	0.0129067
810.927	0.0131086
811.005	0.0131459
811.083	0.0130280
811.161	0.0128649
811.239	0.0129266
811.318	0.0129880
811.396	0.0129148
811.474	0.0128516
811.552	0.0128979
811.630	0.0129339
811.708	0.0130269
811.786	0.0129819
811.864	0.0128394
811.943	0.0129602
812.021	0.0128820
812.099	0.0129198
812.177	0.0129946
812.255	0.0131491
812.333	0.0131416
812.411	0.0131212
812.489	0.0131698
812.568	0.0132054
812.646	0.0132205
812.724	0.0132423
812.802	0.0132280
812.880	0.0132810
812.958	0.0132231
813.036	0.0132262
813.114	0.0131802
813.193	0.0132021
813.271	0.0132064
813.349	0.0129668
813.427	0.0130751
813.505	0.0131654
813.583	0.0131962
813.661	0.0131165
813.739	0.0130592
813.818	0.0132534
813.896	0.0132294
813.974	0.0132195
814.052	0.0131925
814.130	0.0132357
814.208	0.0131447
814.286	0.0131705
814.364	0.0132684
814.443	0.0131590
814.521	0.0131470
814.599	0.0130879
814.677	0.0131207
814.755	0.0132040
814.833	0.0133638
814.911	0.0132320
814.989	0.0131906
815.068	0.0134029
815.146	0.0134358
815.224	0.0134877
815.302	0.0134971
815.380	0.0135789
815.458	0.0134943
815.536	0.0133179
815.614	0.0133083
815.693	0.0134869
815.771	0.0133589
815.849	0.0132619
815.927	0.0132552
816.005	0.0131067
816.083	0.0132858
816.161	0.0132100
816.239	0.0131058
816.318	0.0131684
816.396	0.0131900
816.474	0.0129602
816.552	0.0130775
816.630	0.0129459
816.708	0.0130369
816.786	0.0129741
816.864	0.0129089
816.943	0.0130103
817.021	0.0129977
817.099	0.0130003
817.177	0.0131655
817.255	0.0131465
817.333	0.0131752
817.411	0.0132534
817.489	0.0133212
817.568	0.0132108
817.646	0.0132022
817.724	0.0131494
817.802	0.0132405
817.880	0.0133257
817.958	0.0131295
818.036	0.0131311
818.114	0.0130266
818.193	0.0130049
818.271	0.0130243
818.349	0.0130370
818.427	0.0130292
818.505	0.0130373
818.583	0.0131798
818.661	0.0131263
818.739	0.0131999
818.818	0.0131003
818.896	0.0131573
818.974	0.0133117
819.052	0.0132293
819.130	0.0132683
819.208	0.0133125
819.286	0.0131098
819.364	0.0132043
819.443	0.0134009
819.521	0.0132757
819.599	0.0132396
819.677	0.0131725
819.755	0.0132408
819.833	0.0133953
819.911	0.0133015
819.989	0.0132357
820.068	0.0131446
820.146	0.0133232
820.224	0.0133771
820.302	0.0133100
820.380	0.0132384
820.458	0.0133057
820.536	0.0131760
820.614	0.0133484
820.693	0.0134641
820.771	0.0135320
820.849	0.0133071
820.927	0.0134214
821.005	0.0133766
821.083	0.0134228
821.161	0.0132800
821.239	0.0132849
821.318	0.0134333
821.396	0.0134286
821.474	0.0132590
821.552	0.0132445
821.630	0.0132683
821.708	0.0132521
821.786	0.0130730
821.864	0.0132584
821.943	0.0131830
822.021	0.0131506
822.099	0.0132127
822.177	0.0132661
822.255	0.0132014
822.333	0.0132700
822.411	0.0133259
822.489	0.0130453
822.568	0.0132822
822.646	0.0133323
822.724	0.0132851
822.802	0.0132951
822.880	0.0132762
822.958	0.0132203
823.036	0.0132950
823.114	0.0133831
823.193	0.0132600
823.271	0.0133357
823.349	0.0133253
823.427	0.0131445
823.505	0.0132516
823.583	0.0131184
823.661	0.0131089
823.739	0.0133229
823.818	0.0131680
823.896	0.0132366
823.974	0.0131651
824.052	0.0132101
824.130	0.0133484
824.208	0.0132861
824.286	0.0133472
824.364	0.0134246
824.443	0.0134705
824.521	0.0134061
824.599	0.0135863
824.677	0.0134880
824.755	0.0133514
824.833	0.0134361
824.911	0.0135052
824.989	0.0133295
825.068	0.0132745
825.146	0.0132563
825.224	0.0130708
825.302	0.0132386
825.380	0.0131470
825.458	0.0132381
825.536	0.0131992
825.614	0.0132635
825.693	0.0133575
825.771	0.0133578
825.849	0.0132651
825.927	0.0134507
826.005	0.0133126
826.083	0.0132854
826.161	0.0134830
826.239	0.0134409
826.318	0.0133217
826.396	0.0134609
826.474	0.0134570
826.552	0.0134184
826.630	0.0133154
826.708	0.0132914
826.786	0.0132909
826.864	0.0133501
826.943	0.0132299
827.021	0.0132872
827.099	0.0132417
827.177	0.0132730
827.255	0.0132258
827.333	0.0133623
827.411	0.0132648
827.489	0.0133546
827.568	0.0132563
827.646	0.0131978
827.724	0.0132124
827.802	0.0134219
827.880	0.0133611
827.958	0.0132490
828.036	0.0133206
828.114	0.0132372
828.193	0.0132825
828.271	0.0133297
828.349	0.0133550
828.427	0.0134255
828.505	0.0132076
828.583	0.0132185
828.661	0.0133719
828.739	0.0133408
828.818	0.0133027
828.896	0.0133009
828.974	0.0132125
829.052	0.0133314
829.130	0.0133022
829.208	0.0132566
829.286	0.0131611
829.364	0.0131592
829.443	0.0132875
829.521	0.0132258
829.599	0.0132936
829.677	0.0131055
829.755	0.0131018
829.833	0.0131004
829.911	0.0128764
829.989	0.0129581
830.068	0.0129830
830.146	0.0129355
830.224	0.0128648
830.302	0.0130100
830.380	0.0130180
830.458	0.0128941
830.536	0.0129022
830.614	0.0129552
830.693	0.0129929
830.771	0.0129836
830.849	0.0130315
830.927	0.0129887
831.005	0.0129721
831.083	0.0131293
831.161	0.0132329
831.239	0.0131175
831.318	0.0132130
831.396	0.0133089
831.474	0.0133050
831.552	0.0133622
831.630	0.0133693
831.708	0.0134055
831.786	0.0133508
831.864	0.0134267
831.943	0.0134910
832.021	0.0134492
832.099	0.0134891
832.177	0.0134128
832.255	0.0135926
832.333	0.0133161
832.411	0.0133348
832.489	0.0135291
832.568	0.0133772
832.646	0.0134426
832.724	0.0132394
832.802	0.0133335
832.880	0.0131269
832.958	0.0132291
833.036	0.0132522
833.114	0.0132316
833.193	0.0131369
833.271	0.0131975
833.349	0.0131639
833.427	0.0132755
833.505	0.0131563
833.583	0.0131613
833.661	0.0130589
833.739	0.0132568
833.818	0.0131679
833.896	0.0131668
833.974	0.0130574
834.052	0.0132620
834.130	0.0132066
834.208	0.0131562
834.286	0.0133385
834.364	0.0132516
834.443	0.0131749
834.521	0.0132672
834.599	0.0131594
834.677	0.0131620
834.755	0.0132593
834.833	0.0131797
834.911	0.0129441
834.989	0.0131375
835.068	0.0130930
835.146	0.0130830
835.224	0.0131291
835.302	0.0130869
835.380	0.0132646
835.458	0.0130629
835.536	0.0129676
835.614	0.0130907
835.693	0.0130621
835.771	0.0131786
835.849	0.0131844
835.927	0.0131387
836.005	0.0131266
836.083	0.0132234
836.161	0.0133275
836.239	0.0131625
836.318	0.0132552
836.396	0.0132968
836.474	0.0132575
836.552	0.0132166
836.630	0.0132099
836.708	0.0132391
836.786	0.0134177
836.864	0.0133505
836.943	0.0133411
837.021	0.0132743
837.099	0.0133837
837.177	0.0133967
837.255	0.0133046
837.333	0.0133463
837.411	0.0133418
837.489	0.0133463
837.568	0.0132456
837.646	0.0132389
837.724	0.0132628
837.802	0.0132187
837.880	0.0132110
837.958	0.0130774
838.036	0.0131357
838.114	0.0130835
838.193	0.0129794
838.271	0.0132050
838.349	0.0131125
838.427	0.0131137
838.505	0.0131747
838.583	0.0130336
838.661	0.0129959
838.739	0.0132793
838.818	0.0131594
838.896	0.0132462
838.974	0.0131945
839.052	0.0132424
839.130	0.0134914
839.208	0.0132991
839.286	0.0131334
839.364	0.0133276
839.443	0.0133267
839.521	0.0133677
839.599	0.0133305
839.677	0.0132413
839.755	0.0133629
839.833	0.0132964
839.911	0.0133374
839.989	0.0131181
840.068	0.0132394
840.146	0.0134104
840.224	0.0133284
840.302	0.0133001
840.380	0.0131692
840.458	0.0132282
840.536	0.0131360
840.614	0.0132269
840.693	0.0131901
840.771	0.0131460
840.849	0.0131528
840.927	0.0130890
841.005	0.0130312
841.083	0.0131197
841.161	0.0131275
841.239	0.0130968
841.318	0.0132001
841.396	0.0131177
841.474	0.0130901
841.552	0.0131400
841.630	0.0132328
841.708	0.0132183
841.786	0.0131759
841.864	0.0131276
841.943	0.0131569
842.021	0.0132035
842.099	0.0132453
842.177	0.0132728
842.255	0.0133490
842.333	0.0133377
842.411	0.0133524
842.489	0.0132825
842.568	0.0131524
842.646	0.0132308
842.724	0.0132420
842.802	0.0130207
842.880	0.0132378
842.958	0.0132118
843.036	0.0131889
843.114	0.0132352
843.193	0.0133049
843.271	0.0132124
843.349	0.0130733
843.427	0.0133483
843.505	0.0132608
843.583	0.0133553
843.661	0.0132360
843.739	0.0131942
843.818	0.0132895
843.896	0.0133488
843.974	0.0134027
844.052	0.0133595
844.130	0.0134774
844.208	0.0134294
844.286	0.0133971
844.364	0.0133905
844.443	0.0135245
844.521	0.0134909
844.599	0.0134647
844.677	0.0134604
844.755	0.0135388
844.833	0.0134875
844.911	0.0135959
844.989	0.0136194
845.068	0.0134906
845.146	0.0135724
845.224	0.0135385
845.302	0.0134111
845.380	0.0134820
845.458	0.0134819
845.536	0.0133767
845.614	0.0132915
845.693	0.0133188
845.771	0.0134531
845.849	0.0132552
845.927	0.0130134
846.005	0.0131382
846.083	0.0132098
846.161	0.0131614
846.239	0.0131133
846.318	0.0131248
846.396	0.0130215
846.474	0.0131393
846.552	0.0132706
846.630	0.0131640
846.708	0.0131255
846.786	0.0130788
846.864	0.0131207
846.943	0.0130886
847.021	0.0131689
847.099	0.0131645
847.177	0.0132167
847.255	0.0130446
847.333	0.0130788
847.411	0.0130557
847.489	0.0130842
847.568	0.0132446
847.646	0.0131927
847.724	0.0132022
847.802	0.0130650
847.880	0.0130750
847.958	0.0131448
848.036	0.0132010
848.114	0.0132472
848.193	0.0132320
848.271	0.0131902
848.349	0.0131367
848.427	0.0133647
848.505	0.0133688
848.583	0.0134480
848.661	0.0132253
848.739	0.0133013
848.818	0.0132436
848.896	0.0135063
848.974	0.0132885
849.052	0.0131805
849.130	0.0133318
849.208	0.0133144
849.286	0.0133015
849.364	0.0133083
849.443	0.0132208
849.521	0.0132320
849.599	0.0132689
849.677	0.0132311
849.755	0.0133182
849.833	0.0132832
849.911	0.0133298
849.989	0.0133591
850.068	0.0132742
850.146	0.0132424
850.224	0.0133649
850.302	0.0133022
850.380	0.0131662
850.458	0.0132292
850.536	0.0133120
850.614	0.0132186
850.693	0.0131862
850.771	0.0131457
850.849	0.0132547
850.927	0.0131944
851.005	0.0131652
851.083	0.0131622
851.161	0.0132072
851.239	0.0131470
851.318	0.0132928
851.396	0.0132465
851.474	0.0131724
851.552	0.0132386
851.630	0.0132030
851.708	0.0131963
851.786	0.0132655
851.864	0.0132816
851.943	0.0130604
852.021	0.0132841
852.099	0.0131305
852.177	0.0132456
852.255	0.0133318
852.333	0.0132975
852.411	0.0131973
852.489	0.0132651
852.568	0.0134663
852.646	0.0132292
852.724	0.0133247
852.802	0.0132528
852.880	0.0133347
852.958	0.0133103
853.036	0.0134514
853.114	0.0132663
853.193	0.0133997
853.271	0.0133421
853.349	0.0132419
853.427	0.0134339
853.505	0.0134252
853.583	0.0133495
853.661	0.0133018
853.739	0.0133921
853.818	0.0136543
853.896	0.0134761
853.974	0.0133618
854.052	0.0134613
854.130	0.0133478
854.208	0.0133177
854.286	0.0132733
854.364	0.0133589
854.443	0.0133311
854.521	0.0133413
854.599	0.0133006
854.677	0.0132706
854.755	0.0132158
854.833	0.0131435
854.911	0.0131842
854.989	0.0131334
855.068	0.0131581
855.146	0.0130917
855.224	0.0129302
855.302	0.0130112
855.380	0.0129887
855.458	0.0130647
855.536	0.0131216
855.614	0.0131400
855.693	0.0130701
855.771	0.0131808
855.849	0.0131553
855.927	0.0131144
856.005	0.0132274
856.083	0.0132375
856.161	0.0131921
856.239	0.0132597
856.318	0.0133031
856.396	0.0134117
856.474	0.0133081
856.552	0.0133545
856.630	0.0132993
856.708	0.0133974
856.786	0.0135056
856.864	0.0134509
856.943	0.0133588
857.021	0.0135680
857.099	0.0135110
857.177	0.0134281
857.255	0.0133821
857.333	0.0135615
857.411	0.0134551
857.489	0.0134090
857.568	0.0135802
857.646	0.0135449
857.724	0.0135069
857.802	0.0132774
857.880	0.0133258
857.958	0.0135154
858.036	0.0133192
858.114	0.0134482
858.193	0.0133751
858.271	0.0132833
858.349	0.0132668
858.427	0.0132515
858.505	0.0132036
858.583	0.0131600
858.661	0.0132952
858.739	0.0133214
858.818	0.0131129
858.896	0.0131107
858.974	0.0132669
859.052	0.0132369
859.130	0.0132510
859.208	0.0132508
859.286	0.0131879
859.364	0.0130566
859.443	0.0132140
859.521	0.0132158
859.599	0.0130696
859.677	0.0131053
859.755	0.0130261
859.833	0.0131651
859.911	0.0130150
859.989	0.0130000
860.068	0.0129214
860.146	0.0129809
860.224	0.0130199
860.302	0.0130220
860.380	0.0129500
860.458	0.0130717
860.536	0.0130521
860.614	0.0129646
860.693	0.0132169
860.771	0.0130142
860.849	0.0128621
860.927	0.0131249
861.005	0.0133694
861.083	0.0132616
861.161	0.0131596
861.239	0.0133974
861.318	0.0134988
861.396	0.0134098
861.474	0.0133693
861.552	0.0134334
861.630	0.0134158
861.708	0.0134879
861.786	0.0133981
861.864	0.0133585
861.943	0.0135339
862.021	0.0135314
862.099	0.0135986
862.177	0.0135508
862.255	0.0134208
862.333	0.0132606
862.411	0.0132482
862.489	0.0134346
862.568	0.0133302
862.646	0.0133995
862.724	0.0133350
862.802	0.0131114
862.880	0.0131279
862.958	0.0131619
863.036	0.0132846
863.114	0.0133130
863.193	0.0131178
863.271	0.0132748
863.349	0.0130665
863.427	0.0130935
863.505	0.0132256
863.583	0.0131902
863.661	0.0132837
863.739	0.0133435
863.818	0.0131680
863.896	0.0131955
863.974	0.0131181
864.052	0.0131630
864.130	0.0133069
864.208	0.0133018
864.286	0.0133047
864.364	0.0132526
864.443	0.0133965
864.521	0.0134351
864.599	0.0133176
864.677	0.0132645
864.755	0.0133318
864.833	0.0134581
864.911	0.0132819
864.989	0.0132150
865.068	0.0132645
865.146	0.0132491
865.224	0.0134303
865.302	0.0133416
865.380	0.0132527
865.458	0.0133096
865.536	0.0133343
865.614	0.0132677
865.693	0.0132629
865.771	0.0132258
865.849	0.0133389
865.927	0.0132416
866.005	0.0133121
866.083	0.0132759
866.161	0.0134493
866.239	0.0132687
866.318	0.0132848
866.396	0.0132221
866.474	0.0132788
866.552	0.0133150
866.630	0.0132992
866.708	0.0134005
866.786	0.0132975
866.864	0.0133574
866.943	0.0132715
867.021	0.0133133
867.099	0.0132720
867.177	0.0131544
867.255	0.0132239
867.333	0.0132469
867.411	0.0131254
867.489	0.0132076
867.568	0.0131544
867.646	0.0131763
867.724	0.0129547
867.802	0.0129897
867.880	0.0131785
867.958	0.0130634
868.036	0.0129956
868.114	0.0131570
868.193	0.0130429
868.271	0.0129993
868.349	0.0130674
868.427	0.0131860
868.505	0.0132122
868.583	0.0131909
868.661	0.0132317
868.739	0.0132863
868.818	0.0132762
868.896	0.0133337
868.974	0.0133561
869.052	0.0132965
869.130	0.0134033
869.208	0.0132240
869.286	0.0133279
869.364	0.0134698
869.443	0.0134633
869.521	0.0133759
869.599	0.0132859
869.677	0.0134737
869.755	0.0134959
869.833	0.0134799
869.911	0.0133429
869.989	0.0133199
870.068	0.0134589
870.146	0.0134127
870.224	0.0133472
870.302	0.0132870
870.380	0.0133303
870.458	0.0132500
870.536	0.0132969
870.614	0.0132226
870.693	0.0130930
870.771	0.0131937
870.849	0.0131701
870.927	0.0130340
871.005	0.0131043
871.083	0.0130422
871.161	0.0131852
871.239	0.0131844
871.318	0.0130779
871.396	0.0131407
871.474	0.0131092
871.552	0.0131887
871.630	0.0132500
871.708	0.0132224
871.786	0.0132437
871.864	0.0132911
871.943	0.0132738
872.021	0.0133678
872.099	0.0133514
872.177	0.0134580
872.255	0.0133122
872.333	0.0133256
872.411	0.0132918
872.489	0.0133817
872.568	0.0132549
872.646	0.0133426
872.724	0.0131602
872.802	0.0132009
872.880	0.0132484
872.958	0.0131470
873.036	0.0132212
873.114	0.0131954
873.193	0.0132214
873.271	0.0130479
873.349	0.0131730
873.427	0.0131545
873.505	0.0130062
873.583	0.0130936
873.661	0.0131384
873.739	0.0131085
873.818	0.0130293
873.896	0.0132071
873.974	0.0131882
874.052	0.0130288
874.130	0.0130780
874.208	0.0130708
874.286	0.0130791
874.364	0.0130946
874.443	0.0130570
874.521	0.0132091
874.599	0.0132161
874.677	0.0130557
874.755	0.0130573
874.833	0.0130922
874.911	0.0131347
874.989	0.0130869
875.068	0.0132280
875.146	0.0131522
875.224	0.0131020
875.302	0.0130657
875.380	0.0131664
875.458	0.0131328
875.536	0.0132521
875.614	0.0131998
875.693	0.0130894
875.771	0.0131313
875.849	0.0130916
875.927	0.0133069
876.005	0.0132941
876.083	0.0132277
876.161	0.0133059
876.239	0.0134554
876.318	0.0133047
876.396	0.0133096
876.474	0.0133794
876.552	0.0132632
876.630	0.0133363
876.708	0.0132487
876.786	0.0133961
876.864	0.0134283
876.943	0.0131770
877.021	0.0132375
877.099	0.0132933
877.177	0.0133120
877.255	0.0132655
877.333	0.0132946
877.411	0.0133071
877.489	0.0133455
877.568	0.0132125
877.646	0.0132887
877.724	0.0132677
877.802	0.0132043
877.880	0.0133149
877.958	0.0133127
878.036	0.0133077
878.114	0.0132366
878.193	0.0134216
878.271	0.0133096
878.349	0.0130435
878.427	0.0132917
878.505	0.0134722
878.583	0.0133165
878.661	0.0132690
878.739	0.0132469
878.818	0.0132397
878.896	0.0132861
878.974	0.0132108
879.052	0.0132856
879.130	0.0131755
879.208	0.0131879
879.286	0.0131925
879.364	0.0132168
879.443	0.0132190
879.521	0.0131978
879.599	0.0131221
879.677	0.0131889
879.755	0.0132127
879.833	0.0131503
879.911	0.0131158
879.989	0.0131571
880.068	0.0132289
880.146	0.0131060
880.224	0.0132574
880.302	0.0132294
880.380	0.0132914
880.458	0.0131944
880.536	0.0131704
880.614	0.0131816
880.693	0.0131780
880.771	0.0131419
880.849	0.0132044
880.927	0.0132821
881.005	0.0133035
881.083	0.0132166
881.161	0.0133199
881.239	0.0133379
881.318	0.0132796
881.396	0.0132950
881.474	0.0132128
881.552	0.0131847
881.630	0.0131922
881.708	0.0133028
881.786	0.0131926
881.864	0.0132542
881.943	0.0132189
882.021	0.0131548
882.099	0.0132632
882.177	0.0131536
882.255	0.0131918
882.333	0.0132133
882.411	0.0131560
882.489	0.0130448
882.568	0.0130537
882.646	0.0131707
882.724	0.0130677
882.802	0.0130984
882.880	0.0130629
882.958	0.0131137
883.036	0.0130901
883.114	0.0129618
883.193	0.0129156
883.271	0.0130974
883.349	0.0131057
883.427	0.0131256
883.505	0.0131657
883.583	0.0131271
883.661	0.0131263
883.739	0.0131483
883.818	0.0132408
883.896	0.0131084
883.974	0.0131653
884.052	0.0133644
884.130	0.0134045
884.208	0.0132504
884.286	0.0132913
884.364	0.0134075
884.443	0.0132505
884.521	0.0133556
884.599	0.0134157
884.677	0.0133532
884.755	0.0133230
884.833	0.0132732
884.911	0.0134061
884.989	0.0133428
885.068	0.0132662
885.146	0.0132478
885.224	0.0131444
885.302	0.0132135
885.380	0.0131424
885.458	0.0133088
885.536	0.0134288
885.614	0.0133713
885.693	0.0132423
885.771	0.0132914
885.849	0.0134042
885.927	0.0132896
886.005	0.0133495
886.083	0.0133501
886.161	0.0132413
886.239	0.0132571
886.318	0.0132727
886.396	0.0132184
886.474	0.0132599
886.552	0.0132724
886.630	0.0131858
886.708	0.0130835
886.786	0.0131599
886.864	0.0131754
886.943	0.0131583
887.021	0.0130403
887.099	0.0131281
887.177	0.0131696
887.255	0.0131815
887.333	0.0131364
887.411	0.0131673
887.489	0.0131377
887.568	0.0133190
887.646	0.0130482
887.724	0.0131125
887.802	0.0132885
887.880	0.0131332
887.958	0.0132081
888.036	0.0132195
888.114	0.0131703
888.193	0.0131470
888.271	0.0131391
888.349	0.0130918
888.427	0.0130656
888.505	0.0131043
888.583	0.0131510
888.661	0.0131413
888.739	0.0132033
888.818	0.0131712
888.896	0.0131691
888.974	0.0131129
889.052	0.0131988
889.130	0.0131162
889.208	0.0132008
889.286	0.0131477
889.364	0.0131587
889.443	0.0130839
889.521	0.0132219
889.599	0.0131259
889.677	0.0132764
889.755	0.0132877
889.833	0.0131636
889.911	0.0131420
889.989	0.0133750
890.068	0.0132726
890.146	0.0132042
890.224	0.0134022
890.302	0.0132924
890.380	0.0133518
890.458	0.0132508
890.536	0.0132886
890.614	0.0132886
890.693	0.0132014
890.771	0.0132893
890.849	0.0131814
890.927	0.0133604
891.005	0.0133408
891.083	0.0132809
891.161	0.0132854
891.239	0.0133855
891.318	0.0132529
891.396	0.0132681
891.474	0.0132986
891.552	0.0131296
891.630	0.0132702
891.708	0.0132717
891.786	0.0132193
891.864	0.0131401
891.943	0.0132506
892.021	0.0132003
892.099	0.0133694
892.177	0.0132156
892.255	0.0131752
892.333	0.0132082
892.411	0.0131253
892.489	0.0129585
892.568	0.0131349
892.646	0.0131481
892.724	0.0130762
892.802	0.0131043
892.880	0.0129957
892.958	0.0130317
893.036	0.0131327
893.114	0.0130555
893.193	0.0129597
893.271	0.0130936
893.349	0.0131229
893.427	0.0130605
893.505	0.0130179
893.583	0.0130396
893.661	0.0130431
893.739	0.0132269
893.818	0.0130701
893.896	0.0130888
893.974	0.0130972
894.052	0.0130650
894.130	0.0129922
894.208	0.0129922
894.286	0.0131086
894.364	0.0130788
894.443	0.0130062
894.521	0.0131813
894.599	0.0131028
894.677	0.0131658
894.755	0.0132686
894.833	0.0131892
894.911	0.0133138
894.989	0.0132697
895.068	0.0131686
895.146	0.0132339
895.224	0.0131581
895.302	0.0132860
895.380	0.0132432
895.458	0.0133070
895.536	0.0133103
895.614	0.0132918
895.693	0.0134587
895.771	0.0134389
895.849	0.0132417
895.927	0.0132690
896.005	0.0133064
896.083	0.0133123
896.161	0.0134533
896.239	0.0133047
896.318	0.0134016
896.396	0.0134472
896.474	0.0133672
896.552	0.0132754
896.630	0.0132858
896.708	0.0132023
896.786	0.0133040
896.864	0.0131999
896.943	0.0132328
897.021	0.0133531
897.099	0.0132631
897.177	0.0133080
897.255	0.0132162
897.333	0.0133529
897.411	0.0132297
897.489	0.0132594
897.568	0.0132275
897.646	0.0132343
897.724	0.0132710
897.802	0.0131940
897.880	0.0131026
897.958	0.0130811
898.036	0.0130465
898.114	0.0130292
898.193	0.0130977
898.271	0.0130511
898.349	0.0130693
898.427	0.0131335
898.505	0.0131290
898.583	0.0129919
898.661	0.0130650
898.739	0.0130500
898.818	0.0129314
898.896	0.0130247
898.974	0.0129681
899.052	0.0129730
899.130	0.0130025
899.208	0.0130827
899.286	0.0131700
899.364	0.0130058
899.443	0.0128941
899.521	0.0129716
899.599	0.0131953
899.677	0.0129186
899.755	0.0128975
899.833	0.0131275
899.911	0.0131150
899.989	0.0130595
900.068	0.0132030
900.146	0.0131133
900.224	0.0131859
900.302	0.0133046
900.380	0.0132385
900.458	0.0132402
900.536	0.0132016
900.614	0.0132839
900.693	0.0132590
900.771	0.0132037
900.849	0.0133559
900.927	0.0133371
901.005	0.0132827
901.083	0.0133435
901.161	0.0132455
901.239	0.0132214
901.318	0.0132157
901.396	0.0133291
901.474	0.0132488
901.552	0.0132765
901.630	0.0133087
901.708	0.0130360
901.786	0.0133178
901.864	0.0132156
901.943	0.0131946
902.021	0.0133288
902.099	0.0131596
902.177	0.0131439
902.255	0.0130972
902.333	0.0132188
902.411	0.0132838
902.489	0.0131543
902.568	0.0131483
902.646	0.0132300
902.724	0.0132009
902.802	0.0131535
902.880	0.0133078
902.958	0.0131658
903.036	0.0132552
903.114	0.0130924
903.193	0.0132099
903.271	0.0132030
903.349	0.0133497
903.427	0.0133189
903.505	0.0132308
903.583	0.0132706
903.661	0.0132047
903.739	0.0132867
903.818	0.0133700
903.896	0.0133267
903.974	0.0133556
904.052	0.0132906
904.130	0.0133218
904.208	0.0131063
904.286	0.0131541
904.364	0.0133226
904.443	0.0132815
904.521	0.0132508
904.599	0.0132014
904.677	0.0133004
904.755	0.0132523
904.833	0.0131908
904.911	0.0131900
904.989	0.0132301
905.068	0.0131127
905.146	0.0131474
905.224	0.0133468
905.302	0.0132542
905.380	0.0132076
905.458	0.0131818
905.536	0.0133173
905.614	0.0132453
905.693	0.0132761
905.771	0.0134583
905.849	0.0133838
905.927	0.0134389
906.005	0.0132048
906.083	0.0133979
906.161	0.0134213
906.239	0.0134830
906.318	0.0135083
906.396	0.0133700
906.474	0.0132564
906.552	0.0133446
906.630	0.0133141
906.708	0.0134724
906.786	0.0135256
906.864	0.0134018
906.943	0.0134526
907.021	0.0136629
907.099	0.0136703
907.177	0.0133973
907.255	0.0133947
907.333	0.0133476
907.411	0.0134068
907.489	0.0134203
907.568	0.0133430
907.646	0.0133855
907.724	0.0135299
907.802	0.0133453
907.880	0.0132077
907.958	0.0132831
908.036	0.0133634
908.114	0.0132333
908.193	0.0131866
908.271	0.0133364
908.349	0.0131985
908.427	0.0131895
908.505	0.0134393
908.583	0.0132229
908.661	0.0131991
908.739	0.0132203
908.818	0.0131347
908.896	0.0131059
908.974	0.0132034
909.052	0.0132458
909.130	0.0131982
909.208	0.0130988
909.286	0.0130604
909.364	0.0131744
909.443	0.0131699
909.521	0.0131232
909.599	0.0130939
909.677	0.0130021
909.755	0.0130595
909.833	0.0131496
909.911	0.0130582
909.989	0.0131679
910.068	0.0131490
910.146	0.0131883
910.224	0.0131349
910.302	0.0131067
910.380	0.0131060
910.458	0.0130467
910.536	0.0131491
910.614	0.0129422
910.693	0.0131957
910.771	0.0131197
910.849	0.0130565
910.927	0.0131105
911.005	0.0131741
911.083	0.0130574
911.161	0.0131129
911.239	0.0133199
911.318	0.0132445
911.396	0.0132758
911.474	0.0132395
911.552	0.0133515
911.630	0.0131408
911.708	0.0132623
911.786	0.0132561
911.864	0.0131668
911.943	0.0132072
912.021	0.0131747
912.099	0.0132146
912.177	0.0131341
912.255	0.0132774
912.333	0.0131511
912.411	0.0130959
912.489	0.0133702
912.568	0.0132909
912.646	0.0131891
912.724	0.0131870
912.802	0.0132242
912.880	0.0133450
912.958	0.0131941
913.036	0.0131966
913.114	0.0131282
913.193	0.0133794
913.271	0.0132250
913.349	0.0131831
913.427	0.0132543
913.505	0.0131420
913.583	0.0132365
913.661	0.0132097
913.739	0.0132691
913.818	0.0132851
913.896	0.0132617
913.974	0.0132933
914.052	0.0131381
914.130	0.0130911
914.208	0.0132126
914.286	0.0132178
914.364	0.0132646
914.443	0.0132557
914.521	0.0132447
914.599	0.0132307
914.677	0.0131875
914.755	0.0133376
914.833	0.0131824
914.911	0.0133054
914.989	0.0133089
915.068	0.0130849
915.146	0.0130910
915.224	0.0130783
915.302	0.0132317
915.380	0.0130400
915.458	0.0131314
915.536	0.0132309
915.614	0.0132742
915.693	0.0131676
915.771	0.0132573
915.849	0.0132079
915.927	0.0132392
916.005	0.0131773
916.083	0.0131483
916.161	0.0131489
916.239	0.0130837
916.318	0.0131075
916.396	0.0131482
916.474	0.0131462
916.552	0.0131170
916.630	0.0131555
916.708	0.0131693
916.786	0.0130701
916.864	0.0129947
916.943	0.0131657
917.021	0.0130865
917.099	0.0131573
917.177	0.0131520
917.255	0.0130960
917.333	0.0131221
917.411	0.0131566
917.489	0.0130807
917.568	0.0130972
917.646	0.0130471
917.724	0.0129877
917.802	0.0132285
917.880	0.0131951
917.958	0.0130964
918.036	0.0131078
918.114	0.0130582
918.193	0.0130936
918.271	0.0131108
918.349	0.0130035
918.427	0.0131783
918.505	0.0132233
918.583	0.0130898
918.661	0.0131407
918.739	0.0132367
918.818	0.0132227
918.896	0.0131622
918.974	0.0131635
919.052	0.0130849
919.130	0.0132005
919.208	0.0132985
919.286	0.0131783
919.364	0.0131908
919.443	0.0132124
919.521	0.0131578
919.599	0.0131580
919.677	0.0131213
919.755	0.0131330
919.833	0.0132689
919.911	0.0133492
919.989	0.0132797
920.068	0.0132227
920.146	0.0132778
920.224	0.0133616
920.302	0.0132835
920.380	0.0132677
920.458	0.0133827
920.536	0.0134478
920.614	0.0133694
920.693	0.0134174
920.771	0.0132621
920.849	0.0132275
920.927	0.0134850
921.005	0.0133398
921.083	0.0133813
921.161	0.0132116
921.239	0.0132994
921.318	0.0131843
921.396	0.0132249
921.474	0.0132559
921.552	0.0131683
921.630	0.0133062
921.708	0.0131560
921.786	0.0132505
921.864	0.0131535
921.943	0.0131752
922.021	0.0130493
922.099	0.0132317
922.177	0.0131413
922.255	0.0131828
922.333	0.0131647
922.411	0.0130851
922.489	0.0130845
922.568	0.0130127
922.646	0.0132594
922.724	0.0131878
922.802	0.0130823
922.880	0.0130422
922.958	0.0129832
923.036	0.0131772
923.114	0.0131050
923.193	0.0131519
923.271	0.0130059
923.349	0.0133140
923.427	0.0133541
923.505	0.0132319
923.583	0.0131512
923.661	0.0130356
923.739	0.0131329
923.818	0.0131522
923.896	0.0131011
923.974	0.0130478
924.052	0.0130685
924.130	0.0132121
924.208	0.0132966
924.286	0.0131368
924.364	0.0132344
924.443	0.0132348
924.521	0.0133059
924.599	0.0132196
924.677	0.0132388
924.755	0.0132918
924.833	0.0132645
924.911	0.0131818
924.989	0.0134052
925.068	0.0132506
925.146	0.0133638
925.224	0.0132468
925.302	0.0134048
925.380	0.0132632
925.458	0.0132943
925.536	0.0132854
925.614	0.0131631
925.693	0.0132251
925.771	0.0133073
925.849	0.0133675
925.927	0.0132619
926.005	0.0133829
926.083	0.0134118
926.161	0.0133939
926.239	0.0132372
926.318	0.0133501
926.396	0.0133784
926.474	0.0133215
926.552	0.0134049
926.630	0.0134042
926.708	0.0133931
926.786	0.0132744
926.864	0.0133356
926.943	0.0133297
927.021	0.0134168
927.099	0.0134007
927.177	0.0133498
927.255	0.0131487
927.333	0.0131950
927.411	0.0132363
927.489	0.0131056
927.568	0.0132146
927.646	0.0132507
927.724	0.0133714
927.802	0.0132045
927.880	0.0131830
927.958	0.0132327
928.036	0.0131521
928.114	0.0131657
928.193	0.0132252
928.271	0.0132656
928.349	0.0130328
928.427	0.0132283
928.505	0.0132468
928.583	0.0131067
928.661	0.0131291
928.739	0.0131915
928.818	0.0131561
928.896	0.0132010
928.974	0.0130759
929.052	0.0131064
929.130	0.0130939
929.208	0.0130340
929.286	0.0130100
929.364	0.0130326
929.443	0.0130953
929.521	0.0130309
929.599	0.0131895
929.677	0.0132246
929.755	0.0131288
929.833	0.0130614
929.911	0.0130808
929.989	0.0132271
930.068	0.0130984
930.146	0.0131479
930.224	0.0132016
930.302	0.0131999
930.380	0.0132694
930.458	0.0132748
930.536	0.0132675
930.614	0.0131695
930.693	0.0132438
930.771	0.0132354
930.849	0.0131750
930.927	0.0133728
931.005	0.0132661
931.083	0.0132594
931.161	0.0134652
931.239	0.0134091
931.318	0.0131722
931.396	0.0134254
931.474	0.0132696
931.552	0.0133624
931.630	0.0133236
931.708	0.0131775
931.786	0.0132874
931.864	0.0134917
931.943	0.0133321
932.021	0.0133074
932.099	0.0132568
932.177	0.0134181
932.255	0.0133789
932.333	0.0131636
932.411	0.0132371
932.489	0.0133037
932.568	0.0132777
932.646	0.0131842
932.724	0.0132236
932.802	0.0132087
932.880	0.0132194
932.958	0.0131682
933.036	0.0132388
933.114	0.0133549
933.193	0.0132776
933.271	0.0130805
933.349	0.0132345
933.427	0.0131351
933.505	0.0131461
933.583	0.0130828
933.661	0.0130997
933.739	0.0131557
933.818	0.0131492
933.896	0.0130084
933.974	0.0131187
934.052	0.0132594
934.130	0.0131064
934.208	0.0129845
934.286	0.0132011
934.364	0.0130965
934.443	0.0132248
934.521	0.0133329
934.599	0.0130906
934.677	0.0130364
934.755	0.0132306
934.833	0.0131214
934.911	0.0130247
934.989	0.0131348
935.068	0.0131179
935.146	0.0131486
935.224	0.0131905
935.302	0.0131409
935.380	0.0130149
935.458	0.0130671
935.536	0.0130257
935.614	0.0130505
935.693	0.0131969
935.771	0.0131719
935.849	0.0131348
935.927	0.0132661
936.005	0.0132269
936.083	0.0132976
936.161	0.0132836
936.239	0.0131832
936.318	0.0132397
936.396	0.0131737
936.474	0.0133924
936.552	0.0132092
936.630	0.0132074
936.708	0.0131659
936.786	0.0133443
936.864	0.0135484
936.943	0.0133812
937.021	0.0133271
937.099	0.0134991
937.177	0.0133730
937.255	0.0133504
937.333	0.0133479
937.411	0.0135113
937.489	0.0132251
937.568	0.0133056
937.646	0.0133010
937.724	0.0132381
937.802	0.0132630
937.880	0.0134488
937.958	0.0134266
938.036	0.0132980
938.114	0.0134359
938.193	0.0133817
938.271	0.0133983
938.349	0.0133575
938.427	0.0133346
938.505	0.0131951
938.583	0.0133611
938.661	0.0131089
938.739	0.0133028
938.818	0.0134560
938.896	0.0133056
938.974	0.0133547
939.052	0.0133386
939.130	0.0133318
939.208	0.0131998
939.286	0.0132264
939.364	0.0133781
939.443	0.0133660
939.521	0.0132639
939.599	0.0132607
939.677	0.0132597
939.755	0.0133067
939.833	0.0132819
939.911	0.0132618
939.989	0.0133605
940.068	0.0132984
940.146	0.0130780
940.224	0.0131555
940.302	0.0131063
940.380	0.0131464
940.458	0.0131538
940.536	0.0132657
940.614	0.0134023
940.693	0.0132257
940.771	0.0131606
940.849	0.0131953
940.927	0.0132066
941.005	0.0131313
941.083	0.0132890
941.161	0.0132095
941.239	0.0132192
941.318	0.0132603
941.396	0.0133794
941.474	0.0131900
941.552	0.0130489
941.630	0.0131889
941.708	0.0131895
941.786	0.0132001
941.864	0.0131947
941.943	0.0133326
942.021	0.0131676
942.099	0.0131846
942.177	0.0132277
942.255	0.0132936
942.333	0.0133498
942.411	0.0131660
942.489	0.0131110
942.568	0.0131820
942.646	0.0131370
942.724	0.0132311
942.802	0.0132837
942.880	0.0132827
942.958	0.0131406
943.036	0.0132201
943.114	0.0132390
943.193	0.0132366
943.271	0.0132594
943.349	0.0131573
943.427	0.0133241
943.505	0.0132350
943.583	0.0132605
943.661	0.0132546
943.739	0.0132629
943.818	0.0131210
943.896	0.0132507
943.974	0.0131094
944.052	0.0132030
944.130	0.0131779
944.208	0.0134270
944.286	0.0131719
944.364	0.0131210
944.443	0.0131759
944.521	0.0132238
944.599	0.0132678
944.677	0.0131951
944.755	0.0132166
944.833	0.0131438
944.911	0.0131683
944.989	0.0131668
945.068	0.0132018
945.146	0.0130912
945.224	0.0131775
945.302	0.0131845
945.380	0.0130145
945.458	0.0132742
945.536	0.0133655
945.614	0.0131656
945.693	0.0132090
945.771	0.0133253
945.849	0.0132914
945.927	0.0133270
946.005	0.0133510
946.083	0.0132719
946.161	0.0132690
946.239	0.0133876
946.318	0.0133449
946.396	0.0133833
946.474	0.0132579
946.552	0.0134278
946.630	0.0133609
946.708	0.0133739
946.786	0.0133159
946.864	0.0131741
946.943	0.0133761
947.021	0.0131709
947.099	0.0133381
947.177	0.0134108
947.255	0.0133598
947.333	0.0133298
947.411	0.0133817
947.489	0.0132756
947.568	0.0132336
947.646	0.0133916
947.724	0.0132364
947.802	0.0132602
947.880	0.0133842
947.958	0.0134460
948.036	0.0133857
948.114	0.0133606
948.193	0.0131622
948.271	0.0132916
948.349	0.0133714
948.427	0.0133458
948.505	0.0130317
948.583	0.0131651
948.661	0.0133845
948.739	0.0132990
948.818	0.0131595
948.896	0.0131380
948.974	0.0131747
949.052	0.0132123
949.130	0.0132014
949.208	0.0133030
949.286	0.0133223
949.364	0.0132974
949.443	0.0132355
949.521	0.0132581
949.599	0.0133027
949.677	0.0132504
949.755	0.0132122
949.833	0.0132023
949.911	0.0132973
949.989	0.0132124
950.068	0.0131322
950.146	0.0131779
950.224	0.0132204
950.302	0.0130939
950.380	0.0132006
950.458	0.0132098
950.536	0.0130917
950.614	0.0131932
950.693	0.0131809
950.771	0.0132399
950.849	0.0131914
950.927	0.0132175
951.005	0.0132631
951.083	0.0130940
951.161	0.0132740
951.239	0.0131922
951.318	0.0132451
951.396	0.0132281
951.474	0.0132141
951.552	0.0130040
951.630	0.0130914
951.708	0.0131854
951.786	0.0131437
951.864	0.0131893
951.943	0.0130660
952.021	0.0130361
952.099	0.0130652
952.177	0.0130371
952.255	0.0131850
952.333	0.0131481
952.411	0.0131815
952.489	0.0130096
952.568	0.0129800
952.646	0.0130396
952.724	0.0130723
952.802	0.0129963
952.880	0.0131421
952.958	0.0130790
953.036	0.0131544
953.114	0.0129896
953.193	0.0131540
953.271	0.0132352
953.349	0.0131770
953.427	0.0131932
953.505	0.0131755
953.583	0.0132003
953.661	0.0131370
953.739	0.0132246
953.818	0.0133552
953.896	0.0132227
953.974	0.0133740
954.052	0.0133021
954.130	0.0131815
954.208	0.0131524
954.286	0.0133205
954.364	0.0134007
954.443	0.0133112
954.521	0.0132494
954.599	0.0132277
954.677	0.0134002
954.755	0.0133717
954.833	0.0133381
954.911	0.0132167
954.989	0.0133931
955.068	0.0134061
955.146	0.0132612
955.224	0.0133148
955.302	0.0134464
955.380	0.0132777
955.458	0.0133551
955.536	0.0133644
955.614	0.0133759
955.693	0.0134171
955.771	0.0132755
955.849	0.0134738
955.927	0.0133496
956.005	0.0133508
956.083	0.0134481
956.161	0.0134582
956.239	0.0133231
956.318	0.0132655
956.396	0.0133593
956.474	0.0133528
956.552	0.0132690
956.630	0.0134464
956.708	0.0133012
956.786	0.0132104
956.864	0.0133592
956.943	0.0133492
957.021	0.0133286
957.099	0.0132808
957.177	0.0132915
957.255	0.0132430
957.333	0.0132071
957.411	0.0131850
957.489	0.0131909
957.568	0.0133296
957.646	0.0131700
957.724	0.0132063
957.802	0.0131639
957.880	0.0133060
957.958	0.0132542
958.036	0.0131490
958.114	0.0131313
958.193	0.0131792
958.271	0.0131754
958.349	0.0130227
958.427	0.0130978
958.505	0.0131697
958.583	0.0130764
958.661	0.0130447
958.739	0.0132744
958.818	0.0130196
958.896	0.0130117
958.974	0.0131062
959.052	0.0130289
959.130	0.0129365
959.208	0.0129586
959.286	0.0131705
959.364	0.0130891
959.443	0.0130106
959.521	0.0130976
959.599	0.0130186
959.677	0.0130165
959.755	0.0130695
959.833	0.0131156
959.911	0.0131194
