05/07/2022	17:03:21	Ver.	4.1	UNKNOWN
Optical Delay	639.989416	Delta X		0.078125	Sweeps	1	Scan Rate	0/0
Coordinates	Axis 1	NaN	Axis 2	NaN	Axis 3	NaN	Axis 4	NaN	Axis 5	NaN	Axis 6	0.000000
TX Power	0.000000	RX Power	0.000000

639.989	0.0123203
640.068	0.0123025
640.146	0.0123305
640.224	0.0124281
640.302	0.0123750
640.380	0.0123647
640.458	0.0124039
640.536	0.0121397
640.614	0.0123206
640.693	0.0123976
640.771	0.0122800
640.849	0.0123159
640.927	0.0123101
641.005	0.0123733
641.083	0.0123010
641.161	0.0124287
641.239	0.0123772
641.318	0.0123399
641.396	0.0122865
641.474	0.0122549
641.552	0.0124159
641.630	0.0122191
641.708	0.0123728
641.786	0.0124683
641.864	0.0123267
641.943	0.0123427
642.021	0.0123465
642.099	0.0124669
642.177	0.0123784
642.255	0.0123759
642.333	0.0124212
642.411	0.0123374
642.489	0.0123531
642.568	0.0123537
642.646	0.0124347
642.724	0.0124715
642.802	0.0123683
642.880	0.0123221
642.958	0.0124984
643.036	0.0124113
643.114	0.0123943
643.193	0.0124025
643.271	0.0122584
643.349	0.0122372
643.427	0.0122957
643.505	0.0122382
643.583	0.0123834
643.661	0.0122792
643.739	0.0123463
643.818	0.0122753
643.896	0.0123429
643.974	0.0124284
644.052	0.0122327
644.130	0.0122992
644.208	0.0123374
644.286	0.0123067
644.364	0.0124097
644.443	0.0124992
644.521	0.0124137
644.599	0.0124032
644.677	0.0123879
644.755	0.0123101
644.833	0.0123046
644.911	0.0124194
644.989	0.0124371
645.068	0.0123310
645.146	0.0123672
645.224	0.0123049
645.302	0.0123584
645.380	0.0121657
645.458	0.0123048
645.536	0.0124184
645.614	0.0123245
645.693	0.0123975
645.771	0.0123578
645.849	0.0123679
645.927	0.0122638
646.005	0.0124696
646.083	0.0124486
646.161	0.0124220
646.239	0.0123566
646.318	0.0123228
646.396	0.0123815
646.474	0.0122842
646.552	0.0123345
646.630	0.0123267
646.708	0.0124490
646.786	0.0122622
646.864	0.0123241
646.943	0.0123138
647.021	0.0123470
647.099	0.0122086
647.177	0.0123499
647.255	0.0123682
647.333	0.0123779
647.411	0.0123405
647.489	0.0123022
647.568	0.0122958
647.646	0.0123793
647.724	0.0123315
647.802	0.0122619
647.880	0.0123298
647.958	0.0122729
648.036	0.0123510
648.114	0.0124539
648.193	0.0123415
648.271	0.0124558
648.349	0.0122943
648.427	0.0122866
648.505	0.0123776
648.583	0.0122660
648.661	0.0124647
648.739	0.0123653
648.818	0.0123056
648.896	0.0124331
648.974	0.0123603
649.052	0.0124072
649.130	0.0122873
649.208	0.0123317
649.286	0.0123789
649.364	0.0124625
649.443	0.0124625
649.521	0.0124497
649.599	0.0122549
649.677	0.0124444
649.755	0.0124187
649.833	0.0121648
649.911	0.0122613
649.989	0.0123636
650.068	0.0123328
650.146	0.0123743
650.224	0.0123450
650.302	0.0123438
650.380	0.0122565
650.458	0.0123586
650.536	0.0123286
650.614	0.0123232
650.693	0.0124441
650.771	0.0123969
650.849	0.0123663
650.927	0.0123007
651.005	0.0124560
651.083	0.0123775
651.161	0.0123915
651.239	0.0123514
651.318	0.0124518
651.396	0.0123125
651.474	0.0122856
651.552	0.0124027
651.630	0.0123364
651.708	0.0124249
651.786	0.0123203
651.864	0.0122617
651.943	0.0123061
652.021	0.0124360
652.099	0.0124567
652.177	0.0123580
652.255	0.0122792
652.333	0.0122741
652.411	0.0124255
652.489	0.0123239
652.568	0.0123421
652.646	0.0125011
652.724	0.0123907
652.802	0.0122765
652.880	0.0123794
652.958	0.0124258
653.036	0.0123608
653.114	0.0123026
653.193	0.0123578
653.271	0.0123054
653.349	0.0124401
653.427	0.0123979
653.505	0.0121976
653.583	0.0122778
653.661	0.0123846
653.739	0.0123489
653.818	0.0124434
653.896	0.0123190
653.974	0.0122295
654.052	0.0123665
654.130	0.0123787
654.208	0.0124646
654.286	0.0124118
654.364	0.0123139
654.443	0.0122694
654.521	0.0123331
654.599	0.0122842
654.677	0.0122374
654.755	0.0123107
654.833	0.0124696
654.911	0.0124581
654.989	0.0122951
655.068	0.0123963
655.146	0.0122831
655.224	0.0123631
655.302	0.0124201
655.380	0.0124216
655.458	0.0125081
655.536	0.0123273
655.614	0.0123691
655.693	0.0123649
655.771	0.0123860
655.849	0.0124691
655.927	0.0124931
656.005	0.0124269
656.083	0.0122701
656.161	0.0123277
656.239	0.0124461
656.318	0.0122951
656.396	0.0122923
656.474	0.0122620
656.552	0.0123396
656.630	0.0124567
656.708	0.0122261
656.786	0.0123354
656.864	0.0123985
656.943	0.0122629
657.021	0.0123904
657.099	0.0123691
657.177	0.0124064
657.255	0.0122654
657.333	0.0123332
657.411	0.0123792
657.489	0.0124934
657.568	0.0123801
657.646	0.0122856
657.724	0.0121996
657.802	0.0123040
657.880	0.0123645
657.958	0.0124146
658.036	0.0123965
658.114	0.0123087
658.193	0.0122477
658.271	0.0123093
658.349	0.0124572
658.427	0.0121986
658.505	0.0123745
658.583	0.0123174
658.661	0.0122987
658.739	0.0122453
658.818	0.0123745
658.896	0.0123188
658.974	0.0123528
659.052	0.0123487
659.130	0.0124152
659.208	0.0123053
659.286	0.0123275
659.364	0.0122407
659.443	0.0123064
659.521	0.0124059
659.599	0.0123309
659.677	0.0123680
659.755	0.0123117
659.833	0.0123113
659.911	0.0123804
659.989	0.0123705
660.068	0.0123386
660.146	0.0124194
660.224	0.0121928
660.302	0.0122041
660.380	0.0123578
660.458	0.0123101
660.536	0.0122801
660.614	0.0122072
660.693	0.0121794
660.771	0.0123899
660.849	0.0123884
660.927	0.0124073
661.005	0.0122639
661.083	0.0123107
661.161	0.0123177
661.239	0.0122709
661.318	0.0122421
661.396	0.0124861
661.474	0.0124071
661.552	0.0123530
661.630	0.0123969
661.708	0.0122132
661.786	0.0123829
661.864	0.0123898
661.943	0.0123853
662.021	0.0121895
662.099	0.0122342
662.177	0.0123225
662.255	0.0123239
662.333	0.0123099
662.411	0.0122102
662.489	0.0123297
662.568	0.0121574
662.646	0.0122288
662.724	0.0123960
662.802	0.0122534
662.880	0.0123447
662.958	0.0124073
663.036	0.0122819
663.114	0.0124010
663.193	0.0124682
663.271	0.0123608
663.349	0.0123370
663.427	0.0123365
663.505	0.0123811
663.583	0.0123089
663.661	0.0122448
663.739	0.0123215
663.818	0.0123401
663.896	0.0124336
663.974	0.0123518
664.052	0.0123550
664.130	0.0123183
664.208	0.0122800
664.286	0.0123916
664.364	0.0124685
664.443	0.0122771
664.521	0.0122916
664.599	0.0123013
664.677	0.0122465
664.755	0.0123841
664.833	0.0123454
664.911	0.0123463
664.989	0.0123959
665.068	0.0123489
665.146	0.0124287
665.224	0.0123257
665.302	0.0123343
665.380	0.0123883
665.458	0.0124126
665.536	0.0122733
665.614	0.0122868
665.693	0.0122498
665.771	0.0122530
665.849	0.0123816
665.927	0.0122257
666.005	0.0121356
666.083	0.0124172
666.161	0.0123975
666.239	0.0122388
666.318	0.0124133
666.396	0.0122836
666.474	0.0123092
666.552	0.0123519
666.630	0.0121913
666.708	0.0123151
666.786	0.0123972
666.864	0.0123335
666.943	0.0122749
667.021	0.0123972
667.099	0.0123161
667.177	0.0123230
667.255	0.0122872
667.333	0.0123387
667.411	0.0124477
667.489	0.0123071
667.568	0.0122749
667.646	0.0123155
667.724	0.0124274
667.802	0.0124274
667.880	0.0122775
667.958	0.0123098
668.036	0.0123061
668.114	0.0123257
668.193	0.0125378
668.271	0.0123772
668.349	0.0122504
668.427	0.0123852
668.505	0.0123499
668.583	0.0123595
668.661	0.0122088
668.739	0.0122829
668.818	0.0124162
668.896	0.0123088
668.974	0.0124308
669.052	0.0123778
669.130	0.0124403
669.208	0.0124478
669.286	0.0123795
669.364	0.0122112
669.443	0.0123956
669.521	0.0124766
669.599	0.0123826
669.677	0.0124010
669.755	0.0123014
669.833	0.0122785
669.911	0.0124197
669.989	0.0124375
670.068	0.0125124
670.146	0.0125150
670.224	0.0123713
670.302	0.0123940
670.380	0.0124828
670.458	0.0124104
670.536	0.0125229
670.614	0.0125964
670.693	0.0123804
670.771	0.0124367
670.849	0.0124728
670.927	0.0125285
671.005	0.0124984
671.083	0.0124097
671.161	0.0125584
671.239	0.0124836
671.318	0.0125117
671.396	0.0124994
671.474	0.0124534
671.552	0.0124268
671.630	0.0124175
671.708	0.0125970
671.786	0.0124916
671.864	0.0124526
671.943	0.0122983
672.021	0.0125124
672.099	0.0125292
672.177	0.0124690
672.255	0.0125677
672.333	0.0125290
672.411	0.0124915
672.489	0.0124809
672.568	0.0124517
672.646	0.0124802
672.724	0.0125892
672.802	0.0125279
672.880	0.0123713
672.958	0.0124612
673.036	0.0125321
673.114	0.0124580
673.193	0.0124308
673.271	0.0126077
673.349	0.0124915
673.427	0.0123949
673.505	0.0123109
673.583	0.0123973
673.661	0.0123362
673.739	0.0124268
673.818	0.0124899
673.896	0.0125132
673.974	0.0124458
674.052	0.0124021
674.130	0.0123635
674.208	0.0123576
674.286	0.0124181
674.364	0.0124082
674.443	0.0124242
674.521	0.0125072
674.599	0.0124739
674.677	0.0124235
674.755	0.0123583
674.833	0.0124828
674.911	0.0123877
674.989	0.0123188
675.068	0.0125529
675.146	0.0126247
675.224	0.0122927
675.302	0.0123206
675.380	0.0124743
675.458	0.0123474
675.536	0.0123428
675.614	0.0124582
675.693	0.0124319
675.771	0.0124276
675.849	0.0123727
675.927	0.0123298
676.005	0.0124933
676.083	0.0124107
676.161	0.0123412
676.239	0.0124236
676.318	0.0123636
676.396	0.0122762
676.474	0.0123659
676.552	0.0121918
676.630	0.0124532
676.708	0.0124276
676.786	0.0123606
676.864	0.0122289
676.943	0.0123067
677.021	0.0123345
677.099	0.0123007
677.177	0.0122297
677.255	0.0122496
677.333	0.0122696
677.411	0.0122162
677.489	0.0121930
677.568	0.0122458
677.646	0.0122433
677.724	0.0121992
677.802	0.0122713
677.880	0.0122199
677.958	0.0122385
678.036	0.0121578
678.114	0.0121125
678.193	0.0122423
678.271	0.0122676
678.349	0.0122871
678.427	0.0122835
678.505	0.0123260
678.583	0.0122751
678.661	0.0122363
678.739	0.0122265
678.818	0.0122253
678.896	0.0122379
678.974	0.0122333
679.052	0.0123447
679.130	0.0122751
679.208	0.0122644
679.286	0.0122775
679.364	0.0122589
679.443	0.0122657
679.521	0.0121929
679.599	0.0123434
679.677	0.0123882
679.755	0.0122155
679.833	0.0122591
679.911	0.0121996
679.989	0.0123246
680.068	0.0122842
680.146	0.0122339
680.224	0.0122897
680.302	0.0123035
680.380	0.0123844
680.458	0.0123474
680.536	0.0123650
680.614	0.0122851
680.693	0.0122766
680.771	0.0123042
680.849	0.0123128
680.927	0.0123442
681.005	0.0123403
681.083	0.0124419
681.161	0.0124207
681.239	0.0122752
681.318	0.0122543
681.396	0.0124576
681.474	0.0122839
681.552	0.0122446
681.630	0.0123083
681.708	0.0122870
681.786	0.0123100
681.864	0.0123454
681.943	0.0123411
682.021	0.0124117
682.099	0.0124632
682.177	0.0124740
682.255	0.0121652
682.333	0.0123801
682.411	0.0124073
682.489	0.0125154
682.568	0.0123608
682.646	0.0122723
682.724	0.0125378
682.802	0.0125045
682.880	0.0123048
682.958	0.0123558
683.036	0.0123334
683.114	0.0122844
683.193	0.0123566
683.271	0.0123959
683.349	0.0124735
683.427	0.0123579
683.505	0.0123479
683.583	0.0123704
683.661	0.0123409
683.739	0.0125767
683.818	0.0125608
683.896	0.0125762
683.974	0.0125327
684.052	0.0123695
684.130	0.0121792
684.208	0.0123677
684.286	0.0120928
684.364	0.0120235
684.443	0.0119854
684.521	0.0121957
684.599	0.0123253
684.677	0.0122352
684.755	0.0123897
684.833	0.0125687
684.911	0.0126736
684.989	0.0129375
685.068	0.0129285
685.146	0.0130393
685.224	0.0130285
685.302	0.0130099
685.380	0.0129680
685.458	0.0126889
685.536	0.0124168
685.614	0.0125435
685.693	0.0121803
685.771	0.0118355
685.849	0.0117217
685.927	0.0115608
686.005	0.0115131
686.083	0.0113654
686.161	0.0113963
686.239	0.0115137
686.318	0.0116963
686.396	0.0117760
686.474	0.0120391
686.552	0.0123388
686.630	0.0128076
686.708	0.0130511
686.786	0.0134077
686.864	0.0136939
686.943	0.0136445
687.021	0.0136945
687.099	0.0137320
687.177	0.0134228
687.255	0.0132294
687.333	0.0130289
687.411	0.0126918
687.489	0.0123772
687.568	0.0118426
687.646	0.0115260
687.724	0.0113579
687.802	0.0110870
687.880	0.0109758
687.958	0.0109584
688.036	0.0109266
688.114	0.0109734
688.193	0.0111172
688.271	0.0113837
688.349	0.0115630
688.427	0.0117439
688.505	0.0121906
688.583	0.0124669
688.661	0.0128208
688.739	0.0127514
688.818	0.0129049
688.896	0.0131120
688.974	0.0133173
689.052	0.0133392
689.130	0.0133663
689.208	0.0134045
689.286	0.0134985
689.364	0.0135033
689.443	0.0135390
689.521	0.0132146
689.599	0.0131609
689.677	0.0129652
689.755	0.0127164
689.833	0.0125120
689.911	0.0123979
689.989	0.0122470
690.068	0.0120197
690.146	0.0118507
690.224	0.0117889
690.302	0.0116312
690.380	0.0114912
690.458	0.0114408
690.536	0.0115129
690.614	0.0114821
690.693	0.0114778
690.771	0.0114874
690.849	0.0114685
690.927	0.0115997
691.005	0.0117988
691.083	0.0116572
691.161	0.0117121
691.239	0.0117491
691.318	0.0118761
691.396	0.0118980
691.474	0.0119321
691.552	0.0121299
691.630	0.0122754
691.708	0.0123145
691.786	0.0124696
691.864	0.0124546
691.943	0.0126997
692.021	0.0127996
692.099	0.0129917
692.177	0.0130327
692.255	0.0131316
692.333	0.0131645
692.411	0.0132166
692.489	0.0133238
692.568	0.0133122
692.646	0.0133146
692.724	0.0131340
692.802	0.0128086
692.880	0.0127647
692.958	0.0126181
693.036	0.0123872
693.114	0.0122152
693.193	0.0121092
693.271	0.0119912
693.349	0.0117194
693.427	0.0116443
693.505	0.0115709
693.583	0.0114143
693.661	0.0114223
693.739	0.0112407
693.818	0.0112582
693.896	0.0112309
693.974	0.0114059
694.052	0.0115423
694.130	0.0117606
694.208	0.0117708
694.286	0.0119177
694.364	0.0121246
694.443	0.0122646
694.521	0.0124374
694.599	0.0126196
694.677	0.0125036
694.755	0.0126629
694.833	0.0129939
694.911	0.0129773
694.989	0.0129813
695.068	0.0131257
695.146	0.0130941
695.224	0.0129462
695.302	0.0131859
695.380	0.0130253
695.458	0.0130721
695.536	0.0129629
695.614	0.0128247
695.693	0.0127789
695.771	0.0126524
695.849	0.0124986
695.927	0.0124733
696.005	0.0123612
696.083	0.0123377
696.161	0.0121822
696.239	0.0121696
696.318	0.0121444
696.396	0.0122153
696.474	0.0119270
696.552	0.0118494
696.630	0.0119907
696.708	0.0120613
696.786	0.0120169
696.864	0.0121701
696.943	0.0121981
697.021	0.0122278
697.099	0.0125620
697.177	0.0125613
697.255	0.0126500
697.333	0.0126901
697.411	0.0127682
697.489	0.0128577
697.568	0.0127184
697.646	0.0128026
697.724	0.0127354
697.802	0.0125503
697.880	0.0125672
697.958	0.0124382
698.036	0.0123359
698.114	0.0122367
698.193	0.0122487
698.271	0.0122565
698.349	0.0119005
698.427	0.0117794
698.505	0.0117844
698.583	0.0116527
698.661	0.0115527
698.739	0.0115821
698.818	0.0116540
698.896	0.0117133
698.974	0.0115875
699.052	0.0117023
699.130	0.0117996
699.208	0.0118613
699.286	0.0119503
699.364	0.0119999
699.443	0.0123309
699.521	0.0122934
699.599	0.0125438
699.677	0.0128896
699.755	0.0128487
699.833	0.0130007
699.911	0.0132140
699.989	0.0133851
700.068	0.0135202
700.146	0.0136558
700.224	0.0136762
700.302	0.0137388
700.380	0.0137820
700.458	0.0136694
700.536	0.0135656
700.614	0.0134806
700.693	0.0133040
700.771	0.0132335
700.849	0.0130055
700.927	0.0129379
701.005	0.0125921
701.083	0.0123721
701.161	0.0121558
701.239	0.0119717
701.318	0.0117532
701.396	0.0117191
701.474	0.0116016
701.552	0.0113899
701.630	0.0113682
701.708	0.0113154
701.786	0.0111781
701.864	0.0112347
701.943	0.0113454
702.021	0.0111215
702.099	0.0112209
702.177	0.0111150
702.255	0.0112838
702.333	0.0113018
702.411	0.0113068
702.489	0.0114239
702.568	0.0116707
702.646	0.0117408
702.724	0.0117840
702.802	0.0118484
702.880	0.0120326
702.958	0.0121461
703.036	0.0122980
703.114	0.0123579
703.193	0.0125620
703.271	0.0127047
703.349	0.0128644
703.427	0.0129362
703.505	0.0128460
703.583	0.0131118
703.661	0.0132007
703.739	0.0133053
703.818	0.0132400
703.896	0.0131902
703.974	0.0133788
704.052	0.0134103
704.130	0.0130835
704.208	0.0130028
704.286	0.0133218
704.364	0.0130944
704.443	0.0130976
704.521	0.0128168
704.599	0.0127331
704.677	0.0127663
704.755	0.0125803
704.833	0.0125031
704.911	0.0123914
704.989	0.0122987
705.068	0.0122186
705.146	0.0120195
705.224	0.0120815
705.302	0.0121600
705.380	0.0121373
705.458	0.0119746
705.536	0.0119203
705.614	0.0120184
705.693	0.0118543
705.771	0.0120934
705.849	0.0120352
705.927	0.0119798
706.005	0.0119880
706.083	0.0119446
706.161	0.0120179
706.239	0.0117373
706.318	0.0116742
706.396	0.0116748
706.474	0.0116089
706.552	0.0117077
706.630	0.0116393
706.708	0.0116674
706.786	0.0116483
706.864	0.0117304
706.943	0.0117080
707.021	0.0118364
707.099	0.0118337
707.177	0.0118440
707.255	0.0120498
707.333	0.0122200
707.411	0.0123091
707.489	0.0122811
707.568	0.0124066
707.646	0.0125336
707.724	0.0126984
707.802	0.0126942
707.880	0.0125813
707.958	0.0127483
708.036	0.0128448
708.114	0.0128229
708.193	0.0128761
708.271	0.0127583
708.349	0.0129417
708.427	0.0130816
708.505	0.0128347
708.583	0.0132674
708.661	0.0130408
708.739	0.0131857
708.818	0.0130940
708.896	0.0132313
708.974	0.0132538
709.052	0.0130154
709.130	0.0130677
709.208	0.0131852
709.286	0.0131064
709.364	0.0130354
709.443	0.0131001
709.521	0.0129064
709.599	0.0128461
709.677	0.0127580
709.755	0.0126443
709.833	0.0124953
709.911	0.0124063
709.989	0.0125287
710.068	0.0123962
710.146	0.0122114
710.224	0.0121560
710.302	0.0120306
710.380	0.0120709
710.458	0.0120379
710.536	0.0120060
710.614	0.0118422
710.693	0.0119382
710.771	0.0119123
710.849	0.0117340
710.927	0.0116644
711.005	0.0118248
711.083	0.0117857
711.161	0.0117254
711.239	0.0118377
711.318	0.0119278
711.396	0.0119143
711.474	0.0118986
711.552	0.0119164
711.630	0.0119247
711.708	0.0120697
711.786	0.0120789
711.864	0.0121149
711.943	0.0122287
712.021	0.0122372
712.099	0.0123083
712.177	0.0122701
712.255	0.0122822
712.333	0.0124870
712.411	0.0125108
712.489	0.0126231
712.568	0.0125700
712.646	0.0126524
712.724	0.0127814
712.802	0.0129131
712.880	0.0126525
712.958	0.0128761
713.036	0.0128842
713.114	0.0129722
713.193	0.0130235
713.271	0.0131322
713.349	0.0130606
713.427	0.0130908
713.505	0.0131444
713.583	0.0131324
713.661	0.0131403
713.739	0.0131458
713.818	0.0131042
713.896	0.0130388
713.974	0.0131418
714.052	0.0128863
714.130	0.0129254
714.208	0.0128621
714.286	0.0125008
714.364	0.0126324
714.443	0.0125390
714.521	0.0123631
714.599	0.0124448
714.677	0.0122358
714.755	0.0122310
714.833	0.0120527
714.911	0.0121552
714.989	0.0120931
715.068	0.0118797
715.146	0.0118184
715.224	0.0117776
715.302	0.0119084
715.380	0.0118388
715.458	0.0117189
715.536	0.0117398
715.614	0.0116268
715.693	0.0117032
715.771	0.0117372
715.849	0.0115945
715.927	0.0115763
716.005	0.0118043
716.083	0.0116438
716.161	0.0116818
716.239	0.0116479
716.318	0.0117289
716.396	0.0117166
716.474	0.0119921
716.552	0.0118140
716.630	0.0120082
716.708	0.0120264
716.786	0.0121291
716.864	0.0119665
716.943	0.0121487
717.021	0.0122157
717.099	0.0122472
717.177	0.0123286
717.255	0.0124300
717.333	0.0123531
717.411	0.0125799
717.489	0.0125455
717.568	0.0125350
717.646	0.0126008
717.724	0.0126941
717.802	0.0127383
717.880	0.0129001
717.958	0.0129506
718.036	0.0130132
718.114	0.0130802
718.193	0.0129681
718.271	0.0130874
718.349	0.0129939
718.427	0.0130135
718.505	0.0129938
718.583	0.0128790
718.661	0.0130625
718.739	0.0129173
718.818	0.0127824
718.896	0.0126131
718.974	0.0126334
719.052	0.0124178
719.130	0.0123162
719.208	0.0122012
719.286	0.0122552
719.364	0.0120585
719.443	0.0118583
719.521	0.0118278
719.599	0.0117140
719.677	0.0117349
719.755	0.0117175
719.833	0.0117450
719.911	0.0116575
719.989	0.0117187
720.068	0.0117105
720.146	0.0117252
720.224	0.0119144
720.302	0.0119849
720.380	0.0120379
720.458	0.0121612
720.536	0.0122476
720.614	0.0122979
720.693	0.0124873
720.771	0.0125775
720.849	0.0126218
720.927	0.0125324
721.005	0.0125678
721.083	0.0126508
721.161	0.0126080
721.239	0.0124635
721.318	0.0126064
721.396	0.0125375
721.474	0.0124525
721.552	0.0123141
721.630	0.0122025
721.708	0.0119572
721.786	0.0120396
721.864	0.0118961
721.943	0.0119128
722.021	0.0118717
722.099	0.0118645
722.177	0.0118243
722.255	0.0117017
722.333	0.0116956
722.411	0.0119323
722.489	0.0119579
722.568	0.0118117
722.646	0.0120193
722.724	0.0119800
722.802	0.0121702
722.880	0.0122861
722.958	0.0124979
723.036	0.0125685
723.114	0.0127992
723.193	0.0128084
723.271	0.0128088
723.349	0.0128665
723.427	0.0130267
723.505	0.0131170
723.583	0.0130248
723.661	0.0131064
723.739	0.0132372
723.818	0.0132603
723.896	0.0131445
723.974	0.0131741
724.052	0.0131332
724.130	0.0130231
724.208	0.0128465
724.286	0.0127629
724.364	0.0126181
724.443	0.0124455
724.521	0.0124493
724.599	0.0123457
724.677	0.0122092
724.755	0.0120895
724.833	0.0120621
724.911	0.0120396
724.989	0.0118347
725.068	0.0117893
725.146	0.0116108
725.224	0.0116905
725.302	0.0117341
725.380	0.0118119
725.458	0.0119022
725.536	0.0117746
725.614	0.0120168
725.693	0.0120421
725.771	0.0121188
725.849	0.0122620
725.927	0.0121738
726.005	0.0124881
726.083	0.0123898
726.161	0.0123652
726.239	0.0125469
726.318	0.0124824
726.396	0.0123567
726.474	0.0123767
726.552	0.0124127
726.630	0.0121522
726.708	0.0122565
726.786	0.0123302
726.864	0.0122463
726.943	0.0120030
727.021	0.0120210
727.099	0.0119514
727.177	0.0118519
727.255	0.0116704
727.333	0.0118429
727.411	0.0118058
727.489	0.0118121
727.568	0.0118803
727.646	0.0118822
727.724	0.0118855
727.802	0.0119040
727.880	0.0118788
727.958	0.0120612
728.036	0.0122041
728.114	0.0121812
728.193	0.0123801
728.271	0.0125097
728.349	0.0125933
728.427	0.0127724
728.505	0.0128117
728.583	0.0128778
728.661	0.0129997
728.739	0.0131126
728.818	0.0130689
728.896	0.0130700
728.974	0.0132469
729.052	0.0132387
729.130	0.0131136
729.208	0.0128989
729.286	0.0128737
729.364	0.0126754
729.443	0.0126797
729.521	0.0126728
729.599	0.0125673
729.677	0.0124193
729.755	0.0121559
729.833	0.0119057
729.911	0.0118001
729.989	0.0117510
730.068	0.0117220
730.146	0.0116941
730.224	0.0117648
730.302	0.0115350
730.380	0.0116301
730.458	0.0115807
730.536	0.0115936
730.614	0.0115145
730.693	0.0116492
730.771	0.0118842
730.849	0.0118652
730.927	0.0120721
731.005	0.0123737
731.083	0.0123271
731.161	0.0123932
731.239	0.0124733
731.318	0.0125867
731.396	0.0127750
731.474	0.0129535
731.552	0.0129860
731.630	0.0130231
731.708	0.0131556
731.786	0.0130195
731.864	0.0131124
731.943	0.0130927
732.021	0.0130287
732.099	0.0129308
732.177	0.0128570
732.255	0.0126027
732.333	0.0125964
732.411	0.0126124
732.489	0.0124496
732.568	0.0122385
732.646	0.0122282
732.724	0.0122775
732.802	0.0121026
732.880	0.0119634
732.958	0.0119453
733.036	0.0118121
733.114	0.0119876
733.193	0.0117988
733.271	0.0118150
733.349	0.0117950
733.427	0.0118842
733.505	0.0118042
733.583	0.0119152
733.661	0.0120029
733.739	0.0119073
733.818	0.0120497
733.896	0.0121329
733.974	0.0121954
734.052	0.0123384
734.130	0.0123245
734.208	0.0123560
734.286	0.0123827
734.364	0.0125390
734.443	0.0126737
734.521	0.0127552
734.599	0.0128854
734.677	0.0127486
734.755	0.0128354
734.833	0.0127594
734.911	0.0128910
734.989	0.0129921
735.068	0.0129266
735.146	0.0130074
735.224	0.0128205
735.302	0.0128207
735.380	0.0127427
735.458	0.0127248
735.536	0.0126689
735.614	0.0126318
735.693	0.0125729
735.771	0.0124673
735.849	0.0125210
735.927	0.0123375
736.005	0.0123190
736.083	0.0122990
736.161	0.0122213
736.239	0.0122413
736.318	0.0121443
736.396	0.0120445
736.474	0.0120853
736.552	0.0122815
736.630	0.0121051
736.708	0.0121764
736.786	0.0120737
736.864	0.0119933
736.943	0.0121014
737.021	0.0121265
737.099	0.0122330
737.177	0.0120277
737.255	0.0123047
737.333	0.0123711
737.411	0.0124114
737.489	0.0122717
737.568	0.0123927
737.646	0.0124405
737.724	0.0125455
737.802	0.0125423
737.880	0.0124940
737.958	0.0126826
738.036	0.0125556
738.114	0.0125888
738.193	0.0126197
738.271	0.0124297
738.349	0.0124672
738.427	0.0123970
738.505	0.0123869
738.583	0.0124035
738.661	0.0122198
738.739	0.0122002
738.818	0.0121625
738.896	0.0122672
738.974	0.0121236
739.052	0.0120570
739.130	0.0121072
739.208	0.0121472
739.286	0.0122665
739.364	0.0121437
739.443	0.0121727
739.521	0.0120550
739.599	0.0123976
739.677	0.0122530
739.755	0.0123199
739.833	0.0123077
739.911	0.0123492
739.989	0.0123508
740.068	0.0124534
740.146	0.0124682
740.224	0.0123765
740.302	0.0124627
740.380	0.0124902
740.458	0.0124314
740.536	0.0126200
740.614	0.0126154
740.693	0.0125163
740.771	0.0125506
740.849	0.0126424
740.927	0.0125925
741.005	0.0126221
741.083	0.0125129
741.161	0.0124589
741.239	0.0126316
741.318	0.0124831
741.396	0.0126274
741.474	0.0124794
741.552	0.0124666
741.630	0.0124210
741.708	0.0123145
741.786	0.0123263
741.864	0.0124585
741.943	0.0123661
742.021	0.0122890
742.099	0.0121624
742.177	0.0120754
742.255	0.0121282
742.333	0.0123141
742.411	0.0121275
742.489	0.0123229
742.568	0.0122505
742.646	0.0122902
742.724	0.0122219
742.802	0.0122647
742.880	0.0122730
742.958	0.0123067
743.036	0.0123006
743.114	0.0122277
743.193	0.0123435
743.271	0.0123097
743.349	0.0124504
743.427	0.0124611
743.505	0.0123461
743.583	0.0124475
743.661	0.0123801
743.739	0.0126390
743.818	0.0125726
743.896	0.0125471
743.974	0.0125637
744.052	0.0127531
744.130	0.0126061
744.208	0.0126151
744.286	0.0125065
744.364	0.0123344
744.443	0.0123267
744.521	0.0123642
744.599	0.0122536
744.677	0.0122110
744.755	0.0120704
744.833	0.0120747
744.911	0.0120671
744.989	0.0120466
745.068	0.0120526
745.146	0.0117930
745.224	0.0118980
745.302	0.0118396
745.380	0.0119152
745.458	0.0119169
745.536	0.0119087
745.614	0.0119618
745.693	0.0119573
745.771	0.0117833
745.849	0.0120286
745.927	0.0121790
746.005	0.0121498
746.083	0.0122109
746.161	0.0121500
746.239	0.0123582
746.318	0.0124009
746.396	0.0123818
746.474	0.0124919
746.552	0.0125486
746.630	0.0126514
746.708	0.0127805
746.786	0.0126552
746.864	0.0128396
746.943	0.0128596
747.021	0.0128046
747.099	0.0128323
747.177	0.0128026
747.255	0.0128615
747.333	0.0127254
747.411	0.0127761
747.489	0.0126385
747.568	0.0126809
747.646	0.0125970
747.724	0.0124117
747.802	0.0123373
747.880	0.0124234
747.958	0.0123147
748.036	0.0120620
748.114	0.0121518
748.193	0.0120877
748.271	0.0121445
748.349	0.0120932
748.427	0.0120307
748.505	0.0120018
748.583	0.0120964
748.661	0.0120451
748.739	0.0120033
748.818	0.0121248
748.896	0.0120399
748.974	0.0121643
749.052	0.0122073
749.130	0.0120892
749.208	0.0121745
749.286	0.0122537
749.364	0.0123994
749.443	0.0124033
749.521	0.0123914
749.599	0.0126190
749.677	0.0126783
749.755	0.0124632
749.833	0.0127279
749.911	0.0126837
749.989	0.0125960
750.068	0.0127161
750.146	0.0128795
750.224	0.0128949
750.302	0.0129514
750.380	0.0127949
750.458	0.0127827
750.536	0.0126988
750.614	0.0127252
750.693	0.0124957
750.771	0.0123454
750.849	0.0124424
750.927	0.0123446
751.005	0.0123220
751.083	0.0121222
751.161	0.0120548
751.239	0.0121326
751.318	0.0119244
751.396	0.0119411
751.474	0.0118491
751.552	0.0117999
751.630	0.0119170
751.708	0.0120471
751.786	0.0119003
751.864	0.0117069
751.943	0.0119374
752.021	0.0120517
752.099	0.0120178
752.177	0.0120384
752.255	0.0120757
752.333	0.0122254
752.411	0.0121983
752.489	0.0122220
752.568	0.0123566
752.646	0.0123688
752.724	0.0125008
752.802	0.0126194
752.880	0.0125434
752.958	0.0125857
753.036	0.0126113
753.114	0.0126285
753.193	0.0125167
753.271	0.0126511
753.349	0.0126221
753.427	0.0125651
753.505	0.0124116
753.583	0.0124699
753.661	0.0124790
753.739	0.0124191
753.818	0.0123553
753.896	0.0122977
753.974	0.0123240
754.052	0.0122147
754.130	0.0121868
754.208	0.0121736
754.286	0.0121837
754.364	0.0121752
754.443	0.0122843
754.521	0.0121875
754.599	0.0122935
754.677	0.0122147
754.755	0.0122195
754.833	0.0122398
754.911	0.0123286
754.989	0.0123675
755.068	0.0125058
755.146	0.0125948
755.224	0.0124762
755.302	0.0123949
755.380	0.0126028
755.458	0.0126741
755.536	0.0124537
755.614	0.0126041
755.693	0.0125494
755.771	0.0126251
755.849	0.0127085
755.927	0.0126464
756.005	0.0127167
756.083	0.0125720
756.161	0.0126496
756.239	0.0125494
756.318	0.0125279
756.396	0.0124937
756.474	0.0124464
756.552	0.0124290
756.630	0.0123808
756.708	0.0124478
756.786	0.0122936
756.864	0.0121784
756.943	0.0122913
757.021	0.0121548
757.099	0.0119164
757.177	0.0119706
757.255	0.0119631
757.333	0.0119485
757.411	0.0119418
757.489	0.0120263
757.568	0.0117776
757.646	0.0118103
757.724	0.0117898
757.802	0.0118396
757.880	0.0117355
757.958	0.0117489
758.036	0.0119823
758.114	0.0121234
758.193	0.0121205
758.271	0.0122171
758.349	0.0122164
758.427	0.0123160
758.505	0.0123003
758.583	0.0124805
758.661	0.0125305
758.739	0.0125642
758.818	0.0126501
758.896	0.0125784
758.974	0.0127557
759.052	0.0126982
759.130	0.0126479
759.208	0.0126653
759.286	0.0126999
759.364	0.0127411
759.443	0.0126874
759.521	0.0127609
759.599	0.0127934
759.677	0.0126266
759.755	0.0127922
759.833	0.0126298
759.911	0.0125294
759.989	0.0127567
760.068	0.0127702
760.146	0.0127125
760.224	0.0127067
760.302	0.0125523
760.380	0.0126240
760.458	0.0126416
760.536	0.0125439
760.614	0.0125352
760.693	0.0125357
760.771	0.0124968
760.849	0.0125347
760.927	0.0124431
761.005	0.0124706
761.083	0.0124139
761.161	0.0124483
761.239	0.0122852
761.318	0.0124267
761.396	0.0122768
761.474	0.0123254
761.552	0.0121834
761.630	0.0121581
761.708	0.0122561
761.786	0.0122944
761.864	0.0121867
761.943	0.0121201
762.021	0.0122430
762.099	0.0122458
762.177	0.0121645
762.255	0.0121612
762.333	0.0123072
762.411	0.0122559
762.489	0.0123023
762.568	0.0123547
762.646	0.0123196
762.724	0.0123826
762.802	0.0123698
762.880	0.0123857
762.958	0.0123258
763.036	0.0123380
763.114	0.0122808
763.193	0.0121972
763.271	0.0121738
763.349	0.0122098
763.427	0.0121358
763.505	0.0119662
763.583	0.0120251
763.661	0.0119674
763.739	0.0119856
763.818	0.0118691
763.896	0.0119829
763.974	0.0118868
764.052	0.0119595
764.130	0.0119070
764.208	0.0117300
764.286	0.0118925
764.364	0.0119692
764.443	0.0120544
764.521	0.0118742
764.599	0.0119263
764.677	0.0120281
764.755	0.0120490
764.833	0.0120872
764.911	0.0121776
764.989	0.0122506
765.068	0.0122412
765.146	0.0124574
765.224	0.0125570
765.302	0.0125516
765.380	0.0126913
765.458	0.0126093
765.536	0.0127735
765.614	0.0129676
765.693	0.0128034
765.771	0.0130735
765.849	0.0129980
765.927	0.0131927
766.005	0.0130404
766.083	0.0130640
766.161	0.0131307
766.239	0.0130254
766.318	0.0129420
766.396	0.0130526
766.474	0.0127974
766.552	0.0127482
766.630	0.0127587
766.708	0.0125412
766.786	0.0124163
766.864	0.0125414
766.943	0.0121887
767.021	0.0121913
767.099	0.0121970
767.177	0.0121429
767.255	0.0119798
767.333	0.0120663
767.411	0.0120263
767.489	0.0119529
767.568	0.0120448
767.646	0.0120016
767.724	0.0120162
767.802	0.0117434
767.880	0.0117933
767.958	0.0119405
768.036	0.0120015
768.114	0.0120282
768.193	0.0119808
768.271	0.0121152
768.349	0.0121198
768.427	0.0120008
768.505	0.0120123
768.583	0.0123591
768.661	0.0123140
768.739	0.0122623
768.818	0.0122537
768.896	0.0123216
768.974	0.0122907
769.052	0.0124327
769.130	0.0124771
769.208	0.0124586
769.286	0.0124154
769.364	0.0124898
769.443	0.0123936
769.521	0.0123003
769.599	0.0123994
769.677	0.0124046
769.755	0.0124957
769.833	0.0122620
769.911	0.0123650
769.989	0.0124091
770.068	0.0123408
770.146	0.0124021
770.224	0.0123845
770.302	0.0124559
770.380	0.0124247
770.458	0.0123962
770.536	0.0125105
770.614	0.0124482
770.693	0.0125278
770.771	0.0125165
770.849	0.0125185
770.927	0.0124525
771.005	0.0124606
771.083	0.0126708
771.161	0.0125776
771.239	0.0126814
771.318	0.0127454
771.396	0.0126223
771.474	0.0126434
771.552	0.0127258
771.630	0.0125728
771.708	0.0126127
771.786	0.0124405
771.864	0.0125974
771.943	0.0124931
772.021	0.0126169
772.099	0.0125408
772.177	0.0124210
772.255	0.0123563
772.333	0.0122635
772.411	0.0123545
772.489	0.0123324
772.568	0.0120487
772.646	0.0121832
772.724	0.0121434
772.802	0.0121177
772.880	0.0120107
772.958	0.0121401
773.036	0.0120399
773.114	0.0120104
773.193	0.0120507
773.271	0.0119872
773.349	0.0120539
773.427	0.0120994
773.505	0.0121398
773.583	0.0121934
773.661	0.0121373
773.739	0.0122144
773.818	0.0122003
773.896	0.0121954
773.974	0.0123040
774.052	0.0122941
774.130	0.0121558
774.208	0.0123960
774.286	0.0125008
774.364	0.0124202
774.443	0.0124092
774.521	0.0123978
774.599	0.0125087
774.677	0.0124971
774.755	0.0125206
774.833	0.0124264
774.911	0.0125455
774.989	0.0125637
775.068	0.0125315
775.146	0.0126176
775.224	0.0125158
775.302	0.0125378
775.380	0.0125642
775.458	0.0125171
775.536	0.0124603
775.614	0.0124595
775.693	0.0123139
775.771	0.0124438
775.849	0.0122617
775.927	0.0122988
776.005	0.0122662
776.083	0.0123901
776.161	0.0123099
776.239	0.0122657
776.318	0.0122419
776.396	0.0122959
776.474	0.0122939
776.552	0.0122288
776.630	0.0122469
776.708	0.0122739
776.786	0.0121413
776.864	0.0123212
776.943	0.0122887
777.021	0.0122604
777.099	0.0123517
777.177	0.0123586
777.255	0.0123537
777.333	0.0123246
777.411	0.0122754
777.489	0.0123079
777.568	0.0123933
777.646	0.0122547
777.724	0.0123956
777.802	0.0123567
777.880	0.0122258
777.958	0.0122879
778.036	0.0123388
778.114	0.0123036
778.193	0.0123243
778.271	0.0122679
778.349	0.0122943
778.427	0.0124010
778.505	0.0123618
778.583	0.0123692
778.661	0.0124127
778.739	0.0124010
778.818	0.0124993
778.896	0.0126707
778.974	0.0126726
779.052	0.0124699
779.130	0.0124146
779.208	0.0125508
779.286	0.0125150
779.364	0.0124397
779.443	0.0124803
779.521	0.0125576
779.599	0.0124269
779.677	0.0126769
779.755	0.0125125
779.833	0.0124767
779.911	0.0125158
779.989	0.0125726
780.068	0.0124812
780.146	0.0123895
780.224	0.0125021
780.302	0.0123462
780.380	0.0123456
780.458	0.0124474
780.536	0.0123212
780.614	0.0124230
780.693	0.0124905
780.771	0.0125619
780.849	0.0123560
780.927	0.0124222
781.005	0.0125303
781.083	0.0125315
781.161	0.0124001
781.239	0.0124042
781.318	0.0124470
781.396	0.0124643
781.474	0.0125043
781.552	0.0125047
781.630	0.0123349
781.708	0.0124910
781.786	0.0124456
781.864	0.0124070
781.943	0.0122401
782.021	0.0121288
782.099	0.0121548
782.177	0.0122675
782.255	0.0121789
782.333	0.0121407
782.411	0.0122719
782.489	0.0122677
782.568	0.0121799
782.646	0.0121486
782.724	0.0122787
782.802	0.0122888
782.880	0.0120596
782.958	0.0122092
783.036	0.0122674
783.114	0.0123071
783.193	0.0123084
783.271	0.0122980
783.349	0.0122495
783.427	0.0123107
783.505	0.0122079
783.583	0.0123604
783.661	0.0123908
783.739	0.0123146
783.818	0.0123609
783.896	0.0124665
783.974	0.0123666
784.052	0.0124371
784.130	0.0125699
784.208	0.0124292
784.286	0.0125607
784.364	0.0125009
784.443	0.0124876
784.521	0.0125262
784.599	0.0124426
784.677	0.0125625
784.755	0.0125392
784.833	0.0123559
784.911	0.0123757
784.989	0.0124267
785.068	0.0124598
785.146	0.0123753
785.224	0.0123689
785.302	0.0123734
785.380	0.0122641
785.458	0.0124059
785.536	0.0123243
785.614	0.0123458
785.693	0.0123976
785.771	0.0122540
785.849	0.0122562
785.927	0.0122636
786.005	0.0122762
786.083	0.0123808
786.161	0.0123766
786.239	0.0122836
786.318	0.0121932
786.396	0.0122086
786.474	0.0123340
786.552	0.0122843
786.630	0.0122382
786.708	0.0120446
786.786	0.0120979
786.864	0.0122344
786.943	0.0121696
787.021	0.0121398
787.099	0.0122771
787.177	0.0121394
787.255	0.0122643
787.333	0.0122807
787.411	0.0121877
787.489	0.0123272
787.568	0.0123122
787.646	0.0123045
787.724	0.0121940
787.802	0.0123328
787.880	0.0123841
787.958	0.0123103
788.036	0.0123509
788.114	0.0124006
788.193	0.0125550
788.271	0.0125140
788.349	0.0125797
788.427	0.0125739
788.505	0.0126099
788.583	0.0125178
788.661	0.0125378
788.739	0.0125421
788.818	0.0124683
788.896	0.0125388
788.974	0.0125422
789.052	0.0126482
789.130	0.0124588
789.208	0.0125797
789.286	0.0123501
789.364	0.0123708
789.443	0.0123270
789.521	0.0123338
789.599	0.0122641
789.677	0.0121710
789.755	0.0120881
789.833	0.0122342
789.911	0.0120316
789.989	0.0122248
790.068	0.0121067
790.146	0.0121048
790.224	0.0120723
790.302	0.0119845
790.380	0.0122137
790.458	0.0121352
790.536	0.0122203
790.614	0.0121710
790.693	0.0120554
790.771	0.0122336
790.849	0.0122446
790.927	0.0123389
791.005	0.0122009
791.083	0.0122159
791.161	0.0123671
791.239	0.0122380
791.318	0.0123854
791.396	0.0124977
791.474	0.0123086
791.552	0.0123891
791.630	0.0126405
791.708	0.0127337
791.786	0.0125333
791.864	0.0125555
791.943	0.0124964
792.021	0.0127618
792.099	0.0127394
792.177	0.0126778
792.255	0.0127489
792.333	0.0129041
792.411	0.0124703
792.489	0.0124686
792.568	0.0126941
792.646	0.0126080
792.724	0.0124171
792.802	0.0125628
792.880	0.0124331
792.958	0.0126048
793.036	0.0123229
793.114	0.0122695
793.193	0.0122947
793.271	0.0123156
793.349	0.0122331
793.427	0.0122619
793.505	0.0123318
793.583	0.0122403
793.661	0.0121716
793.739	0.0121956
793.818	0.0122347
793.896	0.0122737
793.974	0.0121787
794.052	0.0121454
794.130	0.0122818
794.208	0.0123485
794.286	0.0121736
794.364	0.0121974
794.443	0.0122880
794.521	0.0122998
794.599	0.0121793
794.677	0.0122842
794.755	0.0123091
794.833	0.0122296
794.911	0.0120591
794.989	0.0120393
795.068	0.0121027
795.146	0.0118744
795.224	0.0117625
795.302	0.0117860
795.380	0.0118290
795.458	0.0117086
795.536	0.0116085
795.614	0.0117664
795.693	0.0116590
795.771	0.0118078
795.849	0.0117532
795.927	0.0117234
796.005	0.0118475
796.083	0.0119389
796.161	0.0118928
796.239	0.0118709
796.318	0.0121236
796.396	0.0121563
796.474	0.0121312
796.552	0.0123341
796.630	0.0123541
796.708	0.0123917
796.786	0.0124368
796.864	0.0126373
796.943	0.0126952
797.021	0.0126750
797.099	0.0125920
797.177	0.0127955
797.255	0.0129427
797.333	0.0127911
797.411	0.0128738
797.489	0.0128477
797.568	0.0129699
797.646	0.0128319
797.724	0.0127233
797.802	0.0127308
797.880	0.0127480
797.958	0.0128032
798.036	0.0127702
798.114	0.0126778
798.193	0.0126943
798.271	0.0126334
798.349	0.0126360
798.427	0.0126395
798.505	0.0124242
798.583	0.0125811
798.661	0.0125707
798.739	0.0124013
798.818	0.0124483
798.896	0.0123885
798.974	0.0123114
799.052	0.0123537
799.130	0.0124238
799.208	0.0124266
799.286	0.0123216
799.364	0.0123946
799.443	0.0123920
799.521	0.0122219
799.599	0.0123000
799.677	0.0123178
799.755	0.0122300
799.833	0.0123127
799.911	0.0122970
799.989	0.0122878
800.068	0.0121808
800.146	0.0122177
800.224	0.0122786
800.302	0.0121802
800.380	0.0121651
800.458	0.0121249
800.536	0.0122871
800.614	0.0122166
800.693	0.0122072
800.771	0.0124293
800.849	0.0123509
800.927	0.0123424
801.005	0.0123436
801.083	0.0122879
801.161	0.0123382
801.239	0.0124007
801.318	0.0123660
801.396	0.0124040
801.474	0.0123727
801.552	0.0124597
801.630	0.0121867
801.708	0.0122586
801.786	0.0123163
801.864	0.0124252
801.943	0.0123769
802.021	0.0123489
802.099	0.0123172
802.177	0.0122254
802.255	0.0122792
802.333	0.0121422
802.411	0.0122463
802.489	0.0123620
802.568	0.0123795
802.646	0.0123430
802.724	0.0123381
802.802	0.0124345
802.880	0.0123944
802.958	0.0122565
803.036	0.0122893
803.114	0.0124393
803.193	0.0123886
803.271	0.0123101
803.349	0.0123369
803.427	0.0123933
803.505	0.0122582
803.583	0.0123168
803.661	0.0122789
803.739	0.0121579
803.818	0.0121510
803.896	0.0122774
803.974	0.0122237
804.052	0.0122672
804.130	0.0123022
804.208	0.0122655
804.286	0.0122708
804.364	0.0122477
804.443	0.0123917
804.521	0.0122253
804.599	0.0123577
804.677	0.0124056
804.755	0.0123495
804.833	0.0124215
804.911	0.0124293
804.989	0.0124520
805.068	0.0124734
805.146	0.0125264
805.224	0.0125323
805.302	0.0125081
805.380	0.0124841
805.458	0.0123943
805.536	0.0126493
805.614	0.0125517
805.693	0.0124956
805.771	0.0122913
805.849	0.0125281
805.927	0.0123936
806.005	0.0123077
806.083	0.0123072
806.161	0.0124682
806.239	0.0122359
806.318	0.0123099
806.396	0.0123153
806.474	0.0123607
806.552	0.0122665
806.630	0.0120799
806.708	0.0122520
806.786	0.0122554
806.864	0.0119698
806.943	0.0121988
807.021	0.0121173
807.099	0.0121040
807.177	0.0121404
807.255	0.0123711
807.333	0.0123540
807.411	0.0122114
807.489	0.0122912
807.568	0.0123048
807.646	0.0124505
807.724	0.0123814
807.802	0.0124940
807.880	0.0124362
807.958	0.0124261
808.036	0.0123947
808.114	0.0123993
808.193	0.0125253
808.271	0.0123714
808.349	0.0125928
808.427	0.0125208
808.505	0.0123785
808.583	0.0125436
808.661	0.0124830
808.739	0.0125056
808.818	0.0125062
808.896	0.0125027
808.974	0.0124195
809.052	0.0123682
809.130	0.0123302
809.208	0.0124889
809.286	0.0125262
809.364	0.0124111
809.443	0.0126458
809.521	0.0125842
809.599	0.0124839
809.677	0.0125086
809.755	0.0123871
809.833	0.0124735
809.911	0.0124358
809.989	0.0124287
810.068	0.0125679
810.146	0.0124573
810.224	0.0123642
810.302	0.0123447
810.380	0.0122869
810.458	0.0122845
810.536	0.0121677
810.614	0.0121442
810.693	0.0121166
810.771	0.0122020
810.849	0.0121032
810.927	0.0121181
811.005	0.0123216
811.083	0.0120037
811.161	0.0120515
811.239	0.0121925
811.318	0.0123319
811.396	0.0123051
811.474	0.0123172
811.552	0.0123724
811.630	0.0123224
811.708	0.0122792
811.786	0.0123754
811.864	0.0124640
811.943	0.0124190
812.021	0.0124181
812.099	0.0125053
812.177	0.0123571
812.255	0.0125095
812.333	0.0123847
812.411	0.0125748
812.489	0.0124413
812.568	0.0124202
812.646	0.0125443
812.724	0.0124211
812.802	0.0123965
812.880	0.0123988
812.958	0.0124335
813.036	0.0123050
813.114	0.0124329
813.193	0.0124328
813.271	0.0125369
813.349	0.0123067
813.427	0.0123901
813.505	0.0125117
813.583	0.0123931
813.661	0.0124183
813.739	0.0123679
813.818	0.0125455
813.896	0.0124408
813.974	0.0122812
814.052	0.0125871
814.130	0.0123663
814.208	0.0124496
814.286	0.0122964
814.364	0.0123196
814.443	0.0123569
814.521	0.0122242
814.599	0.0122565
814.677	0.0121125
814.755	0.0119846
814.833	0.0121017
814.911	0.0121633
814.989	0.0120287
815.068	0.0119289
815.146	0.0121149
815.224	0.0120958
815.302	0.0120282
815.380	0.0121515
815.458	0.0121008
815.536	0.0120771
815.614	0.0121340
815.693	0.0121488
815.771	0.0121488
815.849	0.0122817
815.927	0.0121893
816.005	0.0120466
816.083	0.0120148
816.161	0.0122404
816.239	0.0122877
816.318	0.0121664
816.396	0.0120943
816.474	0.0123197
816.552	0.0123064
816.630	0.0122184
816.708	0.0122377
816.786	0.0122998
816.864	0.0123289
816.943	0.0123409
817.021	0.0122150
817.099	0.0123199
817.177	0.0124023
817.255	0.0124715
817.333	0.0124020
817.411	0.0124276
817.489	0.0124079
817.568	0.0124712
817.646	0.0125280
817.724	0.0125331
817.802	0.0126864
817.880	0.0126214
817.958	0.0125452
818.036	0.0126646
818.114	0.0126875
818.193	0.0126068
818.271	0.0125857
818.349	0.0127289
818.427	0.0127136
818.505	0.0125530
818.583	0.0125578
818.661	0.0125958
818.739	0.0124805
818.818	0.0124673
818.896	0.0126760
818.974	0.0124910
819.052	0.0124981
819.130	0.0125603
819.208	0.0123357
819.286	0.0122695
819.364	0.0122034
819.443	0.0121837
819.521	0.0121943
819.599	0.0121934
819.677	0.0122121
819.755	0.0120987
819.833	0.0121991
819.911	0.0121835
819.989	0.0121087
820.068	0.0120004
820.146	0.0120356
820.224	0.0120803
820.302	0.0119252
820.380	0.0120470
820.458	0.0121027
820.536	0.0121057
820.614	0.0118954
820.693	0.0121132
820.771	0.0120440
820.849	0.0120639
820.927	0.0121172
821.005	0.0121171
821.083	0.0121626
821.161	0.0122060
821.239	0.0122485
821.318	0.0123422
821.396	0.0121279
821.474	0.0122373
821.552	0.0122789
821.630	0.0121718
821.708	0.0123719
821.786	0.0123511
821.864	0.0123073
821.943	0.0124686
822.021	0.0123807
822.099	0.0123684
822.177	0.0122617
822.255	0.0122901
822.333	0.0123417
822.411	0.0123489
822.489	0.0123638
822.568	0.0123763
822.646	0.0124506
822.724	0.0124335
822.802	0.0125672
822.880	0.0124261
822.958	0.0123087
823.036	0.0123775
823.114	0.0124467
823.193	0.0124521
823.271	0.0124858
823.349	0.0125071
823.427	0.0124393
823.505	0.0125120
823.583	0.0126389
823.661	0.0124125
823.739	0.0123991
823.818	0.0124308
823.896	0.0125166
823.974	0.0124171
824.052	0.0124191
824.130	0.0123770
824.208	0.0124182
824.286	0.0124872
824.364	0.0123380
824.443	0.0122627
824.521	0.0122906
824.599	0.0123481
824.677	0.0121284
824.755	0.0121380
824.833	0.0122330
824.911	0.0122682
824.989	0.0122081
825.068	0.0120869
825.146	0.0122115
825.224	0.0120323
825.302	0.0121849
825.380	0.0121307
825.458	0.0119189
825.536	0.0119978
825.614	0.0119729
825.693	0.0117870
825.771	0.0120669
825.849	0.0119390
825.927	0.0120103
826.005	0.0120402
826.083	0.0120908
826.161	0.0120950
826.239	0.0123077
826.318	0.0120657
826.396	0.0119691
826.474	0.0121926
826.552	0.0122112
826.630	0.0122034
826.708	0.0123553
826.786	0.0123799
826.864	0.0123991
826.943	0.0123109
827.021	0.0124255
827.099	0.0124229
827.177	0.0124802
827.255	0.0124991
827.333	0.0125589
827.411	0.0125636
827.489	0.0125780
827.568	0.0125497
827.646	0.0125210
827.724	0.0126591
827.802	0.0128044
827.880	0.0126822
827.958	0.0127106
828.036	0.0126093
828.114	0.0126023
828.193	0.0125692
828.271	0.0125953
828.349	0.0125272
828.427	0.0125658
828.505	0.0126217
828.583	0.0124910
828.661	0.0125658
828.739	0.0124992
828.818	0.0125810
828.896	0.0125579
828.974	0.0123078
829.052	0.0122532
829.130	0.0121767
829.208	0.0122287
829.286	0.0123219
829.364	0.0121829
829.443	0.0122079
829.521	0.0122253
829.599	0.0121360
829.677	0.0120502
829.755	0.0121893
829.833	0.0120401
829.911	0.0120463
829.989	0.0120125
830.068	0.0121141
830.146	0.0120714
830.224	0.0121120
830.302	0.0120170
830.380	0.0120953
830.458	0.0121398
830.536	0.0120734
830.614	0.0120776
830.693	0.0120858
830.771	0.0121579
830.849	0.0120958
830.927	0.0121249
831.005	0.0122388
831.083	0.0122830
831.161	0.0122035
831.239	0.0122875
831.318	0.0123965
831.396	0.0122874
831.474	0.0123326
831.552	0.0123586
831.630	0.0124208
831.708	0.0125306
831.786	0.0124367
831.864	0.0126227
831.943	0.0125748
832.021	0.0126253
832.099	0.0127014
832.177	0.0125714
832.255	0.0127338
832.333	0.0127313
832.411	0.0125906
832.489	0.0125926
832.568	0.0127929
832.646	0.0127349
832.724	0.0128287
832.802	0.0126768
832.880	0.0125912
832.958	0.0126498
833.036	0.0125750
833.114	0.0126186
833.193	0.0125010
833.271	0.0125397
833.349	0.0125840
833.427	0.0124940
833.505	0.0124334
833.583	0.0123983
833.661	0.0123828
833.739	0.0124078
833.818	0.0122467
833.896	0.0123468
833.974	0.0124026
834.052	0.0121721
834.130	0.0123433
834.208	0.0122921
834.286	0.0122900
834.364	0.0122904
834.443	0.0122243
834.521	0.0121867
834.599	0.0120482
834.677	0.0121474
834.755	0.0119389
834.833	0.0121341
834.911	0.0121614
834.989	0.0121561
835.068	0.0120551
835.146	0.0120093
835.224	0.0121485
835.302	0.0119702
835.380	0.0119084
835.458	0.0119744
835.536	0.0120216
835.614	0.0119761
835.693	0.0119950
835.771	0.0120812
835.849	0.0120473
835.927	0.0119949
836.005	0.0120513
836.083	0.0121964
836.161	0.0121663
836.239	0.0122396
836.318	0.0122133
836.396	0.0122916
836.474	0.0123499
836.552	0.0122467
836.630	0.0122126
836.708	0.0125393
836.786	0.0123919
836.864	0.0126258
836.943	0.0125809
837.021	0.0126669
837.099	0.0126981
837.177	0.0127195
837.255	0.0126926
837.333	0.0126731
837.411	0.0126698
837.489	0.0126579
837.568	0.0127596
837.646	0.0129779
837.724	0.0127174
837.802	0.0127134
837.880	0.0126760
837.958	0.0125653
838.036	0.0127750
838.114	0.0126934
838.193	0.0126418
838.271	0.0126273
838.349	0.0126189
838.427	0.0126756
838.505	0.0125598
838.583	0.0126268
838.661	0.0124879
838.739	0.0123421
838.818	0.0123494
838.896	0.0123603
838.974	0.0123573
839.052	0.0123860
839.130	0.0122483
839.208	0.0122633
839.286	0.0123896
839.364	0.0121764
839.443	0.0122836
839.521	0.0122880
839.599	0.0120732
839.677	0.0122672
839.755	0.0120576
839.833	0.0120761
839.911	0.0121009
839.989	0.0122252
840.068	0.0121090
840.146	0.0121055
840.224	0.0122324
840.302	0.0122099
840.380	0.0121153
840.458	0.0121434
840.536	0.0121619
840.614	0.0122168
840.693	0.0122063
840.771	0.0121967
840.849	0.0122785
840.927	0.0122233
841.005	0.0122673
841.083	0.0121420
841.161	0.0122798
841.239	0.0122910
841.318	0.0121213
841.396	0.0123224
841.474	0.0124342
841.552	0.0123187
841.630	0.0122936
841.708	0.0123190
841.786	0.0123551
841.864	0.0123669
841.943	0.0123966
842.021	0.0122803
842.099	0.0124146
842.177	0.0123532
842.255	0.0124396
842.333	0.0123348
842.411	0.0123737
842.489	0.0122423
842.568	0.0123409
842.646	0.0124085
842.724	0.0124477
842.802	0.0123824
842.880	0.0124306
842.958	0.0123583
843.036	0.0122369
843.114	0.0123772
843.193	0.0124343
843.271	0.0122926
843.349	0.0123549
843.427	0.0123906
843.505	0.0123490
843.583	0.0123249
843.661	0.0123867
843.739	0.0122530
843.818	0.0121809
843.896	0.0123485
843.974	0.0123672
844.052	0.0122910
844.130	0.0122761
844.208	0.0122279
844.286	0.0123535
844.364	0.0123277
844.443	0.0122668
844.521	0.0122957
844.599	0.0123896
844.677	0.0122297
844.755	0.0122128
844.833	0.0122644
844.911	0.0122445
844.989	0.0122333
845.068	0.0123093
845.146	0.0124226
845.224	0.0124664
845.302	0.0123952
845.380	0.0122591
845.458	0.0124340
845.536	0.0124821
845.614	0.0124046
845.693	0.0123436
845.771	0.0124276
845.849	0.0123943
845.927	0.0123594
846.005	0.0125438
846.083	0.0124981
846.161	0.0123924
846.239	0.0124250
846.318	0.0125466
846.396	0.0124945
846.474	0.0124133
846.552	0.0123589
846.630	0.0123362
846.708	0.0125397
846.786	0.0123395
846.864	0.0123967
846.943	0.0122690
847.021	0.0123096
847.099	0.0121379
847.177	0.0121389
847.255	0.0122000
847.333	0.0122272
847.411	0.0121719
847.489	0.0120409
847.568	0.0121323
847.646	0.0120397
847.724	0.0122239
847.802	0.0121943
847.880	0.0120092
847.958	0.0120001
848.036	0.0121053
848.114	0.0121837
848.193	0.0121591
848.271	0.0121140
848.349	0.0122549
848.427	0.0121156
848.505	0.0121638
848.583	0.0122041
848.661	0.0122221
848.739	0.0122754
848.818	0.0122711
848.896	0.0122965
848.974	0.0122431
849.052	0.0121272
849.130	0.0123428
849.208	0.0122965
849.286	0.0122919
849.364	0.0122919
849.443	0.0124518
849.521	0.0123689
849.599	0.0125751
849.677	0.0124753
849.755	0.0125894
849.833	0.0124664
849.911	0.0125254
849.989	0.0125645
850.068	0.0127273
850.146	0.0126392
850.224	0.0126719
850.302	0.0127569
850.380	0.0125300
850.458	0.0126277
850.536	0.0126596
850.614	0.0127633
850.693	0.0126852
850.771	0.0125359
850.849	0.0124538
850.927	0.0127022
851.005	0.0126254
851.083	0.0125976
851.161	0.0124099
851.239	0.0123896
851.318	0.0124676
851.396	0.0125445
851.474	0.0123856
851.552	0.0124267
851.630	0.0123134
851.708	0.0125466
851.786	0.0124602
851.864	0.0123750
851.943	0.0124020
852.021	0.0123205
852.099	0.0123504
852.177	0.0123136
852.255	0.0124757
852.333	0.0123444
852.411	0.0122991
852.489	0.0123102
852.568	0.0123010
852.646	0.0123631
852.724	0.0123923
852.802	0.0123693
852.880	0.0123775
852.958	0.0123041
853.036	0.0123082
853.114	0.0122858
853.193	0.0122930
853.271	0.0123611
853.349	0.0122470
853.427	0.0121149
853.505	0.0122070
853.583	0.0122039
853.661	0.0120818
853.739	0.0122564
853.818	0.0122243
853.896	0.0121922
853.974	0.0122344
854.052	0.0121886
854.130	0.0122059
854.208	0.0122140
854.286	0.0121853
854.364	0.0122476
854.443	0.0123318
854.521	0.0125281
854.599	0.0122906
854.677	0.0122729
854.755	0.0124072
854.833	0.0123954
854.911	0.0124260
854.989	0.0124139
855.068	0.0123298
855.146	0.0125426
855.224	0.0124905
855.302	0.0125146
855.380	0.0124195
855.458	0.0125725
855.536	0.0123198
855.614	0.0123836
855.693	0.0123794
855.771	0.0122619
855.849	0.0123318
855.927	0.0123793
856.005	0.0124137
856.083	0.0123061
856.161	0.0123719
856.239	0.0122949
856.318	0.0122965
856.396	0.0122235
856.474	0.0124206
856.552	0.0122813
856.630	0.0122766
856.708	0.0122710
856.786	0.0123659
856.864	0.0123109
856.943	0.0122968
857.021	0.0124139
857.099	0.0122545
857.177	0.0123746
857.255	0.0124178
857.333	0.0124972
857.411	0.0125059
857.489	0.0124124
857.568	0.0124442
857.646	0.0123903
857.724	0.0124509
857.802	0.0124667
857.880	0.0125594
857.958	0.0124152
858.036	0.0124395
858.114	0.0123762
858.193	0.0125000
858.271	0.0123471
858.349	0.0125505
858.427	0.0122927
858.505	0.0123992
858.583	0.0125414
858.661	0.0124262
858.739	0.0124900
858.818	0.0124079
858.896	0.0122905
858.974	0.0125195
859.052	0.0125079
859.130	0.0125069
859.208	0.0125014
859.286	0.0123981
859.364	0.0125250
859.443	0.0124986
859.521	0.0126054
859.599	0.0124671
859.677	0.0124578
859.755	0.0124032
859.833	0.0123122
859.911	0.0122352
859.989	0.0122905
860.068	0.0122823
860.146	0.0123406
860.224	0.0123689
860.302	0.0122055
860.380	0.0121615
860.458	0.0120098
860.536	0.0121378
860.614	0.0120586
860.693	0.0121927
860.771	0.0121725
860.849	0.0121335
860.927	0.0120574
861.005	0.0120029
861.083	0.0121383
861.161	0.0120898
861.239	0.0119662
861.318	0.0122572
861.396	0.0122308
861.474	0.0123009
861.552	0.0123930
861.630	0.0124178
861.708	0.0124946
861.786	0.0123100
861.864	0.0123302
861.943	0.0125634
862.021	0.0125895
862.099	0.0124696
862.177	0.0125039
862.255	0.0127160
862.333	0.0126692
862.411	0.0125875
862.489	0.0126390
862.568	0.0125356
862.646	0.0126070
862.724	0.0127773
862.802	0.0127325
862.880	0.0127194
862.958	0.0127806
863.036	0.0126564
863.114	0.0127177
863.193	0.0126728
863.271	0.0126190
863.349	0.0127013
863.427	0.0125557
863.505	0.0126376
863.583	0.0127274
863.661	0.0125736
863.739	0.0124641
863.818	0.0126335
863.896	0.0124874
863.974	0.0124607
864.052	0.0124245
864.130	0.0124142
864.208	0.0124226
864.286	0.0122508
864.364	0.0124348
864.443	0.0122707
864.521	0.0123717
864.599	0.0123515
864.677	0.0122357
864.755	0.0122592
864.833	0.0122845
864.911	0.0123344
864.989	0.0121017
865.068	0.0121642
865.146	0.0122639
865.224	0.0122073
865.302	0.0120850
865.380	0.0122282
865.458	0.0121736
865.536	0.0121969
865.614	0.0121886
865.693	0.0121471
865.771	0.0122567
865.849	0.0120211
865.927	0.0122018
866.005	0.0122222
866.083	0.0121531
866.161	0.0121948
866.239	0.0122930
866.318	0.0121124
866.396	0.0121384
866.474	0.0122573
866.552	0.0121391
866.630	0.0122583
866.708	0.0123757
866.786	0.0122797
866.864	0.0122238
866.943	0.0121843
867.021	0.0123215
867.099	0.0123550
867.177	0.0123380
867.255	0.0123882
867.333	0.0125471
867.411	0.0124934
867.489	0.0124513
867.568	0.0125456
867.646	0.0125710
867.724	0.0125636
867.802	0.0125780
867.880	0.0125800
867.958	0.0124071
868.036	0.0124310
868.114	0.0126690
868.193	0.0125950
868.271	0.0125446
868.349	0.0126398
868.427	0.0125937
868.505	0.0126312
868.583	0.0126679
868.661	0.0126556
868.739	0.0125512
868.818	0.0126421
868.896	0.0128418
868.974	0.0125902
869.052	0.0124859
869.130	0.0126143
869.208	0.0126423
869.286	0.0126081
869.364	0.0124892
869.443	0.0126604
869.521	0.0124394
869.599	0.0125423
869.677	0.0125103
869.755	0.0125177
869.833	0.0124411
869.911	0.0125088
869.989	0.0124047
870.068	0.0123781
870.146	0.0123170
870.224	0.0123836
870.302	0.0123947
870.380	0.0123814
870.458	0.0123538
870.536	0.0122948
870.614	0.0123512
870.693	0.0123436
870.771	0.0122749
870.849	0.0122675
870.927	0.0122211
871.005	0.0122546
871.083	0.0122685
871.161	0.0123553
871.239	0.0122115
871.318	0.0121864
871.396	0.0122670
871.474	0.0121339
871.552	0.0122536
871.630	0.0122144
871.708	0.0121829
871.786	0.0122484
871.864	0.0121486
871.943	0.0121925
872.021	0.0123232
872.099	0.0121686
872.177	0.0120907
872.255	0.0121217
872.333	0.0120651
872.411	0.0121268
872.489	0.0121909
872.568	0.0121859
872.646	0.0121461
872.724	0.0122292
872.802	0.0121299
872.880	0.0122336
872.958	0.0121404
873.036	0.0122446
873.114	0.0124196
873.193	0.0123036
873.271	0.0122514
873.349	0.0123552
873.427	0.0123044
873.505	0.0124838
873.583	0.0125050
873.661	0.0124213
873.739	0.0125020
873.818	0.0124288
873.896	0.0123838
873.974	0.0124223
874.052	0.0124857
874.130	0.0125898
874.208	0.0125740
874.286	0.0125627
874.364	0.0125622
874.443	0.0125128
874.521	0.0126276
874.599	0.0125543
874.677	0.0125901
874.755	0.0126965
874.833	0.0125778
874.911	0.0126459
874.989	0.0127893
875.068	0.0126969
875.146	0.0126479
875.224	0.0125816
875.302	0.0126534
875.380	0.0125336
875.458	0.0125061
875.536	0.0125344
875.614	0.0125222
875.693	0.0125967
875.771	0.0124993
875.849	0.0124859
875.927	0.0124870
876.005	0.0122751
876.083	0.0124066
876.161	0.0124275
876.239	0.0122918
876.318	0.0123749
876.396	0.0122492
876.474	0.0121620
876.552	0.0121190
876.630	0.0122949
876.708	0.0122633
876.786	0.0123370
876.864	0.0121670
876.943	0.0122188
877.021	0.0122367
877.099	0.0122809
877.177	0.0121545
877.255	0.0120992
877.333	0.0122253
877.411	0.0121730
877.489	0.0119987
877.568	0.0120309
877.646	0.0119797
877.724	0.0119469
877.802	0.0119749
877.880	0.0119239
877.958	0.0120222
878.036	0.0121345
878.114	0.0120163
878.193	0.0121787
878.271	0.0121020
878.349	0.0121497
878.427	0.0123185
878.505	0.0120886
878.583	0.0122781
878.661	0.0123186
878.739	0.0122776
878.818	0.0123705
878.896	0.0121740
878.974	0.0124647
879.052	0.0124407
879.130	0.0122820
879.208	0.0123241
879.286	0.0123700
879.364	0.0123005
879.443	0.0123737
879.521	0.0123898
879.599	0.0122964
879.677	0.0123547
879.755	0.0123188
879.833	0.0123710
879.911	0.0125514
879.989	0.0124419
880.068	0.0125095
880.146	0.0125035
880.224	0.0126538
880.302	0.0125275
880.380	0.0126937
880.458	0.0126308
880.536	0.0127033
880.614	0.0125847
880.693	0.0126882
880.771	0.0127388
880.849	0.0127694
880.927	0.0126819
881.005	0.0125396
881.083	0.0126660
881.161	0.0125609
881.239	0.0126257
881.318	0.0125978
881.396	0.0124237
881.474	0.0124014
881.552	0.0124511
881.630	0.0123466
881.708	0.0122368
881.786	0.0124149
881.864	0.0122423
881.943	0.0122272
882.021	0.0121970
882.099	0.0122485
882.177	0.0123319
882.255	0.0121790
882.333	0.0121239
882.411	0.0122691
882.489	0.0121616
882.568	0.0122842
882.646	0.0121597
882.724	0.0122150
882.802	0.0122143
882.880	0.0122113
882.958	0.0122143
883.036	0.0123060
883.114	0.0122395
883.193	0.0120187
883.271	0.0122613
883.349	0.0122462
883.427	0.0121989
883.505	0.0122205
883.583	0.0121851
883.661	0.0120705
883.739	0.0122488
883.818	0.0120956
883.896	0.0122527
883.974	0.0122554
884.052	0.0122655
884.130	0.0123187
884.208	0.0122011
884.286	0.0122925
884.364	0.0124728
884.443	0.0122703
884.521	0.0122797
884.599	0.0122690
884.677	0.0123078
884.755	0.0123353
884.833	0.0124550
884.911	0.0124101
884.989	0.0123148
885.068	0.0122350
885.146	0.0123243
885.224	0.0125520
885.302	0.0124509
885.380	0.0124181
885.458	0.0125419
885.536	0.0122869
885.614	0.0123449
885.693	0.0124626
885.771	0.0123471
885.849	0.0125101
885.927	0.0125024
886.005	0.0125436
886.083	0.0125753
886.161	0.0125549
886.239	0.0125880
886.318	0.0123672
886.396	0.0125253
886.474	0.0125796
886.552	0.0125003
886.630	0.0126559
886.708	0.0125024
886.786	0.0126701
886.864	0.0124624
886.943	0.0124651
887.021	0.0126072
887.099	0.0124527
887.177	0.0124713
887.255	0.0124763
887.333	0.0124884
887.411	0.0122972
887.489	0.0123711
887.568	0.0122002
887.646	0.0122943
887.724	0.0122478
887.802	0.0120975
887.880	0.0121017
887.958	0.0121933
888.036	0.0121692
888.114	0.0121496
888.193	0.0122125
888.271	0.0121864
888.349	0.0121716
888.427	0.0121070
888.505	0.0122166
888.583	0.0123029
888.661	0.0123154
888.739	0.0122245
888.818	0.0122642
888.896	0.0124294
888.974	0.0123469
889.052	0.0124607
889.130	0.0123203
889.208	0.0124097
889.286	0.0122042
889.364	0.0121844
889.443	0.0122681
889.521	0.0120757
889.599	0.0121691
889.677	0.0122569
889.755	0.0122205
889.833	0.0121515
889.911	0.0122582
889.989	0.0121559
890.068	0.0121194
890.146	0.0121042
890.224	0.0121383
890.302	0.0122329
890.380	0.0122180
890.458	0.0120956
890.536	0.0121194
890.614	0.0121595
890.693	0.0120889
890.771	0.0119731
890.849	0.0123532
890.927	0.0122483
891.005	0.0122984
891.083	0.0123456
891.161	0.0122776
891.239	0.0123622
891.318	0.0122566
891.396	0.0124119
891.474	0.0123734
891.552	0.0124372
891.630	0.0125150
891.708	0.0124069
891.786	0.0123367
891.864	0.0124172
891.943	0.0124660
892.021	0.0124075
892.099	0.0126070
892.177	0.0126202
892.255	0.0124362
892.333	0.0125008
892.411	0.0125148
892.489	0.0125025
892.568	0.0124597
892.646	0.0125159
892.724	0.0125555
892.802	0.0126146
892.880	0.0124501
892.958	0.0124506
893.036	0.0125256
893.114	0.0125044
893.193	0.0125259
893.271	0.0124611
893.349	0.0123653
893.427	0.0123738
893.505	0.0124174
893.583	0.0125119
893.661	0.0124739
893.739	0.0126060
893.818	0.0125555
893.896	0.0124718
893.974	0.0125124
894.052	0.0125136
894.130	0.0123828
894.208	0.0125784
894.286	0.0124943
894.364	0.0126186
894.443	0.0126749
894.521	0.0125328
894.599	0.0125262
894.677	0.0124373
894.755	0.0124116
894.833	0.0122935
894.911	0.0123873
894.989	0.0123260
895.068	0.0124847
895.146	0.0123131
895.224	0.0123100
895.302	0.0122807
895.380	0.0122607
895.458	0.0122662
895.536	0.0122437
895.614	0.0124106
895.693	0.0123475
895.771	0.0123787
895.849	0.0123060
895.927	0.0122142
896.005	0.0121834
896.083	0.0122216
896.161	0.0123069
896.239	0.0122350
896.318	0.0122149
896.396	0.0122289
896.474	0.0122000
896.552	0.0120892
896.630	0.0122627
896.708	0.0122429
896.786	0.0122169
896.864	0.0121892
896.943	0.0121784
897.021	0.0121609
897.099	0.0121461
897.177	0.0121709
897.255	0.0123525
897.333	0.0121414
897.411	0.0120806
897.489	0.0121873
897.568	0.0121265
897.646	0.0121820
897.724	0.0122147
897.802	0.0122473
897.880	0.0122701
897.958	0.0122126
898.036	0.0121699
898.114	0.0121444
898.193	0.0121174
898.271	0.0122253
898.349	0.0122148
898.427	0.0122068
898.505	0.0122632
898.583	0.0122848
898.661	0.0121049
898.739	0.0122897
898.818	0.0122605
898.896	0.0122522
898.974	0.0121328
899.052	0.0123745
899.130	0.0123798
899.208	0.0123634
899.286	0.0124147
899.364	0.0123759
899.443	0.0124051
899.521	0.0124435
899.599	0.0124461
899.677	0.0124081
899.755	0.0124794
899.833	0.0124510
899.911	0.0123936
899.989	0.0123531
900.068	0.0124768
900.146	0.0124088
900.224	0.0125005
900.302	0.0123016
900.380	0.0123162
900.458	0.0123349
900.536	0.0122566
900.614	0.0122237
900.693	0.0123803
900.771	0.0123358
900.849	0.0121545
900.927	0.0122044
901.005	0.0122745
901.083	0.0123742
901.161	0.0122806
901.239	0.0122417
901.318	0.0122861
901.396	0.0121960
901.474	0.0124241
901.552	0.0121906
901.630	0.0122823
901.708	0.0122593
901.786	0.0125217
901.864	0.0123038
901.943	0.0121876
902.021	0.0122477
902.099	0.0123495
902.177	0.0122968
902.255	0.0123276
902.333	0.0122704
902.411	0.0123501
902.489	0.0123231
902.568	0.0122456
902.646	0.0122482
902.724	0.0122350
902.802	0.0122763
902.880	0.0123796
902.958	0.0123505
903.036	0.0121443
903.114	0.0123214
903.193	0.0124019
903.271	0.0122492
903.349	0.0124252
903.427	0.0124136
903.505	0.0123198
903.583	0.0122899
903.661	0.0123541
903.739	0.0124698
903.818	0.0124106
903.896	0.0123146
903.974	0.0122643
904.052	0.0122928
904.130	0.0122469
904.208	0.0123476
904.286	0.0123171
904.364	0.0123443
904.443	0.0124834
904.521	0.0124576
904.599	0.0123656
904.677	0.0124368
904.755	0.0125142
904.833	0.0123177
904.911	0.0125885
904.989	0.0124419
905.068	0.0124603
905.146	0.0123775
905.224	0.0123685
905.302	0.0122874
905.380	0.0124888
905.458	0.0122313
905.536	0.0122870
905.614	0.0120995
905.693	0.0123312
905.771	0.0122311
905.849	0.0121415
905.927	0.0121535
906.005	0.0122118
906.083	0.0122363
906.161	0.0123000
906.239	0.0122051
906.318	0.0122699
906.396	0.0122844
906.474	0.0122973
906.552	0.0124008
906.630	0.0124047
906.708	0.0124678
906.786	0.0123310
906.864	0.0125156
906.943	0.0124763
907.021	0.0124023
907.099	0.0124470
907.177	0.0123790
907.255	0.0124821
907.333	0.0124115
907.411	0.0125178
907.489	0.0124344
907.568	0.0124201
907.646	0.0123749
907.724	0.0123696
907.802	0.0125472
907.880	0.0123649
907.958	0.0123387
908.036	0.0123711
908.114	0.0122905
908.193	0.0123405
908.271	0.0123799
908.349	0.0122829
908.427	0.0122869
908.505	0.0122781
908.583	0.0121999
908.661	0.0122510
908.739	0.0122058
908.818	0.0122649
908.896	0.0121240
908.974	0.0122432
909.052	0.0122730
909.130	0.0122269
909.208	0.0121651
909.286	0.0122123
909.364	0.0121785
909.443	0.0122260
909.521	0.0121789
909.599	0.0122421
909.677	0.0122175
909.755	0.0123318
909.833	0.0122982
909.911	0.0124539
909.989	0.0122910
910.068	0.0122688
910.146	0.0124357
910.224	0.0123058
910.302	0.0123973
910.380	0.0123282
910.458	0.0123182
910.536	0.0124196
910.614	0.0124053
910.693	0.0122456
910.771	0.0123251
910.849	0.0123480
910.927	0.0123555
911.005	0.0123055
911.083	0.0121774
911.161	0.0122385
911.239	0.0122331
911.318	0.0121645
911.396	0.0123038
911.474	0.0121626
911.552	0.0122864
911.630	0.0122414
911.708	0.0121775
911.786	0.0122691
911.864	0.0124454
911.943	0.0123595
912.021	0.0123875
912.099	0.0124389
912.177	0.0122298
912.255	0.0124311
912.333	0.0124714
912.411	0.0124519
912.489	0.0125916
912.568	0.0123728
912.646	0.0124300
912.724	0.0124165
912.802	0.0124155
912.880	0.0124621
912.958	0.0125054
913.036	0.0124742
913.114	0.0124953
913.193	0.0126570
913.271	0.0125807
913.349	0.0124430
913.427	0.0125350
913.505	0.0124894
913.583	0.0125076
913.661	0.0124823
913.739	0.0125964
913.818	0.0123904
913.896	0.0124300
913.974	0.0124818
914.052	0.0124134
914.130	0.0124625
914.208	0.0124436
914.286	0.0124216
914.364	0.0123530
914.443	0.0124860
914.521	0.0124184
914.599	0.0123252
914.677	0.0124097
914.755	0.0124158
914.833	0.0123396
914.911	0.0124237
914.989	0.0124615
915.068	0.0125147
915.146	0.0122958
915.224	0.0124042
915.302	0.0125610
915.380	0.0123862
915.458	0.0123685
915.536	0.0124821
915.614	0.0124229
915.693	0.0124843
915.771	0.0125888
915.849	0.0124789
915.927	0.0124245
916.005	0.0126785
916.083	0.0126034
916.161	0.0124192
916.239	0.0124239
916.318	0.0124763
916.396	0.0124830
916.474	0.0124237
916.552	0.0124681
916.630	0.0124079
916.708	0.0124030
916.786	0.0124506
916.864	0.0124512
916.943	0.0124900
917.021	0.0125008
917.099	0.0125090
917.177	0.0123730
917.255	0.0124663
917.333	0.0124124
917.411	0.0122464
917.489	0.0123782
917.568	0.0122205
917.646	0.0122320
917.724	0.0123895
917.802	0.0123312
917.880	0.0121593
917.958	0.0122489
918.036	0.0123309
918.114	0.0122176
918.193	0.0122931
918.271	0.0122146
918.349	0.0123422
918.427	0.0124847
918.505	0.0123151
918.583	0.0124277
918.661	0.0124247
918.739	0.0123329
918.818	0.0123716
918.896	0.0124237
918.974	0.0123793
919.052	0.0124855
919.130	0.0124002
919.208	0.0125217
919.286	0.0125333
919.364	0.0125546
919.443	0.0124822
919.521	0.0124340
919.599	0.0124272
919.677	0.0124043
919.755	0.0125126
919.833	0.0123429
919.911	0.0123937
919.989	0.0123289
920.068	0.0124025
920.146	0.0124413
920.224	0.0123891
920.302	0.0124178
920.380	0.0124128
920.458	0.0123798
920.536	0.0124242
920.614	0.0125508
920.693	0.0124484
920.771	0.0123473
920.849	0.0123099
920.927	0.0124364
921.005	0.0123907
921.083	0.0123096
921.161	0.0124306
921.239	0.0123208
921.318	0.0123669
921.396	0.0122984
921.474	0.0123354
921.552	0.0124089
921.630	0.0124730
921.708	0.0122237
921.786	0.0123398
921.864	0.0122432
921.943	0.0122763
922.021	0.0121534
922.099	0.0121196
922.177	0.0122114
922.255	0.0120657
922.333	0.0122380
922.411	0.0122907
922.489	0.0121777
922.568	0.0121901
922.646	0.0121043
922.724	0.0120699
922.802	0.0120384
922.880	0.0121058
922.958	0.0121595
923.036	0.0123341
923.114	0.0122107
923.193	0.0123059
923.271	0.0123608
923.349	0.0123036
923.427	0.0122837
923.505	0.0123344
923.583	0.0123402
923.661	0.0123772
923.739	0.0124459
923.818	0.0122558
923.896	0.0124138
923.974	0.0123412
924.052	0.0124167
924.130	0.0123986
924.208	0.0121474
924.286	0.0121857
924.364	0.0122952
924.443	0.0122950
924.521	0.0122047
924.599	0.0122849
924.677	0.0123859
924.755	0.0123949
924.833	0.0123679
924.911	0.0122903
924.989	0.0124887
925.068	0.0123228
925.146	0.0123370
925.224	0.0125194
925.302	0.0124688
925.380	0.0125257
925.458	0.0124725
925.536	0.0122515
925.614	0.0123472
925.693	0.0125043
925.771	0.0124383
925.849	0.0122564
925.927	0.0124142
926.005	0.0123219
926.083	0.0124500
926.161	0.0123863
926.239	0.0122724
926.318	0.0124026
926.396	0.0123941
926.474	0.0123267
926.552	0.0123644
926.630	0.0122471
926.708	0.0124566
926.786	0.0124261
926.864	0.0123909
926.943	0.0123668
927.021	0.0123117
927.099	0.0124207
927.177	0.0124556
927.255	0.0124109
927.333	0.0124549
927.411	0.0124478
927.489	0.0123678
927.568	0.0124574
927.646	0.0123995
927.724	0.0124443
927.802	0.0124362
927.880	0.0122850
927.958	0.0123489
928.036	0.0124497
928.114	0.0124211
928.193	0.0122923
928.271	0.0123151
928.349	0.0123640
928.427	0.0122442
928.505	0.0122878
928.583	0.0123817
928.661	0.0122975
928.739	0.0122022
928.818	0.0123354
928.896	0.0122505
928.974	0.0122741
929.052	0.0123141
929.130	0.0123641
929.208	0.0122765
929.286	0.0123256
929.364	0.0124327
929.443	0.0125041
929.521	0.0124329
929.599	0.0124950
929.677	0.0124517
929.755	0.0124651
929.833	0.0124379
929.911	0.0124097
929.989	0.0123251
930.068	0.0124507
930.146	0.0124828
930.224	0.0125394
930.302	0.0124856
930.380	0.0124814
930.458	0.0124907
930.536	0.0125249
930.614	0.0124264
930.693	0.0124074
930.771	0.0123025
930.849	0.0124079
930.927	0.0124986
931.005	0.0124086
931.083	0.0124271
931.161	0.0124857
931.239	0.0123840
931.318	0.0124272
931.396	0.0124843
931.474	0.0123902
931.552	0.0125272
931.630	0.0125967
931.708	0.0125941
931.786	0.0124867
931.864	0.0123907
931.943	0.0123222
932.021	0.0124532
932.099	0.0123097
932.177	0.0124467
932.255	0.0126145
932.333	0.0124146
932.411	0.0124511
932.489	0.0122591
932.568	0.0123661
932.646	0.0124653
932.724	0.0123391
932.802	0.0123605
932.880	0.0123872
932.958	0.0122247
933.036	0.0123738
933.114	0.0122959
933.193	0.0123314
933.271	0.0124775
933.349	0.0125007
933.427	0.0123666
933.505	0.0124912
933.583	0.0124049
933.661	0.0124036
933.739	0.0123813
933.818	0.0122987
933.896	0.0122924
933.974	0.0123997
934.052	0.0123627
934.130	0.0124170
934.208	0.0122501
934.286	0.0124281
934.364	0.0124219
934.443	0.0123795
934.521	0.0123495
934.599	0.0123269
934.677	0.0124608
934.755	0.0124412
934.833	0.0123807
934.911	0.0123556
934.989	0.0124938
935.068	0.0126233
935.146	0.0124313
935.224	0.0124325
935.302	0.0124819
935.380	0.0124821
935.458	0.0124658
935.536	0.0125002
935.614	0.0125779
935.693	0.0123937
935.771	0.0123272
935.849	0.0124644
935.927	0.0125951
936.005	0.0123639
936.083	0.0125412
936.161	0.0125224
936.239	0.0122803
936.318	0.0123572
936.396	0.0124783
936.474	0.0124254
936.552	0.0122781
936.630	0.0125027
936.708	0.0124368
936.786	0.0122060
936.864	0.0123137
936.943	0.0123195
937.021	0.0123573
937.099	0.0122708
937.177	0.0122148
937.255	0.0122404
937.333	0.0122603
937.411	0.0122820
937.489	0.0122665
937.568	0.0123551
937.646	0.0123746
937.724	0.0121834
937.802	0.0121556
937.880	0.0123098
937.958	0.0121953
938.036	0.0122594
938.114	0.0122984
938.193	0.0122623
938.271	0.0122531
938.349	0.0124267
938.427	0.0124209
938.505	0.0122440
938.583	0.0124581
938.661	0.0124325
938.739	0.0124675
938.818	0.0124065
938.896	0.0124714
938.974	0.0123661
939.052	0.0123366
939.130	0.0123491
939.208	0.0123206
939.286	0.0124751
939.364	0.0125262
939.443	0.0123205
939.521	0.0122890
939.599	0.0123358
939.677	0.0123412
939.755	0.0122492
939.833	0.0122359
939.911	0.0121854
939.989	0.0122220
940.068	0.0122790
940.146	0.0122424
940.224	0.0122932
940.302	0.0123135
940.380	0.0122313
940.458	0.0122803
940.536	0.0122497
940.614	0.0123533
940.693	0.0124203
940.771	0.0123500
940.849	0.0124657
940.927	0.0124126
941.005	0.0123643
941.083	0.0125190
941.161	0.0125559
941.239	0.0124167
941.318	0.0125059
941.396	0.0125578
941.474	0.0126083
941.552	0.0125469
941.630	0.0125721
941.708	0.0125948
941.786	0.0125998
941.864	0.0125601
941.943	0.0125831
942.021	0.0125678
942.099	0.0124902
942.177	0.0124765
942.255	0.0124432
942.333	0.0124180
942.411	0.0123689
942.489	0.0124277
942.568	0.0123639
942.646	0.0124611
942.724	0.0125507
942.802	0.0124813
942.880	0.0123962
942.958	0.0123171
943.036	0.0123678
943.114	0.0124442
943.193	0.0124248
943.271	0.0125745
943.349	0.0123805
943.427	0.0122751
943.505	0.0122626
943.583	0.0124860
943.661	0.0123807
943.739	0.0123907
943.818	0.0125014
943.896	0.0124215
943.974	0.0123088
944.052	0.0123687
944.130	0.0124628
944.208	0.0124025
944.286	0.0124267
944.364	0.0124174
944.443	0.0125209
944.521	0.0124538
944.599	0.0125336
944.677	0.0124791
944.755	0.0124060
944.833	0.0124736
944.911	0.0124306
944.989	0.0124087
945.068	0.0123029
945.146	0.0123811
945.224	0.0124831
945.302	0.0124284
945.380	0.0122524
945.458	0.0121456
945.536	0.0122883
945.614	0.0124152
945.693	0.0124552
945.771	0.0123190
945.849	0.0122675
945.927	0.0122334
946.005	0.0123208
946.083	0.0122031
946.161	0.0122752
946.239	0.0123106
946.318	0.0123542
946.396	0.0123035
946.474	0.0123526
946.552	0.0123077
946.630	0.0122597
946.708	0.0122841
946.786	0.0124743
946.864	0.0124760
946.943	0.0124812
947.021	0.0124594
947.099	0.0125056
947.177	0.0124745
947.255	0.0125225
947.333	0.0124506
947.411	0.0124899
947.489	0.0124607
947.568	0.0124336
947.646	0.0125838
947.724	0.0124971
947.802	0.0123974
947.880	0.0125699
947.958	0.0125758
948.036	0.0124900
948.114	0.0123664
948.193	0.0124790
948.271	0.0123067
948.349	0.0123831
948.427	0.0124001
948.505	0.0122813
948.583	0.0122818
948.661	0.0122008
948.739	0.0123222
948.818	0.0123854
948.896	0.0122538
948.974	0.0122775
949.052	0.0122188
949.130	0.0123367
949.208	0.0123011
949.286	0.0121243
949.364	0.0121326
949.443	0.0122349
949.521	0.0122157
949.599	0.0122424
949.677	0.0122262
949.755	0.0120993
949.833	0.0121342
949.911	0.0122858
949.989	0.0122763
950.068	0.0122662
950.146	0.0123068
950.224	0.0121548
950.302	0.0123666
950.380	0.0123710
950.458	0.0124445
950.536	0.0122986
950.614	0.0122982
950.693	0.0124261
950.771	0.0123753
950.849	0.0124978
950.927	0.0124740
951.005	0.0123090
951.083	0.0123423
951.161	0.0124631
951.239	0.0123531
951.318	0.0123071
951.396	0.0123865
951.474	0.0122249
951.552	0.0122314
951.630	0.0123418
951.708	0.0123288
951.786	0.0124226
951.864	0.0123727
951.943	0.0123717
952.021	0.0125435
952.099	0.0123994
952.177	0.0124664
952.255	0.0123880
952.333	0.0124566
952.411	0.0124879
952.489	0.0125426
952.568	0.0126027
952.646	0.0124231
952.724	0.0124376
952.802	0.0123432
952.880	0.0122621
952.958	0.0123826
953.036	0.0123885
953.114	0.0124014
953.193	0.0124216
953.271	0.0123209
953.349	0.0123775
953.427	0.0124262
953.505	0.0125053
953.583	0.0124264
953.661	0.0124160
953.739	0.0124594
953.818	0.0124686
953.896	0.0124934
953.974	0.0124121
954.052	0.0125108
954.130	0.0123974
954.208	0.0123256
954.286	0.0123930
954.364	0.0124305
954.443	0.0123690
954.521	0.0122792
954.599	0.0122723
954.677	0.0123373
954.755	0.0122405
954.833	0.0123161
954.911	0.0122995
954.989	0.0124704
955.068	0.0125285
955.146	0.0124922
955.224	0.0123076
955.302	0.0124586
955.380	0.0124960
955.458	0.0124926
955.536	0.0123321
955.614	0.0123771
955.693	0.0123448
955.771	0.0123520
955.849	0.0123043
955.927	0.0122686
956.005	0.0122651
956.083	0.0122713
956.161	0.0122370
956.239	0.0120827
956.318	0.0121104
956.396	0.0122570
956.474	0.0122697
956.552	0.0122899
956.630	0.0122799
956.708	0.0122866
956.786	0.0124200
956.864	0.0125639
956.943	0.0125050
957.021	0.0124758
957.099	0.0125150
957.177	0.0125853
957.255	0.0125765
957.333	0.0125677
957.411	0.0126126
957.489	0.0124155
957.568	0.0125198
957.646	0.0124519
957.724	0.0123315
957.802	0.0123101
957.880	0.0122480
957.958	0.0122216
958.036	0.0122816
958.114	0.0122613
958.193	0.0120645
958.271	0.0120761
958.349	0.0123225
958.427	0.0121868
958.505	0.0120437
958.583	0.0121054
958.661	0.0122224
958.739	0.0123452
958.818	0.0122888
958.896	0.0123444
958.974	0.0123598
959.052	0.0122971
959.130	0.0124396
959.208	0.0123840
959.286	0.0124038
959.364	0.0124144
959.443	0.0124371
959.521	0.0123112
959.599	0.0123669
959.677	0.0124800
959.755	0.0124549
959.833	0.0125027
959.911	0.0124004
